##NAMES=Devilline
##RRUFFID=R060126
##IDEAL CHEMISTRY=CaCu^2+^_4_(S^6+^O_4_)_2_(OH)_6_&#183;3H_2_O
##LOCALITY=Herrengrund, Hungary
##OWNER=RRUFF
##SOURCE=University of Arizona Mineral Museum
##DESCRIPTION=Greenish-blue pseudohexagonal crystals
##STATUS=The identification of this mineral has been confirmed only by single crystal X-ray diffraction.
##URL=rruff.info/R060126
90.26367, 11.34133
90.74579, 11.52987
91.22791, 11.45052
91.71002, 11.13281
92.19214, 10.83590
92.67426, 10.81193
93.15637, 10.97891
93.63850, 11.12127
94.12061, 11.15994
94.60273, 11.12966
95.08485, 11.10246
95.56696, 11.07720
96.04908, 11.06445
96.53120, 11.16748
97.01331, 11.36932
97.49543, 11.35897
97.97755, 10.80062
98.45966, 9.749771
98.94178, 9.215744
99.42390, 9.322786
99.90602, 9.778031
100.3881, 10.05642
100.8703, 10.14459
101.3524, 10.10288
101.8345, 9.891892
102.3166, 9.417509
102.7987, 9.218306
103.2808, 9.469942
103.7630, 10.02033
104.2451, 10.14885
104.7272, 9.589649
105.2093, 8.961391
105.6914, 8.674540
106.1735, 8.931277
106.6557, 9.188840
107.1378, 9.380655
107.6199, 9.506040
108.1020, 9.643905
108.5841, 9.808804
109.0662, 9.979506
109.5484, 10.13897
110.0305, 10.29504
110.5126, 10.43396
110.9947, 10.57606
111.4768, 10.74940
111.9590, 10.80187
112.4411, 10.48087
112.9232, 10.08882
113.4053, 10.02390
113.8874, 10.78262
114.3695, 11.53259
114.8517, 11.89928
115.3338, 11.63564
115.8159, 11.50815
116.2980, 11.61951
116.7801, 12.02162
117.2622, 12.81449
117.7444, 14.67846
118.2265, 16.56899
118.7086, 17.71980
119.1907, 17.50173
119.6728, 17.25070
120.1549, 17.65391
120.6371, 18.63616
121.1192, 19.89812
121.6013, 21.32465
122.0834, 22.90866
122.5655, 24.64565
123.0477, 26.64393
123.5298, 28.69873
124.0119, 30.56326
124.4940, 32.25667
124.9761, 34.05727
125.4582, 36.43507
125.9404, 39.06405
126.4225, 41.28127
126.9046, 42.45959
127.3867, 43.18128
127.8688, 44.45643
128.3509, 46.33427
128.8331, 48.28577
129.3152, 49.60608
129.7973, 50.43668
130.2794, 51.45160
130.7615, 53.02677
131.2436, 55.04310
131.7258, 57.06198
132.2079, 59.04143
132.6900, 61.09860
133.1721, 63.41698
133.6542, 65.98864
134.1364, 68.73719
134.6185, 71.74180
135.1006, 74.99995
135.5827, 78.05704
136.0648, 80.84873
136.5469, 83.48910
137.0291, 86.36559
137.5112, 89.58040
137.9933, 92.52715
138.4754, 94.82454
138.9575, 96.39092
139.4396, 97.65450
139.9218, 98.52330
140.4039, 99.12162
140.8860, 100.0292
141.3681, 101.2513
141.8502, 102.7680
142.3323, 104.6611
142.8145, 107.3355
143.2966, 109.3717
143.7787, 110.2381
144.2608, 109.9748
144.7429, 110.6156
145.2251, 112.6768
145.7072, 115.1891
146.1893, 117.2421
146.6714, 118.5697
147.1535, 119.8285
147.6356, 121.0934
148.1178, 122.3408
148.5999, 123.7137
149.0820, 125.0844
149.5641, 126.6311
150.0462, 128.5576
150.5283, 131.4701
151.0105, 134.1338
151.4926, 134.9070
151.9747, 134.4376
152.4568, 134.5733
152.9389, 136.1632
153.4210, 138.1804
153.9032, 139.2037
154.3853, 138.1186
154.8674, 136.8975
155.3495, 136.1874
155.8316, 136.2500
156.3138, 136.2768
156.7959, 136.0056
157.2780, 135.6207
157.7601, 135.4717
158.2422, 135.7765
158.7243, 136.2189
159.2065, 136.6701
159.6886, 137.2034
160.1707, 137.5763
160.6528, 137.4610
161.1349, 137.0958
161.6170, 137.1179
162.0992, 138.2739
162.5813, 139.5732
163.0634, 140.3268
163.5455, 139.9314
164.0276, 139.5872
164.5097, 139.9523
164.9919, 140.8585
165.4740, 141.6542
165.9561, 141.9988
166.4382, 142.1022
166.9203, 142.1656
167.4025, 142.3880
167.8846, 142.4440
168.3667, 142.1355
168.8488, 141.4824
169.3309, 140.5976
169.8130, 139.5335
170.2952, 138.2769
170.7773, 136.8234
171.2594, 134.9704
171.7415, 133.0585
172.2236, 131.2678
172.7057, 129.6045
173.1879, 128.2060
173.6700, 127.1981
174.1521, 126.5180
174.6342, 126.0528
175.1163, 125.8573
175.5984, 125.7963
176.0806, 125.7363
176.5627, 125.6769
177.0448, 125.5987
177.5269, 125.3638
178.0090, 125.0872
178.4911, 125.0391
178.9733, 125.4995
179.4554, 126.2070
179.9375, 126.7564
180.4196, 127.1295
180.9017, 127.4360
181.3839, 127.8133
181.8660, 128.2259
182.3481, 128.5576
182.8302, 128.5837
183.3123, 128.5065
183.7944, 128.8452
184.2766, 129.6649
184.7587, 130.6443
185.2408, 131.4111
185.7229, 131.9910
186.2050, 132.5828
186.6871, 133.2743
187.1693, 134.0564
187.6514, 134.8721
188.1335, 135.7471
188.6156, 136.5978
189.0977, 137.3351
189.5798, 137.9544
190.0620, 138.4600
190.5441, 138.6184
191.0262, 138.5583
191.5083, 139.2916
191.9904, 141.1084
192.4725, 143.2093
192.9547, 144.1035
193.4368, 143.7640
193.9189, 143.3709
194.4010, 143.6032
194.8831, 144.4219
195.3652, 145.2122
195.8474, 145.9393
196.3295, 146.6159
196.8116, 147.2498
197.2937, 147.8328
197.7758, 148.4298
198.2579, 149.0890
198.7401, 149.8120
199.2222, 150.4889
199.7043, 151.0929
200.1864, 151.6530
200.6685, 152.2603
201.1507, 152.9319
201.6328, 153.5475
202.1149, 154.0262
202.5970, 154.3579
203.0791, 154.6362
203.5612, 154.8318
204.0434, 155.0036
204.5255, 155.3397
205.0076, 155.8908
205.4897, 156.4363
205.9718, 156.8149
206.4539, 156.9868
206.9361, 157.2410
207.4182, 157.6171
207.9003, 158.0863
208.3824, 158.6231
208.8645, 159.3239
209.3466, 159.8468
209.8288, 159.9719
210.3109, 159.6460
210.7930, 159.1284
211.2751, 158.3294
211.7572, 157.3846
212.2393, 156.8033
212.7215, 156.7147
213.2036, 156.7151
213.6857, 156.5528
214.1678, 156.1850
214.6499, 155.7966
215.1321, 155.4208
215.6142, 155.0298
216.0963, 154.5038
216.5784, 153.8004
217.0605, 153.0472
217.5426, 152.3433
218.0248, 151.7592
218.5069, 151.0125
218.9890, 149.9459
219.4711, 148.6927
219.9532, 147.9048
220.4353, 147.7737
220.9175, 147.7832
221.3996, 147.6148
221.8817, 147.2222
222.3638, 146.7699
222.8459, 146.2289
223.3280, 145.6325
223.8102, 145.2092
224.2923, 145.0554
224.7744, 144.9135
225.2565, 144.5594
225.7386, 143.7237
226.2208, 143.3515
226.7029, 143.7177
227.1850, 144.6422
227.6671, 145.1442
228.1492, 144.9679
228.6313, 144.7322
229.1135, 144.8463
229.5956, 145.5600
230.0777, 146.0579
230.5598, 146.2064
231.0419, 146.0846
231.5240, 146.0848
232.0062, 146.2562
232.4883, 146.4857
232.9704, 146.6913
233.4525, 146.7870
233.9346, 147.0596
234.4167, 147.6094
234.8989, 148.3616
235.3810, 148.9599
235.8631, 149.3545
236.3452, 149.6675
236.8273, 149.9796
237.3095, 150.3436
237.7916, 150.5743
238.2737, 150.5755
238.7558, 150.4286
239.2379, 150.5185
239.7200, 151.0992
240.2022, 151.5704
240.6843, 151.5844
241.1664, 150.9055
241.6485, 150.2930
242.1306, 149.8488
242.6127, 149.4957
243.0949, 148.9445
243.5770, 148.1100
244.0591, 147.1996
244.5412, 146.3435
245.0233, 145.6387
245.5054, 144.7573
245.9876, 143.5936
246.4697, 142.2658
246.9518, 141.1120
247.4339, 140.1862
247.9160, 139.3492
248.3981, 138.5507
248.8803, 137.8008
249.3624, 137.0558
249.8445, 136.3501
250.3266, 135.6366
250.8087, 134.7943
251.2909, 133.8522
251.7730, 132.7399
252.2551, 131.3828
252.7372, 129.5576
253.2193, 128.0573
253.7014, 127.0611
254.1836, 126.3217
254.6657, 125.2447
255.1478, 123.5876
255.6299, 122.0179
256.1120, 120.8548
256.5941, 120.3285
257.0763, 119.4926
257.5584, 118.2551
258.0405, 116.7588
258.5226, 115.2592
259.0047, 113.6246
259.4868, 112.2389
259.9690, 111.3747
260.4511, 111.2533
260.9332, 110.6000
261.4153, 109.1885
261.8974, 107.4350
262.3795, 106.0849
262.8617, 105.2812
263.3438, 104.5034
263.8259, 103.5188
264.3080, 102.2645
264.7901, 101.3001
265.2722, 100.6940
265.7544, 100.2943
266.2365, 99.91658
266.7186, 99.58054
267.2007, 99.20837
267.6829, 98.77773
268.1650, 98.28068
268.6471, 97.75649
269.1292, 97.16941
269.6113, 96.59695
270.0934, 96.14169
270.5756, 95.82205
271.0577, 95.52625
271.5398, 95.17920
272.0219, 94.78674
272.5040, 94.71340
272.9861, 95.06680
273.4683, 95.50677
273.9504, 95.66674
274.4325, 95.50182
274.9146, 95.28757
275.3967, 95.04253
275.8788, 94.78879
276.3610, 94.73421
276.8431, 94.90191
277.3252, 95.19775
277.8073, 95.62751
278.2894, 96.22614
278.7715, 96.53110
279.2537, 96.32728
279.7358, 95.79104
280.2179, 95.69740
280.7000, 96.11512
281.1821, 96.67187
281.6642, 97.06933
282.1464, 97.30669
282.6285, 97.60423
283.1106, 98.03161
283.5927, 98.51292
284.0748, 98.79028
284.5569, 98.83569
285.0391, 98.93246
285.5212, 99.42895
286.0033, 100.2631
286.4854, 100.6763
286.9675, 100.4957
287.4496, 99.96735
287.9318, 99.52900
288.4139, 99.17776
288.8960, 98.91570
289.3781, 98.76517
289.8602, 98.70874
290.3424, 98.68778
290.8245, 98.73447
291.3066, 98.72291
291.7887, 98.44566
292.2708, 97.91755
292.7530, 97.26903
293.2351, 96.43384
293.7172, 95.52443
294.1993, 95.00218
294.6814, 94.95680
295.1635, 94.95280
295.6457, 94.34109
296.1278, 93.25626
296.6099, 92.27769
297.0920, 91.69801
297.5741, 91.41223
298.0562, 91.28087
298.5384, 91.31252
299.0205, 91.37133
299.5026, 91.34575
299.9847, 91.24405
300.4668, 91.08337
300.9489, 90.78936
301.4311, 90.48540
301.9132, 90.40213
302.3953, 90.52995
302.8774, 90.63521
303.3595, 90.40166
303.8416, 90.03429
304.3238, 89.90846
304.8059, 90.35488
305.2880, 90.88921
305.7701, 90.92593
306.2522, 90.54441
306.7343, 90.22660
307.2165, 90.30968
307.6986, 90.63254
308.1807, 91.00330
308.6628, 91.41245
309.1449, 91.80215
309.6270, 92.13060
310.1092, 92.40764
310.5913, 92.65601
311.0734, 92.84650
311.5555, 93.03600
312.0376, 93.28265
312.5197, 93.62458
313.0019, 93.94762
313.4840, 94.15838
313.9661, 94.30847
314.4482, 94.50545
314.9304, 94.89271
315.4125, 95.27302
315.8946, 95.47909
316.3767, 95.44024
316.8588, 95.49940
317.3409, 96.02557
317.8231, 96.67570
318.3052, 96.99627
318.7873, 96.33804
319.2694, 95.77477
319.7515, 95.86967
320.2336, 96.70724
320.7158, 97.37547
321.1979, 97.57336
321.6800, 97.50373
322.1621, 97.34727
322.6442, 96.79230
323.1263, 96.51004
323.6085, 96.80866
324.0906, 97.64380
324.5727, 98.30572
325.0548, 98.79384
325.5369, 99.00922
326.0190, 98.88992
326.5012, 97.80977
326.9833, 97.12143
327.4654, 97.15750
327.9475, 97.72831
328.4296, 98.06893
328.9117, 98.00274
329.3939, 97.86144
329.8760, 97.78301
330.3581, 97.86256
330.8402, 97.82104
331.3223, 97.56927
331.8044, 97.21812
332.2866, 96.99412
332.7687, 96.94774
333.2508, 96.95594
333.7329, 97.01482
334.2150, 97.17294
334.6971, 97.13227
335.1793, 96.84309
335.6614, 96.40295
336.1435, 95.90738
336.6256, 95.27660
337.1077, 94.81126
337.5899, 94.69015
338.0720, 94.88086
338.5541, 94.67800
339.0362, 93.96327
339.5183, 93.12453
340.0005, 92.50465
340.4826, 92.11391
340.9647, 91.84783
341.4468, 91.71516
341.9289, 91.68108
342.4110, 91.68238
342.8932, 91.74500
343.3753, 91.66607
343.8574, 91.17549
344.3395, 90.30920
344.8216, 89.75693
345.3037, 89.65547
345.7859, 89.75099
346.2680, 89.58260
346.7501, 89.16505
347.2322, 88.77901
347.7143, 88.50813
348.1964, 88.37902
348.6786, 88.56117
349.1607, 89.11699
349.6428, 89.65803
350.1249, 89.74381
350.6070, 89.45851
351.0891, 89.06041
351.5713, 88.60323
352.0534, 88.12527
352.5355, 87.62285
353.0176, 87.10934
353.4997, 86.73310
353.9818, 86.77773
354.4640, 87.00136
354.9461, 87.01817
355.4282, 86.60976
355.9103, 86.09624
356.3924, 85.74362
356.8745, 85.52330
357.3567, 85.32880
357.8388, 85.14625
358.3209, 84.93641
358.8030, 84.62176
359.2851, 84.10323
359.7672, 83.72365
360.2494, 83.85218
360.7315, 84.23354
361.2136, 84.39518
361.6957, 83.83591
362.1779, 83.27792
362.6600, 83.15073
363.1421, 83.55419
363.6242, 83.85401
364.1063, 83.64182
364.5884, 83.32016
365.0706, 83.30242
365.5527, 84.06190
366.0348, 84.72238
366.5169, 85.05930
366.9990, 85.08447
367.4811, 85.07873
367.9633, 85.01079
368.4454, 84.95740
368.9275, 84.96347
369.4096, 85.07941
369.8917, 85.18461
370.3738, 85.26670
370.8560, 85.33760
371.3381, 85.43044
371.8202, 85.56660
372.3023, 85.69820
372.7844, 85.81786
373.2665, 85.94527
373.7487, 85.96151
374.2308, 85.77433
374.7129, 85.56966
375.1950, 85.62183
375.6771, 86.01319
376.1592, 86.40759
376.6414, 86.74271
377.1235, 87.01387
377.6056, 87.11979
378.0877, 86.97694
378.5698, 86.94658
379.0519, 87.49630
379.5341, 88.62747
380.0162, 89.40427
380.4983, 89.56646
380.9804, 89.40457
381.4625, 89.55399
381.9446, 90.01123
382.4268, 90.56630
382.9089, 91.11129
383.3910, 91.65331
383.8731, 92.21146
384.3553, 92.76781
384.8374, 93.41988
385.3195, 94.33720
385.8016, 95.44901
386.2837, 96.56718
386.7658, 97.64036
387.2480, 98.64339
387.7301, 99.44947
388.2122, 100.0723
388.6943, 100.8896
389.1764, 102.2841
389.6585, 103.9966
390.1407, 105.6691
390.6228, 107.1261
391.1049, 108.6255
391.5870, 110.3204
392.0691, 112.1815
392.5512, 114.1213
393.0334, 116.0938
393.5155, 118.1360
393.9976, 120.2933
394.4797, 122.6110
394.9618, 124.9050
395.4439, 126.9653
395.9261, 129.0105
396.4082, 131.3217
396.8903, 134.1532
397.3724, 137.0960
397.8545, 140.1338
398.3366, 143.2724
398.8188, 146.2402
399.3009, 148.7877
399.7830, 151.3127
400.2651, 154.0660
400.7472, 157.2287
401.2293, 160.3399
401.7115, 163.2298
402.1936, 166.0796
402.6757, 169.4965
403.1578, 173.8066
403.6399, 178.1370
404.1220, 182.0483
404.6042, 185.4633
405.0863, 189.0940
405.5684, 193.0744
406.0505, 196.9906
406.5326, 200.2599
407.0147, 202.8446
407.4969, 205.1428
407.9790, 207.2651
408.4611, 209.2039
408.9432, 211.0486
409.4254, 212.8309
409.9075, 214.0832
410.3896, 214.3031
410.8717, 213.6489
411.3538, 212.8772
411.8359, 212.2035
412.3181, 211.2057
412.8002, 209.0010
413.2823, 205.8806
413.7644, 202.8498
414.2465, 200.7670
414.7286, 198.9490
415.2108, 196.3149
415.6929, 192.8168
416.1750, 189.2816
416.6571, 186.2613
417.1392, 183.6340
417.6213, 181.1242
418.1035, 178.5368
418.5856, 176.1946
419.0677, 174.3693
419.5498, 172.9742
420.0319, 171.7573
420.5140, 170.6788
420.9962, 169.6845
421.4783, 168.7641
421.9604, 167.9827
422.4425, 167.1008
422.9246, 165.9618
423.4067, 164.7323
423.8889, 163.6254
424.3710, 162.7719
424.8531, 161.9426
425.3352, 161.1883
425.8173, 160.5140
426.2994, 159.4879
426.7816, 157.7043
427.2637, 155.9891
427.7458, 154.9398
428.2279, 154.9272
428.7100, 154.6362
429.1921, 153.8938
429.6743, 152.8900
430.1564, 152.0313
430.6385, 151.2716
431.1206, 150.8290
431.6028, 150.7158
432.0849, 150.9455
432.5670, 152.1610
433.0491, 154.6529
433.5312, 156.9507
434.0133, 156.9753
434.4955, 155.1364
434.9776, 154.2796
435.4597, 155.4062
435.9418, 157.4938
436.4239, 158.9571
436.9060, 159.8051
437.3882, 160.1761
437.8703, 159.8415
438.3524, 159.1914
438.8345, 158.7183
439.3166, 158.4498
439.7987, 158.5161
440.2809, 159.3050
440.7630, 160.4448
441.2451, 161.3482
441.7272, 161.8027
442.2093, 161.9460
442.6914, 161.7339
443.1736, 161.2168
443.6557, 160.7150
444.1378, 160.2731
444.6199, 159.9331
445.1020, 159.7808
445.5841, 160.1575
446.0663, 160.0876
446.5484, 159.1615
447.0305, 157.7721
447.5126, 156.5688
447.9947, 155.8953
448.4768, 155.0251
448.9590, 153.7236
449.4411, 151.9836
449.9232, 150.3835
450.4053, 148.8952
450.8874, 147.5594
451.3695, 146.4171
451.8517, 145.4612
452.3338, 144.7139
452.8159, 144.2466
453.2980, 143.9153
453.7801, 143.4444
454.2622, 142.8369
454.7444, 142.0906
455.2265, 141.0613
455.7086, 139.8753
456.1907, 139.1846
456.6729, 139.0115
457.1550, 138.9602
457.6371, 138.5515
458.1192, 137.9789
458.6013, 137.7633
459.0834, 138.2226
459.5656, 138.7321
460.0477, 138.5531
460.5298, 137.8528
461.0119, 137.1400
461.4940, 136.5317
461.9761, 136.1019
462.4583, 135.9064
462.9404, 135.9495
463.4225, 136.2009
463.9046, 136.9275
464.3867, 137.7286
464.8688, 138.2084
465.3510, 138.0304
465.8331, 137.8098
466.3152, 137.5345
466.7973, 137.2845
467.2794, 137.3477
467.7615, 138.1700
468.2437, 138.8887
468.7258, 139.2236
469.2079, 139.1292
469.6900, 138.8191
470.1721, 138.1167
470.6542, 137.3929
471.1364, 137.0899
471.6185, 137.3439
472.1006, 137.4716
472.5827, 137.3255
473.0648, 136.9936
473.5469, 136.7563
474.0291, 136.6249
474.5112, 136.4579
474.9933, 136.2164
475.4754, 135.8806
475.9575, 135.2808
476.4396, 134.3716
476.9218, 133.5047
477.4039, 133.0990
477.8860, 133.0265
478.3681, 133.0011
478.8503, 132.9405
479.3324, 132.8769
479.8145, 132.7901
480.2966, 132.7117
480.7787, 132.7601
481.2608, 133.3853
481.7430, 133.8847
482.2251, 133.6893
482.7072, 132.6281
483.1893, 131.5041
483.6714, 130.4588
484.1535, 129.5464
484.6357, 128.8195
485.1178, 128.4534
485.5999, 128.0765
486.0820, 127.7390
486.5641, 127.3747
487.0462, 126.6815
487.5284, 125.3506
488.0105, 124.1086
488.4926, 123.2724
488.9747, 122.9401
489.4568, 122.4312
489.9389, 121.7201
490.4211, 120.8865
490.9032, 119.9989
491.3853, 119.0462
491.8674, 118.1469
492.3495, 117.3406
492.8316, 116.5897
493.3138, 115.7693
493.7959, 114.8915
494.2780, 114.1431
494.7601, 113.7775
495.2422, 113.5818
495.7243, 113.1032
496.2065, 112.3026
496.6886, 111.5523
497.1707, 111.0891
497.6528, 110.8646
498.1349, 110.8277
498.6170, 111.0994
499.0992, 111.3525
499.5813, 111.4466
500.0634, 111.3887
500.5455, 111.2004
501.0276, 110.7922
501.5097, 110.3428
501.9919, 109.8774
502.4740, 109.3749
502.9561, 109.0520
503.4382, 109.1490
503.9203, 109.2676
504.4025, 109.1107
504.8846, 108.4380
505.3667, 108.0022
505.8488, 107.9351
506.3309, 108.0769
506.8130, 108.0909
507.2952, 107.9641
507.7773, 107.7767
508.2594, 107.6038
508.7415, 107.4039
509.2236, 106.8239
509.7057, 105.8295
510.1879, 104.8971
510.6700, 104.4059
511.1521, 104.2868
511.6342, 104.4051
512.1163, 104.8272
512.5984, 105.1611
513.0806, 105.1212
513.5627, 104.6808
514.0448, 103.7842
514.5269, 101.8981
515.0090, 99.96538
515.4911, 98.61074
515.9733, 97.78359
516.4554, 97.12919
516.9375, 96.65480
517.4196, 96.19284
517.9017, 95.66253
518.3839, 95.09927
518.8660, 94.35085
519.3481, 93.16054
519.8302, 91.89088
520.3123, 90.93423
520.7944, 90.28401
521.2766, 89.98237
521.7587, 90.25708
522.2408, 90.85915
522.7229, 90.73623
523.2050, 89.71648
523.6871, 88.61528
524.1693, 87.84917
524.6514, 87.40450
525.1335, 86.91798
525.6156, 86.37385
526.0977, 85.88384
526.5798, 85.62963
527.0620, 85.52058
527.5441, 85.26967
528.0262, 84.74355
528.5083, 84.18726
528.9904, 83.95288
529.4725, 83.90308
529.9547, 83.70528
530.4368, 82.92245
530.9189, 82.15484
531.4010, 81.83153
531.8831, 81.95712
532.3652, 82.13457
532.8474, 82.31672
533.3295, 82.45020
533.8116, 82.50167
534.2937, 82.43600
534.7758, 82.33436
535.2579, 82.10579
535.7401, 81.89012
536.2222, 81.94874
536.7043, 82.54346
537.1865, 82.78624
537.6686, 82.37887
538.1507, 81.48899
538.6328, 80.93039
539.1149, 80.74574
539.5970, 80.59880
540.0792, 80.15284
540.5613, 79.53637
541.0434, 79.48888
541.5255, 80.08602
542.0076, 80.75857
542.4897, 80.90109
542.9719, 80.71705
543.4540, 80.60983
543.9361, 80.68217
544.4182, 80.87447
544.9003, 81.22379
545.3824, 81.65649
545.8646, 82.00997
546.3467, 82.21999
546.8288, 82.33377
547.3109, 82.36497
547.7930, 82.31386
548.2751, 82.19022
548.7573, 81.97119
549.2394, 81.69707
549.7215, 81.34307
550.2036, 80.62843
550.6857, 80.55225
551.1678, 81.54408
551.6500, 82.73888
552.1321, 82.72781
552.6142, 81.25094
553.0963, 80.32307
553.5784, 80.60081
554.0605, 81.56324
554.5427, 81.76448
555.0248, 81.24940
555.5069, 80.82464
555.9890, 81.13801
556.4711, 81.80849
556.9532, 82.09354
557.4354, 81.96617
557.9175, 81.91595
558.3996, 82.50484
558.8817, 83.27973
559.3638, 83.72517
559.8459, 83.57756
560.3281, 83.37194
560.8102, 83.24919
561.2923, 83.22024
561.7744, 83.30423
562.2565, 83.71947
562.7386, 84.00936
563.2208, 84.02215
563.7029, 83.80677
564.1850, 83.68468
564.6671, 83.60191
565.1492, 83.71278
565.6313, 84.19011
566.1135, 85.08006
566.5956, 85.60527
567.0777, 85.68494
567.5598, 85.67176
568.0419, 86.03391
568.5240, 86.66308
569.0062, 86.97115
569.4883, 86.74065
569.9704, 86.38843
570.4525, 86.46819
570.9346, 86.85229
571.4167, 87.20583
571.8989, 87.27422
572.3810, 87.34768
572.8631, 87.59565
573.3452, 88.01866
573.8273, 88.60715
574.3094, 89.57119
574.7916, 90.52879
575.2737, 91.28566
575.7558, 91.80823
576.2379, 92.15245
576.7200, 92.08875
577.2021, 92.03490
577.6843, 92.40713
578.1664, 93.40012
578.6485, 94.20128
579.1306, 94.64071
579.6127, 94.95227
580.0948, 95.70830
580.5770, 96.90617
581.0591, 97.95599
581.5412, 98.51613
582.0233, 98.82592
582.5054, 99.38464
582.9875, 100.1710
583.4697, 101.0900
583.9518, 102.2149
584.4340, 103.3553
584.9161, 104.3135
585.3982, 105.0651
585.8803, 105.6683
586.3624, 105.9765
586.8445, 106.2411
587.3267, 106.6935
