##NAMES=Dewindtite
##RRUFFID=R050608
##IDEAL CHEMISTRY=H_2_Pb^2+^_3_(U^6+^O_2_)_6_O_4_(PO_4_)_4_&#183;12H_2_O
##LOCALITY=La Faye pres Grury, Saone et Loire, France
##OWNER=RRUFF
##SOURCE=University of Arizona Mineral Museum
##DESCRIPTION=Yellow platy crystals associated with yellow acicular parsonsite
##STATUS=The identification of this mineral has been confirmed only by single crystal X-ray diffraction.
##URL=rruff.info/R050608
92.06543, 1046.592
92.54755, 1035.966
93.02966, 1038.422
93.51178, 1052.105
93.99390, 1061.635
94.47601, 1067.413
94.95813, 1070.471
95.44025, 1071.720
95.92236, 1071.849
96.40448, 1070.494
96.88660, 1068.086
97.36871, 1065.117
97.85082, 1061.911
98.33294, 1058.725
98.81506, 1055.006
99.29717, 1048.943
99.77929, 1042.930
100.2614, 1037.267
100.7435, 1032.777
101.2256, 1030.108
101.7078, 1028.457
102.1899, 1025.983
102.6720, 1021.265
103.1541, 1017.004
103.6362, 1015.595
104.1183, 1016.918
104.6005, 1018.965
105.0826, 1020.218
105.5647, 1020.603
106.0468, 1020.558
106.5289, 1019.199
107.0110, 1017.654
107.4931, 1016.659
107.9753, 1016.398
108.4574, 1016.464
108.9395, 1016.009
109.4216, 1014.260
109.9037, 1013.132
110.3858, 1012.891
110.8680, 1013.228
111.3501, 1013.911
111.8322, 1014.832
112.3143, 1015.903
112.7964, 1016.610
113.2785, 1016.729
113.7607, 1016.751
114.2428, 1016.736
114.7249, 1016.701
115.2070, 1016.652
115.6891, 1016.539
116.1712, 1016.401
116.6534, 1016.650
117.1355, 1017.522
117.6176, 1018.588
118.0997, 1019.773
118.5818, 1021.112
119.0639, 1021.902
119.5461, 1020.829
120.0282, 1018.511
120.5103, 1016.830
120.9924, 1016.414
121.4745, 1017.013
121.9566, 1018.207
122.4388, 1020.430
122.9209, 1022.504
123.4030, 1023.739
123.8851, 1024.215
124.3672, 1024.219
124.8493, 1023.810
125.3315, 1022.944
125.8136, 1022.213
126.2957, 1021.551
126.7778, 1021.117
127.2599, 1021.080
127.7420, 1021.414
128.2242, 1021.891
128.7063, 1022.224
129.1884, 1022.389
129.6705, 1022.422
130.1526, 1022.546
130.6347, 1022.442
131.1169, 1021.731
131.5990, 1020.323
132.0811, 1018.587
132.5632, 1017.338
133.0453, 1016.659
133.5274, 1016.420
134.0096, 1016.863
134.4917, 1017.709
134.9738, 1018.646
135.4559, 1019.591
135.9380, 1020.425
136.4201, 1020.697
136.9023, 1020.114
137.3844, 1019.517
137.8665, 1019.261
138.3486, 1019.305
138.8307, 1019.424
139.3128, 1019.443
139.7950, 1019.509
140.2771, 1019.964
140.7592, 1021.383
141.2413, 1022.635
141.7234, 1022.239
142.2055, 1019.822
142.6877, 1017.672
143.1698, 1017.190
143.6519, 1017.655
144.1340, 1018.427
144.6161, 1019.482
145.0982, 1020.555
145.5803, 1020.876
146.0625, 1019.870
146.5446, 1018.987
147.0267, 1018.920
147.5088, 1019.274
147.9909, 1019.405
148.4730, 1018.797
148.9552, 1017.509
149.4373, 1016.796
149.9194, 1016.979
150.4015, 1017.505
150.8836, 1018.608
151.3657, 1019.998
151.8479, 1021.116
152.3300, 1021.445
152.8121, 1020.877
153.2942, 1020.109
153.7763, 1018.781
154.2584, 1017.590
154.7406, 1016.968
155.2227, 1016.896
155.7048, 1016.979
156.1869, 1016.772
156.6690, 1016.123
157.1511, 1015.745
157.6333, 1015.599
158.1154, 1015.731
158.5975, 1016.337
159.0796, 1017.473
159.5617, 1018.660
160.0438, 1019.217
160.5260, 1019.145
161.0081, 1018.978
161.4902, 1018.937
161.9723, 1018.871
162.4544, 1018.376
162.9365, 1017.132
163.4187, 1015.932
163.9008, 1015.969
164.3829, 1017.186
164.8650, 1018.004
165.3471, 1017.041
165.8292, 1014.641
166.3113, 1013.132
166.7935, 1013.388
167.2756, 1014.394
167.7577, 1015.611
168.2398, 1016.968
168.7219, 1017.949
169.2040, 1017.890
169.6862, 1016.616
170.1683, 1015.466
170.6504, 1014.610
171.1325, 1013.962
171.6146, 1013.535
172.0967, 1013.316
172.5789, 1013.209
173.0610, 1013.114
173.5431, 1013.144
174.0252, 1012.904
174.5073, 1012.193
174.9894, 1011.365
175.4716, 1010.639
175.9537, 1010.099
176.4358, 1009.728
176.9179, 1009.506
177.4000, 1009.716
177.8821, 1009.690
178.3643, 1009.343
178.8464, 1008.808
179.3285, 1008.144
179.8106, 1007.375
180.2927, 1006.631
180.7748, 1006.281
181.2570, 1006.686
181.7391, 1007.042
182.2212, 1007.199
182.7033, 1007.267
183.1854, 1007.445
183.6675, 1007.850
184.1497, 1008.361
184.6318, 1008.550
185.1139, 1008.079
185.5960, 1007.856
186.0781, 1008.300
186.5602, 1009.250
187.0423, 1010.299
187.5245, 1011.347
188.0066, 1012.262
188.4887, 1012.814
188.9708, 1012.910
189.4529, 1012.808
189.9350, 1012.551
190.4172, 1012.162
190.8993, 1011.912
191.3814, 1011.932
191.8635, 1012.174
192.3456, 1012.592
192.8277, 1013.280
193.3099, 1013.943
193.7920, 1014.350
194.2741, 1014.511
194.7562, 1014.333
195.2383, 1013.298
195.7204, 1012.110
196.2026, 1011.384
196.6847, 1011.331
197.1668, 1011.646
197.6489, 1011.903
198.1310, 1012.110
198.6131, 1012.250
199.0953, 1012.422
199.5774, 1012.497
200.0595, 1012.306
200.5416, 1011.767
201.0237, 1011.054
201.5058, 1010.468
201.9880, 1009.662
202.4701, 1009.704
202.9522, 1011.511
203.4343, 1013.800
203.9164, 1015.283
204.3985, 1015.367
204.8807, 1014.426
205.3628, 1013.555
205.8449, 1012.714
206.3270, 1012.017
206.8091, 1011.597
207.2912, 1011.278
207.7733, 1010.773
208.2555, 1009.926
208.7376, 1008.954
209.2197, 1008.666
209.7018, 1010.618
210.1839, 1011.509
210.6660, 1010.175
211.1482, 1007.754
211.6303, 1005.864
212.1124, 1005.361
212.5945, 1005.869
213.0766, 1005.839
213.5587, 1004.855
214.0409, 1003.880
214.5230, 1003.109
215.0051, 1002.472
215.4872, 1001.819
215.9693, 1001.065
216.4514, 1000.257
216.9336, 999.5984
217.4157, 999.1232
217.8978, 998.7047
218.3799, 998.4506
218.8620, 998.2371
219.3441, 997.6241
219.8263, 996.1771
220.3084, 994.4625
220.7905, 994.0710
221.2726, 995.9092
221.7547, 997.3643
222.2368, 996.8738
222.7190, 994.8234
223.2011, 992.6934
223.6832, 990.8481
224.1653, 989.5684
224.6474, 989.2882
225.1295, 990.4186
225.6117, 991.5466
226.0938, 991.6028
226.5759, 990.7114
227.0580, 989.9489
227.5401, 989.9183
228.0222, 990.0333
228.5043, 989.5975
228.9865, 988.5385
229.4686, 987.0900
229.9507, 985.2638
230.4328, 983.0687
230.9149, 981.1289
231.3970, 979.6557
231.8792, 978.5508
232.3613, 977.7917
232.8434, 977.4031
233.3255, 977.0977
233.8076, 976.5699
234.2897, 975.7959
234.7719, 975.1156
235.2540, 974.7587
235.7361, 974.4205
236.2182, 973.9319
236.7003, 973.2656
237.1824, 972.4570
237.6646, 971.5820
238.1467, 970.6739
238.6288, 969.4595
239.1109, 966.8837
239.5930, 964.7057
240.0751, 964.0469
240.5573, 964.9575
241.0394, 966.5054
241.5215, 967.9294
242.0036, 969.5507
242.4857, 969.6747
242.9678, 966.7881
243.4500, 963.5208
243.9321, 961.0297
244.4142, 959.4850
244.8963, 958.4718
245.3784, 957.5822
245.8605, 956.8659
246.3427, 956.1099
246.8248, 955.1319
247.3069, 954.2814
247.7890, 953.8715
248.2711, 953.8307
248.7532, 953.7728
249.2354, 953.2633
249.7175, 952.1818
250.1996, 951.1797
250.6817, 950.4866
251.1638, 949.6755
251.6459, 948.2676
252.1281, 946.4482
252.6102, 944.9772
253.0923, 944.7156
253.5744, 946.0328
254.0565, 946.2092
254.5386, 944.5731
255.0208, 942.6318
255.5029, 940.7361
255.9850, 939.0753
256.4671, 937.9469
256.9492, 937.6910
257.4313, 938.4305
257.9135, 938.5670
258.3956, 937.4493
258.8777, 936.4935
259.3598, 936.5957
259.8419, 937.4498
260.3240, 938.0370
260.8062, 937.5678
261.2883, 936.0469
261.7704, 934.5590
262.2525, 932.8672
262.7346, 931.4250
263.2167, 930.7654
263.6989, 930.5599
264.1810, 929.8431
264.6631, 927.8419
265.1452, 924.8210
265.6273, 923.1480
266.1094, 923.8282
266.5916, 924.4841
267.0737, 924.1429
267.5558, 923.1227
268.0379, 922.2590
268.5200, 922.0595
269.0021, 922.2957
269.4843, 921.9855
269.9664, 920.7324
270.4485, 919.5391
270.9306, 918.9182
271.4127, 918.5800
271.8948, 917.8381
272.3770, 916.2952
272.8591, 914.3398
273.3412, 912.9762
273.8233, 912.2929
274.3054, 911.8151
274.7875, 911.6320
275.2697, 911.5297
275.7518, 911.0474
276.2339, 909.9582
276.7160, 908.5953
277.1981, 907.6738
277.6802, 907.3339
278.1623, 906.6993
278.6444, 905.0681
279.1266, 903.0794
279.6087, 901.9305
280.0908, 902.0438
280.5729, 902.6178
281.0550, 902.5347
281.5371, 901.8089
282.0193, 901.1574
282.5014, 901.2094
282.9835, 901.2963
283.4656, 900.0844
283.9477, 897.1083
284.4298, 894.2181
284.9120, 893.8379
285.3941, 895.5873
285.8762, 896.8101
286.3583, 896.9113
286.8404, 896.2217
287.3225, 894.7863
287.8047, 892.4806
288.2868, 890.5939
288.7689, 890.4078
289.2510, 891.5507
289.7331, 892.7024
290.2152, 894.0126
290.6974, 895.0251
291.1795, 895.2708
291.6616, 894.7360
292.1437, 893.5811
292.6258, 891.3029
293.1079, 888.5908
293.5901, 887.0787
294.0722, 887.7592
294.5543, 888.7580
295.0364, 888.2477
295.5185, 886.3268
296.0006, 884.8428
296.4828, 884.8562
296.9649, 885.7318
297.4470, 886.3225
297.9291, 886.6486
298.4112, 886.5527
298.8933, 885.8670
299.3755, 884.6329
299.8576, 883.0341
300.3397, 880.8929
300.8218, 878.6608
301.3039, 876.8305
301.7860, 875.3823
302.2682, 874.4491
302.7503, 874.5600
303.2324, 875.3251
303.7145, 875.3577
304.1966, 874.2353
304.6787, 872.4866
305.1609, 870.4709
305.6430, 868.2303
306.1251, 866.3168
306.6072, 865.0434
307.0893, 864.2565
307.5714, 863.6895
308.0536, 863.3970
308.5357, 863.0966
309.0178, 862.5604
309.4999, 861.8344
309.9820, 860.9919
310.4641, 860.2320
310.9463, 859.3022
311.4284, 857.6805
311.9105, 855.2298
312.3926, 852.8129
312.8747, 850.6874
313.3568, 849.0554
313.8390, 848.4537
314.3211, 849.7291
314.8032, 851.2996
315.2853, 851.3401
315.7674, 849.8183
316.2495, 848.4345
316.7317, 848.1498
317.2138, 848.3420
317.6959, 848.0712
318.1780, 847.2100
318.6601, 846.0374
319.1422, 844.5576
319.6243, 842.8415
320.1064, 841.4688
320.5886, 840.7469
321.0707, 840.3083
321.5528, 839.6165
322.0349, 838.6373
322.5170, 837.8173
322.9991, 837.6038
323.4813, 837.7453
323.9634, 837.4754
324.4455, 836.5482
324.9276, 835.4306
325.4097, 834.5601
325.8918, 833.9020
326.3740, 833.3553
326.8561, 832.9220
327.3382, 832.5721
327.8203, 832.2039
328.3024, 831.7740
328.7845, 831.5460
329.2667, 832.1258
329.7488, 833.0670
330.2309, 833.2007
330.7130, 831.6933
331.1951, 829.7217
331.6772, 828.4385
332.1594, 827.8325
332.6415, 827.3637
333.1236, 826.7887
333.6057, 826.1459
334.0878, 825.4688
334.5699, 824.5408
335.0521, 823.9756
335.5342, 824.3992
336.0163, 825.5922
336.4984, 826.6663
336.9805, 827.3978
337.4626, 827.7416
337.9448, 827.5910
338.4269, 826.9149
338.9090, 826.1454
339.3911, 825.1627
339.8732, 824.2557
340.3553, 824.2188
340.8375, 825.4227
341.3196, 826.6223
341.8017, 826.0848
342.2838, 824.0065
342.7659, 822.5151
343.2480, 822.4301
343.7302, 822.8857
344.2123, 822.8665
344.6944, 822.3041
345.1765, 822.0294
345.6586, 822.9869
346.1407, 824.8043
346.6229, 825.2860
347.1050, 822.7034
347.5871, 820.3092
348.0692, 820.5848
348.5513, 822.8748
349.0334, 824.6161
349.5156, 824.4541
349.9977, 823.0270
350.4798, 822.0455
350.9619, 821.5359
351.4440, 821.3016
351.9261, 821.4758
352.4083, 821.8503
352.8904, 822.0450
353.3725, 821.9281
353.8546, 821.7519
354.3367, 821.9916
354.8188, 822.9042
355.3010, 823.0992
355.7831, 821.4562
356.2652, 819.6634
356.7473, 819.3978
357.2294, 820.7805
357.7115, 822.6346
358.1937, 824.0742
358.6758, 825.0660
359.1579, 825.2940
359.6400, 823.9459
360.1221, 822.6995
360.6042, 822.3894
361.0863, 822.8532
361.5685, 823.6168
362.0506, 824.4640
362.5327, 825.3250
363.0148, 825.8967
363.4969, 825.8041
363.9790, 825.9166
364.4612, 826.5248
364.9433, 827.3439
365.4254, 828.0293
365.9075, 828.4693
366.3896, 828.7636
366.8717, 829.0673
367.3539, 829.3992
367.8360, 829.6988
368.3181, 829.3621
368.8002, 829.4480
369.2823, 831.1533
369.7644, 834.2093
370.2466, 837.0495
370.7287, 838.1747
371.2108, 837.4537
371.6929, 837.2189
372.1750, 837.7989
372.6571, 838.4669
373.1393, 839.0214
373.6214, 839.5131
374.1035, 840.1122
374.5856, 840.9240
375.0677, 841.8106
375.5498, 842.3047
376.0320, 841.9321
376.5141, 841.8669
376.9962, 842.5228
377.4783, 843.3209
377.9604, 843.6446
378.4425, 843.3907
378.9247, 843.0693
379.4068, 843.4506
379.8889, 844.8266
380.3710, 845.8863
380.8531, 846.3609
381.3352, 846.7627
381.8174, 847.3707
382.2995, 848.1112
382.7816, 848.7265
383.2637, 849.0327
383.7458, 849.0450
384.2279, 848.7541
384.7101, 847.3903
385.1922, 846.9700
385.6743, 848.7511
386.1564, 851.4269
386.6385, 853.5195
387.1206, 854.4594
387.6028, 854.5098
388.0849, 853.7972
388.5670, 852.0257
389.0491, 850.9269
389.5312, 851.7881
390.0133, 852.8269
390.4955, 852.7411
390.9776, 851.4935
391.4597, 850.1746
391.9418, 849.6407
392.4239, 849.7775
392.9060, 849.9700
393.3882, 850.2983
393.8703, 850.4545
394.3524, 850.1981
394.8345, 849.6413
395.3166, 849.0007
395.7987, 848.3254
396.2809, 847.6331
396.7630, 847.0359
397.2451, 846.5530
397.7272, 845.7830
398.2093, 844.3146
398.6914, 842.5822
399.1736, 841.2659
399.6557, 840.4387
400.1378, 839.8273
400.6199, 839.4660
401.1020, 839.1991
401.5841, 838.6302
402.0662, 837.6894
402.5483, 836.3596
403.0305, 834.2335
403.5126, 831.3712
403.9947, 829.4622
404.4768, 829.5148
404.9589, 830.1745
405.4410, 830.3112
405.9232, 829.8531
406.4053, 829.0065
406.8874, 827.8698
407.3695, 826.4555
407.8516, 824.8209
408.3337, 822.2733
408.8159, 820.3372
409.2980, 819.9268
409.7801, 820.3229
410.2622, 820.4788
410.7443, 820.0447
411.2264, 819.0193
411.7086, 817.2738
412.1907, 814.0193
412.6728, 812.1358
413.1549, 812.5255
413.6370, 813.5157
414.1191, 814.2933
414.6013, 814.6514
415.0834, 814.4401
415.5655, 813.4885
416.0476, 811.8387
416.5297, 810.3087
417.0118, 808.3287
417.4940, 807.1528
417.9761, 807.4698
418.4582, 808.5370
418.9403, 809.5485
419.4224, 810.1844
419.9045, 810.4579
420.3867, 810.3463
420.8688, 809.6895
421.3509, 809.0792
421.8330, 808.3723
422.3151, 807.8636
422.7972, 807.9082
423.2794, 808.3555
423.7615, 808.6451
424.2436, 808.2281
424.7257, 807.2566
425.2078, 806.8055
425.6899, 807.2427
426.1721, 807.5573
426.6542, 807.4193
427.1363, 806.9601
427.6184, 806.2064
428.1005, 805.0790
428.5826, 804.1007
429.0648, 804.0622
429.5469, 804.9767
430.0290, 805.7205
430.5111, 806.0823
430.9932, 806.1402
431.4753, 805.9727
431.9575, 805.5948
432.4396, 805.1144
432.9217, 804.6701
433.4038, 804.1321
433.8859, 803.1208
434.3680, 801.5528
434.8502, 800.2213
435.3323, 799.7983
435.8144, 799.9535
436.2965, 799.7103
436.7786, 798.8599
437.2607, 797.8769
437.7429, 796.6924
438.2250, 795.5798
438.7071, 795.4880
439.1892, 796.9025
439.6713, 798.3609
440.1534, 797.5951
440.6356, 793.9041
441.1177, 791.1510
441.5998, 790.1260
442.0819, 789.6427
442.5640, 789.2110
443.0461, 788.6230
443.5282, 787.3443
444.0103, 784.8884
444.4925, 781.5972
444.9746, 779.4225
445.4567, 779.7294
445.9388, 779.4850
446.4209, 778.0825
446.9030, 776.1371
447.3852, 774.1973
447.8673, 772.4368
448.3494, 770.7530
448.8315, 768.9665
449.3136, 766.9678
449.7957, 765.4099
450.2779, 764.6296
450.7600, 763.9521
451.2421, 763.5150
451.7242, 762.9674
452.2063, 761.5772
452.6884, 758.7933
453.1706, 755.3795
453.6527, 753.2927
454.1348, 753.0110
454.6169, 752.5772
455.0990, 751.4881
455.5811, 750.0861
456.0633, 748.4844
456.5454, 746.7283
457.0275, 745.0312
457.5096, 743.6389
457.9917, 742.4432
458.4738, 740.9595
458.9560, 739.0175
459.4381, 737.1867
459.9202, 735.9107
460.4023, 735.0071
460.8844, 734.1804
461.3665, 733.4799
461.8487, 732.7011
462.3308, 731.6207
462.8129, 730.3170
463.2950, 729.0530
463.7771, 727.8809
464.2592, 726.8392
464.7414, 726.0816
465.2235, 725.7021
465.7056, 724.8992
466.1877, 723.1192
466.6698, 721.2244
467.1519, 719.7560
467.6341, 718.7864
468.1162, 718.4191
468.5983, 718.8004
469.0804, 719.7243
469.5625, 720.2170
470.0446, 720.0839
470.5268, 719.7621
471.0089, 719.2549
471.4910, 718.5930
471.9731, 717.7267
472.4552, 716.6900
472.9373, 715.6861
473.4195, 714.9759
473.9016, 714.5977
474.3837, 713.9739
474.8658, 712.7860
475.3479, 711.6871
475.8300, 710.8470
476.3122, 710.2059
476.7943, 709.6535
477.2764, 709.1441
477.7585, 708.7172
478.2406, 708.5023
478.7227, 708.5450
479.2049, 708.3810
479.6870, 707.8495
480.1691, 707.1563
480.6512, 706.4902
481.1333, 705.8262
481.6154, 705.0153
482.0976, 703.7284
482.5797, 702.3718
483.0618, 701.7267
483.5439, 701.8239
484.0260, 701.7271
484.5081, 700.8025
484.9902, 699.5272
485.4724, 699.0342
485.9545, 699.7761
486.4366, 699.9359
486.9187, 698.3341
487.4008, 696.0323
487.8829, 694.4005
488.3651, 693.6512
488.8472, 693.3737
489.3293, 693.2628
489.8114, 693.3148
490.2935, 693.3307
490.7756, 693.5816
491.2578, 693.4902
491.7399, 692.8549
492.2220, 691.7997
492.7041, 690.2835
493.1862, 688.3550
493.6683, 686.5702
494.1505, 685.8288
494.6326, 686.4651
495.1147, 686.8334
495.5968, 686.8030
496.0789, 686.6227
496.5610, 686.5612
497.0432, 686.3898
497.5253, 685.5984
498.0074, 683.8298
498.4895, 681.6092
498.9716, 679.8164
499.4537, 678.4314
499.9359, 677.6302
500.4180, 677.9615
500.9001, 678.4369
501.3822, 678.1430
501.8643, 677.1456
502.3464, 676.2579
502.8286, 675.8630
503.3107, 675.8030
503.7928, 676.0092
504.2749, 676.4749
504.7570, 676.5365
505.2391, 675.6676
505.7213, 674.2818
506.2034, 673.4952
506.6855, 673.4668
507.1676, 673.5672
507.6497, 673.7980
508.1318, 673.9801
508.6140, 673.9983
509.0961, 673.7963
509.5782, 673.1089
510.0603, 671.5504
510.5424, 669.2140
511.0245, 668.1271
511.5067, 669.5468
511.9888, 670.7028
512.4709, 671.1814
512.9530, 671.1508
513.4351, 670.6433
513.9172, 669.7422
514.3994, 668.8836
514.8815, 668.7480
515.3636, 669.4401
515.8457, 669.4213
516.3278, 668.0496
516.8099, 666.8196
517.2921, 666.4191
517.7742, 666.5187
518.2563, 666.6340
518.7384, 666.6280
519.2205, 666.5197
519.7026, 666.3417
520.1848, 666.0848
520.6669, 665.6653
521.1490, 665.0099
521.6311, 664.2910
522.1132, 663.5357
522.5953, 662.7975
523.0775, 662.5525
523.5596, 663.6912
524.0417, 664.6212
524.5238, 664.0336
525.0059, 662.3068
525.4880, 660.3977
525.9702, 658.6390
526.4523, 657.3053
526.9344, 656.9157
527.4165, 657.9548
527.8986, 658.7393
528.3807, 659.7640
528.8629, 660.1138
529.3450, 658.7698
529.8271, 656.3650
530.3092, 654.3422
530.7913, 653.5262
531.2734, 653.5188
531.7556, 653.3879
532.2377, 653.1442
532.7198, 652.7471
533.2019, 651.9963
533.6840, 651.2438
534.1661, 650.6533
534.6483, 650.2278
535.1304, 649.9260
535.6125, 649.9092
536.0946, 649.8804
536.5767, 649.1114
537.0588, 647.5494
537.5410, 646.3352
538.0231, 645.9938
538.5052, 646.1677
538.9873, 646.3593
539.4694, 646.6004
539.9515, 646.6575
540.4337, 646.3926
540.9158, 645.9657
541.3979, 645.5296
541.8800, 645.0895
542.3621, 644.5667
542.8442, 643.9003
543.3264, 643.1492
543.8085, 642.5095
544.2906, 642.0258
544.7726, 641.6094
545.2548, 641.5231
545.7369, 641.3019
546.2190, 640.3904
546.7011, 638.9613
547.1832, 637.7373
547.6653, 637.2836
548.1475, 637.4591
548.6296, 637.8614
549.1117, 638.8649
549.5938, 639.1069
550.0759, 637.2834
550.5580, 635.1285
551.0402, 633.8998
551.5223, 633.6932
552.0044, 633.8790
552.4865, 634.4906
552.9686, 635.1107
553.4507, 634.7256
553.9329, 633.2894
554.4150, 632.3369
554.8971, 632.9210
555.3792, 634.3181
555.8613, 634.5966
556.3434, 633.3024
556.8256, 632.2691
557.3077, 632.0641
557.7898, 632.1131
558.2719, 631.9257
558.7540, 631.4756
559.2361, 631.0344
559.7183, 630.8469
560.2004, 630.7031
560.6825, 629.5909
561.1646, 626.3401
561.6467, 624.1641
562.1288, 623.9323
562.6110, 624.2871
563.0931, 624.5205
563.5752, 624.4559
564.0573, 623.9600
564.5394, 622.7054
565.0215, 621.0817
565.5037, 620.0618
565.9858, 619.6685
566.4679, 619.7886
566.9500, 620.9403
567.4321, 622.1061
567.9142, 621.8142
568.3964, 619.9547
568.8785, 618.2767
569.3606, 617.5408
569.8427, 617.1411
570.3248, 616.4965
570.8069, 615.6016
571.2891, 614.6170
571.7712, 613.6241
572.2533, 612.6350
572.7354, 611.6729
573.2175, 610.4021
573.6996, 609.7879
574.1818, 610.5052
574.6639, 611.2346
575.1460, 611.2495
575.6281, 610.5848
576.1102, 609.4847
576.5923, 608.0165
577.0745, 606.4570
577.5566, 605.5461
578.0387, 605.4800
578.5208, 604.9783
579.0029, 603.4315
579.4850, 601.7650
579.9672, 600.6506
580.4493, 600.0191
580.9314, 599.5465
581.4135, 599.3958
581.8956, 599.1213
582.3777, 598.0558
582.8599, 596.4454
583.3420, 595.1562
583.8241, 594.4485
584.3062, 594.3834
584.7883, 595.3192
585.2704, 597.8221
585.7526, 598.2919
586.2347, 594.3550
586.7168, 591.0609
587.1989, 591.4863
587.6810, 593.7269
