##NAMES=Dewindtite
##RRUFFID=R050608
##IDEAL CHEMISTRY=H_2_Pb^2+^_3_(U^6+^O_2_)_6_O_4_(PO_4_)_4_&#183;12H_2_O
##LOCALITY=La Faye pres Grury, Saone et Loire, France
##OWNER=RRUFF
##SOURCE=University of Arizona Mineral Museum
##DESCRIPTION=Yellow platy crystals associated with yellow acicular parsonsite
##STATUS=The identification of this mineral has been confirmed only by single crystal X-ray diffraction.
##URL=rruff.info/R050608
91.11523, 123.2325
91.59735, 123.0250
92.07947, 122.9906
92.56158, 123.1727
93.04370, 123.7140
93.52582, 124.9724
94.00793, 126.6229
94.49006, 127.9786
94.97218, 128.9995
95.45429, 129.6440
95.93641, 129.4337
96.41853, 128.4029
96.90064, 127.9566
97.38276, 129.7136
97.86488, 133.3963
98.34699, 135.8843
98.82911, 136.3491
99.31123, 135.4504
99.79334, 135.4022
100.2755, 136.3798
100.7576, 137.6014
101.2397, 138.3238
101.7218, 138.4274
102.2039, 138.6253
102.6861, 139.0208
103.1682, 139.6192
103.6503, 140.5116
104.1324, 141.6969
104.6145, 143.1848
105.0966, 145.0594
105.5788, 147.5323
106.0609, 149.9835
106.5430, 151.9794
107.0251, 152.9234
107.5072, 155.6369
107.9893, 160.7679
108.4715, 167.5329
108.9536, 174.5182
109.4357, 181.1103
109.9178, 188.5317
110.3999, 197.1822
110.8820, 206.2901
111.3642, 217.7555
111.8463, 231.9581
112.3284, 248.6443
112.8105, 267.1482
113.2926, 286.9481
113.7747, 309.1339
114.2569, 334.0203
114.7390, 360.7214
115.2211, 391.3853
115.7032, 425.6738
116.1853, 463.8936
116.6674, 507.4068
117.1496, 554.9771
117.6317, 609.4763
118.1138, 672.7362
118.5959, 746.2194
119.0780, 828.3425
119.5602, 919.5520
120.0423, 1020.360
120.5244, 1125.608
121.0065, 1234.323
121.4886, 1345.512
121.9707, 1458.354
122.4529, 1573.078
122.9350, 1687.720
123.4171, 1801.485
123.8992, 1914.619
124.3813, 2023.204
124.8634, 2122.487
125.3456, 2214.648
125.8277, 2305.025
126.3098, 2392.629
126.7919, 2480.325
127.2740, 2570.456
127.7561, 2662.267
128.2383, 2760.351
128.7204, 2870.023
129.2025, 2990.806
129.6846, 3120.181
130.1667, 3258.824
130.6488, 3403.847
131.1310, 3555.722
131.6131, 3715.705
132.0952, 3880.086
132.5773, 4043.212
133.0594, 4205.783
133.5415, 4365.931
134.0237, 4525.225
134.5058, 4684.042
134.9879, 4836.565
135.4700, 4983.082
135.9521, 5123.080
136.4343, 5259.102
136.9164, 5391.479
137.3985, 5520.253
137.8806, 5647.057
138.3627, 5773.085
138.8448, 5895.400
139.3270, 6016.217
139.8091, 6135.261
140.2912, 6242.728
140.7733, 6334.824
141.2554, 6423.773
141.7375, 6520.671
142.2197, 6628.007
142.7018, 6739.438
143.1839, 6854.250
143.6660, 6972.098
144.1481, 7090.958
144.6302, 7207.917
145.1124, 7327.503
145.5945, 7453.340
146.0766, 7589.815
146.5587, 7728.086
147.0408, 7866.000
147.5230, 8002.395
148.0051, 8139.023
148.4872, 8240.718
148.9693, 8293.104
149.4514, 8342.290
149.9335, 8388.962
150.4157, 8433.066
150.8978, 8474.222
151.3799, 8514.407
151.8620, 8550.175
152.3441, 8578.825
152.8262, 8603.941
153.3084, 8631.455
153.7905, 8666.689
154.2726, 8700.157
154.7547, 8728.902
155.2368, 8750.928
155.7189, 8770.250
156.2011, 8783.611
156.6832, 8794.187
157.1653, 8809.705
157.6474, 8838.510
158.1295, 8867.394
158.6116, 8889.261
159.0938, 8896.431
159.5759, 8905.358
160.0580, 8920.105
160.5401, 8939.654
161.0222, 8960.880
161.5044, 8984.615
161.9865, 9008.405
162.4686, 9030.499
162.9507, 9048.394
163.4328, 9066.797
163.9149, 9089.871
164.3971, 9116.322
164.8792, 9138.536
165.3613, 9150.112
165.8434, 9157.259
166.3255, 9165.691
166.8076, 9178.816
167.2898, 9192.310
167.7719, 9204.901
168.2540, 9216.472
168.7361, 9225.257
169.2182, 9227.193
169.7003, 9226.732
170.1825, 9229.168
170.6646, 9238.669
171.1467, 9250.192
171.6288, 9259.326
172.1109, 9266.032
172.5931, 9273.712
173.0752, 9285.885
173.5573, 9300.328
174.0394, 9313.567
174.5215, 9322.546
175.0036, 9330.215
175.4858, 9339.246
175.9679, 9349.686
176.4500, 9361.687
176.9321, 9377.252
177.4142, 9394.754
177.8963, 9410.215
178.3785, 9422.267
178.8606, 9431.435
179.3427, 9437.668
179.8248, 9440.937
180.3069, 9443.190
180.7890, 9444.774
181.2712, 9446.579
181.7533, 9451.498
182.2354, 9464.568
182.7175, 9481.217
183.1996, 9489.931
183.6818, 9489.355
184.1639, 9486.936
184.6460, 9492.485
185.1281, 9504.497
185.6102, 9515.427
186.0923, 9520.713
186.5745, 9521.949
187.0566, 9524.337
187.5387, 9528.624
188.0208, 9532.553
188.5029, 9532.236
188.9850, 9528.134
189.4672, 9524.833
189.9493, 9524.561
190.4314, 9527.138
190.9135, 9531.657
191.3956, 9538.515
191.8777, 9546.405
192.3599, 9553.486
192.8420, 9559.717
193.3241, 9565.995
193.8062, 9572.612
194.2883, 9579.540
194.7704, 9586.358
195.2526, 9592.495
195.7347, 9598.979
196.2168, 9608.347
196.6989, 9620.672
197.1810, 9632.623
197.6632, 9642.087
198.1453, 9649.043
198.6274, 9656.169
199.1095, 9664.181
199.5916, 9671.589
200.0737, 9674.701
200.5559, 9673.085
201.0380, 9670.829
201.5201, 9670.143
202.0022, 9671.259
202.4843, 9673.065
202.9664, 9675.750
203.4486, 9679.272
203.9307, 9683.567
204.4128, 9688.896
204.8949, 9694.379
205.3770, 9699.357
205.8591, 9703.634
206.3413, 9708.590
206.8234, 9714.064
207.3055, 9720.161
207.7876, 9727.749
208.2697, 9737.337
208.7519, 9745.995
209.2340, 9752.146
209.7161, 9755.452
210.1982, 9756.755
210.6803, 9754.591
211.1624, 9751.244
211.6446, 9754.024
212.1267, 9765.557
212.6088, 9777.060
213.0909, 9783.652
213.5730, 9783.927
214.0551, 9785.546
214.5373, 9789.394
215.0194, 9794.896
215.5015, 9800.165
215.9836, 9804.845
216.4657, 9810.370
216.9478, 9818.368
217.4300, 9830.895
217.9121, 9838.494
218.3942, 9838.107
218.8763, 9833.119
219.3584, 9834.112
219.8405, 9843.483
220.3227, 9853.778
220.8048, 9860.894
221.2869, 9863.124
221.7690, 9866.736
222.2511, 9872.190
222.7333, 9879.022
223.2154, 9886.285
223.6975, 9896.018
224.1796, 9903.196
224.6617, 9904.657
225.1438, 9897.094
225.6260, 9893.399
226.1081, 9895.130
226.5902, 9900.964
227.0723, 9906.553
227.5544, 9910.701
228.0365, 9916.948
228.5187, 9927.703
229.0008, 9946.400
229.4829, 9960.835
229.9650, 9969.688
230.4471, 9974.291
230.9292, 9978.233
231.4114, 9980.629
231.8935, 9983.125
232.3756, 9986.053
232.8577, 9988.419
233.3398, 9993.268
233.8220, 10002.29
234.3041, 10013.08
234.7862, 10019.52
235.2683, 10020.25
235.7504, 10018.89
236.2325, 10016.54
236.7147, 10012.15
237.1968, 10010.59
237.6789, 10013.53
238.1610, 10019.18
238.6431, 10023.14
239.1252, 10023.81
239.6074, 10025.99
240.0895, 10032.09
240.5716, 10044.12
241.0537, 10054.52
241.5358, 10063.26
242.0179, 10070.34
242.5001, 10075.14
242.9822, 10074.63
243.4643, 10076.28
243.9464, 10082.95
244.4285, 10096.08
244.9106, 10108.62
245.3928, 10120.74
245.8749, 10131.73
246.3570, 10140.26
246.8391, 10144.89
247.3212, 10149.11
247.8034, 10154.40
248.2855, 10161.68
248.7676, 10165.96
249.2497, 10165.44
249.7318, 10163.50
250.2139, 10165.63
250.6961, 10174.63
251.1782, 10183.10
251.6603, 10188.76
252.1424, 10191.03
252.6245, 10195.39
253.1066, 10204.25
253.5888, 10213.31
254.0709, 10216.43
254.5530, 10210.18
255.0351, 10204.89
255.5172, 10203.23
255.9993, 10205.36
256.4815, 10208.84
256.9636, 10214.65
257.4457, 10220.58
257.9278, 10223.79
258.4099, 10222.66
258.8921, 10222.43
259.3742, 10224.48
259.8563, 10228.83
260.3384, 10233.23
260.8205, 10237.83
261.3026, 10242.28
261.7848, 10245.81
262.2669, 10247.19
262.7490, 10251.12
263.2311, 10259.20
263.7132, 10271.15
264.1953, 10282.54
264.6775, 10294.41
265.1596, 10303.81
265.6417, 10306.93
266.1238, 10301.14
266.6059, 10298.18
267.0880, 10300.42
267.5702, 10307.26
268.0523, 10315.63
268.5344, 10327.82
269.0165, 10336.97
269.4986, 10335.44
269.9807, 10318.98
270.4629, 10311.42
270.9450, 10318.83
271.4271, 10336.68
271.9092, 10345.67
272.3913, 10343.26
272.8734, 10339.08
273.3556, 10339.53
273.8377, 10345.21
274.3198, 10351.23
274.8019, 10357.52
275.2840, 10363.57
275.7661, 10367.71
276.2483, 10369.30
276.7304, 10371.40
277.2125, 10377.01
277.6946, 10386.73
278.1768, 10391.50
278.6589, 10389.53
279.1410, 10384.23
279.6231, 10382.03
280.1052, 10383.06
280.5873, 10386.72
281.0695, 10394.76
281.5516, 10407.11
282.0337, 10413.36
282.5158, 10411.85
282.9979, 10407.21
283.4800, 10406.23
283.9622, 10408.92
284.4443, 10413.86
284.9264, 10421.88
285.4085, 10432.18
285.8906, 10438.53
286.3727, 10440.15
286.8549, 10440.02
287.3370, 10441.41
287.8191, 10444.25
288.3012, 10448.75
288.7833, 10457.25
289.2654, 10467.39
289.7476, 10469.50
290.2297, 10462.95
290.7118, 10453.92
291.1939, 10449.00
291.6760, 10447.64
292.1581, 10445.75
292.6403, 10441.98
293.1224, 10437.17
293.6045, 10432.52
294.0866, 10428.13
294.5687, 10424.94
295.0508, 10424.68
295.5330, 10426.47
296.0151, 10427.04
296.4972, 10424.70
296.9793, 10421.84
297.4614, 10422.82
297.9435, 10427.30
298.4257, 10432.75
298.9078, 10438.05
299.3899, 10442.91
299.8720, 10446.35
300.3541, 10447.88
300.8362, 10448.79
301.3184, 10450.17
301.8005, 10452.17
302.2826, 10455.30
302.7647, 10461.20
303.2469, 10468.00
303.7290, 10472.67
304.2111, 10474.27
304.6932, 10475.74
305.1753, 10480.80
305.6574, 10487.94
306.1396, 10493.46
306.6217, 10493.42
307.1038, 10491.88
307.5859, 10493.67
308.0680, 10499.42
308.5501, 10505.00
309.0323, 10507.74
309.5144, 10508.17
309.9965, 10507.14
310.4786, 10501.09
310.9607, 10496.55
311.4428, 10499.77
311.9250, 10510.61
312.4071, 10521.54
312.8892, 10529.02
313.3713, 10533.81
313.8534, 10536.70
314.3355, 10535.33
314.8177, 10534.50
315.2998, 10537.34
315.7819, 10543.15
316.2640, 10548.48
316.7461, 10550.92
317.2282, 10552.58
317.7104, 10555.19
318.1925, 10560.28
318.6746, 10564.49
319.1567, 10567.66
319.6388, 10569.16
320.1209, 10567.24
320.6031, 10552.77
321.0852, 10541.12
321.5673, 10542.10
322.0494, 10565.70
322.5315, 10581.74
323.0136, 10578.36
323.4958, 10564.68
323.9779, 10555.49
324.4600, 10555.86
324.9421, 10559.02
325.4242, 10563.20
325.9064, 10568.49
326.3885, 10574.44
326.8706, 10583.71
327.3527, 10592.64
327.8348, 10597.48
328.3170, 10590.93
328.7991, 10587.91
329.2812, 10591.41
329.7633, 10601.49
330.2454, 10611.65
330.7275, 10622.69
331.2097, 10632.63
331.6918, 10639.85
332.1739, 10642.41
332.6560, 10644.76
333.1381, 10646.71
333.6202, 10648.41
334.1024, 10651.13
334.5845, 10655.65
335.0666, 10659.82
335.5487, 10662.76
336.0308, 10664.91
336.5129, 10664.57
336.9951, 10660.83
337.4772, 10655.65
337.9593, 10652.88
338.4414, 10653.40
338.9235, 10654.94
339.4056, 10657.30
339.8878, 10660.87
340.3699, 10662.36
340.8520, 10661.18
341.3341, 10659.40
341.8162, 10659.58
342.2983, 10661.78
342.7805, 10664.66
343.2626, 10667.58
343.7447, 10670.58
344.2268, 10674.43
344.7089, 10679.00
345.1910, 10683.71
345.6732, 10687.57
346.1553, 10690.68
346.6374, 10694.73
347.1195, 10700.99
347.6016, 10707.26
348.0837, 10708.43
348.5659, 10704.86
349.0480, 10700.99
349.5301, 10701.00
350.0122, 10703.30
350.4944, 10703.54
350.9765, 10701.12
351.4586, 10697.67
351.9407, 10694.14
352.4228, 10691.13
352.9049, 10690.38
353.3871, 10693.33
353.8692, 10698.84
354.3513, 10705.16
354.8334, 10712.06
355.3155, 10720.68
355.7976, 10734.96
356.2798, 10750.86
356.7619, 10762.09
357.2440, 10760.47
357.7261, 10757.34
358.2082, 10761.20
358.6903, 10771.12
359.1725, 10781.54
359.6546, 10790.85
360.1367, 10798.45
360.6188, 10803.79
361.1009, 10806.84
361.5830, 10807.31
362.0652, 10802.92
362.5473, 10795.77
363.0294, 10791.03
363.5115, 10793.54
363.9936, 10796.72
364.4757, 10797.25
364.9579, 10794.12
365.4400, 10790.93
365.9221, 10789.00
366.4042, 10787.45
366.8863, 10785.08
367.3684, 10780.03
367.8506, 10776.19
368.3327, 10775.35
368.8148, 10777.97
369.2969, 10778.82
369.7790, 10774.41
370.2611, 10770.68
370.7433, 10772.04
371.2254, 10784.01
371.7075, 10792.00
372.1896, 10792.36
372.6717, 10787.50
373.1538, 10788.24
373.6360, 10798.08
374.1181, 10807.52
374.6002, 10811.41
375.0823, 10807.61
375.5645, 10805.67
376.0466, 10805.79
376.5287, 10807.50
377.0108, 10810.08
377.4929, 10813.50
377.9750, 10818.19
378.4572, 10825.01
378.9393, 10833.67
379.4214, 10840.28
379.9035, 10844.47
380.3856, 10848.30
380.8677, 10854.68
381.3499, 10863.24
381.8320, 10868.64
382.3141, 10868.46
382.7962, 10865.83
383.2783, 10866.78
383.7604, 10871.18
384.2426, 10878.31
384.7247, 10891.23
385.2068, 10906.06
385.6889, 10913.25
386.1710, 10910.22
386.6531, 10905.44
387.1353, 10909.22
387.6174, 10918.65
388.0995, 10926.21
388.5816, 10927.00
389.0637, 10925.26
389.5458, 10925.57
390.0280, 10928.09
390.5101, 10930.42
390.9922, 10930.83
391.4743, 10930.37
391.9564, 10930.22
392.4385, 10931.82
392.9207, 10932.53
393.4028, 10929.45
393.8849, 10924.05
394.3670, 10920.87
394.8491, 10921.10
395.3312, 10924.25
395.8134, 10930.91
396.2955, 10943.32
396.7776, 10952.92
397.2597, 10956.57
397.7418, 10956.68
398.2239, 10956.46
398.7061, 10954.68
399.1882, 10954.30
399.6703, 10957.60
400.1524, 10964.98
400.6346, 10967.57
401.1167, 10960.85
401.5988, 10953.30
402.0809, 10950.74
402.5630, 10955.93
403.0451, 10960.37
403.5273, 10962.28
404.0094, 10963.22
404.4915, 10968.57
404.9736, 10980.91
405.4557, 10990.97
405.9378, 10994.13
406.4200, 10989.70
406.9021, 10986.02
407.3842, 10983.91
407.8663, 10980.86
408.3484, 10971.62
408.8305, 10956.08
409.3127, 10946.17
409.7948, 10946.78
410.2769, 10954.70
410.7590, 10962.47
411.2411, 10970.30
411.7232, 10975.28
412.2054, 10972.11
412.6875, 10964.41
413.1696, 10962.79
413.6517, 10969.75
414.1338, 10979.49
414.6159, 10983.65
415.0981, 10984.68
415.5802, 10989.56
416.0623, 11007.54
416.5444, 11027.38
417.0265, 11035.20
417.5086, 11030.68
417.9908, 11026.91
418.4729, 11033.12
418.9550, 11043.88
419.4371, 11053.41
419.9192, 11060.18
420.4013, 11065.33
420.8835, 11068.79
421.3656, 11071.01
421.8477, 11073.36
422.3298, 11076.84
422.8119, 11080.24
423.2940, 11083.15
423.7762, 11085.75
424.2583, 11087.57
424.7404, 11087.32
425.2225, 11086.91
425.7047, 11088.47
426.1868, 11092.57
426.6689, 11098.06
427.1510, 11105.74
427.6331, 11115.22
428.1152, 11122.02
428.5974, 11123.84
429.0795, 11126.51
429.5616, 11135.25
430.0437, 11153.57
430.5258, 11162.00
431.0079, 11157.10
431.4901, 11144.92
431.9722, 11135.24
432.4543, 11128.03
432.9364, 11123.31
433.4185, 11121.23
433.9006, 11121.65
434.3828, 11125.54
434.8649, 11133.30
435.3470, 11139.93
435.8291, 11140.24
436.3112, 11135.74
436.7933, 11130.57
437.2755, 11124.68
437.7576, 11120.70
438.2397, 11125.22
438.7218, 11135.48
439.2039, 11141.89
439.6860, 11133.50
440.1682, 11121.88
440.6503, 11119.76
441.1324, 11128.07
441.6145, 11138.03
442.0966, 11147.92
442.5787, 11154.96
443.0609, 11156.11
443.5430, 11143.60
444.0251, 11131.81
444.5072, 11126.78
444.9893, 11126.59
445.4714, 11124.61
445.9536, 11117.06
446.4357, 11109.38
446.9178, 11104.06
447.3999, 11102.07
447.8820, 11101.05
448.3641, 11104.01
448.8463, 11106.70
449.3284, 11103.92
449.8105, 11090.70
450.2926, 11082.03
450.7747, 11082.62
451.2569, 11090.36
451.7390, 11091.03
452.2211, 11081.36
452.7032, 11072.36
453.1853, 11071.80
453.6674, 11080.20
454.1496, 11083.56
454.6317, 11080.27
455.1138, 11073.88
455.5959, 11069.24
456.0780, 11066.14
456.5602, 11063.24
457.0423, 11060.45
457.5244, 11057.48
458.0065, 11053.46
458.4886, 11048.66
458.9707, 11044.01
459.4529, 11041.22
459.9350, 11039.07
460.4171, 11035.62
460.8992, 11030.35
461.3813, 11025.03
461.8634, 11019.54
462.3456, 11015.15
462.8277, 11014.09
463.3098, 11020.27
463.7919, 11027.24
464.2740, 11032.09
464.7561, 11034.64
465.2383, 11035.38
465.7204, 11031.21
466.2025, 11027.15
466.6846, 11026.42
467.1667, 11031.90
467.6488, 11036.22
468.1310, 11038.18
468.6131, 11038.80
469.0952, 11039.80
469.5773, 11041.22
470.0594, 11042.97
470.5415, 11045.75
471.0237, 11049.44
471.5058, 11049.40
471.9879, 11043.73
472.4700, 11038.82
472.9521, 11041.64
473.4342, 11052.97
473.9164, 11056.50
474.3985, 11048.79
474.8806, 11037.00
475.3627, 11034.17
475.8448, 11039.34
476.3270, 11042.79
476.8091, 11038.08
477.2912, 11029.75
477.7733, 11027.53
478.2554, 11031.03
478.7375, 11034.79
479.2197, 11034.65
479.7018, 11032.24
480.1839, 11029.61
480.6660, 11026.85
481.1481, 11024.82
481.6302, 11025.42
482.1124, 11026.97
482.5945, 11026.58
483.0766, 11021.32
483.5587, 11015.63
484.0408, 11010.48
484.5229, 11006.06
485.0051, 11004.99
485.4872, 11012.64
485.9693, 11020.32
486.4514, 11022.65
486.9335, 11015.33
487.4156, 11010.19
487.8978, 11007.91
488.3799, 11007.60
488.8620, 11008.03
489.3441, 11009.84
489.8262, 11011.01
490.3083, 11010.75
490.7905, 11009.43
491.2726, 11009.67
491.7547, 11011.75
492.2368, 11014.22
492.7189, 11014.96
493.2010, 11014.59
493.6832, 11018.62
494.1653, 11028.55
494.6474, 11038.61
495.1295, 11039.27
495.6116, 11033.61
496.0938, 11031.61
496.5759, 11040.90
497.0580, 11052.47
497.5401, 11056.50
498.0222, 11053.96
498.5044, 11049.70
498.9865, 11042.97
499.4686, 11037.90
499.9507, 11038.58
500.4328, 11047.15
500.9149, 11055.63
501.3971, 11063.14
501.8792, 11068.56
502.3613, 11070.63
502.8434, 11063.25
503.3255, 11059.18
503.8076, 11062.76
504.2898, 11071.85
504.7719, 11076.53
505.2540, 11074.55
505.7361, 11071.16
506.2182, 11068.45
506.7003, 11066.56
507.1825, 11063.86
507.6646, 11060.11
508.1467, 11056.17
508.6288, 11052.70
509.1109, 11049.77
509.5930, 11048.82
510.0752, 11050.58
510.5573, 11054.13
511.0394, 11059.31
511.5215, 11065.50
512.0037, 11068.41
512.4858, 11062.14
512.9679, 11052.75
513.4500, 11048.63
513.9321, 11050.05
514.4142, 11054.20
514.8964, 11063.26
515.3785, 11072.06
515.8606, 11074.38
516.3427, 11064.20
516.8248, 11055.25
517.3069, 11053.36
517.7891, 11056.19
518.2712, 11059.45
518.7533, 11062.71
519.2354, 11065.74
519.7175, 11069.29
520.1996, 11073.36
520.6818, 11073.72
521.1639, 11067.25
521.6460, 11060.99
522.1281, 11059.36
522.6102, 11063.69
523.0923, 11067.47
523.5745, 11070.54
524.0566, 11073.01
524.5387, 11074.39
525.0208, 11074.67
525.5029, 11077.05
525.9850, 11084.11
526.4672, 11092.36
526.9493, 11093.89
527.4314, 11089.19
527.9135, 11083.01
528.3956, 11077.23
528.8777, 11072.13
529.3599, 11067.95
529.8420, 11064.65
530.3241, 11062.95
530.8062, 11065.97
531.2883, 11069.85
531.7704, 11070.03
532.2526, 11060.79
532.7347, 11053.77
533.2168, 11053.90
533.6989, 11058.84
534.1810, 11063.04
534.6631, 11064.70
535.1453, 11066.69
535.6274, 11070.14
536.1095, 11075.19
536.5916, 11078.81
537.0737, 11080.57
537.5558, 11081.67
538.0380, 11082.60
538.5201, 11083.13
539.0022, 11084.83
539.4843, 11087.72
539.9664, 11091.68
540.4485, 11096.22
540.9307, 11101.35
541.4128, 11108.72
541.8949, 11121.30
542.3770, 11133.59
542.8591, 11134.51
543.3412, 11125.89
543.8234, 11118.11
544.3055, 11119.77
544.7876, 11123.72
545.2697, 11121.99
545.7518, 11113.22
546.2339, 11106.38
546.7161, 11107.20
547.1982, 11111.33
547.6803, 11115.03
548.1624, 11120.77
548.6445, 11122.30
549.1266, 11117.16
549.6088, 11107.90
550.0909, 11099.20
550.5730, 11090.29
551.0551, 11084.11
551.5372, 11082.66
552.0193, 11085.41
552.5015, 11085.13
552.9836, 11081.10
553.4657, 11076.87
553.9478, 11075.17
554.4299, 11075.57
554.9120, 11073.65
555.3942, 11068.29
555.8763, 11064.21
556.3584, 11068.71
556.8405, 11078.58
557.3226, 11085.81
557.8047, 11086.73
558.2869, 11085.71
558.7690, 11086.54
559.2511, 11088.63
559.7332, 11090.53
560.2154, 11093.50
560.6975, 11094.67
561.1796, 11090.64
561.6617, 11081.26
562.1439, 11077.08
562.6260, 11086.81
563.1081, 11097.65
563.5902, 11102.07
564.0723, 11096.04
564.5544, 11092.36
565.0366, 11092.04
565.5187, 11092.97
566.0008, 11091.58
566.4829, 11086.79
566.9650, 11085.10
567.4471, 11088.30
567.9293, 11094.78
568.4114, 11101.24
568.8935, 11107.55
569.3756, 11112.95
569.8577, 11117.05
570.3398, 11119.79
570.8220, 11121.66
571.3041, 11122.58
571.7862, 11120.47
572.2683, 11109.15
572.7504, 11096.64
573.2325, 11092.08
573.7147, 11101.43
574.1968, 11108.00
574.6789, 11103.50
575.1610, 11093.61
575.6431, 11085.56
576.1252, 11080.86
576.6074, 11078.04
577.0895, 11078.95
577.5716, 11081.83
578.0537, 11078.76
578.5358, 11065.96
579.0179, 11056.11
579.5001, 11054.75
579.9822, 11061.38
580.4643, 11069.96
580.9464, 11081.16
581.4285, 11089.42
581.9106, 11087.65
582.3928, 11078.87
582.8749, 11073.53
583.3570, 11073.42
583.8391, 11074.57
584.3212, 11071.42
584.8033, 11067.09
585.2855, 11066.85
585.7676, 11074.45
586.2497, 11084.65
586.7318, 11099.33
