##NAMES=Diaboleite
##RRUFFID=R050270
##IDEAL CHEMISTRY=Cu^2+^Pb^2+^_2_Cl_2_(OH)_4_
##LOCALITY=Tiger, Pinal County, Arizona, USA
##OWNER=RRUFF
##SOURCE=Marcus Origlieri
##DESCRIPTION=Blue irregular crystalline
##STATUS=The identification of this mineral has been confirmed by X-ray diffraction and chemical analysis
##URL=rruff.info/R050270
##MEASURED CHEMISTRY=(Cu_0.97_Pb_0.03_)_Î£=1_Pb_2.00_Cl_2.00_(OH)_4_
92.67285, 74.20766
93.15497, 73.75068
93.63708, 74.17956
94.11920, 76.90788
94.60132, 79.62593
95.08344, 82.11748
95.56555, 83.34726
96.04767, 83.73064
96.52979, 83.96310
97.01190, 84.05534
97.49402, 84.08546
97.97614, 84.17319
98.45825, 84.18870
98.94037, 84.02849
99.42249, 83.69710
99.90460, 83.37540
100.3867, 83.42239
100.8688, 83.74590
101.3510, 83.98641
101.8331, 84.05045
102.3152, 84.19016
102.7973, 84.64754
103.2794, 85.43726
103.7615, 86.17809
104.2437, 86.60342
104.7258, 86.92791
105.2079, 87.30325
105.6900, 87.76173
106.1721, 88.31325
106.6542, 88.99866
107.1364, 89.91307
107.6185, 90.74770
108.1006, 91.38422
108.5827, 91.91286
109.0648, 92.44559
109.5469, 93.05415
110.0291, 93.73475
110.5112, 94.42708
110.9933, 95.05511
111.4754, 95.76159
111.9575, 96.65088
112.4396, 97.67151
112.9218, 98.68562
113.4039, 99.56181
113.8860, 100.2725
114.3681, 100.9335
114.8502, 101.5535
115.3323, 102.1252
115.8144, 102.6431
116.2966, 103.1076
116.7787, 103.5147
117.2608, 103.8921
117.7429, 104.2643
118.2250, 104.3963
118.7071, 104.2348
119.1893, 103.7931
119.6714, 103.0710
120.1535, 102.0032
120.6356, 100.7224
121.1177, 99.37516
121.5998, 97.96255
122.0820, 96.57015
122.5641, 95.27650
123.0462, 94.08537
123.5283, 92.90983
124.0104, 91.69510
124.4925, 90.51231
124.9747, 89.36552
125.4568, 88.25887
125.9389, 87.28134
126.4210, 86.59737
126.9031, 86.34904
127.3852, 86.13726
127.8674, 86.14629
128.3495, 86.05544
128.8316, 85.48376
129.3137, 84.25957
129.7958, 82.62416
130.2780, 81.46745
130.7601, 81.87463
131.2422, 81.58643
131.7243, 79.96689
132.2064, 77.52757
132.6885, 75.05568
133.1707, 73.04446
133.6528, 71.44456
134.1349, 69.78631
134.6170, 67.89680
135.0991, 66.12179
135.5812, 64.60129
136.0633, 63.33463
136.5455, 62.27146
137.0276, 61.43760
137.5097, 60.80849
137.9918, 60.16562
138.4739, 59.39566
138.9560, 58.65998
139.4382, 58.19642
139.9203, 58.07958
140.4024, 57.94899
140.8845, 57.56489
141.3666, 56.97976
141.8487, 56.22876
142.3309, 55.13758
142.8130, 53.86901
143.2951, 52.98042
143.7772, 52.64592
144.2593, 52.50081
144.7414, 52.45190
145.2236, 52.43331
145.7057, 52.29686
146.1878, 51.87670
146.6699, 51.14954
147.1520, 50.54380
147.6341, 50.28376
148.1163, 49.96139
148.5984, 49.37569
149.0805, 48.56251
149.5626, 47.70450
150.0447, 47.00509
150.5268, 46.51168
151.0090, 46.03773
151.4911, 45.57845
151.9732, 45.13873
152.4553, 44.69767
152.9374, 44.26385
153.4195, 43.88799
153.9017, 43.66120
154.3838, 43.74728
154.8659, 43.65556
155.3480, 43.21024
155.8301, 42.66211
156.3122, 42.33361
156.7944, 42.34776
157.2765, 42.43367
157.7586, 41.99690
158.2407, 40.86470
158.7228, 39.98486
159.2049, 39.76530
159.6871, 39.99102
160.1692, 40.17323
160.6513, 40.12759
161.1334, 40.01023
161.6155, 40.08569
162.0976, 40.39735
162.5798, 40.66241
163.0619, 40.62559
163.5440, 40.31409
164.0261, 40.12035
164.5082, 40.32040
164.9903, 40.58580
165.4725, 40.59828
165.9546, 40.29412
166.4367, 39.92180
166.9188, 39.79141
167.4009, 39.97169
167.8830, 40.11046
168.3652, 40.13095
168.8473, 40.07753
169.3294, 39.92017
169.8115, 39.64675
170.2936, 39.39479
170.7757, 39.46618
171.2579, 40.13795
171.7400, 40.63185
172.2221, 40.76362
172.7042, 40.74253
173.1863, 40.78329
173.6684, 40.98077
174.1506, 41.24430
174.6327, 41.29492
175.1148, 40.84252
175.5969, 40.48869
176.0790, 40.24400
176.5611, 40.12967
177.0433, 40.20159
177.5254, 40.50206
178.0075, 40.96342
178.4896, 41.25033
178.9717, 41.34205
179.4538, 41.31058
179.9360, 41.07023
180.4181, 40.71402
180.9002, 40.43847
181.3823, 40.37090
181.8644, 40.46511
182.3465, 40.48238
182.8287, 40.42155
183.3108, 40.30105
183.7929, 40.11455
184.2750, 39.86881
184.7571, 39.59591
185.2392, 38.94049
185.7214, 39.17009
186.2035, 39.20300
186.6856, 39.04976
187.1677, 38.15278
187.6498, 38.21618
188.1319, 37.89470
188.6141, 37.55739
189.0962, 37.75595
189.5783, 36.96715
190.0604, 37.15722
190.5425, 36.95653
191.0246, 36.93468
191.5068, 36.52554
191.9889, 36.41908
192.4710, 36.55729
192.9531, 36.65875
193.4352, 36.73149
193.9173, 36.79409
194.3995, 36.87616
194.8816, 36.92075
195.3637, 36.74417
195.8458, 36.09949
196.3279, 35.70793
196.8100, 35.96019
197.2922, 36.47307
197.7743, 36.78037
198.2564, 36.61645
198.7385, 36.13385
199.2206, 35.92592
199.7027, 36.27764
200.1849, 36.55106
200.6670, 36.54262
201.1491, 36.40591
201.6312, 36.36884
202.1133, 36.57726
202.5954, 36.96152
203.0776, 37.10309
203.5597, 36.56462
204.0418, 36.23572
204.5239, 36.39662
205.0060, 36.84394
205.4881, 37.26697
205.9703, 37.48257
206.4524, 37.49937
206.9345, 37.36671
207.4166, 36.76776
207.8987, 36.37562
208.3808, 36.51203
208.8630, 36.99776
209.3451, 37.43044
209.8272, 37.54333
210.3093, 37.39899
210.7914, 37.48343
211.2735, 38.04870
211.7557, 38.53653
212.2378, 38.66275
212.7199, 38.51171
213.2020, 38.36090
213.6841, 38.36321
214.1662, 38.50653
214.6484, 38.68726
215.1305, 38.99229
215.6126, 39.24957
216.0947, 39.36178
216.5768, 39.33866
217.0589, 39.23050
217.5410, 39.01202
218.0232, 38.74968
218.5053, 38.61148
218.9874, 38.65191
219.4695, 38.75187
219.9516, 38.87500
220.4337, 39.01851
220.9159, 39.02024
221.3980, 38.69568
221.8801, 38.22572
222.3622, 37.88494
222.8443, 37.75348
223.3264, 37.67278
223.8086, 37.45260
224.2907, 37.07175
224.7728, 36.75685
225.2549, 36.70398
225.7370, 36.71644
226.2191, 36.61174
226.7013, 36.33545
227.1834, 35.98680
227.6655, 35.66585
228.1476, 35.35670
228.6297, 35.14574
229.1118, 35.13610
229.5940, 35.19376
230.0761, 35.23442
230.5582, 35.23543
231.0403, 35.20290
231.5224, 35.15912
232.0045, 35.13446
232.4867, 35.00236
232.9688, 34.66060
233.4509, 34.25937
233.9330, 33.89479
234.4151, 33.59542
234.8972, 33.34153
235.3794, 33.08918
235.8615, 32.78349
236.3436, 32.61543
236.8257, 32.76773
237.3078, 32.93480
237.7899, 32.82920
238.2721, 32.40274
238.7542, 31.90985
239.2363, 31.81691
239.7184, 32.52540
240.2005, 32.82631
240.6826, 32.45568
241.1648, 31.89964
241.6469, 31.47906
242.1290, 31.27787
242.6111, 31.20004
243.0932, 31.09792
243.5753, 30.89860
244.0575, 30.83708
244.5396, 31.06815
245.0217, 31.31478
245.5038, 31.38510
245.9859, 31.24109
246.4680, 30.95608
246.9502, 30.60642
247.4323, 30.09061
247.9144, 29.79735
248.3965, 29.90625
248.8786, 30.09290
249.3607, 30.12405
249.8429, 29.96426
250.3250, 29.72468
250.8071, 29.53205
251.2892, 29.40472
251.7713, 29.26811
252.2534, 29.08093
252.7356, 28.91419
253.2177, 28.81078
253.6998, 28.77895
254.1819, 28.81860
254.6640, 28.94172
255.1461, 29.16595
255.6283, 29.36749
256.1104, 29.65425
256.5925, 29.84190
257.0746, 29.69546
257.5567, 29.23105
258.0388, 28.81973
258.5210, 28.82648
259.0031, 29.26011
259.4852, 29.43354
259.9673, 29.02480
260.4494, 28.59641
260.9315, 28.63866
261.4137, 29.13901
261.8958, 29.65701
262.3779, 29.93656
262.8600, 29.94925
263.3421, 29.75350
263.8242, 29.00586
264.3064, 28.31769
264.7885, 28.19181
265.2706, 28.59056
265.7527, 29.09896
266.2348, 29.51943
266.7169, 29.85400
267.1991, 30.14872
267.6812, 30.44075
268.1633, 30.64708
268.6454, 30.63819
269.1275, 30.44006
269.6096, 30.33187
270.0918, 30.52717
270.5739, 30.83096
271.0560, 30.86240
271.5381, 30.48205
272.0202, 30.13379
272.5023, 30.23474
272.9845, 30.71641
273.4666, 31.02461
273.9487, 30.84795
274.4308, 30.51700
274.9129, 30.48982
275.3951, 30.81925
275.8772, 31.16441
276.3593, 31.31096
276.8414, 31.27665
277.3235, 31.15095
277.8056, 30.84884
278.2878, 30.59169
278.7699, 30.58637
279.2520, 30.82671
279.7341, 31.15516
280.2162, 31.52915
280.6983, 31.92687
281.1805, 32.23357
281.6626, 32.43266
282.1447, 32.52693
282.6268, 32.48206
283.1089, 32.33287
283.5910, 32.22648
284.0732, 32.32231
284.5553, 32.54051
285.0374, 32.56015
285.5195, 32.25486
286.0016, 31.94023
286.4837, 31.85476
286.9659, 31.90116
287.4480, 31.87130
287.9301, 31.61194
288.4122, 31.21508
288.8943, 30.93419
289.3764, 30.79736
289.8586, 30.71930
290.3407, 30.67291
290.8228, 30.64978
291.3049, 30.65024
291.7870, 30.70048
292.2691, 30.74025
292.7513, 30.64331
293.2334, 30.37166
293.7155, 30.06812
294.1976, 29.73201
294.6797, 29.41546
295.1618, 29.16453
295.6440, 28.99555
296.1261, 28.89720
296.6082, 28.86277
297.0903, 28.90293
297.5724, 28.96305
298.0545, 29.18085
298.5367, 29.31952
299.0188, 29.14844
299.5009, 28.63035
299.9830, 28.04103
300.4651, 27.70543
300.9472, 27.66199
301.4294, 27.55820
301.9115, 27.17835
302.3936, 26.85955
302.8757, 26.84621
303.3578, 27.11025
303.8399, 27.38486
304.3221, 27.40728
304.8042, 27.17208
305.2863, 27.01557
305.7684, 27.02369
306.2505, 27.03327
306.7326, 26.94299
307.2148, 26.78955
307.6969, 26.67947
308.1790, 26.72284
308.6611, 26.88003
309.1432, 26.88785
309.6253, 26.63971
310.1075, 26.38730
310.5896, 26.22313
311.0717, 26.11700
311.5538, 26.03078
312.0359, 25.95881
312.5180, 25.87606
313.0002, 25.68061
313.4823, 25.23503
313.9644, 24.60780
314.4465, 25.07346
314.9286, 25.34238
315.4107, 25.42515
315.8929, 24.76420
316.3750, 25.06361
316.8571, 24.97815
317.3392, 24.87691
317.8213, 25.31149
318.3034, 24.75870
318.7856, 25.18479
319.2677, 25.22012
319.7498, 25.43429
320.2319, 25.26122
320.7140, 25.20775
321.1961, 25.54165
321.6783, 25.66107
322.1604, 25.44341
322.6425, 25.66895
323.1246, 25.10264
323.6067, 25.23118
324.0888, 25.65953
324.5710, 25.46135
325.0531, 25.69397
325.5352, 25.76251
326.0173, 25.08541
326.4994, 25.70506
326.9815, 25.76391
327.4637, 25.24693
327.9458, 25.82215
328.4279, 25.38456
328.9100, 25.30848
329.3921, 25.50446
329.8742, 25.41683
330.3564, 25.77635
330.8385, 25.70510
331.3206, 25.59535
331.8027, 25.65357
332.2848, 25.23584
332.7669, 25.70109
333.2491, 25.56320
333.7312, 25.72511
334.2133, 25.95498
334.6954, 25.66451
335.1775, 25.92491
335.6596, 25.33103
336.1418, 25.45197
336.6239, 25.49593
337.1060, 25.99678
337.5881, 25.40706
338.0702, 25.50813
338.5523, 25.90333
339.0345, 25.88698
339.5165, 26.04270
339.9987, 25.74567
340.4808, 25.65720
340.9629, 25.69980
341.4450, 25.84811
341.9271, 25.97617
342.4092, 26.08673
342.8914, 26.16952
343.3735, 26.19678
343.8556, 26.20105
344.3377, 26.24390
344.8198, 26.38500
345.3019, 26.53555
345.7841, 26.50652
346.2662, 26.24310
346.7483, 26.01734
347.2304, 25.93599
347.7125, 25.94850
348.1946, 26.04534
348.6768, 26.23862
349.1589, 26.42896
349.6410, 26.49682
350.1231, 26.44335
350.6052, 26.41917
351.0873, 26.44556
351.5695, 26.53028
352.0516, 26.73457
352.5337, 27.03995
353.0158, 27.23523
353.4979, 27.08815
353.9800, 26.71349
354.4622, 26.50228
354.9443, 26.50115
355.4264, 26.64118
355.9085, 26.97043
356.3906, 27.40017
356.8727, 27.72733
357.3549, 27.92251
357.8370, 27.95294
358.3191, 27.65477
358.8012, 26.96821
359.2833, 26.47197
359.7654, 26.56965
360.2476, 27.01177
360.7297, 27.42727
361.2118, 27.81655
361.6939, 28.08664
362.1760, 28.12582
362.6581, 27.96517
363.1403, 27.75145
363.6224, 27.46224
364.1045, 27.23288
364.5866, 27.27640
365.0687, 27.60464
365.5508, 27.89465
366.0330, 27.95413
366.5151, 27.90406
366.9972, 27.99421
367.4793, 28.29198
367.9614, 28.56067
368.4435, 28.53868
368.9257, 28.27491
369.4078, 28.06602
369.8899, 27.99166
370.3720, 27.95927
370.8541, 27.90125
371.3362, 27.81586
371.8184, 27.70512
372.3005, 27.54307
372.7826, 27.37272
373.2647, 27.33841
373.7468, 27.56748
374.2289, 27.72217
374.7111, 27.58016
375.1932, 27.28193
375.6753, 27.12033
376.1574, 27.20732
376.6395, 27.38867
377.1216, 27.41680
377.6038, 27.25281
378.0859, 27.08755
378.5680, 26.94338
379.0501, 26.80308
379.5322, 26.27029
380.0143, 26.64312
380.4965, 26.81921
380.9786, 26.80916
381.4607, 26.05538
381.9428, 26.26197
382.4249, 26.08369
382.9070, 25.88962
383.3892, 26.23137
383.8713, 25.58576
384.3534, 25.91902
384.8355, 25.86153
385.3176, 25.98288
385.7997, 25.71698
386.2819, 25.57068
386.7640, 25.81176
387.2461, 25.83835
387.7282, 25.52787
388.2103, 25.66059
388.6924, 25.00146
389.1746, 25.03717
389.6567, 25.37269
390.1388, 25.08169
390.6209, 25.22148
391.1030, 25.19721
391.5851, 24.42728
392.0673, 24.95410
392.5494, 24.92013
393.0315, 24.31033
393.5136, 24.79273
393.9957, 24.26232
394.4778, 24.09341
394.9600, 23.93099
395.4421, 23.72644
395.9242, 23.82282
396.4063, 24.00819
396.8884, 24.05278
397.3705, 23.88556
397.8527, 23.62918
398.3348, 23.48291
398.8169, 23.49768
399.2990, 23.43998
399.7811, 23.19231
400.2632, 22.95530
400.7454, 22.85204
401.2275, 22.85644
401.7096, 22.84721
402.1917, 22.71628
402.6738, 22.49140
403.1559, 22.35106
403.6381, 22.38470
404.1202, 22.34353
404.6023, 22.05152
405.0844, 21.66862
405.5665, 21.38380
406.0486, 21.26215
406.5308, 21.25793
407.0129, 21.35683
407.4950, 21.57251
407.9771, 21.69958
408.4592, 21.66724
408.9413, 21.53794
409.4235, 21.33206
409.9056, 21.05897
410.3877, 20.84199
410.8698, 20.81505
411.3519, 20.89076
411.8340, 20.80724
412.3162, 20.48585
412.7983, 20.21459
413.2804, 20.27124
413.7625, 20.53018
414.2446, 20.71411
414.7267, 20.75650
415.2089, 20.73072
415.6910, 20.34960
416.1731, 20.66279
416.6552, 20.78471
417.1373, 20.72593
417.6194, 19.92890
418.1016, 20.09768
418.5837, 19.88706
419.0658, 19.66614
419.5479, 19.98649
420.0300, 19.32496
420.5121, 19.64775
420.9943, 19.58525
421.4764, 19.70705
421.9585, 19.44708
422.4406, 19.31218
422.9227, 19.57012
423.4048, 19.61903
423.8870, 19.33632
424.3691, 19.50229
424.8512, 18.88187
425.3333, 18.96177
425.8154, 19.34694
426.2975, 19.11104
426.7797, 19.31141
427.2618, 19.35317
427.7439, 18.65475
428.2260, 19.25855
428.7081, 19.30700
429.1902, 18.78510
429.6724, 19.36087
430.1545, 18.92928
430.6366, 18.86467
431.1187, 19.07758
431.6008, 19.01235
432.0829, 19.39973
432.5651, 19.27340
433.0472, 19.26844
433.5293, 19.20684
434.0114, 19.19783
434.4935, 19.28965
434.9756, 19.42522
435.4578, 19.51587
435.9399, 19.58359
436.4220, 19.53165
436.9041, 19.16230
437.3862, 18.81454
437.8683, 18.70834
438.3505, 18.82049
438.8326, 18.95764
439.3147, 18.98368
439.7968, 18.91859
440.2789, 18.82979
440.7610, 18.67599
441.2432, 18.59641
441.7253, 18.80731
442.2074, 19.08025
442.6895, 19.09325
443.1716, 18.69042
443.6537, 18.24481
444.1359, 18.10685
444.6180, 18.23953
445.1001, 18.41195
445.5822, 18.59316
446.0643, 18.75399
446.5464, 18.88281
447.0286, 18.97959
447.5107, 18.96988
447.9928, 18.70302
448.4749, 18.40064
448.9570, 18.31180
449.4391, 18.43507
449.9213, 18.62247
450.4034, 18.81458
450.8855, 18.98810
451.3676, 19.04589
451.8497, 18.89334
452.3318, 18.79014
452.8140, 18.91559
453.2961, 19.08065
453.7782, 18.97855
454.2603, 18.55203
454.7424, 18.10176
455.2245, 17.98820
455.7067, 18.28903
456.1888, 18.47948
456.6709, 18.48723
457.1530, 18.48009
457.6351, 18.50444
458.1172, 18.56727
458.5994, 18.67826
459.0815, 18.84494
459.5636, 19.03933
460.0457, 19.20033
460.5278, 19.36662
461.0099, 19.41211
461.4921, 19.22993
461.9742, 19.01881
462.4563, 18.92985
462.9384, 18.95163
463.4205, 18.94763
463.9026, 18.76717
464.3848, 18.45345
464.8669, 18.32002
465.3490, 18.45137
465.8311, 18.60585
466.3132, 18.77385
466.7953, 18.87591
467.2775, 18.77221
467.7596, 18.39120
468.2417, 17.99502
468.7238, 17.83839
469.2059, 17.89886
469.6880, 18.05129
470.1702, 18.35334
470.6523, 18.59242
471.1344, 18.46099
471.6165, 18.05952
472.0986, 17.81278
472.5807, 18.00959
473.0629, 18.27162
473.5450, 18.16540
474.0271, 17.76258
474.5092, 17.52513
474.9913, 17.71920
475.4734, 18.13890
475.9556, 18.29428
476.4377, 18.09754
476.9198, 17.90717
477.4019, 17.76483
477.8840, 17.66018
478.3661, 17.59009
478.8483, 17.55057
479.3304, 17.53558
479.8125, 17.54759
480.2946, 17.58157
480.7767, 17.54937
481.2589, 17.39521
481.7410, 17.24026
482.2231, 17.08179
482.7052, 16.94207
483.1873, 16.84625
483.6694, 16.79999
484.1516, 16.78579
484.6337, 16.76240
485.1158, 16.70620
485.5979, 16.78978
486.0800, 17.26459
486.5621, 17.60425
487.0443, 17.50325
487.5264, 17.14379
488.0085, 16.86855
488.4906, 16.84960
488.9727, 16.94397
489.4548, 16.92050
489.9370, 16.76916
490.4191, 16.65529
490.9012, 16.58573
491.3833, 16.61552
491.8654, 16.85997
492.3475, 17.29306
492.8297, 17.58514
493.3118, 17.50487
493.7939, 17.25563
494.2760, 17.08867
494.7581, 17.01322
495.2402, 16.97457
495.7224, 16.95466
496.2045, 16.94143
496.6866, 16.89077
497.1687, 16.75463
497.6508, 16.68188
498.1329, 16.77109
498.6151, 16.90587
499.0972, 16.96789
499.5793, 16.93631
500.0614, 16.82828
500.5435, 16.63624
501.0256, 16.36236
501.5078, 16.28690
501.9899, 16.62924
502.4720, 16.91020
502.9541, 16.99175
503.4362, 16.98627
503.9183, 17.05199
504.4004, 17.22679
504.8825, 17.37713
505.3647, 17.27850
505.8468, 16.87447
506.3289, 16.66442
506.8110, 16.81212
507.2931, 16.96760
507.7752, 16.96691
508.2574, 16.87450
508.7395, 16.80057
509.2216, 16.78122
509.7037, 16.81312
510.1858, 16.91583
510.6679, 17.08396
511.1501, 17.22247
511.6322, 17.31561
512.1143, 17.35866
512.5964, 17.33065
513.0786, 17.24126
513.5607, 17.15088
514.0428, 17.05544
514.5249, 16.98068
515.0070, 16.98387
515.4891, 17.03927
515.9713, 17.02260
516.4534, 16.86110
516.9355, 16.63282
517.4176, 16.51392
517.8997, 16.59648
518.3818, 16.60196
518.8640, 16.39088
519.3461, 16.20562
519.8282, 16.26802
520.3103, 16.52918
520.7924, 16.78740
521.2745, 16.91533
521.7567, 16.90696
522.2388, 16.70168
522.7209, 16.04453
523.2030, 15.66735
523.6851, 15.86695
524.1672, 16.19641
524.6494, 16.28771
525.1315, 16.14161
525.6136, 16.06571
526.0957, 16.37672
526.5778, 16.94770
527.0599, 17.32217
527.5421, 17.47644
528.0242, 17.50651
528.5063, 17.41598
528.9884, 17.24000
529.4705, 16.98278
529.9526, 16.59814
530.4348, 16.35466
530.9169, 16.54968
531.3990, 16.92602
531.8811, 17.00317
532.3632, 16.71992
532.8453, 16.43516
533.3275, 16.42071
533.8096, 16.64649
534.2917, 16.87640
534.7738, 17.23648
535.2559, 17.44539
535.7380, 17.36959
536.2202, 17.14689
536.7023, 16.89533
537.1844, 16.65702
537.6665, 16.45806
538.1486, 16.32895
538.6307, 16.26997
539.1129, 16.25500
539.5950, 16.32435
540.0771, 16.38687
540.5592, 16.46875
541.0413, 16.50959
541.5234, 16.38938
542.0056, 16.08456
542.4877, 15.82661
542.9698, 15.90927
543.4519, 16.28005
543.9340, 16.57011
544.4161, 16.77697
544.8983, 16.84246
545.3804, 16.61962
545.8625, 16.24417
546.3446, 15.96672
546.8267, 15.82827
547.3088, 15.78113
547.7910, 15.85699
548.2731, 15.99265
548.7552, 16.04892
549.2373, 15.99443
549.7194, 15.93477
550.2015, 15.97788
550.6837, 16.12698
551.1658, 16.24821
551.6479, 16.38548
552.1300, 16.44798
552.6121, 16.34529
553.0942, 16.18287
553.5764, 16.08817
554.0585, 16.09680
554.5406, 16.16478
555.0227, 16.25775
555.5048, 16.38244
555.9869, 16.41709
556.4691, 16.24706
556.9512, 16.14909
557.4333, 16.35846
557.9154, 16.63249
558.3975, 16.61982
558.8796, 16.19733
559.3618, 15.71491
559.8439, 15.45986
560.3260, 15.40536
560.8081, 15.51801
561.2902, 15.85910
561.7723, 16.07637
562.2545, 15.78802
562.7366, 15.13882
563.2187, 14.83441
563.7008, 15.09628
564.1829, 15.43060
564.6650, 15.73747
565.1472, 15.96848
565.6293, 15.98953
566.1114, 15.80023
566.5935, 15.65744
567.0756, 15.84915
567.5577, 16.37287
568.0399, 16.62609
568.5220, 16.41669
569.0041, 16.14980
569.4862, 15.75151
569.9683, 15.40260
570.4504, 15.34189
570.9326, 15.58782
571.4147, 15.86155
571.8968, 15.85211
572.3789, 15.61572
572.8610, 15.55094
573.3431, 15.74166
573.8253, 15.85695
574.3074, 15.57216
574.7895, 15.18959
575.2716, 15.18577
575.7537, 15.69509
576.2358, 16.15263
576.7180, 16.27018
577.2001, 16.18060
577.6822, 16.02392
578.1643, 15.82999
578.6464, 15.68552
579.1285, 15.66215
579.6107, 15.72427
580.0928, 15.71687
580.5749, 15.55884
581.0570, 15.43821
581.5391, 15.30365
582.0212, 15.25148
582.5034, 15.42865
582.9855, 15.77931
583.4676, 16.07464
583.9497, 16.14404
584.4318, 16.04633
584.9139, 15.97872
585.3961, 15.96192
585.8782, 15.90119
586.3602, 15.73057
586.8423, 15.54094
587.3245, 15.35249
587.8066, 15.18663
588.2887, 15.18535
588.7708, 15.57913
589.2529, 16.05720
