##NAMES=Diaboleite
##RRUFFID=R050372
##IDEAL CHEMISTRY=Cu^2+^Pb^2+^_2_Cl_2_(OH)_4_
##LOCALITY=Collins Vein, Mammoth mine, Tiger, Arizona
##OWNER=RRUFF
##SOURCE=Eugene Schlepp
##DESCRIPTION=Blue massive fragment
##STATUS=The identification of this mineral has been confirmed by X-ray diffraction and chemical analysis
##URL=rruff.info/R050372
##MEASURED CHEMISTRY=(Cu_0.91_Pb_0.09_)_Î£=1_Pb_2.00_Cl_2.00_(OH)_4_
93.00555, 92.19929
93.48767, 92.31572
93.96979, 95.08347
94.45190, 98.09669
94.93402, 101.0318
95.41614, 102.5312
95.89825, 102.9345
96.38037, 103.0196
96.86249, 102.9772
97.34460, 103.5710
97.82672, 105.4308
98.30884, 107.2177
98.79095, 108.6759
99.27307, 109.7742
99.75519, 110.6746
100.2373, 111.7748
100.7194, 113.1979
101.2015, 114.9418
101.6837, 117.1296
102.1658, 119.4568
102.6479, 121.6543
103.1300, 123.6940
103.6121, 125.8594
104.0942, 128.5148
104.5764, 131.4270
105.0585, 134.2103
105.5406, 136.4817
106.0227, 138.5125
106.5048, 141.2082
106.9869, 145.1739
107.4691, 148.8753
107.9512, 151.6342
108.4333, 153.5996
108.9154, 155.1690
109.3975, 156.8707
109.8796, 158.9340
110.3618, 159.5764
110.8439, 158.7824
111.3260, 156.6622
111.8081, 152.8537
112.2902, 147.5098
112.7723, 141.2632
113.2545, 134.9350
113.7366, 128.1342
114.2187, 122.0687
114.7008, 116.7464
115.1829, 112.0518
115.6650, 107.8800
116.1471, 104.1728
116.6293, 101.0247
117.1114, 98.79314
117.5935, 97.72073
118.0756, 96.91382
118.5577, 96.09214
119.0398, 95.37514
119.5220, 95.06438
120.0041, 95.36572
120.4862, 96.14355
120.9683, 96.93344
121.4504, 97.58546
121.9325, 98.48138
122.4147, 100.0727
122.8968, 102.4215
123.3789, 104.7035
123.8610, 106.4499
124.3431, 107.9250
124.8252, 109.2589
125.3074, 110.3194
125.7895, 111.4688
126.2716, 113.6084
126.7537, 117.4722
127.2358, 121.0066
127.7179, 123.4655
128.2001, 125.2897
128.6822, 127.2008
129.1643, 129.7901
129.6464, 132.9012
130.1285, 134.3715
130.6107, 133.7464
131.0928, 131.7415
131.5749, 128.2348
132.0570, 123.4242
132.5391, 117.5353
133.0212, 110.6832
133.5034, 102.6047
133.9855, 95.21163
134.4676, 88.31931
134.9497, 82.08280
135.4318, 76.65627
135.9139, 72.03469
136.3961, 67.99314
136.8782, 64.33494
137.3603, 61.08749
137.8424, 58.33083
138.3245, 56.31588
138.8066, 54.70804
139.2888, 53.14832
139.7709, 51.56269
140.2530, 50.04249
140.7351, 48.68313
141.2172, 47.46851
141.6993, 46.43499
142.1815, 45.66748
142.6636, 45.11839
143.1457, 44.59440
143.6278, 43.99512
144.1099, 43.50269
144.5920, 43.29177
145.0742, 43.35887
145.5563, 43.46143
146.0384, 43.36887
146.5205, 43.05360
147.0026, 42.78324
147.4847, 42.58854
147.9668, 42.46463
148.4490, 42.42207
148.9311, 42.46128
149.4132, 42.56390
149.8953, 42.69081
150.3774, 42.78543
150.8595, 43.04205
151.3417, 43.54961
151.8238, 44.14707
152.3059, 44.74439
152.7880, 45.29735
153.2701, 45.77751
153.7522, 46.10215
154.2344, 45.96963
154.7165, 46.01985
155.1986, 46.39371
155.6807, 46.93040
156.1628, 47.41485
156.6449, 47.73092
157.1271, 47.94556
157.6092, 48.34133
158.0913, 49.13408
158.5734, 49.83514
159.0555, 50.25269
159.5376, 50.46341
160.0198, 50.63693
160.5019, 50.79930
160.9840, 51.05048
161.4661, 51.65544
161.9482, 52.81606
162.4303, 54.09776
162.9125, 55.29187
163.3946, 56.39523
163.8767, 57.28571
164.3588, 57.64987
164.8409, 57.81666
165.3230, 58.35051
165.8052, 59.44178
166.2873, 60.84832
166.7694, 62.33240
167.2515, 63.98929
167.7336, 65.40506
168.2157, 66.22868
168.6979, 66.75571
169.1800, 67.33302
169.6621, 68.15988
170.1442, 69.09268
170.6263, 69.72288
171.1084, 69.92539
171.5906, 69.98911
172.0727, 70.12080
172.5548, 70.18084
173.0369, 69.99316
173.5190, 69.46999
174.0011, 68.60335
174.4833, 67.32240
174.9654, 65.07682
175.4475, 62.92244
175.9296, 61.17441
176.4117, 59.68382
176.8938, 58.13543
177.3760, 56.29207
177.8581, 54.14587
178.3402, 52.00064
178.8223, 49.57811
179.3044, 47.42299
179.7865, 45.87445
180.2687, 44.80499
180.7508, 43.81306
181.2329, 42.54306
181.7150, 40.94780
182.1971, 39.71118
182.6792, 39.04717
183.1614, 38.50657
183.6435, 37.79985
184.1256, 36.93119
184.6077, 36.14143
185.0898, 35.68975
185.5719, 35.60210
186.0541, 35.32968
186.5362, 34.64194
187.0183, 33.89187
187.5004, 33.43863
187.9825, 33.32959
188.4646, 33.30257
188.9468, 33.12680
189.4289, 32.83398
189.9110, 32.53894
190.3931, 32.24059
190.8752, 31.96311
191.3573, 31.78715
191.8395, 31.78794
192.3216, 31.68857
192.8037, 31.10297
193.2858, 30.24231
193.7679, 29.60009
194.2500, 29.59573
194.7322, 30.00224
195.2143, 30.04748
195.6964, 29.48262
196.1785, 28.91291
196.6606, 28.65675
197.1427, 28.64232
197.6249, 28.72053
198.1070, 28.82911
198.5891, 28.96083
199.0712, 29.04904
199.5533, 29.15851
200.0354, 29.13424
200.5176, 28.81954
200.9997, 28.32316
201.4818, 27.87724
201.9639, 27.66740
202.4460, 27.69743
202.9281, 27.77780
203.4103, 27.93831
203.8924, 28.12603
204.3745, 28.36732
204.8566, 28.63019
205.3387, 28.84241
205.8208, 28.93703
206.3030, 28.90217
206.7851, 28.86053
207.2672, 28.75509
207.7493, 28.69539
208.2314, 28.75426
208.7135, 28.90791
209.1957, 29.08011
209.6778, 29.21207
210.1599, 29.31135
210.6420, 29.27894
211.1241, 28.86542
211.6062, 28.55952
212.0884, 28.73575
212.5705, 29.32200
213.0526, 29.88354
213.5347, 30.01409
214.0168, 29.64581
214.4989, 29.42647
214.9811, 29.41370
215.4632, 29.48870
215.9453, 29.59465
216.4274, 29.72227
216.9095, 29.86053
217.3916, 30.00909
217.8738, 30.16563
218.3559, 30.27867
218.8380, 30.22941
219.3201, 30.21355
219.8022, 30.47404
220.2843, 31.02843
220.7665, 31.53472
221.2486, 31.66110
221.7307, 31.49343
222.2128, 31.40729
222.6949, 31.55101
223.1770, 31.75072
223.6592, 31.77396
224.1413, 31.58509
224.6234, 31.42603
225.1055, 31.50339
225.5876, 31.73381
226.0697, 31.98724
226.5519, 32.32994
227.0340, 32.62501
227.5161, 32.62777
227.9982, 32.26556
228.4803, 31.86051
228.9624, 31.45676
229.4446, 31.15542
229.9267, 31.15936
230.4088, 31.72263
230.8909, 32.48497
231.3730, 32.68890
231.8551, 32.09518
232.3373, 31.54398
232.8194, 31.42148
233.3015, 31.52010
233.7836, 31.62765
234.2657, 31.68137
234.7478, 31.65613
235.2300, 31.46725
235.7121, 30.99961
236.1942, 30.59846
236.6763, 30.36068
237.1584, 30.23056
237.6405, 30.16214
238.1227, 30.14161
238.6048, 30.14892
239.0869, 30.15158
239.5690, 30.24262
240.0511, 30.14565
240.5332, 29.69215
241.0154, 29.11010
241.4975, 28.59850
241.9796, 28.24021
242.4617, 28.03834
242.9438, 28.03217
243.4259, 28.46513
243.9081, 28.70531
244.3902, 28.67630
244.8723, 28.45052
245.3544, 28.04387
245.8365, 27.46801
246.3186, 26.82774
246.8008, 26.35847
247.2829, 26.17810
247.7650, 26.01980
248.2471, 25.88367
248.7292, 25.75550
249.2113, 25.63004
249.6935, 25.50385
250.1756, 25.36505
250.6577, 25.18665
251.1398, 24.88811
251.6219, 24.67236
252.1040, 24.58019
252.5862, 24.54589
253.0683, 24.53251
253.5504, 24.52414
254.0325, 24.49185
254.5146, 24.38378
254.9967, 24.12987
255.4789, 23.92900
255.9610, 23.82263
256.4431, 23.74583
256.9252, 23.62067
257.4073, 23.43417
257.8894, 23.27105
258.3716, 23.26293
258.8537, 23.53422
259.3358, 23.61519
259.8179, 23.31882
260.3000, 22.94451
260.7821, 22.74971
261.2643, 22.77835
261.7464, 22.91832
262.2285, 23.06830
262.7106, 23.24183
263.1927, 23.32365
263.6748, 23.20190
264.1570, 23.05722
264.6391, 23.08175
265.1212, 23.28542
265.6033, 23.46844
266.0854, 23.41733
266.5675, 23.11894
267.0497, 22.93930
267.5318, 22.95051
268.0139, 23.03899
268.4960, 23.16314
268.9781, 23.31048
269.4602, 23.36831
269.9424, 23.19098
270.4245, 22.83099
270.9066, 22.66708
271.3887, 22.81992
271.8708, 23.08701
272.3529, 23.36332
272.8351, 23.64000
273.3172, 23.83810
273.7993, 23.86677
274.2814, 23.78917
274.7635, 23.81231
275.2456, 23.94127
275.7278, 24.16987
276.2099, 24.58605
276.6920, 25.15471
277.1741, 25.57639
277.6562, 25.65796
278.1383, 25.52484
278.6205, 25.47425
279.1026, 25.54261
279.5847, 25.61353
280.0668, 25.53011
280.5489, 25.34246
281.0310, 25.38946
281.5132, 25.95249
281.9953, 26.63851
282.4774, 26.81849
282.9595, 26.38652
283.4416, 26.07687
283.9237, 26.47375
284.4059, 27.40186
284.8880, 28.12636
285.3701, 28.43372
285.8522, 28.51773
286.3343, 28.58519
286.8164, 28.63649
287.2986, 28.66088
287.7807, 28.63771
288.2628, 28.58115
288.7449, 28.53925
289.2270, 28.52517
289.7091, 28.51433
290.1913, 28.46634
290.6734, 28.39763
291.1555, 28.37223
291.6376, 28.42388
292.1197, 28.53920
292.6018, 28.72443
293.0840, 29.05095
293.5661, 29.27114
294.0482, 29.12270
294.5303, 28.76656
295.0124, 28.48950
295.4945, 28.44525
295.9767, 28.52348
296.4588, 28.56765
296.9409, 28.61666
297.4230, 28.49473
297.9051, 27.91599
298.3872, 27.16970
298.8694, 26.58246
299.3515, 26.24385
299.8336, 26.10388
300.3157, 26.20080
300.7978, 26.61183
301.2799, 26.79025
301.7621, 26.29396
302.2442, 25.58028
302.7263, 25.03154
303.2084, 24.72262
303.6905, 24.53641
304.1726, 24.41162
304.6548, 24.35631
305.1369, 24.15982
305.6190, 23.61544
306.1011, 23.03416
306.5832, 22.66298
307.0653, 22.51481
307.5475, 22.43362
308.0296, 22.30142
308.5117, 22.12401
308.9938, 21.97485
309.4759, 21.91646
309.9580, 21.82112
310.4402, 21.52643
310.9223, 21.10147
311.4044, 20.80786
311.8865, 20.97588
312.3686, 21.45216
312.8507, 21.51741
313.3329, 20.92204
313.8150, 20.32372
314.2971, 20.06334
314.7792, 20.04533
315.2613, 20.09890
315.7434, 20.13718
316.2256, 20.20537
316.7077, 20.44611
317.1898, 20.96393
317.6719, 21.36556
318.1540, 21.44062
318.6361, 21.32683
319.1183, 21.13004
319.6004, 20.85004
320.0825, 20.58302
320.5646, 20.48707
321.0467, 20.59484
321.5288, 20.66391
322.0110, 20.53886
322.4931, 20.39389
322.9752, 20.36290
323.4573, 20.46737
323.9394, 20.64835
324.4215, 20.89529
324.9037, 21.20402
325.3858, 21.41655
325.8679, 21.40805
326.3500, 21.39321
326.8321, 21.55244
327.3142, 21.86135
327.7964, 22.14889
328.2785, 22.30782
328.7606, 22.35100
329.2427, 22.31599
329.7248, 22.10801
330.2069, 21.99422
330.6891, 22.17850
331.1712, 22.56239
331.6533, 22.94441
332.1354, 23.22746
332.6175, 23.45528
333.0996, 23.72813
333.5818, 24.07389
334.0639, 24.37812
334.5460, 24.53133
335.0281, 24.62771
335.5102, 24.76424
335.9923, 24.96178
336.4745, 25.21735
336.9566, 25.52178
337.4387, 25.87171
337.9208, 26.32146
338.4029, 27.09360
338.8850, 27.81711
339.3672, 28.01063
339.8493, 27.59284
340.3314, 27.29142
340.8135, 27.83722
341.2956, 29.06810
341.7777, 29.89615
342.2599, 29.90968
342.7420, 29.78898
343.2241, 30.15607
343.7062, 30.92708
344.1883, 31.68855
344.6704, 32.30364
345.1526, 32.76403
345.6347, 32.94688
346.1168, 32.70266
346.5989, 32.64331
347.0810, 33.54402
347.5631, 34.91276
348.0453, 35.87419
348.5274, 35.94920
349.0095, 35.75488
349.4916, 36.05320
349.9737, 36.85661
350.4558, 37.51439
350.9380, 37.56572
351.4201, 37.38593
351.9022, 37.63331
352.3843, 38.50856
352.8664, 39.32937
353.3485, 39.59459
353.8307, 39.41411
354.3128, 39.18396
354.7949, 38.93206
355.2770, 38.80451
355.7591, 39.03828
356.2412, 39.61988
356.7234, 40.19954
357.2055, 40.77605
357.6876, 41.23436
358.1697, 41.32499
358.6518, 40.97673
359.1339, 40.54010
359.6161, 40.29667
360.0982, 40.22480
360.5803, 40.20814
361.0624, 40.29260
361.5445, 40.38356
362.0266, 40.41286
362.5088, 40.38060
362.9909, 40.30409
363.4730, 40.20506
363.9551, 40.05592
364.4372, 39.77711
364.9193, 39.27863
365.4015, 38.81336
365.8836, 38.52518
366.3657, 38.34133
366.8478, 38.10057
367.3299, 37.74027
367.8120, 37.35168
368.2942, 37.10710
368.7763, 37.07195
369.2584, 36.88582
369.7405, 36.36715
370.2226, 35.75362
370.7047, 35.28771
371.1869, 34.99311
371.6690, 34.73423
372.1511, 34.39064
372.6332, 33.95644
373.1153, 33.52408
373.5974, 33.09609
374.0796, 32.66404
374.5617, 32.22668
375.0438, 31.78148
375.5259, 31.29797
376.0080, 30.74827
376.4901, 30.18299
376.9723, 29.79111
377.4544, 29.71670
377.9365, 29.62659
378.4186, 29.53571
378.9007, 29.39049
379.3828, 29.11657
379.8650, 28.69804
380.3471, 28.19820
380.8292, 27.69353
381.3113, 27.14003
381.7934, 26.72388
382.2755, 26.56901
382.7577, 26.42469
383.2398, 26.14004
383.7219, 25.73129
384.2040, 25.29634
384.6861, 24.90300
385.1682, 24.55466
385.6504, 24.32152
386.1325, 24.39265
386.6146, 24.37281
387.0967, 24.13072
387.5788, 23.78114
388.0609, 23.46967
388.5431, 23.25926
389.0252, 23.10747
389.5073, 22.93136
389.9894, 22.73219
390.4715, 22.50160
390.9536, 22.05185
391.4358, 21.71586
391.9179, 21.83084
392.4000, 22.34340
392.8821, 22.82843
393.3642, 22.84051
393.8463, 22.36215
394.3285, 21.98560
394.8106, 21.76296
395.2927, 21.58771
395.7748, 21.47091
396.2569, 21.36640
396.7390, 21.19304
397.2212, 20.89606
397.7033, 20.53825
398.1854, 20.27366
398.6675, 20.14298
399.1496, 19.97924
399.6317, 19.70112
400.1139, 19.39170
400.5960, 19.09178
401.0781, 18.81105
401.5602, 18.59225
402.0423, 18.45930
402.5244, 18.41553
403.0066, 18.53933
403.4887, 19.02637
403.9708, 19.40204
404.4529, 19.18690
404.9350, 18.59159
405.4171, 18.21775
405.8993, 18.55192
406.3814, 19.13914
406.8635, 19.19250
407.3456, 18.64886
407.8277, 18.15012
408.3098, 18.01438
408.7920, 18.12140
409.2741, 18.27983
409.7562, 18.53696
410.2383, 18.69288
410.7204, 18.52274
411.2025, 18.14893
411.6847, 17.96899
412.1668, 18.14063
412.6489, 18.35965
413.1310, 18.15606
413.6131, 17.54033
414.0952, 17.18898
414.5774, 17.44489
415.0595, 17.86140
415.5416, 18.06558
416.0237, 18.03724
416.5058, 17.85229
416.9879, 17.51246
417.4701, 17.07057
417.9522, 16.81531
418.4343, 16.74667
418.9164, 16.82547
419.3985, 17.22147
419.8806, 17.70569
420.3628, 17.91220
420.8449, 17.72659
421.3270, 17.35266
421.8091, 17.08773
422.2912, 16.98089
422.7733, 16.85331
423.2555, 16.65750
423.7376, 16.48374
424.2197, 16.37216
424.7018, 16.33043
425.1839, 16.37673
425.6660, 16.54064
426.1482, 16.78794
426.6303, 16.88139
427.1124, 16.59526
427.5945, 16.42955
428.0766, 16.56389
428.5587, 16.78511
429.0409, 16.81949
429.5230, 16.60448
430.0051, 16.39069
430.4872, 16.62690
430.9693, 17.52042
431.4514, 17.99141
431.9336, 17.51487
432.4157, 17.04310
432.8978, 17.00016
433.3799, 17.27695
433.8620, 17.53283
434.3441, 17.55437
434.8263, 17.41105
435.3084, 17.29506
435.7905, 17.21067
436.2726, 17.14316
436.7547, 17.15649
437.2368, 17.14670
437.7190, 16.97482
438.2011, 16.60185
438.6832, 16.26042
439.1653, 16.21909
439.6474, 16.40798
440.1295, 16.41088
440.6117, 16.05810
441.0938, 15.71736
441.5759, 15.78849
442.0580, 16.14245
442.5401, 16.39097
443.0222, 16.39948
443.5044, 16.27278
443.9865, 16.03923
444.4686, 15.72404
444.9507, 15.54244
445.4328, 15.62113
445.9149, 15.87133
446.3971, 16.11683
446.8792, 16.41669
447.3613, 16.55939
447.8434, 16.27080
448.3255, 15.89389
448.8076, 15.94486
449.2898, 16.48436
449.7719, 17.02286
450.2540, 17.07852
450.7361, 16.62078
451.2182, 16.29589
451.7003, 15.98833
452.1825, 15.91328
452.6646, 16.33874
453.1467, 17.00859
453.6288, 17.47425
454.1109, 17.53953
454.5930, 17.41050
455.0751, 17.52557
455.5573, 18.18596
456.0394, 18.48868
456.5215, 18.15974
457.0036, 17.76761
457.4857, 17.63050
457.9678, 17.74338
458.4500, 17.94368
458.9321, 18.11846
459.4142, 18.27260
459.8963, 18.43821
460.3784, 18.62635
460.8605, 18.80534
461.3427, 18.96599
461.8248, 19.11687
462.3069, 19.27082
462.7890, 19.43100
463.2711, 19.57895
463.7532, 19.69771
464.2354, 19.78803
464.7175, 19.84548
465.1996, 19.85191
465.6817, 19.85308
466.1638, 19.85209
466.6459, 19.86873
467.1281, 19.96927
467.6102, 20.31936
468.0923, 20.63207
468.5744, 20.61630
469.0565, 20.28002
469.5386, 19.63555
470.0208, 18.49686
470.5029, 17.29504
470.9850, 16.89291
471.4671, 17.40490
471.9492, 17.82681
472.4313, 17.90054
472.9135, 17.76431
473.3956, 17.56534
473.8777, 17.31613
474.3598, 16.91414
474.8419, 16.21514
475.3240, 15.28851
475.8062, 14.84833
476.2883, 15.40272
476.7704, 15.74749
477.2525, 15.52280
477.7346, 15.01136
478.2167, 14.47758
478.6989, 14.02053
479.1810, 13.73098
479.6631, 13.75951
480.1452, 14.19695
480.6273, 14.48568
481.1094, 14.54875
481.5916, 14.53780
482.0737, 14.46935
482.5558, 14.36486
483.0379, 14.25542
483.5200, 14.15798
484.0021, 14.04946
484.4843, 13.88121
484.9664, 13.64166
485.4485, 13.39108
485.9306, 13.11783
486.4127, 12.85701
486.8948, 12.60495
487.3770, 12.37515
487.8591, 12.23368
488.3412, 12.28489
488.8233, 12.42943
489.3054, 12.43572
489.7875, 12.27880
490.2697, 12.22648
490.7518, 12.50258
491.2339, 12.92122
491.7160, 13.11620
492.1981, 13.04853
492.6802, 12.87053
493.1624, 12.49525
493.6445, 12.10419
494.1266, 12.02488
494.6087, 12.30479
495.0908, 12.64758
495.5729, 12.81674
496.0551, 12.80883
496.5372, 12.64513
497.0193, 12.08150
497.5014, 11.66921
497.9835, 11.66269
498.4656, 11.87857
498.9478, 12.03334
499.4299, 12.03988
499.9120, 12.06296
500.3941, 12.38678
500.8762, 13.17724
501.3583, 13.61199
501.8405, 13.43955
502.3226, 13.16484
502.8047, 12.92962
503.2868, 12.72554
503.7689, 12.51769
504.2510, 12.29077
504.7332, 12.03754
505.2153, 11.68626
505.6974, 11.18064
506.1795, 10.92984
506.6616, 11.20611
507.1437, 11.59261
507.6259, 11.79783
508.1080, 11.83600
508.5901, 11.82135
509.0722, 11.75566
509.5543, 11.69597
510.0364, 11.74610
510.5186, 11.90447
511.0007, 12.06340
511.4828, 12.20699
511.9649, 12.28727
512.4470, 12.20307
512.9291, 11.94953
513.4113, 11.59543
513.8934, 10.91384
514.3755, 10.28868
514.8576, 10.25662
515.3397, 10.77923
515.8218, 11.25388
516.3040, 11.20888
516.7861, 10.73721
517.2682, 10.51369
517.7503, 10.82935
518.2324, 11.03437
518.7145, 11.01479
519.1967, 10.89321
519.6788, 10.74884
520.1609, 10.61718
520.6430, 10.54903
521.1251, 10.61456
521.6072, 10.80899
522.0894, 10.94613
522.5715, 10.99218
523.0536, 11.03368
523.5357, 11.14665
524.0178, 11.25153
524.4999, 11.22235
524.9821, 11.01289
525.4642, 10.82383
525.9463, 10.85883
526.4284, 11.07611
526.9105, 11.31024
527.3926, 11.56628
527.8748, 11.75172
528.3569, 11.76362
528.8390, 11.64103
529.3211, 11.51949
529.8032, 11.38609
530.2853, 11.28609
530.7675, 11.26133
531.2496, 11.28496
531.7317, 11.31257
532.2138, 11.33167
532.6959, 11.32718
533.1780, 11.26875
533.6602, 11.13184
534.1423, 11.09852
534.6244, 11.24989
535.1065, 11.39878
535.5886, 11.56669
536.0707, 11.65931
536.5529, 11.45914
537.0350, 10.89367
537.5171, 10.28214
537.9992, 10.19575
538.4813, 10.76465
538.9634, 11.19161
539.4456, 11.45884
539.9277, 11.54974
540.4098, 11.33616
540.8919, 10.96220
541.3740, 10.70998
541.8561, 10.70851
542.3383, 10.83136
542.8204, 10.98557
543.3025, 11.15587
543.7846, 11.18198
544.2667, 10.99324
544.7488, 10.71029
545.2310, 10.39680
545.7131, 10.06653
546.1952, 9.919321
546.6773, 10.10759
547.1594, 10.37468
547.6415, 10.61448
548.1237, 10.79784
548.6058, 10.83827
549.0879, 10.69334
549.5700, 10.51269
550.0521, 10.56322
550.5342, 10.98679
551.0164, 11.20336
551.4985, 11.12082
551.9806, 10.95895
552.4627, 10.72679
552.9448, 10.50155
553.4269, 10.41451
553.9091, 10.53398
554.3912, 10.75527
554.8733, 10.92402
555.3554, 11.05223
555.8375, 11.02460
556.3196, 10.56824
556.8018, 10.26002
557.2839, 10.66128
557.7660, 11.49787
558.2481, 11.98008
558.7302, 11.64044
559.2123, 11.05339
559.6945, 10.79647
560.1766, 10.80254
560.6587, 10.75386
561.1408, 10.52843
561.6229, 10.30844
562.1050, 10.36051
562.5872, 10.74973
563.0693, 10.92634
563.5514, 10.64912
564.0335, 10.39434
564.5156, 10.43939
564.9977, 10.67243
565.4799, 10.88645
565.9620, 10.99701
566.4441, 11.03172
566.9262, 11.02086
567.4083, 10.93935
567.8904, 10.91440
568.3726, 11.01548
568.8547, 11.10281
569.3368, 11.09568
569.8189, 11.05144
570.3010, 11.08742
570.7831, 11.26702
571.2653, 11.43342
571.7474, 11.33345
572.2295, 11.01525
572.7116, 10.88873
573.1937, 11.06974
573.6758, 11.32784
574.1580, 11.53152
574.6401, 11.66114
575.1222, 11.63490
575.6043, 11.27138
576.0864, 10.94793
576.5685, 10.87815
577.0507, 10.96477
577.5328, 11.05017
578.0149, 11.09460
578.4970, 11.15205
578.9791, 11.29400
579.4612, 11.52845
579.9434, 11.64590
580.4255, 11.53799
580.9076, 11.43730
581.3897, 11.40005
581.8718, 11.38337
582.3539, 11.32897
582.8361, 11.22784
583.3182, 11.13476
583.8003, 11.07153
584.2824, 11.05156
584.7645, 11.21374
585.2466, 11.65134
585.7288, 12.00940
586.2109, 12.14349
586.6930, 12.07279
587.1751, 11.75405
587.6572, 11.08869
588.1393, 10.59519
588.6215, 10.58105
589.1036, 10.83742
589.5857, 11.19190
