##NAMES=Diaboleite
##RRUFFID=R050270
##IDEAL CHEMISTRY=Cu^2+^Pb^2+^_2_Cl_2_(OH)_4_
##LOCALITY=Tiger, Pinal County, Arizona, USA
##OWNER=RRUFF
##SOURCE=Marcus Origlieri
##DESCRIPTION=Blue irregular crystalline
##STATUS=The identification of this mineral has been confirmed by X-ray diffraction and chemical analysis
##URL=rruff.info/R050270
##MEASURED CHEMISTRY=(Cu_0.97_Pb_0.03_)_Î£=1_Pb_2.00_Cl_2.00_(OH)_4_
93.02344, 22.22042
93.50555, 21.09298
93.98767, 20.68256
94.46979, 21.13917
94.95190, 22.30437
95.43402, 23.87192
95.91614, 25.84895
96.39825, 28.12799
96.88037, 30.51015
97.36249, 33.01195
97.84460, 35.77809
98.32672, 38.91673
98.80884, 42.39181
99.29095, 46.06191
99.77307, 49.76831
100.2552, 53.73748
100.7373, 58.40729
101.2194, 63.74725
101.7015, 69.72292
102.1837, 76.26248
102.6658, 83.21428
103.1479, 91.23093
103.6300, 100.6400
104.1121, 111.1758
104.5942, 121.1656
105.0764, 130.1912
105.5585, 139.3413
106.0406, 149.5322
106.5227, 160.5082
107.0048, 172.8832
107.4869, 187.3828
107.9690, 204.3104
108.4512, 219.2997
108.9333, 232.1384
109.4154, 243.2648
109.8975, 253.1557
110.3796, 262.2968
110.8617, 269.8177
111.3439, 275.2550
111.8260, 278.0272
112.3081, 280.7416
112.7902, 283.2761
113.2723, 285.9160
113.7544, 289.0193
114.2366, 292.1709
114.7187, 296.1721
115.2008, 301.2667
115.6829, 307.4384
116.1650, 314.8246
116.6471, 324.4374
117.1293, 335.4200
117.6114, 345.8960
118.0935, 354.7790
118.5756, 363.1338
119.0577, 371.7447
119.5398, 380.8429
120.0220, 390.0468
120.5041, 398.9952
120.9862, 407.8619
121.4683, 417.3510
121.9504, 427.1112
122.4325, 437.9030
122.9147, 450.7592
123.3968, 466.9084
123.8789, 484.4047
124.3610, 500.5582
124.8431, 515.7039
125.3252, 532.8882
125.8074, 553.8235
126.2895, 578.4677
126.7716, 606.7398
127.2537, 638.6035
127.7358, 674.2402
128.2179, 714.7762
128.7001, 760.3022
129.1822, 806.8243
129.6643, 852.5989
130.1464, 896.6115
130.6285, 934.6524
131.1106, 967.3170
131.5928, 992.8347
132.0749, 1005.316
132.5570, 1004.129
133.0391, 990.8683
133.5212, 965.6410
134.0033, 927.1578
134.4855, 878.4463
134.9676, 821.9633
135.4497, 761.3932
135.9318, 704.3966
136.4139, 650.4660
136.8960, 601.0397
137.3782, 556.4902
137.8603, 516.5045
138.3424, 481.8990
138.8245, 454.0699
139.3066, 433.2509
139.7887, 414.9483
140.2709, 398.8238
140.7530, 384.9367
141.2351, 373.8289
141.7172, 365.7620
142.1993, 359.4955
142.6814, 354.2601
143.1636, 349.8223
143.6457, 346.8766
144.1278, 345.8291
144.6099, 346.4575
145.0920, 346.7858
145.5741, 346.8316
146.0563, 346.5488
146.5384, 345.9736
147.0205, 345.6072
147.5026, 344.1349
147.9847, 341.2521
148.4668, 336.9408
148.9490, 332.0419
149.4311, 326.4633
149.9132, 320.3626
150.3953, 313.9487
150.8774, 306.9470
151.3595, 299.9424
151.8417, 292.9070
152.3238, 285.6854
152.8059, 279.2694
153.2880, 273.6708
153.7701, 268.8921
154.2522, 264.8694
154.7344, 261.6299
155.2165, 259.1405
155.6986, 257.5994
156.1807, 257.2986
156.6628, 256.7318
157.1449, 255.1049
157.6271, 253.2085
158.1092, 252.1026
158.5913, 251.9722
159.0734, 252.7096
159.5555, 254.3786
160.0376, 257.1996
160.5198, 260.3062
161.0019, 263.3371
161.4840, 266.4892
161.9661, 270.0301
162.4482, 273.7477
162.9303, 278.0895
163.4125, 283.3686
163.8946, 289.8431
164.3767, 296.7696
164.8588, 304.2130
165.3409, 311.8654
165.8230, 319.1743
166.3052, 325.2513
166.7873, 331.2262
167.2694, 337.9686
167.7515, 345.7818
168.2336, 354.1572
168.7157, 363.3016
169.1978, 372.8348
169.6800, 381.8232
170.1621, 388.9032
170.6442, 395.4781
171.1263, 403.1433
171.6084, 412.6753
172.0905, 422.8231
172.5727, 432.5998
173.0548, 442.0730
173.5369, 451.7289
174.0190, 461.6090
174.5011, 471.9996
174.9832, 483.3354
175.4654, 496.0223
175.9475, 509.3834
176.4296, 522.9376
176.9117, 536.7523
177.3938, 550.8234
177.8759, 564.8106
178.3581, 579.1026
178.8402, 594.4261
179.3223, 611.0988
179.8044, 628.6321
180.2865, 646.6695
180.7686, 665.1044
181.2508, 683.1342
181.7329, 700.6650
182.2150, 717.3506
182.6971, 732.2110
183.1792, 745.9485
183.6613, 757.0775
184.1435, 762.4391
184.6256, 762.0643
185.1077, 756.7958
185.5898, 746.8942
186.0719, 732.7228
186.5540, 714.8539
187.0362, 692.9056
187.5183, 667.6014
188.0004, 640.7734
188.4825, 611.9557
188.9646, 583.5953
189.4467, 558.0765
189.9289, 535.2598
190.4110, 514.1053
190.8931, 494.0086
191.3752, 475.1756
191.8573, 458.0869
192.3394, 442.5774
192.8216, 428.8102
193.3037, 417.0342
193.7858, 407.2284
194.2679, 398.7956
194.7500, 391.7958
195.2321, 386.0965
195.7143, 380.6340
196.1964, 375.3769
196.6785, 370.5469
197.1606, 366.2436
197.6427, 362.3712
198.1248, 359.7358
198.6070, 359.1412
199.0891, 360.3923
199.5712, 360.2403
200.0533, 358.2539
200.5354, 355.9166
201.0175, 355.4554
201.4997, 357.1174
201.9818, 358.9377
202.4639, 360.1271
202.9460, 360.6841
203.4281, 361.7845
203.9102, 363.3957
204.3924, 365.6113
204.8745, 368.7343
205.3566, 372.9514
205.8387, 377.2178
206.3208, 380.9432
206.8029, 384.0717
207.2851, 388.2585
207.7672, 393.9560
208.2493, 400.0653
208.7314, 404.7399
209.2135, 407.5292
209.6956, 410.4259
210.1778, 413.8925
210.6599, 417.8580
211.1420, 423.3372
211.6241, 430.8294
212.1062, 439.1536
212.5883, 446.1861
213.0705, 451.1803
213.5526, 457.0128
214.0347, 464.9990
214.5168, 475.7641
214.9989, 484.6113
215.4810, 490.7326
215.9632, 495.7420
216.4453, 502.2113
216.9274, 510.6880
217.4095, 519.4249
217.8916, 527.7729
218.3737, 535.5992
218.8559, 543.7203
219.3380, 552.3972
219.8201, 561.0411
220.3022, 568.6133
220.7843, 574.6276
221.2664, 580.4470
221.7486, 586.5212
222.2307, 592.7720
222.7128, 599.2133
223.1949, 606.0879
223.6770, 612.9266
224.1591, 618.8477
224.6413, 623.7088
225.1234, 628.0643
225.6055, 632.2615
226.0876, 636.4997
226.5697, 639.4282
227.0518, 640.6920
227.5340, 640.9271
228.0161, 641.1614
228.4982, 641.9866
228.9803, 641.7254
229.4624, 639.8274
229.9445, 636.0707
230.4267, 631.5427
230.9088, 625.7667
231.3909, 619.4873
231.8730, 613.9527
232.3551, 610.3270
232.8372, 605.2631
233.3194, 597.5446
233.8015, 586.4929
234.2836, 576.0076
234.7657, 566.3538
235.2478, 557.0187
235.7299, 547.2646
236.2121, 537.3480
236.6942, 526.6466
237.1763, 514.6559
237.6584, 501.0659
238.1405, 488.7267
238.6226, 478.5909
239.1048, 469.1620
239.5869, 458.6395
240.0690, 446.3128
240.5511, 434.1998
241.0332, 422.6449
241.5153, 411.7383
241.9975, 401.0731
242.4796, 390.8763
242.9617, 380.8453
243.4438, 370.6771
243.9259, 360.2300
244.4080, 349.9017
244.8902, 339.7533
245.3723, 329.7816
245.8544, 320.0219
246.3365, 310.2597
246.8186, 300.9184
247.3007, 292.3253
247.7829, 284.7013
248.2650, 277.4055
248.7471, 270.3491
249.2292, 263.5040
249.7113, 256.8639
250.1934, 250.3422
250.6756, 244.0539
251.1577, 238.0109
251.6398, 232.1606
252.1219, 226.6703
252.6040, 221.6192
253.0861, 217.0307
253.5683, 212.4465
254.0504, 207.7694
254.5325, 203.1933
255.0146, 198.8698
255.4967, 194.7862
255.9788, 190.9302
256.4609, 187.3335
256.9431, 183.9989
257.4252, 180.6897
257.9073, 177.4258
258.3894, 174.1401
258.8715, 170.7375
259.3536, 167.0159
259.8358, 163.6440
260.3179, 160.7637
260.8000, 158.2743
261.2821, 155.6584
261.7642, 152.6899
262.2463, 149.9337
262.7285, 147.7990
263.2106, 146.5005
263.6927, 145.1604
264.1748, 143.6602
264.6569, 142.0854
265.1390, 140.7464
265.6212, 139.8320
266.1033, 138.7868
266.5854, 137.1773
267.0675, 134.7972
267.5496, 132.7771
268.0317, 131.2410
268.5139, 130.0740
268.9960, 129.0059
269.4781, 127.9941
269.9602, 127.1988
270.4423, 126.8011
270.9244, 126.9293
271.4066, 126.7684
271.8887, 126.2210
272.3708, 125.4585
272.8529, 124.7641
273.3350, 124.0710
273.8171, 123.6856
274.2993, 123.7880
274.7814, 124.4183
275.2635, 125.2066
275.7456, 126.2592
276.2277, 127.2990
276.7098, 127.7658
277.1920, 127.5380
277.6741, 127.3978
278.1562, 127.6446
278.6383, 128.2809
279.1204, 128.9871
279.6025, 129.7861
280.0847, 130.6105
280.5668, 131.3384
281.0489, 131.9527
281.5310, 132.6651
282.0131, 133.5130
282.4952, 134.5138
282.9774, 135.8097
283.4595, 137.4620
283.9416, 139.1917
284.4237, 140.6299
284.9058, 141.7796
285.3879, 143.1430
285.8701, 144.9789
286.3522, 147.0943
286.8343, 148.7607
287.3164, 149.9328
287.7985, 150.8970
288.2806, 151.9188
288.7628, 152.9755
289.2449, 153.8228
289.7270, 154.3400
290.2091, 154.6745
290.6912, 155.0419
291.1733, 155.4296
291.6555, 156.2347
292.1376, 158.3117
292.6197, 161.2432
293.1018, 162.9630
293.5839, 162.8502
294.0660, 161.8647
294.5482, 161.4698
295.0303, 161.6541
295.5124, 162.2299
295.9945, 163.6098
296.4766, 165.3208
296.9587, 165.8689
297.4409, 164.9098
297.9230, 163.3878
298.4051, 162.7053
298.8872, 162.6314
299.3693, 162.1450
299.8514, 160.4174
300.3336, 157.9719
300.8157, 155.7206
301.2978, 153.7441
301.7799, 151.9180
302.2620, 150.3820
302.7441, 148.9434
303.2263, 147.1110
303.7084, 144.3445
304.1905, 141.1937
304.6726, 138.2038
305.1547, 135.4086
305.6368, 132.9178
306.1190, 131.1992
306.6011, 129.8210
307.0832, 128.0808
307.5653, 125.2688
308.0474, 122.3021
308.5295, 120.1341
309.0117, 118.6769
309.4938, 117.3217
309.9759, 115.6384
310.4580, 113.8248
310.9401, 112.1536
311.4222, 110.6529
311.9044, 109.3520
312.3865, 108.3451
312.8686, 107.5898
313.3507, 106.9121
313.8328, 106.1288
314.3149, 105.4387
314.7971, 105.0807
315.2792, 105.3189
315.7613, 105.4037
316.2434, 104.6289
316.7255, 103.4181
317.2076, 102.6937
317.6898, 103.0740
318.1719, 103.8595
318.6540, 104.7727
319.1361, 105.8910
319.6182, 106.6515
320.1003, 106.2848
320.5825, 105.5846
321.0646, 105.6417
321.5467, 107.6500
322.0288, 109.6603
322.5109, 110.8634
322.9930, 111.0962
323.4752, 111.5018
323.9573, 112.2309
324.4394, 113.2666
324.9215, 114.5933
325.4036, 116.6055
325.8857, 118.4890
326.3679, 119.9805
326.8500, 121.1093
327.3321, 122.4316
327.8142, 124.1616
328.2963, 125.9913
328.7784, 127.7380
329.2606, 129.2370
329.7427, 130.8568
330.2248, 132.6369
330.7069, 134.5663
331.1890, 136.5573
331.6711, 138.6821
332.1533, 140.8100
332.6354, 142.8913
333.1175, 144.8476
333.5996, 146.9588
334.0817, 149.4697
334.5638, 152.0305
335.0460, 153.9042
335.5281, 154.5939
336.0102, 155.5414
336.4923, 157.2913
336.9744, 159.9786
337.4565, 162.4706
337.9387, 164.6946
338.4208, 166.8510
338.9029, 169.2314
339.3850, 171.9761
339.8671, 174.3720
340.3492, 176.1266
340.8313, 177.3687
341.3134, 178.9463
341.7956, 180.7915
342.2777, 183.2325
342.7598, 186.9297
343.2419, 191.8933
343.7240, 196.3057
344.2061, 199.7617
344.6883, 202.5861
345.1704, 205.3176
345.6525, 207.9584
346.1346, 210.9011
346.6167, 214.5234
347.0988, 218.7603
347.5810, 222.8013
348.0631, 226.5498
348.5452, 230.3853
349.0273, 234.9638
349.5094, 240.2223
349.9915, 245.5277
350.4737, 250.2624
350.9558, 254.9140
351.4379, 260.4720
351.9200, 267.0022
352.4021, 273.8452
352.8842, 280.5185
353.3664, 287.0786
353.8485, 293.7216
354.3306, 300.4837
354.8127, 307.4264
355.2948, 314.4754
355.7769, 321.6489
356.2591, 328.8491
356.7412, 335.7837
357.2233, 342.7730
357.7054, 350.3224
358.1875, 358.6727
358.6696, 367.3053
359.1518, 375.8163
359.6339, 384.2781
360.1160, 392.7778
360.5981, 401.7028
361.0802, 410.4413
361.5623, 418.4396
362.0445, 425.4370
362.5266, 432.6089
363.0087, 440.4754
363.4908, 448.7255
363.9729, 456.9257
364.4550, 465.4764
364.9372, 473.4574
365.4193, 480.3716
365.9014, 486.1906
366.3835, 491.9483
366.8656, 498.5907
367.3477, 504.7965
367.8299, 509.7472
368.3120, 511.4358
368.7941, 514.0859
369.2762, 519.0972
369.7583, 525.7042
370.2404, 530.4949
370.7226, 532.8212
371.2047, 533.9089
371.6868, 534.1783
372.1689, 533.3728
372.6510, 532.3586
373.1331, 531.2637
373.6153, 529.8925
374.0974, 527.9185
374.5795, 525.3428
375.0616, 522.2087
375.5437, 518.5903
376.0258, 514.5138
376.5080, 509.5711
376.9901, 503.5147
377.4722, 497.0261
377.9543, 490.5270
378.4364, 484.0096
378.9185, 477.9695
379.4007, 472.9368
379.8828, 468.2904
380.3649, 462.1069
380.8470, 454.3244
381.3291, 446.0125
381.8112, 437.8622
382.2934, 429.7980
382.7755, 421.8719
383.2576, 414.1561
383.7397, 406.3618
384.2218, 397.7201
384.7039, 388.4113
385.1861, 379.8871
385.6682, 373.4280
386.1503, 367.9934
386.6324, 361.2616
387.1145, 353.2827
387.5966, 345.1671
388.0788, 337.6142
388.5609, 330.5694
389.0430, 323.9026
389.5251, 317.4956
390.0072, 311.4369
390.4893, 305.8265
390.9715, 300.6777
391.4536, 295.7149
391.9357, 291.1996
392.4178, 286.6396
392.8999, 281.5834
393.3820, 275.7637
393.8642, 269.9320
394.3463, 264.2114
394.8284, 258.7296
395.3105, 253.7621
395.7926, 249.7882
396.2747, 245.9249
396.7569, 241.8559
397.2390, 237.5554
397.7211, 233.3194
398.2032, 228.7687
398.6853, 224.5386
399.1674, 221.1433
399.6496, 219.8312
400.1317, 217.8681
400.6138, 214.5880
401.0959, 210.4440
401.5780, 207.0322
402.0602, 204.9452
402.5423, 202.8708
403.0244, 200.1905
403.5065, 196.4514
403.9886, 193.7532
404.4707, 192.7456
404.9529, 192.1535
405.4350, 189.9789
405.9171, 185.4790
406.3992, 181.8469
406.8813, 180.2027
407.3634, 180.1767
407.8456, 178.9721
408.3277, 176.3728
408.8098, 173.4877
409.2919, 171.1863
409.7740, 169.4364
410.2561, 167.9431
410.7383, 166.7516
411.2204, 165.6280
411.7025, 164.0051
412.1846, 161.9542
412.6667, 160.0649
413.1488, 158.7480
413.6310, 157.8058
414.1131, 156.8588
414.5952, 155.8989
415.0773, 154.9692
415.5594, 154.0601
416.0415, 153.2111
416.5237, 152.4817
417.0058, 151.9989
417.4879, 151.5368
417.9700, 150.7332
418.4521, 149.7285
418.9342, 149.0780
419.4164, 149.4564
419.8985, 150.0638
420.3806, 150.2959
420.8627, 150.0066
421.3448, 149.5124
421.8269, 148.6899
422.3091, 147.7947
422.7912, 147.1799
423.2733, 146.8801
423.7554, 146.9226
424.2375, 147.4376
424.7196, 148.4292
425.2018, 149.3368
425.6839, 150.0514
426.1660, 150.7061
426.6481, 151.3957
427.1302, 152.2609
427.6123, 152.8953
428.0945, 153.0535
428.5766, 153.0539
429.0587, 153.6927
429.5408, 155.2656
430.0229, 156.8468
430.5050, 158.0969
430.9872, 158.9934
431.4693, 159.8506
431.9514, 160.6296
432.4335, 161.4778
432.9156, 162.6171
433.3977, 164.0542
433.8799, 165.3741
434.3620, 166.4836
434.8441, 167.4343
435.3262, 168.2272
435.8083, 168.8794
436.2904, 169.7511
436.7726, 171.5214
437.2547, 173.6292
437.7368, 174.6509
438.2189, 174.4083
438.7010, 173.6935
439.1831, 173.2641
439.6652, 172.9234
440.1473, 172.2917
440.6295, 171.2551
441.1116, 169.8505
441.5937, 167.9537
442.0758, 165.6428
442.5579, 163.3683
443.0400, 161.2236
443.5222, 159.2657
444.0043, 157.5761
444.4864, 156.3187
444.9685, 154.9801
445.4506, 153.3292
445.9327, 151.5165
446.4149, 149.7515
446.8970, 148.0275
447.3791, 146.4228
447.8612, 144.8668
448.3433, 143.3550
448.8254, 142.2572
449.3076, 141.6297
449.7897, 141.3731
450.2718, 141.4999
450.7539, 142.3395
451.2360, 142.7788
451.7181, 142.5743
452.2003, 142.1063
452.6824, 142.0535
453.1645, 142.3602
453.6466, 143.3142
454.1287, 145.1945
454.6108, 147.9016
455.0930, 150.2780
455.5751, 152.3074
456.0572, 154.2632
456.5393, 156.4219
457.0214, 158.7399
457.5035, 160.8525
457.9857, 162.6566
458.4678, 164.3681
458.9499, 166.0329
459.4320, 167.7974
459.9141, 170.2521
460.3962, 174.2728
460.8784, 178.8445
461.3605, 182.6265
461.8426, 185.6143
462.3247, 188.6869
462.8068, 192.4211
463.2889, 196.5929
463.7711, 200.9259
464.2532, 205.3540
464.7353, 209.9170
465.2174, 214.8053
465.6995, 219.7952
466.1816, 224.4616
466.6638, 229.2572
467.1459, 233.0735
467.6280, 235.2788
468.1101, 235.4305
468.5922, 235.8693
469.0743, 237.4897
469.5565, 238.8120
470.0386, 238.6297
470.5207, 236.7789
471.0028, 233.7557
471.4849, 229.4704
471.9670, 224.1259
472.4492, 218.1183
472.9313, 211.4055
473.4134, 204.2751
473.8955, 196.6592
474.3776, 188.5693
474.8597, 180.9641
475.3419, 173.8065
475.8240, 167.1068
476.3061, 160.9867
476.7882, 155.3674
477.2703, 149.8607
477.7524, 144.2707
478.2346, 138.9202
478.7167, 134.1876
479.1988, 130.0105
479.6809, 126.1570
480.1630, 122.4747
480.6451, 119.0647
481.1273, 116.1003
481.6094, 113.5919
482.0915, 111.2082
482.5736, 108.6367
483.0557, 106.1292
483.5378, 103.9010
484.0200, 102.1036
484.5021, 100.4771
484.9842, 98.95763
485.4663, 97.54936
485.9484, 96.28748
486.4305, 95.49149
486.9127, 94.53715
487.3948, 93.11837
487.8769, 91.12283
488.3590, 89.54983
488.8411, 88.52776
489.3232, 87.78728
489.8054, 87.18672
490.2875, 86.85758
490.7696, 86.16273
491.2517, 84.89480
491.7338, 83.37076
492.2159, 82.40797
492.6981, 82.04389
493.1802, 81.65317
493.6623, 80.83872
494.1444, 79.75843
494.6265, 79.14558
495.1086, 79.00012
495.5908, 78.93372
496.0729, 78.75021
496.5550, 78.37736
497.0371, 77.58680
497.5192, 76.14267
498.0013, 74.73967
498.4835, 74.09854
498.9656, 73.94781
499.4477, 73.74430
499.9298, 73.14690
500.4119, 72.50876
500.8940, 72.03712
501.3762, 71.72832
501.8583, 71.42585
502.3404, 71.15769
502.8225, 70.82446
503.3046, 70.34582
503.7867, 69.42398
504.2689, 68.83939
504.7510, 68.91096
505.2331, 69.20023
505.7152, 69.05254
506.1973, 68.36449
506.6794, 67.41392
507.1616, 66.05495
507.6437, 64.43066
508.1258, 63.81304
508.6079, 64.44099
509.0900, 65.13296
509.5721, 65.04865
510.0543, 64.26425
510.5364, 63.55790
511.0185, 62.96531
511.5006, 62.50792
511.9827, 62.27937
512.4648, 62.21795
512.9470, 62.13479
513.4291, 61.99069
513.9112, 61.76871
514.3933, 61.43795
514.8754, 61.00854
515.3575, 60.51778
515.8397, 59.82817
516.3218, 59.19349
516.8039, 58.83746
517.2860, 58.82109
517.7681, 58.80128
518.2502, 58.61017
518.7324, 58.38744
519.2145, 58.25805
519.6966, 58.42858
520.1787, 58.45868
520.6608, 58.18255
521.1429, 57.75588
521.6251, 57.58355
522.1072, 57.84315
522.5893, 58.02963
523.0714, 57.96957
523.5535, 57.66521
524.0356, 57.29821
524.5178, 56.81420
524.9999, 56.44622
525.4820, 56.50885
525.9641, 56.94188
526.4462, 57.11118
526.9283, 56.88716
527.4105, 56.54273
527.8926, 56.52222
528.3747, 56.70485
528.8568, 56.68831
529.3389, 55.46322
529.8210, 56.17611
530.3032, 56.56015
530.7853, 56.63306
531.2674, 55.46285
531.7495, 55.89786
532.2316, 55.68957
532.7137, 55.45490
533.1959, 56.11582
533.6780, 55.12643
534.1601, 55.77316
534.6422, 55.76677
535.1243, 56.05930
535.6064, 55.70456
536.0886, 55.54973
536.5707, 56.04239
537.0528, 56.17653
537.5349, 55.74728
538.0170, 56.05881
538.4991, 55.04680
538.9813, 55.19620
539.4634, 55.84672
539.9455, 55.45001
540.4276, 55.77337
540.9097, 54.72858
541.3918, 54.63001
541.8740, 54.76936
542.3561, 54.72743
542.8382, 54.39211
543.3203, 54.02524
543.8024, 53.91754
544.2845, 54.01128
544.7667, 54.18032
545.2488, 54.44757
545.7309, 54.70223
546.2130, 54.85805
546.6951, 54.93026
547.1772, 54.98479
547.6594, 55.08382
548.1415, 55.14471
548.6236, 55.08940
549.1057, 54.84098
549.5878, 54.73920
550.0699, 55.00592
550.5521, 55.30137
551.0342, 55.31053
551.5163, 54.79451
551.9984, 54.53015
552.4805, 54.68280
552.9626, 55.06237
553.4448, 55.17814
553.9269, 54.97580
554.4090, 54.94051
554.8911, 55.39605
555.3732, 56.14062
555.8553, 56.40818
556.3375, 56.20208
556.8196, 55.86780
557.3017, 55.60643
557.7838, 55.41327
558.2659, 55.24958
558.7480, 55.08585
559.2302, 55.10194
559.7123, 55.65882
560.1944, 56.40493
560.6765, 56.88506
561.1586, 56.77290
561.6407, 56.57612
562.1229, 56.44579
562.6050, 56.35395
563.0871, 56.21496
563.5692, 55.81427
564.0513, 55.57955
564.5334, 55.68756
565.0156, 56.15461
565.4977, 56.50209
565.9798, 56.73865
566.4619, 56.83572
566.9440, 56.64579
567.4261, 56.12083
567.9083, 56.15203
568.3904, 56.94582
568.8725, 57.85978
569.3546, 57.91880
569.8367, 57.30763
570.3188, 56.86283
570.8010, 56.89233
571.2831, 57.15668
571.7652, 57.45839
572.2473, 57.76543
572.7294, 57.95406
573.2115, 57.88519
573.6937, 57.73961
574.1758, 57.64115
574.6579, 57.59997
575.1400, 57.52928
575.6221, 57.28603
576.1042, 57.08299
576.5864, 57.08039
577.0685, 57.51458
577.5506, 57.71486
578.0327, 57.46050
578.5148, 57.13456
578.9969, 57.32264
579.4791, 58.24491
579.9612, 58.87762
580.4433, 58.92441
580.9254, 58.62944
581.4075, 58.67148
581.8896, 59.04570
582.3718, 59.35452
582.8539, 59.35260
583.3360, 59.14604
583.8181, 58.88990
584.3002, 58.59652
584.7823, 58.43280
585.2645, 58.52122
585.7466, 58.80231
586.2287, 59.30096
586.7108, 60.16234
587.1929, 60.74826
587.6750, 60.46730
588.1571, 59.88964
588.6392, 59.67147
589.1213, 60.41383
589.6035, 60.93113
