##NAMES=Diaboleite
##RRUFFID=R050372
##IDEAL CHEMISTRY=Cu^2+^Pb^2+^_2_Cl_2_(OH)_4_
##LOCALITY=Collins Vein, Mammoth mine, Tiger, Arizona
##OWNER=RRUFF
##SOURCE=Eugene Schlepp
##DESCRIPTION=Blue massive fragment
##STATUS=The identification of this mineral has been confirmed by X-ray diffraction and chemical analysis
##URL=rruff.info/R050372
##MEASURED CHEMISTRY=(Cu_0.91_Pb_0.09_)_Î£=1_Pb_2.00_Cl_2.00_(OH)_4_
92.35352, 31.00945
92.83563, 27.65727
93.31775, 26.22966
93.79987, 27.49426
94.28198, 30.78574
94.76410, 34.18756
95.24622, 37.20232
95.72833, 40.24171
96.21045, 44.15432
96.69257, 48.98570
97.17468, 54.23072
97.65680, 59.19975
98.13892, 63.93134
98.62103, 69.50426
99.10315, 76.22626
99.58527, 83.99942
100.0674, 91.72289
100.5495, 99.11674
101.0316, 106.9327
101.5137, 115.6536
101.9958, 125.0095
102.4780, 136.4484
102.9601, 150.7772
103.4422, 168.4793
103.9243, 185.8469
104.4064, 203.0503
104.8885, 219.9085
105.3707, 236.3953
105.8528, 251.7041
106.3349, 267.5758
106.8170, 284.5952
107.2991, 303.3983
107.7813, 322.0665
108.2634, 338.8844
108.7455, 355.4131
109.2276, 376.2007
109.7097, 404.5412
110.1918, 434.9860
110.6740, 465.3286
111.1561, 495.7240
111.6382, 525.7808
112.1203, 558.0836
112.6024, 591.5345
113.0845, 617.5269
113.5667, 632.4830
114.0488, 640.7279
114.5309, 645.3053
115.0130, 643.4496
115.4951, 641.0971
115.9772, 638.9348
116.4594, 637.0591
116.9415, 637.9998
117.4236, 642.6405
117.9057, 650.5930
118.3878, 661.3917
118.8699, 676.2526
119.3521, 693.0231
119.8342, 710.6465
120.3163, 729.0148
120.7984, 748.6644
121.2805, 769.4765
121.7626, 791.8193
122.2448, 816.3226
122.7269, 843.1984
123.2090, 872.4178
123.6911, 903.4403
124.1732, 935.7468
124.6553, 971.7964
125.1375, 1011.920
125.6196, 1057.141
126.1017, 1110.705
126.5838, 1174.528
127.0659, 1248.101
127.5480, 1330.215
128.0302, 1420.543
128.5123, 1520.729
128.9944, 1637.655
129.4765, 1769.800
129.9586, 1902.963
130.4407, 2037.934
130.9229, 2168.622
131.4050, 2274.233
131.8871, 2357.303
132.3692, 2404.656
132.8513, 2377.030
133.3334, 2268.216
133.8156, 2106.832
134.2977, 1915.883
134.7798, 1703.950
135.2619, 1504.443
135.7440, 1320.281
136.2261, 1155.177
136.7083, 1013.302
137.1904, 894.5787
137.6725, 795.5690
138.1546, 712.8263
138.6367, 646.7980
139.1188, 591.0733
139.6010, 544.0885
140.0831, 505.9193
140.5652, 473.0300
141.0473, 445.2314
141.5294, 422.1081
142.0115, 403.9557
142.4937, 391.9139
142.9758, 381.5352
143.4579, 371.3442
143.9400, 361.0743
144.4221, 352.3680
144.9042, 345.1466
145.3864, 339.4367
145.8685, 335.5883
146.3506, 334.7047
146.8327, 334.0877
147.3148, 332.8040
147.7969, 330.3370
148.2791, 328.3631
148.7612, 326.6026
149.2433, 325.3469
149.7254, 325.2818
150.2075, 326.9305
150.6896, 329.3058
151.1718, 332.0923
151.6539, 336.0795
152.1360, 339.3470
152.6181, 341.4702
153.1002, 342.7986
153.5823, 344.3613
154.0645, 346.8469
154.5466, 349.1527
155.0287, 350.7220
155.5108, 349.5601
155.9929, 350.0077
156.4750, 352.9461
156.9572, 358.0602
157.4393, 364.0812
157.9214, 371.6960
158.4035, 379.6044
158.8856, 387.0169
159.3677, 393.0984
159.8499, 399.3636
160.3320, 405.8775
160.8141, 412.7248
161.2962, 420.5453
161.7783, 431.0862
162.2604, 441.9283
162.7426, 451.0768
163.2247, 454.7939
163.7068, 459.4561
164.1889, 468.5346
164.6710, 481.7033
165.1531, 495.1646
165.6353, 506.1890
166.1174, 516.8019
166.5995, 529.1832
167.0816, 544.3552
167.5637, 561.3405
168.0458, 579.7426
168.5280, 599.3831
169.0101, 620.2120
169.4922, 640.6459
169.9743, 662.3104
170.4564, 687.3846
170.9385, 718.9393
171.4207, 752.9608
171.9028, 786.4841
172.3849, 819.2616
172.8670, 851.0941
173.3491, 884.1431
173.8312, 916.3348
174.3134, 943.7912
174.7955, 967.4784
175.2776, 984.1097
175.7597, 990.0674
176.2418, 985.2153
176.7239, 969.2786
177.2061, 938.2690
177.6882, 895.1763
178.1703, 848.8505
178.6524, 801.4988
179.1345, 753.6061
179.6166, 706.0123
180.0988, 657.9072
180.5809, 612.0951
181.0630, 571.5321
181.5451, 535.5535
182.0272, 503.2641
182.5093, 473.9189
182.9915, 447.5121
183.4736, 424.6007
183.9557, 405.0699
184.4378, 388.7218
184.9199, 375.8873
185.4020, 366.4017
185.8842, 357.4265
186.3663, 347.2888
186.8484, 336.4061
187.3305, 326.5547
187.8126, 317.6656
188.2947, 310.0803
188.7769, 304.8582
189.2590, 301.8940
189.7411, 299.0145
190.2232, 294.6571
190.7053, 289.1377
191.1874, 284.3938
191.6696, 280.5922
192.1517, 277.5000
192.6338, 274.5775
193.1159, 271.8061
193.5980, 269.6643
194.0801, 269.1520
194.5623, 270.0594
195.0444, 268.8704
195.5265, 264.5256
196.0086, 259.0053
196.4907, 256.9096
196.9728, 258.6072
197.4550, 260.6043
197.9371, 260.6336
198.4192, 258.6591
198.9013, 257.0350
199.3834, 255.9753
199.8655, 255.3665
200.3477, 254.8272
200.8298, 254.2590
201.3119, 254.2341
201.7940, 255.5117
202.2761, 258.3055
202.7582, 259.9095
203.2404, 259.7859
203.7225, 258.5581
204.2046, 257.9885
204.6867, 258.2528
205.1688, 258.5779
205.6509, 258.4222
206.1331, 257.6834
206.6152, 257.1161
207.0973, 256.7276
207.5794, 256.5792
208.0615, 256.9298
208.5436, 257.9134
209.0257, 259.0452
209.5079, 259.9848
209.9900, 260.6397
210.4721, 261.4967
210.9542, 262.5607
211.4363, 263.8605
211.9184, 265.5906
212.4006, 267.9704
212.8827, 270.3156
213.3648, 272.0952
213.8469, 273.1263
214.3290, 274.3377
214.8111, 275.8414
215.2933, 277.5572
215.7754, 279.2228
216.2575, 280.7184
216.7396, 282.3919
217.2217, 284.4705
217.7038, 287.0664
218.1860, 289.7199
218.6681, 292.4669
219.1502, 295.2252
219.6323, 297.5670
220.1144, 299.1296
220.5965, 300.8675
221.0787, 303.4359
221.5608, 307.3421
222.0429, 310.6551
222.5250, 313.0137
223.0071, 314.7245
223.4892, 316.8835
223.9714, 319.9147
224.4535, 322.7652
224.9356, 324.7670
225.4177, 325.2625
225.8998, 326.5526
226.3819, 329.2145
226.8641, 332.7000
227.3462, 334.9513
227.8283, 335.3772
228.3104, 335.4672
228.7925, 336.1208
229.2746, 338.2060
229.7568, 338.8266
230.2389, 337.4348
230.7210, 334.5866
231.2031, 332.1058
231.6852, 330.2803
232.1673, 328.3968
232.6495, 326.1133
233.1316, 323.2815
233.6137, 320.3949
234.0958, 317.5866
234.5779, 314.7386
235.0600, 311.5605
235.5422, 307.9616
236.0243, 304.1127
236.5064, 300.0607
236.9885, 295.7333
237.4706, 291.3586
237.9527, 286.9450
238.4349, 282.5345
238.9170, 278.2726
239.3991, 274.1499
239.8812, 270.1916
240.3633, 266.5465
240.8454, 263.7971
241.3276, 259.9082
241.8097, 254.7086
242.2918, 248.4846
242.7739, 241.7679
243.2560, 233.9551
243.7381, 226.5827
244.2203, 220.2647
244.7024, 215.2736
245.1845, 210.5939
245.6666, 206.3146
246.1487, 202.3147
246.6308, 198.2683
247.1130, 194.0972
247.5951, 189.9898
248.0772, 186.0569
248.5593, 182.3091
249.0414, 178.6113
249.5235, 174.9212
250.0057, 171.3116
250.4878, 167.8560
250.9699, 164.6563
251.4520, 161.3970
251.9341, 157.8227
252.4162, 153.6126
252.8984, 150.6836
253.3805, 149.7107
253.8626, 149.4877
254.3447, 148.1927
254.8268, 145.1939
255.3089, 142.3802
255.7911, 140.3737
256.2732, 139.2747
256.7553, 138.0100
257.2374, 136.3907
257.7195, 134.7878
258.2017, 133.7897
258.6838, 133.9130
259.1659, 133.3966
259.6480, 131.4063
260.1301, 127.8484
260.6122, 125.9196
261.0944, 126.3006
261.5765, 127.4672
262.0586, 127.8352
262.5407, 127.2373
263.0228, 126.2675
263.5049, 124.8054
263.9871, 122.8947
264.4692, 122.1133
264.9513, 123.0101
265.4334, 124.1467
265.9155, 124.0015
266.3976, 121.9964
266.8798, 120.7206
267.3619, 120.9061
267.8440, 122.3100
268.3261, 122.8641
268.8082, 122.2642
269.2903, 121.4539
269.7725, 121.1096
270.2546, 121.2183
270.7367, 121.8942
271.2188, 123.3173
271.7009, 125.2831
272.1830, 126.9852
272.6652, 128.3850
273.1473, 129.5893
273.6294, 130.6358
274.1115, 131.4872
274.5936, 132.3832
275.0757, 133.3165
275.5579, 134.3371
276.0400, 135.4980
276.5221, 136.7378
277.0042, 138.3613
277.4863, 140.7292
277.9684, 143.9187
278.4506, 146.6928
278.9327, 148.7862
279.4148, 150.6530
279.8969, 153.5082
280.3790, 157.5535
280.8611, 161.1757
281.3433, 162.9413
281.8254, 162.8872
282.3075, 164.8574
282.7896, 169.4141
283.2717, 175.0428
283.7538, 179.3332
284.2360, 182.2425
284.7181, 184.9688
285.2002, 188.1382
285.6823, 191.6582
286.1644, 194.4995
286.6465, 196.4397
287.1287, 198.4049
287.6108, 201.7572
288.0929, 206.4221
288.5750, 211.0447
289.0571, 214.9330
289.5392, 218.3884
290.0214, 222.8766
290.5035, 228.5512
290.9856, 233.8569
291.4677, 236.7403
291.9498, 237.5803
292.4319, 238.6471
292.9141, 240.7622
293.3962, 243.4918
293.8783, 245.8816
294.3604, 247.9199
294.8425, 249.7591
295.3246, 251.5859
295.8068, 253.3525
296.2889, 254.9503
296.7710, 256.6689
297.2531, 257.8637
297.7352, 257.0897
298.2173, 254.5303
298.6995, 251.6882
299.1816, 249.7226
299.6637, 248.2607
300.1458, 246.6225
300.6279, 244.7375
301.1100, 242.4784
301.5922, 239.9263
302.0743, 236.9560
302.5564, 233.0896
303.0385, 226.9632
303.5206, 220.0956
304.0027, 214.7740
304.4849, 211.6344
304.9670, 208.8279
305.4491, 204.6107
305.9312, 199.4003
306.4133, 194.1960
306.8954, 189.4472
307.3776, 184.9706
307.8597, 180.4991
308.3418, 175.9220
308.8239, 172.0097
309.3060, 170.1050
309.7881, 169.0936
310.2703, 167.2796
310.7524, 162.5841
311.2345, 157.8330
311.7166, 155.3752
312.1987, 155.1722
312.6808, 155.1069
313.1630, 153.7383
313.6451, 151.9651
314.1272, 150.7465
314.6093, 150.9894
315.0914, 151.3089
315.5735, 150.8999
316.0557, 149.9146
316.5378, 149.1653
317.0199, 148.9374
317.5020, 149.1119
317.9841, 149.6040
318.4662, 150.3633
318.9484, 151.4785
319.4305, 153.1663
319.9126, 155.2519
320.3947, 157.2756
320.8768, 159.2206
321.3589, 160.9833
321.8411, 162.3545
322.3232, 162.7750
322.8053, 164.0891
323.2874, 167.4333
323.7695, 171.7406
324.2516, 175.3215
324.7338, 176.6898
325.2159, 178.4229
325.6980, 181.5024
326.1801, 186.3669
326.6622, 190.8391
327.1443, 194.4358
327.6265, 197.7453
328.1086, 201.3696
328.5907, 205.1341
329.0728, 209.3842
329.5549, 214.3959
330.0370, 220.2023
330.5192, 225.5639
331.0013, 229.9456
331.4834, 234.3758
331.9655, 239.6003
332.4476, 245.8011
332.9297, 252.5456
333.4118, 259.9830
333.8940, 267.9328
334.3761, 275.5279
334.8582, 282.5345
335.3403, 289.2911
335.8224, 295.7157
336.3045, 301.2414
336.7867, 308.2924
337.2688, 317.4801
337.7509, 327.8218
338.2330, 337.6221
338.7151, 346.7716
339.1972, 355.4875
339.6794, 363.6493
340.1615, 371.1115
340.6436, 379.8635
341.1257, 390.1168
341.6078, 401.0124
342.0899, 411.4870
342.5721, 421.3263
343.0542, 431.3072
343.5363, 441.4492
344.0184, 451.8166
344.5005, 463.2148
344.9826, 475.6875
345.4648, 488.2135
345.9469, 499.6935
346.4290, 510.3427
346.9111, 520.4138
347.3932, 529.5536
347.8753, 538.8107
348.3575, 550.7052
348.8396, 564.9188
349.3217, 578.5660
349.8038, 588.7049
350.2859, 596.7419
350.7680, 606.3926
351.2502, 618.4423
351.7323, 630.7391
352.2144, 640.4723
352.6965, 648.3911
353.1786, 656.4762
353.6607, 667.0443
354.1429, 677.7484
354.6250, 685.4202
355.1071, 689.8813
355.5892, 693.2203
356.0713, 696.6136
356.5534, 700.0311
357.0356, 703.4280
357.5177, 707.0870
357.9998, 710.4962
358.4819, 713.2144
358.9640, 715.2972
359.4461, 716.9668
359.9283, 718.2423
360.4104, 719.1994
360.8925, 720.0057
361.3746, 721.2784
361.8567, 721.3762
362.3388, 719.2154
362.8210, 715.3734
363.3031, 711.1279
363.7852, 706.4146
364.2673, 701.7548
364.7494, 697.6937
365.2315, 694.8275
365.7137, 690.5343
366.1958, 683.5856
366.6779, 675.2435
367.1600, 666.9277
367.6421, 658.7220
368.1242, 650.6405
368.6064, 642.9791
369.0885, 635.7645
369.5706, 627.5801
370.0527, 617.6259
370.5348, 607.2866
371.0169, 597.3231
371.4991, 588.0763
371.9812, 578.8140
372.4633, 569.4221
372.9454, 559.9511
373.4275, 550.8116
373.9096, 542.1088
374.3918, 533.3797
374.8739, 524.6671
375.3560, 515.9918
375.8381, 506.6873
376.3202, 496.4901
376.8023, 486.1385
377.2845, 477.0168
377.7666, 469.5011
378.2487, 461.5025
378.7308, 452.3852
379.2129, 442.2216
379.6950, 432.2761
380.1772, 422.4381
380.6593, 412.9435
381.1414, 404.0031
381.6235, 395.6244
382.1056, 387.0528
382.5877, 378.0456
383.0699, 369.0069
383.5520, 360.7174
384.0341, 353.0815
384.5162, 345.8917
384.9983, 339.1060
385.4804, 332.5871
385.9626, 325.8547
386.4447, 318.7679
386.9268, 311.9703
387.4089, 306.7130
387.8910, 302.2404
388.3731, 296.9750
388.8553, 288.9942
389.3374, 280.6429
389.8195, 274.6717
390.3016, 271.0237
390.7837, 267.0685
391.2658, 260.4223
391.7480, 253.0046
392.2301, 246.8592
392.7122, 243.2948
393.1943, 240.0766
393.6764, 236.2072
394.1585, 231.8773
394.6407, 227.7039
395.1228, 223.7762
395.6049, 220.1305
396.0870, 216.9144
396.5691, 214.4962
397.0512, 211.4149
397.5334, 206.4218
398.0155, 200.9093
398.4976, 196.6833
398.9797, 195.2346
399.4618, 193.6360
399.9439, 191.3005
400.4261, 188.2302
400.9082, 185.1328
401.3903, 181.7496
401.8724, 178.5794
402.3545, 175.9886
402.8366, 174.3976
403.3188, 172.5033
403.8009, 170.0920
404.2830, 167.3980
404.7651, 165.0268
405.2472, 163.0931
405.7293, 161.2215
406.2115, 159.2232
406.6936, 157.1067
407.1757, 155.2055
407.6578, 153.5434
408.1399, 152.0240
408.6220, 150.4657
409.1042, 148.8746
409.5863, 147.5771
410.0684, 146.8623
410.5505, 146.3386
411.0326, 144.8387
411.5147, 142.3885
411.9969, 140.0115
412.4790, 138.3543
412.9611, 137.2948
413.4432, 136.7244
413.9253, 136.7804
414.4074, 136.7009
414.8896, 135.1790
415.3717, 132.8586
415.8538, 131.2683
416.3359, 131.9484
416.8180, 133.1757
417.3001, 133.3903
417.7823, 132.5773
418.2644, 131.5030
418.7465, 130.1163
419.2286, 128.8946
419.7107, 128.3367
420.1928, 128.9548
420.6750, 129.7215
421.1571, 130.2529
421.6392, 130.6376
422.1213, 131.0928
422.6034, 131.3147
423.0855, 131.9245
423.5677, 133.3548
424.0498, 135.9943
424.5319, 138.1337
425.0140, 139.3377
425.4961, 140.1466
425.9782, 141.1147
426.4604, 142.4814
426.9425, 143.6456
427.4246, 144.3392
427.9067, 144.6997
428.3888, 145.6644
428.8709, 147.4183
429.3531, 149.4424
429.8352, 151.4152
430.3173, 153.1911
430.7994, 155.5888
431.2815, 158.7815
431.7636, 162.3441
432.2458, 165.5400
432.7279, 168.3486
433.2100, 171.1066
433.6921, 173.9462
434.1742, 176.8320
434.6563, 179.5228
435.1385, 182.0450
435.6206, 184.5807
436.1027, 187.4735
436.5848, 190.5158
437.0669, 193.2143
437.5490, 195.5945
438.0312, 197.3227
438.5133, 198.0061
438.9954, 197.7544
439.4775, 196.8654
439.9596, 195.5047
440.4417, 193.5746
440.9239, 190.7879
441.4060, 187.1300
441.8881, 183.4289
442.3702, 180.4381
442.8523, 177.5483
443.3344, 174.1366
443.8166, 169.5139
444.2987, 164.9615
444.7808, 160.2667
445.2629, 155.8575
445.7450, 152.9700
446.2271, 153.4293
446.7093, 154.1506
447.1914, 153.8129
447.6735, 151.7503
448.1556, 150.6938
448.6377, 151.0215
449.1198, 152.1064
449.6020, 153.3379
450.0841, 154.5850
450.5662, 156.1980
451.0483, 158.2449
451.5304, 160.7074
452.0125, 163.4865
452.4947, 166.6883
452.9768, 169.9514
453.4589, 172.7734
453.9410, 175.1438
454.4231, 179.1210
454.9052, 185.0291
455.3874, 191.7895
455.8695, 198.0619
456.3516, 203.9891
456.8337, 210.4096
457.3158, 217.9097
457.7979, 225.8910
458.2801, 232.9524
458.7622, 239.2799
459.2443, 246.4821
459.7264, 256.4661
460.2085, 267.6144
460.6906, 277.6060
461.1728, 285.9274
461.6549, 293.8907
462.1370, 302.2737
462.6191, 310.8060
463.1012, 318.8979
463.5833, 326.5919
464.0655, 333.5771
464.5476, 339.9202
465.0297, 345.4970
465.5118, 349.5688
465.9939, 351.0820
466.4760, 351.5507
466.9582, 351.7963
467.4403, 352.2077
467.9224, 351.8161
468.4045, 350.9958
468.8866, 349.2245
469.3687, 345.6745
469.8509, 340.1114
470.3330, 333.3191
470.8151, 325.5490
471.2972, 316.7508
471.7793, 306.1626
472.2614, 293.2390
472.7436, 279.7325
473.2257, 266.7551
473.7078, 254.2613
474.1899, 241.8114
474.6720, 229.2049
475.1541, 216.8660
475.6363, 205.4366
476.1184, 194.8569
476.6005, 184.7587
477.0826, 175.0044
477.5647, 165.6530
478.0468, 156.2314
478.5290, 146.8773
479.0111, 138.8486
479.4932, 134.1039
479.9753, 130.7210
480.4574, 126.2828
480.9395, 119.9716
481.4217, 113.8338
481.9038, 109.0726
482.3859, 105.3819
482.8680, 102.3890
483.3501, 100.5729
483.8322, 98.84703
484.3144, 96.87523
484.7965, 94.66369
485.2786, 92.25974
485.7607, 89.38850
486.2428, 86.57561
486.7249, 84.03086
487.2071, 81.60545
487.6892, 79.86382
488.1713, 79.16186
488.6534, 78.89798
489.1355, 78.14597
489.6176, 76.68678
490.0998, 75.39018
490.5819, 74.53469
491.0640, 73.98696
491.5461, 73.03019
492.0282, 71.60583
492.5103, 70.17860
492.9925, 69.19380
493.4746, 68.51873
493.9567, 67.43938
494.4388, 65.80074
494.9209, 64.22633
495.4030, 63.61946
495.8852, 63.63241
496.3673, 63.35960
496.8494, 62.21537
497.3315, 60.88149
497.8136, 59.94851
498.2957, 59.36905
498.7779, 58.98995
499.2600, 58.77814
499.7421, 58.69740
500.2242, 58.85907
500.7063, 59.44442
501.1884, 59.49956
501.6706, 58.28565
502.1527, 56.60522
502.6348, 55.28612
503.1169, 54.57245
503.5990, 54.07238
504.0811, 53.97301
504.5633, 54.08474
505.0454, 53.62394
505.5275, 52.18389
506.0096, 50.88615
506.4917, 50.22163
506.9738, 50.23963
507.4560, 50.27712
507.9381, 50.40133
508.4202, 50.36377
508.9023, 49.75100
509.3844, 48.60995
509.8665, 47.75237
510.3487, 47.32415
510.8308, 47.25371
511.3129, 47.71554
511.7950, 48.54182
512.2772, 48.94743
512.7593, 48.14236
513.2414, 46.88907
513.7235, 45.99913
514.2056, 45.49714
514.6877, 45.36113
515.1699, 46.09075
515.6520, 46.91262
516.1341, 47.05943
516.6162, 46.01212
517.0983, 44.96836
517.5804, 44.19049
518.0626, 43.68670
518.5447, 43.47068
519.0268, 43.74817
519.5089, 44.10397
519.9910, 44.57043
520.4731, 45.11812
520.9553, 45.20881
521.4374, 44.62840
521.9195, 43.91172
522.4016, 43.30478
522.8837, 42.78459
523.3658, 42.56882
523.8480, 42.74682
524.3301, 43.04430
524.8122, 43.05031
525.2943, 42.78825
525.7764, 42.64291
526.2585, 42.77065
526.7407, 43.01371
527.2228, 43.12005
527.7049, 43.09303
528.1870, 42.95264
528.6691, 42.52983
529.1512, 42.09227
529.6334, 42.04211
530.1155, 42.42064
530.5976, 42.69971
531.0797, 42.53663
531.5618, 42.13119
532.0439, 41.67195
532.5261, 41.06555
533.0082, 40.60271
533.4903, 40.41834
533.9724, 40.41671
534.4545, 40.38660
534.9366, 40.08810
535.4188, 40.02105
535.9009, 40.39847
536.3830, 41.20548
536.8651, 41.79049
537.3472, 42.16570
537.8293, 42.29801
538.3115, 42.04139
538.7936, 41.34644
539.2757, 41.04357
539.7578, 41.27018
540.2399, 41.62176
540.7220, 41.43457
541.2042, 40.83110
541.6863, 40.53196
542.1684, 40.93903
542.6505, 41.54195
543.1326, 41.56732
543.6147, 41.13606
544.0969, 40.70781
544.5790, 40.41303
545.0611, 40.33307
545.5432, 40.69343
546.0253, 41.54093
546.5074, 42.10643
546.9896, 41.79419
547.4717, 41.21203
547.9538, 40.85280
548.4359, 41.02204
548.9180, 41.11248
549.4001, 41.00256
549.8823, 40.80894
550.3644, 40.72844
550.8465, 40.79380
551.3286, 40.91863
551.8107, 41.12904
552.2928, 41.39336
552.7750, 41.43729
553.2571, 41.21860
553.7392, 40.99064
554.2213, 41.01475
554.7034, 41.20787
555.1855, 40.99146
555.6677, 40.28275
556.1498, 39.57688
556.6319, 39.34480
557.1140, 39.51070
557.5961, 39.97393
558.0782, 40.90805
558.5604, 41.78848
559.0425, 42.13377
559.5246, 42.09876
560.0067, 42.02232
560.4888, 41.94192
560.9709, 41.94230
561.4531, 42.08955
561.9352, 42.38450
562.4173, 42.67379
562.8994, 43.03446
563.3815, 43.30328
563.8636, 43.38803
564.3458, 43.21272
564.8279, 43.03754
565.3100, 42.79757
565.7921, 42.63733
566.2742, 42.81087
566.7563, 43.36637
567.2385, 43.79417
567.7206, 43.98025
568.2027, 43.98145
568.6848, 43.85786
569.1669, 43.62701
569.6490, 43.43281
570.1312, 43.35402
570.6133, 43.35527
571.0954, 43.36018
571.5775, 43.37491
572.0596, 43.50908
572.5417, 43.97532
573.0239, 44.50997
573.5060, 44.88291
573.9881, 45.04382
574.4702, 45.08012
574.9523, 44.85567
575.4344, 44.58089
575.9166, 44.52583
576.3987, 44.94121
576.8808, 45.26095
577.3629, 45.36264
577.8450, 45.33410
578.3271, 45.51542
578.8092, 46.03355
579.2913, 46.37336
579.7734, 46.20897
580.2556, 45.63853
580.7377, 45.45017
581.2198, 45.67053
581.7019, 45.99458
582.1840, 46.17001
582.6661, 46.25581
583.1483, 46.45134
583.6304, 46.82404
584.1125, 47.05695
584.5946, 46.60737
585.0767, 45.90666
585.5588, 45.59327
586.0410, 46.29840
586.5231, 46.96957
587.0052, 47.11144
587.4873, 46.88135
587.9694, 46.69920
588.4515, 46.61574
588.9337, 46.62209
