##NAMES=Diamond
##RRUFFID=R050204
##IDEAL CHEMISTRY=C
##LOCALITY=Unknown
##OWNER=RRUFF
##SOURCE=Eric Van Valkenburg
##DESCRIPTION=Single crystal, type IIA
##STATUS=The identification of this mineral has been confirmed by single-crystal X-ray diffraction.
##URL=rruff.info/R050204
127.8323, 536.8918
128.3145, 548.3719
128.7966, 556.6213
129.2787, 561.9344
129.7608, 563.3398
130.2429, 557.4923
130.7250, 544.9714
131.2072, 532.5364
131.6893, 523.5527
132.1714, 517.7850
132.6535, 515.7842
133.1356, 518.9731
133.6177, 524.7601
134.0999, 525.3400
134.5820, 519.9996
135.0641, 513.6990
135.5462, 511.4314
136.0283, 513.5071
136.5104, 514.3382
136.9926, 511.4565
137.4747, 505.2520
137.9568, 503.3250
138.4389, 506.3965
138.9210, 512.1766
139.4031, 518.2380
139.8853, 525.3113
140.3674, 530.7388
140.8495, 533.5968
141.3316, 533.5898
141.8137, 532.3138
142.2958, 528.3392
142.7779, 523.7758
143.2601, 524.4400
143.7422, 533.4802
144.2243, 542.9712
144.7064, 548.9290
145.1885, 550.4114
145.6706, 550.3628
146.1528, 547.5467
146.6349, 542.5636
147.1170, 541.6913
147.5991, 549.9839
148.0812, 558.5129
148.5633, 560.6711
149.0455, 547.1745
149.5276, 537.9232
150.0097, 537.8951
150.4918, 549.5436
150.9739, 554.9387
151.4560, 547.5402
151.9382, 536.0189
152.4203, 530.0808
152.9024, 536.2441
153.3845, 542.5426
153.8666, 545.4321
154.3487, 543.4747
154.8309, 541.4167
155.3130, 538.4332
155.7951, 535.7833
156.2772, 535.9610
156.7593, 544.4335
157.2414, 552.2756
157.7236, 554.8823
158.2057, 546.3301
158.6878, 539.8096
159.1699, 540.8646
159.6520, 547.3987
160.1341, 551.0412
160.6163, 545.1640
161.0984, 537.3135
161.5805, 533.1052
162.0626, 538.5423
162.5447, 543.9943
163.0268, 544.6924
163.5090, 540.9100
163.9911, 538.2542
164.4732, 540.2495
164.9553, 544.5521
165.4374, 548.4223
165.9195, 552.7312
166.4017, 554.9296
166.8838, 551.8913
167.3659, 542.5846
167.8480, 534.8243
168.3301, 534.9169
168.8122, 539.9846
169.2944, 544.6985
169.7765, 545.9112
170.2586, 545.7772
170.7407, 546.1628
171.2228, 547.2629
171.7049, 549.0180
172.1871, 551.9661
172.6692, 555.6708
173.1513, 558.8275
173.6334, 560.5159
174.1155, 561.2089
174.5976, 561.5626
175.0798, 561.6763
175.5619, 561.5562
176.0440, 561.4725
176.5261, 561.3350
177.0082, 560.4241
177.4903, 557.1038
177.9725, 552.6518
178.4546, 549.8246
178.9367, 550.4987
179.4188, 552.5107
179.9009, 552.0471
180.3830, 549.0748
180.8652, 546.4410
181.3473, 547.5582
181.8294, 551.4037
182.3115, 554.5543
182.7936, 554.5173
183.2757, 552.9415
183.7579, 554.2844
184.2400, 559.0103
184.7221, 563.8959
185.2042, 564.5615
185.6863, 561.5384
186.1684, 558.6636
186.6506, 557.2119
187.1327, 557.2849
187.6148, 560.0574
188.0969, 566.4330
188.5790, 573.3109
189.0611, 573.8605
189.5433, 568.2462
190.0254, 565.6417
190.5075, 575.7644
190.9896, 596.1069
191.4717, 606.7770
191.9538, 604.0158
192.4360, 593.0396
192.9181, 584.0276
193.4002, 576.9786
193.8823, 572.2909
194.3644, 571.1835
194.8465, 573.5720
195.3287, 575.6977
195.8108, 577.0435
196.2929, 577.7215
196.7750, 577.9944
197.2571, 577.7771
197.7392, 577.5270
198.2214, 577.1705
198.7035, 576.5511
199.1856, 577.9155
199.6677, 582.8344
200.1498, 590.4045
200.6319, 594.1708
201.1141, 593.5166
201.5962, 590.6343
202.0783, 587.0929
202.5604, 582.4183
203.0425, 580.0143
203.5246, 582.0922
204.0068, 588.5181
204.4889, 590.3106
204.9710, 585.9899
205.4531, 579.5540
205.9352, 576.5616
206.4173, 577.6566
206.8995, 579.7591
207.3816, 582.0895
207.8637, 584.7825
208.3458, 586.4426
208.8279, 586.4645
209.3100, 586.0914
209.7922, 588.1191
210.2743, 593.8796
210.7564, 598.5216
211.2385, 599.2948
211.7206, 594.7238
212.2027, 592.7021
212.6849, 594.1142
213.1670, 597.6262
213.6491, 600.2901
214.1312, 602.3957
214.6133, 603.0294
215.0954, 600.9280
215.5776, 594.2363
216.0597, 591.2441
216.5418, 594.3212
217.0239, 601.0793
217.5060, 602.5182
217.9881, 595.9791
218.4703, 588.5840
218.9524, 584.7374
219.4345, 585.7690
219.9166, 586.8748
220.3987, 587.2809
220.8808, 587.3339
221.3630, 589.6302
221.8451, 596.0269
222.3272, 602.0422
222.8093, 603.6904
223.2914, 597.9147
223.7735, 595.0629
224.2556, 597.7599
224.7378, 605.5306
225.2199, 610.3456
225.7020, 612.3024
226.1841, 611.1423
226.6662, 605.4584
227.1483, 589.8613
227.6305, 580.5615
228.1126, 581.8624
228.5947, 594.0855
229.0768, 604.2078
229.5589, 612.5087
230.0410, 618.5414
230.5232, 621.5673
231.0053, 619.9074
231.4874, 618.4677
231.9695, 618.7736
232.4516, 621.2707
232.9337, 620.9431
233.4159, 615.8288
233.8980, 609.5605
234.3801, 606.8681
234.8622, 610.0722
235.3443, 612.8243
235.8264, 613.2279
236.3086, 610.5833
236.7907, 609.7722
237.2728, 612.4200
237.7549, 615.7822
238.2370, 615.4644
238.7191, 608.2111
239.2013, 602.6915
239.6834, 602.1581
240.1655, 608.3709
240.6476, 612.2538
241.1297, 612.1083
241.6118, 610.5900
242.0940, 612.6229
242.5761, 621.6279
243.0582, 628.7115
243.5403, 630.1509
244.0224, 623.3253
244.5045, 619.5638
244.9867, 620.4822
245.4688, 623.7148
245.9509, 624.4266
246.4330, 620.7697
246.9151, 617.5070
247.3972, 616.6322
247.8794, 619.3408
248.3615, 621.1516
248.8436, 621.1604
249.3257, 620.6063
249.8078, 622.6262
250.2899, 629.1073
250.7721, 635.1786
251.2542, 638.1693
251.7363, 635.1730
252.2184, 636.6896
252.7005, 645.7367
253.1826, 658.3876
253.6648, 663.7503
254.1469, 658.1409
254.6290, 651.1764
255.1111, 647.5161
255.5932, 648.8554
256.0753, 649.0645
256.5575, 647.4047
257.0396, 644.6608
257.5217, 643.1938
258.0038, 643.1736
258.4859, 644.1088
258.9680, 645.9221
259.4502, 649.0723
259.9323, 651.7708
260.4144, 653.5166
260.8965, 654.9233
261.3786, 659.0792
261.8607, 669.5740
262.3429, 676.0706
262.8250, 670.9259
263.3071, 648.4799
263.7892, 633.2072
264.2713, 627.8460
264.7534, 630.2399
265.2356, 633.8892
265.7177, 639.5672
266.1998, 644.9484
266.6819, 648.3781
267.1640, 649.1797
267.6461, 650.9547
268.1283, 654.6286
268.6104, 659.2421
269.0925, 661.1534
269.5746, 659.3627
270.0567, 657.3743
270.5388, 657.7318
271.0210, 661.1135
271.5031, 663.3398
271.9852, 663.8268
272.4673, 662.9618
272.9494, 661.4197
273.4315, 658.4886
273.9137, 657.1160
274.3958, 659.8525
274.8779, 667.3231
275.3600, 674.5546
275.8421, 681.4363
276.3242, 687.4370
276.8064, 690.9001
277.2885, 691.6784
277.7706, 690.4504
278.2527, 686.4564
278.7348, 679.3588
279.2169, 675.5162
279.6991, 676.6993
280.1812, 680.7894
280.6633, 681.9822
281.1454, 679.9339
281.6275, 677.0432
282.1096, 673.9797
282.5918, 670.7590
283.0739, 671.0820
283.5560, 676.6971
284.0381, 684.8074
284.5202, 688.0827
285.0023, 686.0938
285.4845, 684.1459
285.9666, 686.3541
286.4487, 692.2932
286.9308, 698.0545
287.4129, 703.5466
287.8951, 708.1044
288.3772, 710.0651
288.8593, 709.4586
289.3414, 707.5107
289.8235, 705.7245
290.3056, 703.5925
290.7878, 697.5326
291.2699, 685.0942
291.7520, 671.6577
292.2341, 668.5478
292.7162, 675.0441
293.1983, 682.7911
293.6805, 684.9336
294.1626, 683.6901
294.6447, 686.9587
295.1268, 697.4859
295.6089, 709.4578
296.0910, 712.9110
296.5732, 708.9783
297.0553, 704.4503
297.5374, 704.3770
298.0195, 706.8134
298.5016, 707.0933
298.9837, 703.7211
299.4659, 700.2075
299.9480, 701.7656
300.4301, 707.3856
300.9122, 712.8839
301.3943, 716.1808
301.8764, 717.7205
302.3586, 718.0828
302.8407, 717.1710
303.3228, 715.6651
303.8049, 714.0887
304.2870, 712.4625
304.7691, 710.9019
305.2513, 708.4784
305.7334, 706.5715
306.2155, 706.9825
306.6976, 710.3214
307.1797, 714.5298
307.6618, 719.0576
308.1440, 723.2391
308.6261, 725.8122
309.1082, 724.0831
309.5903, 721.5894
310.0724, 721.9526
310.5545, 726.3567
311.0367, 729.9599
311.5188, 727.7088
312.0009, 722.7186
312.4830, 720.4338
312.9651, 726.2855
313.4472, 733.4153
313.9294, 737.3305
314.4115, 737.0719
314.8936, 736.5970
315.3757, 738.4058
315.8578, 741.0077
316.3399, 742.3691
316.8221, 740.1641
317.3042, 737.8407
317.7863, 737.3004
318.2684, 738.9495
318.7505, 740.0862
319.2326, 737.6772
319.7148, 734.9852
320.1969, 735.7640
320.6790, 745.9494
321.1611, 755.0264
321.6432, 759.0503
322.1253, 757.4250
322.6075, 755.6719
323.0896, 753.3895
323.5717, 752.0920
324.0538, 753.1765
324.5359, 762.1785
325.0180, 767.9865
325.5002, 767.1256
325.9823, 759.2928
326.4644, 753.0358
326.9465, 748.5715
327.4286, 745.9631
327.9107, 745.2838
328.3929, 748.2642
328.8750, 751.0598
329.3571, 753.1395
329.8392, 754.5987
330.3213, 756.7570
330.8034, 761.2278
331.2856, 764.9737
331.7677, 765.9899
332.2498, 762.9634
332.7319, 759.5396
333.2140, 755.2940
333.6961, 750.7832
334.1783, 749.0721
334.6604, 751.3474
335.1425, 754.5934
335.6246, 756.9327
336.1067, 757.6430
336.5888, 759.7638
337.0710, 764.1017
337.5531, 769.6389
338.0352, 773.3976
338.5173, 774.7204
338.9994, 776.1136
339.4815, 779.7900
339.9637, 786.3936
340.4458, 788.7971
340.9279, 785.4705
341.4100, 779.5422
341.8921, 776.6790
342.3742, 776.9226
342.8564, 779.5861
343.3385, 785.8299
343.8206, 795.1447
344.3027, 801.6959
344.7848, 805.3397
345.2669, 806.2461
345.7491, 803.0991
346.2312, 796.3806
346.7133, 790.9498
347.1954, 789.2703
347.6775, 790.5629
348.1596, 793.1454
348.6417, 797.2119
349.1238, 800.7849
349.6060, 801.6359
350.0881, 800.2861
350.5702, 798.3875
351.0523, 795.8635
351.5344, 793.5067
352.0165, 791.8054
352.4987, 790.8237
352.9808, 792.5222
353.4629, 802.2833
353.9450, 815.1661
354.4271, 822.7990
354.9092, 819.4385
355.3914, 812.8358
355.8735, 809.0193
356.3556, 807.7811
356.8377, 807.9886
357.3198, 811.5117
357.8019, 814.9664
358.2841, 814.5968
358.7662, 806.5051
359.2483, 798.9107
359.7304, 795.8321
360.2125, 796.7479
360.6946, 799.9591
361.1768, 804.9055
361.6589, 811.8885
362.1410, 822.4700
362.6231, 841.8183
363.1052, 853.9765
363.5873, 849.0222
364.0695, 834.2443
364.5516, 823.6043
365.0337, 823.3694
365.5158, 824.9817
365.9979, 824.7569
366.4800, 820.6664
366.9622, 820.2865
367.4443, 829.7386
367.9264, 841.5717
368.4085, 845.7307
368.8906, 831.1102
369.3727, 821.1000
369.8549, 822.3045
370.3370, 836.5157
370.8191, 845.2079
371.3012, 845.4367
371.7833, 842.5785
372.2654, 841.4810
372.7476, 842.8912
373.2297, 844.7691
373.7118, 848.2925
374.1939, 852.6125
374.6760, 848.6918
375.1581, 831.7431
375.6403, 816.5191
376.1224, 816.3444
376.6045, 834.2945
377.0866, 846.6843
377.5687, 849.9145
378.0508, 846.9748
378.5330, 845.0720
379.0151, 844.1231
379.4972, 844.7096
379.9793, 848.1581
380.4614, 853.9440
380.9435, 857.8695
381.4257, 859.2423
381.9078, 859.6020
382.3899, 861.3195
382.8720, 864.1871
383.3541, 866.6750
383.8362, 866.7272
384.3184, 866.0689
384.8005, 870.2726
385.2826, 880.1625
385.7647, 887.4709
386.2468, 878.9224
386.7289, 861.8096
387.2111, 852.0869
387.6932, 863.1835
388.1753, 880.0421
388.6574, 888.1968
389.1395, 888.1431
389.6216, 885.1541
390.1038, 880.8440
390.5859, 876.1011
391.0680, 871.8254
391.5501, 867.5571
392.0322, 864.6540
392.5143, 863.2740
392.9965, 863.6719
393.4786, 866.7109
393.9607, 878.2454
394.4428, 888.7028
394.9249, 891.4688
395.4070, 880.2215
395.8892, 872.1851
396.3713, 872.8071
396.8534, 878.7419
397.3355, 883.9052
397.8176, 887.2269
398.2997, 889.9395
398.7819, 892.9620
399.2640, 897.3073
399.7461, 897.6663
400.2282, 889.6660
400.7103, 880.4019
401.1924, 877.5811
401.6746, 885.0385
402.1567, 892.3826
402.6388, 898.4654
403.1209, 903.1665
403.6030, 904.2181
404.0851, 900.3290
404.5673, 895.1809
405.0494, 890.9498
405.5315, 887.3680
406.0136, 886.8712
406.4957, 890.6987
406.9778, 896.9839
407.4600, 900.6374
407.9421, 901.3846
408.4242, 902.0480
408.9063, 904.9627
409.3884, 909.5355
409.8705, 911.9479
410.3527, 911.7400
410.8348, 910.0573
411.3169, 908.1792
411.7990, 906.0575
412.2811, 903.4872
412.7632, 897.2154
413.2454, 891.5829
413.7275, 896.0701
414.2096, 910.8221
414.6917, 923.6830
415.1738, 922.1964
415.6559, 913.2715
416.1381, 907.3830
416.6202, 908.7992
417.1023, 913.1542
417.5844, 919.9195
418.0665, 927.8624
418.5486, 931.9340
419.0308, 926.2018
419.5129, 917.7962
419.9950, 911.6144
420.4771, 908.0036
420.9592, 907.4649
421.4413, 912.1943
421.9235, 919.8300
422.4056, 926.0991
422.8877, 931.2197
423.3698, 933.8223
423.8519, 932.1830
424.3340, 924.3352
424.8162, 920.9173
425.2983, 925.6992
425.7804, 932.5884
426.2625, 935.8364
426.7446, 933.5524
427.2267, 930.9094
427.7089, 928.2806
428.1910, 925.8356
428.6731, 924.6384
429.1552, 924.5925
429.6373, 926.0334
430.1194, 930.0272
430.6016, 937.2493
431.0837, 941.5178
431.5658, 941.5155
432.0479, 939.6156
432.5300, 940.3684
433.0121, 943.7607
433.4943, 947.3433
433.9764, 950.3695
434.4585, 952.6618
434.9406, 953.3575
435.4227, 952.3182
435.9048, 950.6990
436.3870, 949.1674
436.8691, 947.9264
437.3512, 947.4491
437.8333, 947.3841
438.3154, 948.6448
438.7975, 954.1600
439.2797, 962.9014
439.7618, 968.6680
440.2439, 964.0230
440.7260, 956.6213
441.2081, 954.1658
441.6902, 960.6995
442.1724, 966.6715
442.6545, 965.9551
443.1366, 961.6968
443.6187, 960.0896
444.1008, 965.5638
444.5829, 971.6570
445.0651, 976.6293
445.5472, 980.6693
446.0293, 981.2128
446.5114, 972.5582
446.9935, 963.1917
447.4756, 960.8126
447.9578, 973.3428
448.4399, 981.1235
448.9220, 979.4515
449.4041, 970.6275
449.8862, 968.6170
450.3683, 977.0749
450.8505, 985.3077
451.3326, 986.8541
451.8147, 980.4158
452.2968, 975.1810
452.7789, 971.0075
453.2610, 968.8022
453.7432, 971.3418
454.2253, 978.6763
454.7074, 984.8972
455.1895, 987.8005
455.6716, 987.8861
456.1537, 985.9235
456.6359, 981.7496
457.1180, 977.5723
457.6001, 975.0808
458.0822, 974.1432
458.5643, 974.3728
459.0464, 975.5729
459.5286, 978.1663
460.0107, 983.2122
460.4928, 990.2235
460.9749, 996.9521
461.4570, 1003.046
461.9391, 1007.416
462.4213, 1009.443
462.9034, 1009.130
463.3855, 1008.284
463.8676, 1008.101
464.3497, 1007.358
464.8318, 1004.414
465.3140, 991.2664
465.7961, 983.6812
466.2782, 989.0005
466.7603, 1006.600
467.2424, 1018.989
467.7245, 1022.728
468.2067, 1023.960
468.6888, 1025.744
469.1709, 1029.065
469.6530, 1030.584
470.1351, 1029.392
470.6172, 1027.316
471.0994, 1028.261
471.5815, 1033.196
472.0636, 1037.676
472.5457, 1039.197
473.0278, 1037.905
473.5099, 1037.968
473.9921, 1040.863
474.4742, 1043.298
474.9563, 1037.802
475.4384, 1026.345
475.9205, 1021.620
476.4026, 1030.248
476.8848, 1042.481
477.3669, 1043.666
477.8490, 1035.882
478.3311, 1028.108
478.8132, 1024.682
479.2953, 1024.542
479.7775, 1027.293
480.2596, 1033.111
480.7417, 1037.478
481.2238, 1035.853
481.7059, 1032.422
482.1880, 1031.871
482.6702, 1041.149
483.1523, 1047.703
483.6344, 1044.356
484.1165, 1033.182
484.5986, 1027.870
485.0807, 1037.471
485.5629, 1047.905
486.0450, 1052.208
486.5271, 1044.714
487.0092, 1044.409
487.4913, 1056.943
487.9734, 1072.398
488.4556, 1074.556
488.9377, 1058.176
489.4198, 1044.309
489.9019, 1038.645
490.3840, 1040.271
490.8661, 1044.241
491.3483, 1050.649
491.8304, 1057.464
492.3125, 1064.201
492.7946, 1070.738
493.2767, 1074.484
493.7589, 1074.350
494.2410, 1071.211
494.7231, 1063.958
495.2052, 1055.317
495.6873, 1052.058
496.1694, 1063.945
496.6516, 1077.462
497.1337, 1077.396
497.6158, 1064.396
498.0979, 1054.092
498.5800, 1056.810
499.0621, 1065.616
499.5443, 1074.389
500.0264, 1082.842
500.5085, 1088.730
500.9906, 1090.954
501.4727, 1090.542
501.9548, 1089.683
502.4370, 1086.574
502.9191, 1084.162
503.4012, 1084.007
503.8833, 1086.800
504.3654, 1090.799
504.8475, 1096.709
505.3297, 1100.193
505.8118, 1096.688
506.2939, 1084.473
506.7760, 1076.741
507.2581, 1075.248
507.7402, 1078.231
508.2224, 1083.262
508.7045, 1090.296
509.1866, 1095.694
509.6687, 1097.061
510.1508, 1096.143
510.6329, 1097.074
511.1151, 1099.599
511.5971, 1100.939
512.0793, 1097.296
512.5614, 1091.422
513.0435, 1087.956
513.5256, 1089.356
514.0078, 1091.940
514.4899, 1093.909
514.9720, 1096.359
515.4541, 1102.098
515.9362, 1110.149
516.4183, 1115.434
516.9005, 1115.327
517.3826, 1110.466
517.8647, 1109.602
518.3468, 1118.533
518.8289, 1129.206
519.3110, 1135.342
519.7932, 1131.733
520.2753, 1126.066
520.7574, 1116.903
521.2395, 1108.468
521.7216, 1112.647
522.2037, 1134.165
522.6859, 1152.200
523.1680, 1155.927
523.6501, 1146.323
524.1322, 1138.281
524.6143, 1130.890
525.0964, 1126.200
525.5786, 1130.296
526.0607, 1141.413
526.5428, 1148.596
527.0249, 1147.148
527.5070, 1141.564
527.9891, 1137.656
528.4713, 1135.378
528.9534, 1133.628
529.4355, 1132.185
529.9176, 1131.795
530.3997, 1134.145
530.8818, 1138.216
531.3640, 1138.340
531.8461, 1129.329
532.3282, 1119.844
532.8103, 1116.774
533.2924, 1125.313
533.7745, 1133.077
534.2567, 1138.793
534.7388, 1142.252
535.2209, 1144.023
535.7030, 1144.479
536.1851, 1145.019
536.6672, 1145.940
537.1494, 1146.206
537.6315, 1146.517
538.1136, 1146.944
538.5957, 1149.035
539.0778, 1155.211
539.5599, 1163.680
540.0421, 1163.978
540.5242, 1152.254
541.0063, 1139.706
541.4884, 1143.973
541.9705, 1160.750
542.4526, 1175.425
542.9348, 1178.049
543.4169, 1176.393
543.8990, 1180.629
544.3811, 1190.642
544.8632, 1194.763
545.3453, 1178.838
545.8275, 1159.217
546.3096, 1150.329
546.7917, 1159.536
547.2738, 1167.406
547.7559, 1168.208
548.2380, 1166.783
548.7202, 1168.087
549.2023, 1172.783
549.6844, 1177.075
550.1665, 1180.003
550.6486, 1182.481
551.1307, 1185.964
551.6129, 1190.855
552.0950, 1195.456
552.5771, 1198.391
553.0592, 1199.622
553.5413, 1202.931
554.0234, 1209.571
554.5056, 1216.125
554.9877, 1215.634
555.4698, 1209.664
555.9519, 1205.308
556.4340, 1206.600
556.9161, 1209.962
557.3983, 1211.510
557.8804, 1211.707
558.3625, 1211.851
558.8446, 1213.981
559.3267, 1215.120
559.8088, 1211.944
560.2910, 1202.811
560.7731, 1197.843
561.2552, 1205.383
561.7373, 1215.588
562.2194, 1218.912
562.7015, 1206.313
563.1837, 1198.331
563.6658, 1198.137
564.1479, 1204.044
564.6300, 1207.978
565.1121, 1209.066
565.5942, 1210.884
566.0764, 1215.490
566.5585, 1222.511
567.0406, 1229.081
567.5227, 1235.417
568.0048, 1238.572
568.4869, 1231.885
568.9691, 1219.831
569.4512, 1215.998
569.9333, 1225.041
570.4154, 1236.765
570.8975, 1242.608
571.3796, 1243.658
571.8618, 1242.502
572.3439, 1235.985
572.8260, 1231.348
573.3081, 1233.495
573.7902, 1241.826
574.2723, 1249.765
574.7545, 1255.794
575.2366, 1260.845
575.7187, 1265.800
576.2008, 1272.300
576.6829, 1274.568
577.1650, 1270.109
577.6472, 1263.928
578.1293, 1262.264
578.6114, 1266.155
579.0935, 1268.737
579.5756, 1267.986
580.0577, 1266.402
580.5399, 1271.381
581.0220, 1282.278
581.5041, 1289.660
581.9862, 1285.756
582.4683, 1275.805
582.9504, 1267.339
583.4326, 1261.063
583.9147, 1259.282
584.3968, 1267.249
584.8789, 1278.674
585.3610, 1286.688
585.8431, 1288.377
586.3253, 1288.756
586.8074, 1288.815
587.2895, 1289.533
587.7716, 1290.432
588.2537, 1292.897
588.7358, 1293.264
589.2180, 1290.714
589.7001, 1286.092
590.1822, 1285.588
590.6643, 1290.748
591.1464, 1297.053
591.6285, 1300.472
592.1107, 1301.043
592.5928, 1301.821
593.0749, 1301.923
593.5570, 1301.310
594.0391, 1303.951
594.5212, 1308.932
595.0033, 1310.513
595.4854, 1303.684
595.9675, 1296.551
596.4496, 1298.210
596.9318, 1304.603
597.4139, 1311.150
597.8960, 1319.988
598.3781, 1327.924
598.8602, 1326.356
599.3423, 1311.157
599.8245, 1300.866
600.3066, 1303.058
600.7887, 1311.494
601.2708, 1321.681
601.7529, 1335.883
602.2350, 1346.946
602.7172, 1352.938
603.1993, 1354.410
603.6814, 1354.231
604.1635, 1352.566
604.6456, 1349.342
605.1277, 1343.800
605.6099, 1339.375
606.0920, 1344.145
606.5741, 1355.996
607.0562, 1364.425
607.5383, 1359.284
608.0204, 1348.831
608.5026, 1344.717
608.9847, 1349.040
609.4668, 1355.097
609.9489, 1359.189
610.4310, 1361.118
610.9131, 1362.331
611.3953, 1363.235
611.8774, 1363.002
612.3595, 1361.629
612.8416, 1361.380
613.3237, 1360.538
613.8058, 1355.859
614.2880, 1353.165
614.7701, 1361.112
615.2522, 1375.623
615.7343, 1382.162
616.2164, 1379.975
616.6985, 1378.437
617.1807, 1378.577
617.6628, 1378.016
618.1449, 1377.299
618.6270, 1379.174
619.1091, 1381.857
619.5912, 1382.943
620.0734, 1383.995
620.5555, 1386.634
621.0376, 1391.511
621.5197, 1393.615
622.0018, 1391.421
622.4839, 1390.479
622.9661, 1391.309
623.4482, 1391.691
623.9303, 1387.222
624.4124, 1384.636
624.8945, 1384.415
625.3766, 1387.160
625.8588, 1394.552
626.3409, 1402.329
626.8230, 1403.135
627.3051, 1395.944
