##NAMES=Diamond
##RRUFFID=R050204
##IDEAL CHEMISTRY=C
##LOCALITY=Unknown
##OWNER=RRUFF
##SOURCE=Eric Van Valkenburg
##DESCRIPTION=Single crystal, type IIA
##STATUS=The identification of this mineral has been confirmed by single-crystal X-ray diffraction.
##URL=rruff.info/R050204
179.9655, 9929.302
180.4476, 9961.743
180.9297, 9956.935
181.4119, 9959.109
181.8940, 9983.382
182.3761, 10008.45
182.8582, 10020.50
183.3403, 10019.91
183.8224, 10021.21
184.3046, 10038.97
184.7867, 10074.41
185.2688, 10118.09
185.7509, 10192.62
186.2330, 10257.54
186.7151, 10285.83
187.1973, 10279.24
187.6794, 10267.49
188.1615, 10284.92
188.6436, 10338.76
189.1257, 10378.77
189.6078, 10374.41
190.0900, 10377.34
190.5721, 10417.87
191.0542, 10494.04
191.5363, 10577.00
192.0184, 10636.11
192.5005, 10667.07
192.9827, 10702.52
193.4648, 10750.70
193.9469, 10798.33
194.4290, 10844.59
194.9111, 10886.81
195.3932, 10917.41
195.8754, 10915.54
196.3575, 10868.20
196.8396, 10871.26
197.3217, 10980.15
197.8038, 11097.30
198.2859, 11184.54
198.7681, 11242.76
199.2502, 11294.70
199.7323, 11364.79
200.2144, 11456.66
200.6965, 11532.14
201.1786, 11575.53
201.6608, 11613.99
202.1429, 11650.40
202.6250, 11688.50
203.1071, 11736.07
203.5892, 11801.59
204.0714, 11886.39
204.5535, 11970.15
205.0356, 12065.14
205.5177, 12146.96
205.9998, 12196.42
206.4819, 12223.19
206.9641, 12253.34
207.4462, 12309.50
207.9283, 12391.57
208.4104, 12470.09
208.8925, 12545.20
209.3746, 12615.13
209.8568, 12674.91
210.3389, 12728.54
210.8210, 12784.19
211.3031, 12848.44
211.7852, 12920.62
212.2673, 12991.75
212.7495, 13054.27
213.2316, 13125.09
213.7137, 13212.69
214.1958, 13311.68
214.6779, 13414.57
215.1600, 13517.85
215.6422, 13620.13
216.1243, 13709.13
216.6064, 13757.02
217.0885, 13831.30
217.5706, 13967.04
218.0527, 14137.61
218.5349, 14301.70
219.0170, 14434.25
219.4991, 14545.16
219.9812, 14672.24
220.4633, 14829.46
220.9454, 14983.02
221.4276, 15114.59
221.9097, 15239.89
222.3918, 15379.89
222.8739, 15546.43
223.3560, 15731.54
223.8381, 15920.76
224.3203, 16126.73
224.8024, 16310.43
225.2845, 16447.29
225.7666, 16566.71
226.2487, 16698.27
226.7308, 16854.78
227.2130, 17025.83
227.6951, 17190.09
228.1772, 17339.84
228.6593, 17504.09
229.1414, 17698.96
229.6235, 17904.87
230.1057, 18104.78
230.5878, 18293.03
231.0699, 18479.34
231.5520, 18677.06
232.0341, 18885.19
232.5162, 19107.29
232.9984, 19351.75
233.4805, 19606.18
233.9626, 19866.79
234.4447, 20131.06
234.9268, 20396.90
235.4089, 20654.43
235.8911, 20898.54
236.3732, 21173.62
236.8553, 21520.63
237.3374, 21878.67
237.8195, 22201.10
238.3016, 22486.83
238.7838, 22774.78
239.2659, 23102.95
239.7480, 23471.19
240.2301, 23842.43
240.7122, 24219.27
241.1943, 24590.09
241.6765, 24937.54
242.1586, 25267.01
242.6407, 25605.48
243.1228, 25979.56
243.6049, 26381.96
244.0870, 26768.90
244.5692, 27120.74
245.0513, 27482.36
245.5334, 27895.65
246.0155, 28344.48
246.4976, 28771.92
246.9797, 29127.75
247.4619, 29440.91
247.9440, 29797.73
248.4261, 30212.59
248.9082, 30636.95
249.3903, 31021.52
249.8724, 31390.73
250.3546, 31790.09
250.8367, 32269.80
251.3188, 32775.67
251.8009, 33223.13
252.2830, 33606.05
252.7651, 33969.55
253.2473, 34335.31
253.7294, 34698.87
254.2115, 35049.79
254.6936, 35370.45
255.1757, 35693.13
255.6578, 36058.37
256.1400, 36465.03
256.6221, 36857.91
257.1042, 37221.89
257.5863, 37544.78
258.0684, 37813.84
258.5505, 38000.74
259.0327, 38177.11
259.5148, 38390.76
259.9969, 38633.50
260.4790, 38879.59
260.9611, 39134.88
261.4432, 39369.49
261.9254, 39522.68
262.4075, 39576.30
262.8896, 39622.70
263.3717, 39717.11
263.8538, 39828.59
264.3359, 39894.43
264.8181, 39896.42
265.3002, 39850.25
265.7823, 39765.47
266.2644, 39633.69
266.7465, 39515.17
267.2286, 39446.79
267.7108, 39385.73
268.1929, 39280.05
268.6750, 39120.65
269.1571, 38931.55
269.6392, 38739.91
270.1213, 38547.18
270.6035, 38327.08
271.0856, 38057.14
271.5677, 37776.16
272.0498, 37515.88
272.5319, 37276.46
273.0140, 37034.80
273.4962, 36775.67
273.9783, 36498.05
274.4604, 36200.15
274.9425, 35864.10
275.4246, 35530.46
275.9067, 35224.06
276.3889, 34935.95
276.8710, 34642.89
277.3531, 34331.59
277.8352, 34003.02
278.3173, 33657.74
278.7994, 33262.43
279.2816, 32890.95
279.7637, 32575.11
280.2458, 32282.75
280.7279, 31967.81
281.2100, 31609.85
281.6921, 31229.98
282.1743, 30873.87
282.6564, 30559.92
283.1385, 30240.53
283.6206, 29917.72
284.1027, 29588.38
284.5848, 29243.45
285.0670, 28883.84
285.5491, 28532.29
286.0312, 28226.56
286.5133, 27995.82
286.9954, 27727.51
287.4775, 27384.31
287.9597, 27038.17
288.4418, 26724.31
288.9239, 26442.40
289.4060, 26177.21
289.8881, 25919.04
290.3702, 25668.32
290.8524, 25405.69
291.3345, 25128.59
291.8166, 24841.09
292.2987, 24533.08
292.7808, 24217.34
293.2629, 23914.24
293.7451, 23638.96
294.2272, 23385.59
294.7093, 23138.80
295.1914, 22897.64
295.6735, 22665.19
296.1556, 22441.99
296.6378, 22227.42
297.1199, 22021.41
297.6020, 21827.84
298.0841, 21635.41
298.5662, 21426.95
299.0483, 21200.28
299.5305, 20989.61
300.0126, 20819.82
300.4947, 20662.56
300.9768, 20488.51
301.4589, 20293.82
301.9410, 20096.95
302.4232, 19912.09
302.9053, 19736.13
303.3874, 19551.82
303.8695, 19344.20
304.3516, 19147.97
304.8337, 19013.01
305.3159, 18932.85
305.7980, 18835.67
306.2801, 18678.77
306.7622, 18499.83
307.2443, 18356.37
307.7264, 18255.12
308.2086, 18154.72
308.6907, 18016.77
309.1728, 17845.51
309.6549, 17697.75
310.1370, 17594.97
310.6191, 17499.03
311.1013, 17389.43
311.5834, 17267.33
312.0655, 17135.45
312.5476, 16993.25
313.0297, 16845.86
313.5118, 16715.43
313.9940, 16611.64
314.4761, 16509.22
314.9582, 16399.46
315.4403, 16289.51
315.9224, 16194.57
316.4045, 16119.56
316.8867, 16045.50
317.3688, 15937.34
317.8509, 15762.58
318.3330, 15617.44
318.8151, 15511.79
319.2972, 15425.10
319.7794, 15347.95
320.2615, 15276.63
320.7436, 15208.32
321.2257, 15141.02
321.7078, 15076.00
322.1899, 15001.08
322.6721, 14893.05
323.1542, 14798.65
323.6363, 14742.63
324.1184, 14709.52
324.6005, 14669.56
325.0826, 14605.00
325.5648, 14522.08
326.0469, 14440.91
326.5290, 14357.29
327.0111, 14284.98
327.4932, 14232.03
327.9753, 14188.12
328.4575, 14146.45
328.9396, 14105.48
329.4217, 14060.21
329.9038, 13999.21
330.3859, 13920.67
330.8680, 13858.23
331.3502, 13831.50
331.8323, 13811.38
332.3144, 13778.05
332.7965, 13731.11
333.2786, 13673.19
333.7607, 13596.29
334.2429, 13510.49
334.7250, 13439.93
335.2071, 13387.11
335.6892, 13348.50
336.1713, 13336.54
336.6534, 13338.57
337.1356, 13313.98
337.6177, 13229.52
338.0998, 13135.60
338.5819, 13075.57
339.0640, 13045.50
339.5461, 13017.09
340.0283, 12975.72
340.5104, 12926.49
340.9925, 12885.08
341.4746, 12854.32
341.9567, 12824.93
342.4388, 12803.91
342.9210, 12779.62
343.4031, 12726.71
343.8852, 12638.47
344.3673, 12548.85
344.8494, 12508.10
345.3315, 12541.00
345.8137, 12552.07
346.2958, 12531.19
346.7779, 12499.59
347.2600, 12469.93
347.7421, 12441.86
348.2242, 12407.52
348.7064, 12359.98
349.1885, 12300.43
349.6706, 12246.91
350.1527, 12191.29
350.6348, 12153.22
351.1169, 12149.27
351.5991, 12160.14
352.0812, 12163.24
352.5633, 12149.28
353.0454, 12123.74
353.5275, 12094.71
354.0096, 12060.97
354.4918, 12028.11
354.9739, 11994.74
355.4560, 11964.13
355.9381, 11935.64
356.4202, 11910.24
356.9023, 11895.43
357.3845, 11905.77
357.8666, 11933.42
358.3487, 11943.99
358.8308, 11933.12
359.3129, 11909.82
359.7950, 11874.88
360.2772, 11832.19
360.7593, 11789.44
361.2414, 11743.33
361.7235, 11702.17
362.2056, 11675.46
362.6877, 11661.92
363.1699, 11653.34
363.6520, 11648.40
364.1341, 11643.92
364.6162, 11632.95
365.0983, 11617.50
365.5804, 11593.22
366.0626, 11550.95
366.5447, 11502.46
367.0268, 11459.10
367.5089, 11423.96
367.9910, 11404.63
368.4731, 11414.15
368.9553, 11463.57
369.4374, 11482.95
369.9195, 11450.22
370.4016, 11413.77
370.8837, 11400.81
371.3658, 11402.43
371.8480, 11391.80
372.3301, 11350.23
372.8122, 11290.69
373.2943, 11264.24
373.7764, 11296.58
374.2585, 11321.95
374.7407, 11334.14
375.2228, 11334.75
375.7049, 11320.73
376.1870, 11292.71
376.6691, 11264.05
377.1512, 11247.34
377.6334, 11242.57
378.1155, 11253.83
378.5976, 11306.48
379.0797, 11343.13
379.5618, 11320.16
380.0439, 11254.30
380.5261, 11194.25
381.0082, 11159.01
381.4903, 11142.69
381.9724, 11142.09
382.4545, 11157.99
382.9366, 11169.82
383.4188, 11167.76
383.9009, 11154.44
384.3830, 11135.99
384.8651, 11105.57
385.3472, 11084.69
385.8293, 11092.52
386.3115, 11112.83
386.7936, 11118.26
387.2757, 11102.11
387.7578, 11074.45
388.2399, 11044.96
388.7220, 11011.35
389.2042, 10989.71
389.6863, 10986.16
390.1684, 10988.23
390.6505, 10990.53
391.1326, 10993.41
391.6147, 10998.76
392.0969, 11007.59
392.5790, 11020.37
393.0611, 11040.60
393.5432, 11088.00
394.0253, 11109.33
394.5074, 11079.14
394.9896, 11036.75
395.4717, 11012.82
395.9538, 11013.24
396.4359, 11025.74
396.9180, 11043.30
397.4001, 11065.51
397.8823, 11072.13
398.3644, 11050.26
398.8465, 11030.71
399.3286, 11037.10
399.8107, 11057.58
400.2928, 11066.39
400.7750, 11047.27
401.2571, 11020.27
401.7392, 11010.00
402.2213, 11015.00
402.7034, 11017.14
403.1855, 11006.93
403.6677, 10993.06
404.1498, 10992.28
404.6319, 11007.48
405.1140, 11021.03
405.5961, 11029.72
406.0782, 11033.77
406.5604, 11032.04
407.0425, 11024.97
407.5246, 11016.73
408.0067, 11011.24
408.4888, 11008.46
408.9709, 11001.84
409.4531, 10984.04
409.9352, 10971.17
410.4173, 10972.05
410.8994, 10978.75
411.3815, 10979.03
411.8636, 10968.39
412.3458, 10955.27
412.8279, 10955.04
413.3100, 10972.62
413.7921, 10985.54
414.2742, 10987.34
414.7563, 10988.30
415.2385, 10996.80
415.7206, 11009.56
416.2027, 11014.10
416.6848, 10992.27
417.1669, 10962.12
417.6490, 10969.46
418.1312, 11021.12
418.6133, 11067.64
419.0954, 11087.16
419.5775, 11086.89
420.0596, 11079.77
420.5417, 11062.45
421.0239, 11048.62
421.5060, 11050.58
421.9881, 11058.62
422.4702, 11054.19
422.9523, 11033.60
423.4344, 11010.77
423.9166, 11000.25
424.3987, 11003.48
424.8808, 11002.39
425.3629, 10987.18
425.8450, 10978.28
426.3271, 10990.25
426.8093, 11012.81
427.2914, 11026.75
427.7735, 11023.29
428.2556, 11011.88
428.7377, 11013.83
429.2198, 11040.30
429.7020, 11050.59
430.1841, 11021.87
430.6662, 10993.47
431.1483, 10988.41
431.6304, 11003.98
432.1125, 11022.35
432.5947, 11033.67
433.0768, 11038.85
433.5589, 11036.24
434.0410, 11021.78
434.5231, 11020.28
435.0052, 11053.63
435.4874, 11101.68
435.9695, 11132.47
436.4516, 11141.27
436.9337, 11142.93
437.4158, 11142.12
437.8979, 11139.62
438.3801, 11134.52
438.8622, 11126.71
439.3443, 11124.87
439.8264, 11140.86
440.3085, 11176.44
440.7906, 11187.47
441.2728, 11154.96
441.7549, 11123.06
442.2370, 11100.14
442.7191, 11089.46
443.2012, 11099.63
443.6833, 11133.42
444.1655, 11173.10
444.6476, 11187.39
445.1297, 11169.56
445.6118, 11150.60
446.0939, 11120.05
446.5760, 11100.17
447.0582, 11110.98
447.5403, 11142.05
448.0224, 11163.23
448.5045, 11152.47
448.9866, 11128.66
449.4688, 11124.89
449.9509, 11142.09
450.4330, 11158.51
450.9151, 11167.53
451.3972, 11169.86
451.8793, 11164.46
452.3615, 11148.10
452.8436, 11140.06
453.3257, 11153.57
453.8078, 11173.54
454.2899, 11181.05
454.7720, 11176.46
455.2542, 11178.13
455.7363, 11202.40
456.2184, 11243.70
456.7005, 11260.34
457.1826, 11212.11
457.6647, 11188.06
458.1469, 11216.11
458.6290, 11261.56
459.1111, 11292.51
459.5932, 11302.06
460.0753, 11300.88
460.5574, 11297.47
461.0396, 11292.00
461.5217, 11293.40
462.0038, 11309.02
462.4859, 11318.90
462.9680, 11303.38
463.4501, 11278.64
463.9323, 11271.39
464.4144, 11294.28
464.8965, 11321.95
465.3786, 11332.30
465.8607, 11330.77
466.3428, 11334.01
466.8250, 11346.37
467.3071, 11363.29
467.7892, 11381.95
468.2713, 11403.38
468.7534, 11413.63
469.2355, 11398.02
469.7177, 11386.37
470.1998, 11392.93
470.6819, 11413.66
471.1640, 11445.05
471.6461, 11485.53
472.1282, 11521.00
472.6104, 11519.44
473.0925, 11461.81
473.5746, 11425.29
474.0567, 11422.48
474.5388, 11434.85
475.0209, 11463.08
475.5031, 11500.63
475.9852, 11532.41
476.4673, 11550.44
476.9494, 11558.83
477.4315, 11560.77
477.9136, 11556.38
478.3958, 11557.70
478.8779, 11573.50
479.3600, 11591.06
479.8421, 11586.59
480.3242, 11556.62
480.8063, 11537.88
481.2885, 11547.11
481.7706, 11562.97
482.2527, 11567.78
482.7348, 11562.83
483.2169, 11557.95
483.6990, 11559.05
484.1812, 11564.74
484.6633, 11570.17
485.1454, 11573.16
485.6275, 11580.32
486.1096, 11593.09
486.5917, 11609.07
487.0739, 11627.75
487.5560, 11648.44
488.0381, 11669.84
488.5202, 11695.61
489.0023, 11719.65
489.4844, 11718.78
489.9666, 11686.76
490.4487, 11669.57
490.9308, 11693.78
491.4129, 11738.81
491.8950, 11772.12
492.3771, 11793.77
492.8593, 11802.99
493.3414, 11786.42
493.8235, 11764.89
494.3056, 11762.67
494.7877, 11780.07
495.2698, 11803.12
495.7520, 11823.31
496.2341, 11839.60
496.7162, 11845.44
497.1983, 11825.11
497.6804, 11816.85
498.1625, 11836.97
498.6447, 11860.29
499.1268, 11863.67
499.6089, 11847.07
500.0910, 11829.98
500.5731, 11826.53
501.0552, 11835.20
501.5374, 11853.66
502.0195, 11885.46
502.5016, 11912.00
502.9837, 11926.29
503.4658, 11928.98
503.9479, 11919.48
504.4301, 11892.02
504.9122, 11874.00
505.3943, 11881.61
505.8764, 11900.80
506.3585, 11920.24
506.8406, 11936.58
507.3228, 11939.72
507.8049, 11918.43
508.2870, 11881.85
508.7691, 11879.24
509.2512, 11944.11
509.7333, 11996.62
510.2155, 12028.09
510.6976, 12046.88
511.1797, 12054.37
511.6618, 12054.05
512.1439, 12057.64
512.6260, 12081.39
513.1082, 12114.77
513.5903, 12119.73
514.0724, 12090.34
514.5545, 12065.20
515.0366, 12058.98
515.5187, 12068.27
516.0009, 12087.94
516.4830, 12121.74
516.9651, 12150.00
517.4472, 12167.48
517.9293, 12175.77
518.4114, 12169.32
518.8936, 12152.80
519.3757, 12147.46
519.8578, 12169.89
520.3399, 12208.39
520.8220, 12218.47
521.3041, 12182.42
521.7863, 12148.84
522.2684, 12107.18
522.7505, 12080.70
523.2326, 12094.51
523.7147, 12141.35
524.1968, 12186.00
524.6790, 12205.94
525.1611, 12209.46
525.6432, 12209.39
526.1253, 12205.59
526.6074, 12207.29
527.0895, 12220.14
527.5717, 12237.46
528.0538, 12248.46
528.5359, 12252.70
529.0180, 12255.60
529.5001, 12253.69
529.9822, 12254.40
530.4644, 12265.34
530.9465, 12283.39
531.4286, 12299.59
531.9107, 12309.23
532.3928, 12316.04
532.8749, 12329.60
533.3571, 12355.47
533.8392, 12369.80
534.3213, 12367.03
534.8034, 12355.59
535.2855, 12328.28
535.7676, 12295.52
536.2498, 12285.11
536.7319, 12318.71
537.2140, 12363.52
537.6961, 12389.22
538.1782, 12397.56
538.6603, 12392.50
539.1425, 12372.84
539.6246, 12352.14
540.1067, 12346.02
540.5888, 12356.50
541.0709, 12366.22
541.5530, 12373.44
542.0352, 12381.88
542.5173, 12391.49
542.9994, 12403.58
543.4815, 12421.85
543.9636, 12446.84
544.4457, 12470.63
544.9279, 12486.77
545.4100, 12494.94
545.8921, 12482.83
546.3742, 12439.22
546.8563, 12399.33
547.3384, 12379.40
547.8206, 12376.98
548.3027, 12392.67
548.7848, 12438.04
549.2669, 12472.92
549.7490, 12470.67
550.2311, 12451.48
550.7133, 12437.24
551.1954, 12432.48
551.6775, 12442.37
552.1596, 12474.50
552.6417, 12520.86
553.1238, 12537.52
553.6060, 12498.80
554.0881, 12473.21
554.5702, 12479.64
555.0523, 12491.78
555.5344, 12491.29
556.0165, 12477.87
556.4987, 12461.56
556.9808, 12442.27
557.4629, 12427.75
557.9450, 12431.25
558.4271, 12452.25
558.9092, 12487.18
559.3914, 12541.47
559.8735, 12594.80
560.3556, 12615.87
560.8377, 12596.00
561.3198, 12574.33
561.8019, 12541.03
562.2841, 12516.24
562.7662, 12516.30
563.2483, 12530.44
563.7304, 12539.48
564.2125, 12535.70
564.6946, 12526.48
565.1768, 12521.31
565.6589, 12520.21
566.1410, 12521.67
566.6231, 12527.33
567.1052, 12532.19
567.5873, 12528.83
568.0695, 12523.42
568.5516, 12529.28
569.0337, 12556.86
569.5158, 12577.45
569.9979, 12570.32
570.4800, 12552.08
570.9622, 12543.66
571.4443, 12547.81
571.9264, 12559.55
572.4085, 12576.87
572.8906, 12596.31
573.3727, 12599.49
573.8549, 12577.31
574.3370, 12556.12
574.8191, 12539.66
575.3012, 12525.37
575.7833, 12507.90
576.2654, 12489.82
576.7476, 12483.42
577.2297, 12503.99
577.7118, 12532.59
578.1939, 12546.20
578.6760, 12547.04
579.1581, 12544.07
579.6403, 12539.37
580.1224, 12536.49
580.6045, 12539.93
581.0866, 12550.16
581.5687, 12564.42
582.0508, 12600.79
582.5330, 12619.80
583.0151, 12592.48
583.4972, 12547.64
583.9793, 12526.86
584.4614, 12540.30
584.9435, 12552.88
585.4257, 12514.65
585.9078, 12443.87
586.3899, 12425.87
586.8720, 12472.63
587.3541, 12518.47
587.8362, 12533.82
588.3184, 12524.00
588.8005, 12497.18
589.2826, 12441.42
589.7647, 12403.52
590.2468, 12407.19
590.7289, 12417.39
591.2111, 12402.34
591.6932, 12371.45
592.1753, 12357.83
592.6574, 12380.44
593.1395, 12416.33
593.6216, 12421.14
594.1038, 12391.55
594.5859, 12365.38
595.0680, 12347.92
595.5501, 12332.42
596.0322, 12314.51
596.5143, 12294.95
596.9965, 12275.26
597.4786, 12253.36
597.9607, 12234.93
598.4428, 12231.11
598.9249, 12228.16
599.4070, 12199.51
599.8892, 12147.27
600.3713, 12108.60
600.8534, 12116.63
601.3355, 12156.71
601.8176, 12160.89
602.2997, 12112.19
602.7819, 12069.83
603.2640, 12048.16
603.7461, 12033.40
604.2282, 12013.28
604.7103, 11990.63
605.1924, 11980.86
605.6746, 12003.16
606.1567, 12028.07
606.6388, 12036.25
607.1209, 12027.31
607.6030, 11991.50
608.0851, 11927.22
608.5673, 11867.20
609.0494, 11849.14
609.5315, 11873.19
610.0136, 11888.12
610.4957, 11895.21
610.9778, 11890.39
611.4600, 11869.55
611.9421, 11839.63
612.4242, 11801.06
612.9063, 11756.14
613.3884, 11722.77
613.8705, 11725.73
614.3527, 11737.13
614.8348, 11713.44
615.3169, 11661.60
615.7990, 11621.19
616.2811, 11607.55
616.7632, 11606.88
617.2454, 11600.06
617.7275, 11586.09
618.2096, 11571.50
618.6917, 11554.06
619.1738, 11538.61
619.6559, 11529.72
620.1381, 11522.01
620.6202, 11507.86
621.1023, 11485.82
621.5844, 11464.45
622.0665, 11448.78
622.5486, 11438.95
623.0308, 11439.56
623.5129, 11449.50
623.9950, 11450.74
624.4771, 11433.71
624.9592, 11406.74
625.4413, 11384.93
625.9235, 11370.28
626.4056, 11355.28
626.8877, 11341.48
627.3698, 11325.70
627.8519, 11299.90
628.3340, 11273.83
628.8162, 11265.70
629.2983, 11281.50
629.7804, 11297.11
630.2625, 11284.54
630.7446, 11255.39
631.2267, 11244.83
631.7089, 11255.29
632.1910, 11256.14
632.6731, 11227.30
633.1552, 11183.99
633.6373, 11161.30
634.1194, 11173.92
634.6016, 11175.06
635.0837, 11155.45
635.5658, 11134.04
636.0479, 11116.65
636.5300, 11104.91
637.0121, 11101.68
637.4943, 11108.66
637.9764, 11116.39
638.4585, 11116.25
638.9406, 11108.95
639.4227, 11092.32
639.9048, 11065.26
640.3870, 11049.83
640.8691, 11061.95
641.3512, 11090.33
641.8333, 11105.66
642.3154, 11097.82
642.7975, 11095.89
643.2797, 11105.49
643.7618, 11115.27
644.2439, 11116.39
644.7260, 11114.00
645.2081, 11118.84
645.6902, 11135.44
646.1724, 11155.57
646.6545, 11179.53
647.1366, 11199.91
647.6187, 11183.74
648.1008, 11126.75
648.5829, 11082.61
649.0651, 11085.38
649.5472, 11119.44
650.0293, 11143.18
650.5114, 11149.04
650.9935, 11158.80
651.4756, 11182.67
651.9578, 11200.13
652.4399, 11189.68
652.9220, 11168.09
653.4041, 11167.90
653.8862, 11202.52
654.3683, 11246.30
654.8505, 11279.45
655.3326, 11302.29
655.8147, 11313.05
656.2968, 11311.91
656.7789, 11308.59
657.2610, 11307.89
657.7432, 11309.84
658.2253, 11314.59
658.7074, 11322.30
659.1895, 11332.26
659.6716, 11346.53
660.1537, 11360.59
660.6359, 11370.29
661.1180, 11379.09
661.6001, 11393.62
662.0822, 11416.59
662.5643, 11439.83
663.0464, 11462.79
663.5286, 11479.46
664.0107, 11473.59
664.4928, 11446.94
664.9749, 11420.97
665.4570, 11406.05
665.9391, 11401.95
666.4213, 11408.26
666.9034, 11424.61
667.3855, 11452.83
667.8676, 11519.26
668.3497, 11567.55
668.8318, 11559.04
669.3140, 11529.15
669.7961, 11531.27
670.2782, 11579.93
670.7603, 11625.80
671.2424, 11633.86
671.7245, 11627.54
672.2067, 11640.33
672.6888, 11667.11
673.1709, 11677.21
673.6530, 11656.40
674.1351, 11626.43
674.6172, 11621.51
675.0994, 11644.12
675.5815, 11675.38
676.0636, 11731.15
676.5457, 11769.64
677.0278, 11755.88
677.5099, 11726.66
677.9921, 11724.62
678.4742, 11755.29
678.9563, 11784.29
679.4384, 11804.34
