##NAMES=Diamond
##RRUFFID=R050207
##IDEAL CHEMISTRY=C
##LOCALITY=Unknown
##OWNER=RRUFF
##SOURCE=Eric Van Valkenburg
##DESCRIPTION=Single crystal,  type I
##STATUS=The identification of this mineral has been confirmed by single-crystal X-ray diffraction.
##URL=rruff.info/R050207
93.90051, -16.69683
94.38263, -20.73234
94.86475, -20.48692
95.34686, -16.02631
95.82898, -11.41847
96.31110, -10.40496
96.79321, -12.61400
97.27533, -14.12981
97.75745, -13.80745
98.23956, -12.16037
98.72168, -11.44808
99.20380, -11.87720
99.68591, -12.61454
100.1680, -12.56679
100.6501, -11.45159
101.1323, -10.96709
101.6144, -11.92653
102.0965, -14.52539
102.5786, -16.03061
103.0607, -16.08014
103.5428, -15.32888
104.0250, -14.85316
104.5071, -14.75733
104.9892, -14.76167
105.4713, -14.87643
105.9534, -15.61260
106.4355, -15.27314
106.9177, -12.88371
107.3998, -9.376614
107.8819, -7.676534
108.3640, -10.13450
108.8461, -12.54672
109.3282, -12.93195
109.8104, -9.229792
110.2925, -5.889832
110.7746, -2.792086
111.2567, -5.6244429E-02
111.7388, 1.494988
112.2209, 0.6233369
112.7031, -0.8623943
113.1852, -1.722705
113.6673, -1.288149
114.1494, -0.6212986
114.6315, 0.1880327
115.1136, 1.144803
115.5958, 1.708475
116.0779, 0.9106770
116.5600, -0.1271578
117.0421, -0.1665575
117.5242, 2.452045
118.0063, 5.284413
118.4885, 6.966174
118.9706, 7.206899
119.4527, 7.227787
119.9348, 6.795165
120.4169, 6.615379
120.8990, 8.023170
121.3812, 13.52023
121.8633, 20.05976
122.3454, 24.58556
122.8275, 26.25381
123.3096, 26.91934
123.7917, 28.07778
124.2739, 29.57202
124.7560, 30.82548
125.2381, 31.14757
125.7202, 31.03329
126.2023, 31.28999
126.6844, 32.04857
127.1665, 33.30885
127.6487, 35.63867
128.1308, 38.92643
128.6129, 41.51526
129.0950, 41.30354
129.5771, 39.05121
130.0592, 37.59801
130.5414, 38.36926
131.0235, 40.24835
131.5056, 39.87414
131.9877, 36.82230
132.4698, 33.65208
132.9520, 33.73138
133.4341, 36.85093
133.9162, 39.39214
134.3983, 39.83807
134.8804, 38.51774
135.3625, 38.15292
135.8447, 39.00174
136.3268, 40.12414
136.8089, 39.82844
137.2910, 37.76147
137.7731, 36.45475
138.2552, 37.49206
138.7374, 41.35440
139.2195, 43.15020
139.7016, 42.22050
140.1837, 39.87016
140.6658, 38.73775
141.1479, 38.99782
141.6301, 39.98259
142.1122, 41.50694
142.5943, 43.94463
143.0764, 45.94384
143.5585, 47.50932
144.0406, 48.63437
144.5228, 49.12875
145.0049, 47.76189
145.4870, 47.27359
145.9691, 49.48666
146.4512, 58.19762
146.9333, 63.39598
147.4155, 63.27815
147.8976, 58.48302
148.3797, 55.00717
148.8618, 53.74404
149.3439, 53.11267
149.8260, 52.07734
150.3082, 49.82308
150.7903, 48.07404
151.2724, 47.29009
151.7545, 47.50047
152.2366, 47.14598
152.7187, 45.39611
153.2009, 43.43711
153.6830, 42.24040
154.1651, 41.98260
154.6472, 42.37799
155.1293, 43.68757
155.6114, 46.09007
156.0935, 47.86546
156.5757, 47.96658
157.0578, 47.56615
157.5399, 47.97736
158.0220, 51.84404
158.5041, 54.56218
158.9862, 53.62130
159.4684, 47.74022
159.9505, 43.42186
160.4326, 43.72291
160.9147, 46.63393
161.3968, 49.17009
161.8789, 51.09501
162.3611, 51.81957
162.8432, 50.31518
163.3253, 45.21384
163.8074, 41.81883
164.2895, 43.86567
164.7716, 49.33428
165.2538, 54.19718
165.7359, 57.05278
166.2180, 58.38903
166.7001, 58.32814
167.1822, 56.33149
167.6643, 54.22583
168.1465, 53.06846
168.6286, 52.69976
169.1107, 52.67515
169.5928, 53.20069
170.0749, 53.76297
170.5570, 53.79765
171.0392, 53.03120
171.5213, 51.95079
172.0034, 50.47668
172.4855, 48.83993
172.9676, 48.04011
173.4497, 49.50917
173.9319, 52.03568
174.4140, 53.86982
174.8961, 54.24759
175.3782, 54.10870
175.8603, 54.97417
176.3424, 56.62187
176.8246, 57.26343
177.3067, 53.88509
177.7888, 48.58694
178.2709, 45.71468
178.7530, 47.86048
179.2351, 52.10324
179.7173, 54.29438
180.1994, 54.46032
180.6815, 53.92619
181.1636, 53.57686
181.6457, 53.40919
182.1278, 53.41755
182.6100, 53.53966
183.0921, 53.86145
183.5742, 54.91582
184.0563, 56.76709
184.5384, 58.16008
185.0205, 57.27079
185.5027, 54.60053
185.9848, 52.57348
186.4669, 52.43456
186.9490, 53.55593
187.4311, 53.91176
187.9132, 53.39631
188.3954, 52.82380
188.8775, 53.66043
189.3596, 55.69636
189.8417, 56.57779
190.3238, 54.65301
190.8059, 50.63129
191.2881, 48.28947
191.7702, 47.82925
192.2523, 48.27466
192.7344, 48.45322
193.2165, 48.36761
193.6986, 48.35724
194.1808, 48.78245
194.6629, 49.54996
195.1450, 49.25738
195.6271, 47.46091
196.1092, 45.68317
196.5913, 46.73677
197.0734, 50.91156
197.5556, 54.31036
198.0377, 54.69965
198.5198, 52.02826
199.0019, 51.13841
199.4840, 52.62803
199.9661, 54.84381
200.4483, 54.61179
200.9304, 51.46337
201.4125, 48.80117
201.8946, 48.41129
202.3767, 50.53740
202.8588, 52.26922
203.3410, 53.85857
203.8231, 54.71724
204.3052, 53.02348
204.7873, 47.84168
205.2694, 43.81669
205.7515, 43.56691
206.2337, 47.84982
206.7158, 51.03669
207.1979, 52.82915
207.6800, 53.71773
208.1621, 54.91868
208.6442, 56.95066
209.1264, 57.74446
209.6085, 55.46344
210.0906, 48.67491
210.5727, 45.68994
211.0548, 47.92642
211.5369, 53.10254
212.0191, 56.24753
212.5012, 57.03899
212.9833, 56.53483
213.4654, 54.74505
213.9475, 50.86784
214.4296, 48.84432
214.9118, 49.39050
215.3939, 51.51521
215.8760, 52.54908
216.3581, 51.86937
216.8402, 51.39337
217.3223, 52.12784
217.8045, 54.51847
218.2866, 56.88098
218.7687, 59.63635
219.2508, 62.15714
219.7329, 62.45532
220.2150, 59.37403
220.6972, 56.10749
221.1793, 54.10182
221.6614, 53.48566
222.1435, 53.91211
222.6256, 56.23178
223.1077, 59.35138
223.5899, 59.80958
224.0720, 55.86893
224.5541, 52.08807
225.0362, 50.73385
225.5183, 53.20208
226.0004, 54.61147
226.4826, 54.39879
226.9647, 53.17665
227.4468, 52.67548
227.9289, 53.03677
228.4110, 53.89752
228.8931, 55.35890
229.3753, 58.58900
229.8574, 59.60637
230.3395, 57.28047
230.8216, 52.94300
231.3037, 50.47238
231.7858, 50.60062
232.2680, 51.50479
232.7501, 52.42500
233.2322, 53.44895
233.7143, 54.27793
234.1964, 54.76187
234.6785, 55.08500
235.1607, 55.93369
235.6428, 58.27929
236.1249, 59.73972
236.6070, 58.81709
237.0891, 53.09951
237.5712, 50.50748
238.0533, 52.41152
238.5355, 57.06989
239.0176, 59.99987
239.4997, 60.02547
239.9818, 59.97253
240.4639, 61.38505
240.9460, 66.13524
241.4282, 67.79079
241.9103, 65.23454
242.3924, 59.94223
242.8745, 55.16948
243.3566, 50.00455
243.8387, 46.75233
244.3209, 46.87618
244.8030, 52.56217
245.2851, 55.59065
245.7672, 54.35369
246.2493, 51.11658
246.7314, 51.09674
247.2136, 56.75701
247.6957, 61.72026
248.1778, 63.28275
248.6599, 59.96997
249.1420, 57.53392
249.6241, 56.00922
250.1063, 55.32444
250.5884, 55.41689
251.0705, 56.72021
251.5526, 58.06609
252.0347, 59.10185
252.5168, 59.87617
252.9990, 60.06287
253.4811, 59.29442
253.9632, 58.17990
254.4453, 57.83301
254.9274, 58.59885
255.4095, 59.48415
255.8917, 60.17223
256.3738, 60.61587
256.8559, 61.09285
257.3380, 61.76400
257.8201, 62.33839
258.3022, 62.18935
258.7844, 60.59991
259.2665, 59.84295
259.7486, 61.06072
260.2307, 64.85459
260.7128, 66.62748
261.1949, 65.87617
261.6771, 63.64748
262.1592, 60.90451
262.6413, 56.80646
263.1234, 54.42923
263.6055, 55.09595
264.0876, 59.06487
264.5698, 62.47819
265.0519, 65.71548
265.5340, 67.88077
266.0161, 67.50352
266.4982, 63.59274
266.9803, 60.20851
267.4625, 58.39272
267.9446, 58.12659
268.4267, 58.42595
268.9088, 59.42317
269.3909, 60.76062
269.8730, 62.38624
270.3552, 64.69650
270.8373, 65.49641
271.3194, 63.45670
271.8015, 59.09510
272.2836, 58.03505
272.7657, 61.39620
273.2479, 65.60955
273.7300, 67.09582
274.2121, 65.23801
274.6942, 64.44234
275.1763, 66.10205
275.6584, 69.50167
276.1406, 70.75442
276.6227, 69.51282
277.1048, 67.24588
277.5869, 64.72024
278.0690, 61.82323
278.5511, 60.04794
279.0333, 59.89582
279.5154, 60.88848
279.9975, 61.37243
280.4796, 61.20462
280.9617, 61.21293
281.4438, 62.28231
281.9260, 64.42282
282.4081, 65.72440
282.8902, 65.63422
283.3723, 64.91153
283.8544, 65.81788
284.3365, 68.57224
284.8187, 70.63553
285.3008, 69.54762
285.7829, 65.68993
286.2650, 63.71771
286.7471, 64.50623
287.2292, 66.52753
287.7114, 66.80526
288.1935, 65.35603
288.6756, 64.19613
289.1577, 65.09801
289.6398, 67.47935
290.1219, 68.30659
290.6041, 67.26598
291.0862, 65.05945
291.5683, 61.78062
292.0504, 57.68496
292.5325, 55.08063
293.0146, 56.15950
293.4968, 59.66325
293.9789, 61.88864
294.4610, 62.65916
294.9431, 62.63570
295.4252, 62.28506
295.9073, 61.70683
296.3895, 61.33266
296.8716, 60.88869
297.3537, 60.86748
297.8358, 63.02141
298.3179, 67.47040
298.8000, 71.34357
299.2822, 71.36735
299.7643, 68.58517
300.2464, 65.59852
300.7285, 62.32574
301.2106, 59.96323
301.6927, 61.02453
302.1748, 65.30585
302.6570, 69.44985
303.1391, 70.77206
303.6212, 70.18909
304.1033, 69.20597
304.5854, 67.72349
305.0675, 66.65095
305.5497, 67.93000
306.0318, 70.93331
306.5139, 72.49902
306.9960, 68.21970
307.4781, 62.13094
307.9602, 59.59268
308.4424, 63.41580
308.9245, 67.98408
309.4066, 68.39787
309.8887, 65.84946
310.3708, 63.66494
310.8529, 64.12854
311.3351, 65.47363
311.8172, 66.25225
312.2993, 66.15615
312.7814, 65.67882
313.2635, 64.96986
313.7456, 64.09296
314.2278, 63.18156
314.7099, 62.17194
315.1920, 61.23326
315.6741, 60.04701
316.1562, 58.26247
316.6383, 58.17530
317.1205, 62.98124
317.6026, 69.44733
318.0847, 73.45680
318.5668, 71.35711
319.0489, 68.67132
319.5310, 67.68047
320.0132, 68.55348
320.4953, 69.28155
320.9774, 69.15453
321.4595, 68.68990
321.9416, 68.34201
322.4237, 68.16100
322.9059, 68.14658
323.3880, 68.81329
323.8701, 69.99684
324.3522, 69.83231
324.8343, 65.55078
325.3164, 61.44381
325.7986, 60.09138
326.2807, 65.93875
326.7628, 69.49976
327.2449, 68.22726
327.7270, 63.70740
328.2091, 62.22027
328.6913, 66.88271
329.1734, 71.92885
329.6555, 75.06966
330.1376, 76.15743
330.6197, 75.61993
331.1018, 71.74117
331.5840, 66.71638
332.0661, 65.12717
332.5482, 70.17509
333.0303, 73.98891
333.5124, 73.60925
333.9945, 67.97643
334.4767, 63.68819
334.9588, 60.79053
335.4409, 59.19792
335.9230, 58.85539
336.4051, 60.00399
336.8872, 61.86214
337.3694, 64.63503
337.8515, 68.21788
338.3336, 70.49663
338.8157, 71.25066
339.2978, 71.22725
339.7799, 71.13600
340.2621, 71.05602
340.7442, 70.26425
341.2263, 68.22577
341.7084, 65.58882
342.1905, 64.85017
342.6726, 66.37878
343.1548, 67.57565
343.6369, 65.62746
344.1190, 60.88956
344.6011, 59.22617
345.0832, 61.96297
345.5653, 66.68878
346.0475, 69.09377
346.5296, 69.30276
347.0117, 68.86750
347.4938, 68.43307
347.9759, 67.99548
348.4580, 67.44744
348.9402, 66.72366
349.4223, 66.25808
349.9044, 66.62629
350.3865, 67.70045
350.8686, 69.07051
351.3507, 71.25366
351.8329, 73.34185
352.3150, 73.78209
352.7971, 72.61009
353.2792, 70.84908
353.7613, 68.13225
354.2434, 65.59991
354.7256, 65.35834
355.2077, 69.88458
355.6898, 74.57094
356.1719, 74.18481
356.6540, 69.94646
357.1361, 66.83750
357.6183, 69.76859
358.1004, 74.11857
358.5825, 75.19677
359.0646, 70.44733
359.5467, 66.71664
360.0288, 69.55382
360.5110, 75.89089
360.9931, 79.89874
361.4752, 76.90430
361.9573, 72.87775
362.4394, 71.01589
362.9215, 72.00513
363.4037, 72.61225
363.8858, 71.23312
364.3679, 69.24019
364.8500, 68.07878
365.3321, 68.85078
365.8142, 69.66514
366.2964, 70.06730
366.7785, 70.05638
367.2606, 70.02604
367.7427, 70.50018
368.2248, 70.64882
368.7069, 69.94753
369.1891, 66.63321
369.6712, 64.77385
370.1533, 65.02357
370.6354, 66.81755
371.1175, 68.43147
371.5996, 69.70525
372.0818, 71.01192
372.5639, 72.68901
373.0460, 75.26344
373.5281, 76.38428
374.0102, 75.56538
374.4923, 73.74757
374.9745, 72.18145
375.4566, 70.73822
375.9387, 70.04523
376.4208, 70.66407
376.9029, 72.44561
377.3850, 72.65292
377.8672, 70.74827
378.3493, 68.89260
378.8314, 69.76264
379.3135, 73.44061
379.7956, 75.48457
380.2777, 74.58910
380.7599, 72.06741
381.2420, 71.28637
381.7241, 72.24390
382.2062, 73.46704
382.6883, 74.19383
383.1704, 74.42913
383.6525, 74.05270
384.1346, 72.94225
384.6168, 71.63834
385.0989, 70.65546
385.5810, 70.00727
386.0631, 69.68907
386.5452, 70.14756
387.0273, 70.73184
387.5095, 70.14381
387.9916, 68.38210
388.4737, 67.29258
388.9558, 69.50656
389.4379, 72.90582
389.9200, 74.60377
390.4022, 72.37585
390.8843, 69.69293
391.3664, 68.80766
391.8485, 69.39555
392.3306, 70.18566
392.8127, 69.72128
393.2949, 69.80431
393.7770, 72.11019
394.2591, 78.24794
394.7412, 83.04092
395.2233, 84.32309
395.7054, 83.31538
396.1876, 81.90610
396.6697, 80.21799
397.1518, 78.46050
397.6339, 76.55131
398.1160, 74.40005
398.5981, 72.88309
399.0803, 72.11831
399.5624, 71.96277
400.0445, 72.34549
400.5266, 74.14226
401.0087, 75.18863
401.4908, 74.76299
401.9730, 73.40035
402.4551, 73.39143
402.9372, 75.64415
403.4193, 77.77404
403.9014, 78.90583
404.3835, 79.33137
404.8657, 77.01530
405.3478, 70.30097
405.8299, 62.99430
406.3120, 61.70501
406.7941, 67.35995
407.2762, 72.23014
407.7584, 73.51837
408.2405, 71.93018
408.7226, 71.45493
409.2047, 72.24219
409.6868, 73.06987
410.1689, 72.36386
410.6511, 70.57192
411.1332, 70.22652
411.6153, 72.29191
412.0974, 75.06952
412.5795, 75.26864
413.0616, 73.50401
413.5438, 72.80533
414.0259, 77.29994
414.5080, 82.99622
414.9901, 83.17117
415.4722, 76.75441
415.9543, 70.66684
416.4365, 71.71651
416.9186, 76.51335
417.4007, 79.84470
417.8828, 79.03661
418.3649, 76.87894
418.8470, 74.52469
419.3292, 72.06580
419.8113, 70.12314
420.2934, 68.56326
420.7755, 67.83849
421.2576, 68.43987
421.7397, 71.48293
422.2219, 73.82253
422.7040, 74.73454
423.1861, 74.53406
423.6682, 73.80333
424.1503, 70.49538
424.6324, 68.77568
425.1146, 71.00060
425.5967, 78.04384
426.0788, 80.67249
426.5609, 75.43914
427.0430, 68.86718
427.5251, 66.37204
428.0073, 69.85777
428.4894, 73.05248
428.9715, 75.53297
429.4536, 77.17353
429.9357, 77.23542
430.4178, 75.07057
430.9000, 73.51297
431.3821, 74.53844
431.8642, 78.20753
432.3463, 80.28909
432.8284, 80.67027
433.3105, 79.84444
433.7927, 77.96231
434.2748, 75.18822
434.7569, 72.90231
435.2390, 71.43741
435.7211, 70.79258
436.2032, 71.36810
436.6854, 73.05084
437.1675, 74.56104
437.6496, 74.50208
438.1317, 73.84470
438.6138, 74.46858
439.0959, 77.22095
439.5781, 79.24326
440.0602, 77.56484
440.5423, 73.54166
441.0244, 69.66496
441.5065, 65.50916
441.9886, 63.09419
442.4708, 64.42569
442.9529, 69.38268
443.4350, 74.08409
443.9171, 78.35847
444.3992, 81.05322
444.8813, 81.22643
445.3635, 74.70896
445.8456, 71.03931
446.3277, 74.09092
446.8098, 80.91345
447.2919, 84.11972
447.7740, 80.40472
448.2562, 76.63931
448.7383, 74.74732
449.2204, 74.95473
449.7025, 75.59457
450.1846, 77.21863
450.6667, 78.57563
451.1489, 78.23362
451.6310, 75.44486
452.1131, 74.12684
452.5952, 75.42695
453.0773, 78.03400
453.5594, 77.81438
454.0416, 74.49664
454.5237, 71.49768
455.0058, 70.57973
455.4879, 71.51079
455.9700, 73.47035
456.4521, 76.69968
456.9343, 79.65118
457.4164, 80.33960
457.8985, 79.23608
458.3806, 77.84335
458.8627, 76.25204
459.3448, 75.35195
459.8270, 76.88485
460.3091, 80.07157
460.7912, 82.33781
461.2733, 80.72562
461.7554, 78.47868
462.2375, 78.71564
462.7197, 82.47403
463.2018, 85.33611
463.6839, 84.72012
464.1660, 82.29117
464.6481, 80.04652
465.1302, 78.11755
465.6123, 76.96146
466.0945, 77.01788
466.5766, 78.06948
467.0587, 78.52334
467.5408, 77.41125
468.0229, 76.70216
468.5050, 76.97550
468.9872, 78.80733
469.4693, 79.72661
469.9514, 80.32150
470.4335, 80.79733
470.9156, 80.52611
471.3977, 78.77234
471.8799, 76.91606
472.3620, 75.91534
472.8441, 75.81823
473.3262, 76.31490
473.8083, 77.21246
474.2904, 78.01073
474.7726, 78.55852
475.2547, 78.81152
475.7368, 78.32641
476.2189, 76.95595
476.7010, 75.29739
477.1831, 73.77624
477.6653, 72.61272
478.1474, 72.29812
478.6295, 73.86311
479.1116, 75.66936
479.5937, 75.77800
480.0758, 74.41431
480.5580, 73.26160
481.0401, 74.36783
481.5222, 75.84939
482.0043, 75.53655
482.4864, 71.67721
482.9685, 69.30853
483.4507, 71.64729
483.9328, 76.19621
484.4149, 79.52176
484.8970, 80.78040
485.3791, 81.13731
485.8612, 80.43501
486.3434, 78.77729
486.8255, 77.54575
487.3076, 76.73632
487.7897, 76.05286
488.2718, 75.24333
488.7539, 74.01385
489.2361, 73.25280
489.7182, 73.09621
490.2003, 73.57958
490.6824, 75.12141
491.1645, 78.03766
491.6466, 79.98956
492.1288, 79.78798
492.6109, 78.03928
493.0930, 77.20148
493.5751, 77.38818
494.0572, 77.83685
494.5393, 77.39463
495.0215, 76.68564
495.5036, 77.50337
495.9857, 80.30982
496.4678, 83.31551
496.9499, 85.41833
497.4320, 86.58055
497.9142, 86.63705
498.3963, 85.01205
498.8784, 83.27984
499.3605, 81.66793
499.8426, 79.89451
500.3247, 77.95822
500.8069, 77.82207
501.2890, 78.21574
501.7711, 78.28411
502.2532, 76.54408
502.7353, 75.08052
503.2174, 73.74900
503.6996, 73.00818
504.1817, 73.23470
504.6638, 75.86415
505.1459, 78.44231
505.6280, 80.50208
506.1101, 81.72141
506.5923, 82.76832
507.0744, 84.17194
507.5565, 85.17111
508.0386, 84.80131
508.5207, 82.82472
509.0028, 82.36047
509.4850, 83.76608
509.9671, 85.26362
510.4492, 84.37325
510.9313, 81.61277
511.4134, 78.90938
511.8955, 76.50116
512.3776, 75.71429
512.8597, 79.20326
513.3419, 85.29960
513.8240, 89.56982
514.3061, 88.81928
514.7882, 85.91845
515.2703, 82.19728
515.7524, 78.08936
516.2346, 75.59943
516.7167, 76.14494
517.1988, 77.75007
517.6809, 78.87354
518.1630, 80.57664
518.6451, 81.47176
519.1273, 80.83881
519.6094, 79.06473
520.0915, 77.90851
520.5736, 77.71763
521.0557, 77.80455
521.5378, 78.01752
522.0200, 78.22930
522.5021, 78.41956
522.9842, 78.49001
523.4663, 79.46600
523.9484, 82.64523
524.4305, 87.50283
524.9127, 88.95652
525.3948, 86.06142
525.8769, 82.16225
526.3590, 81.62150
526.8411, 83.54197
527.3232, 84.83602
527.8054, 84.39205
528.2875, 83.32401
528.7696, 82.60938
529.2517, 82.19341
529.7338, 82.01355
530.2159, 81.17390
530.6981, 80.79385
531.1802, 82.26556
531.6623, 86.80694
532.1444, 89.91473
532.6265, 88.94743
533.1086, 86.33711
533.5908, 84.61317
534.0729, 86.18815
534.5550, 86.57182
535.0371, 84.89947
535.5192, 81.70198
536.0013, 79.02125
536.4835, 76.17603
536.9656, 75.39922
537.4477, 78.36501
537.9298, 84.91053
538.4119, 87.94996
538.8940, 87.01465
539.3762, 84.68932
539.8583, 82.42314
540.3404, 80.42845
540.8225, 80.22933
541.3046, 82.51187
541.7867, 85.16024
542.2689, 85.04964
542.7510, 83.10382
543.2331, 81.81416
543.7152, 82.83910
544.1973, 84.67983
544.6794, 86.67947
545.1616, 88.61024
545.6437, 89.52795
546.1258, 88.17267
546.6079, 86.32066
547.0900, 84.89661
547.5721, 83.93880
548.0543, 83.61063
548.5364, 84.80758
549.0185, 86.14510
549.5006, 86.27351
549.9827, 83.62971
550.4648, 82.72546
550.9470, 84.86108
551.4291, 88.55221
551.9112, 90.00709
552.3933, 88.96086
552.8754, 87.07068
553.3575, 84.40621
553.8397, 81.37120
554.3218, 80.14648
554.8039, 80.71676
555.2860, 81.56371
555.7681, 81.56215
556.2502, 81.14233
556.7324, 81.04677
557.2145, 81.34508
557.6966, 81.78708
558.1787, 82.47470
558.6608, 82.97247
559.1429, 82.99736
559.6251, 81.83743
560.1072, 81.11265
560.5893, 81.35703
561.0714, 81.50265
561.5535, 81.96031
562.0356, 83.37334
562.5178, 84.92156
562.9999, 85.55706
563.4820, 85.36904
563.9641, 85.10606
564.4462, 84.45597
564.9283, 83.34135
565.4105, 83.25729
565.8926, 84.42789
566.3747, 85.95918
566.8568, 87.46634
567.3389, 88.51361
567.8210, 88.39920
568.3032, 87.39037
568.7853, 86.79369
569.2674, 87.03822
569.7495, 87.49096
570.2316, 87.36129
570.7137, 87.46738
571.1959, 87.78368
571.6780, 88.26530
572.1601, 87.73214
572.6422, 86.10302
573.1243, 84.15028
573.6064, 83.52037
574.0886, 84.53937
574.5707, 86.22368
575.0528, 88.20793
575.5349, 91.99986
576.0170, 92.99065
576.4991, 91.11959
576.9813, 89.19724
577.4634, 88.20255
577.9455, 87.52361
578.4276, 86.48684
578.9097, 86.77483
579.3918, 88.39572
579.8740, 90.06168
580.3561, 90.96482
580.8382, 90.64088
581.3203, 89.48032
581.8024, 88.18167
582.2845, 87.22081
582.7667, 85.86407
583.2488, 84.69043
583.7309, 85.00301
584.2130, 86.53290
584.6951, 87.99232
585.1772, 88.86593
585.6594, 89.41817
586.1415, 89.55148
586.6236, 89.22666
587.1057, 89.13403
587.5878, 89.62533
588.0699, 91.54092
588.5521, 93.84872
589.0342, 95.46299
589.5163, 93.88867
589.9984, 88.33295
590.4805, 84.66898
590.9626, 85.03644
591.4448, 89.19277
591.9269, 90.96335
592.4090, 90.73402
