##NAMES=Diamond
##RRUFFID=R050207
##IDEAL CHEMISTRY=C
##LOCALITY=Unknown
##OWNER=RRUFF
##SOURCE=Eric Van Valkenburg
##DESCRIPTION=Single crystal,  type I
##STATUS=The identification of this mineral has been confirmed by single-crystal X-ray diffraction.
##URL=rruff.info/R050207
93.78320, 1057.186
94.26532, 1032.775
94.74744, 1034.605
95.22955, 1060.301
95.71167, 1102.341
96.19379, 1144.948
96.67590, 1192.181
97.15802, 1234.317
97.64014, 1269.318
98.12225, 1298.568
98.60437, 1324.990
99.08649, 1350.258
99.56860, 1372.588
100.0507, 1388.344
100.5328, 1393.078
101.0150, 1399.297
101.4971, 1419.383
101.9792, 1454.220
102.4613, 1484.177
102.9434, 1496.676
103.4255, 1503.116
103.9077, 1510.034
104.3898, 1518.605
104.8719, 1530.448
105.3540, 1550.133
105.8361, 1585.051
106.3182, 1614.754
106.8004, 1631.530
107.2825, 1642.348
107.7646, 1656.071
108.2467, 1678.608
108.7288, 1708.862
109.2109, 1731.386
109.6931, 1736.117
110.1752, 1743.429
110.6573, 1761.198
111.1394, 1786.747
111.6215, 1812.094
112.1036, 1830.138
112.5858, 1839.634
113.0679, 1849.591
113.5500, 1859.331
114.0321, 1869.898
114.5142, 1882.763
114.9963, 1898.142
115.4785, 1913.677
115.9606, 1925.728
116.4427, 1934.552
116.9248, 1945.097
117.4069, 1959.978
117.8890, 1977.342
118.3712, 1993.021
118.8533, 2004.934
119.3354, 2017.084
119.8175, 2035.677
120.2996, 2059.944
120.7817, 2079.752
121.2639, 2085.226
121.7460, 2075.697
122.2281, 2068.156
122.7102, 2063.341
123.1923, 2063.165
123.6744, 2071.470
124.1566, 2088.220
124.6387, 2107.051
125.1208, 2118.865
125.6029, 2121.706
126.0850, 2120.587
126.5671, 2112.906
127.0493, 2103.950
127.5314, 2098.488
128.0135, 2098.377
128.4956, 2101.304
128.9777, 2100.685
129.4598, 2094.274
129.9420, 2086.431
130.4241, 2074.824
130.9062, 2062.413
131.3883, 2054.004
131.8704, 2052.849
132.3525, 2057.170
132.8347, 2056.648
133.3168, 2050.584
133.7989, 2041.758
134.2810, 2028.219
134.7631, 2011.460
135.2453, 1999.567
135.7274, 2002.395
136.2095, 2013.518
136.6916, 2010.847
137.1737, 1979.854
137.6558, 1942.637
138.1380, 1922.997
138.6201, 1923.751
139.1022, 1929.214
139.5843, 1932.614
140.0664, 1933.634
140.5485, 1930.994
141.0307, 1923.664
141.5128, 1912.391
141.9949, 1898.894
142.4770, 1881.584
142.9591, 1864.431
143.4412, 1848.341
143.9234, 1833.602
144.4055, 1820.729
144.8876, 1810.631
145.3697, 1803.354
145.8518, 1794.587
146.3339, 1780.047
146.8161, 1767.828
147.2982, 1762.199
147.7803, 1761.641
148.2624, 1761.225
148.7445, 1755.581
149.2266, 1742.230
149.7088, 1734.132
150.1909, 1737.852
150.6730, 1740.545
151.1551, 1734.183
151.6372, 1718.149
152.1193, 1697.786
152.6015, 1679.264
153.0836, 1661.938
153.5657, 1649.878
154.0478, 1647.689
154.5299, 1648.462
155.0120, 1645.238
155.4942, 1636.136
155.9763, 1623.988
156.4584, 1611.719
156.9405, 1598.508
157.4226, 1589.215
157.9047, 1588.143
158.3869, 1591.834
158.8690, 1592.391
159.3511, 1586.271
159.8332, 1578.707
160.3153, 1576.613
160.7974, 1580.113
161.2796, 1583.482
161.7617, 1583.667
162.2438, 1580.732
162.7259, 1575.135
163.2080, 1564.667
163.6901, 1553.270
164.1723, 1543.632
164.6544, 1536.035
165.1365, 1529.647
165.6186, 1522.963
166.1007, 1515.044
166.5828, 1511.081
167.0650, 1519.022
167.5471, 1526.532
168.0292, 1524.056
168.5113, 1509.640
168.9934, 1490.927
169.4755, 1481.641
169.9577, 1490.098
170.4398, 1492.054
170.9219, 1480.298
171.4040, 1465.308
171.8861, 1455.522
172.3682, 1454.098
172.8504, 1458.589
173.3325, 1463.284
173.8146, 1470.655
174.2967, 1475.009
174.7788, 1475.441
175.2609, 1473.051
175.7431, 1468.553
176.2252, 1462.105
176.7073, 1454.679
177.1894, 1449.427
177.6715, 1448.885
178.1536, 1447.199
178.6358, 1441.729
179.1179, 1434.371
179.6000, 1428.944
180.0821, 1427.512
180.5642, 1429.009
181.0463, 1430.140
181.5285, 1432.087
182.0106, 1432.188
182.4927, 1425.959
182.9748, 1415.468
183.4569, 1411.360
183.9390, 1423.376
184.4212, 1442.147
184.9033, 1447.447
185.3854, 1432.489
185.8675, 1414.607
186.3496, 1407.912
186.8317, 1412.642
187.3139, 1419.775
187.7960, 1427.225
188.2781, 1434.097
188.7602, 1440.112
189.2423, 1446.222
189.7244, 1449.181
190.2066, 1443.204
190.6887, 1425.516
191.1708, 1409.004
191.6529, 1394.090
192.1350, 1384.250
192.6171, 1385.134
193.0993, 1400.291
193.5814, 1421.416
194.0635, 1431.344
194.5456, 1424.272
195.0277, 1416.909
195.5098, 1412.574
195.9920, 1409.914
196.4741, 1407.608
196.9562, 1405.056
197.4383, 1402.586
197.9204, 1401.174
198.4025, 1401.304
198.8847, 1401.997
199.3668, 1402.805
199.8489, 1404.152
200.3310, 1407.087
200.8131, 1412.213
201.2952, 1418.394
201.7774, 1421.103
202.2595, 1414.841
202.7416, 1411.034
203.2237, 1415.364
203.7058, 1421.936
204.1879, 1420.387
204.6701, 1404.448
205.1522, 1379.394
205.6343, 1370.219
206.1164, 1392.507
206.5985, 1410.833
207.0806, 1416.775
207.5628, 1413.658
208.0449, 1407.004
208.5270, 1398.678
209.0091, 1390.335
209.4912, 1389.261
209.9733, 1404.611
210.4555, 1414.930
210.9376, 1406.343
211.4197, 1385.705
211.9018, 1372.869
212.3839, 1380.155
212.8660, 1400.046
213.3482, 1410.474
213.8303, 1408.866
214.3124, 1403.236
214.7945, 1395.879
215.2766, 1387.372
215.7587, 1381.199
216.2409, 1379.601
216.7230, 1380.978
217.2051, 1381.546
217.6872, 1380.323
218.1693, 1380.324
218.6515, 1385.953
219.1336, 1396.870
219.6157, 1403.596
220.0978, 1399.474
220.5799, 1391.137
221.0620, 1385.134
221.5442, 1381.862
222.0263, 1382.265
222.5084, 1390.465
222.9905, 1407.834
223.4726, 1418.089
223.9547, 1406.266
224.4369, 1391.048
224.9190, 1387.587
225.4011, 1399.024
225.8832, 1414.261
226.3653, 1419.800
226.8474, 1413.794
227.3296, 1406.859
227.8117, 1397.584
228.2938, 1390.329
228.7759, 1388.787
229.2580, 1393.549
229.7401, 1401.106
230.2223, 1407.281
230.7044, 1412.326
231.1865, 1414.992
231.6686, 1414.067
232.1507, 1411.698
232.6328, 1409.042
233.1150, 1406.360
233.5971, 1403.285
234.0792, 1398.923
234.5613, 1391.872
235.0434, 1387.126
235.5255, 1385.631
236.0077, 1385.469
236.4898, 1385.681
236.9719, 1386.012
237.4540, 1386.620
237.9361, 1387.728
238.4182, 1389.491
238.9004, 1391.441
239.3825, 1393.558
239.8646, 1395.842
240.3467, 1398.574
240.8288, 1401.632
241.3109, 1404.417
241.7931, 1406.267
242.2752, 1407.387
242.7573, 1406.511
243.2394, 1399.761
243.7215, 1394.152
244.2036, 1396.853
244.6858, 1407.274
245.1679, 1416.476
245.6500, 1413.457
246.1321, 1393.129
246.6142, 1381.105
247.0963, 1379.842
247.5785, 1384.053
248.0606, 1393.914
248.5427, 1407.779
249.0248, 1417.854
249.5069, 1414.911
249.9890, 1395.962
250.4712, 1387.734
250.9533, 1399.305
251.4354, 1413.996
251.9175, 1419.668
252.3996, 1416.261
252.8817, 1412.850
253.3639, 1418.001
253.8460, 1431.701
254.3281, 1438.599
254.8102, 1432.294
255.2923, 1424.346
255.7744, 1422.847
256.2566, 1427.696
256.7387, 1434.260
257.2208, 1440.404
257.7029, 1445.335
258.1850, 1446.552
258.6671, 1442.109
259.1493, 1435.511
259.6314, 1427.298
260.1135, 1417.967
260.5956, 1412.173
261.0777, 1413.770
261.5598, 1420.853
262.0420, 1426.257
262.5241, 1429.269
263.0062, 1431.304
263.4883, 1433.859
263.9704, 1436.696
264.4525, 1437.219
264.9347, 1432.696
265.4168, 1426.045
265.8989, 1422.755
266.3810, 1423.761
266.8631, 1426.305
267.3452, 1429.958
267.8274, 1434.270
268.3095, 1434.602
268.7916, 1424.551
269.2737, 1414.267
269.7558, 1418.800
270.2379, 1441.435
270.7201, 1462.190
271.2022, 1465.729
271.6843, 1454.271
272.1664, 1442.497
272.6485, 1432.858
273.1306, 1425.663
273.6128, 1420.409
274.0949, 1417.132
274.5770, 1416.394
275.0591, 1419.543
275.5412, 1425.969
276.0233, 1432.432
276.5055, 1439.147
276.9876, 1444.701
277.4697, 1448.475
277.9518, 1450.492
278.4339, 1450.851
278.9160, 1448.187
279.3982, 1443.506
279.8803, 1441.785
280.3624, 1444.986
280.8445, 1448.610
281.3266, 1450.080
281.8087, 1449.872
282.2909, 1449.046
282.7730, 1447.722
283.2551, 1446.227
283.7372, 1445.869
284.2193, 1447.548
284.7014, 1448.639
285.1836, 1445.312
285.6657, 1441.105
286.1478, 1442.184
286.6299, 1453.565
287.1120, 1469.751
287.5941, 1476.473
288.0763, 1467.969
288.5584, 1463.703
289.0405, 1478.281
289.5226, 1497.332
290.0047, 1504.379
290.4868, 1491.896
290.9690, 1470.968
291.4511, 1461.071
291.9332, 1466.399
292.4153, 1469.929
292.8974, 1462.343
293.3795, 1454.128
293.8617, 1455.065
294.3438, 1467.669
294.8259, 1482.672
295.3080, 1486.296
295.7901, 1475.036
296.2722, 1468.991
296.7544, 1478.365
297.2365, 1489.012
297.7186, 1491.172
298.2007, 1484.755
298.6828, 1479.045
299.1649, 1486.254
299.6471, 1508.803
300.1292, 1522.644
300.6113, 1517.974
301.0934, 1511.426
301.5755, 1510.877
302.0576, 1515.151
302.5398, 1518.156
303.0219, 1513.610
303.5040, 1501.993
303.9861, 1495.990
304.4682, 1499.625
304.9503, 1504.662
305.4325, 1507.839
305.9146, 1510.183
306.3967, 1513.924
306.8788, 1520.666
307.3609, 1529.732
307.8430, 1538.361
308.3252, 1548.460
308.8073, 1554.775
309.2894, 1556.042
309.7715, 1553.295
310.2536, 1546.741
310.7357, 1535.935
311.2179, 1523.783
311.7000, 1516.313
312.1821, 1513.671
312.6642, 1515.924
313.1463, 1527.805
313.6284, 1541.160
314.1106, 1550.004
314.5927, 1552.631
315.0748, 1550.044
315.5569, 1541.725
316.0390, 1524.286
316.5211, 1513.275
317.0033, 1512.960
317.4854, 1517.363
317.9675, 1525.764
318.4496, 1536.900
318.9317, 1546.952
319.4138, 1551.119
319.8960, 1548.550
320.3781, 1548.553
320.8602, 1553.482
321.3423, 1558.988
321.8244, 1564.262
322.3065, 1568.806
322.7887, 1571.946
323.2708, 1573.110
323.7529, 1572.410
324.2350, 1570.582
324.7171, 1566.849
325.1992, 1563.016
325.6814, 1558.325
326.1635, 1554.208
326.6456, 1552.890
327.1277, 1555.731
327.6098, 1561.224
328.0919, 1565.604
328.5741, 1568.157
329.0562, 1571.164
329.5383, 1577.573
330.0204, 1583.322
330.5025, 1582.903
330.9846, 1574.805
331.4668, 1566.622
331.9489, 1572.163
332.4310, 1597.238
332.9131, 1611.011
333.3952, 1594.611
333.8773, 1576.239
334.3595, 1572.254
334.8416, 1582.931
335.3237, 1596.376
335.8058, 1601.132
336.2879, 1597.009
336.7701, 1595.839
337.2522, 1602.320
337.7343, 1606.696
338.2164, 1601.245
338.6985, 1590.190
339.1806, 1583.670
339.6628, 1589.909
340.1449, 1605.016
340.6270, 1613.762
341.1091, 1612.880
341.5912, 1611.677
342.0734, 1615.796
342.5555, 1620.984
343.0376, 1620.828
343.5197, 1611.475
344.0018, 1600.372
344.4839, 1600.796
344.9661, 1615.811
345.4482, 1629.307
345.9303, 1637.803
346.4124, 1641.964
346.8945, 1639.867
347.3766, 1631.279
347.8588, 1623.013
348.3409, 1621.443
348.8230, 1626.467
349.3051, 1634.111
349.7872, 1647.424
350.2693, 1659.003
350.7515, 1663.907
351.2336, 1662.817
351.7157, 1659.024
352.1978, 1652.312
352.6799, 1644.290
353.1620, 1639.650
353.6442, 1637.789
354.1263, 1641.130
354.6084, 1657.983
355.0905, 1679.528
355.5726, 1690.797
356.0547, 1682.009
356.5369, 1666.631
357.0190, 1663.953
357.5011, 1675.356
357.9832, 1684.932
358.4653, 1684.262
358.9474, 1679.513
359.4296, 1678.810
359.9117, 1684.059
360.3938, 1687.754
360.8759, 1680.758
361.3580, 1666.014
361.8401, 1660.059
362.3223, 1670.314
362.8044, 1684.808
363.2865, 1690.375
363.7686, 1688.022
364.2507, 1686.584
364.7328, 1691.931
365.2150, 1699.692
365.6971, 1700.719
366.1792, 1692.742
366.6613, 1687.203
367.1434, 1696.432
367.6255, 1715.225
368.1077, 1727.285
368.5898, 1725.330
369.0719, 1720.372
369.5540, 1722.214
370.0361, 1729.762
370.5182, 1735.154
371.0004, 1734.437
371.4825, 1729.531
371.9646, 1724.571
372.4467, 1718.237
372.9288, 1714.923
373.4109, 1719.233
373.8931, 1727.169
374.3752, 1730.125
374.8573, 1725.027
375.3394, 1719.428
375.8215, 1724.574
376.3036, 1742.249
376.7858, 1753.759
377.2679, 1753.837
377.7500, 1749.292
378.2321, 1744.516
378.7142, 1740.262
379.1964, 1737.621
379.6785, 1737.625
380.1606, 1740.083
380.6427, 1742.340
381.1248, 1744.415
381.6069, 1746.306
382.0891, 1747.132
382.5712, 1747.885
383.0533, 1751.189
383.5354, 1758.438
384.0175, 1766.789
384.4996, 1769.859
384.9818, 1762.754
385.4639, 1758.203
385.9460, 1757.995
386.4281, 1759.500
386.9102, 1760.889
387.3923, 1761.685
387.8745, 1761.701
388.3566, 1760.318
388.8387, 1756.750
389.3208, 1757.592
389.8029, 1769.590
390.2850, 1778.422
390.7672, 1776.567
391.2493, 1767.412
391.7314, 1757.819
392.2135, 1751.629
392.6956, 1748.782
393.1777, 1749.033
393.6599, 1753.784
394.1420, 1760.030
394.6241, 1771.771
395.1062, 1782.302
395.5883, 1784.604
396.0704, 1777.374
396.5526, 1766.238
397.0347, 1757.666
397.5168, 1750.764
397.9989, 1749.898
398.4810, 1761.217
398.9631, 1773.121
399.4453, 1781.104
399.9274, 1785.763
400.4095, 1790.077
400.8916, 1796.836
401.3737, 1804.438
401.8558, 1804.494
402.3380, 1790.315
402.8201, 1781.364
403.3022, 1788.252
403.7843, 1800.390
404.2664, 1806.651
404.7485, 1803.513
405.2307, 1796.666
405.7128, 1792.361
406.1949, 1790.658
406.6770, 1790.342
407.1591, 1791.403
407.6412, 1793.763
408.1234, 1798.455
408.6055, 1804.806
409.0876, 1809.210
409.5697, 1808.064
410.0518, 1803.721
410.5339, 1803.063
411.0161, 1808.027
411.4982, 1809.732
411.9803, 1797.497
412.4624, 1779.637
412.9445, 1770.194
413.4266, 1773.453
413.9088, 1782.022
414.3909, 1792.845
414.8730, 1804.845
415.3551, 1812.371
415.8372, 1812.586
416.3193, 1809.287
416.8015, 1807.802
417.2836, 1808.166
417.7657, 1808.543
418.2478, 1807.786
418.7299, 1807.132
419.2120, 1809.137
419.6942, 1813.845
420.1763, 1816.345
420.6584, 1811.293
421.1405, 1800.038
421.6226, 1796.835
422.1047, 1807.870
422.5869, 1819.340
423.0690, 1825.898
423.5511, 1829.144
424.0332, 1832.200
424.5153, 1836.286
424.9974, 1840.873
425.4796, 1845.224
425.9617, 1851.952
426.4438, 1852.553
426.9259, 1840.384
427.4080, 1827.484
427.8901, 1823.154
428.3723, 1826.909
428.8544, 1832.074
429.3365, 1833.245
429.8186, 1830.587
430.3007, 1827.078
430.7828, 1817.965
431.2650, 1813.526
431.7471, 1817.201
432.2292, 1825.724
432.7113, 1836.867
433.1934, 1849.527
433.6755, 1860.211
434.1577, 1862.167
434.6398, 1852.170
435.1219, 1844.460
435.6040, 1840.492
436.0861, 1838.600
436.5682, 1838.375
437.0504, 1839.649
437.5325, 1842.211
438.0146, 1845.967
438.4967, 1850.879
438.9788, 1858.620
439.4609, 1873.868
439.9431, 1880.110
440.4252, 1858.811
440.9073, 1830.369
441.3894, 1816.745
441.8715, 1824.143
442.3536, 1837.833
442.8358, 1846.078
443.3179, 1849.578
443.8000, 1852.159
444.2821, 1853.749
444.7642, 1856.073
445.2463, 1862.815
445.7285, 1872.559
446.2106, 1877.948
446.6927, 1872.831
447.1748, 1865.176
447.6569, 1864.693
448.1390, 1870.528
448.6212, 1872.872
449.1033, 1865.293
449.5854, 1851.792
450.0675, 1843.578
450.5496, 1841.613
451.0317, 1841.614
451.5139, 1844.264
451.9960, 1847.480
452.4781, 1846.870
452.9602, 1842.142
453.4423, 1840.824
453.9244, 1852.514
454.4066, 1879.933
454.8887, 1891.573
455.3708, 1874.226
455.8529, 1858.563
456.3350, 1858.442
456.8171, 1867.050
457.2993, 1870.757
457.7814, 1863.248
458.2635, 1851.142
458.7456, 1849.985
459.2277, 1871.090
459.7098, 1879.013
460.1920, 1861.008
460.6741, 1841.251
461.1562, 1835.044
461.6383, 1840.908
462.1204, 1847.353
462.6025, 1844.545
463.0847, 1835.096
463.5668, 1833.034
464.0489, 1841.724
464.5310, 1851.161
465.0131, 1862.833
465.4952, 1871.048
465.9774, 1867.131
466.4595, 1848.289
466.9416, 1828.869
467.4237, 1824.289
467.9058, 1832.242
468.3879, 1837.029
468.8701, 1835.668
469.3522, 1832.210
469.8343, 1827.975
470.3164, 1824.050
470.7985, 1824.347
471.2806, 1835.946
471.7628, 1847.450
472.2449, 1845.687
472.7270, 1833.496
473.2091, 1826.098
473.6912, 1830.768
474.1733, 1842.006
474.6555, 1849.810
475.1376, 1854.908
475.6197, 1855.376
476.1018, 1848.593
476.5839, 1838.599
477.0660, 1825.036
477.5482, 1810.221
478.0303, 1804.152
478.5124, 1816.118
478.9945, 1843.171
479.4766, 1859.708
479.9587, 1858.280
480.4409, 1855.041
480.9230, 1852.347
481.4051, 1848.557
481.8872, 1839.347
482.3693, 1824.772
482.8514, 1812.944
483.3336, 1816.244
483.8157, 1837.868
484.2978, 1848.065
484.7799, 1838.212
485.2620, 1825.934
485.7441, 1812.421
486.2263, 1801.723
486.7084, 1801.137
487.1905, 1815.394
487.6726, 1834.768
488.1547, 1845.651
488.6368, 1847.675
489.1190, 1845.738
489.6011, 1838.565
490.0832, 1830.235
490.5653, 1823.924
491.0474, 1819.570
491.5295, 1816.495
492.0117, 1814.758
492.4938, 1813.965
492.9759, 1812.287
493.4580, 1809.979
493.9401, 1813.628
494.4222, 1830.610
494.9044, 1852.144
495.3865, 1853.726
495.8686, 1825.775
496.3507, 1805.616
496.8328, 1808.877
497.3149, 1820.108
497.7971, 1822.026
498.2792, 1813.279
498.7613, 1804.593
499.2434, 1805.681
499.7255, 1815.803
500.2076, 1821.114
500.6898, 1813.569
501.1719, 1810.930
501.6540, 1822.800
502.1361, 1837.730
502.6182, 1841.804
503.1003, 1832.065
503.5825, 1818.185
504.0646, 1812.503
504.5467, 1816.268
505.0288, 1815.923
505.5110, 1804.162
505.9931, 1797.670
506.4752, 1809.202
506.9573, 1828.216
507.4394, 1836.491
507.9215, 1824.948
508.4037, 1808.733
508.8858, 1807.908
509.3679, 1821.436
509.8500, 1831.332
510.3321, 1833.563
510.8142, 1831.137
511.2964, 1824.584
511.7785, 1815.006
512.2606, 1809.378
512.7427, 1813.325
513.2248, 1818.799
513.7069, 1816.325
514.1890, 1808.477
514.6711, 1807.990
515.1533, 1822.347
515.6354, 1841.769
516.1175, 1845.791
516.5996, 1823.243
517.0817, 1810.355
517.5638, 1816.405
518.0460, 1825.558
518.5281, 1826.992
519.0102, 1821.464
519.4923, 1815.255
519.9744, 1812.492
520.4565, 1812.061
520.9387, 1809.736
521.4208, 1804.947
521.9029, 1799.204
522.3850, 1788.653
522.8671, 1780.351
523.3492, 1780.570
523.8314, 1788.708
524.3135, 1798.363
524.7956, 1806.120
525.2777, 1811.352
525.7598, 1811.038
526.2419, 1803.604
526.7241, 1796.209
527.2062, 1789.319
527.6883, 1785.767
528.1704, 1790.552
528.6525, 1805.737
529.1346, 1819.538
529.6168, 1823.787
530.0989, 1823.632
530.5810, 1830.654
531.0631, 1846.061
531.5452, 1853.898
532.0273, 1838.841
532.5095, 1806.060
532.9916, 1791.977
533.4737, 1813.894
533.9558, 1829.168
534.4379, 1824.216
534.9200, 1810.618
535.4022, 1798.782
535.8843, 1791.766
536.3664, 1790.795
536.8485, 1798.580
537.3306, 1815.039
537.8127, 1823.778
538.2949, 1820.796
538.7770, 1814.634
539.2591, 1802.116
539.7412, 1790.208
540.2233, 1786.978
540.7054, 1794.368
541.1876, 1805.915
541.6697, 1816.218
542.1518, 1825.276
542.6339, 1834.249
543.1160, 1845.943
543.5981, 1850.845
544.0803, 1834.886
544.5624, 1809.273
545.0445, 1795.318
545.5266, 1799.289
546.0087, 1808.514
546.4908, 1820.454
546.9730, 1831.417
547.4551, 1832.191
547.9372, 1820.781
548.4193, 1807.960
548.9014, 1804.669
549.3835, 1811.156
549.8657, 1814.247
550.3478, 1808.202
550.8299, 1806.148
551.3120, 1817.396
551.7941, 1832.094
552.2762, 1836.188
552.7584, 1826.776
553.2405, 1814.891
553.7226, 1814.959
554.2047, 1828.115
554.6868, 1833.777
555.1689, 1826.822
555.6511, 1819.315
556.1332, 1813.676
556.6153, 1810.758
557.0974, 1812.510
557.5795, 1819.976
558.0616, 1828.042
558.5438, 1832.488
559.0259, 1833.751
559.5080, 1832.299
559.9901, 1827.133
560.4722, 1824.114
560.9543, 1830.256
561.4365, 1842.667
561.9186, 1846.865
562.4007, 1836.400
562.8828, 1825.674
563.3649, 1819.557
563.8470, 1816.609
564.3292, 1814.503
564.8113, 1812.878
565.2934, 1813.867
565.7755, 1820.388
566.2576, 1832.531
566.7397, 1839.123
567.2219, 1832.178
567.7040, 1829.239
568.1861, 1837.232
568.6682, 1848.385
569.1503, 1854.972
569.6324, 1855.260
570.1146, 1851.962
570.5967, 1846.211
571.0788, 1838.689
571.5609, 1833.694
572.0430, 1831.789
572.5251, 1831.068
573.0073, 1831.528
573.4894, 1832.177
573.9715, 1831.021
574.4536, 1826.889
574.9357, 1824.683
575.4178, 1830.068
575.9000, 1837.249
576.3821, 1836.068
576.8642, 1826.224
577.3463, 1818.314
577.8284, 1820.406
578.3105, 1830.065
578.7927, 1835.279
579.2748, 1828.482
579.7569, 1827.259
580.2390, 1839.515
580.7211, 1852.536
581.2032, 1854.162
581.6854, 1845.682
582.1675, 1838.318
582.6496, 1841.278
583.1317, 1850.895
583.6138, 1853.492
584.0959, 1846.200
584.5781, 1841.778
585.0602, 1845.169
585.5423, 1851.831
586.0244, 1859.159
586.5065, 1866.741
586.9886, 1872.103
587.4708, 1873.862
587.9529, 1873.021
588.4351, 1868.690
588.9172, 1861.999
589.3993, 1860.425
589.8814, 1868.497
590.3635, 1879.055
590.8456, 1878.656
591.3278, 1860.455
591.8099, 1850.947
592.2920, 1853.755
592.7741, 1861.370
593.2562, 1875.483
