##NAMES=Diaoyudaoite
##RRUFFID=R050182
##IDEAL CHEMISTRY=NaAl_11_O_17_
##LOCALITY=Port Elizabeth, Essex County, New Jersey, USA
##OWNER=RRUFF
##SOURCE=Marcus Origlieri
##DESCRIPTION=Colorless crystal fragments
##STATUS=The identification of this mineral is confirmed by single-crystal X-ray diffraction and chemical analysis.
##URL=rruff.info/R050182
##MEASURED CHEMISTRY=(Na_1.21_Ca_0.06_)(Al_0.99_[box]_0.01_)_11_O_17_
107.2747, 201.6828
107.7568, 203.2395
108.2389, 204.5819
108.7210, 206.1148
109.2031, 207.8480
109.6852, 209.7909
110.1674, 212.0648
110.6495, 214.9514
111.1316, 218.0597
111.6137, 221.0547
112.0958, 223.6383
112.5779, 226.4301
113.0601, 229.4962
113.5422, 232.8229
114.0243, 236.6591
114.5064, 241.4904
114.9885, 246.7131
115.4706, 251.6426
115.9528, 256.3206
116.4349, 260.4885
116.9170, 263.8047
117.3991, 265.9264
117.8812, 268.3008
118.3633, 271.9688
118.8455, 276.2460
119.3276, 279.7758
119.8097, 281.5165
120.2918, 282.6320
120.7739, 283.9574
121.2560, 285.7835
121.7382, 287.6173
122.2203, 289.0448
122.7024, 290.1955
123.1845, 291.5038
123.6666, 294.0188
124.1487, 296.5688
124.6309, 297.6559
125.1130, 295.7908
125.5951, 293.4533
126.0772, 293.2183
126.5593, 294.9315
127.0414, 297.2067
127.5236, 299.0380
128.0057, 300.6275
128.4878, 302.4564
128.9699, 304.6476
129.4520, 307.1666
129.9341, 309.9600
130.4162, 313.0296
130.8984, 316.3381
131.3805, 320.1252
131.8626, 324.2457
132.3447, 327.9457
132.8268, 330.7786
133.3089, 332.9311
133.7911, 334.4675
134.2732, 334.4364
134.7553, 333.2264
135.2374, 331.8504
135.7195, 330.2992
136.2016, 328.9911
136.6838, 328.2939
137.1659, 328.1942
137.6480, 327.5414
138.1301, 326.1713
138.6122, 324.5170
139.0943, 323.5073
139.5765, 323.3917
140.0586, 322.8499
140.5407, 321.0861
141.0228, 317.7940
141.5049, 314.7672
141.9870, 311.9271
142.4692, 309.3796
142.9513, 307.5370
143.4334, 306.5459
143.9155, 305.9039
144.3976, 305.3335
144.8797, 304.7890
145.3619, 304.4045
145.8440, 304.1611
146.3261, 304.0698
146.8082, 304.2759
147.2903, 305.1336
147.7724, 305.9053
148.2546, 306.1349
148.7367, 305.4794
149.2188, 304.8002
149.7009, 304.1650
150.1830, 303.5752
150.6651, 303.0288
151.1473, 302.5551
151.6294, 302.1154
152.1115, 301.6885
152.5936, 301.3791
153.0757, 300.9738
153.5578, 300.1223
154.0400, 298.7527
154.5221, 298.4302
155.0042, 300.6009
155.4863, 303.2069
155.9684, 304.4678
156.4505, 303.2002
156.9327, 301.5281
157.4148, 299.6972
157.8969, 297.6426
158.3790, 296.3065
158.8611, 296.4772
159.3432, 297.2391
159.8254, 297.5756
160.3075, 297.0558
160.7896, 296.2357
161.2717, 295.2258
161.7538, 293.9743
162.2359, 292.9305
162.7181, 292.3979
163.2002, 292.1412
163.6823, 291.8315
164.1644, 291.1891
164.6465, 290.5861
165.1286, 290.2871
165.6108, 290.4140
166.0929, 290.4600
166.5750, 289.9012
167.0571, 289.0957
167.5392, 288.6974
168.0213, 289.3316
168.5035, 290.2784
168.9856, 290.9581
169.4677, 291.1783
169.9498, 291.4482
170.4319, 292.4069
170.9140, 293.7079
171.3962, 294.5264
171.8783, 294.1073
172.3604, 293.1322
172.8425, 292.2762
173.3246, 291.6716
173.8067, 291.1714
174.2889, 290.6602
174.7710, 290.1511
175.2531, 289.6840
175.7352, 289.3663
176.2173, 289.0894
176.6994, 288.6411
177.1816, 287.8165
177.6637, 287.1126
178.1458, 287.1662
178.6279, 287.8724
179.1100, 288.7207
179.5921, 289.4237
180.0743, 290.0284
180.5564, 290.6419
181.0385, 291.3657
181.5206, 291.9991
182.0027, 292.2112
182.4848, 292.0266
182.9670, 291.6824
183.4491, 291.1888
183.9312, 290.6500
184.4133, 290.4091
184.8954, 290.6711
185.3775, 291.1212
185.8596, 291.1578
186.3418, 290.7865
186.8239, 290.3622
187.3060, 290.2217
187.7881, 290.2929
188.2702, 290.2801
188.7523, 290.1618
189.2345, 289.8870
189.7166, 289.1188
190.1987, 287.8107
190.6808, 286.7699
191.1629, 286.9624
191.6451, 288.2328
192.1272, 289.2776
192.6093, 289.7794
193.0914, 289.8550
193.5735, 289.7824
194.0556, 289.5351
194.5378, 289.3495
195.0199, 289.4927
195.5020, 289.9500
195.9841, 290.4366
196.4662, 290.9780
196.9483, 291.4750
197.4305, 291.3535
197.9126, 290.4724
198.3947, 289.5664
198.8768, 289.5582
199.3589, 290.4899
199.8410, 291.1094
200.3232, 290.9815
200.8053, 290.2574
201.2874, 289.8617
201.7695, 289.8428
202.2516, 290.0082
202.7337, 290.1864
203.2159, 290.3784
203.6980, 290.5746
204.1801, 290.7432
204.6622, 290.9058
205.1443, 291.3018
205.6264, 292.0316
206.1086, 292.7726
206.5907, 293.1788
207.0728, 293.2106
207.5549, 293.1332
208.0370, 293.0757
208.5191, 293.0142
209.0013, 292.3350
209.4834, 290.6772
209.9655, 289.0836
210.4476, 288.8489
210.9297, 290.3856
211.4118, 291.7428
211.8940, 292.4803
212.3761, 292.6118
212.8582, 292.5368
213.3403, 292.1197
213.8224, 291.7156
214.3045, 291.7368
214.7867, 292.2957
215.2688, 292.9464
215.7509, 293.6238
216.2330, 294.3211
216.7151, 294.9135
217.1972, 295.2719
217.6794, 295.6986
218.1615, 296.5949
218.6436, 298.2471
219.1257, 299.6116
219.6078, 300.3130
220.0899, 300.3501
220.5721, 300.7912
221.0542, 301.8368
221.5363, 303.0247
222.0184, 303.8034
222.5005, 303.8975
222.9826, 304.2396
223.4648, 305.0176
223.9469, 306.2445
224.4290, 307.7105
224.9111, 309.5450
225.3932, 311.4875
225.8753, 313.2624
226.3575, 314.6319
226.8396, 316.3453
227.3217, 318.6481
227.8038, 321.5833
228.2859, 324.0967
228.7680, 325.9043
229.2502, 327.6152
229.7323, 329.8676
230.2144, 333.2156
230.6965, 336.0006
231.1786, 337.6340
231.6607, 338.1191
232.1429, 339.5919
232.6250, 342.4986
233.1071, 345.8939
233.5892, 348.8810
234.0713, 351.1860
234.5534, 353.6059
235.0356, 356.1510
235.5177, 358.8144
235.9998, 362.1198
236.4819, 366.2169
236.9640, 370.8347
237.4461, 375.8141
237.9283, 381.3543
238.4104, 386.8211
238.8925, 392.0108
239.3746, 396.9689
239.8567, 402.1543
240.3388, 407.4859
240.8210, 413.1776
241.3031, 419.4575
241.7852, 426.6414
242.2673, 433.7308
242.7494, 440.4861
243.2315, 446.9805
243.7137, 453.6789
244.1958, 460.6660
244.6779, 467.8154
245.1600, 474.9694
245.6421, 481.7806
246.1242, 489.3283
246.6064, 497.8323
247.0885, 507.2050
247.5706, 516.8903
248.0527, 526.7947
248.5348, 537.0363
249.0169, 547.6234
249.4990, 558.9194
249.9812, 569.8523
250.4633, 579.9951
250.9454, 589.6733
251.4275, 600.5203
251.9096, 612.7739
252.3917, 625.7268
252.8739, 638.8839
253.3560, 652.4894
253.8381, 665.9323
254.3202, 679.3386
254.8023, 692.5949
255.2844, 705.0711
255.7666, 716.7783
256.2487, 727.6459
256.7308, 737.5914
257.2129, 746.9420
257.6950, 754.6651
258.1772, 760.8652
258.6593, 765.3387
259.1414, 767.6511
259.6235, 767.5730
260.1056, 765.7247
260.5877, 762.4067
261.0699, 757.8189
261.5520, 751.2054
262.0341, 742.2744
262.5162, 731.5096
262.9983, 719.5748
263.4804, 706.3414
263.9626, 692.3879
264.4447, 677.9846
264.9268, 663.0023
265.4089, 647.6454
265.8910, 631.8583
266.3731, 615.6427
266.8553, 598.5027
267.3374, 580.3116
267.8195, 561.8752
268.3016, 543.7333
268.7837, 525.5848
269.2658, 508.1776
269.7480, 491.5715
270.2301, 475.6422
270.7122, 460.5096
271.1943, 446.2701
271.6764, 432.5363
272.1585, 419.3311
272.6407, 406.6384
273.1228, 394.8762
273.6049, 384.0237
274.0870, 374.3198
274.5691, 366.0898
275.0512, 359.5626
275.5334, 353.5778
276.0155, 347.8656
276.4976, 342.4338
276.9797, 337.3984
277.4618, 332.7928
277.9439, 328.4975
278.4260, 324.3846
278.9081, 320.4615
279.3903, 316.8175
279.8724, 313.4720
280.3545, 310.4667
280.8366, 307.8769
281.3187, 305.7403
281.8008, 303.8721
282.2830, 302.1418
282.7651, 300.5512
283.2472, 299.0554
283.7293, 297.5648
284.2114, 296.2159
284.6935, 295.5382
285.1757, 295.5801
285.6578, 295.7708
286.1399, 295.5810
286.6220, 295.0638
287.1041, 294.9868
287.5862, 295.5117
288.0684, 296.4254
288.5505, 297.3990
289.0326, 298.4365
289.5147, 299.2768
289.9968, 299.5225
290.4789, 299.3359
290.9611, 299.7724
291.4432, 301.0891
291.9253, 302.6025
292.4074, 303.1748
292.8895, 302.8810
293.3716, 302.4390
293.8538, 302.0410
294.3359, 301.7729
294.8180, 302.0327
295.3001, 302.9236
295.7822, 303.8987
296.2643, 304.2874
296.7465, 304.1710
297.2286, 303.9302
297.7107, 303.5124
298.1928, 303.1271
298.6749, 303.2374
299.1570, 303.8544
299.6392, 304.7986
300.1213, 306.1021
300.6034, 307.6092
301.0855, 308.8624
301.5676, 309.6503
302.0497, 310.1421
302.5319, 310.4520
303.0140, 310.5996
303.4961, 310.8695
303.9782, 311.6559
304.4603, 312.6892
304.9424, 313.5022
305.4246, 313.7607
305.9067, 313.9683
306.3888, 314.7534
306.8709, 316.0004
307.3530, 317.1793
307.8351, 317.7515
308.3173, 318.1173
308.7994, 318.8055
309.2815, 320.1010
309.7636, 321.3884
310.2457, 322.1100
310.7278, 322.4323
311.2100, 322.7811
311.6921, 323.2490
312.1742, 323.9264
312.6563, 325.0248
313.1384, 326.7659
313.6205, 328.1986
314.1027, 328.6835
314.5848, 328.5062
315.0669, 328.1689
315.5490, 327.6149
316.0311, 327.1629
316.5132, 327.0447
316.9954, 327.2983
317.4775, 327.6410
317.9596, 328.1416
318.4417, 328.5932
318.9238, 328.7668
319.4059, 327.9729
319.8881, 327.4351
320.3702, 327.8161
320.8523, 329.0849
321.3344, 330.1702
321.8165, 330.8985
322.2986, 331.2433
322.7808, 331.1850
323.2629, 330.4823
323.7450, 329.6347
324.2271, 328.6725
324.7092, 327.6321
325.1913, 326.6368
325.6735, 325.9859
326.1556, 325.1924
326.6377, 324.0085
327.1198, 322.2308
327.6019, 320.3442
328.0840, 318.3506
328.5662, 316.2813
329.0483, 314.1555
329.5304, 312.2884
330.0125, 310.0893
330.4946, 307.2518
330.9767, 303.3300
331.4589, 300.0009
331.9410, 297.4225
332.4231, 295.3568
332.9052, 293.5037
333.3873, 292.1051
333.8694, 290.4997
334.3516, 288.3963
334.8337, 285.7083
335.3158, 283.6294
335.7979, 282.3948
336.2800, 281.5124
336.7621, 280.5630
337.2443, 279.5108
337.7264, 278.4514
338.2085, 277.3487
338.6906, 276.2455
339.1727, 275.3576
339.6548, 274.7435
340.1370, 274.2081
340.6191, 273.6308
341.1012, 273.0290
341.5833, 272.3033
342.0654, 271.3476
342.5475, 270.3802
343.0297, 269.9804
343.5118, 270.2147
343.9939, 270.5517
344.4760, 270.7002
344.9581, 270.6776
345.4402, 270.7386
345.9224, 270.8867
346.4045, 271.1216
346.8866, 271.4844
347.3687, 271.9639
347.8508, 272.3969
348.3329, 272.6699
348.8151, 272.8582
349.2972, 273.1948
349.7793, 273.6837
350.2614, 274.2085
350.7435, 274.6944
351.2256, 275.1270
351.7078, 275.4366
352.1899, 275.4558
352.6720, 275.5117
353.1541, 276.1440
353.6362, 277.2847
354.1183, 278.4829
354.6005, 279.2637
355.0826, 279.9611
355.5647, 281.0955
356.0468, 282.8488
356.5289, 284.7976
357.0110, 286.7943
357.4932, 288.7311
357.9753, 290.3576
358.4574, 291.3302
358.9395, 292.0829
359.4216, 292.8859
359.9037, 293.7503
360.3859, 294.8140
360.8680, 296.6783
361.3501, 298.6180
361.8322, 299.7393
362.3143, 299.5105
362.7964, 298.6033
363.2786, 297.1700
363.7607, 295.2441
364.2428, 293.0921
364.7249, 290.5313
365.2070, 287.9614
365.6891, 285.6818
366.1713, 284.4117
366.6534, 282.5888
367.1355, 279.5192
367.6176, 275.6553
368.0997, 272.3047
368.5818, 270.0861
369.0640, 268.0152
369.5461, 265.6385
370.0282, 262.5472
370.5103, 260.1178
370.9924, 258.7191
371.4745, 257.8102
371.9567, 256.6762
372.4388, 255.1761
372.9209, 253.6806
373.4030, 252.2995
373.8851, 251.0323
374.3672, 249.5373
374.8494, 247.6617
375.3315, 245.7368
375.8136, 244.0247
376.2957, 242.4917
376.7778, 241.2065
377.2599, 240.1508
377.7421, 239.3507
378.2242, 239.0688
378.7063, 239.4814
379.1884, 239.6862
379.6705, 238.9304
380.1526, 237.1964
380.6348, 236.2042
381.1169, 236.1486
381.5990, 236.5039
382.0811, 236.5096
382.5632, 236.1912
383.0453, 235.9479
383.5275, 236.0979
384.0096, 236.4192
384.4917, 236.1973
384.9738, 235.4237
385.4559, 234.5100
385.9380, 233.7453
386.4202, 233.1213
386.9023, 232.6204
387.3844, 232.2813
387.8665, 231.9901
388.3486, 231.6001
388.8307, 231.1304
389.3129, 230.6598
389.7950, 230.2172
390.2771, 229.8035
390.7592, 229.4680
391.2413, 229.2552
391.7234, 228.9237
392.2056, 227.9531
392.6877, 226.8208
393.1698, 226.2556
393.6519, 227.1242
394.1340, 228.1417
394.6161, 228.6263
395.0983, 228.5686
395.5804, 228.4353
396.0625, 228.2487
396.5446, 228.1372
397.0267, 228.2078
397.5089, 229.1673
397.9910, 229.4895
398.4731, 228.2578
398.9552, 226.1041
399.4373, 224.9239
399.9194, 225.7353
400.4016, 226.8222
400.8837, 227.5858
401.3658, 227.9309
401.8479, 228.2366
402.3300, 228.3658
402.8121, 228.5401
403.2942, 229.0501
403.7763, 230.0852
404.2585, 231.0993
404.7406, 231.9653
405.2227, 232.7042
405.7048, 233.4858
406.1869, 234.2977
406.6690, 235.1655
407.1512, 236.0832
407.6333, 237.0382
408.1154, 238.1930
408.5975, 239.6529
409.0796, 241.1976
409.5617, 242.4246
410.0439, 243.3258
410.5260, 244.1954
411.0081, 245.1060
411.4902, 246.0798
411.9723, 247.3019
412.4544, 248.8039
412.9366, 250.3452
413.4187, 251.8243
413.9008, 253.1937
414.3829, 254.2542
414.8650, 254.7520
415.3471, 255.1661
415.8293, 256.2702
416.3114, 257.9113
416.7935, 259.3231
417.2756, 259.8849
417.7577, 260.0505
418.2398, 260.2372
418.7220, 260.4840
419.2041, 260.8783
419.6862, 261.8371
420.1683, 262.9223
420.6504, 263.4370
421.1325, 262.8706
421.6147, 261.9436
422.0968, 260.9714
422.5789, 259.9505
423.0610, 258.6908
423.5431, 257.0205
424.0252, 255.1633
424.5074, 253.2298
424.9895, 251.1597
425.4716, 249.1615
425.9537, 247.2846
426.4358, 245.4701
426.9179, 243.5580
427.4001, 241.0711
427.8822, 239.0523
428.3643, 237.9597
428.8464, 237.9835
429.3285, 237.5564
429.8106, 236.4662
430.2928, 235.2097
430.7749, 234.2846
431.2570, 233.7823
431.7391, 233.2626
432.2212, 232.6687
432.7033, 231.9996
433.1855, 231.2698
433.6676, 230.4893
434.1497, 229.5679
434.6318, 228.2910
435.1139, 226.7645
435.5960, 225.6499
436.0782, 224.9963
436.5603, 224.6140
437.0424, 224.3961
437.5245, 224.2806
438.0066, 224.0461
438.4887, 223.4614
438.9709, 222.8327
439.4530, 222.5648
439.9351, 222.6352
440.4172, 222.8836
440.8993, 223.4562
441.3814, 224.0346
441.8636, 224.2166
442.3457, 223.7874
442.8278, 223.3945
443.3099, 223.3854
443.7920, 223.6644
444.2741, 224.0751
444.7563, 224.7719
445.2384, 225.3921
445.7205, 225.7783
446.2026, 225.9242
446.6847, 226.0002
447.1668, 226.0570
447.6490, 226.0407
448.1311, 225.9126
448.6132, 225.2483
449.0953, 225.0402
449.5774, 225.4305
450.0595, 226.2468
450.5417, 227.1655
451.0238, 228.3360
451.5059, 229.3144
451.9880, 229.8459
452.4701, 229.8959
452.9522, 230.4398
453.4344, 231.5938
453.9165, 232.9813
454.3986, 234.3196
454.8807, 235.6158
455.3628, 236.8032
455.8449, 237.8866
456.3271, 238.8538
456.8092, 239.6885
457.2913, 240.3977
457.7734, 240.9785
458.2555, 241.2566
458.7376, 241.4405
459.2198, 242.0302
459.7019, 243.0529
460.1840, 244.2547
460.6661, 245.4440
461.1482, 246.6619
461.6303, 247.9363
462.1125, 249.1587
462.5946, 250.6051
463.0767, 252.5784
463.5588, 254.9561
464.0409, 257.3352
464.5230, 259.5386
465.0052, 261.6624
465.4873, 263.6852
465.9694, 265.5551
466.4515, 267.5737
466.9336, 270.2131
467.4157, 272.8251
467.8979, 274.7982
468.3800, 275.7716
468.8621, 276.4406
469.3442, 276.9910
469.8263, 277.3093
470.3084, 276.9109
470.7906, 275.5568
471.2727, 273.8511
471.7548, 272.0123
472.2369, 270.0275
472.7190, 267.9616
473.2011, 265.7593
473.6833, 263.5242
474.1654, 261.3406
474.6475, 259.2061
475.1296, 257.1852
475.6117, 255.2835
476.0938, 253.5012
476.5760, 251.9024
477.0581, 250.4683
477.5402, 249.0864
478.0223, 247.6982
478.5044, 246.3067
478.9865, 244.8559
479.4687, 243.3205
479.9508, 241.9662
480.4329, 241.2776
480.9150, 240.8768
481.3971, 240.2029
481.8792, 238.9768
482.3614, 237.5300
482.8435, 235.7956
483.3256, 233.9632
483.8077, 232.6433
484.2898, 232.6241
484.7719, 232.7446
485.2541, 232.3564
485.7362, 231.2195
486.2183, 230.3625
486.7004, 230.1612
487.1825, 230.1713
487.6646, 229.9675
488.1468, 229.3338
488.6289, 228.8227
489.1110, 228.4600
489.5931, 228.2614
490.0752, 228.3090
490.5573, 228.6963
491.0395, 229.0991
491.5216, 229.3950
492.0037, 229.5853
492.4858, 229.6802
492.9679, 229.6837
493.4500, 229.5863
493.9322, 229.3294
494.4143, 228.9388
494.8964, 228.5908
495.3785, 228.3104
495.8606, 228.1035
496.3427, 228.0726
496.8249, 228.1485
497.3070, 228.0687
497.7891, 227.3275
498.2712, 226.5579
498.7533, 226.6281
499.2354, 227.5818
499.7176, 228.3266
500.1997, 227.8712
500.6818, 227.0708
501.1639, 226.7442
501.6460, 227.4541
502.1281, 228.1125
502.6103, 228.3957
503.0924, 228.4256
503.5745, 228.4517
504.0566, 228.4960
504.5387, 228.5582
505.0208, 228.6699
505.5030, 228.8398
505.9851, 228.8769
506.4672, 228.7249
506.9493, 228.5162
507.4314, 228.3947
507.9135, 228.4480
508.3957, 228.0996
508.8778, 227.1612
509.3599, 226.0447
509.8420, 225.4021
510.3241, 225.2297
510.8062, 225.4217
511.2884, 226.1387
511.7705, 227.1021
512.2526, 227.5071
512.7347, 227.4093
513.2168, 227.4403
513.6989, 228.3544
514.1810, 229.5710
514.6631, 230.1965
515.1453, 229.9960
515.6274, 229.7547
516.1095, 230.1546
516.5916, 230.8002
517.0737, 231.1626
517.5558, 230.6841
518.0380, 230.2823
518.5201, 230.3776
519.0022, 230.8591
519.4843, 231.1840
519.9664, 231.1887
520.4485, 231.0762
520.9307, 230.8892
521.4128, 230.5628
521.8949, 230.4271
522.3770, 230.5416
522.8591, 230.7792
523.3412, 230.9825
523.8234, 231.0813
524.3055, 231.4794
524.7876, 232.3303
525.2697, 233.4083
525.7518, 234.1788
526.2339, 234.6475
526.7161, 235.0339
527.1982, 235.4106
527.6803, 235.7894
528.1624, 236.2343
528.6445, 236.7459
529.1266, 237.2023
529.6088, 237.4828
530.0909, 237.6627
530.5730, 237.8344
531.0551, 238.0051
531.5372, 238.2052
532.0193, 238.4612
532.5015, 238.7596
532.9836, 239.0759
533.4657, 239.3864
533.9478, 239.7298
534.4299, 240.1250
534.9120, 240.5664
535.3942, 241.0344
535.8763, 241.2728
536.3584, 241.7814
536.8405, 242.8880
537.3226, 244.9020
537.8047, 246.2389
538.2869, 246.6131
538.7690, 246.6992
539.2511, 247.2875
539.7332, 248.4268
540.2153, 249.5116
540.6974, 250.4464
541.1796, 251.2333
541.6617, 251.8537
542.1438, 252.3159
542.6259, 252.7324
543.1080, 253.1150
543.5901, 253.5062
544.0723, 253.8596
544.5544, 254.1943
545.0365, 254.8918
545.5186, 256.5999
546.0007, 258.6180
546.4828, 260.1561
546.9650, 260.8044
547.4471, 261.6285
547.9292, 263.3162
548.4113, 265.3688
548.8934, 267.0979
549.3755, 267.7348
549.8577, 268.7525
550.3398, 270.6325
550.8219, 273.1999
551.3040, 275.4873
551.7861, 277.4895
552.2682, 279.2876
552.7504, 280.9555
553.2325, 282.5154
553.7146, 283.5052
554.1967, 283.6902
554.6788, 284.0134
555.1609, 285.7036
555.6431, 288.5356
556.1252, 290.9790
556.6073, 292.6261
557.0894, 294.1107
557.5715, 296.2171
558.0536, 298.8721
558.5358, 301.8723
559.0179, 305.4631
559.5000, 309.0862
559.9821, 312.0158
560.4642, 314.4017
560.9464, 317.1534
561.4285, 320.8253
561.9106, 324.9027
562.3927, 329.1192
562.8748, 333.6497
563.3569, 337.7613
563.8391, 341.3362
564.3212, 344.4789
564.8033, 347.2840
565.2854, 349.6102
565.7675, 351.8739
566.2496, 354.0991
566.7318, 356.3367
567.2139, 358.7955
567.6960, 361.6227
568.1781, 363.8315
568.6602, 364.7979
569.1423, 364.8743
569.6245, 365.3019
570.1066, 366.0854
570.5887, 366.8732
571.0708, 367.5683
571.5529, 368.0622
572.0350, 368.0993
572.5172, 367.5908
572.9993, 366.9813
573.4814, 366.8169
573.9635, 366.6522
574.4456, 365.9442
574.9277, 364.3464
575.4099, 362.3820
575.8920, 359.9239
576.3741, 357.1803
576.8562, 354.7188
577.3383, 352.7797
577.8204, 350.8761
578.3026, 348.8952
578.7847, 346.8618
579.2668, 344.5826
579.7489, 341.8432
580.2310, 339.3918
580.7131, 337.8856
581.1953, 337.3156
581.6774, 336.5963
582.1595, 335.6160
582.6416, 334.7447
583.1237, 334.5169
583.6058, 334.7680
584.0880, 335.0167
584.5701, 335.0442
585.0522, 335.1533
585.5343, 335.6500
586.0164, 336.4662
586.4985, 337.4261
586.9807, 338.3824
587.4628, 339.5309
587.9449, 341.0171
588.4270, 342.8321
588.9091, 344.6933
589.3912, 346.7948
589.8734, 348.7213
590.3555, 350.1656
590.8376, 350.7344
591.3197, 352.0864
591.8018, 354.3159
592.2839, 357.2051
592.7661, 360.6279
593.2482, 364.6301
593.7303, 368.6675
594.2124, 372.6058
594.6945, 376.6569
595.1766, 381.3460
595.6588, 386.6201
596.1409, 392.2123
596.6230, 398.0342
597.1051, 404.0840
597.5872, 410.7146
598.0693, 417.6407
598.5515, 424.0246
599.0336, 429.0178
599.5157, 433.5627
599.9978, 438.4916
600.4799, 444.0394
600.9620, 448.6942
601.4442, 452.2054
601.9263, 454.6115
602.4084, 456.0299
602.8905, 456.6923
603.3726, 455.9702
