##NAMES=Diaphorite
##RRUFFID=R060173
##IDEAL CHEMISTRY=Ag^1+^_3_Pb^2+^_2_Sb^3+^_3_S^2-^_8_
##LOCALITY=Van Silver mine, Vancouver, British Columbia, Canada
##OWNER=RRUFF
##SOURCE=Ty Balacko
##DESCRIPTION=Steel-gray striated prismatic crystals
##STATUS=The identification of this mineral is confirmed by single-crystal X-ray diffraction and chemical analysis.
##URL=rruff.info/R060173
##MEASURED CHEMISTRY=(Pb_1.90_Ag_0.07_Cu_0.03_)_Î£=2_Ag_3.00_Sb_3.00_S_8.00_
90.26367, 12.55547
90.74579, 12.82609
91.22791, 12.71140
91.71002, 12.25400
92.19214, 11.82753
92.67426, 11.90728
93.15637, 12.27832
93.63850, 12.35617
94.12061, 11.70893
94.60273, 10.70254
95.08485, 10.21022
95.56696, 10.27240
96.04908, 10.60490
96.53120, 11.00119
97.01331, 11.44351
97.49543, 11.70923
97.97755, 11.56458
98.45966, 11.04567
98.94178, 10.87868
99.42390, 11.20231
99.90602, 11.68354
100.3881, 11.60167
100.8703, 10.78516
101.3524, 10.01076
101.8345, 9.723861
102.3166, 10.07180
102.7987, 10.28356
103.2808, 10.28052
103.7630, 10.10482
104.2451, 9.925947
104.7272, 9.688013
105.2093, 9.518671
105.6914, 9.546694
106.1735, 10.10519
106.6557, 10.27323
107.1378, 9.726828
107.6199, 8.425032
108.1020, 7.661384
108.5841, 7.665339
109.0662, 8.084344
109.5484, 8.601522
110.0305, 9.412932
110.5126, 10.13389
110.9947, 10.76411
111.4768, 11.37548
111.9590, 11.58611
112.4411, 11.04706
112.9232, 10.16335
113.4053, 9.472063
113.8874, 9.137776
114.3695, 8.947379
114.8517, 8.852673
115.3338, 8.902817
115.8159, 8.905011
116.2980, 8.684888
116.7801, 8.371333
117.2622, 8.244699
117.7444, 8.509264
118.2265, 8.934443
118.7086, 9.387506
119.1907, 9.932935
119.6728, 10.36780
120.1549, 10.50203
120.6371, 10.40085
121.1192, 10.32856
121.6013, 10.55877
122.0834, 10.85968
122.5655, 10.95671
123.0477, 10.54244
123.5298, 10.08769
124.0119, 9.975188
124.4940, 10.19993
124.9761, 10.69344
125.4582, 11.60863
125.9404, 12.74905
126.4225, 13.72110
126.9046, 14.24367
127.3867, 14.54343
127.8688, 15.00237
128.3509, 15.63605
128.8331, 16.27725
129.3152, 16.71814
129.7973, 16.99514
130.2794, 17.28029
130.7615, 17.64055
131.2436, 18.07041
131.7258, 18.55155
132.2079, 19.08713
132.6900, 19.66275
133.1721, 20.24578
133.6542, 20.83329
134.1364, 21.48063
134.6185, 22.25391
135.1006, 23.15054
135.5827, 23.96673
136.0648, 24.62115
136.5469, 25.26908
137.0291, 26.36930
137.5112, 28.02023
137.9933, 29.68659
138.4754, 31.15823
138.9575, 32.48448
139.4396, 33.18592
139.9218, 33.04074
140.4039, 32.23180
140.8860, 31.60980
141.3681, 31.16129
141.8502, 30.93419
142.3323, 31.01741
142.8145, 31.55100
143.2966, 32.02378
143.7787, 32.27410
144.2608, 32.31353
144.7429, 32.72793
145.2251, 33.78560
145.7072, 34.98304
146.1893, 35.84695
146.6714, 36.23579
147.1535, 36.49599
147.6356, 36.60723
148.1178, 36.50423
148.5999, 36.69336
149.0820, 37.37042
149.5641, 38.25763
150.0462, 39.02234
150.5283, 39.45746
151.0105, 39.96678
151.4926, 40.28424
151.9747, 40.76515
152.4568, 41.25807
152.9389, 41.86054
153.4210, 42.44733
153.9032, 42.85032
154.3853, 42.98621
154.8674, 42.99674
155.3495, 42.91419
155.8316, 42.70551
156.3138, 42.49151
156.7959, 42.24318
157.2780, 42.00314
157.7601, 41.85366
158.2422, 41.89298
158.7243, 41.96263
159.2065, 41.97585
159.6886, 41.84777
160.1707, 41.78673
160.6528, 41.87442
161.1349, 42.07489
161.6170, 42.29521
162.0992, 42.51427
162.5813, 42.73399
163.0634, 42.97746
163.5455, 43.43704
164.0276, 43.66931
164.5097, 43.31933
164.9919, 42.52504
165.4740, 41.82033
165.9561, 41.42716
166.4382, 41.25746
166.9203, 41.23149
167.4025, 41.39824
167.8846, 41.62812
168.3667, 41.83783
168.8488, 42.03579
169.3309, 42.27706
169.8130, 42.77604
170.2952, 43.28864
170.7773, 43.50173
171.2594, 43.05751
171.7415, 42.47137
172.2236, 42.16498
172.7057, 42.12537
173.1879, 42.18044
173.6700, 42.27936
174.1521, 42.37798
174.6342, 42.40300
175.1163, 42.19426
175.5984, 41.96142
176.0806, 42.02345
176.5627, 42.38290
177.0448, 42.70929
177.5269, 42.69697
178.0090, 42.42755
178.4911, 42.09266
178.9733, 41.67717
179.4554, 41.27906
179.9375, 41.07349
180.4196, 41.07535
180.9017, 41.15499
181.3839, 41.20863
181.8660, 41.23610
182.3481, 41.23716
182.8302, 41.13995
183.3123, 41.02318
183.7944, 41.14307
184.2766, 41.55895
184.7587, 41.93977
185.2408, 41.83821
185.7229, 41.31403
186.2050, 40.71826
186.6871, 40.14912
187.1693, 39.63100
187.6514, 39.29220
188.1335, 39.13980
188.6156, 39.13350
189.0977, 39.28826
189.5798, 39.59148
190.0620, 39.82257
190.5441, 39.84903
191.0262, 39.69295
191.5083, 39.46141
191.9904, 39.09662
192.4725, 38.79339
192.9547, 38.99363
193.4368, 39.71688
193.9189, 40.36829
194.4010, 40.59203
194.8831, 40.41290
195.3652, 40.16994
195.8474, 39.82635
196.3295, 39.52296
196.8116, 39.62260
197.2937, 40.16996
197.7758, 40.69167
198.2579, 40.86438
198.7401, 40.67894
199.2222, 40.59464
199.7043, 40.68616
200.1864, 40.84878
200.6685, 40.82087
201.1507, 40.56774
201.6328, 40.28514
202.1149, 40.09532
202.5970, 40.00897
203.0791, 39.88776
203.5612, 39.68413
204.0434, 39.46727
204.5255, 39.46778
205.0076, 39.74912
205.4897, 40.03009
205.9718, 40.16261
206.4539, 40.15078
206.9361, 39.93396
207.4182, 39.38769
207.9003, 38.68801
208.3824, 38.45049
208.8645, 38.83660
209.3466, 39.26270
209.8288, 39.32421
210.3109, 38.89823
210.7930, 38.65274
211.2751, 38.68400
211.7572, 38.92711
212.2393, 39.17845
212.7215, 39.48698
213.2036, 39.69183
213.6857, 39.66282
214.1678, 39.32457
214.6499, 38.99430
215.1321, 38.65925
215.6142, 38.35226
216.0963, 38.24358
216.5784, 38.40625
217.0605, 38.62675
217.5426, 38.78065
218.0248, 38.86805
218.5069, 38.88507
218.9890, 38.82856
219.4711, 38.70117
219.9532, 38.46901
220.4353, 37.96954
220.9175, 37.62784
221.3996, 37.76327
221.8817, 38.60442
222.3638, 39.33541
222.8459, 39.92529
223.3280, 40.35378
223.8102, 40.42638
224.2923, 39.89912
224.7744, 39.39127
225.2565, 39.34945
225.7386, 40.06795
226.2208, 40.52924
226.7029, 40.57261
227.1850, 40.27755
227.6671, 40.05976
228.1492, 39.98535
228.6313, 39.89433
229.1135, 39.65831
229.5956, 39.11124
230.0777, 38.80101
230.5598, 38.87160
231.0419, 39.22491
231.5240, 39.36663
232.0062, 39.19118
232.4883, 38.94939
232.9704, 38.78381
233.4525, 38.70315
233.9346, 38.67852
234.4167, 38.69908
234.8989, 38.77317
235.3810, 38.95634
235.8631, 39.35000
236.3452, 39.72180
236.8273, 39.93306
237.3095, 39.90020
237.7916, 39.88935
238.2737, 39.94311
238.7558, 40.03096
239.2379, 40.02021
239.7200, 39.85636
240.2022, 39.66664
240.6843, 39.50858
241.1664, 39.35823
241.6485, 39.29626
242.1306, 39.35830
242.6127, 39.51149
243.0949, 39.62722
243.5770, 39.68517
244.0591, 39.73595
244.5412, 39.80162
245.0233, 39.87488
245.5054, 39.99755
245.9876, 40.27287
246.4697, 40.58535
246.9518, 40.52384
247.4339, 39.79313
247.9160, 39.12781
248.3981, 38.91332
248.8803, 39.37449
249.3624, 39.74834
249.8445, 40.02826
250.3266, 40.20972
250.8087, 40.24949
251.2909, 40.00817
251.7730, 39.84775
252.2551, 39.96340
252.7372, 40.52143
253.2193, 40.93114
253.7014, 41.17787
254.1836, 41.27999
254.6657, 41.27140
255.1478, 41.13935
255.6299, 40.91673
256.1120, 40.54166
256.5941, 39.82740
257.0763, 39.60935
257.5584, 40.10514
258.0405, 40.95852
258.5226, 41.45592
259.0047, 41.51687
259.4868, 41.39592
259.9690, 41.13488
260.4511, 40.66168
260.9332, 40.37842
261.4153, 40.29855
261.8974, 40.39308
262.3795, 40.65108
262.8617, 41.17363
263.3438, 41.62029
263.8259, 41.86000
264.3080, 41.85781
264.7901, 41.89968
265.2722, 42.03364
265.7544, 42.15452
266.2365, 42.05182
266.7186, 41.59673
267.2007, 41.32049
267.6829, 41.47031
268.1650, 42.08743
268.6471, 42.40687
269.1292, 42.34961
269.6113, 42.12975
270.0934, 42.00450
270.5756, 41.98975
271.0577, 42.00622
271.5398, 42.04226
272.0219, 42.09706
272.5040, 42.11752
272.9861, 42.08076
273.4683, 42.05811
273.9504, 42.12404
274.4325, 42.28448
274.9146, 42.51026
275.3967, 42.84304
275.8788, 43.25161
276.3610, 43.40070
276.8431, 43.19735
277.3252, 43.01267
277.8073, 43.28431
278.2894, 44.07014
278.7715, 44.63294
279.2537, 44.76624
279.7358, 44.58226
280.2179, 44.57841
280.7000, 44.79608
281.1821, 45.00974
281.6642, 44.97378
282.1464, 44.68589
282.6285, 44.59017
283.1106, 44.82334
283.5927, 45.23953
284.0748, 45.39883
284.5569, 45.26975
285.0391, 45.16996
285.5212, 45.35637
286.0033, 45.80398
286.4854, 46.25195
286.9675, 46.71442
287.4496, 47.08867
287.9318, 47.08150
288.4139, 46.68601
288.8960, 46.31823
289.3781, 46.21976
289.8602, 46.35891
290.3424, 46.60881
290.8245, 46.99694
291.3066, 47.39713
291.7887, 47.59228
292.2708, 47.59943
292.7530, 47.56208
293.2351, 47.47544
293.7172, 47.39934
294.1993, 47.56714
294.6814, 48.02787
295.1635, 48.55198
295.6457, 48.86743
296.1278, 48.99953
296.6099, 49.04843
297.0920, 49.07125
297.5741, 49.03916
298.0562, 48.82986
298.5384, 48.42608
299.0205, 48.07171
299.5026, 48.08257
299.9847, 48.34426
300.4668, 48.55497
300.9489, 48.60553
301.4311, 48.53115
301.9132, 48.31203
302.3953, 47.95464
302.8774, 47.66180
303.3595, 47.77030
303.8416, 48.03101
304.3238, 47.98507
304.8059, 47.26268
305.2880, 46.39399
305.7701, 45.94838
306.2522, 45.87036
306.7343, 45.84943
307.2165, 45.66010
307.6986, 45.41303
308.1807, 45.26915
308.6628, 45.36963
309.1449, 45.41145
309.6270, 45.12438
310.1092, 44.57410
310.5913, 43.98089
311.0734, 43.36800
311.5555, 42.81518
312.0376, 42.41436
312.5197, 42.21822
313.0019, 42.07311
313.4840, 41.92692
313.9661, 41.76570
314.4482, 41.56030
314.9304, 41.28334
315.4125, 40.96949
315.8946, 40.62131
316.3767, 40.21934
316.8588, 39.88043
317.3409, 39.72365
317.8231, 39.63718
318.3052, 39.47427
318.7873, 39.03143
319.2694, 38.64016
319.7515, 38.46503
320.2336, 38.52922
320.7158, 38.59310
321.1979, 38.63094
321.6800, 38.61937
322.1621, 38.53677
322.6442, 38.38668
323.1263, 38.15666
323.6085, 37.73306
324.0906, 37.14402
324.5727, 36.80784
325.0548, 37.06652
325.5369, 37.41871
326.0190, 37.56132
326.5012, 37.37550
326.9833, 37.09057
327.4654, 36.65341
327.9475, 36.11127
328.4296, 35.65613
328.9117, 35.17176
329.3939, 34.87907
329.8760, 34.91466
330.3581, 35.74107
330.8402, 36.02164
331.3223, 35.38412
331.8044, 34.30438
332.2866, 33.78904
332.7687, 34.33430
333.2508, 34.71843
333.7329, 34.48172
334.2150, 33.43192
334.6971, 32.67379
335.1793, 32.23079
335.6614, 32.04778
336.1435, 32.12000
336.6256, 32.60973
337.1077, 32.92033
337.5899, 32.84022
338.0720, 32.39585
338.5541, 32.13605
339.0362, 32.11504
339.5183, 32.15468
340.0005, 32.07476
340.4826, 31.84784
340.9647, 31.71219
341.4468, 31.76885
341.9289, 31.91275
342.4110, 31.75483
342.8932, 31.25631
343.3753, 30.71651
343.8574, 30.28604
344.3395, 29.96783
344.8216, 29.93276
345.3037, 30.29352
345.7859, 30.74929
346.2680, 30.70692
346.7501, 30.19573
347.2322, 29.70510
347.7143, 29.51958
348.1964, 29.55879
348.6786, 29.56142
349.1607, 29.51315
349.6428, 29.45532
350.1249, 29.51381
350.6070, 29.61755
351.0891, 29.53454
351.5713, 28.95301
352.0534, 28.23776
352.5355, 27.95930
353.0176, 28.11006
353.4997, 28.37342
353.9818, 28.58145
354.4640, 28.72332
354.9461, 28.78018
355.4282, 28.72141
355.9103, 28.60710
356.3924, 28.41692
356.8745, 28.19182
357.3567, 28.09641
357.8388, 28.34910
358.3209, 28.69986
358.8030, 28.94205
359.2851, 29.03226
359.7672, 29.02122
360.2494, 28.79018
360.7315, 28.48745
361.2136, 28.38896
361.6957, 28.95251
362.1779, 29.45568
362.6600, 29.44373
363.1421, 28.80024
363.6242, 28.29341
364.1063, 28.30567
364.5884, 28.50479
365.0706, 28.55083
365.5527, 28.10240
366.0348, 27.77926
366.5169, 27.85135
366.9990, 28.28317
367.4811, 28.44217
367.9633, 27.89048
368.4454, 27.30896
368.9275, 27.09276
369.4096, 27.59940
369.8917, 27.98388
370.3738, 28.23253
370.8560, 28.35076
371.3381, 28.33809
371.8202, 28.07441
372.3023, 27.84303
372.7844, 27.76987
373.2665, 27.91096
373.7487, 27.98137
374.2308, 27.96453
374.7129, 27.89396
375.1950, 27.80985
375.6771, 27.70792
376.1592, 27.60653
376.6414, 27.51371
377.1235, 27.42715
377.6056, 27.29456
378.0877, 27.08302
378.5698, 26.92973
379.0519, 27.02697
379.5341, 27.37669
380.0162, 27.53931
380.4983, 27.39231
380.9804, 27.07405
381.4625, 26.87322
381.9446, 26.78634
382.4268, 26.80150
382.9089, 26.97509
383.3910, 27.24936
383.8731, 27.45060
384.3553, 27.56639
384.8374, 27.59681
385.3195, 27.49605
385.8016, 27.30263
386.2837, 27.12821
386.7658, 27.02707
387.2480, 26.97166
387.7301, 26.91746
388.2122, 26.86667
388.6943, 26.86176
389.1764, 27.00838
389.6585, 27.19520
390.1407, 27.26851
390.6228, 27.10689
391.1049, 26.93470
391.5870, 26.92928
392.0691, 27.03909
392.5512, 27.10885
393.0334, 27.07481
393.5155, 26.97286
393.9976, 26.78270
394.4797, 26.43097
394.9618, 26.24005
395.4439, 26.49488
395.9261, 26.91869
396.4082, 27.14268
396.8903, 26.95152
397.3724, 26.69137
397.8545, 26.38492
398.3366, 26.02673
398.8188, 25.87943
399.3009, 26.22180
399.7830, 26.60761
400.2651, 26.73822
400.7472, 26.18064
401.2293, 26.03907
401.7115, 26.17135
402.1936, 26.63330
402.6757, 26.87180
403.1578, 26.89884
403.6399, 26.08114
404.1220, 26.35426
404.6042, 26.19022
405.0863, 26.00826
405.5684, 26.43490
406.0505, 25.74006
406.5326, 26.15706
407.0147, 26.13023
407.4969, 26.30651
407.9790, 26.04296
408.4611, 25.82626
408.9432, 25.62603
409.4254, 26.10380
409.9075, 26.35812
410.3896, 26.40099
410.8717, 25.59912
411.3538, 25.88806
411.8359, 25.73985
412.3181, 25.57370
412.8002, 26.01617
413.2823, 25.33716
413.7644, 25.76998
414.2465, 25.75898
414.7286, 25.95110
415.2108, 25.40454
415.6929, 25.93910
416.1750, 26.25020
416.6571, 26.34986
417.1392, 25.60477
417.6213, 25.95050
418.1035, 25.85908
418.5856, 25.74973
419.0677, 25.45371
419.5498, 25.91510
420.0319, 26.15304
420.5140, 26.17953
420.9962, 25.36126
421.4783, 25.63382
421.9604, 25.46924
422.4425, 25.28672
422.9246, 25.71281
423.4067, 25.01742
423.8889, 25.43385
424.3710, 25.40647
424.8531, 25.88163
425.3352, 26.08970
425.8173, 25.91620
426.2994, 25.70685
426.7816, 25.38187
427.2637, 25.10390
427.7458, 24.99238
428.2279, 25.13095
428.7100, 25.22844
429.1921, 25.24981
429.6743, 25.23039
430.1564, 25.25770
430.6385, 25.34628
431.1206, 25.42632
431.6028, 25.48215
432.0849, 25.51229
432.5670, 25.43244
433.0491, 25.20719
433.5312, 25.01727
434.0133, 25.17558
434.4955, 25.60325
434.9776, 25.71997
435.4597, 25.23103
435.9418, 24.55088
436.4239, 24.49517
436.9060, 24.97779
437.3882, 25.44267
437.8703, 25.51570
438.3524, 25.36123
438.8345, 25.18467
439.3166, 24.99654
439.7987, 24.86178
440.2809, 24.83650
440.7630, 24.89747
441.2451, 25.00852
441.7272, 25.29873
442.2093, 25.50726
442.6914, 25.41512
443.1736, 25.07327
443.6557, 24.82545
444.1378, 24.86161
444.6199, 24.98792
445.1020, 25.08172
445.5841, 25.08920
446.0663, 25.13462
446.5484, 25.34559
447.0305, 25.58225
447.5126, 25.60077
447.9947, 25.02682
448.4768, 24.69444
448.9590, 24.57101
449.4411, 25.03701
449.9232, 25.27956
450.4053, 25.31066
450.8874, 24.49701
451.3695, 24.38415
451.8517, 24.86608
452.3338, 25.12457
452.8159, 25.17161
453.2980, 24.37390
453.7801, 24.66701
454.2622, 24.52296
454.7444, 24.36099
455.2265, 24.48701
455.7086, 24.44561
456.1907, 24.45488
456.6729, 24.51792
457.1550, 24.59605
457.6371, 24.63429
458.1192, 24.66108
458.6013, 24.77565
459.0834, 25.08508
459.5656, 25.33442
460.0477, 25.15903
460.5298, 24.67719
461.0119, 24.24907
461.4940, 23.96955
461.9761, 23.87141
462.4583, 24.06399
462.9404, 24.58255
463.4225, 25.00187
463.9046, 25.14385
464.3867, 25.08814
464.8688, 24.90738
465.3510, 24.41999
465.8331, 24.03297
466.3152, 23.85095
466.7973, 23.83936
467.2794, 23.87411
467.7615, 24.07481
468.2437, 24.19331
468.7258, 24.09256
469.2079, 23.66828
469.6900, 23.53144
470.1721, 23.84148
470.6542, 24.26603
471.1364, 24.44820
471.6185, 24.33139
472.1006, 24.18474
472.5827, 24.02081
473.0648, 23.87843
473.5469, 23.93003
474.0291, 24.19765
474.5112, 24.40082
474.9933, 24.32306
475.4754, 24.03421
475.9575, 23.84661
476.4396, 23.78141
476.9218, 23.73843
477.4039, 23.51899
477.8860, 23.24079
478.3681, 23.20325
478.8503, 23.65998
479.3324, 24.19947
479.8145, 24.41940
480.2966, 24.37645
480.7787, 24.27565
481.2608, 24.25148
481.7430, 24.18920
482.2251, 23.92816
482.7072, 23.37476
483.1893, 23.07598
483.6714, 23.52237
484.1535, 24.18403
484.6357, 24.52654
485.1178, 24.13870
485.5999, 23.80443
486.0820, 23.61359
486.5641, 23.56104
487.0462, 23.65194
487.5284, 24.08728
488.0105, 24.39520
488.4926, 24.34045
488.9747, 23.83728
489.4568, 23.53689
489.9389, 23.48897
490.4211, 23.55891
490.9032, 23.63143
491.3853, 23.71202
491.8674, 23.69151
492.3495, 23.49683
492.8316, 23.24900
493.3138, 23.25110
493.7959, 23.48157
494.2780, 23.70229
494.7601, 23.70989
495.2422, 23.62813
495.7243, 23.77288
496.2065, 24.17349
496.6886, 24.42609
497.1707, 24.01189
497.6528, 23.31412
498.1349, 22.86206
498.6170, 22.90077
499.0992, 23.07192
499.5813, 23.22726
500.0634, 23.36795
500.5455, 23.49872
501.0276, 23.75841
501.5097, 23.88570
501.9919, 23.67012
502.4740, 23.00889
502.9561, 22.66550
503.4382, 22.99684
503.9203, 23.44689
504.4025, 23.64252
504.8846, 23.49705
505.3667, 23.25511
505.8488, 22.84332
506.3309, 22.39819
506.8130, 22.24175
507.2952, 22.42710
507.7773, 22.66741
508.2594, 22.89150
508.7415, 23.08491
509.2236, 23.14051
509.7057, 23.04695
510.1879, 22.96063
510.6700, 23.05984
511.1521, 23.27202
511.6342, 23.36499
512.1163, 23.27609
512.5984, 23.15714
513.0806, 23.20848
513.5627, 23.34711
514.0448, 23.39956
514.5269, 23.23307
515.0090, 23.00119
515.4911, 22.72485
515.9733, 22.43583
516.4554, 22.33455
516.9375, 22.67681
517.4196, 23.09678
517.9017, 23.38772
518.3839, 23.51291
518.8660, 23.53797
519.3481, 23.42110
519.8302, 23.22786
520.3123, 23.02485
520.7944, 22.79953
521.2766, 22.57342
521.7587, 22.28016
522.2408, 21.99826
522.7229, 22.08385
523.2050, 22.63604
523.6871, 23.19042
524.1693, 23.52729
524.6514, 23.65059
525.1335, 23.65781
525.6156, 23.54111
526.0977, 23.35854
526.5798, 23.14743
527.0620, 22.91423
527.5441, 22.67033
528.0262, 22.39056
528.5083, 22.15815
528.9904, 22.03905
529.4725, 22.03744
529.9547, 22.16772
530.4368, 22.68477
530.9189, 23.13835
531.4010, 23.13328
531.8831, 22.67015
532.3652, 22.35215
532.8474, 22.53712
533.3295, 22.81561
533.8116, 22.92443
534.2937, 22.69912
534.7758, 22.53402
535.2579, 22.49589
535.7401, 22.49484
536.2222, 22.37705
536.7043, 22.01281
537.1865, 21.84237
537.6686, 22.01678
538.1507, 22.45064
538.6328, 22.75038
539.1149, 22.91081
539.5970, 22.98830
540.0792, 22.96505
540.5613, 22.87567
541.0434, 22.89494
541.5255, 23.03564
542.0076, 23.21879
542.4897, 23.46501
542.9719, 23.68592
543.4540, 23.68385
543.9361, 23.29847
544.4182, 22.86271
544.9003, 22.64261
545.3824, 22.57168
545.8646, 22.50238
546.3467, 22.26694
546.8288, 22.11619
547.3109, 22.33130
547.7930, 22.92785
548.2751, 23.05689
548.7573, 21.76592
549.2394, 22.34565
549.7215, 22.70194
550.2036, 22.84678
550.6857, 22.14688
551.1678, 22.53778
551.6500, 22.56257
552.1321, 22.43522
552.6142, 21.77082
553.0963, 21.45800
553.5784, 21.81491
554.0605, 22.55834
554.5427, 22.98279
555.0248, 23.09691
555.5069, 23.05226
555.9890, 22.85912
556.4711, 22.59288
556.9532, 22.38303
557.4354, 22.23459
557.9175, 22.11925
558.3996, 21.90292
558.8817, 21.75935
559.3638, 21.93563
559.8459, 22.73755
560.3281, 23.35052
560.8102, 23.31599
561.2923, 22.91114
561.7744, 22.56995
562.2565, 22.25504
562.7386, 22.14722
563.2208, 22.41902
563.7029, 22.98261
564.1850, 23.21651
564.6671, 22.97667
565.1492, 22.65988
565.6313, 22.45587
566.1135, 22.37662
566.5956, 22.24432
567.0777, 22.02763
567.5598, 21.87186
568.0419, 21.96172
568.5240, 22.25739
569.0062, 22.59736
569.4883, 23.01009
569.9704, 23.30058
570.4525, 23.09015
570.9346, 22.54484
571.4167, 22.10362
571.8989, 22.03153
572.3810, 22.07220
572.8631, 22.02883
573.3452, 21.92381
573.8273, 21.92207
574.3094, 22.25546
574.7916, 22.57591
575.2737, 22.68070
575.7558, 22.47564
576.2379, 22.29463
576.7200, 22.15509
577.2021, 22.03652
577.6843, 21.90393
578.1664, 21.70983
578.6485, 21.65767
579.1306, 21.80627
579.6127, 22.06445
580.0948, 22.30161
580.5770, 22.51771
581.0591, 22.56248
581.5412, 22.24637
582.0233, 21.79138
582.5054, 21.74508
582.9875, 22.05941
583.4697, 22.36663
583.9518, 22.39570
584.4340, 22.29725
584.9161, 22.23037
585.3982, 22.21651
