##NAMES=Diaspore
##RRUFFID=R060546
##IDEAL CHEMISTRY=AlO(OH)
##LOCALITY=Turkey
##OWNER=RRUFF
##SOURCE=Gemological Institute of America
##DESCRIPTION=Platy transparent pale yellow fragment
##STATUS=The identification of this mineral has been confirmed by X-ray diffraction and chemical analysis
##URL=rruff.info/R060546
##MEASURED CHEMISTRY=(Al_0.99_Fe^3+^_0.01_)_Î£=1_O(OH) ; OH estimated by difference; Fe^3+^ by charge balance
91.11523, 22.90988
91.59735, 22.99198
92.07947, 22.94057
92.56158, 22.78884
93.04370, 22.64064
93.52582, 22.56241
94.00793, 22.52925
94.49006, 22.49209
94.97218, 22.44762
95.45429, 22.39387
95.93641, 22.33064
96.41853, 22.25769
96.90064, 22.16460
97.38276, 21.98698
97.86488, 21.74440
98.34699, 21.68231
98.82911, 21.92064
99.31123, 22.32396
99.79334, 22.39981
100.2755, 22.07987
100.7576, 21.66687
101.2397, 21.39212
101.7218, 21.24213
102.2039, 21.30871
102.6861, 21.73218
103.1682, 22.50810
103.6503, 22.80628
104.1324, 22.45820
104.6145, 21.82246
105.0966, 21.30423
105.5788, 20.91250
106.0609, 20.63309
106.5430, 20.49261
107.0251, 20.55392
107.5072, 20.51837
107.9893, 20.26343
108.4715, 19.94168
108.9536, 19.82795
109.4357, 20.18923
109.9178, 20.51946
110.3999, 20.64168
110.8820, 20.29794
111.3642, 20.16884
111.8463, 20.40327
112.3284, 20.88446
112.8105, 21.28826
113.2926, 21.56113
113.7747, 21.76085
114.2569, 21.91250
114.7390, 21.95264
115.2211, 22.02479
115.7032, 22.16498
116.1853, 22.36603
116.6674, 22.59058
117.1496, 22.82642
117.6317, 23.08369
118.1138, 23.36837
118.5959, 23.64210
119.0780, 23.97998
119.5602, 24.36508
120.0423, 24.80859
120.5244, 25.45368
121.0065, 26.51938
121.4886, 27.80592
121.9707, 29.05505
122.4529, 30.25547
122.9350, 31.30516
123.4171, 32.05544
123.8992, 32.48189
124.3813, 32.84540
124.8634, 33.31852
125.3456, 33.88685
125.8277, 34.52047
126.3098, 35.25927
126.7919, 36.03306
127.2740, 36.70932
127.7561, 37.25322
128.2383, 37.79815
128.7204, 38.47096
129.2025, 39.27169
129.6846, 40.20037
130.1667, 41.16947
130.6488, 42.24641
131.1310, 43.75219
131.6131, 45.81605
132.0952, 48.15524
132.5773, 50.02711
133.0594, 51.42389
133.5415, 53.36060
134.0237, 56.54748
134.5058, 60.97656
134.9879, 66.23942
135.4700, 72.51045
135.9521, 79.46230
136.4343, 86.49809
136.9164, 93.79997
137.3985, 100.5190
137.8806, 105.9835
138.3627, 110.1390
138.8448, 113.5897
139.3270, 116.4173
139.8091, 118.6648
140.2912, 120.5112
140.7733, 121.7168
141.2554, 122.9734
141.7375, 124.9565
142.2197, 127.7812
142.7018, 131.0971
143.1839, 134.9035
143.6660, 139.2088
144.1481, 143.5587
144.6302, 147.6146
145.1124, 151.9723
145.5945, 157.2147
146.0766, 163.1190
146.5587, 170.3356
147.0408, 178.8537
147.5230, 188.3051
148.0051, 200.1234
148.4872, 211.4757
148.9693, 224.3517
149.4514, 243.6177
149.9335, 270.8383
150.4157, 302.4729
150.8978, 336.9353
151.3799, 374.7213
151.8620, 415.2554
152.3441, 462.7782
152.8262, 512.8896
153.3084, 556.2180
153.7905, 620.9556
154.2726, 656.0460
154.7547, 640.9067
155.2368, 544.3887
155.7189, 449.1894
156.2011, 357.2529
156.6832, 272.0422
157.1653, 205.1126
157.6474, 165.3421
158.1295, 138.9071
158.6116, 119.1583
159.0938, 107.4828
159.5759, 98.64034
160.0580, 91.95411
160.5401, 87.16774
161.0222, 83.46247
161.5044, 81.18761
161.9865, 79.51683
162.4686, 77.88669
162.9507, 75.98446
163.4328, 74.29175
163.9149, 73.03724
164.3971, 72.15477
164.8792, 71.38924
165.3613, 70.68517
165.8434, 70.01259
166.3255, 69.33825
166.8076, 68.44959
167.2898, 67.74122
167.7719, 67.50935
168.2540, 67.71030
168.7361, 67.97060
169.2182, 68.18049
169.7003, 68.29607
170.1825, 68.26444
170.6646, 67.99616
171.1467, 67.62212
171.6288, 67.19571
172.1109, 66.72388
172.5931, 66.30796
173.0752, 66.02106
173.5573, 65.83746
174.0394, 65.71603
174.5215, 65.69838
175.0036, 65.70464
175.4858, 65.60678
175.9679, 65.39822
176.4500, 65.25472
176.9321, 65.31910
177.4142, 65.56014
177.8963, 65.90384
178.3785, 66.50693
178.8606, 67.13904
179.3427, 67.33446
179.8248, 67.05308
180.3069, 66.75193
180.7890, 66.84457
181.2712, 67.29176
181.7533, 67.97960
182.2354, 68.92361
182.7175, 70.06091
183.1996, 71.23519
183.6818, 72.45498
184.1639, 73.71643
184.6460, 75.48265
185.1281, 77.51574
185.6102, 78.63232
186.0923, 77.89770
186.5745, 75.75064
187.0566, 73.50520
187.5387, 71.13587
188.0208, 68.86333
188.5029, 66.86555
188.9850, 65.15183
189.4672, 63.72908
189.9493, 62.62677
190.4314, 61.82673
190.9135, 61.19350
191.3956, 60.73347
191.8777, 60.41756
192.3599, 60.24302
192.8420, 60.21146
193.3241, 60.14663
193.8062, 59.92048
194.2883, 59.54960
194.7704, 59.26114
195.2526, 59.08336
195.7347, 58.95648
196.2168, 58.73476
196.6989, 58.40131
197.1810, 58.16220
197.6632, 58.16734
198.1453, 58.41529
198.6274, 58.66136
199.1095, 58.94551
199.5916, 59.14946
200.0737, 58.93404
200.5559, 58.22526
201.0380, 57.57235
201.5201, 57.34617
202.0022, 57.58785
202.4843, 57.62777
202.9664, 57.35613
203.4486, 56.94019
203.9307, 56.79206
204.4128, 56.97234
204.8949, 57.18195
205.3770, 57.21683
205.8591, 57.02835
206.3413, 57.05725
206.8234, 57.44569
207.3055, 57.97447
207.7876, 58.00755
208.2697, 57.38023
208.7519, 56.74678
209.2340, 56.45985
209.7161, 56.57648
210.1982, 56.76527
210.6803, 57.06200
211.1624, 57.38971
211.6446, 57.53450
212.1267, 57.47028
212.6088, 57.28706
213.0909, 56.98088
213.5730, 56.47112
214.0551, 56.15948
214.5373, 56.09877
215.0194, 56.23599
215.5015, 56.44147
215.9836, 56.76711
216.4657, 57.05846
216.9478, 57.27279
217.4300, 57.46741
217.9121, 57.35964
218.3942, 56.77137
218.8763, 55.92995
219.3584, 55.55087
219.8405, 55.85081
220.3227, 56.21623
220.8048, 56.32362
221.2869, 56.05676
221.7690, 55.86184
222.2511, 55.75310
222.7333, 55.72569
223.2154, 55.78458
223.6975, 55.99329
224.1796, 56.18387
224.6617, 56.28101
225.1438, 56.28229
225.6260, 56.19771
226.1081, 56.00741
226.5902, 55.73877
227.0723, 55.46070
227.5544, 55.12169
228.0365, 54.85167
228.5187, 54.70598
229.0008, 54.68429
229.4829, 54.80793
229.9650, 55.20761
230.4471, 55.71461
230.9292, 55.83591
231.4114, 55.24916
231.8935, 54.76803
232.3756, 54.81528
232.8577, 55.78531
233.3398, 56.32912
233.8220, 56.28563
234.3041, 55.86811
234.7862, 55.59398
235.2683, 55.50374
235.7504, 55.49554
236.2325, 55.55543
236.7147, 55.77319
237.1968, 55.81113
237.6789, 55.54279
238.1610, 55.14785
238.6431, 55.05245
239.1252, 55.49689
239.6074, 55.87107
240.0895, 55.89599
240.5716, 55.36226
241.0537, 55.09254
241.5358, 55.17484
242.0179, 55.47806
242.5001, 55.77185
242.9822, 56.14417
243.4643, 56.35823
243.9464, 56.26858
244.4285, 55.69393
244.9106, 55.42408
245.3928, 55.59399
245.8749, 55.98267
246.3570, 56.19731
246.8391, 56.12642
247.3212, 56.06997
247.8034, 56.12620
248.2855, 56.31784
248.7676, 56.53536
249.2497, 56.80673
249.7318, 57.08647
250.2139, 57.31460
250.6961, 57.52010
251.1782, 57.61869
251.6603, 57.53054
252.1424, 57.18321
252.6245, 57.09314
253.1066, 57.31963
253.5888, 57.74901
254.0709, 58.25050
254.5530, 58.85134
255.0351, 59.47778
255.5172, 60.15631
255.9993, 60.92106
256.4815, 61.38081
256.9636, 61.37786
257.4457, 61.23301
257.9278, 61.35209
258.4099, 61.92889
258.8921, 62.33002
259.3742, 62.42765
259.8563, 62.22110
260.3384, 61.71865
260.8205, 60.76916
261.3026, 59.73259
261.7848, 58.94988
262.2669, 58.47192
262.7490, 58.13508
263.2311, 57.96053
263.7132, 57.93153
264.1953, 57.76970
264.6775, 57.39882
265.1596, 57.01990
265.6417, 56.79467
266.1238, 56.72360
266.6059, 56.81816
267.0880, 57.14649
267.5702, 57.65873
268.0523, 57.98927
268.5344, 58.11014
269.0165, 58.11366
269.4986, 58.03127
269.9807, 57.81484
270.4629, 57.74314
270.9450, 57.92207
271.4271, 58.25563
271.9092, 58.29740
272.3913, 57.93154
272.8734, 57.60192
273.3556, 57.65035
273.8377, 58.14274
274.3198, 58.55340
274.8019, 58.82087
275.2840, 58.98920
275.7661, 59.21120
276.2483, 59.52248
276.7304, 59.73750
277.2125, 59.69201
277.6946, 59.36227
278.1768, 59.12677
278.6589, 59.00885
279.1410, 58.99567
279.6231, 59.07261
280.1052, 59.24681
280.5873, 59.47161
281.0695, 59.73345
281.5516, 60.03307
282.0337, 60.34484
282.5158, 60.68662
282.9979, 61.00114
283.4800, 61.17250
283.9622, 61.19366
284.4443, 61.21284
284.9264, 61.32651
285.4085, 61.51242
285.8906, 61.53563
286.3727, 61.34614
286.8549, 61.17051
287.3370, 61.36124
287.8191, 61.89933
288.3012, 62.40275
288.7833, 62.77327
289.2654, 62.99628
289.7476, 62.94955
290.2297, 62.60164
290.7118, 62.23327
291.1939, 62.15209
291.6760, 62.32361
292.1581, 62.53823
292.6403, 62.76518
293.1224, 62.97752
293.6045, 63.12499
294.0866, 63.20695
294.5687, 63.21820
295.0508, 63.08504
295.5330, 62.86258
296.0151, 62.73936
296.4972, 62.75217
296.9793, 62.89296
297.4614, 63.21661
297.9435, 63.70031
298.4257, 64.13528
298.9078, 64.36207
299.3899, 64.42869
299.8720, 64.38099
300.3541, 64.13535
300.8362, 63.98152
301.3184, 64.39192
301.8005, 65.25191
302.2826, 66.07164
302.7647, 66.44059
303.2469, 66.62884
303.7290, 67.07159
304.2111, 67.86250
304.6932, 68.72847
305.1753, 69.34142
305.6574, 69.80984
306.1396, 70.36697
306.6217, 71.14500
307.1038, 72.06909
307.5859, 73.05633
308.0680, 74.10628
308.5501, 75.25764
309.0323, 76.35933
309.5144, 77.61059
309.9965, 79.32059
310.4786, 81.47433
310.9607, 84.25688
311.4428, 87.73294
311.9250, 91.89405
312.4071, 96.98999
312.8892, 103.0508
313.3713, 110.0475
313.8534, 118.0257
314.3355, 127.6642
314.8177, 137.6031
315.2998, 147.5283
315.7819, 157.2794
316.2640, 166.2836
316.7461, 173.8787
317.2282, 180.7375
317.7104, 187.4201
318.1925, 193.8585
318.6746, 200.4059
319.1567, 206.9942
319.6388, 213.7884
320.1209, 221.0583
320.6031, 228.2807
321.0852, 236.4509
321.5673, 246.0286
322.0494, 256.8134
322.5315, 269.6076
323.0136, 284.1307
323.4958, 300.8361
323.9779, 320.4622
324.4600, 342.4898
324.9421, 368.1512
325.4242, 397.7589
325.9064, 431.6933
326.3885, 468.5201
326.8706, 510.2560
327.3527, 553.8938
327.8348, 596.7978
328.3170, 639.2114
328.7991, 680.7711
329.2812, 723.7639
329.7633, 768.7282
330.2454, 802.5286
330.7275, 833.3635
331.2097, 846.1263
331.6918, 829.3369
332.1739, 771.6975
332.6560, 701.2286
333.1381, 614.6591
333.6202, 516.6161
334.1024, 432.0524
334.5845, 362.8812
335.0666, 305.7007
335.5487, 259.5949
336.0308, 227.0596
336.5129, 199.8565
336.9951, 178.3892
337.4772, 161.8486
337.9593, 147.9343
338.4414, 136.8687
338.9235, 127.7233
339.4056, 120.2585
339.8878, 114.6186
340.3699, 109.5442
340.8520, 105.0213
341.3341, 101.0587
341.8162, 97.53369
342.2983, 94.47604
342.7805, 91.84520
343.2626, 89.75248
343.7447, 88.09042
344.2268, 86.41049
344.7089, 84.68286
345.1910, 83.00404
345.6732, 81.40550
346.1553, 79.89258
346.6374, 78.74491
347.1195, 78.12434
347.6016, 77.75337
348.0837, 77.01128
348.5659, 75.91650
349.0480, 74.87228
349.5301, 74.20481
350.0122, 73.80012
350.4944, 73.38522
350.9765, 72.91317
351.4586, 72.47865
351.9407, 72.27098
352.4228, 72.22160
352.9049, 72.10123
353.3871, 71.64413
353.8692, 71.11289
354.3513, 70.92696
354.8334, 71.12373
355.3155, 71.28098
355.7976, 70.97630
356.2798, 70.42077
356.7619, 69.95040
357.2440, 69.64144
357.7261, 69.50953
358.2082, 69.69207
358.6903, 70.13245
359.1725, 70.44431
359.6546, 70.29051
360.1367, 69.97646
360.6188, 69.76334
361.1009, 69.70541
361.5830, 69.77528
362.0652, 70.04671
362.5473, 70.44392
363.0294, 70.77959
363.5115, 70.99189
363.9936, 71.12794
364.4757, 71.19614
364.9579, 71.17505
365.4400, 71.16767
365.9221, 71.13132
366.4042, 71.14080
366.8863, 71.29081
367.3684, 71.75007
367.8506, 72.19511
368.3327, 72.55308
368.8148, 72.81502
369.2969, 73.05543
369.7790, 73.23463
370.2611, 73.42336
370.7433, 73.67466
371.2254, 74.04163
371.7075, 74.37995
372.1896, 74.65244
372.6717, 74.88567
373.1538, 75.19910
373.6360, 75.66846
374.1181, 76.09192
374.6002, 76.30605
375.0823, 76.14860
375.5645, 76.39436
376.0466, 77.15437
376.5287, 78.18920
377.0108, 79.08054
377.4929, 79.75170
377.9750, 80.58205
378.4572, 81.75638
378.9393, 83.23019
379.4214, 84.52591
379.9035, 85.61160
380.3856, 86.61147
380.8677, 87.62564
381.3499, 88.65157
381.8320, 89.68620
382.3141, 90.83772
382.7962, 91.88631
383.2783, 92.56189
383.7604, 92.83437
384.2426, 92.33826
384.7247, 90.42153
385.2068, 87.59903
385.6889, 84.88801
386.1710, 82.37671
386.6531, 80.18714
387.1353, 78.42444
387.6174, 77.07259
388.0995, 76.06802
388.5816, 75.34132
389.0637, 74.96321
389.5458, 75.24606
390.0280, 76.16709
390.5101, 76.78457
390.9922, 76.08234
391.4743, 74.89379
391.9564, 74.14311
392.4385, 74.35720
392.9207, 74.77157
393.4028, 75.03836
393.8849, 75.19606
394.3670, 75.36137
394.8491, 75.44219
395.3312, 75.63964
395.8134, 76.13860
396.2955, 77.16228
396.7776, 77.92030
397.2597, 78.05699
397.7418, 77.88181
398.2239, 77.79867
398.7061, 77.90219
399.1882, 78.05787
399.6703, 78.28459
400.1524, 78.59115
400.6346, 78.75563
401.1167, 78.68598
401.5988, 78.55334
402.0809, 78.45626
402.5630, 78.32717
403.0451, 78.38467
403.5273, 78.76094
404.0094, 79.29660
404.4915, 79.46541
404.9736, 79.04679
405.4557, 78.79860
405.9378, 79.19164
406.4200, 80.32654
406.9021, 80.84972
407.3842, 80.60494
407.8663, 80.10369
408.3484, 79.98936
408.8305, 80.26939
409.3127, 80.58934
409.7948, 80.85720
410.2769, 81.09635
410.7590, 81.38322
411.2411, 81.72068
411.7232, 82.02572
412.2054, 82.17888
412.6875, 82.25405
413.1696, 82.45947
413.6517, 82.84605
414.1338, 83.30470
414.6159, 83.65682
415.0981, 83.96706
415.5802, 84.41234
416.0623, 85.08659
416.5444, 85.93527
417.0265, 86.98779
417.5086, 88.24540
417.9908, 89.33910
418.4729, 89.77757
418.9550, 90.02488
419.4371, 90.55684
419.9192, 91.45632
420.4013, 92.74081
420.8835, 94.78206
421.3656, 97.26465
421.8477, 99.27955
422.3298, 99.47846
422.8119, 99.99514
423.2940, 102.0543
423.7762, 106.4795
424.2583, 110.2035
424.7404, 111.9695
425.2225, 113.1995
425.7047, 115.5682
426.1868, 119.5076
426.6689, 123.9523
427.1510, 128.4247
427.6331, 133.0692
428.1152, 139.5991
428.5974, 147.8792
429.0795, 158.4003
429.5616, 171.2049
430.0437, 185.6855
430.5258, 204.7422
431.0079, 228.4855
431.4901, 256.7167
431.9722, 290.4701
432.4543, 330.2036
432.9364, 369.6569
433.4185, 406.5865
433.9006, 440.8577
434.3828, 470.4461
434.8649, 495.1429
435.3470, 517.7263
435.8291, 539.4672
436.3112, 561.0934
436.7933, 583.9172
437.2755, 607.2053
437.7576, 634.1434
438.2397, 667.3118
438.7218, 706.9745
439.2039, 754.0035
439.6860, 805.4719
440.1682, 867.0275
440.6503, 943.1056
441.1324, 1034.633
441.6145, 1138.212
442.0966, 1256.495
442.5787, 1383.885
443.0609, 1514.380
443.5430, 1647.098
444.0251, 1781.521
444.5072, 1916.346
444.9893, 2052.284
445.4714, 2193.346
445.9536, 2361.146
446.4357, 2518.184
446.9178, 2660.793
447.3999, 2823.411
447.8820, 2874.039
448.3641, 2792.753
448.8463, 2611.206
449.3284, 2350.545
449.8105, 1952.440
450.2926, 1585.321
450.7747, 1271.792
451.2569, 1010.313
451.7390, 803.0104
452.2211, 655.1979
452.7032, 543.0242
453.1853, 457.1408
453.6674, 397.7729
454.1496, 349.0655
454.6317, 311.0875
455.1138, 280.7666
455.5959, 255.1417
456.0780, 233.8637
456.5602, 215.5406
457.0423, 200.0242
457.5244, 186.9442
458.0065, 175.6069
458.4886, 166.0601
458.9707, 157.6820
459.4529, 150.3962
459.9350, 143.9355
460.4171, 138.1364
460.8992, 132.8609
461.3813, 128.2542
461.8634, 124.7959
462.3456, 121.9987
462.8277, 119.1180
463.3098, 115.4340
463.7919, 111.9083
464.2740, 109.1171
464.7561, 107.0263
465.2383, 104.9663
465.7204, 102.5683
466.2025, 100.2466
466.6846, 98.28723
467.1667, 96.90030
467.6488, 95.59270
468.1310, 94.39663
468.6131, 93.23892
469.0952, 91.95999
469.5773, 90.42489
470.0594, 88.99078
470.5415, 87.74841
471.0237, 86.69743
471.5058, 85.65301
471.9879, 84.60436
472.4700, 83.58432
472.9521, 82.66077
473.4342, 81.83973
473.9164, 80.90163
474.3985, 79.77390
474.8806, 78.61120
475.3627, 77.62459
475.8448, 76.81539
476.3270, 76.19764
476.8091, 75.80119
477.2912, 75.59531
477.7733, 75.53777
478.2554, 75.62691
478.7375, 75.83933
479.2197, 76.09399
479.7018, 76.48463
480.1839, 77.07797
480.6660, 77.77427
481.1481, 78.98137
481.6302, 80.94063
482.1124, 83.59361
482.5945, 86.84193
483.0766, 90.94618
483.5587, 95.38255
484.0408, 100.1270
484.5229, 105.1244
485.0051, 109.6480
485.4872, 113.5404
485.9693, 116.9470
486.4514, 119.8483
486.9335, 121.4841
487.4156, 123.9879
487.8978, 127.6179
488.3799, 131.9680
488.8620, 136.3907
489.3441, 140.4187
489.8262, 145.7113
490.3083, 152.6917
490.7905, 161.3630
491.2726, 171.4912
491.7547, 183.1958
492.2368, 196.0984
492.7189, 209.7612
493.2010, 224.3116
493.6832, 239.4311
494.1653, 255.2975
494.6474, 271.4479
495.1295, 287.1697
495.6116, 302.8249
496.0938, 319.7997
496.5759, 340.0309
497.0580, 360.7030
497.5401, 381.9769
498.0222, 402.3335
498.5044, 412.9677
498.9865, 410.8560
499.4686, 395.8839
499.9507, 365.1158
500.4328, 313.7956
500.9149, 264.0369
501.3971, 219.7043
501.8792, 181.8859
502.3613, 151.6916
502.8434, 132.2499
503.3255, 116.7272
503.8076, 104.7211
504.2898, 95.86208
504.7719, 88.73273
505.2540, 83.86038
505.7361, 79.95953
506.2182, 76.49486
506.7003, 73.46206
507.1825, 71.09414
507.6646, 69.54680
508.1467, 68.33186
508.6288, 66.86573
509.1109, 65.15102
509.5930, 63.73172
510.0752, 62.76809
510.5573, 62.08074
511.0394, 61.36684
511.5215, 60.63259
512.0037, 59.91425
512.4858, 59.13427
512.9679, 58.42491
513.4500, 58.02150
513.9321, 57.92761
514.4142, 57.89252
514.8964, 57.86862
515.3785, 57.75378
515.8606, 57.42291
516.3427, 56.72683
516.8248, 56.02044
517.3069, 55.27925
517.7891, 54.64066
518.2712, 54.35877
518.7533, 54.89796
519.2354, 55.39116
519.7175, 55.50846
520.1996, 55.26004
520.6818, 55.28815
521.1639, 55.85366
521.6460, 56.37529
522.1281, 56.46223
522.6102, 55.94884
523.0923, 55.65987
523.5745, 55.66103
524.0566, 55.80830
524.5387, 55.90224
525.0208, 55.94330
525.5029, 55.98628
525.9850, 56.02103
526.4672, 56.09041
526.9493, 56.37792
527.4314, 56.84849
527.9135, 57.17395
528.3956, 56.97312
528.8777, 56.58671
529.3599, 56.50272
529.8420, 56.77525
530.3241, 57.12120
530.8062, 57.41788
531.2883, 57.66245
531.7704, 57.84156
532.2526, 57.87689
532.7347, 57.95148
533.2168, 58.13161
533.6989, 58.39140
534.1810, 58.67482
534.6631, 58.75159
535.1453, 59.08647
535.6274, 59.80922
536.1095, 60.93490
536.5916, 62.21998
537.0737, 63.70658
537.5558, 65.31083
538.0380, 66.99826
538.5201, 68.80186
539.0022, 70.56880
539.4843, 72.26138
539.9664, 73.93190
540.4485, 75.54316
540.9307, 77.11671
541.4128, 78.92778
541.8949, 81.13735
542.3770, 83.53299
542.8591, 85.64825
543.3412, 87.57498
543.8234, 89.93770
544.3055, 93.12477
544.7876, 96.92199
545.2697, 101.0789
545.7518, 105.5619
546.2339, 110.5279
546.7161, 116.4087
547.1982, 122.5842
547.6803, 128.6387
548.1624, 134.1529
548.6445, 139.8900
549.1266, 146.0103
549.6088, 152.4195
550.0909, 158.9397
550.5730, 165.8038
551.0551, 172.5311
551.5372, 179.5297
552.0193, 186.5286
552.5015, 190.5942
552.9836, 191.8804
553.4657, 189.7277
553.9478, 183.0069
554.4299, 172.0302
554.9120, 159.4832
555.3942, 145.3028
555.8763, 131.3033
556.3584, 119.2276
556.8405, 108.9955
557.3226, 100.4730
557.8047, 93.90280
558.2869, 88.56828
558.7690, 83.95128
559.2511, 80.02103
559.7332, 76.75944
560.2154, 74.50100
560.6975, 72.61871
561.1796, 70.75517
561.6617, 68.88708
562.1439, 67.31429
562.6260, 66.28423
563.1081, 65.43535
563.5902, 64.53116
564.0723, 63.51067
564.5544, 62.54700
565.0366, 61.56651
565.5187, 60.70223
566.0008, 60.23772
566.4829, 60.28413
566.9650, 60.06189
567.4471, 59.33030
567.9293, 58.29539
568.4114, 57.43968
568.8935, 56.75782
569.3756, 56.24309
569.8577, 55.92990
570.3398, 55.77090
570.8220, 55.77935
571.3041, 55.94072
571.7862, 55.96849
572.2683, 55.52593
572.7504, 54.92192
573.2325, 54.45037
573.7147, 54.18282
574.1968, 54.02781
574.6789, 54.06438
575.1610, 54.15723
575.6431, 54.13141
576.1252, 53.80999
576.6074, 53.54916
577.0895, 53.41862
577.5716, 53.38492
578.0537, 53.31604
578.5358, 53.19799
579.0179, 53.07449
579.5001, 52.93134
579.9822, 52.77778
580.4643, 52.85894
580.9464, 53.22120
581.4285, 53.49676
581.9106, 53.26246
582.3928, 52.67493
582.8749, 52.24516
583.3570, 52.03771
583.8391, 51.99358
584.3212, 52.13604
584.8033, 52.38680
585.2855, 52.61363
585.7676, 52.77599
586.2497, 52.89402
586.7318, 52.94288
587.2139, 52.95288
