##NAMES=Diaspore
##RRUFFID=R060287
##IDEAL CHEMISTRY=AlO(OH)
##LOCALITY=Selcuk, Mugla Province, Turkey
##OWNER=RRUFF
##SOURCE=Herb Obodda
##DESCRIPTION=Colorless transparent platy fragment
##STATUS=The identification of this mineral has been confirmed by X-ray diffraction and chemical analysis
##URL=rruff.info/R060287
##MEASURED CHEMISTRY=(Al_0.99_Fe^3+^_0.01_)_Î£=1_O(OH) ; trace amounts of Ti;  OH estimated by difference ; Fe^3+^ by charge balance
92.06543, 188.3626
92.54755, 188.9026
93.02966, 189.9414
93.51178, 190.0001
93.99390, 188.4886
94.47601, 185.4289
94.95813, 181.4488
95.44025, 177.3303
95.92236, 173.6452
96.40448, 170.3492
96.88660, 167.5619
97.36871, 166.0754
97.85082, 164.5620
98.33294, 161.9469
98.81506, 158.0065
99.29717, 153.5010
99.77929, 149.8602
100.2614, 147.0067
100.7435, 144.7506
101.2256, 143.1847
101.7078, 142.1194
102.1899, 141.2447
102.6720, 140.6771
103.1541, 139.9944
103.6362, 138.6089
104.1183, 136.5349
104.6005, 134.7393
105.0826, 134.4554
105.5647, 136.0027
106.0468, 136.4708
106.5289, 134.2025
107.0110, 131.2828
107.4931, 128.7752
107.9753, 126.9818
108.4574, 125.7500
108.9395, 124.8519
109.4216, 124.7955
109.9037, 124.2362
110.3858, 122.3835
110.8680, 120.2280
111.3501, 118.9115
111.8322, 119.0848
112.3143, 120.4559
112.7964, 121.1709
113.2785, 120.9503
113.7607, 120.4501
114.2428, 119.6702
114.7249, 118.7112
115.2070, 117.7588
115.6891, 116.9228
116.1712, 116.2285
116.6534, 115.7894
117.1355, 115.8807
117.6176, 116.0211
118.0997, 115.7855
118.5818, 115.1210
119.0639, 114.4052
119.5461, 113.9297
120.0282, 113.6665
120.5103, 113.6232
120.9924, 114.1553
121.4745, 114.8988
121.9566, 114.9525
122.4388, 113.9598
122.9209, 112.6430
123.4030, 111.4457
123.8851, 110.3693
124.3672, 109.4068
124.8493, 108.4733
125.3315, 107.5364
125.8136, 107.0547
126.2957, 107.7823
126.7778, 108.4546
127.2599, 108.3278
127.7420, 107.4338
128.2242, 106.4943
128.7063, 106.6156
129.1884, 108.7717
129.6705, 109.9620
130.1526, 109.3653
130.6347, 108.4530
131.1169, 108.4335
131.5990, 109.6785
132.0811, 111.5644
132.5632, 112.7137
133.0453, 111.7889
133.5274, 111.7600
134.0096, 113.5812
134.4917, 116.2334
134.9738, 118.2163
135.4559, 118.7777
135.9380, 118.3580
136.4201, 118.4608
136.9023, 119.3647
137.3844, 120.2992
137.8665, 120.8663
138.3486, 121.1518
138.8307, 121.5597
139.3128, 122.3784
139.7950, 123.4490
140.2771, 124.3115
140.7592, 124.5472
141.2413, 124.9736
141.7234, 126.6288
142.2055, 129.7438
142.6877, 132.8616
143.1698, 134.9006
143.6519, 136.5357
144.1340, 138.4576
144.6161, 140.6713
145.0982, 143.4915
145.5803, 147.7827
146.0625, 153.8935
146.5446, 161.1357
147.0267, 169.0493
147.5088, 177.7419
147.9909, 187.0755
148.4730, 196.2808
148.9552, 205.6770
149.4373, 221.0443
149.9194, 240.4305
150.4015, 268.8119
150.8836, 306.6411
151.3657, 354.6342
151.8479, 416.6811
152.3300, 499.5115
152.8121, 613.0437
153.2942, 686.7113
153.7763, 734.8986
154.2584, 743.2712
154.7406, 687.6682
155.2227, 575.5387
155.7048, 446.6393
156.1869, 342.1531
156.6690, 267.9195
157.1511, 210.5266
157.6333, 175.9833
158.1154, 154.3094
158.5975, 138.6697
159.0796, 127.7369
159.5617, 119.9238
160.0438, 113.7211
160.5260, 109.0435
161.0081, 105.5463
161.4902, 103.9508
161.9723, 103.4059
162.4544, 102.1982
162.9365, 99.59089
163.4187, 96.99139
163.9008, 96.17404
164.3829, 97.04134
164.8650, 98.05269
165.3471, 98.36904
165.8292, 98.07822
166.3113, 97.76827
166.7935, 97.72308
167.2756, 97.50274
167.7577, 96.68202
168.2398, 95.26547
168.7219, 93.78295
169.2040, 92.72456
169.6862, 92.12786
170.1683, 91.70767
170.6504, 91.46145
171.1325, 91.36028
171.6146, 91.45680
172.0967, 91.74372
172.5789, 92.08651
173.0610, 92.26721
173.5431, 92.14729
174.0252, 92.18738
174.5073, 92.55396
174.9894, 92.98014
175.4716, 93.32809
175.9537, 93.53751
176.4358, 93.56502
176.9179, 93.26731
177.4000, 91.70335
177.8821, 91.19065
178.3643, 92.46641
178.8464, 94.47119
179.3285, 96.09887
179.8106, 96.90028
180.2927, 97.26655
180.7748, 98.26106
181.2570, 99.83913
181.7391, 102.0922
182.2212, 104.9488
182.7033, 108.5068
183.1854, 113.0477
183.6675, 118.8191
184.1497, 125.3954
184.6318, 131.6736
185.1139, 139.8995
185.5960, 144.8480
186.0781, 143.6999
186.5602, 137.6613
187.0423, 129.8033
187.5245, 120.7855
188.0066, 111.5839
188.4887, 104.1964
188.9708, 98.84455
189.4529, 94.84983
189.9350, 92.13709
190.4172, 90.63855
190.8993, 89.49433
191.3814, 88.30546
191.8635, 87.32012
192.3456, 86.94791
192.8277, 87.52466
193.3099, 88.13147
193.7920, 87.75779
194.2741, 86.27812
194.7562, 84.74183
195.2383, 83.15582
195.7204, 81.91625
196.2026, 81.62510
196.6847, 82.65413
197.1668, 84.00832
197.6489, 83.94118
198.1310, 81.71583
198.6131, 80.19461
199.0953, 80.63660
199.5774, 81.87115
200.0595, 82.94686
200.5416, 83.50690
201.0237, 83.74792
201.5058, 84.19274
201.9880, 85.42172
202.4701, 85.72667
202.9522, 84.06866
203.4343, 81.80512
203.9164, 80.22729
204.3985, 79.91788
204.8807, 80.63962
205.3628, 81.76633
205.8449, 84.31451
206.3270, 85.86635
206.8091, 85.87891
207.2912, 84.90906
207.7733, 83.34309
208.2555, 81.34773
208.7376, 79.25951
209.2197, 78.34550
209.7018, 79.97733
210.1839, 81.30834
210.6660, 82.11841
211.1482, 82.44351
211.6303, 82.25452
212.1124, 81.49383
212.5945, 80.37077
213.0766, 79.74123
213.5587, 79.80102
214.0409, 80.06450
214.5230, 80.62002
215.0051, 81.30119
215.4872, 81.83887
215.9693, 82.10514
216.4514, 82.11874
216.9336, 81.92569
217.4157, 81.47015
217.8978, 80.94008
218.3799, 80.22672
218.8620, 79.46723
219.3441, 79.02931
219.8263, 79.15405
220.3084, 79.65700
220.7905, 80.04662
221.2726, 80.45986
221.7547, 80.57384
222.2368, 79.99648
222.7190, 78.90723
223.2011, 78.03917
223.6832, 77.72618
224.1653, 77.82399
224.6474, 77.96439
225.1295, 78.12207
225.6117, 78.37684
226.0938, 78.89346
226.5759, 79.62524
227.0580, 80.17196
227.5401, 80.40578
228.0222, 80.33144
228.5043, 79.90434
228.9865, 79.00754
229.4686, 78.22546
229.9507, 78.22855
230.4328, 79.00859
230.9149, 79.50033
231.3970, 79.17715
231.8792, 78.56316
232.3613, 78.11506
232.8434, 77.89584
233.3255, 77.68565
233.8076, 77.09811
234.2897, 76.05339
234.7719, 75.58129
235.2540, 76.75659
235.7361, 78.02295
236.2182, 78.30050
236.7003, 77.46010
237.1824, 76.31431
237.6646, 75.78652
238.1467, 76.02013
238.6288, 76.04522
239.1109, 75.47954
239.5930, 74.83870
240.0751, 74.24147
240.5573, 73.76250
241.0394, 73.61865
241.5215, 74.29575
242.0036, 76.20036
242.4857, 77.25745
242.9678, 76.62397
243.4500, 75.71052
243.9321, 75.13270
244.4142, 74.98049
244.8963, 75.03716
245.3784, 75.09560
245.8605, 75.19337
246.3427, 75.14869
246.8248, 74.85831
247.3069, 74.52471
247.7890, 74.21448
248.2711, 73.94844
248.7532, 73.74315
249.2354, 73.63805
249.7175, 73.69747
250.1996, 73.57303
250.6817, 72.95666
251.1638, 72.44925
251.6459, 72.44169
252.1281, 72.85801
252.6102, 73.30678
253.0923, 73.40945
253.5744, 73.11759
254.0565, 72.75579
254.5386, 72.20927
255.0208, 71.70840
255.5029, 71.29147
255.9850, 70.99911
256.4671, 70.92109
256.9492, 71.16839
257.4313, 71.78581
257.9135, 72.19124
258.3956, 72.39467
258.8777, 72.43410
259.3598, 72.12592
259.8419, 71.62730
260.3240, 71.43281
260.8062, 72.02446
261.2883, 73.38960
261.7704, 73.64711
262.2525, 71.83325
262.7346, 70.15768
263.2167, 69.71756
263.6989, 70.17626
264.1810, 70.49182
264.6631, 69.94511
265.1452, 68.67992
265.6273, 67.99271
266.1094, 68.18064
266.5916, 68.49255
267.0737, 68.61979
267.5558, 68.66285
268.0379, 68.94060
268.5200, 69.70493
269.0021, 70.74876
269.4843, 71.18154
269.9664, 70.49202
270.4485, 69.95213
270.9306, 70.15536
271.4127, 70.79374
271.8948, 71.18855
272.3770, 71.00224
272.8591, 70.46894
273.3412, 70.18186
273.8233, 70.13600
274.3054, 70.25485
274.7875, 70.75514
275.2697, 71.37916
275.7518, 71.54637
276.2339, 70.95532
276.7160, 70.08613
277.1981, 69.97097
277.6802, 70.77965
278.1623, 71.31419
278.6444, 70.94091
279.1266, 70.14127
279.6087, 69.73202
280.0908, 69.94315
280.5729, 70.49653
281.0550, 71.09171
281.5371, 71.73135
282.0193, 72.35182
282.5014, 72.92706
282.9835, 73.47778
283.4656, 74.08984
283.9477, 74.81084
284.4298, 75.40350
284.9120, 75.53775
285.3941, 75.27329
285.8762, 74.96213
286.3583, 74.36567
286.8404, 73.90203
287.3225, 74.33648
287.8047, 75.85021
288.2868, 77.18290
288.7689, 77.02221
289.2510, 75.79359
289.7331, 75.02551
290.2152, 75.44793
290.6974, 76.14607
291.1795, 76.18824
291.6616, 75.54565
292.1437, 74.62952
292.6258, 73.38094
293.1079, 72.10705
293.5901, 71.48860
294.0722, 71.79642
294.5543, 72.55293
295.0364, 73.65165
295.5185, 75.05186
296.0006, 75.86469
296.4828, 75.22066
296.9649, 74.00793
297.4470, 73.83064
297.9291, 75.05832
298.4112, 76.56754
298.8933, 77.81191
299.3755, 78.74889
299.8576, 79.06031
300.3397, 78.28106
300.8218, 77.19729
301.3039, 76.88823
301.7860, 77.42954
302.2682, 78.13698
302.7503, 78.68404
303.2324, 79.10369
303.7145, 79.51376
304.1966, 79.93230
304.6787, 80.36330
305.1609, 80.97617
305.6430, 81.72961
306.1251, 82.03476
306.6072, 80.82948
307.0893, 79.09588
307.5714, 79.17025
308.0536, 81.72742
308.5357, 84.92253
309.0178, 87.02269
309.4999, 88.46316
309.9820, 90.47910
310.4641, 93.39498
310.9463, 97.13554
311.4284, 102.0479
311.9105, 108.4567
312.3926, 114.1475
312.8747, 117.1620
313.3568, 118.5054
313.8390, 119.7941
314.3211, 120.9502
314.8032, 122.5631
315.2853, 125.6353
315.7674, 130.1955
316.2495, 134.2977
316.7317, 136.4142
317.2138, 137.9476
317.6959, 140.9908
318.1780, 145.9455
318.6601, 151.7504
319.1422, 157.3716
319.6243, 163.0156
320.1064, 169.9766
320.5886, 178.7852
321.0707, 189.0686
321.5528, 200.0359
322.0349, 211.6474
322.5170, 224.5536
322.9991, 238.4542
323.4813, 253.8519
323.9634, 272.0234
324.4455, 292.3955
324.9276, 317.2286
325.4097, 347.1780
325.8918, 382.2391
326.3740, 425.7983
326.8561, 479.3293
327.3382, 542.0310
327.8203, 614.1605
328.3024, 696.7024
328.7845, 784.9818
329.2667, 886.6217
329.7488, 991.3682
330.2309, 1072.754
330.7130, 1137.653
331.1951, 1168.128
331.6772, 1138.551
332.1594, 1049.542
332.6415, 937.3924
333.1236, 806.7620
333.6057, 670.8191
334.0878, 554.7286
334.5699, 461.5438
335.0521, 385.2239
335.5342, 323.9951
336.0163, 277.1593
336.4984, 240.8233
336.9805, 216.0893
337.4626, 198.6542
337.9448, 181.8351
338.4269, 165.0681
338.9090, 150.8789
339.3911, 141.1344
339.8732, 134.4471
340.3553, 128.3715
340.8375, 122.4271
341.3196, 117.7933
341.8017, 112.9975
342.2838, 110.1210
342.7659, 107.4926
343.2480, 105.3421
343.7302, 103.1246
344.2123, 99.81223
344.6944, 95.37631
345.1765, 91.73893
345.6586, 90.70211
346.1407, 91.84256
346.6229, 91.84055
347.1050, 89.73401
347.5871, 87.32658
348.0692, 85.64327
348.5513, 84.57658
349.0334, 83.64625
349.5156, 82.63866
349.9977, 81.61626
350.4798, 80.75259
350.9619, 80.02344
351.4440, 79.45475
351.9261, 79.15101
352.4083, 78.99817
352.8904, 78.83143
353.3725, 78.61005
353.8546, 78.30166
354.3367, 77.78157
354.8188, 76.90893
355.3010, 76.45341
355.7831, 76.87540
356.2652, 77.50003
356.7473, 77.74262
357.2294, 77.53410
357.7115, 77.11055
358.1937, 76.66502
358.6758, 76.19536
359.1579, 75.62043
359.6400, 74.65176
360.1221, 73.86384
360.6042, 73.67371
361.0863, 73.90799
361.5685, 74.04701
362.0506, 73.75716
362.5327, 73.22575
363.0148, 73.24327
363.4969, 74.24938
363.9790, 75.21150
364.4612, 76.01319
364.9433, 76.68639
365.4254, 77.31892
365.9075, 77.93242
366.3896, 78.34480
366.8717, 78.21258
367.3539, 77.04849
367.8360, 76.46555
368.3181, 76.93362
368.8002, 77.57826
369.2823, 77.71168
369.7644, 77.37132
370.2466, 77.16076
370.7287, 77.70589
371.2108, 79.08781
371.6929, 79.76980
372.1750, 79.12711
372.6571, 78.50716
373.1393, 78.18700
373.6214, 78.18066
374.1035, 78.49660
374.5856, 79.15846
375.0677, 80.03156
375.5498, 80.64464
376.0320, 80.38641
376.5141, 80.82266
376.9962, 82.72857
377.4783, 84.94999
377.9604, 86.23887
378.4425, 86.39424
378.9247, 86.47192
379.4068, 87.90234
379.8889, 90.92600
380.3710, 94.49358
380.8531, 99.53015
381.3352, 104.2844
381.8174, 108.1452
382.2995, 111.0608
382.7816, 113.2621
383.2637, 115.1915
383.7458, 116.5587
384.2279, 115.0827
384.7101, 108.8733
385.1922, 102.5604
385.6743, 97.06458
386.1564, 92.45825
386.6385, 88.77772
387.1206, 86.09633
387.6028, 84.24077
388.0849, 83.04440
388.5670, 82.62249
389.0491, 82.32745
389.5312, 82.06426
390.0133, 81.85398
390.4955, 81.72295
390.9776, 81.66957
391.4597, 81.65217
391.9418, 81.63390
392.4239, 81.62144
392.9060, 81.65028
393.3882, 81.70850
393.8703, 81.83809
394.3524, 82.05437
394.8345, 82.35427
395.3166, 82.75034
395.7987, 83.32639
396.2809, 83.93675
396.7630, 84.45496
397.2451, 84.90047
397.7272, 84.97663
398.2093, 84.24547
398.6914, 83.24277
399.1736, 82.82812
399.6557, 83.15469
400.1378, 83.64677
400.6199, 83.97013
401.1020, 84.19697
401.5841, 84.66696
402.0662, 85.63215
402.5483, 86.31363
403.0305, 85.22399
403.5126, 82.49891
403.9947, 81.08830
404.4768, 82.77810
404.9589, 85.16774
405.4410, 85.75462
405.9232, 84.58769
406.4053, 83.64810
406.8874, 84.39684
407.3695, 86.38384
407.8516, 87.25542
408.3337, 86.08808
408.8159, 85.04179
409.2980, 84.81552
409.7801, 85.13194
410.2622, 85.59712
410.7443, 86.08482
411.2264, 86.55444
411.7086, 86.92323
412.1907, 87.04887
412.6728, 87.45561
413.1549, 88.62305
413.6370, 89.68450
414.1191, 89.83096
414.6013, 89.22798
415.0834, 88.75423
415.5655, 89.12380
416.0476, 90.28829
416.5297, 91.38270
417.0118, 92.57644
417.4940, 93.48963
417.9761, 93.75432
418.4582, 93.81459
418.9403, 94.16927
419.4224, 95.01641
419.9045, 96.26447
420.3867, 97.85146
420.8688, 100.0328
421.3509, 101.8430
421.8330, 102.4348
422.3151, 103.3406
422.7972, 105.5090
423.2794, 108.7954
423.7615, 112.4222
424.2436, 115.9025
424.7257, 119.2084
425.2078, 121.9467
425.6899, 122.8132
426.1721, 125.4964
426.6542, 131.4213
427.1363, 139.6016
427.6184, 148.9140
428.1005, 158.9691
428.5826, 170.2959
429.0648, 183.5026
429.5469, 198.6693
430.0290, 215.3588
430.5111, 235.1655
430.9932, 254.4368
431.4753, 270.1407
431.9575, 282.4994
432.4396, 293.3753
432.9217, 302.5423
433.4038, 311.1003
433.8859, 320.6342
434.3680, 331.0825
434.8502, 343.3630
435.3323, 357.6855
435.8144, 374.6210
436.2965, 394.8682
436.7786, 418.6232
437.2607, 445.4081
437.7429, 474.3929
438.2250, 506.1630
438.7071, 541.2623
439.1892, 579.3041
439.6713, 623.0749
440.1534, 675.1849
440.6356, 734.7216
441.1177, 810.4178
441.5998, 898.4749
442.0819, 1005.855
442.5640, 1130.911
443.0461, 1277.570
443.5282, 1459.363
444.0103, 1683.718
444.4925, 1950.493
444.9746, 2258.969
445.4567, 2638.271
445.9388, 3023.226
446.4209, 3477.196
446.9030, 3895.048
447.3852, 4204.839
447.8673, 4373.613
448.3494, 4365.452
448.8315, 4110.026
449.3136, 3555.363
449.7957, 3014.165
450.2779, 2429.635
450.7600, 1913.016
451.2421, 1506.341
451.7242, 1196.499
452.2063, 957.8146
452.6884, 782.6829
453.1706, 657.6002
453.6527, 557.3000
454.1348, 486.2472
454.6169, 427.2905
455.0990, 381.1512
455.5811, 342.9026
456.0633, 310.5543
456.5454, 283.7500
457.0275, 261.2011
457.5096, 242.7594
457.9917, 227.8717
458.4738, 214.3968
458.9560, 202.3040
459.4381, 191.2936
459.9202, 180.8061
460.4023, 171.3485
460.8844, 164.2368
461.3665, 161.0606
461.8487, 158.3703
462.3308, 153.0049
462.8129, 145.8659
463.2950, 140.2974
463.7771, 137.5891
464.2592, 136.1556
464.7414, 133.6733
465.2235, 129.9237
465.7056, 126.7189
466.1877, 124.7063
466.6698, 122.9421
467.1519, 120.6912
467.6341, 117.9705
468.1162, 115.0973
468.5983, 112.1977
469.0804, 109.4121
469.5625, 107.5061
470.0446, 107.5696
470.5268, 107.1417
471.0089, 105.5806
471.4910, 103.7178
471.9731, 102.4708
472.4552, 101.9350
472.9373, 101.3733
473.4195, 99.87355
473.9016, 97.32136
474.3837, 95.40742
474.8658, 94.12244
475.3479, 93.58370
475.8300, 94.33923
476.3122, 95.69520
476.7943, 96.73502
477.2764, 97.08168
477.7585, 96.94967
478.2406, 96.31072
478.7227, 94.97128
479.2049, 94.92091
479.6870, 96.97871
480.1691, 100.0495
480.6512, 103.4564
481.1333, 107.1354
481.6154, 110.9283
482.0976, 115.0073
482.5797, 119.0474
483.0618, 122.7709
483.5439, 126.1946
484.0260, 128.3884
484.5081, 128.0615
484.9902, 126.8127
485.4724, 128.0743
485.9545, 132.4548
486.4366, 137.2910
486.9187, 141.6613
487.4008, 145.9975
487.8829, 150.5134
488.3651, 155.3422
488.8472, 161.4429
489.3293, 169.7802
489.8114, 180.3812
490.2935, 190.7452
490.7756, 198.6893
491.2578, 208.9261
491.7399, 221.4487
492.2220, 237.4709
492.7041, 258.0765
493.1862, 283.7029
493.6683, 314.9767
494.1505, 352.4682
494.6326, 395.2978
495.1147, 447.3549
495.5968, 510.6441
496.0789, 581.2786
496.5610, 666.7509
497.0432, 757.4258
497.5253, 841.0018
498.0074, 914.9195
498.4895, 965.4472
498.9716, 964.0972
499.4537, 906.6469
499.9359, 821.6805
500.4180, 692.0508
500.9001, 556.8049
501.3822, 444.6564
501.8643, 355.6112
502.3464, 285.2323
502.8286, 234.9973
503.3107, 199.8619
503.7928, 173.4426
504.2749, 155.5486
504.7570, 141.9961
505.2391, 131.4698
505.7213, 123.2813
506.2034, 115.7815
506.6855, 108.9520
507.1676, 102.7186
507.6497, 96.55838
508.1318, 91.24556
508.6140, 88.04283
509.0961, 86.94003
509.5782, 86.53342
510.0603, 85.69424
510.5424, 84.43105
511.0245, 82.85969
511.5067, 80.83223
511.9888, 78.67558
512.4709, 75.94153
512.9530, 73.34764
513.4351, 71.85999
513.9172, 71.63754
514.3994, 71.73824
514.8815, 70.89769
515.3636, 68.99035
515.8457, 67.82310
516.3278, 67.88440
516.8099, 68.05921
517.2921, 68.06508
517.7742, 67.83199
518.2563, 67.15528
518.7384, 65.81515
519.2205, 64.52123
519.7026, 64.07071
520.1848, 64.39213
520.6669, 65.01812
521.1490, 66.03842
521.6311, 66.96202
522.1132, 67.21109
522.5953, 66.89208
523.0775, 66.45837
523.5596, 65.77977
524.0417, 65.19600
524.5238, 64.90620
525.0059, 64.90763
525.4880, 65.25048
525.9702, 65.99024
526.4523, 66.84050
526.9344, 67.30822
527.4165, 67.20953
527.8986, 67.17825
528.3807, 67.39146
528.8629, 67.50362
529.3450, 67.18135
529.8271, 66.60931
530.3092, 66.18089
530.7913, 66.10282
531.2734, 66.38565
531.7556, 67.22739
532.2377, 69.10857
532.7198, 70.17327
533.2019, 68.99418
533.6840, 67.87476
534.1661, 68.24975
534.6483, 69.91436
535.1304, 71.63923
535.6125, 72.79134
536.0946, 73.53562
536.5767, 74.11846
537.0588, 74.53162
537.5410, 74.91890
538.0231, 75.17823
538.5052, 75.60130
538.9873, 76.79227
539.4694, 78.90182
539.9515, 80.56669
540.4337, 80.82629
540.9158, 80.86337
541.3979, 81.97414
541.8800, 84.07272
542.3621, 86.17545
542.8442, 87.62482
543.3264, 88.72878
543.8085, 90.53209
544.2906, 92.87449
544.7726, 96.23189
545.2548, 101.1722
545.7369, 106.6731
546.2190, 111.4191
546.7011, 115.8340
547.1832, 121.7138
547.6653, 130.3804
548.1475, 141.5304
548.6296, 153.7316
549.1117, 166.6093
549.5938, 181.4463
550.0759, 199.9437
550.5580, 219.7447
551.0402, 240.6667
551.5223, 262.2630
552.0044, 280.3069
552.4865, 294.3291
552.9686, 302.5462
553.4507, 301.2312
553.9329, 290.2185
554.4150, 272.8465
554.8971, 249.0613
555.3792, 221.4587
555.8613, 196.5381
556.3434, 173.5455
556.8256, 154.2793
557.3077, 140.0766
557.7898, 128.9271
558.2719, 119.5217
558.7540, 111.5482
559.2361, 105.1219
559.7183, 100.3865
560.2004, 97.03046
560.6825, 93.57803
561.1646, 89.54930
561.6467, 86.33410
562.1288, 84.42716
562.6110, 82.97010
563.0931, 81.47071
563.5752, 79.84276
564.0573, 78.09162
564.5394, 76.06145
565.0215, 73.99681
565.5037, 72.60246
565.9858, 71.96217
566.4679, 71.42243
566.9500, 70.81682
567.4321, 70.13230
567.9142, 69.17903
568.3964, 67.88961
568.8785, 67.25761
569.3606, 68.33395
569.8427, 69.73647
570.3248, 70.08782
570.8069, 69.41592
571.2891, 68.22560
571.7712, 66.70020
572.2533, 65.11807
572.7354, 64.18322
573.2175, 64.06131
573.6996, 64.35984
574.1818, 65.73892
574.6639, 66.92987
575.1460, 66.99886
575.6281, 66.21476
576.1102, 65.44294
576.5923, 65.20991
577.0745, 65.22237
577.5566, 64.68755
578.0387, 63.39118
578.5208, 62.74292
579.0029, 63.39320
579.4850, 64.40074
579.9672, 65.19576
580.4493, 65.75105
580.9314, 65.98256
581.4135, 65.58498
581.8956, 65.07862
582.3777, 64.98841
582.8599, 65.22879
583.3420, 65.54491
583.8241, 65.90236
584.3062, 66.03429
584.7883, 65.45164
585.2704, 63.83826
585.7526, 63.15275
586.2347, 64.20775
586.7168, 65.25359
587.1989, 65.33438
