##NAMES=Diaspore
##RRUFFID=R060546
##IDEAL CHEMISTRY=AlO(OH)
##LOCALITY=Turkey
##OWNER=RRUFF
##SOURCE=Gemological Institute of America
##DESCRIPTION=Platy transparent pale yellow fragment
##STATUS=The identification of this mineral has been confirmed by X-ray diffraction and chemical analysis
##URL=rruff.info/R060546
##MEASURED CHEMISTRY=(Al_0.99_Fe^3+^_0.01_)_Î£=1_O(OH) ; OH estimated by difference; Fe^3+^ by charge balance
92.06543, 708.8859
92.54755, 724.6759
93.02966, 731.9338
93.51178, 718.7183
93.99390, 694.9260
94.47601, 658.6739
94.95813, 616.2852
95.44025, 577.6873
95.92236, 551.2003
96.40448, 537.6674
96.88660, 521.7925
97.36871, 503.5638
97.85082, 484.1325
98.33294, 463.4992
98.81506, 441.4113
99.29717, 419.1666
99.77929, 400.9093
100.2614, 386.3009
100.7435, 370.7396
101.2256, 352.3422
101.7078, 332.0959
102.1899, 311.6330
102.6720, 288.5348
103.1541, 269.3230
103.6362, 259.2059
104.1183, 257.9515
104.6005, 260.3636
105.0826, 263.6263
105.5647, 268.2654
106.0468, 269.7758
106.5289, 265.9263
107.0110, 259.3895
107.4931, 250.9630
107.9753, 240.8931
108.4574, 229.9944
108.9395, 219.7637
109.4216, 210.0724
109.9037, 201.3951
110.3858, 193.8725
110.8680, 187.1803
111.3501, 181.0164
111.8322, 175.1892
112.3143, 169.7801
112.7964, 165.2619
113.2785, 161.4918
113.7607, 158.6222
114.2428, 157.2251
114.7249, 156.8735
115.2070, 156.4905
115.6891, 155.2893
116.1712, 153.2517
116.6534, 151.3885
117.1355, 149.3197
117.6176, 147.6504
118.0997, 147.0012
118.5818, 147.4571
119.0639, 148.2425
119.5461, 148.6906
120.0282, 148.9032
120.5103, 149.1718
120.9924, 149.5066
121.4745, 149.9572
121.9566, 150.7219
122.4388, 152.1017
122.9209, 153.3415
123.4030, 154.1550
123.8851, 154.5052
124.3672, 154.2509
124.8493, 152.8929
125.3315, 150.2962
125.8136, 148.5243
126.2957, 148.2337
126.7778, 148.4773
127.2599, 149.0571
127.7420, 149.8779
128.2242, 150.8181
128.7063, 151.7196
129.1884, 152.5889
129.6705, 153.4022
130.1526, 153.8237
130.6347, 154.3913
131.1169, 155.3116
131.5990, 156.6980
132.0811, 158.7914
132.5632, 162.1459
133.0453, 167.5059
133.5274, 173.3640
134.0096, 180.4470
134.4917, 187.8394
134.9738, 194.2964
135.4559, 199.3069
135.9380, 202.9164
136.4201, 205.1725
136.9023, 205.6945
137.3844, 205.7444
137.8665, 205.2980
138.3486, 204.5960
138.8307, 204.7553
139.3128, 206.4333
139.7950, 209.5293
140.2771, 213.3269
140.7592, 217.6941
141.2413, 222.8652
141.7234, 229.1918
142.2055, 236.7485
142.6877, 244.9635
143.1698, 253.3439
143.6519, 262.1902
144.1340, 272.0302
144.6161, 283.1410
145.0982, 295.3398
145.5803, 308.1107
146.0625, 320.9575
146.5446, 335.3719
147.0267, 351.7556
147.5088, 369.7938
147.9909, 389.1201
148.4730, 409.6454
148.9552, 431.3619
149.4373, 453.1092
149.9194, 473.4623
150.4015, 495.4982
150.8836, 522.1281
151.3657, 551.3986
151.8479, 580.5599
152.3300, 608.8841
152.8121, 640.6523
153.2942, 642.9355
153.7763, 611.0526
154.2584, 561.8010
154.7406, 494.5217
155.2227, 413.9339
155.7048, 334.0869
156.1869, 269.8900
156.6690, 225.2921
157.1511, 190.2536
157.6333, 168.1306
158.1154, 153.3414
158.5975, 141.9439
159.0796, 133.1547
159.5617, 126.4998
160.0438, 121.9557
160.5260, 119.5347
161.0081, 117.5026
161.4902, 115.4956
161.9723, 113.6416
162.4544, 112.2331
162.9365, 111.4664
163.4187, 110.9311
163.9008, 110.0737
164.3829, 108.9110
164.8650, 107.9516
165.3471, 107.6189
165.8292, 107.8132
166.3113, 107.8803
166.7935, 107.6381
167.2756, 107.2609
167.7577, 106.8711
168.2398, 106.4763
168.7219, 106.0802
169.2040, 105.6710
169.6862, 105.2373
170.1683, 104.8711
170.6504, 104.6351
171.1325, 104.4412
171.6146, 104.2147
172.0967, 103.9505
172.5789, 103.7388
173.0610, 103.7492
173.5431, 104.1619
174.0252, 104.3787
174.5073, 104.1673
174.9894, 103.8993
175.4716, 103.9131
175.9537, 104.2970
176.4358, 104.8075
176.9179, 104.9327
177.4000, 104.1659
177.8821, 103.7019
178.3643, 103.7428
178.8464, 104.0127
179.3285, 104.2551
179.8106, 104.3656
180.2927, 104.3806
180.7748, 104.3960
181.2570, 104.4302
181.7391, 104.4428
182.2212, 104.3507
182.7033, 104.2472
183.1854, 104.3187
183.6675, 104.6866
184.1497, 105.2016
184.6318, 105.3746
185.1139, 105.1797
185.5960, 104.7987
186.0781, 104.2169
186.5602, 103.4831
187.0423, 102.7190
187.5245, 101.9466
188.0066, 101.2224
188.4887, 100.6497
188.9708, 100.2715
189.4529, 99.96596
189.9350, 99.70244
190.4172, 99.47244
190.8993, 99.16308
191.3814, 98.62696
191.8635, 98.03747
192.3456, 97.65414
192.8277, 97.57761
193.3099, 97.56262
193.7920, 97.30384
194.2741, 96.74825
194.7562, 96.34482
195.2383, 96.42522
195.7204, 96.69083
196.2026, 96.91599
196.6847, 97.04158
197.1668, 97.11417
197.6489, 97.25364
198.1310, 97.57247
198.6131, 97.62159
199.0953, 96.90485
199.5774, 96.05613
200.0595, 95.71803
200.5416, 96.17015
201.0237, 97.00562
201.5058, 97.30392
201.9880, 96.75595
202.4701, 96.19166
202.9522, 95.61036
203.4343, 95.15374
203.9164, 94.99699
204.3985, 95.22332
204.8807, 95.71948
205.3628, 96.15767
205.8449, 96.61045
206.3270, 96.88168
206.8091, 96.94483
207.2912, 96.82852
207.7733, 96.47214
208.2555, 95.83427
208.7376, 95.08599
209.2197, 94.86938
209.7018, 96.05010
210.1839, 96.80686
210.6660, 96.61355
211.1482, 95.95750
211.6303, 95.54749
212.1124, 95.76318
212.5945, 96.41858
213.0766, 96.75420
213.5587, 96.47265
214.0409, 96.25169
214.5230, 96.20154
215.0051, 96.30363
215.4872, 96.54992
215.9693, 96.96339
216.4514, 97.47538
216.9336, 97.81136
217.4157, 97.88237
217.8978, 97.94096
218.3799, 98.17716
218.8620, 98.47512
219.3441, 98.47887
219.8263, 97.89191
220.3084, 97.04346
220.7905, 96.84281
221.2726, 97.62924
221.7547, 98.39082
222.2368, 98.54945
222.7190, 98.23622
223.2011, 97.98155
223.6832, 98.01075
224.1653, 98.23812
224.6474, 98.47883
225.1295, 98.76402
225.6117, 98.99118
226.0938, 99.06442
226.5759, 98.99979
227.0580, 98.93163
227.5401, 98.91631
228.0222, 98.91404
228.5043, 98.84134
228.9865, 98.65638
229.4686, 98.55538
229.9507, 98.81435
230.4328, 99.42870
230.9149, 99.82317
231.3970, 99.61557
231.8792, 99.25760
232.3613, 99.11987
232.8434, 99.25044
233.3255, 99.52551
233.8076, 99.92017
234.2897, 100.4653
234.7719, 100.7677
235.2540, 100.4688
235.7361, 100.0701
236.2182, 99.88731
236.7003, 99.96228
237.1824, 100.1216
237.6646, 100.1862
238.1467, 100.1424
238.6288, 100.0802
239.1109, 100.0350
239.5930, 99.95517
240.0751, 99.79319
240.5573, 99.55061
241.0394, 99.28509
241.5215, 99.02988
242.0036, 98.74101
242.4857, 98.64316
242.9678, 98.91859
243.4500, 99.24926
243.9321, 99.49242
244.4142, 99.62912
244.8963, 99.71661
245.3784, 99.81516
245.8605, 99.92644
246.3427, 100.0440
246.8248, 100.2946
247.3069, 100.4493
247.7890, 100.3326
248.2711, 99.97689
248.7532, 99.58340
249.2354, 99.37996
249.7175, 99.44868
250.1996, 99.35425
250.6817, 98.89111
251.1638, 98.46748
251.6459, 98.31361
252.1281, 98.40063
252.6102, 98.53205
253.0923, 98.51163
253.5744, 98.30388
254.0565, 98.16167
254.5386, 98.09138
255.0208, 98.06484
255.5029, 98.10303
255.9850, 98.18152
256.4671, 98.22081
256.9492, 98.12816
257.4313, 97.86987
257.9135, 97.89622
258.3956, 98.50117
258.8777, 99.04111
259.3598, 99.15417
259.8419, 98.94419
260.3240, 98.79829
260.8062, 99.04001
261.2883, 99.66515
261.7704, 99.93497
262.2525, 99.67862
262.7346, 99.33516
263.2167, 98.96616
263.6989, 98.63927
264.1810, 98.52261
264.6631, 98.76246
265.1452, 99.29869
265.6273, 99.58630
266.1094, 99.38834
266.5916, 99.24990
267.0737, 99.44278
267.5558, 99.84920
268.0379, 100.1592
268.5200, 100.1722
269.0021, 99.99805
269.4843, 100.1142
269.9664, 100.8895
270.4485, 101.4475
270.9306, 101.3682
271.4127, 100.8733
271.8948, 100.4160
272.3770, 100.1837
272.8591, 100.1261
273.3412, 100.1191
273.8233, 100.1297
274.3054, 100.2312
274.7875, 100.5499
275.2697, 100.9634
275.7518, 101.1996
276.2339, 101.1200
276.7160, 100.9397
277.1981, 101.1264
277.6802, 101.7585
278.1623, 102.2753
278.6444, 102.4702
279.1266, 102.4619
279.6087, 102.4441
280.0908, 102.4670
280.5729, 102.4868
281.0550, 102.4211
281.5371, 102.2683
282.0193, 102.1565
282.5014, 101.9932
282.9835, 101.9311
283.4656, 102.3173
283.9477, 103.2897
284.4298, 104.2563
284.9120, 104.5058
285.3941, 104.1347
285.8762, 103.7379
286.3583, 103.3820
286.8404, 103.0872
287.3225, 102.9474
287.8047, 102.9973
288.2868, 102.9378
288.7689, 102.3430
289.2510, 101.4125
289.7331, 100.8582
290.2152, 101.0306
290.6974, 101.4919
291.1795, 101.8580
291.6616, 102.1226
292.1437, 102.2597
292.6258, 102.2130
293.1079, 102.0260
293.5901, 101.8022
294.0722, 101.4361
294.5543, 101.1644
295.0364, 101.2740
295.5185, 101.7415
296.0006, 102.1293
296.4828, 102.1699
296.9649, 102.0456
297.4470, 102.0509
297.9291, 102.1484
298.4112, 102.4837
298.8933, 103.4491
299.3755, 104.8800
299.8576, 105.7351
300.3397, 105.4199
300.8218, 104.6199
301.3039, 104.1998
301.7860, 104.1473
302.2682, 104.5096
302.7503, 105.5923
303.2324, 107.1634
303.7145, 108.3859
304.1966, 108.9581
304.6787, 109.3502
305.1609, 110.0480
305.6430, 111.0218
306.1251, 112.0656
306.6072, 112.8205
307.0893, 113.6161
307.5714, 115.1872
308.0536, 117.6778
308.5357, 120.7667
309.0178, 124.1370
309.4999, 127.8410
309.9820, 132.2273
310.4641, 137.1576
310.9463, 142.9191
311.4284, 150.0870
311.9105, 158.7988
312.3926, 168.0723
312.8747, 177.6246
313.3568, 187.2176
313.8390, 196.4119
314.3211, 205.5429
314.8032, 213.8034
315.2853, 219.9700
315.7674, 223.9873
316.2495, 228.0724
316.7317, 232.9196
317.2138, 238.6843
317.6959, 245.3468
318.1780, 252.8073
318.6601, 261.4393
319.1422, 271.3963
319.6243, 282.7389
320.1064, 295.6976
320.5886, 310.7504
321.0707, 327.1343
321.5528, 343.4655
322.0349, 359.6454
322.5170, 377.4606
322.9991, 398.0792
323.4813, 421.0419
323.9634, 445.4049
324.4455, 470.8866
324.9276, 497.7326
325.4097, 526.2750
325.8918, 556.3030
326.3740, 586.4227
326.8561, 617.6355
327.3382, 648.2357
327.8203, 676.9680
328.3024, 704.5975
328.7845, 726.3309
329.2667, 740.6924
329.7488, 746.1624
330.2309, 737.2755
330.7130, 710.8151
331.1951, 671.0028
331.6772, 618.0086
332.1594, 552.0328
332.6415, 485.4917
333.1236, 421.6500
333.6057, 363.1802
334.0878, 313.2701
334.5699, 272.9803
335.0521, 240.0381
335.5342, 214.2538
336.0163, 195.0460
336.4984, 179.3889
336.9805, 166.8804
337.4626, 156.9095
337.9448, 148.6828
338.4269, 142.1401
338.9090, 136.5005
339.3911, 131.6238
339.8732, 127.3901
340.3553, 123.6678
340.8375, 120.4691
341.3196, 117.6324
341.8017, 114.9775
342.2838, 112.5033
342.7659, 110.4794
343.2480, 109.2275
343.7302, 108.2969
344.2123, 107.2447
344.6944, 106.0400
345.1765, 104.7893
345.6586, 103.5274
346.1407, 102.2888
346.6229, 101.1977
347.1050, 100.1837
347.5871, 99.39140
348.0692, 99.03630
348.5513, 99.01714
349.0334, 98.88058
349.5156, 98.29455
349.9977, 97.58211
350.4798, 97.74224
350.9619, 99.44184
351.4440, 100.5349
351.9261, 99.88329
352.4083, 98.28440
352.8904, 97.07333
353.3725, 96.67876
353.8546, 96.57009
354.3367, 95.89327
354.8188, 94.38182
355.3010, 93.47511
355.7831, 93.99722
356.2652, 94.74561
356.7473, 94.45760
357.2294, 93.06374
357.7115, 91.63462
358.1937, 91.12131
358.6758, 91.57928
359.1579, 91.90151
359.6400, 92.05885
360.1221, 92.12558
360.6042, 92.05611
361.0863, 91.91743
361.5685, 91.88555
362.0506, 92.07410
362.5327, 92.41724
363.0148, 92.64321
363.4969, 92.71980
363.9790, 92.72994
364.4612, 92.67683
364.9433, 92.56664
365.4254, 92.35681
365.9075, 92.04070
366.3896, 91.75539
366.8717, 91.72855
367.3539, 92.09647
367.8360, 92.43694
368.3181, 92.61658
368.8002, 92.87019
369.2823, 93.57610
369.7644, 94.60621
370.2466, 95.32703
370.7287, 95.10156
371.2108, 93.85651
371.6929, 92.91656
372.1750, 92.36435
372.6571, 91.99957
373.1393, 91.78529
373.6214, 91.71400
374.1035, 91.80760
374.5856, 92.08751
375.0677, 92.48563
375.5498, 92.78627
376.0320, 92.97334
376.5141, 93.07095
376.9962, 92.97143
377.4783, 92.85567
377.9604, 92.90557
378.4425, 93.15517
378.9247, 93.46879
379.4068, 93.66871
379.8889, 93.73667
380.3710, 93.75224
380.8531, 93.71133
381.3352, 93.62172
381.8174, 93.53873
382.2995, 93.41640
382.7816, 93.11919
383.2637, 92.49046
383.7458, 91.59859
384.2279, 90.93121
384.7101, 90.60672
385.1922, 90.34152
385.6743, 89.90736
386.1564, 89.52293
386.6385, 89.55695
387.1206, 90.22360
387.6028, 90.98711
388.0849, 90.84740
388.5670, 89.54102
389.0491, 88.59695
389.5312, 88.75008
390.0133, 89.11250
390.4955, 89.04638
390.9776, 88.53231
391.4597, 88.09357
391.9418, 88.29282
392.4239, 88.98315
392.9060, 89.24330
393.3882, 88.78615
393.8703, 88.28872
394.3524, 88.18038
394.8345, 88.35647
395.3166, 88.61416
395.7987, 88.88979
396.2809, 89.20075
396.7630, 89.69567
397.2451, 90.41423
397.7272, 90.71999
398.2093, 89.97636
398.6914, 88.85812
399.1736, 88.48901
399.6557, 89.12270
400.1378, 89.78134
400.6199, 89.84131
401.1020, 89.48052
401.5841, 89.15144
402.0662, 88.93616
402.5483, 88.83965
403.0305, 88.89668
403.5126, 89.09605
403.9947, 89.35954
404.4768, 89.80523
404.9589, 90.22205
405.4410, 90.37688
405.9232, 90.27759
406.4053, 90.11083
406.8874, 89.95564
407.3695, 89.84531
407.8516, 89.93447
408.3337, 90.41425
408.8159, 90.84192
409.2980, 90.95398
409.7801, 90.95672
410.2622, 91.22964
410.7443, 91.91226
411.2264, 92.74311
411.7086, 93.30767
412.1907, 93.48805
412.6728, 93.66019
413.1549, 93.65700
413.6370, 93.77629
414.1191, 94.33024
414.6013, 95.23811
415.0834, 96.09103
415.5655, 96.52547
416.0476, 96.58855
416.5297, 97.07816
417.0118, 98.28708
417.4940, 99.60332
417.9761, 101.1623
418.4582, 102.6909
418.9403, 103.6848
419.4224, 103.9844
419.9045, 104.1784
420.3867, 105.3727
420.8688, 107.9808
421.3509, 110.4834
421.8330, 112.5477
422.3151, 114.7138
422.7972, 117.1588
423.2794, 119.9416
423.7615, 123.1322
424.2436, 126.7836
424.7257, 130.8882
425.2078, 135.2478
425.6899, 138.9117
426.1721, 144.6266
426.6542, 153.0735
427.1363, 163.9515
427.6184, 176.7317
428.1005, 191.0552
428.5826, 208.2686
429.0648, 230.0512
429.5469, 256.5432
430.0290, 286.0650
430.5111, 320.0771
430.9932, 354.9077
431.4753, 388.5576
431.9575, 420.7067
432.4396, 448.8256
432.9217, 470.0573
433.4038, 486.9208
433.8859, 502.6732
434.3680, 517.0363
434.8502, 533.6856
435.3323, 554.0370
435.8144, 578.9973
436.2965, 609.5088
436.7786, 645.6287
437.2607, 687.2294
437.7429, 734.1322
438.2250, 786.3477
438.7071, 843.7607
439.1892, 906.1198
439.6713, 974.1787
440.1534, 1048.302
440.6356, 1128.378
441.1177, 1217.427
441.5998, 1318.013
442.0819, 1425.344
442.5640, 1535.867
443.0461, 1649.185
443.5282, 1769.616
444.0103, 1901.566
444.4925, 2040.177
444.9746, 2156.376
445.4567, 2259.678
445.9388, 2327.157
446.4209, 2369.845
446.9030, 2368.059
447.3852, 2297.063
447.8673, 2152.731
448.3494, 1955.877
448.8315, 1724.285
449.3136, 1444.955
449.7957, 1196.944
450.2779, 978.1828
450.7600, 792.7034
451.2421, 647.9844
451.7242, 537.6188
452.2063, 451.5098
452.6884, 386.3600
453.1706, 337.8749
453.6527, 298.1527
454.1348, 268.6523
454.6169, 243.8708
455.0990, 224.2590
455.5811, 207.9160
456.0633, 194.2252
456.5454, 183.0234
457.0275, 173.3500
457.5096, 164.6732
457.9917, 156.9659
458.4738, 149.9910
458.9560, 143.7044
459.4381, 138.2144
459.9202, 133.8730
460.4023, 130.3588
460.8844, 127.1534
461.3665, 124.2804
461.8487, 121.5579
462.3308, 118.8738
462.8129, 116.2305
463.2950, 113.5953
463.7771, 110.8836
464.2592, 108.3335
464.7414, 106.3159
465.2235, 104.8788
465.7056, 103.5331
466.1877, 102.2051
466.6698, 100.9488
467.1519, 99.84869
467.6341, 98.87364
468.1162, 97.92599
468.5983, 96.96679
469.0804, 95.95277
469.5625, 94.71859
470.0446, 92.74409
470.5268, 91.21632
471.0089, 90.54444
471.4910, 90.17783
471.9731, 89.60502
472.4552, 88.73327
472.9373, 87.80706
473.4195, 87.10596
473.9016, 86.65413
474.3837, 86.10899
474.8658, 85.35213
475.3479, 84.63095
475.8300, 84.03638
476.3122, 83.51448
476.7943, 82.92188
477.2764, 82.17344
477.7585, 81.52720
478.2406, 81.52792
478.7227, 82.29048
479.2049, 82.63723
479.6870, 82.03349
480.1691, 81.27860
480.6512, 80.92399
481.1333, 80.93237
481.6154, 81.06425
482.0976, 81.28141
482.5797, 81.52230
483.0618, 81.67899
483.5439, 81.74878
484.0260, 81.81435
484.5081, 81.88540
484.9902, 82.00255
485.4724, 82.29787
485.9545, 82.93034
486.4366, 83.27480
486.9187, 82.67765
487.4008, 81.86298
487.8829, 81.86946
488.3651, 82.83130
488.8472, 84.11030
489.3293, 85.15880
489.8114, 85.98490
490.2935, 86.91577
490.7756, 87.98059
491.2578, 89.09171
491.7399, 90.14063
492.2220, 91.24805
492.7041, 92.58207
493.1862, 94.19331
493.6683, 96.00074
494.1505, 97.94692
494.6326, 100.1519
495.1147, 101.9990
495.5968, 103.1587
496.0789, 104.2622
496.5610, 106.0061
497.0432, 107.7989
497.5253, 108.5798
498.0074, 107.8167
498.4895, 105.7206
498.9716, 102.4228
499.4537, 97.71933
499.9359, 93.04040
500.4180, 88.34165
500.9001, 84.10278
501.3822, 80.64833
501.8643, 77.96533
502.3464, 75.97337
502.8286, 75.05249
503.3107, 74.59089
503.7928, 73.48450
504.2749, 71.70362
504.7570, 70.32736
505.2391, 70.05245
505.7213, 70.48064
506.2034, 70.56454
506.6855, 70.22648
507.1676, 69.78524
507.6497, 69.13453
508.1318, 68.52530
508.6140, 68.31822
509.0961, 68.52297
509.5782, 68.78576
510.0603, 68.79398
510.5424, 68.56374
511.0245, 68.42434
511.5067, 68.53747
511.9888, 68.54562
512.4709, 68.27608
512.9530, 67.92862
513.4351, 67.74116
513.9172, 67.76559
514.3994, 67.84355
514.8815, 67.76643
515.3636, 67.51537
515.8457, 67.36465
516.3278, 67.37067
516.8099, 67.40692
517.2921, 67.50443
517.7742, 67.57333
518.2563, 67.43643
518.7384, 66.97414
519.2205, 66.49721
519.7026, 66.34528
520.1848, 66.49172
520.6669, 66.75035
521.1490, 67.12324
521.6311, 67.51689
522.1132, 67.90645
522.5953, 68.26672
523.0775, 68.37028
523.5596, 67.90999
524.0417, 67.42027
524.5238, 67.37505
525.0059, 67.61505
525.4880, 67.59830
525.9702, 67.06777
526.4523, 66.43710
526.9344, 66.45113
527.4165, 67.51126
527.8986, 68.17619
528.3807, 68.28654
528.8629, 68.18857
529.3450, 67.94716
529.8271, 67.65813
530.3092, 67.49607
530.7913, 67.57194
531.2734, 67.76165
531.7556, 67.71745
532.2377, 67.27578
532.7198, 67.06612
533.2019, 67.36022
533.6840, 67.76511
534.1661, 68.07394
534.6483, 68.29906
535.1304, 68.55928
535.6125, 68.89092
536.0946, 69.31974
536.5767, 69.98162
537.0588, 70.89601
537.5410, 71.62172
538.0231, 71.93453
538.5052, 72.01082
538.9873, 72.07439
539.4694, 72.09365
539.9515, 72.30754
540.4337, 72.91580
540.9158, 73.66157
541.3979, 74.31725
541.8800, 74.86731
542.3621, 75.32573
542.8442, 75.65806
543.3264, 75.98253
543.8085, 76.70786
544.2906, 78.19915
544.7726, 79.59739
545.2548, 80.87296
545.7369, 82.06553
546.2190, 83.11671
546.7011, 84.08984
547.1832, 85.18069
547.6653, 86.53897
548.1475, 88.11367
548.6296, 89.70659
549.1117, 91.37163
549.5938, 92.90484
550.0759, 94.37255
550.5580, 95.59193
551.0402, 96.50821
551.5223, 97.08804
552.0044, 97.07407
552.4865, 96.09439
552.9686, 94.50454
553.4507, 92.96688
553.9329, 91.50997
554.4150, 89.70362
554.8971, 87.17667
555.3792, 84.26717
555.8613, 81.86097
556.3434, 80.01271
556.8256, 78.39983
557.3077, 76.98563
557.7898, 75.75175
558.2719, 74.68662
558.7540, 73.79272
559.2361, 73.12897
559.7183, 72.75411
560.2004, 72.59501
560.6825, 72.31423
561.1646, 71.69055
561.6467, 71.33906
562.1288, 71.70499
562.6110, 72.02517
563.0931, 71.63347
563.5752, 70.61436
564.0573, 69.63145
564.5394, 69.11987
565.0215, 68.98751
565.5037, 69.06929
565.9858, 69.41224
566.4679, 69.66199
566.9500, 69.65762
567.4321, 69.51692
567.9142, 69.40115
568.3964, 69.31281
568.8785, 69.21255
569.3606, 69.01385
569.8427, 68.84660
570.3248, 68.89098
570.8069, 69.10997
571.2891, 69.30170
571.7712, 69.36012
572.2533, 69.30666
572.7354, 69.18188
573.2175, 68.79421
573.6996, 68.68775
574.1818, 69.19630
574.6639, 69.67233
575.1460, 69.61172
575.6281, 69.17845
576.1102, 68.88692
576.5923, 69.05821
577.0745, 69.48136
577.5566, 69.68667
578.0387, 69.63354
578.5208, 69.58504
579.0029, 69.61487
579.4850, 69.63722
579.9672, 69.54276
580.4493, 69.37312
580.9314, 69.30788
581.4135, 69.50169
581.8956, 69.75378
582.3777, 69.80666
582.8599, 69.73668
583.3420, 69.91044
583.8241, 70.50912
584.3062, 71.11536
584.7883, 71.10298
585.2704, 70.25662
585.7526, 69.87156
586.2347, 70.20298
586.7168, 70.68674
587.1989, 71.22629
587.6810, 71.71280
588.1631, 71.95542
