##NAMES=Dickite
##RRUFFID=R060298
##IDEAL CHEMISTRY=Al_2_Si_2_O_5_(OH)_4_
##LOCALITY=Piast mine, Nowa Ruda, Sudety Mountains, Poland
##OWNER=RRUFF
##SOURCE=Herb Obodda
##DESCRIPTION=Greenish-blue massive
##STATUS=The identification of this mineral has been confirmed by X-ray diffraction and chemical analysis
##URL=rruff.info/R060298
##MEASURED CHEMISTRY=Al_2.00_Si_2.00_O_5_(OH)_4_ ; OH estimated by difference and charge balance
91.53320, 448.5179
92.01532, 450.4268
92.49744, 449.7690
92.97955, 450.9667
93.46167, 451.1987
93.94379, 451.1887
94.42590, 455.3882
94.90802, 460.2109
95.39014, 460.3895
95.87225, 455.1051
96.35437, 449.2723
96.83649, 444.9266
97.31860, 441.5458
97.80072, 438.6257
98.28284, 435.4522
98.76495, 431.7310
99.24707, 428.1953
99.72919, 424.5204
100.2113, 421.5973
100.6934, 419.7061
101.1755, 418.6151
101.6577, 417.9130
102.1398, 417.2098
102.6219, 416.3722
103.1040, 416.1485
103.5861, 417.1247
104.0682, 418.0000
104.5504, 417.5013
105.0325, 415.6465
105.5146, 414.0384
105.9967, 415.1490
106.4788, 420.8094
106.9609, 424.2834
107.4431, 423.1040
107.9252, 420.0695
108.4073, 419.2212
108.8894, 422.2657
109.3715, 427.0357
109.8536, 429.5136
110.3358, 429.2535
110.8179, 429.2287
111.3000, 431.2126
111.7821, 435.0250
112.2642, 438.9222
112.7463, 442.1312
113.2285, 445.2117
113.7106, 448.8078
114.1927, 453.1427
114.6748, 457.6393
115.1569, 461.4869
115.6390, 464.6268
116.1212, 467.2823
116.6033, 469.1809
117.0854, 470.8441
117.5675, 473.0287
118.0496, 476.3085
118.5317, 480.1042
119.0139, 481.5825
119.4960, 477.9630
119.9781, 474.7564
120.4602, 472.9043
120.9423, 472.1675
121.4244, 472.1953
121.9066, 472.9367
122.3887, 474.6214
122.8708, 473.4240
123.3529, 467.1294
123.8350, 460.6366
124.3171, 455.9261
124.7993, 453.2000
125.2814, 451.8394
125.7635, 451.2681
126.2456, 451.6245
126.7277, 452.8075
127.2098, 455.3805
127.6920, 458.5240
128.1741, 461.7559
128.6562, 465.1538
129.1383, 467.7221
129.6204, 467.4531
130.1025, 464.6901
130.5847, 462.3017
131.0668, 461.9417
131.5489, 462.9807
132.0310, 463.3306
132.5131, 462.9105
132.9952, 461.0734
133.4774, 457.6185
133.9595, 452.5435
134.4416, 446.0937
134.9237, 437.9877
135.4058, 427.8619
135.8879, 418.3954
136.3701, 409.8747
136.8522, 402.3578
137.3343, 396.2215
137.8164, 391.4820
138.2985, 387.5673
138.7806, 383.2794
139.2628, 377.4754
139.7449, 373.5813
140.2270, 373.0952
140.7091, 373.7536
141.1912, 373.3300
141.6733, 370.8278
142.1555, 367.1260
142.6376, 365.2919
143.1197, 367.6180
143.6018, 369.3810
144.0839, 369.7783
144.5660, 369.3248
145.0482, 368.8248
145.5303, 368.7109
146.0124, 368.9766
146.4945, 369.5863
146.9766, 371.7897
147.4587, 373.0692
147.9409, 371.2511
148.4230, 367.0879
148.9051, 364.1281
149.3872, 365.3806
149.8693, 370.1212
150.3514, 372.9706
150.8336, 372.3696
151.3157, 370.7560
151.7978, 370.4671
152.2799, 371.7432
152.7620, 372.9380
153.2441, 372.4066
153.7263, 370.9410
154.2084, 369.8277
154.6905, 369.9070
155.1726, 370.5727
155.6547, 370.2477
156.1368, 368.0235
156.6190, 366.5132
157.1011, 367.4258
157.5832, 369.9508
158.0653, 372.5997
158.5474, 374.8397
159.0295, 376.5852
159.5117, 376.6280
159.9938, 373.0813
160.4759, 369.5550
160.9580, 366.9776
161.4401, 365.4578
161.9222, 365.0110
162.4044, 365.9662
162.8865, 368.8034
163.3686, 370.1857
163.8507, 369.0982
164.3328, 367.5606
164.8149, 366.0669
165.2971, 364.8490
165.7792, 364.2249
166.2613, 364.6828
166.7434, 366.9607
167.2255, 368.1228
167.7076, 367.4679
168.1898, 366.3601
168.6719, 365.6638
169.1540, 365.5772
169.6361, 365.8928
170.1182, 366.4145
170.6003, 367.4994
171.0825, 367.7693
171.5646, 366.8609
172.0467, 365.2231
172.5288, 362.8349
173.0109, 359.4727
173.4930, 356.6382
173.9752, 357.7801
174.4573, 363.5116
174.9394, 367.8237
175.4215, 367.9960
175.9036, 365.5056
176.3857, 363.6879
176.8679, 363.6747
177.3500, 364.3492
177.8321, 364.2307
178.3142, 363.3005
178.7963, 362.0909
179.2784, 360.5162
179.7606, 358.7035
180.2427, 357.9280
180.7248, 359.6574
181.2069, 361.5623
181.6890, 361.2689
182.1711, 358.5226
182.6533, 355.6068
183.1354, 355.0583
183.6175, 357.2701
184.0996, 358.7355
184.5817, 357.4673
185.0638, 355.9274
185.5460, 355.6774
186.0281, 357.0301
186.5102, 358.9645
186.9923, 360.0065
187.4744, 359.7297
187.9565, 359.6771
188.4387, 360.1584
188.9208, 360.8295
189.4029, 361.7038
189.8850, 362.7286
190.3671, 363.4124
190.8492, 362.5908
191.3314, 358.0876
191.8135, 355.7472
192.2956, 357.7148
192.7777, 360.8374
193.2598, 362.0271
193.7419, 360.1198
194.2241, 356.6458
194.7062, 355.2951
195.1883, 358.7567
195.6704, 361.4047
196.1525, 363.1432
196.6346, 363.9954
197.1168, 363.9190
197.5989, 362.8807
198.0810, 361.0540
198.5631, 358.8643
199.0452, 354.9698
199.5273, 352.4600
200.0095, 353.3442
200.4916, 355.7346
200.9737, 356.3811
201.4558, 353.6294
201.9379, 348.6608
202.4200, 344.7529
202.9022, 341.9344
203.3843, 339.7926
203.8664, 338.8036
204.3485, 338.4726
204.8306, 337.1835
205.3127, 333.6378
205.7949, 329.4317
206.2770, 328.1391
206.7591, 330.9115
207.2412, 333.7894
207.7233, 334.1065
208.2054, 332.3018
208.6876, 331.1655
209.1697, 332.3411
209.6518, 334.3830
210.1339, 334.9929
210.6160, 333.6542
211.0981, 332.1258
211.5803, 331.9172
212.0624, 333.0311
212.5445, 334.1819
213.0266, 335.0044
213.5087, 335.5926
213.9908, 335.9371
214.4730, 335.9758
214.9551, 336.0933
215.4372, 337.0762
215.9193, 339.2511
216.4014, 340.2805
216.8836, 338.1616
217.3657, 335.3680
217.8478, 333.2608
218.3299, 332.1629
218.8120, 332.1302
219.2941, 333.4939
219.7763, 336.7187
220.2584, 339.8142
220.7405, 343.1031
221.2226, 345.7533
221.7047, 346.7230
222.1868, 345.8125
222.6690, 344.3875
223.1511, 344.7303
223.6332, 347.7857
224.1153, 350.5194
224.5974, 352.9209
225.0795, 354.7808
225.5617, 355.6887
226.0438, 355.6087
226.5259, 355.1746
227.0080, 355.4673
227.4901, 356.6872
227.9722, 358.3812
228.4544, 360.9466
228.9365, 363.6516
229.4186, 366.0138
229.9007, 367.8633
230.3828, 369.2054
230.8649, 369.9133
231.3471, 368.5259
231.8292, 369.0088
232.3113, 372.5764
232.7934, 377.1182
233.2755, 381.0355
233.7576, 383.8397
234.2398, 385.9908
234.7219, 388.2151
235.2040, 390.8407
235.6861, 392.8847
236.1682, 394.1091
236.6503, 394.8984
237.1325, 395.5396
237.6146, 396.1152
238.0967, 396.6174
238.5788, 397.0189
239.0609, 397.2286
239.5430, 397.5512
240.0252, 398.7182
240.5073, 399.6473
240.9894, 398.9494
241.4715, 396.3002
241.9536, 393.0729
242.4357, 391.2484
242.9179, 391.3853
243.4000, 390.4060
243.8821, 386.8963
244.3642, 382.6572
244.8463, 379.7787
245.3284, 378.7060
245.8106, 378.1935
246.2927, 376.5767
246.7748, 373.7659
247.2569, 372.0220
247.7390, 373.0468
248.2211, 374.7186
248.7033, 373.9482
249.1854, 369.9782
249.6675, 365.9239
250.1496, 365.4067
250.6317, 367.8742
251.1138, 369.8382
251.5960, 370.3300
252.0781, 370.0481
252.5602, 369.8389
253.0423, 369.7801
253.5244, 369.7722
254.0065, 369.4010
254.4887, 368.9548
254.9708, 369.4128
255.4529, 371.2866
255.9350, 374.0979
256.4171, 377.6043
256.8992, 382.1265
257.3813, 385.8311
257.8635, 386.4868
258.3456, 385.4775
258.8277, 385.0242
259.3098, 385.7582
259.7919, 387.3741
260.2740, 389.7835
260.7562, 393.2953
261.2383, 396.2513
261.7204, 396.0002
262.2025, 395.0431
262.6846, 396.8504
263.1667, 403.5085
263.6489, 412.0113
264.1310, 418.5572
264.6131, 423.1721
265.0952, 425.6952
265.5773, 425.0971
266.0594, 422.6865
266.5416, 419.3936
267.0237, 415.3789
267.5058, 410.7880
267.9879, 405.7680
268.4700, 400.3391
268.9521, 394.4522
269.4343, 386.8814
269.9164, 379.4703
270.3985, 373.9627
270.8806, 370.8781
271.3627, 368.6631
271.8448, 365.6642
272.3270, 361.9178
272.8091, 357.1127
273.2912, 349.9261
273.7733, 342.3956
274.2554, 335.1642
274.7375, 328.4103
275.2197, 323.2998
275.7018, 321.6960
276.1839, 324.2302
276.6660, 326.1833
277.1481, 327.3100
277.6302, 327.3275
278.1124, 325.3108
278.5945, 321.5334
279.0766, 317.8490
279.5587, 316.1318
280.0408, 316.5523
280.5229, 317.3650
281.0051, 319.9820
281.4872, 321.6748
281.9693, 320.7271
282.4514, 317.6408
282.9335, 314.3059
283.4156, 312.4329
283.8978, 312.0633
284.3799, 311.1572
284.8620, 308.8653
285.3441, 306.8807
285.8262, 305.9410
286.3083, 305.7661
286.7905, 305.6473
287.2726, 304.9764
287.7547, 303.8833
288.2368, 303.7172
288.7189, 305.7548
289.2010, 307.2082
289.6832, 307.0166
290.1653, 305.8379
290.6474, 304.7145
291.1295, 304.2831
291.6116, 304.2931
292.0938, 303.6435
292.5759, 301.3122
293.0580, 299.8369
293.5401, 299.9775
294.0222, 301.0420
294.5043, 302.5576
294.9865, 304.3624
295.4686, 305.8703
295.9507, 305.3606
296.4328, 300.6298
296.9149, 297.8822
297.3970, 298.6826
297.8792, 301.0057
298.3613, 303.4882
298.8434, 305.6200
299.3255, 307.1145
299.8076, 307.3993
300.2897, 305.9570
300.7719, 304.4065
301.2540, 302.3448
301.7361, 300.5569
302.2182, 299.5656
302.7003, 299.4393
303.1824, 299.8429
303.6646, 300.4380
304.1467, 301.2976
304.6288, 302.0756
305.1109, 302.7177
305.5930, 303.3351
306.0751, 303.9655
306.5573, 304.6146
307.0394, 305.2512
307.5215, 305.7716
308.0036, 306.1309
308.4857, 307.1116
308.9678, 309.8244
309.4500, 312.0863
309.9321, 312.7607
310.4142, 312.5054
310.8963, 312.7693
311.3784, 314.6429
311.8605, 317.8422
312.3427, 320.0687
312.8248, 320.0576
313.3069, 320.5350
313.7890, 321.7962
314.2711, 323.8803
314.7532, 327.2192
315.2354, 332.1085
315.7175, 337.5036
316.1996, 340.0796
316.6817, 336.6938
317.1638, 335.5012
317.6459, 338.9957
318.1281, 343.9562
318.6102, 347.3377
319.0923, 348.2299
319.5744, 348.1384
320.0565, 349.7318
320.5386, 354.3056
321.0208, 357.5363
321.5029, 357.9223
321.9850, 358.1225
322.4671, 359.7697
322.9492, 363.0523
323.4313, 367.1529
323.9135, 371.4721
324.3956, 376.2992
324.8777, 379.7852
325.3598, 380.3758
325.8419, 381.0684
326.3240, 383.0977
326.8062, 386.2528
327.2883, 389.5681
327.7704, 392.1249
328.2525, 394.0542
328.7346, 397.7987
329.2167, 405.3781
329.6989, 412.6218
330.1810, 418.3946
330.6631, 423.2316
331.1452, 428.0717
331.6273, 433.5061
332.1094, 439.0125
332.5916, 443.0721
333.0737, 446.0845
333.5558, 446.6664
334.0379, 444.2817
334.5200, 439.9651
335.0021, 434.6308
335.4843, 428.5744
335.9664, 421.6034
336.4485, 413.1813
336.9306, 402.5508
337.4127, 392.6684
337.8948, 383.5678
338.3770, 375.4109
338.8591, 368.5749
339.3412, 362.9288
339.8233, 357.8373
340.3055, 352.6604
340.7876, 347.3949
341.2697, 342.2546
341.7518, 336.7233
342.2339, 331.9221
342.7160, 328.8434
343.1982, 326.8653
343.6803, 324.3825
344.1624, 319.8397
344.6445, 313.9954
345.1266, 310.8882
345.6087, 312.3375
346.0909, 313.6593
346.5730, 313.4457
347.0551, 312.1899
347.5372, 310.4687
348.0193, 308.4722
348.5014, 306.2164
348.9836, 303.3212
349.4657, 299.1157
349.9478, 296.5960
350.4299, 298.2204
350.9120, 300.8040
351.3941, 302.1996
351.8763, 301.9920
352.3584, 300.8896
352.8405, 299.1911
353.3226, 296.8473
353.8047, 295.4977
354.2868, 295.9738
354.7690, 296.9154
355.2511, 297.6731
355.7332, 298.1810
356.2153, 298.3152
356.6974, 297.5927
357.1795, 296.3656
357.6617, 296.1831
358.1438, 297.6460
358.6259, 298.9345
359.1080, 298.8973
359.5901, 298.0468
360.0722, 297.1349
360.5544, 296.3537
361.0365, 295.7133
361.5186, 295.2231
362.0007, 294.8889
362.4828, 294.6718
362.9649, 294.4683
363.4471, 294.4426
363.9292, 294.8864
364.4113, 295.9570
364.8934, 296.9211
365.3755, 297.2741
365.8576, 297.0497
366.3398, 296.3214
366.8219, 294.7455
367.3040, 293.2081
367.7861, 292.9992
368.2682, 293.9555
368.7503, 294.1752
369.2325, 292.0167
369.7146, 288.8971
370.1967, 287.5015
370.6788, 288.3035
371.1609, 289.2694
371.6430, 288.5074
372.1252, 286.6286
372.6073, 285.7071
373.0894, 286.7210
373.5715, 288.2177
374.0536, 289.1070
374.5357, 289.4632
375.0179, 289.8157
375.5000, 290.6020
375.9821, 291.3438
376.4642, 290.8719
376.9463, 288.7504
377.4284, 286.6242
377.9106, 284.8071
378.3927, 283.4467
378.8748, 282.9702
379.3569, 283.5617
379.8390, 284.5019
380.3211, 284.8766
380.8033, 284.5771
381.2854, 284.3050
381.7675, 284.4998
382.2496, 284.4611
382.7317, 283.1340
383.2138, 280.7334
383.6960, 279.0505
384.1781, 279.6535
384.6602, 282.3059
385.1423, 283.4684
385.6244, 281.4990
386.1065, 280.1591
386.5887, 281.5079
387.0708, 284.1678
387.5529, 285.6221
388.0350, 284.7278
388.5171, 282.5653
388.9992, 281.5116
389.4814, 282.5460
389.9635, 283.2658
390.4456, 283.3675
390.9277, 283.3625
391.4098, 283.6540
391.8919, 284.2990
392.3741, 285.1457
392.8562, 286.0970
393.3383, 287.2414
393.8204, 287.8214
394.3025, 287.9692
394.7846, 287.4709
395.2668, 285.6930
395.7489, 283.2679
396.2310, 281.1890
396.7131, 279.9858
397.1952, 279.7134
397.6773, 280.6667
398.1595, 283.9619
398.6416, 286.6573
399.1237, 288.1375
399.6058, 289.0848
400.0879, 290.0557
400.5700, 291.1888
401.0522, 292.2972
401.5343, 292.7752
402.0164, 292.2029
402.4985, 293.5902
402.9806, 300.1139
403.4627, 305.7047
403.9449, 306.8423
404.4270, 304.8394
404.9091, 303.4137
405.3912, 305.3000
405.8733, 309.2103
406.3554, 310.9435
406.8376, 309.6840
407.3197, 308.2930
407.8018, 307.6971
408.2839, 307.6464
408.7660, 307.9972
409.2481, 308.7568
409.7303, 309.7035
410.2124, 310.4139
410.6945, 310.9513
411.1766, 312.4999
411.6587, 316.2911
412.1408, 319.8849
412.6230, 320.4742
413.1051, 318.5108
413.5872, 317.3535
414.0693, 319.6028
414.5514, 323.0846
415.0335, 323.7271
415.5157, 320.9967
415.9978, 318.8981
416.4799, 320.3936
416.9620, 324.4962
417.4441, 327.8365
417.9262, 330.2266
418.4084, 331.9327
418.8905, 333.0444
419.3726, 333.5832
419.8547, 333.3839
420.3368, 332.2041
420.8189, 330.8885
421.3011, 330.8448
421.7832, 332.2675
422.2653, 334.0384
422.7474, 336.6466
423.2295, 339.1516
423.7116, 340.5819
424.1938, 340.9800
424.6759, 341.1158
425.1580, 341.3794
425.6401, 341.8604
426.1222, 344.3350
426.6043, 350.9633
427.0865, 356.7466
427.5686, 360.4121
428.0507, 362.5127
428.5328, 363.6052
429.0149, 363.9408
429.4970, 364.1010
429.9792, 365.2428
430.4613, 368.4844
430.9434, 370.2181
431.4255, 369.5886
431.9076, 368.4929
432.3897, 368.1784
432.8719, 368.4326
433.3540, 368.1852
433.8361, 366.5611
434.3182, 363.7209
434.8003, 360.6979
435.2824, 356.9750
435.7646, 353.9355
436.2467, 352.6443
436.7288, 351.7871
437.2109, 349.6778
437.6930, 345.7671
438.1751, 341.7624
438.6573, 340.0539
439.1394, 340.8351
439.6215, 341.2698
440.1036, 341.1605
440.5857, 340.3695
441.0678, 338.0902
441.5500, 334.9199
442.0321, 333.0455
442.5142, 334.3878
442.9963, 337.3908
443.4784, 339.1743
443.9605, 339.5892
444.4427, 339.9299
444.9248, 340.7108
445.4069, 341.8885
445.8890, 343.2483
446.3711, 344.6241
446.8532, 346.6371
447.3354, 350.4907
447.8175, 355.1271
448.2996, 358.0988
448.7817, 358.7490
449.2638, 358.3603
449.7459, 357.8134
450.2281, 357.0910
450.7102, 358.2748
451.1923, 363.3336
451.6744, 368.6389
452.1565, 371.3692
452.6386, 372.3419
453.1208, 374.4071
453.6029, 379.1888
454.0850, 385.5822
454.5671, 390.5190
455.0492, 392.3723
455.5313, 394.9403
456.0135, 399.1098
456.4956, 403.4481
456.9777, 406.6591
457.4598, 408.6986
457.9419, 410.6796
458.4240, 413.8524
458.9062, 418.2504
459.3883, 421.0240
459.8704, 420.9655
460.3525, 420.5317
460.8346, 420.3475
461.3167, 420.0563
461.7989, 419.3110
462.2810, 417.9842
462.7631, 415.7909
463.2452, 411.9030
463.7273, 405.8910
464.2094, 400.7501
464.6916, 397.6138
465.1737, 394.7409
465.6558, 390.9306
466.1379, 386.4606
466.6200, 382.4544
467.1021, 380.3719
467.5843, 378.7652
468.0664, 374.1962
468.5485, 366.1447
469.0306, 358.7227
469.5127, 353.4897
469.9948, 350.2374
470.4770, 348.9270
470.9591, 350.3026
471.4412, 350.8056
471.9233, 347.9375
472.4054, 343.1712
472.8875, 339.2585
473.3697, 336.7207
473.8518, 334.4431
474.3339, 331.3481
474.8160, 327.4626
475.2981, 324.2105
475.7802, 321.9567
476.2624, 319.9421
476.7445, 317.1169
477.2266, 314.3842
477.7087, 313.8221
478.1908, 316.2808
478.6729, 320.0747
479.1551, 322.2495
479.6372, 322.6769
480.1193, 321.5624
480.6014, 317.5804
481.0835, 313.4526
481.5656, 310.5411
482.0478, 308.8089
482.5299, 307.8204
483.0120, 307.4458
483.4941, 307.3011
483.9762, 305.7220
484.4583, 301.3972
484.9405, 298.3558
485.4226, 298.6534
485.9047, 299.5625
486.3868, 298.7028
486.8689, 295.8987
487.3510, 293.1894
487.8332, 292.7185
488.3153, 293.9255
488.7974, 294.0384
489.2795, 292.8181
489.7616, 290.8387
490.2437, 287.5638
490.7259, 283.9496
491.2080, 281.6221
491.6901, 281.5348
492.1722, 281.4891
492.6543, 278.9260
493.1364, 275.0944
493.6186, 274.2705
494.1007, 278.1416
494.5828, 282.5664
495.0649, 282.2425
495.5470, 276.5352
496.0291, 273.5724
496.5113, 276.3525
496.9934, 279.3828
497.4755, 279.1096
497.9576, 276.5036
498.4397, 274.2642
498.9218, 273.7029
499.4040, 274.1558
499.8861, 274.2019
500.3682, 273.9522
500.8503, 273.0214
501.3324, 270.3494
501.8145, 267.9722
502.2967, 267.2746
502.7788, 268.0334
503.2609, 269.2319
503.7430, 270.3224
504.2251, 271.1255
504.7072, 270.7398
505.1894, 268.3379
505.6715, 266.6473
506.1536, 267.2107
506.6357, 268.1830
507.1178, 268.0494
507.5999, 266.6545
508.0821, 265.0818
508.5642, 264.1508
509.0463, 263.6605
509.5284, 263.0257
510.0105, 262.2110
510.4926, 261.2839
510.9748, 260.3953
511.4569, 259.3845
511.9390, 257.7877
512.4211, 254.8846
512.9032, 252.6959
513.3853, 252.7894
513.8674, 254.1079
514.3495, 254.6225
514.8317, 253.8874
515.3138, 253.4108
515.7959, 255.0150
516.2780, 258.9720
516.7601, 260.7306
517.2422, 259.0074
517.7244, 256.9112
518.2065, 255.5824
518.6886, 254.5032
519.1707, 252.4716
519.6528, 249.1585
520.1349, 245.9998
520.6171, 245.5708
521.0992, 248.9296
521.5813, 250.6995
522.0634, 249.0987
522.5455, 247.6204
523.0276, 247.4220
523.5098, 248.2744
523.9919, 249.7619
524.4740, 251.9221
524.9561, 254.0181
525.4382, 254.7818
525.9203, 254.1793
526.4025, 253.8933
526.8846, 254.4383
527.3667, 255.2482
527.8488, 256.1638
528.3309, 257.0473
528.8130, 256.8129
529.2952, 254.0105
529.7773, 250.8224
530.2594, 249.2347
530.7415, 249.0714
531.2236, 249.3998
531.7057, 249.9095
532.1879, 250.3972
532.6700, 250.4376
533.1521, 249.6973
533.6342, 249.2691
534.1163, 249.0868
534.5984, 249.2957
535.0806, 250.2607
535.5627, 251.7200
536.0448, 253.0957
536.5269, 254.0773
537.0090, 254.5162
537.4911, 253.7617
537.9733, 250.8034
538.4554, 248.8770
538.9375, 249.3053
539.4196, 250.0461
539.9017, 249.7527
540.3839, 248.5450
540.8660, 247.4928
541.3481, 247.5838
541.8302, 248.1263
542.3123, 247.2371
542.7944, 244.6694
543.2766, 242.9126
543.7587, 243.3742
544.2408, 244.8204
544.7229, 245.6021
545.2050, 245.7523
545.6871, 245.1146
546.1693, 242.6616
546.6514, 239.9950
547.1335, 239.0945
547.6156, 239.8600
548.0977, 240.6807
548.5798, 240.5510
549.0620, 239.8127
549.5441, 239.6223
550.0262, 240.2058
550.5083, 241.0830
550.9904, 242.5818
551.4725, 244.1234
551.9547, 245.4931
552.4368, 246.5235
552.9189, 246.8344
553.4010, 245.9763
553.8831, 244.3636
554.3652, 243.8517
554.8474, 245.1787
555.3295, 245.7499
555.8116, 244.0618
556.2937, 241.9568
556.7758, 240.4976
557.2579, 239.8342
557.7401, 240.0429
558.2222, 242.2450
558.7043, 244.9283
559.1864, 244.9818
559.6685, 242.3139
560.1506, 240.1194
560.6328, 240.0811
561.1149, 241.3401
561.5970, 242.0904
562.0791, 242.2679
562.5612, 242.2642
563.0433, 242.0777
563.5255, 241.7904
564.0076, 241.7037
564.4897, 241.6350
564.9718, 240.6995
565.4539, 238.1722
565.9360, 234.8887
566.4182, 233.8220
566.9003, 236.6646
567.3824, 238.5421
567.8645, 239.1915
568.3466, 238.8496
568.8287, 236.7657
569.3109, 233.6628
569.7930, 231.8619
570.2751, 233.3573
570.7572, 236.4612
571.2393, 237.3209
571.7214, 235.6980
572.2036, 234.8172
572.6857, 236.4259
573.1678, 238.3939
573.6499, 237.7890
574.1320, 234.6954
574.6141, 232.5339
575.0963, 232.7225
575.5784, 233.8365
576.0605, 235.2036
576.5426, 236.4910
577.0247, 236.5981
577.5068, 234.8900
577.9890, 232.6289
578.4711, 232.3619
578.9532, 235.7654
579.4353, 236.8354
579.9174, 233.5423
580.3995, 230.2501
580.8817, 229.2006
581.3638, 229.6961
581.8459, 230.0588
582.3280, 229.4646
582.8101, 228.6903
583.2922, 229.2579
583.7744, 231.3112
584.2565, 232.4811
584.7386, 231.8553
585.2207, 231.1592
585.7029, 231.8659
586.1850, 233.4461
586.6671, 234.5262
587.1492, 234.4149
