##NAMES=Dickite
##RRUFFID=R090054
##IDEAL CHEMISTRY=Al_2_Si_2_O_5_(OH)_4_
##LOCALITY=Schuylkill county, Pennsylvania, USA
##OWNER=RRUFF
##SOURCE=Mineralogical Museum, Harvard University
##DESCRIPTION=Unconsolidated mass of hexagonal platelets associated with minor quartz crystals.
##STATUS=The identification of this mineral has been confirmed by X-ray diffraction.
##URL=rruff.info/R090054
89.78156, 0.0000000E+00
90.26367, 38.44491
90.74579, 38.55625
91.22791, 38.73686
91.71002, 38.93607
92.19214, 38.67964
92.67426, 36.93443
93.15638, 34.34282
93.63850, 32.70116
94.12061, 33.33764
94.60273, 35.11480
95.08485, 34.87806
95.56696, 32.32375
96.04908, 29.82180
96.53120, 31.00210
97.01331, 35.62892
97.49543, 39.35431
97.97755, 39.66681
98.45966, 36.79476
98.94178, 35.23469
99.42390, 35.38811
99.90602, 36.32117
100.3881, 36.10549
100.8703, 34.39053
101.3524, 32.76269
101.8345, 32.04382
102.3166, 32.41234
102.7987, 32.95657
103.2808, 33.61272
103.7630, 34.40350
104.2451, 35.49390
104.7272, 37.34273
105.2093, 38.89791
105.6914, 39.42260
106.1735, 38.22953
106.6557, 37.15436
107.1378, 36.22857
107.6199, 35.42461
108.1020, 35.54953
108.5841, 37.70715
109.0662, 40.21586
109.5484, 41.59497
110.0305, 40.21226
110.5126, 39.33635
110.9947, 39.67995
111.4768, 41.54262
111.9590, 43.28504
112.4411, 43.83946
112.9232, 44.42926
113.4053, 46.60934
113.8874, 52.34932
114.3695, 58.36279
114.8517, 63.15406
115.3338, 65.75086
115.8159, 69.14918
116.2980, 74.45982
116.7801, 81.24448
117.2622, 88.47177
117.7444, 94.73481
118.2265, 101.9717
118.7086, 111.5023
119.1907, 124.3217
119.6728, 138.5725
120.1549, 152.9437
120.6371, 167.7717
121.1192, 184.4929
121.6013, 205.4878
122.0834, 228.1519
122.5655, 249.4462
123.0476, 267.4944
123.5298, 284.6456
124.0119, 303.2964
124.4940, 323.3188
124.9761, 342.9894
125.4582, 360.9460
125.9404, 377.4441
126.4225, 392.8134
126.9046, 406.7110
127.3867, 419.7011
127.8688, 432.5270
128.3509, 445.1602
128.8331, 457.9065
129.3152, 470.4494
129.7973, 483.1668
130.2794, 497.5855
130.7615, 514.1163
131.2436, 532.8704
131.7258, 554.3929
132.2079, 579.0594
132.6900, 605.4534
133.1721, 631.4975
133.6542, 657.0684
134.1364, 683.1795
134.6185, 711.2642
135.1006, 741.3090
135.5827, 769.5276
136.0648, 795.6606
136.5469, 820.1094
137.0291, 844.0446
137.5112, 867.5258
137.9933, 889.5910
138.4754, 909.4474
138.9575, 926.5039
139.4396, 944.2054
139.9218, 963.6062
140.4039, 983.8337
140.8860, 999.9910
141.3681, 1010.923
141.8502, 1019.620
142.3323, 1028.415
142.8145, 1038.605
143.2966, 1045.751
143.7787, 1048.111
144.2608, 1045.812
144.7429, 1045.412
145.2250, 1046.931
145.7072, 1050.341
146.1893, 1055.792
146.6714, 1064.660
147.1535, 1073.458
147.6356, 1080.902
148.1178, 1086.335
148.5999, 1094.660
149.0820, 1107.214
149.5641, 1122.081
150.0462, 1136.926
150.5283, 1152.944
151.0105, 1167.564
151.4926, 1168.883
151.9747, 1164.225
152.4568, 1162.801
152.9389, 1167.794
153.4210, 1175.375
153.9032, 1180.259
154.3853, 1180.089
154.8674, 1178.826
155.3495, 1177.700
155.8316, 1176.998
156.3137, 1175.947
156.7959, 1173.342
157.2780, 1170.347
157.7601, 1169.184
158.2422, 1171.745
158.7243, 1175.119
159.2065, 1177.865
159.6886, 1179.205
160.1707, 1180.834
160.6528, 1183.287
161.1349, 1186.371
161.6170, 1189.615
162.0992, 1193.588
162.5813, 1197.209
163.0634, 1199.680
163.5455, 1199.882
164.0276, 1200.192
164.5097, 1202.129
164.9919, 1205.221
165.4740, 1207.620
165.9561, 1207.552
166.4382, 1206.795
166.9203, 1206.999
167.4024, 1209.615
167.8846, 1212.316
168.3667, 1213.540
168.8488, 1213.480
169.3309, 1213.332
169.8130, 1213.968
170.2952, 1214.882
170.7773, 1215.435
171.2594, 1215.076
171.7415, 1214.514
172.2236, 1214.126
172.7057, 1213.922
173.1879, 1214.281
173.6700, 1215.980
174.1521, 1218.358
174.6342, 1220.311
175.1163, 1221.774
175.5984, 1222.428
176.0806, 1221.362
176.5627, 1218.548
177.0448, 1215.916
177.5269, 1215.672
178.0090, 1216.960
178.4911, 1217.742
178.9733, 1215.935
179.4554, 1213.466
179.9375, 1214.028
180.4196, 1217.941
180.9017, 1222.077
181.3838, 1223.000
181.8660, 1221.354
182.3481, 1219.425
182.8302, 1218.332
183.3123, 1217.729
183.7944, 1216.547
184.2766, 1214.587
184.7587, 1213.010
185.2408, 1213.727
185.7229, 1216.371
186.2050, 1218.698
186.6871, 1219.514
187.1693, 1219.106
187.6514, 1218.269
188.1335, 1216.840
188.6156, 1215.549
189.0977, 1215.471
189.5798, 1216.558
190.0620, 1218.115
190.5441, 1220.076
191.0262, 1222.307
191.5083, 1223.857
191.9904, 1224.478
192.4725, 1224.885
192.9547, 1226.514
193.4368, 1229.422
193.9189, 1232.225
194.4010, 1233.924
194.8831, 1234.630
195.3652, 1236.024
195.8474, 1238.348
196.3295, 1241.217
196.8116, 1244.075
197.2937, 1246.973
197.7758, 1249.355
198.2579, 1251.055
198.7401, 1252.084
199.2222, 1251.809
199.7043, 1250.154
200.1864, 1247.216
200.6685, 1242.970
201.1507, 1237.275
201.6328, 1230.969
202.1149, 1223.897
202.5970, 1215.757
203.0791, 1210.015
203.5612, 1207.453
204.0434, 1207.129
204.5255, 1206.806
205.0076, 1206.650
205.4897, 1205.966
205.9718, 1204.253
206.4539, 1201.399
206.9361, 1198.048
207.4182, 1193.582
207.9003, 1188.981
208.3824, 1187.770
208.8645, 1191.093
209.3466, 1194.828
209.8288, 1196.366
210.3109, 1195.187
210.7930, 1194.071
211.2751, 1193.180
211.7572, 1192.547
212.2393, 1192.169
212.7215, 1191.812
213.2036, 1192.201
213.6857, 1194.102
214.1678, 1198.231
214.6499, 1201.353
215.1320, 1202.798
215.6142, 1203.064
216.0963, 1204.238
216.5784, 1206.307
217.0605, 1209.253
217.5426, 1213.388
218.0247, 1219.451
218.5069, 1224.300
218.9890, 1227.126
219.4711, 1228.502
219.9532, 1231.141
220.4353, 1235.243
220.9175, 1240.331
221.3996, 1246.432
221.8817, 1254.233
222.3638, 1261.039
222.8459, 1265.947
223.3280, 1269.621
223.8102, 1275.160
224.2923, 1283.574
224.7744, 1292.418
225.2565, 1300.085
225.7386, 1306.109
226.2207, 1311.918
226.7029, 1317.108
227.1850, 1322.084
227.6671, 1328.954
228.1492, 1339.003
228.6313, 1349.118
229.1134, 1357.204
229.5956, 1362.071
230.0777, 1367.851
230.5598, 1375.681
231.0419, 1384.819
231.5240, 1391.396
232.0062, 1393.301
232.4883, 1395.554
232.9704, 1401.562
233.4525, 1413.923
233.9346, 1424.282
234.4167, 1431.489
234.8989, 1436.129
235.3810, 1440.903
235.8631, 1446.142
236.3452, 1451.133
236.8273, 1455.660
237.3094, 1460.264
237.7916, 1463.125
238.2737, 1463.753
238.7558, 1462.524
239.2379, 1461.116
239.7200, 1459.900
240.2021, 1457.972
240.6843, 1454.894
241.1664, 1450.804
241.6485, 1445.254
242.1306, 1438.098
242.6127, 1429.468
243.0948, 1420.083
243.5770, 1409.976
244.0591, 1399.090
244.5412, 1387.341
245.0233, 1373.821
245.5054, 1361.370
245.9876, 1350.125
246.4697, 1340.066
246.9518, 1330.845
247.4339, 1322.783
247.9160, 1315.041
248.3981, 1307.220
248.8803, 1298.847
249.3624, 1291.337
249.8445, 1284.643
250.3266, 1278.813
250.8087, 1273.998
251.2908, 1270.275
251.7730, 1267.453
252.2551, 1265.756
252.7372, 1266.177
253.2193, 1264.949
253.7014, 1261.222
254.1835, 1256.221
254.6657, 1252.868
255.1478, 1251.876
255.6299, 1251.277
256.1120, 1250.117
256.5941, 1247.858
257.0763, 1246.879
257.5584, 1247.579
258.0405, 1249.316
258.5226, 1250.928
259.0047, 1252.746
259.4868, 1253.793
259.9690, 1253.272
260.4511, 1250.427
260.9332, 1249.593
261.4153, 1251.344
261.8974, 1254.589
262.3795, 1257.537
262.8617, 1260.186
263.3438, 1262.586
263.8259, 1264.716
264.3080, 1266.506
264.7901, 1268.447
265.2722, 1270.652
265.7544, 1272.858
266.2365, 1274.543
266.7186, 1275.435
267.2007, 1276.674
267.6828, 1279.103
268.1649, 1282.950
268.6471, 1284.045
269.1292, 1281.565
269.6113, 1277.681
270.0934, 1275.178
270.5755, 1274.472
271.0576, 1273.531
271.5398, 1272.151
272.0219, 1270.279
272.5040, 1265.686
272.9861, 1257.172
273.4682, 1248.648
273.9503, 1244.603
274.4325, 1245.824
274.9146, 1247.297
275.3967, 1247.972
275.8788, 1247.905
276.3610, 1247.459
276.8431, 1246.600
277.3252, 1245.487
277.8073, 1244.134
278.2894, 1242.499
278.7715, 1241.289
279.2537, 1240.900
279.7358, 1241.000
280.2179, 1239.948
280.7000, 1237.505
281.1821, 1235.023
281.6642, 1233.458
282.1464, 1232.816
282.6285, 1232.970
283.1106, 1234.171
283.5927, 1235.924
284.0748, 1236.937
284.5569, 1237.175
285.0391, 1236.880
285.5212, 1235.472
286.0033, 1233.173
286.4854, 1233.126
286.9675, 1236.380
287.4496, 1241.016
287.9318, 1243.107
288.4139, 1242.623
288.8960, 1241.550
289.3781, 1240.742
289.8602, 1240.266
290.3423, 1240.480
290.8245, 1241.455
291.3066, 1243.070
291.7887, 1245.665
292.2708, 1249.088
292.7529, 1251.681
293.2350, 1252.376
293.7172, 1251.530
294.1993, 1249.845
294.6814, 1247.135
295.1635, 1244.637
295.6456, 1243.578
296.1277, 1243.958
296.6099, 1245.877
297.0920, 1250.163
297.5741, 1255.813
298.0562, 1261.463
298.5383, 1267.172
299.0204, 1271.194
299.5026, 1270.228
299.9847, 1266.002
300.4668, 1263.073
300.9489, 1263.846
301.4311, 1266.668
301.9132, 1269.545
302.3953, 1272.501
302.8774, 1275.358
303.3595, 1278.576
303.8416, 1281.551
304.3238, 1283.176
304.8059, 1282.004
305.2880, 1280.375
305.7701, 1280.660
306.2522, 1282.675
306.7343, 1285.318
307.2165, 1288.472
307.6986, 1291.634
308.1807, 1294.055
308.6628, 1295.015
309.1449, 1296.096
309.6270, 1299.081
310.1092, 1303.353
310.5913, 1306.860
311.0734, 1307.259
311.5555, 1307.044
312.0376, 1308.495
312.5197, 1312.473
313.0019, 1316.893
313.4840, 1320.687
313.9661, 1324.122
314.4482, 1327.779
314.9303, 1332.668
315.4124, 1337.332
315.8946, 1340.376
316.3767, 1341.135
316.8588, 1342.997
317.3409, 1348.049
317.8230, 1354.873
318.3051, 1361.569
318.7873, 1368.196
319.2694, 1374.116
319.7515, 1378.647
320.2336, 1381.627
320.7157, 1385.326
321.1978, 1390.579
321.6800, 1396.698
322.1621, 1403.042
322.6442, 1409.877
323.1263, 1416.499
323.6084, 1422.585
324.0905, 1428.176
324.5727, 1434.030
325.0548, 1440.158
325.5369, 1446.596
326.0190, 1453.353
326.5012, 1461.484
326.9833, 1468.764
327.4654, 1474.224
327.9475, 1478.482
328.4296, 1483.928
328.9117, 1492.242
329.3939, 1500.253
329.8760, 1506.603
330.3581, 1509.681
330.8402, 1514.142
331.3223, 1521.743
331.8044, 1530.226
332.2866, 1534.848
332.7687, 1533.273
333.2508, 1531.131
333.7329, 1530.483
334.2150, 1532.116
334.6971, 1531.181
335.1793, 1526.769
335.6614, 1520.659
336.1435, 1515.578
336.6256, 1512.786
337.1077, 1507.542
337.5898, 1498.000
338.0720, 1484.383
338.5541, 1473.158
339.0362, 1464.787
339.5183, 1457.672
340.0004, 1450.629
340.4825, 1443.634
340.9647, 1436.533
341.4468, 1429.221
341.9289, 1421.850
342.4110, 1414.529
342.8931, 1407.188
343.3752, 1400.647
343.8574, 1395.860
344.3395, 1392.653
344.8216, 1389.113
345.3037, 1384.723
345.7858, 1380.495
346.2679, 1378.556
346.7501, 1378.749
347.2322, 1379.050
347.7143, 1378.296
348.1964, 1376.783
348.6785, 1375.535
349.1607, 1374.619
349.6428, 1373.674
350.1249, 1371.391
350.6070, 1368.559
351.0891, 1367.690
351.5713, 1372.135
352.0534, 1378.031
352.5355, 1379.119
353.0176, 1375.541
353.4997, 1371.237
353.9818, 1368.653
354.4640, 1367.511
354.9461, 1367.508
355.4282, 1369.399
355.9103, 1371.332
356.3924, 1371.262
356.8745, 1369.692
357.3567, 1368.598
357.8388, 1369.240
358.3209, 1370.760
358.8030, 1372.468
359.2851, 1374.254
359.7672, 1376.162
360.2494, 1378.114
360.7315, 1380.222
361.2136, 1382.660
361.6957, 1385.928
362.1778, 1389.201
362.6599, 1392.132
363.1421, 1394.697
363.6242, 1396.807
364.1063, 1398.145
364.5884, 1399.120
365.0705, 1400.135
365.5526, 1401.029
366.0348, 1402.197
366.5169, 1403.649
366.9990, 1405.391
367.4811, 1407.620
367.9632, 1411.675
368.4453, 1415.312
368.9275, 1417.176
369.4096, 1414.590
369.8917, 1413.900
370.3738, 1415.640
370.8559, 1419.340
371.3380, 1423.856
371.8202, 1430.949
372.3023, 1436.503
372.7844, 1438.182
373.2665, 1434.182
373.7487, 1434.009
374.2308, 1439.658
374.7129, 1447.133
375.1950, 1450.963
375.6771, 1450.200
376.1592, 1448.771
376.6414, 1447.349
377.1235, 1446.043
377.6056, 1446.214
378.0877, 1448.405
378.5698, 1450.338
379.0519, 1449.743
379.5341, 1446.618
380.0162, 1443.474
380.4983, 1440.510
380.9804, 1438.045
381.4625, 1437.501
381.9446, 1438.815
382.4268, 1439.504
382.9089, 1437.484
383.3910, 1433.574
383.8731, 1430.282
384.3552, 1427.794
384.8373, 1426.020
385.3195, 1425.063
385.8016, 1424.767
386.2837, 1424.675
386.7658, 1425.108
387.2479, 1425.377
387.7300, 1424.305
388.2122, 1421.951
388.6943, 1419.652
389.1764, 1418.250
389.6585, 1417.541
390.1406, 1417.335
390.6227, 1417.747
391.1049, 1418.398
391.5870, 1419.184
392.0691, 1420.033
392.5512, 1420.718
393.0333, 1420.178
393.5154, 1420.111
393.9976, 1421.778
394.4797, 1425.791
394.9618, 1430.010
395.4439, 1434.753
395.9260, 1439.034
396.4081, 1441.535
396.8903, 1439.147
397.3724, 1437.802
397.8545, 1439.649
398.3366, 1444.874
398.8188, 1449.530
399.3009, 1453.084
399.7830, 1456.167
400.2651, 1459.153
400.7472, 1461.913
401.2293, 1464.763
401.7115, 1467.702
402.1936, 1470.744
402.6757, 1473.834
403.1578, 1476.456
403.6399, 1480.036
404.1220, 1485.568
404.6042, 1493.708
405.0863, 1499.835
405.5684, 1503.101
406.0505, 1505.599
406.5326, 1510.361
407.0147, 1517.802
407.4969, 1524.539
407.9790, 1529.697
408.4611, 1533.515
408.9432, 1536.785
409.4253, 1539.467
409.9074, 1541.967
410.3896, 1543.947
410.8717, 1545.851
411.3538, 1550.068
411.8359, 1557.514
412.3180, 1565.825
412.8001, 1571.658
413.2823, 1575.355
413.7644, 1578.735
414.2465, 1582.489
414.7286, 1586.543
415.2107, 1591.026
415.6928, 1595.911
416.1750, 1600.657
416.6571, 1604.501
417.1392, 1608.009
417.6213, 1612.127
418.1034, 1618.008
418.5855, 1623.619
419.0677, 1627.710
419.5498, 1630.523
420.0319, 1632.798
420.5140, 1634.924
420.9961, 1636.583
421.4782, 1637.356
421.9604, 1636.515
422.4425, 1636.618
422.9246, 1639.376
423.4067, 1643.064
423.8889, 1645.353
424.3710, 1644.833
424.8531, 1644.031
425.3352, 1642.621
425.8173, 1640.561
426.2994, 1641.851
426.7816, 1648.914
427.2637, 1656.862
427.7458, 1662.395
428.2279, 1664.307
428.7100, 1666.943
429.1921, 1670.957
429.6743, 1675.576
430.1564, 1678.847
430.6385, 1680.611
431.1206, 1681.672
431.6027, 1682.719
432.0848, 1683.669
432.5670, 1682.233
433.0491, 1678.279
433.5312, 1672.435
434.0133, 1664.700
434.4954, 1655.340
434.9775, 1646.001
435.4597, 1636.795
435.9418, 1628.215
436.4239, 1621.996
436.9060, 1617.792
437.3881, 1613.011
437.8702, 1605.808
438.3524, 1597.086
438.8345, 1587.464
439.3166, 1576.628
439.7987, 1567.388
440.2808, 1562.628
440.7629, 1560.773
441.2451, 1559.418
441.7272, 1557.923
442.2093, 1556.391
442.6914, 1554.432
443.1735, 1552.261
443.6556, 1551.268
444.1378, 1551.983
444.6199, 1554.048
445.1020, 1557.464
445.5841, 1563.451
446.0662, 1568.432
446.5483, 1571.239
447.0305, 1572.930
447.5126, 1575.251
447.9947, 1578.208
448.4768, 1581.815
448.9590, 1586.278
449.4411, 1591.597
449.9232, 1596.472
450.4053, 1600.219
450.8874, 1604.531
451.3695, 1610.878
451.8517, 1619.888
452.3338, 1628.224
452.8159, 1635.467
453.2980, 1641.883
453.7801, 1647.742
454.2622, 1652.893
454.7444, 1658.933
455.2265, 1667.370
455.7086, 1677.385
456.1907, 1684.850
456.6728, 1689.731
457.1549, 1693.780
457.6371, 1698.701
458.1192, 1704.143
458.6013, 1709.437
459.0834, 1714.506
459.5655, 1719.114
460.0476, 1723.044
460.5298, 1726.294
461.0119, 1728.667
461.4940, 1729.408
461.9761, 1729.755
462.4582, 1730.681
462.9403, 1732.307
463.4225, 1734.070
463.9046, 1736.087
464.3867, 1737.964
464.8688, 1739.283
465.3509, 1738.343
465.8330, 1738.669
466.3152, 1742.160
466.7973, 1747.730
467.2794, 1751.419
467.7615, 1751.474
468.2436, 1751.152
468.7257, 1751.620
469.2079, 1753.208
469.6900, 1754.018
470.1721, 1753.885
470.6542, 1753.121
471.1363, 1751.947
471.6184, 1750.221
472.1006, 1748.786
472.5827, 1748.323
473.0648, 1747.923
473.5469, 1744.016
474.0291, 1736.257
474.5112, 1729.125
474.9933, 1726.216
475.4754, 1726.318
475.9575, 1724.010
476.4396, 1718.943
476.9218, 1712.705
477.4039, 1706.729
477.8860, 1700.911
478.3681, 1695.063
478.8502, 1689.038
479.3323, 1683.040
479.8145, 1677.472
480.2966, 1672.094
480.7787, 1666.332
481.2608, 1658.346
481.7429, 1650.791
482.2250, 1646.246
482.7072, 1645.768
483.1893, 1643.683
483.6714, 1636.758
484.1535, 1627.818
484.6356, 1619.731
485.1177, 1613.572
485.5999, 1607.553
486.0820, 1601.305
486.5641, 1595.029
487.0462, 1589.170
487.5283, 1582.973
488.0104, 1578.273
488.4926, 1576.173
488.9747, 1577.291
489.4568, 1577.167
489.9389, 1575.520
490.4210, 1573.139
490.9031, 1570.716
491.3853, 1568.201
491.8674, 1566.112
492.3495, 1564.465
492.8316, 1563.405
493.3137, 1563.639
493.7958, 1565.030
494.2780, 1566.166
494.7601, 1565.760
495.2422, 1564.631
495.7243, 1564.242
496.2064, 1564.656
496.6885, 1565.759
497.1707, 1568.251
497.6528, 1571.140
498.1349, 1572.977
498.6170, 1572.449
499.0992, 1572.130
499.5813, 1573.507
500.0634, 1576.169
500.5455, 1579.107
501.0276, 1582.707
501.5097, 1585.868
501.9919, 1588.433
502.4740, 1590.520
502.9561, 1590.880
503.4382, 1587.990
503.9203, 1584.380
504.4024, 1581.897
504.8846, 1582.045
505.3667, 1580.129
505.8488, 1574.792
506.3309, 1567.947
506.8130, 1564.026
507.2951, 1563.704
507.7773, 1563.372
508.2594, 1561.783
508.7415, 1559.095
509.2236, 1555.921
509.7057, 1552.223
510.1878, 1548.583
510.6700, 1545.095
511.1521, 1542.014
511.6342, 1540.134
512.1163, 1539.734
512.5984, 1540.062
513.0806, 1540.916
513.5627, 1541.897
514.0448, 1542.165
514.5269, 1540.760
515.0090, 1538.990
515.4911, 1537.633
515.9733, 1536.651
516.4554, 1535.818
516.9375, 1534.713
517.4196, 1533.930
517.9017, 1534.048
518.3839, 1536.028
518.8660, 1536.657
519.3481, 1534.978
519.8302, 1532.047
520.3123, 1528.859
520.7944, 1524.637
521.2766, 1521.573
521.7587, 1520.139
522.2408, 1520.122
522.7229, 1520.987
523.2050, 1523.232
523.6871, 1524.632
524.1693, 1523.805
524.6514, 1520.936
525.1335, 1517.584
525.6156, 1513.525
526.0977, 1510.437
526.5798, 1510.495
527.0620, 1512.906
527.5441, 1515.404
528.0262, 1517.598
528.5083, 1519.350
528.9904, 1520.527
529.4725, 1521.107
529.9547, 1521.029
530.4368, 1519.475
530.9189, 1517.833
531.4010, 1516.882
531.8831, 1516.637
532.3652, 1517.007
532.8474, 1518.711
533.3295, 1520.480
533.8116, 1521.461
534.2937, 1520.566
534.7758, 1520.614
535.2579, 1522.417
535.7401, 1524.852
536.2222, 1526.415
536.7043, 1527.478
537.1864, 1526.789
537.6685, 1523.374
538.1506, 1518.114
538.6328, 1515.406
539.1149, 1515.576
539.5970, 1516.216
540.0791, 1515.577
540.5612, 1514.091
541.0433, 1514.008
541.5255, 1515.508
542.0076, 1517.359
542.4897, 1517.867
542.9718, 1517.893
543.4539, 1519.457
543.9360, 1524.295
544.4182, 1528.646
544.9003, 1528.574
545.3824, 1525.728
545.8645, 1523.795
546.3466, 1525.377
546.8287, 1527.182
547.3109, 1527.333
547.7930, 1525.710
548.2751, 1525.170
548.7572, 1527.014
549.2393, 1529.392
549.7214, 1531.426
550.2036, 1533.520
550.6857, 1534.240
551.1678, 1532.761
551.6499, 1530.783
552.1320, 1531.061
552.6141, 1534.115
553.0963, 1536.028
553.5784, 1535.511
554.0605, 1533.629
554.5426, 1533.312
555.0247, 1534.473
555.5068, 1535.499
555.9890, 1535.093
556.4711, 1534.014
556.9532, 1533.599
557.4353, 1533.891
557.9174, 1534.436
558.3995, 1535.078
558.8817, 1535.681
559.3638, 1535.973
559.8459, 1535.362
560.3281, 1535.504
560.8102, 1538.002
561.2923, 1541.465
561.7744, 1543.690
562.2565, 1542.763
562.7386, 1542.252
563.2208, 1543.377
563.7029, 1545.765
564.1850, 1546.689
564.6671, 1545.415
565.1492, 1543.993
565.6313, 1543.556
566.1135, 1544.232
566.5956, 1544.035
567.0777, 1542.714
567.5598, 1541.406
568.0419, 1541.668
568.5240, 1543.112
569.0062, 1543.491
569.4883, 1541.808
569.9704, 1540.237
570.4525, 1542.589
570.9346, 1547.365
571.4167, 1550.592
571.8989, 1549.111
572.3810, 1546.641
572.8631, 1545.531
573.3452, 1545.716
573.8273, 1546.341
574.3094, 1547.802
574.7916, 1549.070
575.2737, 1549.441
575.7558, 1548.358
576.2379, 1547.992
576.7200, 1549.014
577.2021, 1550.247
577.6843, 1550.444
578.1664, 1548.795
578.6485, 1548.599
579.1306, 1550.582
579.6127, 1553.731
580.0948, 1556.332
580.5770, 1558.374
581.0591, 1559.508
581.5412, 1559.030
582.0233, 1557.846
582.5054, 1558.105
582.9875, 1559.644
583.4697, 1561.247
583.9518, 1562.096
584.4339, 1562.573
584.9160, 1563.288
585.3981, 1564.416
585.8802, 1564.785
586.3624, 1562.373
