##NAMES=Dickinsonite-(KMnNa)
##RRUFFID=R160071
##IDEAL CHEMISTRY=K(NaMn^2+^)CaNa_3_AlMn^2+^_13_(PO_4_)_12_(OH)_2_
##LOCALITY=Nancy Pegmatite, Chacabuco Dept, San Luis, Argentina
##OWNER=RRUFF
##SOURCE=Thomas A. Loomis
##DESCRIPTION=Dark green massive, associated with dark brown bobfergusonite (R160069)
##STATUS=The identification of this mineral is confirmed by single-crystal X-ray diffraction and chemical analysis.
##URL=rruff.info/R160071
##MEASURED CHEMISTRY=(K_0.61_Pb_0.32_)_Σ0.93_(Na_1.00_Mn_1.00_)_Σ2.00_(Ca_0.33_Ba_0.18_)_Σ0.51_Na_2.98_Al_0.94_(Mn_6.84_Fe^2+^_5.41_Mg_0.82_)_Σ13.07_(PO_4_)_12_(OH)_2_ 
8.813672e+001, 1.731747e+002
8.861884e+001, 1.753205e+002
8.910095e+001, 1.775989e+002
8.958307e+001, 1.801690e+002
9.006519e+001, 1.829777e+002
9.054730e+001, 1.859301e+002
9.102942e+001, 1.892002e+002
9.151154e+001, 1.924105e+002
9.199365e+001, 1.957626e+002
9.247577e+001, 1.989514e+002
9.295789e+001, 2.010145e+002
9.344000e+001, 2.005525e+002
9.392212e+001, 1.986218e+002
9.440424e+001, 1.982398e+002
9.488635e+001, 1.999283e+002
9.536847e+001, 2.023562e+002
9.585059e+001, 2.035400e+002
9.633270e+001, 2.035323e+002
9.681482e+001, 2.034950e+002
9.729694e+001, 2.040223e+002
9.777905e+001, 2.050832e+002
9.826117e+001, 2.062892e+002
9.874329e+001, 2.075350e+002
9.922540e+001, 2.089501e+002
9.970752e+001, 2.111012e+002
1.001896e+002, 2.141966e+002
1.006718e+002, 2.170778e+002
1.011539e+002, 2.187809e+002
1.016360e+002, 2.189905e+002
1.021181e+002, 2.195974e+002
1.026002e+002, 2.208980e+002
1.030823e+002, 2.228018e+002
1.035645e+002, 2.246226e+002
1.040466e+002, 2.262076e+002
1.045287e+002, 2.279459e+002
1.050108e+002, 2.301993e+002
1.054929e+002, 2.330687e+002
1.059750e+002, 2.362565e+002
1.064572e+002, 2.397825e+002
1.069393e+002, 2.437029e+002
1.074214e+002, 2.476291e+002
1.079035e+002, 2.526586e+002
1.083856e+002, 2.572283e+002
1.088677e+002, 2.595531e+002
1.093499e+002, 2.569764e+002
1.098320e+002, 2.548245e+002
1.103141e+002, 2.543080e+002
1.107962e+002, 2.559992e+002
1.112783e+002, 2.575536e+002
1.117604e+002, 2.586370e+002
1.122426e+002, 2.595417e+002
1.127247e+002, 2.606918e+002
1.132068e+002, 2.620578e+002
1.136889e+002, 2.637526e+002
1.141710e+002, 2.658381e+002
1.146531e+002, 2.684593e+002
1.151353e+002, 2.711929e+002
1.156174e+002, 2.741893e+002
1.160995e+002, 2.772635e+002
1.165816e+002, 2.799888e+002
1.170637e+002, 2.820431e+002
1.175458e+002, 2.837676e+002
1.180280e+002, 2.854180e+002
1.185101e+002, 2.871227e+002
1.189922e+002, 2.886465e+002
1.194743e+002, 2.897299e+002
1.199564e+002, 2.904582e+002
1.204385e+002, 2.912022e+002
1.209207e+002, 2.919685e+002
1.214028e+002, 2.929239e+002
1.218849e+002, 2.942328e+002
1.223670e+002, 2.956353e+002
1.228491e+002, 2.976867e+002
1.233312e+002, 3.015662e+002
1.238134e+002, 3.071572e+002
1.242955e+002, 3.121049e+002
1.247776e+002, 3.141168e+002
1.252597e+002, 3.140908e+002
1.257418e+002, 3.138574e+002
1.262239e+002, 3.138345e+002
1.267061e+002, 3.141456e+002
1.271882e+002, 3.149314e+002
1.276703e+002, 3.161888e+002
1.281524e+002, 3.180242e+002
1.286345e+002, 3.210396e+002
1.291166e+002, 3.249370e+002
1.295988e+002, 3.283893e+002
1.300809e+002, 3.303365e+002
1.305630e+002, 3.312698e+002
1.310451e+002, 3.330535e+002
1.315272e+002, 3.359732e+002
1.320093e+002, 3.390317e+002
1.324915e+002, 3.405166e+002
1.329736e+002, 3.404286e+002
1.334557e+002, 3.404711e+002
1.339378e+002, 3.417896e+002
1.344199e+002, 3.442878e+002
1.349020e+002, 3.462089e+002
1.353842e+002, 3.472110e+002
1.358663e+002, 3.478260e+002
1.363484e+002, 3.493937e+002
1.368305e+002, 3.521014e+002
1.373126e+002, 3.548343e+002
1.377947e+002, 3.566616e+002
1.382769e+002, 3.573440e+002
1.387590e+002, 3.588670e+002
1.392411e+002, 3.618390e+002
1.397232e+002, 3.656873e+002
1.402053e+002, 3.679506e+002
1.406874e+002, 3.682768e+002
1.411696e+002, 3.678152e+002
1.416517e+002, 3.673473e+002
1.421338e+002, 3.669705e+002
1.426159e+002, 3.663498e+002
1.430980e+002, 3.653003e+002
1.435801e+002, 3.639163e+002
1.440623e+002, 3.630758e+002
1.445444e+002, 3.630488e+002
1.450265e+002, 3.633073e+002
1.455086e+002, 3.634288e+002
1.459907e+002, 3.632683e+002
1.464728e+002, 3.632288e+002
1.469550e+002, 3.634092e+002
1.474371e+002, 3.638275e+002
1.479192e+002, 3.642106e+002
1.484013e+002, 3.648258e+002
1.488834e+002, 3.652466e+002
1.493655e+002, 3.650648e+002
1.498477e+002, 3.633102e+002
1.503298e+002, 3.619744e+002
1.508119e+002, 3.615258e+002
1.512940e+002, 3.621366e+002
1.517761e+002, 3.626122e+002
1.522583e+002, 3.628009e+002
1.527404e+002, 3.628752e+002
1.532225e+002, 3.630193e+002
1.537046e+002, 3.630472e+002
1.541867e+002, 3.633374e+002
1.546688e+002, 3.642188e+002
1.551510e+002, 3.660578e+002
1.556331e+002, 3.671250e+002
1.561152e+002, 3.666034e+002
1.565973e+002, 3.652880e+002
1.570794e+002, 3.642462e+002
1.575615e+002, 3.641561e+002
1.580437e+002, 3.640090e+002
1.585258e+002, 3.632029e+002
1.590079e+002, 3.612201e+002
1.594900e+002, 3.599850e+002
1.599721e+002, 3.606684e+002
1.604542e+002, 3.624186e+002
1.609364e+002, 3.637417e+002
1.614185e+002, 3.637051e+002
1.619006e+002, 3.633814e+002
1.623827e+002, 3.633793e+002
1.628648e+002, 3.639079e+002
1.633469e+002, 3.644804e+002
1.638291e+002, 3.649883e+002
1.643112e+002, 3.653802e+002
1.647933e+002, 3.655545e+002
1.652754e+002, 3.651383e+002
1.657575e+002, 3.646695e+002
1.662396e+002, 3.646431e+002
1.667218e+002, 3.654933e+002
1.672039e+002, 3.661645e+002
1.676860e+002, 3.656323e+002
1.681681e+002, 3.642983e+002
1.686502e+002, 3.633997e+002
1.691323e+002, 3.640606e+002
1.696145e+002, 3.653286e+002
1.700966e+002, 3.662208e+002
1.705787e+002, 3.662956e+002
1.710608e+002, 3.662609e+002
1.715429e+002, 3.668909e+002
1.720250e+002, 3.680161e+002
1.725072e+002, 3.688172e+002
1.729893e+002, 3.683882e+002
1.734714e+002, 3.674272e+002
1.739535e+002, 3.669440e+002
1.744356e+002, 3.675142e+002
1.749177e+002, 3.682785e+002
1.753999e+002, 3.681213e+002
1.758820e+002, 3.671608e+002
1.763641e+002, 3.663975e+002
1.768462e+002, 3.668248e+002
1.773283e+002, 3.679328e+002
1.778104e+002, 3.687349e+002
1.782926e+002, 3.687499e+002
1.787747e+002, 3.685024e+002
1.792568e+002, 3.688875e+002
1.797389e+002, 3.698661e+002
1.802210e+002, 3.706804e+002
1.807031e+002, 3.704281e+002
1.811853e+002, 3.694725e+002
1.816674e+002, 3.687826e+002
1.821495e+002, 3.688379e+002
1.826316e+002, 3.692293e+002
1.831137e+002, 3.691680e+002
1.835958e+002, 3.686456e+002
1.840780e+002, 3.679632e+002
1.845601e+002, 3.671153e+002
1.850422e+002, 3.662536e+002
1.855243e+002, 3.660244e+002
1.860064e+002, 3.670834e+002
1.864885e+002, 3.687702e+002
1.869707e+002, 3.691665e+002
1.874528e+002, 3.681757e+002
1.879349e+002, 3.669121e+002
1.884170e+002, 3.665658e+002
1.888991e+002, 3.670384e+002
1.893812e+002, 3.675281e+002
1.898634e+002, 3.678161e+002
1.903455e+002, 3.679289e+002
1.908276e+002, 3.678768e+002
1.913097e+002, 3.676107e+002
1.917918e+002, 3.674490e+002
1.922739e+002, 3.678620e+002
1.927561e+002, 3.688395e+002
1.932382e+002, 3.697151e+002
1.937203e+002, 3.703399e+002
1.942024e+002, 3.706889e+002
1.946845e+002, 3.705338e+002
1.951666e+002, 3.697536e+002
1.956488e+002, 3.688477e+002
1.961309e+002, 3.684267e+002
1.966130e+002, 3.685039e+002
1.970951e+002, 3.686883e+002
1.975772e+002, 3.689356e+002
1.980593e+002, 3.692184e+002
1.985415e+002, 3.691676e+002
1.990236e+002, 3.687020e+002
1.995057e+002, 3.681470e+002
1.999878e+002, 3.679485e+002
2.004699e+002, 3.681579e+002
2.009520e+002, 3.684380e+002
2.014342e+002, 3.687248e+002
2.019163e+002, 3.690271e+002
2.023984e+002, 3.692471e+002
2.028805e+002, 3.694265e+002
2.033626e+002, 3.694704e+002
2.038447e+002, 3.691263e+002
2.043269e+002, 3.682625e+002
2.048090e+002, 3.676671e+002
2.052911e+002, 3.676671e+002
2.057732e+002, 3.682723e+002
2.062553e+002, 3.688523e+002
2.067374e+002, 3.694769e+002
2.072196e+002, 3.699412e+002
2.077017e+002, 3.698307e+002
2.081838e+002, 3.689029e+002
2.086659e+002, 3.682095e+002
2.091480e+002, 3.681460e+002
2.096301e+002, 3.687541e+002
2.101123e+002, 3.693596e+002
2.105944e+002, 3.700269e+002
2.110765e+002, 3.706002e+002
2.115586e+002, 3.707842e+002
2.120407e+002, 3.703874e+002
2.125228e+002, 3.701403e+002
2.130050e+002, 3.703672e+002
2.134871e+002, 3.711513e+002
2.139692e+002, 3.715565e+002
2.144513e+002, 3.715093e+002
2.149334e+002, 3.711622e+002
2.154155e+002, 3.706616e+002
2.158977e+002, 3.698644e+002
2.163798e+002, 3.692800e+002
2.168619e+002, 3.692013e+002
2.173440e+002, 3.697599e+002
2.178261e+002, 3.697139e+002
2.183082e+002, 3.687774e+002
2.187904e+002, 3.675352e+002
2.192725e+002, 3.668393e+002
2.197546e+002, 3.669432e+002
2.202367e+002, 3.670688e+002
2.207188e+002, 3.670080e+002
2.212009e+002, 3.667482e+002
2.216831e+002, 3.663777e+002
2.221652e+002, 3.657183e+002
2.226473e+002, 3.651213e+002
2.231294e+002, 3.651852e+002
2.236115e+002, 3.664264e+002
2.240936e+002, 3.672801e+002
2.245758e+002, 3.671491e+002
2.250579e+002, 3.658022e+002
2.255400e+002, 3.651603e+002
2.260221e+002, 3.654944e+002
2.265042e+002, 3.662903e+002
2.269863e+002, 3.669569e+002
2.274685e+002, 3.677411e+002
2.279506e+002, 3.678987e+002
2.284327e+002, 3.669332e+002
2.289148e+002, 3.645307e+002
2.293969e+002, 3.633782e+002
2.298790e+002, 3.641302e+002
2.303612e+002, 3.655579e+002
2.308433e+002, 3.660746e+002
2.313254e+002, 3.649215e+002
2.318075e+002, 3.642497e+002
2.322896e+002, 3.648141e+002
2.327717e+002, 3.668292e+002
2.332539e+002, 3.679772e+002
2.337360e+002, 3.679011e+002
2.342181e+002, 3.672549e+002
2.347002e+002, 3.667298e+002
2.351823e+002, 3.662817e+002
2.356644e+002, 3.660687e+002
2.361466e+002, 3.662220e+002
2.366287e+002, 3.667980e+002
2.371108e+002, 3.671254e+002
2.375929e+002, 3.671198e+002
2.380750e+002, 3.669560e+002
2.385571e+002, 3.668070e+002
2.390393e+002, 3.666796e+002
2.395214e+002, 3.665638e+002
2.400035e+002, 3.663922e+002
2.404856e+002, 3.661429e+002
2.409677e+002, 3.662745e+002
2.414498e+002, 3.669154e+002
2.419320e+002, 3.678071e+002
2.424141e+002, 3.688008e+002
2.428962e+002, 3.703023e+002
2.433783e+002, 3.710744e+002
2.438604e+002, 3.705310e+002
2.443425e+002, 3.686655e+002
2.448247e+002, 3.679000e+002
2.453068e+002, 3.689250e+002
2.457889e+002, 3.702986e+002
2.462710e+002, 3.707310e+002
2.467531e+002, 3.695922e+002
2.472352e+002, 3.687544e+002
2.477174e+002, 3.686097e+002
2.481995e+002, 3.691148e+002
2.486816e+002, 3.693428e+002
2.491637e+002, 3.690594e+002
2.496458e+002, 3.687963e+002
2.501279e+002, 3.690678e+002
2.506101e+002, 3.703743e+002
2.510922e+002, 3.711556e+002
2.515743e+002, 3.710387e+002
2.520564e+002, 3.701622e+002
2.525385e+002, 3.695829e+002
2.530206e+002, 3.693332e+002
2.535028e+002, 3.693468e+002
2.539849e+002, 3.696291e+002
2.544670e+002, 3.703711e+002
2.549491e+002, 3.708921e+002
2.554312e+002, 3.709955e+002
2.559133e+002, 3.707876e+002
2.563955e+002, 3.709225e+002
2.568776e+002, 3.716364e+002
2.573597e+002, 3.723003e+002
2.578418e+002, 3.724313e+002
2.583239e+002, 3.716603e+002
2.588061e+002, 3.713703e+002
2.592882e+002, 3.719308e+002
2.597703e+002, 3.730019e+002
2.602524e+002, 3.732255e+002
2.607345e+002, 3.722174e+002
2.612166e+002, 3.710843e+002
2.616988e+002, 3.704312e+002
2.621809e+002, 3.704087e+002
2.626630e+002, 3.704756e+002
2.631451e+002, 3.707103e+002
2.636272e+002, 3.709933e+002
2.641093e+002, 3.709189e+002
2.645915e+002, 3.702989e+002
2.650736e+002, 3.697722e+002
2.655557e+002, 3.697621e+002
2.660378e+002, 3.705330e+002
2.665199e+002, 3.707133e+002
2.670020e+002, 3.700619e+002
2.674842e+002, 3.689893e+002
2.679663e+002, 3.683410e+002
2.684484e+002, 3.681597e+002
2.689305e+002, 3.682690e+002
2.694126e+002, 3.686917e+002
2.698947e+002, 3.695313e+002
2.703769e+002, 3.700322e+002
2.708590e+002, 3.700917e+002
2.713411e+002, 3.699310e+002
2.718232e+002, 3.699001e+002
2.723053e+002, 3.700008e+002
2.727874e+002, 3.701877e+002
2.732696e+002, 3.704788e+002
2.737517e+002, 3.708791e+002
2.742338e+002, 3.711638e+002
2.747159e+002, 3.713262e+002
2.751980e+002, 3.713787e+002
2.756801e+002, 3.712921e+002
2.761623e+002, 3.710321e+002
2.766444e+002, 3.708707e+002
2.771265e+002, 3.710233e+002
2.776086e+002, 3.714467e+002
2.780907e+002, 3.712025e+002
2.785728e+002, 3.700796e+002
2.790550e+002, 3.689184e+002
2.795371e+002, 3.688317e+002
2.800192e+002, 3.699250e+002
2.805013e+002, 3.707422e+002
2.809834e+002, 3.707687e+002
2.814655e+002, 3.702103e+002
2.819477e+002, 3.702093e+002
2.824298e+002, 3.708757e+002
2.829119e+002, 3.715793e+002
2.833940e+002, 3.716700e+002
2.838761e+002, 3.711551e+002
2.843582e+002, 3.706543e+002
2.848404e+002, 3.702610e+002
2.853225e+002, 3.699850e+002
2.858046e+002, 3.698789e+002
2.862867e+002, 3.699464e+002
2.867688e+002, 3.701137e+002
2.872509e+002, 3.702798e+002
2.877331e+002, 3.704644e+002
2.882152e+002, 3.709229e+002
2.886973e+002, 3.718347e+002
2.891794e+002, 3.728626e+002
2.896615e+002, 3.732496e+002
2.901436e+002, 3.730022e+002
2.906258e+002, 3.725235e+002
2.911079e+002, 3.720064e+002
2.915900e+002, 3.714661e+002
2.920721e+002, 3.709468e+002
2.925542e+002, 3.704428e+002
2.930363e+002, 3.700093e+002
2.935185e+002, 3.697075e+002
2.940006e+002, 3.695425e+002
2.944827e+002, 3.695580e+002
2.949648e+002, 3.698467e+002
2.954469e+002, 3.703330e+002
2.959290e+002, 3.708927e+002
2.964112e+002, 3.715753e+002
2.968933e+002, 3.720677e+002
2.973754e+002, 3.717580e+002
2.978575e+002, 3.708582e+002
2.983396e+002, 3.701483e+002
2.988217e+002, 3.702098e+002
2.993039e+002, 3.706548e+002
2.997860e+002, 3.708096e+002
3.002681e+002, 3.706483e+002
3.007502e+002, 3.703335e+002
3.012323e+002, 3.698674e+002
3.017144e+002, 3.693596e+002
3.021966e+002, 3.690936e+002
3.026787e+002, 3.693758e+002
3.031608e+002, 3.698432e+002
3.036429e+002, 3.699810e+002
3.041250e+002, 3.698087e+002
3.046071e+002, 3.697246e+002
3.050893e+002, 3.703964e+002
3.055714e+002, 3.712991e+002
3.060535e+002, 3.715315e+002
3.065356e+002, 3.703454e+002
3.070177e+002, 3.688851e+002
3.074998e+002, 3.682641e+002
3.079820e+002, 3.683446e+002
3.084641e+002, 3.684312e+002
3.089462e+002, 3.678015e+002
3.094283e+002, 3.670576e+002
3.099104e+002, 3.669721e+002
3.103925e+002, 3.681938e+002
3.108747e+002, 3.692726e+002
3.113568e+002, 3.689131e+002
3.118389e+002, 3.675699e+002
3.123210e+002, 3.665150e+002
3.128031e+002, 3.666299e+002
3.132852e+002, 3.671215e+002
3.137674e+002, 3.673580e+002
3.142495e+002, 3.671409e+002
3.147316e+002, 3.669703e+002
3.152137e+002, 3.672323e+002
3.156958e+002, 3.676930e+002
3.161779e+002, 3.679525e+002
3.166601e+002, 3.677935e+002
3.171422e+002, 3.674478e+002
3.176243e+002, 3.669023e+002
3.181064e+002, 3.660818e+002
3.185885e+002, 3.656287e+002
3.190706e+002, 3.661506e+002
3.195528e+002, 3.670273e+002
3.200349e+002, 3.675538e+002
3.205170e+002, 3.672460e+002
3.209991e+002, 3.668479e+002
3.214812e+002, 3.664992e+002
3.219633e+002, 3.662065e+002
3.224455e+002, 3.661983e+002
3.229276e+002, 3.668298e+002
3.234097e+002, 3.675872e+002
3.238918e+002, 3.680851e+002
3.243739e+002, 3.682406e+002
3.248560e+002, 3.681606e+002
3.253382e+002, 3.676996e+002
3.258203e+002, 3.669320e+002
3.263024e+002, 3.663768e+002
3.267845e+002, 3.658836e+002
3.272666e+002, 3.657397e+002
3.277487e+002, 3.661127e+002
3.282309e+002, 3.680211e+002
3.287130e+002, 3.690326e+002
3.291951e+002, 3.685831e+002
3.296772e+002, 3.672526e+002
3.301593e+002, 3.664997e+002
3.306414e+002, 3.667059e+002
3.311236e+002, 3.670652e+002
3.316057e+002, 3.673310e+002
3.320878e+002, 3.675046e+002
3.325699e+002, 3.675724e+002
3.330520e+002, 3.674102e+002
3.335341e+002, 3.672271e+002
3.340163e+002, 3.673834e+002
3.344984e+002, 3.681876e+002
3.349805e+002, 3.687342e+002
3.354626e+002, 3.687357e+002
3.359447e+002, 3.681685e+002
3.364268e+002, 3.676579e+002
3.369090e+002, 3.671148e+002
3.373911e+002, 3.667610e+002
3.378732e+002, 3.668820e+002
3.383553e+002, 3.676037e+002
3.388374e+002, 3.682838e+002
3.393195e+002, 3.688363e+002
3.398017e+002, 3.692495e+002
3.402838e+002, 3.694512e+002
3.407659e+002, 3.693658e+002
3.412480e+002, 3.693080e+002
3.417301e+002, 3.695745e+002
3.422122e+002, 3.701788e+002
3.426944e+002, 3.705714e+002
3.431765e+002, 3.706894e+002
3.436586e+002, 3.705710e+002
3.441407e+002, 3.702104e+002
3.446228e+002, 3.696042e+002
3.451049e+002, 3.690532e+002
3.455871e+002, 3.687773e+002
3.460692e+002, 3.687264e+002
3.465513e+002, 3.686068e+002
3.470334e+002, 3.684001e+002
3.475155e+002, 3.682010e+002
3.479977e+002, 3.680557e+002
3.484798e+002, 3.679978e+002
3.489619e+002, 3.682043e+002
3.494440e+002, 3.690870e+002
3.499261e+002, 3.701678e+002
3.504082e+002, 3.703106e+002
3.508904e+002, 3.695137e+002
3.513725e+002, 3.686665e+002
3.518546e+002, 3.684379e+002
3.523367e+002, 3.687148e+002
3.528188e+002, 3.693476e+002
3.533009e+002, 3.707230e+002
3.537831e+002, 3.718834e+002
3.542652e+002, 3.713146e+002
3.547473e+002, 3.693984e+002
3.552294e+002, 3.678944e+002
3.557115e+002, 3.685216e+002
3.561936e+002, 3.698736e+002
3.566758e+002, 3.703800e+002
3.571579e+002, 3.695853e+002
3.576400e+002, 3.684742e+002
3.581221e+002, 3.674416e+002
3.586042e+002, 3.666140e+002
3.590863e+002, 3.662122e+002
3.595685e+002, 3.666898e+002
3.600506e+002, 3.673736e+002
3.605327e+002, 3.678668e+002
3.610148e+002, 3.681245e+002
3.614969e+002, 3.683110e+002
3.619790e+002, 3.684840e+002
3.624612e+002, 3.686205e+002
3.629433e+002, 3.686969e+002
3.634254e+002, 3.686208e+002
3.639075e+002, 3.685528e+002
3.643896e+002, 3.684912e+002
3.648717e+002, 3.684411e+002
3.653539e+002, 3.685190e+002
3.658360e+002, 3.690160e+002
3.663181e+002, 3.694528e+002
3.668002e+002, 3.695439e+002
3.672823e+002, 3.687756e+002
3.677644e+002, 3.682635e+002
3.682466e+002, 3.681747e+002
3.687287e+002, 3.683972e+002
3.692108e+002, 3.686210e+002
3.696929e+002, 3.690674e+002
3.701750e+002, 3.692884e+002
3.706571e+002, 3.690739e+002
3.711393e+002, 3.682247e+002
3.716214e+002, 3.676285e+002
3.721035e+002, 3.674401e+002
3.725856e+002, 3.673975e+002
3.730677e+002, 3.671475e+002
3.735498e+002, 3.665599e+002
3.740320e+002, 3.660724e+002
3.745141e+002, 3.658512e+002
3.749962e+002, 3.658725e+002
3.754783e+002, 3.656419e+002
3.759604e+002, 3.650425e+002
3.764425e+002, 3.644680e+002
3.769247e+002, 3.642458e+002
3.774068e+002, 3.644097e+002
3.778889e+002, 3.647167e+002
3.783710e+002, 3.651868e+002
3.788531e+002, 3.657296e+002
3.793352e+002, 3.661181e+002
3.798174e+002, 3.663357e+002
3.802995e+002, 3.665279e+002
3.807816e+002, 3.667643e+002
3.812637e+002, 3.670361e+002
3.817458e+002, 3.672860e+002
3.822279e+002, 3.674972e+002
3.827101e+002, 3.677248e+002
3.831922e+002, 3.680137e+002
3.836743e+002, 3.683706e+002
3.841564e+002, 3.688445e+002
3.846385e+002, 3.696959e+002
3.851206e+002, 3.705584e+002
3.856028e+002, 3.706450e+002
3.860849e+002, 3.699921e+002
3.865670e+002, 3.692898e+002
3.870491e+002, 3.689849e+002
3.875312e+002, 3.690125e+002
3.880133e+002, 3.693137e+002
3.884955e+002, 3.700488e+002
3.889776e+002, 3.707526e+002
3.894597e+002, 3.708358e+002
3.899418e+002, 3.705225e+002
3.904239e+002, 3.704458e+002
3.909060e+002, 3.711641e+002
3.913882e+002, 3.721078e+002
3.918703e+002, 3.728537e+002
3.923524e+002, 3.733454e+002
3.928345e+002, 3.737109e+002
3.933166e+002, 3.738487e+002
3.937987e+002, 3.739442e+002
3.942809e+002, 3.742284e+002
3.947630e+002, 3.748303e+002
3.952451e+002, 3.755655e+002
3.957272e+002, 3.764938e+002
3.962093e+002, 3.775835e+002
3.966914e+002, 3.784393e+002
3.971736e+002, 3.787294e+002
3.976557e+002, 3.789218e+002
3.981378e+002, 3.793057e+002
3.986199e+002, 3.803777e+002
3.991020e+002, 3.810341e+002
3.995841e+002, 3.808791e+002
4.000663e+002, 3.803044e+002
4.005484e+002, 3.802706e+002
4.010305e+002, 3.812446e+002
4.015126e+002, 3.821720e+002
4.019947e+002, 3.826710e+002
4.024768e+002, 3.826268e+002
4.029590e+002, 3.827545e+002
4.034411e+002, 3.831406e+002
4.039232e+002, 3.836033e+002
4.044053e+002, 3.839184e+002
4.048874e+002, 3.840218e+002
4.053695e+002, 3.842387e+002
4.058517e+002, 3.847324e+002
4.063338e+002, 3.853778e+002
4.068159e+002, 3.855263e+002
4.072980e+002, 3.850659e+002
4.077801e+002, 3.846679e+002
4.082622e+002, 3.848579e+002
4.087444e+002, 3.855947e+002
4.092265e+002, 3.863577e+002
4.097086e+002, 3.871755e+002
