##NAMES=Dickthomssenite
##RRUFFID=R070165
##IDEAL CHEMISTRY=MgV^5+^_2_O_6_&#183;7H_2_O
##LOCALITY=Firefly-Pigmay mine, La Sal Quadrangle, San Juan County, Utah, USA
##OWNER=RRUFF
##SOURCE=Michael Scott
##DESCRIPTION=Light brown radiating acicular crystals, portion of the type material. Unit cell is triclinc, twinned around a-axis. The monoclinc cell of Hughes et al (2001) is obtained by doubling our b-axis, and transforming.
##STATUS=The identification of this mineral has been confirmed by single-crystal X-ray diffraction.
##URL=rruff.info/R070165
134.8090, 1495.435
135.2911, 1541.919
135.7732, 1593.361
136.2553, 1647.380
136.7375, 1714.433
137.2196, 1798.457
137.7017, 1893.279
138.1838, 1995.596
138.6659, 2103.906
139.1480, 2220.214
139.6302, 2346.097
140.1123, 2480.880
140.5944, 2631.318
141.0765, 2807.700
141.5586, 2991.750
142.0407, 3165.399
142.5229, 3322.208
143.0050, 3472.437
143.4871, 3638.032
143.9692, 3822.452
144.4513, 4019.182
144.9334, 4231.989
145.4156, 4453.689
145.8977, 4673.886
146.3798, 4888.657
146.8619, 5105.860
147.3440, 5343.857
147.8261, 5619.495
148.3083, 5898.898
148.7904, 6176.824
149.2725, 6457.740
149.7546, 6747.716
150.2367, 7049.143
150.7188, 7361.980
151.2010, 7687.089
151.6831, 8019.747
152.1652, 8370.230
152.6473, 8741.463
153.1294, 9129.470
153.6115, 9538.581
154.0937, 9972.508
154.5758, 10410.48
155.0579, 10788.89
155.5400, 11125.39
156.0221, 11386.73
156.5042, 11593.25
156.9864, 11715.71
157.4685, 11700.98
157.9506, 11519.89
158.4327, 11201.66
158.9148, 10818.25
159.3969, 10329.25
159.8791, 9844.843
160.3612, 9383.163
160.8433, 8946.197
161.3254, 8536.116
161.8075, 8150.403
162.2896, 7799.216
162.7718, 7516.023
163.2539, 7314.759
163.7360, 7140.844
164.2181, 6975.753
164.7002, 6824.430
165.1823, 6701.433
165.6645, 6616.003
166.1466, 6558.905
166.6287, 6508.790
167.1108, 6467.485
167.5929, 6427.588
168.0750, 6383.484
168.5572, 6337.833
169.0393, 6298.551
169.5214, 6269.736
170.0035, 6248.192
170.4856, 6227.504
170.9677, 6208.313
171.4499, 6188.325
171.9320, 6163.886
172.4141, 6137.146
172.8962, 6116.013
173.3783, 6104.653
173.8604, 6099.457
174.3426, 6092.119
174.8247, 6079.701
175.3068, 6074.692
175.7889, 6089.391
176.2710, 6119.342
176.7531, 6143.940
177.2353, 6152.822
177.7174, 6157.461
178.1995, 6173.633
178.6816, 6202.650
179.1637, 6235.414
179.6458, 6270.129
180.1279, 6305.364
180.6101, 6333.662
181.0922, 6352.791
181.5743, 6363.501
182.0564, 6368.914
182.5385, 6369.090
183.0206, 6363.545
183.5028, 6352.910
183.9849, 6336.697
184.4670, 6311.062
184.9491, 6270.055
185.4312, 6224.581
185.9133, 6187.199
186.3955, 6158.078
186.8776, 6126.653
187.3597, 6086.671
187.8418, 6038.598
188.3239, 5983.491
188.8060, 5916.206
189.2882, 5847.710
189.7703, 5787.770
190.2524, 5736.062
190.7345, 5685.813
191.2166, 5630.825
191.6987, 5572.396
192.1809, 5522.162
192.6630, 5488.221
193.1451, 5454.492
193.6272, 5407.787
194.1093, 5349.900
194.5914, 5292.635
195.0736, 5247.517
195.5557, 5211.438
196.0378, 5163.708
196.5199, 5093.261
197.0020, 5023.255
197.4841, 4967.608
197.9663, 4924.543
198.4484, 4887.880
198.9305, 4857.377
199.4126, 4831.289
199.8947, 4798.392
200.3768, 4753.372
200.8590, 4708.578
201.3411, 4664.222
201.8232, 4624.496
202.3053, 4600.294
202.7874, 4606.615
203.2695, 4635.045
203.7517, 4648.468
204.2338, 4637.764
204.7159, 4626.529
205.1980, 4622.374
205.6801, 4625.992
206.1622, 4639.429
206.6444, 4667.854
207.1265, 4705.768
207.6086, 4735.962
208.0907, 4755.530
208.5728, 4772.432
209.0549, 4791.610
209.5371, 4810.455
210.0192, 4825.495
210.5013, 4836.083
210.9834, 4841.034
211.4655, 4836.107
211.9476, 4817.002
212.4298, 4797.680
212.9119, 4787.132
213.3940, 4778.104
213.8761, 4759.904
214.3582, 4724.551
214.8403, 4686.352
215.3225, 4674.639
215.8046, 4698.896
216.2867, 4721.733
216.7688, 4727.895
217.2509, 4728.407
217.7330, 4731.828
218.2152, 4740.218
218.6973, 4754.804
219.1794, 4776.457
219.6615, 4804.072
220.1436, 4843.491
220.6257, 4898.782
221.1079, 4965.227
221.5900, 5044.897
222.0721, 5138.537
222.5542, 5233.141
223.0363, 5308.389
223.5184, 5360.222
224.0006, 5425.126
224.4827, 5517.478
224.9648, 5622.239
225.4469, 5733.713
225.9290, 5850.043
226.4111, 5968.761
226.8933, 6086.248
227.3754, 6202.441
227.8575, 6319.595
228.3396, 6440.453
228.8217, 6560.468
229.3038, 6673.910
229.7859, 6782.388
230.2681, 6897.208
230.7502, 7029.722
231.2323, 7178.382
231.7144, 7325.616
232.1965, 7471.669
232.6786, 7615.356
233.1608, 7755.892
233.6429, 7893.457
234.1250, 8030.171
234.6071, 8163.360
235.0892, 8296.321
235.5714, 8445.881
236.0535, 8625.524
236.5356, 8799.205
237.0177, 8951.817
237.4998, 9086.578
237.9819, 9207.331
238.4641, 9305.921
238.9462, 9396.024
239.4283, 9513.199
239.9104, 9669.054
240.3925, 9819.249
240.8746, 9942.074
241.3568, 10046.34
241.8389, 10139.96
242.3210, 10220.30
242.8031, 10297.94
243.2852, 10393.65
243.7673, 10513.06
244.2495, 10618.78
244.7316, 10682.60
245.2137, 10731.05
245.6958, 10788.53
246.1779, 10859.13
246.6600, 10940.24
247.1422, 11035.79
247.6243, 11146.02
248.1064, 11246.02
248.5885, 11327.78
249.0706, 11396.48
249.5527, 11463.37
250.0349, 11530.38
250.5170, 11578.18
250.9991, 11586.19
251.4812, 11560.41
251.9633, 11535.16
252.4454, 11521.74
252.9276, 11503.66
253.4097, 11451.36
253.8918, 11369.01
254.3739, 11317.48
254.8560, 11325.60
255.3381, 11385.70
255.8203, 11477.26
256.3024, 11592.99
256.7845, 11753.61
257.2666, 11987.77
257.7487, 12281.12
258.2308, 12608.69
258.7130, 12977.96
259.1951, 13370.68
259.6772, 13764.99
260.1593, 14160.83
260.6414, 14556.42
261.1235, 14949.69
261.6057, 15342.42
262.0878, 15747.72
262.5699, 16168.53
263.0520, 16597.35
263.5341, 17020.99
264.0162, 17441.42
264.4984, 17891.49
264.9805, 18378.38
265.4626, 18913.72
265.9447, 19512.63
266.4268, 20187.85
266.9089, 20898.75
267.3911, 21592.27
267.8732, 22301.04
268.3553, 23120.97
268.8374, 24098.55
269.3195, 25177.22
269.8016, 26281.70
270.2838, 27418.88
270.7659, 28525.62
271.2480, 29672.01
271.7301, 30747.27
272.2122, 31652.20
272.6943, 32376.38
273.1765, 32808.04
273.6586, 32809.46
274.1407, 32336.83
274.6228, 31518.10
275.1049, 30249.42
275.5870, 28701.77
276.0692, 26923.72
276.5513, 24956.23
277.0334, 22968.96
277.5155, 21071.45
277.9976, 19267.16
278.4797, 17670.88
278.9619, 16295.56
279.4440, 15084.42
279.9261, 14035.21
280.4082, 13127.09
280.8903, 12338.95
281.3724, 11656.87
281.8546, 11075.27
282.3367, 10571.25
282.8188, 10184.38
283.3009, 9825.489
283.7830, 9481.809
284.2651, 9160.300
284.7473, 8870.213
285.2294, 8616.544
285.7115, 8389.691
286.1936, 8171.867
286.6757, 7966.979
287.1578, 7767.675
287.6400, 7579.850
288.1221, 7394.286
288.6042, 7202.687
289.0863, 7003.906
289.5684, 6803.426
290.0505, 6605.893
290.5327, 6409.198
291.0148, 6226.378
291.4969, 6068.992
291.9790, 5912.313
292.4611, 5739.057
292.9432, 5557.315
293.4254, 5387.498
293.9075, 5246.555
294.3896, 5130.728
294.8717, 5011.879
295.3538, 4883.333
295.8359, 4759.782
296.3181, 4646.736
296.8002, 4539.783
297.2823, 4435.567
297.7644, 4332.124
298.2465, 4229.007
298.7286, 4123.055
299.2108, 4008.332
299.6929, 3906.055
300.1750, 3823.783
300.6571, 3752.993
301.1392, 3690.596
301.6213, 3634.988
302.1035, 3581.910
302.5855, 3526.915
303.0677, 3469.949
303.5498, 3412.552
304.0319, 3353.211
304.5140, 3295.866
304.9961, 3241.655
305.4782, 3191.214
305.9604, 3146.635
306.4425, 3114.600
306.9246, 3089.490
307.4067, 3051.800
307.8888, 2994.255
308.3709, 2943.392
308.8531, 2924.177
309.3352, 2921.778
309.8173, 2912.948
310.2994, 2886.914
310.7815, 2857.375
311.2636, 2839.812
311.7458, 2833.792
312.2279, 2828.391
312.7100, 2821.413
313.1921, 2810.293
313.6742, 2789.120
314.1563, 2751.710
314.6385, 2722.902
315.1206, 2719.848
315.6027, 2733.498
316.0848, 2745.789
316.5669, 2753.328
317.0490, 2753.911
317.5312, 2740.807
318.0133, 2711.798
318.4954, 2692.745
318.9775, 2693.736
319.4596, 2701.663
319.9417, 2704.792
320.4239, 2702.630
320.9060, 2702.147
321.3881, 2710.218
321.8702, 2725.984
322.3523, 2730.647
322.8344, 2715.355
323.3166, 2700.471
323.7987, 2693.651
324.2808, 2692.295
324.7629, 2691.525
325.2450, 2689.161
325.7271, 2685.190
326.2093, 2679.277
326.6914, 2661.782
327.1735, 2656.255
327.6556, 2675.703
328.1377, 2698.666
328.6198, 2706.029
329.1020, 2695.244
329.5841, 2678.976
330.0662, 2672.474
330.5483, 2678.869
331.0304, 2678.175
331.5125, 2665.519
331.9947, 2650.487
332.4768, 2635.399
332.9589, 2620.617
333.4410, 2605.964
333.9231, 2591.528
334.4052, 2577.075
334.8874, 2561.359
335.3695, 2542.224
335.8516, 2526.215
336.3337, 2520.902
336.8158, 2516.187
337.2979, 2499.898
337.7801, 2467.943
338.2622, 2433.634
338.7443, 2413.708
339.2264, 2408.685
339.7085, 2403.493
340.1906, 2397.732
340.6728, 2388.472
341.1549, 2373.049
341.6370, 2351.986
342.1191, 2329.842
342.6012, 2307.149
343.0833, 2285.273
343.5655, 2268.458
344.0476, 2258.051
344.5297, 2246.760
345.0118, 2227.545
345.4939, 2203.906
345.9760, 2185.123
346.4582, 2175.398
346.9403, 2167.167
347.4224, 2154.353
347.9045, 2138.471
348.3866, 2125.373
348.8687, 2118.199
349.3509, 2113.539
349.8330, 2103.856
350.3151, 2086.506
350.7972, 2072.816
351.2793, 2067.282
351.7614, 2064.986
352.2436, 2059.393
352.7257, 2050.106
353.2078, 2043.989
353.6899, 2048.895
354.1720, 2066.476
354.6541, 2075.658
355.1363, 2072.113
355.6184, 2066.497
356.1005, 2064.151
356.5826, 2062.446
357.0647, 2054.771
357.5468, 2037.266
358.0290, 2015.119
358.5111, 2003.898
358.9932, 2014.274
359.4753, 2017.211
359.9574, 2004.644
360.4395, 1988.895
360.9217, 1977.020
361.4038, 1971.143
361.8859, 1972.268
362.3680, 1983.671
362.8501, 2005.804
363.3322, 2025.372
363.8144, 2046.914
364.2965, 2059.192
364.7786, 2050.548
365.2607, 2030.939
365.7428, 2018.965
366.2249, 2024.885
366.7071, 2040.270
367.1892, 2052.927
367.6713, 2063.021
368.1534, 2068.870
368.6355, 2065.648
369.1176, 2060.905
369.5998, 2064.270
370.0819, 2077.211
370.5640, 2091.111
371.0461, 2102.449
371.5282, 2111.389
372.0103, 2117.997
372.4925, 2122.161
372.9746, 2124.682
373.4567, 2125.427
373.9388, 2124.575
374.4209, 2126.285
374.9030, 2136.403
375.3852, 2143.974
375.8673, 2138.087
376.3494, 2123.734
376.8315, 2116.031
377.3136, 2123.200
377.7957, 2139.567
378.2779, 2150.229
378.7600, 2148.679
379.2421, 2150.043
379.7242, 2155.293
380.2063, 2163.038
380.6884, 2172.711
381.1706, 2183.941
381.6527, 2195.638
382.1348, 2206.681
382.6169, 2216.976
383.0990, 2227.976
383.5811, 2237.315
384.0633, 2250.148
384.5454, 2274.023
385.0275, 2300.534
385.5096, 2315.407
385.9917, 2310.825
386.4738, 2299.965
386.9560, 2307.809
387.4381, 2338.671
387.9202, 2364.745
388.4023, 2375.811
388.8844, 2383.633
389.3665, 2397.124
389.8487, 2416.242
390.3308, 2434.795
390.8129, 2446.855
391.2950, 2456.344
391.7771, 2473.615
392.2592, 2500.783
392.7414, 2526.027
393.2235, 2540.311
393.7056, 2546.726
394.1877, 2555.604
394.6698, 2568.791
395.1519, 2582.702
395.6341, 2596.528
396.1162, 2609.640
396.5983, 2620.011
397.0804, 2626.748
397.5625, 2632.972
398.0446, 2643.713
398.5268, 2662.315
399.0089, 2674.279
399.4910, 2673.753
399.9731, 2671.886
400.4552, 2675.315
400.9373, 2683.247
401.4194, 2691.665
401.9016, 2697.980
402.3837, 2702.694
402.8658, 2708.203
403.3479, 2715.772
403.8300, 2722.030
404.3121, 2725.365
404.7943, 2728.148
405.2764, 2733.014
405.7585, 2740.159
406.2406, 2746.691
406.7227, 2748.837
407.2048, 2746.838
407.6870, 2747.530
408.1691, 2754.522
408.6512, 2758.523
409.1333, 2754.146
409.6154, 2743.697
410.0975, 2730.448
410.5797, 2713.302
411.0618, 2696.885
411.5439, 2687.872
412.0260, 2684.958
412.5081, 2679.003
412.9902, 2666.594
413.4724, 2650.625
413.9545, 2634.877
414.4366, 2619.147
414.9187, 2604.398
415.4008, 2587.438
415.8829, 2573.719
416.3651, 2569.537
416.8472, 2574.014
417.3293, 2580.388
417.8114, 2583.790
418.2935, 2585.553
418.7756, 2593.139
419.2578, 2616.356
419.7399, 2633.197
420.2220, 2632.648
420.7041, 2629.818
421.1862, 2639.398
421.6683, 2664.203
422.1505, 2696.824
422.6326, 2728.850
423.1147, 2759.833
423.5968, 2797.116
424.0789, 2842.866
424.5610, 2892.849
425.0432, 2945.220
425.5253, 3000.257
426.0074, 3059.041
426.4895, 3123.206
426.9716, 3188.082
427.4537, 3244.716
427.9359, 3294.045
428.4180, 3353.295
428.9001, 3430.116
429.3822, 3514.024
429.8643, 3592.926
430.3464, 3667.222
430.8286, 3747.780
431.3107, 3843.182
431.7928, 3942.572
432.2749, 4035.971
432.7570, 4123.757
433.2391, 4208.425
433.7213, 4289.517
434.2034, 4372.063
434.6855, 4471.484
435.1676, 4602.676
435.6497, 4729.170
436.1318, 4846.502
436.6140, 4960.132
437.0961, 5078.981
437.5782, 5200.731
438.0603, 5312.226
438.5424, 5398.938
439.0245, 5462.684
439.5067, 5531.573
439.9888, 5615.455
440.4709, 5688.944
440.9530, 5757.439
441.4351, 5808.037
441.9172, 5827.755
442.3994, 5812.830
442.8815, 5767.701
443.3636, 5687.908
443.8457, 5577.889
444.3278, 5471.036
444.8099, 5376.607
445.2921, 5273.420
445.7742, 5141.087
446.2563, 4985.551
446.7384, 4819.499
447.2205, 4632.634
447.7026, 4448.700
448.1848, 4285.639
448.6669, 4138.334
449.1490, 3995.717
449.6311, 3852.286
450.1132, 3712.776
450.5953, 3582.213
451.0775, 3460.280
451.5596, 3352.022
452.0417, 3263.575
452.5238, 3181.417
453.0059, 3096.646
453.4880, 3012.541
453.9702, 2938.932
454.4523, 2882.233
454.9344, 2835.952
455.4165, 2783.156
455.8986, 2719.302
456.3807, 2661.508
456.8629, 2613.689
457.3450, 2572.408
457.8271, 2537.676
458.3092, 2508.667
458.7913, 2482.229
459.2734, 2453.607
459.7556, 2427.149
460.2377, 2415.297
460.7198, 2419.621
461.2019, 2415.381
461.6840, 2386.799
462.1661, 2345.056
462.6483, 2313.787
463.1304, 2296.002
463.6125, 2279.549
464.0946, 2257.207
464.5767, 2236.715
465.0588, 2230.364
465.5410, 2237.152
466.0231, 2241.209
466.5052, 2229.237
466.9873, 2203.236
467.4694, 2182.111
467.9515, 2166.666
468.4337, 2155.414
468.9158, 2151.009
469.3979, 2148.980
469.8800, 2146.120
470.3621, 2141.398
470.8442, 2134.255
471.3264, 2123.169
471.8085, 2108.623
472.2906, 2095.254
472.7727, 2083.744
473.2548, 2072.056
473.7369, 2058.472
474.2191, 2044.374
474.7012, 2031.672
475.1833, 2021.079
475.6654, 2010.932
476.1475, 2000.808
476.6296, 1990.317
477.1118, 1977.735
477.5939, 1962.630
478.0760, 1949.430
478.5581, 1943.831
479.0402, 1945.903
479.5223, 1936.614
480.0045, 1900.563
480.4866, 1873.100
480.9687, 1868.075
481.4508, 1875.612
481.9329, 1885.494
482.4150, 1893.762
482.8972, 1897.045
483.3793, 1888.770
483.8614, 1867.204
484.3435, 1854.074
484.8256, 1857.092
485.3077, 1858.241
485.7899, 1848.530
486.2720, 1833.006
486.7541, 1818.520
487.2362, 1806.057
487.7183, 1798.415
488.2004, 1801.510
488.6826, 1812.077
489.1647, 1816.637
489.6468, 1811.172
490.1289, 1805.971
490.6110, 1812.485
491.0931, 1830.483
491.5753, 1839.092
492.0574, 1828.541
492.5395, 1819.557
493.0216, 1822.931
493.5037, 1832.419
493.9858, 1838.224
494.4680, 1837.361
494.9501, 1833.972
495.4322, 1833.012
495.9143, 1834.341
496.3964, 1839.096
496.8785, 1849.662
497.3607, 1861.048
497.8428, 1875.683
498.3249, 1888.769
498.8070, 1892.163
499.2891, 1881.869
499.7712, 1868.676
500.2533, 1863.532
500.7354, 1865.203
501.2176, 1867.008
501.6997, 1867.057
502.1818, 1870.238
502.6639, 1883.586
503.1460, 1904.989
503.6281, 1917.529
504.1103, 1912.793
504.5924, 1908.079
505.0745, 1910.947
505.5566, 1918.062
506.0387, 1924.785
506.5208, 1929.803
507.0030, 1933.721
507.4851, 1936.673
507.9672, 1938.273
508.4493, 1944.352
508.9314, 1958.061
509.4135, 1972.619
509.8957, 1990.022
510.3778, 2005.514
510.8599, 2011.738
511.3420, 2006.457
511.8241, 2000.144
512.3063, 2002.110
512.7884, 2011.163
513.2705, 2023.036
513.7526, 2037.506
514.2347, 2054.042
514.7169, 2075.599
515.1990, 2098.651
515.6811, 2109.799
516.1632, 2098.167
516.6453, 2090.773
517.1274, 2098.792
517.6096, 2113.928
518.0917, 2127.295
518.5738, 2137.183
519.0559, 2145.834
519.5380, 2154.970
520.0201, 2164.697
520.5023, 2176.504
520.9844, 2192.115
521.4665, 2206.937
521.9486, 2220.044
522.4307, 2232.081
522.9128, 2242.088
523.3950, 2250.523
523.8771, 2262.485
524.3592, 2283.939
524.8413, 2310.874
525.3234, 2333.807
525.8055, 2352.252
526.2877, 2373.699
526.7698, 2403.228
527.2519, 2437.104
527.7340, 2465.028
528.2161, 2483.104
528.6982, 2506.716
529.1804, 2539.309
529.6625, 2577.302
530.1446, 2619.924
530.6267, 2665.587
531.1088, 2710.077
531.5909, 2750.606
532.0731, 2789.358
532.5552, 2831.972
533.0373, 2878.311
533.5194, 2929.343
534.0015, 2988.703
534.4836, 3049.731
534.9658, 3107.996
535.4479, 3164.348
535.9300, 3223.494
536.4121, 3285.338
536.8942, 3352.931
537.3763, 3435.566
537.8585, 3528.211
538.3406, 3606.427
538.8227, 3660.697
539.3048, 3707.244
539.7869, 3766.797
540.2690, 3843.933
540.7512, 3907.726
541.2333, 3950.487
541.7154, 3990.265
542.1975, 4034.320
542.6796, 4079.186
543.1617, 4120.157
543.6439, 4155.461
544.1260, 4185.338
544.6081, 4210.810
545.0902, 4231.700
545.5723, 4243.757
546.0544, 4245.426
546.5366, 4241.326
547.0187, 4233.021
547.5008, 4220.646
547.9829, 4205.306
548.4650, 4190.089
548.9471, 4163.202
549.4292, 4116.214
549.9113, 4056.215
550.3934, 3985.133
550.8755, 3906.866
551.3577, 3842.350
551.8398, 3808.674
552.3219, 3795.251
552.8040, 3756.841
553.2861, 3673.206
553.7682, 3598.823
554.2504, 3539.349
554.7325, 3487.846
555.2146, 3439.949
555.6967, 3395.785
556.1788, 3357.630
556.6609, 3329.011
557.1431, 3304.402
557.6252, 3277.086
558.1073, 3246.727
558.5894, 3209.694
559.0715, 3163.438
559.5536, 3113.475
560.0358, 3063.977
560.5179, 3014.224
561.0000, 2974.224
561.4821, 2951.280
561.9642, 2930.066
562.4464, 2903.602
562.9285, 2874.829
563.4106, 2848.696
563.8927, 2826.563
564.3748, 2805.388
564.8569, 2780.879
565.3391, 2753.296
565.8212, 2729.875
566.3033, 2713.772
566.7854, 2695.412
567.2675, 2669.326
567.7496, 2639.373
568.2318, 2608.900
568.7139, 2577.928
569.1960, 2548.913
569.6781, 2522.872
570.1602, 2499.507
570.6423, 2478.911
571.1245, 2460.656
571.6066, 2442.741
572.0887, 2424.167
572.5708, 2405.195
573.0529, 2386.440
573.5350, 2365.959
574.0172, 2349.591
574.4993, 2339.990
574.9814, 2331.557
575.4635, 2323.422
575.9456, 2314.247
576.4277, 2301.320
576.9099, 2282.635
577.3920, 2263.098
577.8741, 2247.598
578.3562, 2235.777
578.8383, 2227.234
579.3204, 2222.649
579.8026, 2216.247
580.2847, 2202.149
580.7668, 2181.866
581.2489, 2167.732
581.7310, 2162.183
582.2131, 2158.546
582.6953, 2158.465
583.1774, 2158.000
583.6595, 2153.810
584.1416, 2145.708
584.6237, 2135.189
585.1058, 2123.127
585.5880, 2109.759
586.0701, 2093.592
586.5522, 2073.228
587.0343, 2062.524
587.5164, 2071.347
587.9985, 2082.610
588.4807, 2078.225
588.9628, 2060.196
589.4449, 2040.608
589.9270, 2017.868
590.4091, 1997.816
590.8912, 1983.383
591.3734, 1973.687
591.8555, 1968.606
592.3376, 1967.475
592.8197, 1966.130
593.3018, 1959.225
593.7839, 1947.495
594.2661, 1944.089
594.7482, 1956.015
595.2303, 1962.174
595.7124, 1950.077
596.1945, 1933.352
596.6766, 1924.212
597.1588, 1923.263
597.6409, 1921.090
598.1230, 1909.491
598.6051, 1897.752
599.0872, 1898.389
599.5693, 1907.693
600.0515, 1912.300
600.5336, 1907.077
601.0157, 1895.303
601.4978, 1880.093
601.9799, 1859.023
602.4620, 1849.401
602.9442, 1866.035
603.4263, 1876.795
603.9084, 1869.023
604.3905, 1853.190
604.8726, 1841.465
605.3547, 1836.405
605.8369, 1833.713
606.3190, 1830.475
606.8011, 1827.451
607.2832, 1825.882
607.7653, 1825.832
608.2474, 1828.397
608.7296, 1835.659
609.2117, 1841.598
609.6938, 1833.283
610.1759, 1800.599
610.6580, 1782.846
611.1401, 1793.604
611.6223, 1803.350
612.1044, 1798.955
612.5865, 1785.693
613.0686, 1770.803
613.5507, 1756.546
614.0328, 1747.769
614.5150, 1754.889
614.9971, 1771.562
615.4792, 1774.160
615.9613, 1760.173
616.4434, 1747.096
616.9255, 1745.211
617.4077, 1749.264
617.8898, 1747.164
618.3719, 1737.301
618.8540, 1724.925
619.3361, 1702.570
619.8182, 1685.059
620.3004, 1684.395
620.7825, 1694.207
621.2646, 1702.075
621.7467, 1703.038
622.2288, 1700.521
622.7109, 1698.040
623.1931, 1695.674
623.6752, 1693.998
624.1573, 1693.093
624.6394, 1692.807
625.1215, 1693.909
625.6036, 1695.130
626.0858, 1692.621
626.5679, 1683.914
627.0500, 1678.322
627.5321, 1677.820
