##NAMES=Dickite
##RRUFFID=R060298
##IDEAL CHEMISTRY=Al_2_Si_2_O_5_(OH)_4_
##LOCALITY=Piast mine, Nowa Ruda, Sudety Mountains, Poland
##OWNER=RRUFF
##SOURCE=Herb Obodda
##DESCRIPTION=Greenish-blue massive
##STATUS=The identification of this mineral has been confirmed by X-ray diffraction and chemical analysis
##URL=rruff.info/R060298
##MEASURED CHEMISTRY=Al_2.00_Si_2.00_O_5_(OH)_4_ ; OH estimated by difference and charge balance
90.49219, 64.90977
90.97430, 64.36857
91.45642, 64.17829
91.93854, 64.45055
92.42065, 65.04375
92.90277, 65.89650
93.38489, 67.10898
93.86700, 68.14326
94.34912, 68.31612
94.83124, 67.70264
95.31335, 66.71400
95.79547, 65.21056
96.27759, 63.43517
96.75970, 62.39789
97.24182, 62.40461
97.72394, 63.02216
98.20605, 63.40490
98.68817, 63.55271
99.17029, 63.46498
99.65240, 62.93112
100.1345, 61.88696
100.6166, 61.35457
101.0988, 61.59354
101.5809, 62.53809
102.0630, 63.77857
102.5451, 65.62076
103.0272, 67.23581
103.5093, 67.37389
103.9915, 65.06100
104.4736, 63.84975
104.9557, 65.28709
105.4378, 70.28426
105.9199, 72.65378
106.4020, 71.00782
106.8842, 67.42876
107.3663, 65.59618
107.8484, 67.28346
108.3305, 68.68025
108.8126, 68.35743
109.2947, 64.42166
109.7769, 61.91451
110.2590, 61.41798
110.7411, 62.45095
111.2232, 63.53028
111.7053, 64.78265
112.1874, 65.97171
112.6696, 66.98081
113.1517, 67.04903
113.6338, 67.74432
114.1159, 70.12823
114.5980, 73.79507
115.0801, 75.90089
115.5623, 73.75671
116.0444, 70.74920
116.5265, 69.50093
117.0086, 73.47275
117.4907, 76.87188
117.9728, 77.12281
118.4550, 74.06921
118.9371, 70.78320
119.4192, 67.63933
119.9013, 65.25893
120.3834, 64.49004
120.8655, 67.40516
121.3477, 70.96310
121.8298, 72.90181
122.3119, 72.86108
122.7940, 72.27178
123.2761, 72.01600
123.7582, 71.96012
124.2404, 71.80663
124.7225, 71.31070
125.2046, 70.65651
125.6867, 69.79984
126.1688, 68.29619
126.6509, 67.64810
127.1331, 70.23625
127.6152, 75.50610
128.0973, 80.70110
128.5794, 83.40295
129.0615, 84.61343
129.5436, 86.78808
130.0258, 90.77216
130.5079, 95.62106
130.9900, 99.36958
131.4721, 101.9870
131.9542, 105.2985
132.4363, 110.9870
132.9185, 118.8536
133.4006, 127.5168
133.8827, 136.6168
134.3648, 146.1709
134.8469, 156.7626
135.3290, 168.3307
135.8112, 181.2657
136.2933, 195.5749
136.7754, 211.2551
137.2575, 229.2207
137.7396, 250.2503
138.2217, 273.9308
138.7039, 299.0589
139.1860, 326.4687
139.6681, 354.0726
140.1502, 378.7796
140.6323, 399.3484
141.1144, 420.3607
141.5966, 444.3058
142.0787, 472.4134
142.5608, 497.3098
143.0429, 518.4257
143.5250, 536.6216
144.0071, 553.2197
144.4893, 566.4695
144.9714, 580.7363
145.4535, 597.7764
145.9356, 618.4794
146.4177, 640.5051
146.8998, 663.4777
147.3820, 687.7344
147.8641, 715.9801
148.3462, 751.1016
148.8283, 787.1364
149.3104, 821.2164
149.7925, 849.5490
150.2747, 880.6571
150.7568, 915.9291
151.2389, 954.9188
151.7210, 992.2523
152.2031, 1028.043
152.6852, 1061.753
153.1674, 1093.435
153.6495, 1121.999
154.1316, 1149.356
154.6137, 1174.762
155.0958, 1198.164
155.5779, 1223.646
156.0601, 1256.826
156.5422, 1290.055
157.0243, 1316.387
157.5064, 1326.968
157.9885, 1337.638
158.4706, 1354.366
158.9528, 1378.557
159.4349, 1398.720
159.9170, 1406.755
160.3991, 1410.726
160.8812, 1419.957
161.3633, 1440.869
161.8455, 1464.611
162.3276, 1487.124
162.8097, 1507.046
163.2918, 1529.137
163.7739, 1556.149
164.2560, 1584.541
164.7382, 1601.472
165.2203, 1614.986
165.7024, 1627.795
166.1845, 1639.099
166.6666, 1648.350
167.1487, 1657.866
167.6309, 1669.843
168.1130, 1683.168
168.5951, 1695.264
169.0772, 1706.112
169.5593, 1714.785
170.0414, 1719.974
170.5236, 1720.241
171.0057, 1719.973
171.4878, 1722.487
171.9699, 1727.109
172.4520, 1731.773
172.9341, 1736.037
173.4163, 1739.470
173.8984, 1741.287
174.3805, 1740.400
174.8626, 1739.353
175.3447, 1741.504
175.8268, 1746.051
176.3090, 1749.312
176.7911, 1747.128
177.2732, 1742.283
177.7553, 1739.345
178.2374, 1739.968
178.7195, 1742.358
179.2017, 1744.535
179.6838, 1746.516
180.1659, 1748.333
180.6480, 1749.713
181.1301, 1750.945
181.6122, 1752.785
182.0944, 1755.701
182.5765, 1759.141
183.0586, 1762.441
183.5407, 1765.547
184.0228, 1768.225
184.5049, 1770.096
184.9871, 1771.305
185.4692, 1772.336
185.9513, 1773.720
186.4334, 1774.901
186.9155, 1773.548
187.3976, 1769.349
187.8798, 1766.323
188.3619, 1770.541
188.8440, 1780.709
189.3261, 1788.092
189.8082, 1788.232
190.2903, 1783.403
190.7725, 1782.401
191.2546, 1785.838
191.7367, 1789.805
192.2188, 1788.812
192.7009, 1783.177
193.1830, 1779.182
193.6652, 1779.246
194.1473, 1782.957
194.6294, 1788.476
195.1115, 1796.342
195.5936, 1804.222
196.0757, 1808.623
196.5579, 1809.436
197.0400, 1810.134
197.5221, 1812.399
198.0042, 1816.058
198.4863, 1818.607
198.9684, 1820.125
199.4506, 1820.355
199.9327, 1818.730
200.4148, 1815.148
200.8969, 1810.706
201.3790, 1805.606
201.8611, 1799.836
202.3433, 1793.831
202.8254, 1787.174
203.3075, 1780.856
203.7896, 1776.872
204.2717, 1775.505
204.7538, 1774.704
205.2360, 1773.661
205.7181, 1772.333
206.2002, 1770.979
206.6823, 1769.512
207.1644, 1768.107
207.6465, 1767.259
208.1287, 1767.244
208.6108, 1766.902
209.0929, 1765.294
209.5750, 1761.845
210.0571, 1760.661
210.5392, 1762.677
211.0214, 1766.184
211.5035, 1767.496
211.9856, 1766.044
212.4677, 1764.076
212.9498, 1762.269
213.4319, 1760.284
213.9140, 1760.159
214.3962, 1762.586
214.8783, 1766.434
215.3604, 1769.128
215.8425, 1770.562
216.3246, 1771.071
216.8067, 1770.506
217.2889, 1768.237
217.7710, 1766.891
218.2531, 1766.350
218.7352, 1766.773
219.2173, 1768.952
219.6994, 1774.162
220.1816, 1778.652
220.6637, 1780.331
221.1458, 1777.433
221.6279, 1776.915
222.1100, 1779.507
222.5921, 1784.304
223.0743, 1789.204
223.5564, 1794.555
224.0385, 1799.440
224.5206, 1803.194
225.0027, 1805.241
225.4848, 1808.041
225.9670, 1812.107
226.4491, 1816.797
226.9312, 1820.132
227.4133, 1820.387
227.8954, 1822.047
228.3775, 1827.712
228.8597, 1840.436
229.3418, 1849.611
229.8239, 1853.741
230.3060, 1854.565
230.7881, 1856.577
231.2702, 1859.159
231.7524, 1863.802
232.2345, 1871.345
232.7166, 1883.305
233.1987, 1895.025
233.6808, 1907.606
234.1629, 1919.604
234.6451, 1926.825
235.1272, 1926.066
235.6093, 1925.304
236.0914, 1928.340
236.5735, 1937.629
237.0556, 1945.289
237.5378, 1951.170
238.0199, 1955.558
238.5020, 1959.044
238.9841, 1961.445
239.4662, 1963.352
239.9483, 1964.910
240.4305, 1965.648
240.9126, 1967.193
241.3947, 1970.287
241.8768, 1973.918
242.3589, 1975.688
242.8410, 1975.559
243.3232, 1973.552
243.8053, 1969.215
244.2874, 1960.596
244.7695, 1954.451
245.2516, 1952.118
245.7337, 1951.684
246.2159, 1948.782
246.6980, 1942.175
247.1801, 1935.051
247.6622, 1928.248
248.1443, 1920.919
248.6264, 1916.386
249.1086, 1915.125
249.5907, 1916.403
250.0728, 1919.000
250.5549, 1924.035
251.0370, 1928.486
251.5191, 1930.899
252.0013, 1930.166
252.4834, 1930.956
252.9655, 1933.575
253.4476, 1937.468
253.9297, 1941.629
254.4118, 1945.799
254.8940, 1950.591
255.3761, 1956.629
255.8582, 1964.799
256.3403, 1970.544
256.8224, 1972.840
257.3046, 1973.529
257.7867, 1975.769
258.2688, 1980.567
258.7509, 1984.895
259.2330, 1987.479
259.7151, 1987.885
260.1973, 1989.261
260.6794, 1991.121
261.1615, 1994.443
261.6436, 2000.452
262.1257, 2009.044
262.6078, 2020.737
263.0900, 2036.213
263.5721, 2056.065
264.0542, 2075.415
264.5363, 2095.444
265.0184, 2113.719
265.5005, 2127.800
265.9827, 2137.297
266.4648, 2143.328
266.9469, 2146.339
267.4290, 2146.369
267.9111, 2141.262
268.3932, 2129.830
268.8754, 2115.105
269.3575, 2100.836
269.8396, 2087.722
270.3217, 2071.889
270.8038, 2051.690
271.2859, 2027.258
271.7681, 2004.193
272.2502, 1982.352
272.7323, 1962.204
273.2144, 1944.581
273.6965, 1929.298
274.1786, 1917.120
274.6608, 1908.644
275.1429, 1903.485
275.6250, 1898.767
276.1071, 1894.705
276.5892, 1890.506
277.0714, 1884.835
277.5535, 1877.229
278.0356, 1872.424
278.5177, 1872.211
278.9998, 1875.253
279.4819, 1876.060
279.9641, 1874.433
280.4462, 1871.517
280.9283, 1867.568
281.4104, 1862.552
281.8925, 1859.137
282.3746, 1858.346
282.8568, 1858.953
283.3389, 1856.990
283.8210, 1852.082
284.3031, 1847.409
284.7852, 1845.587
285.2673, 1846.428
285.7495, 1846.386
286.2316, 1844.485
286.7137, 1842.198
287.1958, 1843.312
287.6779, 1847.927
288.1600, 1852.121
288.6422, 1852.968
289.1243, 1850.943
289.6064, 1849.551
290.0885, 1849.143
290.5706, 1849.258
291.0527, 1849.005
291.5349, 1848.459
292.0170, 1848.518
292.4991, 1850.464
292.9812, 1853.575
293.4633, 1854.781
293.9454, 1853.619
294.4276, 1851.980
294.9097, 1852.501
295.3918, 1854.851
295.8739, 1857.274
296.3560, 1859.487
296.8381, 1861.090
297.3203, 1860.651
297.8024, 1857.950
298.2845, 1854.902
298.7666, 1853.090
299.2487, 1852.503
299.7308, 1853.084
300.2130, 1855.589
300.6951, 1858.967
301.1772, 1861.714
301.6593, 1863.834
302.1414, 1865.289
302.6235, 1865.871
303.1057, 1865.779
303.5878, 1865.359
304.0699, 1864.512
304.5520, 1863.601
305.0341, 1862.383
305.5162, 1861.069
305.9984, 1861.437
306.4805, 1866.160
306.9626, 1872.998
307.4447, 1878.858
307.9268, 1883.357
308.4089, 1886.057
308.8911, 1885.066
309.3732, 1881.381
309.8553, 1879.172
310.3374, 1882.062
310.8195, 1887.079
311.3016, 1891.103
311.7838, 1892.806
312.2659, 1894.873
312.7480, 1899.502
313.2301, 1905.873
313.7122, 1912.008
314.1943, 1918.514
314.6765, 1923.573
315.1586, 1924.810
315.6407, 1920.099
316.1228, 1917.992
316.6049, 1924.579
317.0870, 1936.228
317.5692, 1946.832
318.0513, 1953.096
318.5334, 1958.761
319.0155, 1966.016
319.4976, 1975.480
319.9797, 1983.506
320.4619, 1986.498
320.9440, 1988.227
321.4261, 1992.872
321.9082, 2004.889
322.3903, 2016.622
322.8724, 2025.620
323.3546, 2031.756
323.8367, 2037.521
324.3188, 2042.463
324.8009, 2047.782
325.2830, 2054.336
325.7651, 2062.620
326.2473, 2071.853
326.7294, 2081.058
327.2115, 2090.669
327.6936, 2103.955
328.1757, 2124.772
328.6578, 2146.534
329.1400, 2166.034
329.6221, 2180.408
330.1042, 2196.079
330.5863, 2213.762
331.0684, 2232.834
331.5505, 2251.149
332.0327, 2268.770
332.5148, 2285.683
332.9969, 2302.622
333.4790, 2321.495
333.9611, 2334.088
334.4432, 2339.270
334.9254, 2338.784
335.4075, 2335.695
335.8896, 2330.724
336.3717, 2321.622
336.8538, 2307.273
337.3359, 2287.159
337.8180, 2265.769
338.3001, 2242.359
338.7823, 2218.908
339.2644, 2198.582
339.7465, 2182.253
340.2286, 2164.467
340.7107, 2142.858
341.1928, 2118.347
341.6750, 2100.376
342.1571, 2089.975
342.6392, 2081.229
343.1213, 2067.976
343.6034, 2050.192
344.0855, 2036.313
344.5677, 2028.772
345.0498, 2024.959
345.5319, 2018.541
346.0140, 2009.420
346.4961, 2000.593
346.9782, 1994.198
347.4604, 1989.812
347.9425, 1984.884
348.4246, 1978.275
348.9067, 1973.749
349.3888, 1980.280
349.8709, 1995.500
350.3531, 2006.141
350.8352, 2002.220
351.3173, 1989.959
351.7994, 1980.979
352.2815, 1975.836
352.7636, 1972.440
353.2458, 1968.227
353.7279, 1964.249
354.2100, 1962.836
354.6921, 1966.876
355.1742, 1972.496
355.6563, 1975.666
356.1385, 1976.517
356.6206, 1976.769
357.1027, 1977.119
357.5848, 1977.686
358.0669, 1978.755
358.5490, 1981.194
359.0312, 1982.926
359.5133, 1981.836
359.9954, 1978.791
360.4775, 1976.497
360.9596, 1975.891
361.4417, 1976.702
361.9239, 1979.071
362.4060, 1983.717
362.8881, 1987.834
363.3702, 1989.881
363.8523, 1990.829
364.3344, 1992.165
364.8166, 1996.709
365.2987, 1999.596
365.7808, 1997.932
366.2629, 1990.889
366.7450, 1985.702
367.2271, 1985.799
367.7093, 1987.152
368.1914, 1986.223
368.6735, 1979.212
369.1556, 1973.795
369.6377, 1971.180
370.1198, 1971.161
370.6020, 1972.434
371.0841, 1976.344
371.5662, 1980.311
372.0483, 1982.960
372.5304, 1984.096
373.0125, 1984.231
373.4947, 1982.814
373.9768, 1980.593
374.4589, 1979.310
374.9410, 1979.147
375.4231, 1979.568
375.9052, 1980.840
376.3874, 1983.359
376.8695, 1983.103
377.3516, 1978.735
377.8337, 1973.856
378.3158, 1973.426
378.7979, 1978.101
379.2801, 1982.350
379.7622, 1984.512
380.2443, 1985.093
380.7264, 1986.940
381.2085, 1990.341
381.6906, 1992.801
382.1728, 1991.064
382.6549, 1985.948
383.1370, 1983.049
383.6191, 1983.829
384.1012, 1986.240
384.5833, 1986.595
385.0655, 1985.215
385.5476, 1984.518
386.0297, 1986.829
386.5118, 1990.551
386.9939, 1992.529
387.4760, 1992.278
387.9582, 1991.881
388.4403, 1993.712
388.9224, 1996.852
389.4045, 1999.376
389.8866, 1999.843
390.3687, 1999.826
390.8509, 2000.599
391.3330, 2002.120
391.8151, 2003.893
392.2972, 2006.362
392.7793, 2008.574
393.2614, 2009.578
393.7436, 2008.627
394.2257, 2007.129
394.7078, 2005.323
395.1899, 2003.394
395.6720, 2001.823
396.1541, 1998.582
396.6363, 1997.496
397.1184, 2001.457
397.6005, 2013.433
398.0826, 2022.031
398.5647, 2023.417
399.0468, 2021.264
399.5290, 2020.024
400.0111, 2019.550
400.4932, 2020.519
400.9753, 2023.090
401.4574, 2027.279
401.9395, 2032.878
402.4217, 2041.705
402.9038, 2050.045
403.3859, 2055.125
403.8680, 2055.071
404.3501, 2056.249
404.8322, 2059.560
405.3144, 2064.114
405.7965, 2067.364
406.2786, 2068.945
406.7607, 2070.467
407.2428, 2072.312
407.7249, 2074.452
408.2071, 2078.679
408.6892, 2085.585
409.1713, 2092.875
409.6534, 2097.281
410.1355, 2098.946
410.6176, 2101.195
411.0998, 2105.401
411.5819, 2110.595
412.0640, 2114.401
412.5461, 2116.828
413.0282, 2118.898
413.5103, 2121.308
413.9925, 2123.897
414.4746, 2126.225
414.9567, 2128.011
415.4388, 2130.163
415.9209, 2134.704
416.4030, 2140.446
416.8852, 2144.556
417.3673, 2143.430
417.8494, 2141.452
418.3315, 2142.896
418.8136, 2148.033
419.2957, 2152.514
419.7779, 2152.166
420.2600, 2150.658
420.7421, 2151.672
421.2242, 2159.496
421.7063, 2166.657
422.1884, 2170.269
422.6706, 2171.190
423.1527, 2172.785
423.6348, 2176.173
424.1169, 2180.130
424.5990, 2184.046
425.0811, 2187.303
425.5633, 2191.860
426.0454, 2198.366
426.5275, 2205.935
427.0096, 2213.666
427.4917, 2222.430
427.9738, 2229.837
428.4560, 2234.274
428.9381, 2236.070
429.4202, 2242.469
429.9023, 2255.387
430.3844, 2269.167
430.8665, 2279.840
431.3487, 2287.239
431.8308, 2291.999
432.3129, 2293.156
432.7950, 2292.974
433.2771, 2297.335
433.7592, 2306.461
434.2414, 2313.067
434.7235, 2312.797
435.2056, 2307.100
435.6877, 2301.746
436.1698, 2296.797
436.6519, 2291.532
437.1341, 2285.365
437.6162, 2278.403
438.0983, 2270.601
438.5804, 2261.284
439.0625, 2252.122
439.5446, 2245.792
440.0268, 2241.510
440.5089, 2236.372
440.9910, 2226.188
441.4731, 2215.914
441.9552, 2210.550
442.4373, 2211.603
442.9195, 2212.683
443.4016, 2209.447
443.8837, 2204.784
444.3658, 2202.204
444.8479, 2203.660
445.3300, 2206.444
445.8122, 2209.680
446.2943, 2213.413
446.7764, 2218.451
447.2585, 2225.473
447.7406, 2233.378
448.2227, 2241.927
448.7049, 2252.866
449.1870, 2260.765
449.6691, 2263.429
450.1512, 2264.108
450.6333, 2267.857
451.1154, 2275.548
451.5976, 2284.523
452.0797, 2294.247
452.5618, 2304.703
453.0439, 2315.193
453.5260, 2325.463
454.0081, 2335.924
454.4903, 2346.719
454.9724, 2357.765
455.4545, 2370.190
455.9366, 2384.716
456.4187, 2399.222
456.9008, 2408.272
457.3830, 2412.859
457.8651, 2419.620
458.3472, 2434.942
458.8293, 2453.633
459.3114, 2466.386
459.7935, 2473.053
460.2757, 2477.463
460.7578, 2482.154
461.2399, 2486.552
461.7220, 2489.996
462.2041, 2492.974
462.6862, 2493.863
463.1684, 2490.623
463.6505, 2484.444
464.1326, 2478.160
464.6147, 2475.348
465.0968, 2470.642
465.5789, 2459.913
466.0611, 2441.733
466.5432, 2426.700
467.0253, 2420.534
467.5074, 2416.530
467.9895, 2409.119
468.4716, 2395.309
468.9538, 2381.252
469.4359, 2367.051
469.9180, 2353.004
470.4001, 2339.647
470.8822, 2325.744
471.3643, 2315.078
471.8465, 2310.777
472.3286, 2314.026
472.8107, 2310.697
473.2928, 2299.260
473.7749, 2285.276
474.2570, 2274.894
474.7392, 2268.105
475.2213, 2262.050
475.7034, 2256.004
476.1855, 2250.466
476.6676, 2246.328
477.1497, 2243.571
477.6319, 2242.211
478.1140, 2243.155
478.5961, 2245.154
479.0782, 2246.346
479.5603, 2246.608
480.0424, 2245.736
480.5246, 2243.280
481.0067, 2239.632
481.4888, 2235.295
481.9709, 2229.189
482.4530, 2223.807
482.9352, 2220.732
483.4173, 2219.468
483.8994, 2218.460
484.3815, 2217.708
484.8636, 2216.654
485.3457, 2215.201
485.8279, 2213.583
486.3100, 2210.617
486.7921, 2204.113
487.2742, 2197.380
487.7563, 2193.439
488.2384, 2194.692
488.7206, 2194.608
489.2027, 2192.234
489.6848, 2188.063
490.1669, 2183.634
490.6490, 2178.780
491.1311, 2174.350
491.6133, 2170.976
492.0954, 2168.635
492.5775, 2165.867
493.0596, 2162.498
493.5417, 2159.557
494.0238, 2158.923
494.5060, 2159.947
494.9881, 2159.389
495.4702, 2155.756
495.9523, 2151.273
496.4344, 2149.233
496.9165, 2149.160
497.3987, 2149.281
497.8808, 2148.491
498.3629, 2147.474
498.8450, 2146.799
499.3271, 2146.486
499.8092, 2146.575
500.2914, 2147.155
500.7735, 2148.077
501.2556, 2149.218
501.7377, 2150.819
502.2198, 2152.254
502.7019, 2153.261
503.1841, 2153.988
503.6662, 2154.874
504.1483, 2156.871
504.6304, 2158.060
505.1125, 2157.508
505.5946, 2154.991
506.0768, 2154.034
506.5589, 2155.642
507.0410, 2157.388
507.5231, 2157.303
508.0052, 2155.236
508.4873, 2152.394
508.9695, 2148.703
509.4516, 2144.721
509.9337, 2141.141
510.4158, 2138.005
510.8979, 2136.273
511.3800, 2137.488
511.8622, 2140.003
512.3443, 2139.642
512.8264, 2136.544
513.3085, 2133.539
513.7906, 2133.292
514.2728, 2134.218
514.7549, 2134.124
515.2370, 2132.234
515.7191, 2130.400
516.2012, 2129.406
516.6833, 2129.316
517.1655, 2130.200
517.6476, 2134.674
518.1297, 2137.582
518.6118, 2136.246
519.0939, 2131.075
519.5760, 2126.931
520.0582, 2123.991
520.5403, 2122.611
521.0224, 2123.380
521.5045, 2127.755
521.9866, 2129.717
522.4688, 2127.655
522.9509, 2124.919
523.4330, 2126.210
523.9151, 2132.506
524.3972, 2137.289
524.8793, 2138.786
525.3615, 2138.164
525.8436, 2138.594
526.3257, 2140.052
526.8078, 2141.075
527.2899, 2139.922
527.7720, 2137.883
528.2542, 2138.568
528.7363, 2142.240
529.2184, 2145.406
529.7005, 2144.384
530.1826, 2141.273
530.6647, 2138.930
531.1469, 2138.590
531.6290, 2138.479
532.1111, 2136.312
532.5932, 2133.749
533.0753, 2134.183
533.5574, 2143.094
534.0396, 2150.804
534.5217, 2153.103
535.0038, 2149.433
535.4859, 2147.657
535.9680, 2149.639
536.4501, 2151.877
536.9323, 2152.397
537.4144, 2150.817
537.8965, 2148.221
538.3786, 2143.654
538.8607, 2139.405
539.3428, 2139.797
539.8250, 2145.264
540.3071, 2149.775
540.7892, 2151.739
541.2713, 2151.564
541.7534, 2149.219
542.2355, 2144.968
542.7177, 2141.499
543.1998, 2141.243
543.6819, 2142.570
544.1640, 2142.968
544.6461, 2142.218
545.1282, 2141.215
545.6104, 2140.491
546.0925, 2139.885
546.5746, 2139.195
547.0567, 2138.026
547.5388, 2137.209
548.0209, 2137.134
548.5031, 2137.598
548.9852, 2138.155
549.4673, 2138.506
549.9494, 2139.197
550.4315, 2140.491
550.9136, 2142.388
551.3958, 2143.926
551.8779, 2144.704
552.3600, 2145.813
552.8421, 2148.399
553.3242, 2152.799
553.8063, 2155.469
554.2885, 2156.184
554.7706, 2155.377
555.2527, 2152.994
555.7348, 2149.327
556.2169, 2146.079
556.6990, 2143.371
557.1812, 2141.884
557.6633, 2143.771
558.1454, 2148.081
558.6275, 2151.249
559.1096, 2150.685
559.5917, 2148.505
560.0739, 2145.810
560.5560, 2142.656
561.0381, 2140.865
561.5202, 2142.145
562.0023, 2144.510
562.4844, 2146.489
562.9666, 2147.334
563.4487, 2148.600
563.9308, 2150.629
564.4129, 2152.983
564.8950, 2155.307
565.3771, 2158.745
565.8593, 2159.145
566.3414, 2153.797
566.8235, 2144.896
567.3056, 2143.287
567.7877, 2149.922
568.2698, 2156.893
568.7520, 2159.248
569.2341, 2158.044
569.7162, 2157.388
570.1983, 2157.451
570.6804, 2157.474
571.1625, 2156.568
571.6447, 2155.218
572.1268, 2154.157
572.6089, 2153.474
573.0910, 2153.333
573.5731, 2155.064
574.0552, 2157.237
574.5374, 2157.374
575.0195, 2151.674
575.5016, 2146.877
575.9837, 2146.103
576.4658, 2148.979
576.9479, 2149.961
577.4301, 2147.611
577.9122, 2144.911
578.3943, 2142.529
578.8764, 2139.846
579.3585, 2142.059
579.8406, 2151.234
580.3228, 2160.690
580.8049, 2162.338
581.2870, 2156.674
581.7691, 2152.955
582.2512, 2153.072
582.7333, 2154.944
583.2155, 2155.352
583.6975, 2154.852
584.1796, 2155.286
584.6617, 2157.845
585.1439, 2161.416
585.6260, 2165.694
586.1081, 2170.345
