##NAMES=Diegogattaite
##RRUFFID=R120156
##IDEAL CHEMISTRY=Na_2_CaCu^2+^_2_Si_8_O_20_&#183;H_2_O
##LOCALITY=Wessels mine, Kalahari manganese field, Northern Cape Province, South Africa
##OWNER=RRUFF
##SOURCE=Marcus Origlieri
##DESCRIPTION=Lighter greenish blue massive, associated with darker blue wesselsite and quartz
##STATUS=The identification of this mineral is confirmed by single-crystal X-ray diffraction and chemical analysis.
##URL=rruff.info/R120156
##MEASURED CHEMISTRY=(Na_1.98_Mg_0.01_)_Σ=1.99_(Ca_0.98_Cu_0.02_)_Σ=1.00_Cu_2.00_Si_8_O_20.00_·H_2_O; The mineral is medium gray, associated with wesselsite (white) and quartz (dark gray); Normalized to 8 Si atoms; water assumed from crystal structure solution
93.97052, 101.4862
94.45264, 98.02782
94.93475, 93.03945
95.41687, 88.42754
95.89898, 84.01115
96.38110, 80.06950
96.86321, 76.93034
97.34533, 74.66762
97.82745, 72.88716
98.30956, 71.05977
98.79168, 69.01669
99.27380, 67.13950
99.75591, 65.48803
100.2380, 64.03635
100.7201, 62.77011
101.2023, 61.68910
101.6844, 60.79330
102.1665, 59.98867
102.6486, 59.31350
103.1307, 58.68679
103.6128, 58.01687
104.0950, 57.27589
104.5771, 56.59829
105.0592, 56.15188
105.5413, 55.80350
106.0234, 55.35358
106.5055, 54.67359
106.9877, 53.81324
107.4698, 52.96358
107.9519, 52.03657
108.4340, 51.23597
108.9161, 50.67853
109.3982, 50.30625
109.8804, 49.98065
110.3625, 49.52983
110.8446, 48.86694
111.3267, 48.55409
111.8088, 48.78294
112.2909, 49.16664
112.7731, 49.58640
113.2552, 49.99598
113.7373, 50.37196
114.2194, 50.66273
114.7015, 50.69250
115.1836, 50.98685
115.6658, 51.82508
116.1479, 52.78976
116.6300, 53.50629
117.1121, 53.84655
117.5942, 53.86333
118.0763, 53.61431
118.5584, 53.04317
119.0406, 52.40696
119.5227, 51.70592
120.0048, 50.98421
120.4869, 50.35553
120.9690, 49.86723
121.4511, 49.52803
121.9333, 49.31667
122.4154, 49.31505
122.8975, 49.30040
123.3796, 49.07275
123.8617, 48.61466
124.3438, 48.08685
124.8260, 47.57500
125.3081, 47.02873
125.7902, 46.35359
126.2723, 45.45309
126.7544, 44.49334
127.2365, 43.90156
127.7187, 43.96767
128.2008, 43.92145
128.6829, 43.57560
129.1650, 42.98901
129.6471, 42.22576
130.1292, 41.30320
130.6114, 40.23545
131.0935, 39.22994
131.5756, 38.36671
132.0577, 37.48587
132.5398, 36.48578
133.0219, 35.42546
133.5041, 34.45376
133.9862, 33.70262
134.4683, 33.20474
134.9504, 32.72855
135.4325, 32.18260
135.9146, 31.72109
136.3968, 31.49114
136.8789, 31.48364
137.3610, 31.51239
137.8431, 31.34961
138.3252, 30.93476
138.8073, 30.64269
139.2895, 30.64692
139.7716, 30.72388
140.2537, 30.56852
140.7358, 30.07364
141.2179, 29.50710
141.7000, 29.23839
142.1821, 29.23636
142.6643, 29.26269
143.1464, 29.21582
143.6285, 29.11849
144.1106, 29.06027
144.5927, 29.10105
145.0748, 29.13828
145.5570, 29.08484
146.0391, 28.93982
146.5212, 28.75402
147.0033, 28.54090
147.4854, 28.28937
147.9675, 28.11744
148.4497, 28.13001
148.9318, 28.17917
149.4139, 28.21658
149.8960, 28.22542
150.3781, 28.16825
150.8602, 27.96164
151.3424, 27.47750
151.8245, 27.12387
152.3066, 26.91400
152.7887, 26.83110
153.2708, 26.89618
153.7529, 27.11121
154.2351, 27.41038
154.7172, 27.63298
155.1993, 27.85581
155.6814, 27.87915
156.1635, 27.48974
156.6456, 26.95844
157.1278, 26.62399
157.6099, 26.66242
158.0920, 26.97948
158.5741, 27.17936
159.0562, 27.20022
159.5383, 27.19372
160.0205, 27.14514
160.5026, 27.09090
160.9847, 27.14363
161.4668, 27.42159
161.9489, 27.81857
162.4310, 27.88934
162.9131, 27.40386
163.3953, 26.84422
163.8774, 26.48083
164.3595, 26.29810
164.8416, 26.15742
165.3237, 26.01607
165.8058, 25.84449
166.2880, 25.57058
166.7701, 25.00424
167.2522, 24.47524
167.7343, 24.46801
168.2164, 25.11185
168.6985, 25.66219
169.1807, 25.55266
169.6628, 25.11933
170.1449, 24.74386
170.6270, 24.57442
171.1091, 24.54724
171.5912, 24.51082
172.0734, 24.42412
172.5555, 24.41151
173.0376, 24.56218
173.5197, 24.79593
174.0018, 24.99910
174.4839, 25.09887
174.9661, 25.11389
175.4482, 25.15732
175.9303, 25.27927
176.4124, 25.37304
176.8945, 25.39777
177.3766, 25.37556
177.8588, 25.34842
178.3409, 25.35012
178.8230, 25.38116
179.3051, 25.36854
179.7872, 25.30266
180.2693, 25.20339
180.7515, 25.00833
181.2336, 24.77307
181.7157, 24.63519
182.1978, 24.73046
182.6799, 25.09842
183.1620, 25.30343
183.6441, 25.14170
184.1263, 25.03309
184.6084, 25.22389
185.0905, 25.69076
185.5726, 26.21869
186.0547, 26.60209
186.5368, 26.81240
187.0190, 27.12958
187.5011, 27.67756
187.9832, 28.23810
188.4653, 28.66618
188.9474, 28.94276
189.4296, 29.10905
189.9117, 29.19666
190.3938, 29.20023
190.8759, 29.10273
191.3580, 28.86362
191.8401, 28.53986
192.3223, 28.16735
192.8044, 27.73529
193.2865, 27.32935
193.7686, 27.05110
194.2507, 26.86910
194.7328, 26.71317
195.2150, 26.52753
195.6971, 26.35841
196.1792, 26.28971
196.6613, 26.32187
197.1434, 26.47817
197.6255, 26.79430
198.1077, 27.23729
198.5898, 27.73180
199.0719, 28.27574
199.5540, 28.85107
200.0361, 29.37542
200.5182, 29.84440
201.0004, 30.26019
201.4825, 30.69307
201.9646, 31.09120
202.4467, 31.31978
202.9288, 31.22209
203.4109, 30.82147
203.8930, 30.52118
204.3752, 30.46902
204.8573, 30.36691
205.3394, 30.10648
205.8215, 29.70749
206.3036, 29.22955
206.7857, 28.71113
207.2679, 28.14993
207.7500, 27.59414
208.2321, 26.97946
208.7142, 26.43031
209.1963, 26.01616
209.6784, 25.71066
210.1606, 25.44035
210.6427, 25.14245
211.1248, 24.81618
211.6069, 24.48369
212.0890, 24.07380
212.5711, 23.72324
213.0533, 23.49146
213.5354, 23.37127
214.0175, 23.31690
214.4996, 23.28669
214.9817, 23.27539
215.4638, 23.33848
215.9460, 23.50358
216.4281, 23.69986
216.9102, 23.96537
217.3923, 24.25641
217.8744, 24.42318
218.3565, 24.30187
218.8387, 23.84341
219.3208, 23.53374
219.8029, 23.52656
220.2850, 23.52386
220.7671, 23.32521
221.2492, 22.93513
221.7314, 22.50658
222.2135, 22.16887
222.6956, 21.93023
223.1777, 21.66539
223.6598, 21.29679
224.1419, 20.95762
224.6240, 20.77082
225.1062, 20.73647
225.5883, 20.73461
226.0704, 20.67341
226.5525, 20.55842
227.0346, 20.45119
227.5167, 20.31334
227.9989, 20.21118
228.4810, 20.21518
228.9631, 20.33000
229.4452, 20.49912
229.9273, 20.73021
230.4094, 20.98342
230.8916, 21.14860
231.3737, 21.10549
231.8558, 21.02197
232.3379, 21.12727
232.8200, 21.45441
233.3021, 21.73713
233.7843, 21.71583
234.2664, 21.55558
234.7485, 21.50265
235.2306, 21.60919
235.7127, 21.85769
236.1948, 22.29074
236.6770, 22.98026
237.1591, 23.56352
237.6412, 23.70543
238.1233, 23.68368
238.6054, 23.80472
239.0875, 24.18875
239.5697, 24.71810
240.0518, 25.20227
240.5339, 25.61883
241.0160, 26.07023
241.4981, 26.63290
241.9802, 27.23311
242.4624, 27.83976
242.9445, 28.47285
243.4266, 29.00557
243.9087, 29.18949
244.3908, 28.91962
244.8729, 28.57565
245.3550, 28.27411
245.8372, 27.94662
246.3193, 27.53347
246.8014, 27.01320
247.2835, 26.40707
247.7656, 25.71894
248.2477, 24.88205
248.7299, 24.13085
249.2120, 23.52506
249.6941, 22.99899
250.1762, 22.53171
250.6583, 22.11172
251.1404, 21.69188
251.6226, 21.16660
252.1047, 20.43564
252.5868, 19.83927
253.0689, 19.49831
253.5510, 19.22052
254.0331, 18.86044
254.5153, 18.38587
254.9974, 17.87409
255.4795, 17.42203
255.9616, 16.97674
256.4437, 16.73064
256.9258, 16.77527
257.4080, 16.91322
257.8901, 17.06573
258.3722, 17.19424
258.8543, 17.24750
259.3364, 17.13666
259.8185, 16.74832
260.3007, 16.48409
260.7828, 16.36546
261.2649, 16.32252
261.7470, 16.35170
262.2291, 16.43044
262.7112, 16.48837
263.1934, 16.42646
263.6755, 16.16047
264.1576, 16.09592
264.6397, 16.45716
265.1218, 16.79268
265.6039, 16.83846
266.0861, 16.60028
266.5682, 16.24118
267.0503, 15.89841
267.5324, 15.55080
268.0145, 15.39090
268.4966, 15.53219
268.9788, 15.71600
269.4609, 15.85170
269.9430, 15.92204
270.4251, 15.92403
270.9072, 15.85067
271.3893, 15.70034
271.8715, 15.52679
272.3536, 15.11928
272.8357, 14.89520
273.3178, 15.24793
273.7999, 15.96454
274.2820, 16.44099
274.7642, 16.22707
275.2463, 15.39847
275.7284, 14.90070
276.2105, 14.91515
276.6926, 14.97445
277.1747, 14.90869
277.6568, 14.76803
278.1389, 14.68166
278.6211, 14.72483
279.1032, 14.86754
279.5853, 14.98430
280.0674, 15.08949
280.5495, 15.15959
281.0316, 15.15809
281.5138, 15.12108
281.9959, 15.11812
282.4780, 15.18343
282.9601, 15.28542
283.4422, 15.33846
283.9243, 15.31134
284.4065, 15.30283
284.8886, 15.38503
285.3707, 15.48445
285.8528, 15.45913
286.3349, 15.24700
286.8170, 14.99553
287.2992, 14.98842
287.7813, 15.33099
288.2634, 15.53858
288.7455, 15.44479
289.2276, 15.21216
289.7097, 15.01691
290.1919, 14.89718
290.6740, 14.84912
291.1561, 14.91087
291.6382, 15.11415
292.1203, 15.15560
292.6024, 14.83454
293.0846, 14.43448
293.5667, 14.25382
294.0488, 14.32766
294.5309, 14.45521
295.0130, 14.44151
295.4951, 14.28594
295.9773, 14.22304
296.4594, 14.36333
296.9415, 14.52488
297.4236, 14.56947
297.9057, 14.49473
298.3878, 14.35459
298.8700, 14.13637
299.3521, 13.88594
299.8342, 13.82959
300.3163, 14.21160
300.7984, 14.56215
301.2805, 14.56150
301.7627, 14.27194
302.2448, 13.98068
302.7269, 13.81643
303.2090, 13.77113
303.6911, 13.80426
304.1732, 13.96511
304.6554, 14.11626
305.1375, 14.16068
305.6196, 14.14627
306.1017, 14.22439
306.5838, 14.49278
307.0659, 14.80336
307.5481, 14.82251
308.0302, 14.47071
308.5123, 14.20918
308.9944, 14.24625
309.4765, 14.45757
309.9586, 14.64625
310.4408, 14.76842
310.9229, 14.83220
311.4050, 14.83463
311.8871, 14.77763
312.3692, 14.69469
312.8513, 14.56067
313.3335, 14.41845
313.8156, 14.31200
314.2977, 14.24752
314.7798, 14.22898
315.2619, 14.29442
315.7440, 14.43147
316.2262, 14.46899
316.7083, 14.32060
317.1904, 14.11879
317.6725, 13.94708
318.1546, 13.81269
318.6367, 13.74626
319.1188, 13.79471
319.6010, 13.92816
320.0831, 13.99350
320.5652, 13.93170
321.0473, 13.86317
321.5294, 13.85054
322.0115, 13.88539
322.4937, 13.94508
322.9758, 14.03190
323.4579, 14.12145
323.9400, 14.13518
324.4221, 13.99939
324.9042, 13.95445
325.3864, 14.16414
325.8685, 14.51129
326.3506, 14.77385
326.8327, 14.87730
327.3148, 14.89676
327.7969, 14.93819
328.2791, 15.00135
328.7612, 15.07853
329.2433, 15.19455
329.7254, 15.31169
330.2075, 15.36289
330.6896, 15.33655
331.1718, 15.33340
331.6539, 15.48358
332.1360, 15.80145
332.6181, 15.98857
333.1002, 15.94839
333.5823, 15.83989
334.0645, 15.77918
334.5466, 15.76516
335.0287, 15.73251
335.5108, 15.63831
335.9929, 15.48411
336.4750, 15.30480
336.9572, 15.07638
337.4393, 14.84906
337.9214, 14.60829
338.4035, 14.38254
338.8856, 14.24301
339.3677, 14.22552
339.8499, 14.30670
340.3320, 14.44698
340.8141, 14.77405
341.2962, 14.92702
341.7783, 14.67774
342.2604, 14.27374
342.7426, 14.05816
343.2247, 14.12996
343.7068, 14.30449
344.1889, 14.33101
344.6710, 14.15543
345.1531, 13.95935
345.6353, 13.67193
346.1174, 13.41533
346.5995, 13.28751
347.0816, 13.29313
347.5637, 13.38344
348.0458, 13.53662
348.5280, 13.76026
349.0101, 13.84271
349.4922, 13.69233
349.9743, 13.51939
350.4564, 13.40005
350.9385, 13.32926
351.4207, 13.27301
351.9028, 13.20766
352.3849, 13.15146
352.8670, 13.18683
353.3491, 13.40360
353.8312, 13.59978
354.3134, 13.72899
354.7955, 13.83368
355.2776, 13.97981
355.7597, 14.18764
356.2418, 14.39786
356.7239, 14.50495
357.2061, 14.41857
357.6882, 14.41267
358.1703, 14.51571
358.6524, 14.66930
359.1345, 14.83367
359.6166, 15.00635
360.0987, 15.21218
360.5808, 15.48847
361.0630, 15.85251
361.5451, 16.11553
362.0272, 16.14482
362.5093, 16.21669
362.9914, 16.48427
363.4735, 16.85871
363.9557, 17.15509
364.4378, 17.25685
364.9199, 17.21081
365.4020, 17.21177
365.8841, 17.22776
366.3662, 17.34751
366.8484, 17.59339
367.3305, 17.93376
367.8126, 18.39047
368.2947, 18.95398
368.7768, 19.49780
369.2589, 19.77769
369.7411, 19.60535
370.2232, 19.68825
370.7053, 20.20698
371.1874, 20.83641
371.6695, 21.44387
372.1516, 22.00757
372.6338, 22.56714
373.1159, 23.18906
373.5980, 23.86469
374.0801, 24.31570
374.5622, 24.30698
375.0443, 24.35650
375.5265, 24.71724
376.0086, 25.22695
376.4907, 25.64097
376.9728, 25.85071
377.4549, 25.87980
377.9370, 25.76378
378.4192, 25.46558
378.9013, 25.12488
379.3834, 24.81147
379.8655, 24.45248
380.3476, 23.96437
380.8297, 23.33244
381.3119, 22.66488
381.7940, 22.06984
382.2761, 21.54495
382.7582, 21.03172
383.2403, 20.52805
383.7224, 20.02917
384.2046, 19.49921
384.6867, 18.96303
385.1688, 18.49508
385.6509, 18.22321
386.1330, 18.03694
386.6151, 17.60810
387.0973, 16.82384
387.5794, 16.21125
388.0615, 16.27386
388.5436, 16.64565
389.0257, 16.80208
389.5078, 16.55746
389.9900, 16.23838
390.4721, 16.15522
390.9542, 16.27520
391.4363, 16.33094
391.9184, 16.18807
392.4005, 16.00379
392.8827, 16.00828
393.3648, 16.21101
393.8469, 16.41858
394.3290, 16.55441
394.8111, 16.64871
395.2932, 16.72922
395.7754, 16.79527
396.2575, 16.91026
396.7396, 17.17547
397.2217, 17.56657
397.7038, 17.81511
398.1859, 17.77152
398.6681, 17.70582
399.1501, 17.81648
399.6323, 18.06239
400.1144, 18.27803
400.5965, 18.37447
401.0786, 18.39718
401.5607, 18.47718
402.0428, 18.64356
402.5250, 18.80584
403.0071, 18.97835
403.4892, 19.12514
403.9713, 19.20053
404.4534, 19.19500
404.9355, 19.13829
405.4177, 19.07189
405.8998, 19.01589
406.3819, 18.83001
406.8640, 18.42772
407.3461, 17.99709
407.8282, 17.61952
408.3104, 17.28938
408.7925, 16.97106
409.2746, 16.63969
409.7567, 16.29925
410.2388, 15.96183
410.7209, 15.61699
411.2031, 15.29131
411.6852, 15.02590
412.1673, 14.75912
412.6494, 14.40027
413.1315, 13.93945
413.6136, 13.48700
414.0958, 13.19692
414.5779, 13.10427
415.0600, 13.02971
415.5421, 13.05513
416.0242, 13.02189
416.5063, 12.79705
416.9885, 12.45884
417.4706, 12.20539
417.9527, 12.18570
418.4348, 12.32012
418.9169, 12.32553
419.3990, 12.14014
419.8812, 11.96147
420.3633, 11.85321
420.8454, 11.77780
421.3275, 11.69590
421.8096, 11.59706
422.2917, 11.52282
422.7739, 11.55017
423.2560, 11.67044
423.7381, 11.69526
424.2202, 11.53693
424.7023, 11.35843
425.1844, 11.27471
425.6666, 11.27290
426.1487, 11.30935
426.6308, 11.39381
427.1129, 11.49352
427.5950, 11.56504
428.0771, 11.60887
428.5593, 11.61996
429.0414, 11.59603
429.5235, 11.53357
430.0056, 11.43149
430.4877, 11.26826
430.9698, 11.11441
431.4520, 10.98491
431.9341, 10.89283
432.4162, 10.87963
432.8983, 10.96318
433.3804, 11.07313
433.8625, 11.13163
434.3447, 11.13188
434.8268, 11.11695
435.3089, 11.04078
435.7910, 10.99003
436.2731, 11.04637
436.7552, 11.18361
437.2374, 11.31543
437.7195, 11.39725
438.2016, 11.42504
438.6837, 11.38032
439.1658, 11.08957
439.6479, 10.95022
440.1301, 11.12536
440.6122, 11.38630
441.0943, 11.51190
441.5764, 11.46191
442.0585, 11.34658
442.5406, 11.28123
443.0227, 11.26226
443.5049, 11.31942
443.9870, 11.57941
444.4691, 11.78437
444.9512, 11.82228
445.4333, 11.75678
445.9154, 11.69601
446.3976, 11.69477
446.8797, 11.73029
447.3618, 11.75681
447.8439, 11.77897
448.3260, 11.77781
448.8081, 11.68470
449.2903, 11.61509
449.7724, 11.66046
450.2545, 11.81664
450.7366, 11.99051
451.2187, 12.13879
451.7008, 12.25131
452.1830, 12.26812
452.6651, 12.15917
453.1472, 12.02671
453.6293, 11.88648
454.1114, 11.77157
454.5935, 11.74874
455.0757, 11.87353
455.5578, 12.01217
456.0399, 12.06373
456.5220, 12.03684
457.0041, 11.95285
457.4862, 11.78812
457.9684, 11.63140
458.4505, 11.62220
458.9326, 11.75761
459.4147, 11.87303
459.8968, 11.92140
460.3789, 11.95084
460.8611, 12.02001
461.3432, 12.11802
461.8253, 12.15967
462.3074, 12.07143
462.7895, 11.90870
463.2716, 11.90456
463.7538, 12.28585
464.2359, 12.51829
464.7180, 12.40587
465.2001, 12.19120
465.6822, 12.13799
466.1643, 12.28791
466.6465, 12.48693
467.1286, 12.56917
467.6107, 12.52556
468.0928, 12.45539
468.5749, 12.29429
469.0570, 12.17571
469.5392, 12.20393
470.0213, 12.27911
470.5034, 12.23729
470.9855, 12.00215
471.4676, 11.68776
471.9497, 11.49372
472.4319, 11.43995
472.9140, 11.42030
473.3961, 11.45353
473.8782, 11.49039
474.3603, 11.51096
474.8424, 11.51197
475.3246, 11.48850
475.8067, 11.41270
476.2888, 11.31929
476.7709, 11.28919
477.2530, 11.33058
477.7351, 11.38332
478.2173, 11.40507
478.6994, 11.43199
479.1815, 11.54108
479.6636, 11.77885
480.1457, 11.93802
480.6278, 11.83285
481.1100, 11.59923
481.5920, 11.47887
482.0742, 11.51478
482.5563, 11.64604
483.0384, 11.85543
483.5205, 12.13526
484.0026, 12.27904
484.4847, 12.21307
484.9669, 12.10048
485.4490, 11.96934
485.9311, 11.84430
486.4132, 11.76686
486.8953, 11.75185
487.3774, 11.77365
487.8596, 11.78975
488.3417, 11.79006
488.8238, 11.81394
489.3059, 11.91484
489.7880, 11.98472
490.2701, 11.93266
490.7523, 11.80804
491.2344, 11.73072
491.7165, 11.77946
492.1986, 11.90431
492.6807, 11.96937
493.1628, 11.96175
493.6450, 11.92955
494.1271, 11.82837
494.6092, 11.74551
495.0913, 11.75617
495.5734, 11.85601
496.0555, 11.96193
496.5377, 12.03011
497.0198, 12.05934
497.5019, 12.02548
497.9840, 11.90736
498.4661, 11.82593
498.9482, 11.87083
499.4304, 11.98771
499.9125, 12.06851
500.3946, 12.09555
500.8767, 12.11725
501.3588, 12.19143
501.8409, 12.26800
502.3231, 12.23129
502.8052, 12.05608
503.2873, 11.87816
503.7694, 11.82877
504.2515, 11.91344
504.7336, 11.99250
505.2158, 12.09026
505.6979, 12.15639
506.1800, 12.12625
506.6621, 12.06698
507.1442, 12.09016
507.6263, 12.23327
508.1085, 12.42650
508.5906, 12.56106
509.0727, 12.61846
509.5548, 12.68427
510.0369, 12.80108
510.5190, 12.88319
511.0012, 12.84707
511.4833, 12.75910
511.9654, 12.76064
512.4475, 12.94247
512.9296, 13.17972
513.4117, 13.22914
513.8939, 13.06362
514.3760, 12.91971
514.8581, 12.85042
515.3402, 12.81770
515.8223, 12.81517
516.3044, 12.83057
516.7866, 12.78863
517.2687, 12.58825
517.7508, 12.35303
518.2329, 12.25564
518.7150, 12.28911
519.1971, 12.33411
519.6793, 12.35059
520.1614, 12.32580
520.6435, 12.20307
521.1256, 11.91003
521.6077, 11.74408
522.0898, 11.87865
522.5720, 12.07445
523.0541, 12.11807
523.5362, 12.00811
524.0183, 11.85241
524.5004, 11.71698
524.9825, 11.61629
525.4647, 11.63059
525.9468, 11.88665
526.4289, 12.07864
526.9110, 12.16846
527.3931, 12.19658
527.8752, 12.17692
528.3574, 12.12304
528.8395, 12.06959
529.3216, 12.04823
529.8037, 12.05402
530.2858, 12.04239
530.7679, 11.96940
531.2501, 11.98205
531.7322, 12.22396
532.2143, 12.54632
532.6964, 12.82969
533.1785, 13.06880
533.6606, 13.17710
534.1428, 13.00404
534.6249, 12.67859
535.1070, 12.50387
535.5891, 12.53040
536.0712, 12.53698
536.5533, 12.32446
537.0355, 11.94625
537.5176, 11.74107
537.9997, 11.84371
538.4818, 11.93683
538.9639, 11.94363
539.4460, 11.88591
539.9282, 11.75875
540.4103, 11.57635
540.8924, 11.42419
541.3745, 11.40044
541.8566, 11.50965
542.3387, 11.58885
542.8209, 11.61179
543.3029, 11.63392
543.7850, 11.70401
544.2672, 11.76076
544.7493, 11.71591
545.2314, 11.55114
545.7135, 11.36520
546.1956, 11.28331
546.6777, 11.29280
547.1599, 11.22930
547.6420, 11.02638
548.1241, 10.87336
548.6062, 10.96154
549.0883, 11.16272
549.5704, 11.26351
550.0526, 11.17886
550.5347, 11.09653
551.0168, 11.18964
551.4989, 11.36001
551.9810, 11.38254
552.4631, 11.20762
552.9453, 10.98167
553.4274, 10.82164
553.9095, 10.72806
554.3916, 10.76237
554.8737, 11.09734
555.3558, 11.33406
555.8380, 11.27232
556.3201, 11.09389
556.8022, 11.03455
557.2843, 11.14890
557.7664, 11.31151
558.2485, 11.39467
558.7307, 11.39927
559.2128, 11.28161
559.6949, 10.88526
560.1770, 10.59645
560.6591, 10.60458
561.1412, 10.75101
561.6234, 10.84908
562.1055, 10.85067
562.5876, 10.81686
563.0697, 10.76507
563.5518, 10.71849
564.0339, 10.77802
564.5161, 10.97789
564.9982, 11.16956
565.4803, 11.24967
565.9624, 11.23067
566.4445, 11.19186
566.9266, 11.09320
567.4088, 11.03148
567.8909, 11.06279
568.3730, 11.13834
568.8551, 11.19375
569.3372, 11.21969
569.8193, 11.25938
570.3015, 11.36384
570.7836, 11.52490
571.2657, 11.57645
571.7478, 11.42942
572.2299, 11.28745
572.7120, 11.14088
573.1942, 11.03791
573.6763, 11.06250
574.1584, 11.20670
574.6405, 11.32057
575.1226, 11.22312
575.6047, 10.98035
576.0869, 10.87702
576.5690, 10.93806
577.0511, 11.03692
577.5332, 11.14480
578.0153, 11.23725
578.4974, 11.27244
578.9796, 11.23707
579.4617, 11.20192
579.9438, 11.13771
580.4259, 11.12078
580.9080, 11.29782
581.3901, 11.63925
581.8723, 11.92386
582.3544, 12.01030
