##NAMES=Diegogattaite
##RRUFFID=R120156
##IDEAL CHEMISTRY=Na_2_CaCu^2+^_2_Si_8_O_20_&#183;H_2_O
##LOCALITY=Wessels mine, Kalahari manganese field, Northern Cape Province, South Africa
##OWNER=RRUFF
##SOURCE=Marcus Origlieri
##DESCRIPTION=Lighter greenish blue massive, associated with darker blue wesselsite and quartz
##STATUS=The identification of this mineral is confirmed by single-crystal X-ray diffraction and chemical analysis.
##URL=rruff.info/R120156
##MEASURED CHEMISTRY=(Na_1.98_Mg_0.01_)_Σ=1.99_(Ca_0.98_Cu_0.02_)_Σ=1.00_Cu_2.00_Si_8_O_20.00_·H_2_O; The mineral is medium gray, associated with wesselsite (white) and quartz (dark gray); Normalized to 8 Si atoms; water assumed from crystal structure solution
102.8004, 153.6370
103.2825, 158.2970
103.7646, 161.3902
104.2467, 162.6022
104.7288, 162.5075
105.2109, 162.2963
105.6931, 161.5767
106.1752, 161.2955
106.6573, 161.9081
107.1394, 164.0399
107.6215, 165.9582
108.1036, 167.3625
108.5858, 168.4312
109.0679, 170.1184
109.5500, 172.0654
110.0321, 174.8423
110.5142, 178.7234
110.9963, 183.9299
111.4785, 189.9248
111.9606, 196.5900
112.4427, 203.9192
112.9248, 212.0620
113.4069, 220.9325
113.8890, 230.6130
114.3712, 241.2852
114.8533, 252.5011
115.3354, 265.0453
115.8175, 278.6743
116.2996, 293.4310
116.7817, 310.8932
117.2639, 332.6100
117.7460, 357.2132
118.2281, 382.9724
118.7102, 415.3076
119.1923, 444.5279
119.6744, 465.4516
120.1566, 477.9695
120.6387, 480.5740
121.1208, 465.8779
121.6029, 440.3770
122.0850, 417.2695
122.5671, 401.2215
123.0493, 391.7383
123.5314, 388.7720
124.0135, 393.0289
124.4956, 401.9872
124.9777, 416.4204
125.4598, 434.6275
125.9420, 449.9302
126.4241, 459.4237
126.9062, 462.8822
127.3883, 459.0897
127.8704, 445.4999
128.3525, 427.5857
128.8347, 413.0418
129.3168, 401.7121
129.7989, 391.8177
130.2810, 384.8399
130.7631, 378.9726
131.2452, 366.2473
131.7274, 343.2640
132.2095, 312.8067
132.6916, 280.6975
133.1737, 246.1745
133.6558, 213.8311
134.1379, 187.2058
134.6201, 166.2674
135.1022, 149.1006
135.5843, 135.8241
136.0664, 126.1024
136.5485, 118.0432
137.0306, 111.6452
137.5128, 106.8594
137.9949, 103.6614
138.4770, 102.2381
138.9591, 101.4720
139.4412, 101.1365
139.9233, 101.2755
140.4055, 101.2180
140.8876, 100.7956
141.3697, 100.3471
141.8518, 100.3732
142.3339, 100.8104
142.8160, 101.8527
143.2982, 103.6579
143.7803, 106.4239
144.2624, 109.2466
144.7445, 111.9355
145.2266, 114.7512
145.7087, 118.1904
146.1909, 122.7254
146.6730, 127.3526
147.1551, 131.7273
147.6372, 135.6366
148.1193, 139.5867
148.6014, 143.6355
149.0836, 147.7303
149.5657, 151.8567
150.0478, 155.7989
150.5299, 159.8533
151.0120, 164.1817
151.4941, 168.1513
151.9763, 173.0732
152.4584, 179.2627
152.9405, 186.5448
153.4226, 194.1433
153.9047, 201.9381
154.3868, 210.0725
154.8690, 218.6236
155.3511, 228.1825
155.8332, 237.5314
156.3153, 246.4755
156.7974, 255.0141
157.2795, 263.1652
157.7617, 271.6336
158.2438, 279.3502
158.7259, 285.5440
159.2080, 289.1639
159.6901, 292.0853
160.1722, 294.4542
160.6544, 296.3423
161.1365, 298.8086
161.6186, 303.0422
162.1007, 307.6668
162.5828, 311.5133
163.0649, 315.8340
163.5471, 317.8835
164.0292, 316.5084
164.5113, 311.6606
164.9934, 303.7098
165.4755, 291.8355
165.9576, 277.1515
166.4398, 261.2262
166.9219, 242.6141
167.4040, 224.1724
167.8861, 207.7769
168.3682, 193.4376
168.8503, 180.9789
169.3325, 170.4296
169.8146, 161.6380
170.2967, 154.4945
170.7788, 149.1823
171.2609, 145.2530
171.7430, 142.4722
172.2252, 140.8377
172.7073, 140.0147
173.1894, 139.7821
173.6715, 140.1678
174.1536, 141.2159
174.6357, 142.9959
175.1179, 145.4320
175.6000, 148.4559
176.0821, 152.0378
176.5642, 156.1774
177.0463, 160.9797
177.5284, 166.3811
178.0106, 172.0973
178.4927, 178.6067
178.9748, 185.2231
179.4569, 190.8003
179.9390, 195.3804
180.4211, 198.5652
180.9033, 199.4023
181.3854, 198.2445
181.8675, 196.7627
182.3496, 195.2064
182.8317, 194.0582
183.3138, 194.3641
183.7960, 196.2271
184.2781, 199.5836
184.7602, 204.2459
185.2423, 210.2780
185.7244, 217.8176
186.2065, 227.0151
186.6887, 237.8451
187.1708, 250.3068
187.6529, 264.3160
188.1350, 280.0547
188.6171, 297.7337
189.0992, 317.4820
189.5814, 338.3638
190.0635, 361.1808
190.5456, 385.5308
191.0277, 407.0349
191.5098, 426.1309
191.9919, 441.0395
192.4741, 446.7593
192.9562, 443.0699
193.4383, 435.1597
193.9204, 424.5838
194.4025, 411.6505
194.8846, 401.8613
195.3668, 396.2675
195.8489, 393.7023
196.3310, 391.9210
196.8131, 391.0704
197.2952, 389.8878
197.7773, 386.9800
198.2595, 382.2780
198.7416, 378.6527
199.2237, 375.9703
199.7058, 374.9777
200.1879, 377.9628
200.6700, 385.2442
201.1522, 395.2411
201.6343, 407.0700
202.1164, 420.7536
202.5985, 436.3993
203.0806, 454.5775
203.5627, 474.2812
204.0449, 491.9272
204.5270, 507.1362
205.0091, 521.5247
205.4912, 536.3305
205.9733, 551.7860
206.4554, 566.5089
206.9376, 581.2336
207.4197, 594.8155
207.9018, 603.8947
208.3839, 609.0086
208.8660, 608.2250
209.3481, 599.7794
209.8303, 582.8390
210.3124, 561.7258
210.7945, 536.0152
211.2766, 506.7069
211.7587, 476.3582
212.2408, 443.9175
212.7230, 412.5051
213.2051, 383.6734
213.6872, 357.3765
214.1693, 333.7308
214.6514, 313.0424
215.1335, 295.0393
215.6157, 279.4673
216.0978, 266.3267
216.5799, 255.3620
217.0620, 246.3743
217.5441, 239.5306
218.0262, 234.2037
218.5084, 230.5660
218.9905, 228.3678
219.4726, 226.5654
219.9547, 225.2594
220.4368, 224.1322
220.9189, 223.2063
221.4011, 223.0795
221.8832, 221.5554
222.3653, 218.3048
222.8474, 213.5346
223.3295, 207.8018
223.8116, 200.6923
224.2938, 193.4816
224.7759, 186.7903
225.2580, 180.3065
225.7401, 175.2523
226.2222, 171.8667
226.7043, 169.9642
227.1865, 168.6315
227.6686, 167.7599
228.1507, 167.6524
228.6328, 168.5450
229.1149, 170.6880
229.5970, 173.2465
230.0792, 176.2414
230.5613, 179.6192
231.0434, 183.0735
231.5255, 186.5444
232.0076, 190.1196
232.4897, 193.8322
232.9719, 197.7969
233.4540, 201.6181
233.9361, 205.1955
234.4182, 208.6477
234.9003, 212.4507
235.3824, 216.7397
235.8646, 221.1885
236.3467, 225.5198
236.8288, 229.1376
237.3109, 233.9792
237.7930, 240.2594
238.2751, 247.7865
238.7573, 255.7174
239.2394, 263.6217
239.7215, 272.5638
240.2036, 283.0882
240.6857, 295.3697
241.1678, 308.8347
241.6500, 323.5144
242.1321, 339.2874
242.6142, 356.2701
243.0963, 374.9092
243.5784, 393.9985
244.0605, 413.1326
244.5427, 433.3731
245.0248, 451.4601
245.5069, 468.5642
245.9890, 483.0952
246.4711, 491.5910
246.9532, 494.5285
247.4354, 490.7991
247.9175, 479.3763
248.3996, 458.3141
248.8817, 435.6430
249.3638, 410.8252
249.8459, 384.7143
250.3281, 358.7183
250.8102, 332.2485
251.2923, 306.8232
251.7744, 282.5062
252.2565, 259.2784
252.7386, 238.1450
253.2208, 219.0412
253.7029, 202.0930
254.1850, 187.2158
254.6671, 174.5561
255.1492, 163.6306
255.6313, 154.4074
256.1135, 146.9452
256.5956, 140.9940
257.0777, 136.8928
257.5598, 134.0383
258.0419, 131.6521
258.5240, 129.6440
259.0062, 128.3557
259.4883, 127.9004
259.9704, 128.2940
260.4525, 129.3760
260.9346, 131.2863
261.4167, 133.6920
261.8989, 136.2686
262.3810, 139.0637
262.8631, 141.8770
263.3452, 144.8029
263.8273, 147.8711
264.3094, 150.0916
264.7916, 151.6028
265.2737, 152.1278
265.7558, 151.3567
266.2379, 149.1528
266.7200, 146.0559
267.2021, 141.8619
267.6843, 136.7326
268.1664, 132.0307
268.6485, 127.6941
269.1306, 123.9232
269.6127, 120.9107
270.0948, 118.6557
270.5770, 117.2135
271.0591, 116.7347
271.5412, 117.0776
272.0233, 117.6513
272.5054, 118.5290
272.9875, 119.4078
273.4697, 120.0764
273.9518, 120.5277
274.4339, 120.8524
274.9160, 121.0772
275.3981, 121.1738
275.8802, 120.9642
276.3624, 120.3500
276.8445, 119.8334
277.3266, 119.7693
277.8087, 120.1865
278.2908, 120.5897
278.7729, 120.8310
279.2551, 121.1641
279.7372, 122.1965
280.2193, 123.9918
280.7014, 126.1172
281.1835, 128.1589
281.6656, 130.1331
282.1478, 133.1801
282.6299, 137.4252
283.1120, 142.5982
283.5941, 148.2459
284.0762, 154.3869
284.5583, 161.1856
285.0405, 169.0067
285.5226, 177.7377
286.0047, 186.5159
286.4868, 195.4845
286.9689, 204.0045
287.4510, 211.8659
287.9332, 218.9744
288.4153, 223.4648
288.8974, 224.7231
289.3795, 222.7631
289.8616, 216.9055
290.3438, 206.8804
290.8259, 194.8164
291.3080, 181.9361
291.7901, 168.6702
292.2722, 156.8366
292.7543, 147.1169
293.2365, 139.2993
293.7186, 133.1273
294.2007, 128.6591
294.6828, 125.5012
295.1649, 123.4166
295.6470, 122.4054
296.1292, 122.4560
296.6113, 123.7738
297.0934, 125.9256
297.5755, 128.3915
298.0576, 131.1660
298.5397, 134.0422
299.0219, 136.8057
299.5040, 139.6039
299.9861, 142.7710
300.4682, 146.5022
300.9503, 150.3476
301.4324, 153.9529
301.9146, 157.2671
302.3967, 160.2262
302.8788, 162.7717
303.3609, 164.9184
303.8430, 166.5667
304.3251, 167.6215
304.8073, 168.4901
305.2894, 169.5291
305.7715, 170.6744
306.2536, 171.8010
306.7357, 172.4822
307.2178, 173.2874
307.7000, 174.6082
308.1821, 176.4213
308.6642, 179.2738
309.1463, 184.0258
309.6284, 189.9848
310.1105, 196.1523
310.5927, 202.1911
311.0748, 208.1348
311.5569, 214.2093
312.0390, 220.4046
312.5211, 226.1571
313.0032, 232.4256
313.4854, 237.6972
313.9675, 240.2733
314.4496, 240.0623
314.9317, 236.6375
315.4138, 228.9593
315.8959, 217.4662
316.3781, 204.6654
316.8602, 190.2571
317.3423, 175.8853
317.8244, 162.7335
318.3065, 150.7790
318.7886, 140.4897
319.2708, 132.4340
319.7529, 126.2853
320.2350, 121.1061
320.7171, 116.7791
321.1992, 113.2941
321.6813, 110.7423
322.1635, 109.4387
322.6456, 108.3670
323.1277, 107.1804
323.6098, 106.1281
324.0919, 105.6256
324.5740, 105.9840
325.0562, 106.6824
325.5383, 107.5868
326.0204, 108.6979
326.5025, 109.9827
326.9846, 111.3925
327.4667, 112.9924
327.9489, 114.8703
328.4310, 117.2526
328.9131, 119.6606
329.3952, 121.8605
329.8773, 123.8307
330.3594, 126.5853
330.8416, 130.4989
331.3237, 134.8464
331.8058, 139.1329
332.2879, 143.4559
332.7700, 147.6026
333.2521, 151.8086
333.7343, 155.8983
334.2164, 159.0807
334.6985, 161.4510
335.1806, 162.7154
335.6627, 162.5605
336.1448, 160.5615
336.6270, 158.3951
337.1091, 155.9738
337.5912, 153.5288
338.0733, 151.4376
338.5554, 149.6611
339.0375, 148.4321
339.5197, 147.9065
340.0018, 148.1119
340.4839, 148.5726
340.9660, 149.2407
341.4481, 150.2487
341.9302, 151.9180
342.4124, 154.3252
342.8945, 156.5450
343.3766, 158.4026
343.8587, 159.8554
344.3408, 160.7098
344.8229, 160.9157
345.3051, 160.8237
345.7872, 160.5541
346.2693, 160.1794
346.7514, 160.1756
347.2335, 160.6243
347.7156, 161.5179
348.1978, 162.8829
348.6799, 164.7086
349.1620, 166.8458
349.6441, 169.0281
350.1262, 171.4594
350.6083, 174.6286
351.0905, 178.6601
351.5726, 183.3171
352.0547, 188.3716
352.5368, 193.8423
353.0189, 199.7857
353.5010, 206.3245
353.9832, 213.3071
354.4653, 220.5962
354.9474, 228.2559
355.4295, 236.0270
355.9116, 244.0318
356.3937, 252.0028
356.8759, 259.4301
357.3580, 266.4059
357.8401, 272.6341
358.3222, 277.9591
358.8043, 282.4123
359.2864, 285.8779
359.7686, 288.6574
360.2507, 290.2492
360.7328, 290.1227
361.2149, 287.6173
361.6970, 284.3230
362.1791, 280.2779
362.6613, 275.8852
363.1434, 272.0754
363.6255, 268.8117
364.1076, 266.4584
364.5897, 265.1751
365.0718, 265.0349
365.5540, 265.8780
366.0361, 267.9276
366.5182, 270.8643
367.0003, 274.3051
367.4824, 278.1168
367.9645, 282.5253
368.4467, 287.5047
368.9288, 292.9627
369.4109, 299.4901
369.8930, 307.3515
370.3751, 316.0876
370.8572, 325.4408
371.3394, 335.2996
371.8215, 345.7791
372.3036, 356.7695
372.7857, 368.3977
373.2678, 381.2808
373.7499, 395.8419
374.2321, 411.1125
374.7142, 426.7038
375.1963, 442.9833
375.6784, 458.4810
376.1605, 473.1768
376.6426, 486.9864
377.1248, 499.6963
377.6069, 511.7450
378.0890, 521.0231
378.5711, 527.0602
379.0532, 529.7805
379.5353, 528.1438
380.0175, 521.9860
380.4996, 512.1854
380.9817, 499.1334
381.4638, 483.0306
381.9459, 464.5485
382.4280, 443.3249
382.9102, 420.7027
383.3923, 399.1482
383.8744, 378.5498
384.3565, 359.6497
384.8386, 343.1020
385.3207, 328.5870
385.8029, 316.0038
386.2850, 305.2027
386.7671, 296.4037
387.2492, 289.8386
387.7313, 285.3727
388.2134, 282.8527
388.6956, 282.4005
389.1777, 283.7425
389.6598, 286.8860
390.1419, 291.7837
390.6240, 297.7466
391.1061, 304.5605
391.5883, 312.1994
392.0704, 320.6774
392.5525, 330.2032
393.0346, 340.2705
393.5167, 350.9249
393.9988, 362.0804
394.4810, 373.6059
394.9631, 385.7172
395.4452, 397.9895
395.9273, 410.1034
396.4094, 421.7640
396.8915, 434.1032
397.3737, 447.0502
397.8558, 460.8760
398.3379, 475.9136
398.8200, 492.0269
399.3021, 509.5328
399.7842, 528.5673
400.2664, 549.1105
400.7485, 570.8721
401.2306, 594.0301
401.7127, 617.9416
402.1948, 642.2607
402.6769, 667.4835
403.1591, 692.1708
403.6412, 717.1190
404.1233, 741.0180
404.6054, 761.6699
405.0875, 779.3864
405.5696, 792.3995
406.0518, 800.2044
406.5339, 802.8334
407.0160, 799.5416
407.4981, 790.5551
407.9802, 775.2166
408.4623, 752.1503
408.9445, 721.2928
409.4266, 685.4450
409.9087, 644.2311
410.3908, 599.5313
410.8729, 555.0870
411.3550, 510.7824
411.8372, 468.9007
412.3193, 430.1924
412.8014, 394.7708
413.2835, 362.5906
413.7656, 333.4393
414.2477, 307.3773
414.7299, 285.3167
415.2120, 266.5419
415.6941, 249.9545
416.1762, 235.4047
416.6583, 222.3257
417.1404, 210.1594
417.6226, 198.8031
418.1047, 188.7599
418.5868, 180.6585
419.0689, 173.7522
419.5510, 167.2125
420.0331, 160.9290
420.5153, 154.9180
420.9974, 149.0779
421.4795, 143.5490
421.9616, 138.9314
422.4437, 136.0524
422.9258, 133.4816
423.4080, 130.5792
423.8901, 127.0786
424.3722, 123.9658
424.8543, 121.2896
425.3364, 119.0539
425.8185, 117.2957
426.3007, 116.3218
426.7828, 115.3501
427.2649, 114.2158
427.7470, 112.9770
428.2291, 111.9835
428.7112, 111.2732
429.1934, 110.7536
429.6755, 110.3319
430.1576, 109.9626
430.6397, 109.9445
431.1218, 110.3143
431.6039, 110.9849
432.0861, 111.8543
432.5682, 112.9275
433.0503, 114.1517
433.5324, 115.5641
434.0145, 117.1121
434.4966, 118.5047
434.9788, 119.7291
435.4609, 121.2157
435.9430, 123.5349
436.4251, 126.4327
436.9072, 129.1341
437.3893, 131.4255
437.8715, 133.7268
438.3536, 136.4254
438.8357, 139.5110
439.3178, 142.9540
439.7999, 146.8923
440.2820, 151.1008
440.7642, 155.1784
441.2463, 159.1368
441.7284, 163.6420
442.2105, 169.2127
442.6926, 175.4738
443.1747, 182.0644
443.6569, 188.7999
444.1390, 195.9817
444.6211, 203.7525
445.1032, 212.0490
445.5853, 220.4405
446.0674, 229.1761
446.5496, 237.7808
447.0317, 246.1617
447.5138, 254.5094
447.9959, 262.0957
448.4780, 269.2210
448.9601, 275.4400
449.4423, 280.4083
449.9244, 283.9566
450.4065, 286.5320
450.8886, 288.2224
451.3707, 288.9810
451.8528, 288.6071
452.3350, 286.9815
452.8171, 284.5316
453.2992, 281.3330
453.7813, 277.3582
454.2634, 272.9567
454.7455, 267.9067
455.2277, 263.0294
455.7098, 259.1669
456.1919, 256.3336
456.6740, 254.3876
457.1561, 253.2998
457.6382, 253.1140
458.1204, 254.1071
458.6025, 256.2129
459.0846, 258.8703
459.5667, 261.6029
460.0488, 264.7343
460.5309, 268.8331
461.0131, 274.1134
461.4952, 279.6608
461.9773, 284.4644
462.4594, 289.1390
462.9415, 294.6595
463.4236, 302.5750
463.9058, 310.2225
464.3879, 316.4388
464.8700, 321.2409
465.3521, 325.8228
465.8342, 330.9632
466.3163, 335.6508
466.7985, 339.3044
467.2806, 341.4040
467.7627, 343.3228
468.2448, 345.4597
468.7269, 347.2517
469.2090, 347.9200
469.6912, 347.2219
470.1733, 345.8673
470.6554, 344.1775
471.1375, 342.0444
471.6196, 338.3297
472.1017, 332.8029
472.5839, 326.3236
473.0660, 319.2363
473.5481, 311.5679
474.0302, 303.4989
474.5123, 295.0059
474.9944, 286.2305
475.4766, 277.0376
475.9587, 267.5860
476.4408, 258.8521
476.9229, 251.4839
477.4050, 245.0091
477.8871, 238.5280
478.3693, 232.1333
478.8514, 226.6580
479.3335, 222.8298
479.8156, 220.1804
480.2977, 218.1169
480.7798, 216.3953
481.2620, 215.7283
481.7441, 216.7943
482.2262, 219.1227
482.7083, 222.0201
483.1904, 225.1542
483.6725, 228.9317
484.1547, 233.8445
484.6368, 239.7584
485.1189, 245.1953
485.6010, 250.1024
486.0831, 254.3572
486.5652, 257.8780
487.0474, 260.6046
487.5295, 262.7702
488.0116, 264.3521
488.4937, 265.3653
488.9758, 265.8041
489.4579, 265.5857
489.9401, 264.9673
490.4222, 263.6779
490.9043, 262.0769
491.3864, 261.8732
491.8685, 263.1742
492.3506, 265.1672
492.8328, 267.0430
493.3149, 269.0583
493.7970, 272.5933
494.2791, 277.8905
494.7612, 284.0822
495.2433, 290.1969
495.7255, 296.4854
496.2076, 303.6774
496.6897, 312.5431
497.1718, 321.9363
497.6539, 331.0262
498.1360, 339.6830
498.6182, 347.5977
499.1003, 355.4401
499.5824, 361.8446
500.0645, 365.6630
500.5466, 366.6972
501.0287, 365.8404
501.5109, 363.0926
501.9930, 358.6965
502.4751, 352.9181
502.9572, 344.7713
503.4393, 336.4225
503.9214, 327.8003
504.4036, 319.1991
504.8857, 311.3324
505.3678, 303.8839
505.8499, 297.5880
506.3320, 292.8323
506.8141, 289.6820
507.2963, 287.0467
507.7784, 284.7441
508.2605, 283.3800
508.7426, 283.6029
509.2247, 285.3707
509.7068, 288.1386
510.1890, 291.9786
510.6711, 296.4319
511.1532, 300.7148
511.6353, 304.8944
512.1174, 309.1773
512.5995, 314.0893
513.0817, 318.9830
513.5638, 323.3685
514.0459, 327.1878
514.5280, 329.7463
515.0101, 330.4835
515.4922, 329.8160
515.9744, 328.0686
516.4565, 325.0405
516.9386, 321.4853
517.4207, 317.2012
517.9028, 312.6363
518.3849, 308.5238
518.8671, 304.9020
519.3492, 301.8321
519.8313, 298.9194
520.3134, 296.2912
520.7955, 295.5959
521.2776, 297.3106
521.7598, 300.2608
522.2419, 303.7959
522.7240, 307.8902
523.2061, 312.8169
523.6882, 318.7088
524.1703, 325.2104
524.6525, 331.9624
525.1346, 338.9802
525.6167, 346.0666
526.0988, 353.0070
526.5809, 360.0705
527.0630, 367.6120
527.5452, 375.6332
528.0273, 384.2487
528.5094, 393.4435
528.9915, 403.3727
529.4736, 414.2276
529.9557, 426.0602
530.4379, 439.1089
530.9200, 454.0006
531.4021, 470.1042
531.8842, 486.8999
532.3663, 504.7596
532.8484, 522.5336
533.3306, 540.1400
533.8127, 557.4072
534.2948, 573.5297
534.7769, 590.0561
535.2590, 603.8890
535.7411, 615.0188
536.2233, 623.3535
536.7054, 625.9040
537.1875, 622.3225
537.6696, 613.6136
538.1517, 599.9905
538.6339, 581.4717
539.1160, 559.0302
539.5981, 532.1331
540.0802, 503.2000
540.5623, 473.8134
541.0444, 444.3134
541.5266, 415.8950
542.0087, 388.8583
542.4908, 363.1740
542.9729, 339.0048
543.4550, 316.6060
543.9371, 296.1879
544.4193, 277.9510
544.9014, 261.5068
545.3835, 246.5568
545.8656, 233.0859
546.3477, 220.9091
546.8298, 210.0883
547.3120, 200.2840
547.7941, 191.2987
548.2762, 183.1902
548.7583, 175.6699
549.2404, 168.6900
549.7225, 162.2781
550.2047, 156.4973
550.6868, 151.3972
551.1689, 146.8461
551.6510, 143.0103
552.1331, 139.7490
552.6152, 136.1134
553.0974, 131.9583
553.5795, 128.1599
554.0616, 125.4600
554.5437, 123.6827
555.0258, 121.8154
555.5079, 119.7894
555.9901, 117.7502
556.4722, 115.6792
556.9543, 113.7005
557.4364, 112.0979
557.9185, 111.0881
558.4006, 110.2550
558.8828, 109.3402
559.3649, 108.3405
559.8470, 107.2297
560.3291, 105.8764
560.8112, 104.5162
561.2933, 103.1744
561.7755, 101.8531
562.2576, 100.7800
562.7397, 100.2347
563.2218, 99.75598
563.7039, 99.09126
564.1860, 98.06065
564.6682, 97.33150
565.1503, 97.01042
565.6324, 96.85123
566.1145, 96.57860
566.5966, 96.19606
567.0787, 95.62690
567.5609, 94.77199
568.0430, 93.82967
568.5251, 93.23286
569.0072, 92.95918
569.4893, 92.86671
569.9714, 92.99117
570.4536, 93.19554
570.9357, 93.29349
571.4178, 93.28258
571.8999, 93.20498
572.3820, 93.04446
572.8641, 92.85244
573.3463, 92.64742
573.8284, 92.35837
574.3105, 92.25331
574.7926, 92.52530
575.2747, 92.98311
575.7568, 93.38374
576.2390, 93.56567
576.7211, 93.88786
577.2032, 94.44683
577.6853, 95.17188
578.1674, 95.79513
578.6495, 96.28048
579.1317, 96.76414
579.6138, 97.23116
580.0959, 97.72041
580.5780, 98.66661
581.0601, 100.1245
581.5422, 101.5312
582.0244, 102.2457
582.5065, 102.5653
582.9886, 103.2270
583.4707, 104.3689
583.9528, 105.6934
584.4349, 106.9004
584.9171, 108.1282
585.3992, 109.5818
585.8813, 111.3492
586.3634, 113.3460
586.8455, 115.4874
587.3276, 117.8258
587.8098, 120.4319
588.2919, 123.3078
588.7740, 126.4740
589.2561, 129.9269
589.7382, 133.6662
590.2203, 137.6047
590.7025, 141.4307
591.1846, 145.9343
