##NAMES=Digenite
##RRUFFID=R060840
##IDEAL CHEMISTRY=Cu_1.8_S
##LOCALITY=Butte, Montana, USA
##OWNER=RRUFF
##SOURCE=Michael Scott
##DESCRIPTION=Black to deep blue metallic massive, diffraction indicates that this sample is in the high temperature form
##STATUS=The identification of this mineral has been confirmed by X-ray diffraction and chemical analysis
##URL=rruff.info/R060840
##MEASURED CHEMISTRY=(Cu_1.66_Fe_0.02_)_Î£=1.68_S_1.00_
83.44019, 0.0000000E+00
83.92230, 0.0000000E+00
84.40442, 0.0000000E+00
84.88654, 0.0000000E+00
85.36865, 0.0000000E+00
85.85077, 0.0000000E+00
86.33289, 0.0000000E+00
86.81500, 0.0000000E+00
87.29712, 0.0000000E+00
87.77924, 0.0000000E+00
88.26135, 0.0000000E+00
88.74347, 0.0000000E+00
89.22559, 779.9367
89.70770, 762.4955
90.18982, 741.7635
90.67194, 717.4539
91.15405, 694.6317
91.63617, 667.1564
92.11829, 647.4888
92.60040, 641.7126
93.08252, 647.7150
93.56464, 659.8699
94.04675, 674.3710
94.52887, 693.6909
95.01099, 700.8939
95.49310, 692.6346
95.97522, 677.6042
96.45734, 656.2609
96.93945, 630.7858
97.42157, 609.0765
97.90369, 601.7034
98.38580, 618.1671
98.86792, 625.9598
99.35004, 618.7102
99.83215, 605.9747
100.3143, 596.8602
100.7964, 593.9140
101.2785, 594.0428
101.7606, 592.3830
102.2427, 588.9791
102.7249, 584.1037
103.2070, 574.7648
103.6891, 564.2922
104.1712, 560.5403
104.6533, 568.9883
105.1354, 580.4391
105.6176, 574.2208
106.0997, 541.6074
106.5818, 515.3127
107.0639, 517.2264
107.5460, 541.1316
108.0281, 559.1818
108.5103, 556.6389
108.9924, 542.8854
109.4745, 536.9235
109.9566, 541.8488
110.4387, 550.1038
110.9208, 552.5298
111.4030, 548.5712
111.8851, 553.8282
112.3672, 588.8362
112.8493, 633.1869
113.3314, 659.4970
113.8135, 653.8624
114.2957, 636.4303
114.7778, 637.3167
115.2599, 662.9496
115.7420, 685.7444
116.2241, 686.6796
116.7062, 678.1280
117.1884, 675.3730
117.6705, 686.7128
118.1526, 707.1243
118.6347, 723.5902
119.1168, 732.8936
119.5989, 743.3906
120.0811, 750.5425
120.5632, 761.3915
121.0453, 788.8721
121.5274, 847.3183
122.0095, 931.2849
122.4916, 997.6409
122.9738, 1021.898
123.4559, 1055.756
123.9380, 1120.264
124.4201, 1208.503
124.9022, 1303.085
125.3843, 1389.532
125.8665, 1466.519
126.3486, 1553.745
126.8307, 1662.041
127.3128, 1772.220
127.7949, 1885.885
128.2770, 1997.964
128.7592, 2095.333
129.2413, 2164.472
129.7234, 2200.708
130.2055, 2227.847
130.6876, 2250.504
131.1697, 2261.830
131.6519, 2249.308
132.1340, 2216.832
132.6161, 2185.152
133.0982, 2183.154
133.5803, 2235.173
134.0624, 2252.721
134.5446, 2217.779
135.0267, 2167.963
135.5088, 2123.583
135.9909, 2090.328
136.4730, 2066.402
136.9551, 2049.547
137.4373, 2045.702
137.9194, 2038.323
138.4015, 2011.029
138.8836, 1989.066
139.3657, 1996.639
139.8478, 2040.264
140.3300, 2105.340
140.8121, 2167.664
141.2942, 2228.255
141.7763, 2282.840
142.2584, 2322.540
142.7405, 2359.659
143.2227, 2408.803
143.7048, 2475.596
144.1869, 2552.818
144.6690, 2626.226
145.1511, 2699.139
145.6333, 2762.943
146.1154, 2815.313
146.5975, 2858.338
147.0796, 2896.005
147.5617, 2930.205
148.0438, 2958.383
148.5260, 2971.067
149.0081, 2956.593
149.4902, 2948.978
149.9723, 2968.154
150.4544, 2999.890
150.9365, 3014.429
151.4187, 2996.261
151.9008, 2957.150
152.3829, 2930.308
152.8650, 2916.359
153.3471, 2910.074
153.8292, 2915.927
154.3114, 2928.932
154.7935, 2933.275
155.2756, 2917.463
155.7577, 2892.247
156.2398, 2886.742
156.7219, 2911.311
157.2041, 2938.423
157.6862, 2953.987
158.1683, 2959.944
158.6504, 2966.157
159.1325, 2981.430
159.6146, 2996.649
160.0968, 2990.789
160.5789, 2951.448
161.0610, 2907.981
161.5431, 2878.058
162.0252, 2860.635
162.5073, 2847.856
162.9895, 2838.265
163.4716, 2829.826
163.9537, 2817.583
164.4358, 2795.693
164.9179, 2776.904
165.4000, 2779.326
165.8822, 2801.746
166.3643, 2808.345
166.8464, 2769.213
167.3285, 2706.704
167.8106, 2662.735
168.2927, 2646.569
168.7749, 2643.633
169.2570, 2644.134
169.7391, 2648.287
170.2212, 2650.479
170.7033, 2649.369
171.1854, 2643.758
171.6676, 2631.531
172.1497, 2610.008
172.6318, 2584.796
173.1139, 2562.350
173.5960, 2543.111
174.0781, 2520.989
174.5603, 2488.036
175.0424, 2452.161
175.5245, 2423.962
176.0066, 2405.973
176.4887, 2395.764
176.9708, 2391.759
177.4530, 2394.486
177.9351, 2399.899
178.4172, 2416.254
178.8993, 2430.639
179.3814, 2423.426
179.8635, 2377.672
180.3457, 2325.038
180.8278, 2309.760
181.3099, 2339.026
181.7920, 2367.751
182.2741, 2370.666
182.7562, 2362.302
183.2384, 2357.932
183.7205, 2364.714
184.2026, 2372.211
184.6847, 2362.949
185.1668, 2332.177
185.6489, 2306.809
186.1311, 2309.146
186.6132, 2319.810
187.0953, 2318.094
187.5774, 2269.512
188.0595, 2299.035
188.5416, 2315.382
189.0238, 2319.260
189.5059, 2273.328
189.9880, 2291.716
190.4701, 2284.328
190.9522, 2275.882
191.4343, 2303.324
191.9165, 2264.636
192.3986, 2291.508
192.8807, 2292.210
193.3628, 2304.889
193.8449, 2291.633
194.3270, 2286.387
194.8092, 2307.085
195.2913, 2313.418
195.7734, 2297.176
196.2555, 2310.617
196.7376, 2271.023
197.2197, 2277.968
197.7019, 2304.992
198.1840, 2290.053
198.6661, 2303.968
199.1482, 2306.895
199.6303, 2259.881
200.1124, 2299.717
200.5946, 2301.994
201.0767, 2265.704
201.5588, 2284.737
202.0409, 2304.054
202.5230, 2332.007
203.0051, 2372.494
203.4873, 2399.971
203.9694, 2369.913
204.4515, 2269.627
204.9336, 2193.941
205.4157, 2189.354
205.8978, 2213.688
206.3800, 2240.881
206.8621, 2267.526
207.3442, 2286.758
207.8263, 2286.325
208.3084, 2263.682
208.7905, 2247.235
209.2727, 2246.712
209.7548, 2254.906
210.2369, 2270.310
210.7190, 2293.628
211.2011, 2312.598
211.6832, 2310.658
212.1654, 2286.535
212.6475, 2268.861
213.1296, 2268.658
213.6117, 2274.609
214.0938, 2277.767
214.5759, 2277.127
215.0581, 2277.382
215.5402, 2285.180
216.0223, 2300.299
216.5044, 2308.866
216.9865, 2304.723
217.4686, 2295.798
217.9508, 2288.070
218.4329, 2281.890
218.9150, 2275.894
219.3971, 2265.087
219.8792, 2250.911
220.3613, 2250.677
220.8435, 2277.957
221.3256, 2308.460
221.8077, 2323.407
222.2898, 2323.407
222.7719, 2318.344
223.2540, 2310.977
223.7362, 2302.757
224.2183, 2302.308
224.7004, 2315.289
225.1825, 2329.878
225.6646, 2337.290
226.1467, 2338.184
226.6289, 2335.692
227.1110, 2325.099
227.5931, 2311.809
228.0752, 2315.222
228.5573, 2344.415
229.0394, 2376.673
229.5216, 2398.685
230.0037, 2410.543
230.4858, 2409.832
230.9679, 2383.782
231.4500, 2346.184
231.9321, 2328.284
232.4143, 2337.094
232.8964, 2350.292
233.3785, 2349.699
233.8606, 2340.581
234.3427, 2335.061
234.8248, 2340.412
235.3070, 2350.231
235.7891, 2354.029
236.2712, 2350.340
236.7533, 2347.640
237.2354, 2351.086
237.7175, 2359.822
238.1997, 2372.577
238.6818, 2392.848
239.1639, 2414.710
239.6460, 2432.060
240.1281, 2444.887
240.6102, 2456.235
241.0924, 2472.948
241.5745, 2487.527
242.0566, 2482.666
242.5387, 2442.264
243.0208, 2397.820
243.5029, 2372.587
243.9851, 2365.132
244.4672, 2364.901
244.9493, 2371.194
245.4314, 2378.935
245.9135, 2375.136
246.3956, 2347.592
246.8778, 2328.226
247.3599, 2344.528
247.8420, 2385.525
248.3241, 2413.650
248.8062, 2412.306
249.2883, 2392.696
249.7705, 2376.549
250.2526, 2360.203
250.7347, 2354.269
251.2168, 2372.168
251.6989, 2401.803
252.1810, 2419.082
252.6632, 2414.941
253.1453, 2400.811
253.6274, 2396.386
254.1095, 2405.508
254.5916, 2409.184
255.0737, 2399.590
255.5559, 2384.373
256.0380, 2370.993
256.5201, 2361.074
257.0022, 2357.389
257.4843, 2365.710
257.9665, 2392.167
258.4486, 2406.561
258.9307, 2399.289
259.4128, 2385.376
259.8949, 2371.890
260.3770, 2361.568
260.8592, 2364.047
261.3413, 2392.710
261.8234, 2454.270
262.3055, 2487.590
262.7876, 2470.592
263.2697, 2448.487
263.7519, 2446.973
264.2340, 2463.269
264.7161, 2481.035
265.1982, 2488.740
265.6803, 2486.496
266.1624, 2477.227
266.6446, 2449.158
267.1267, 2427.631
267.6088, 2425.082
268.0909, 2434.229
268.5730, 2440.808
269.0551, 2436.321
269.5373, 2423.962
270.0194, 2418.138
270.5015, 2426.729
270.9836, 2433.421
271.4657, 2435.277
271.9478, 2435.000
272.4300, 2436.384
272.9121, 2440.956
273.3942, 2446.280
273.8763, 2446.697
274.3584, 2437.193
274.8405, 2431.356
275.3227, 2433.200
275.8048, 2436.427
276.2869, 2431.564
276.7690, 2418.316
277.2511, 2410.618
277.7332, 2434.843
278.2154, 2511.453
278.6975, 2551.407
279.1796, 2515.430
279.6617, 2473.473
280.1438, 2464.315
280.6259, 2485.828
281.1081, 2507.827
281.5902, 2499.135
282.0723, 2458.756
282.5544, 2434.187
283.0365, 2440.227
283.5186, 2446.411
284.0008, 2435.654
284.4829, 2415.183
284.9650, 2402.793
285.4471, 2415.212
285.9292, 2442.188
286.4113, 2447.449
286.8935, 2423.570
287.3756, 2392.996
287.8577, 2350.987
288.3398, 2312.553
288.8219, 2303.027
289.3040, 2344.039
289.7862, 2397.245
290.2683, 2398.257
290.7504, 2336.850
291.2325, 2300.803
291.7146, 2351.854
292.1967, 2430.965
292.6789, 2468.072
293.1610, 2445.836
293.6431, 2413.438
294.1252, 2410.417
294.6073, 2431.334
295.0894, 2444.973
295.5716, 2440.964
296.0537, 2428.612
296.5358, 2419.223
297.0179, 2412.657
297.5000, 2408.153
297.9821, 2405.435
298.4643, 2404.584
298.9464, 2406.054
299.4285, 2410.075
299.9106, 2415.563
300.3927, 2424.560
300.8748, 2436.997
301.3570, 2436.594
301.8391, 2405.448
302.3212, 2372.139
302.8033, 2361.754
303.2854, 2374.126
303.7675, 2392.701
304.2497, 2406.812
304.7318, 2416.513
305.2139, 2424.148
305.6960, 2431.434
306.1781, 2435.338
306.6602, 2432.724
307.1424, 2426.003
307.6245, 2419.117
308.1066, 2413.660
308.5887, 2410.770
309.0708, 2413.978
309.5529, 2431.688
310.0351, 2445.391
310.5172, 2458.811
310.9993, 2465.585
311.4814, 2453.302
311.9635, 2420.480
312.4456, 2385.685
312.9278, 2378.964
313.4099, 2419.984
313.8920, 2439.260
314.3741, 2423.111
314.8562, 2400.314
315.3383, 2383.443
315.8205, 2374.481
316.3026, 2371.767
316.7847, 2376.299
317.2668, 2388.046
317.7489, 2388.822
318.2310, 2371.532
318.7132, 2350.747
319.1953, 2326.435
319.6774, 2302.715
320.1595, 2285.636
320.6416, 2278.748
321.1237, 2279.914
321.6059, 2286.328
322.0880, 2301.947
322.5701, 2311.449
323.0522, 2302.049
323.5343, 2287.692
324.0164, 2280.959
324.4986, 2284.923
324.9807, 2294.315
325.4628, 2309.266
325.9449, 2328.545
326.4270, 2332.392
326.9091, 2305.749
327.3913, 2274.618
327.8734, 2270.217
328.3555, 2292.048
328.8376, 2307.130
329.3197, 2292.080
329.8018, 2263.487
330.2840, 2254.448
330.7661, 2272.209
331.2482, 2286.139
331.7303, 2265.980
332.2124, 2215.290
332.6945, 2175.684
333.1767, 2147.562
333.6588, 2133.285
334.1409, 2142.751
334.6230, 2169.965
335.1051, 2191.806
335.5872, 2195.474
336.0694, 2184.558
336.5515, 2173.196
337.0336, 2163.223
337.5157, 2150.719
337.9978, 2133.660
338.4799, 2114.124
338.9621, 2092.334
339.4442, 2068.754
339.9263, 2049.114
340.4084, 2044.102
340.8905, 2066.781
341.3727, 2072.200
341.8548, 2040.997
342.3369, 2011.222
342.8190, 2013.027
343.3011, 2040.289
343.7832, 2060.092
344.2654, 2039.953
344.7475, 1982.264
345.2296, 1955.196
345.7117, 1985.951
346.1938, 2015.237
346.6759, 2027.543
347.1581, 2027.894
347.6402, 2023.040
348.1223, 2015.073
348.6044, 2006.221
349.0865, 2000.588
349.5686, 1998.659
350.0508, 1997.820
350.5329, 2000.233
351.0150, 2001.537
351.4971, 1997.297
351.9792, 1986.895
352.4613, 1976.093
352.9435, 1966.169
353.4256, 1958.751
353.9077, 1962.057
354.3898, 1981.492
354.8719, 2002.018
355.3540, 2013.304
355.8362, 2015.511
356.3183, 2002.957
356.8004, 1957.172
357.2825, 1907.678
357.7646, 1883.368
358.2467, 1883.266
358.7289, 1892.016
359.2110, 1902.984
359.6931, 1914.937
360.1752, 1922.762
360.6573, 1923.946
361.1394, 1924.858
361.6216, 1929.142
362.1037, 1933.462
362.5858, 1932.686
363.0679, 1925.253
363.5500, 1913.917
364.0321, 1901.258
364.5143, 1878.949
364.9964, 1878.499
365.4785, 1929.019
365.9606, 1973.214
366.4427, 1970.123
366.9248, 1928.927
367.4070, 1889.097
367.8891, 1882.919
368.3712, 1905.537
368.8533, 1914.024
369.3354, 1894.017
369.8175, 1880.443
370.2997, 1888.398
370.7818, 1904.332
371.2639, 1910.844
371.7460, 1900.960
372.2281, 1887.589
372.7102, 1893.607
373.1924, 1922.040
373.6745, 1928.893
374.1566, 1881.985
374.6387, 1833.713
375.1208, 1833.560
375.6029, 1878.842
376.0851, 1918.307
376.5672, 1922.747
377.0493, 1905.815
377.5314, 1889.421
378.0135, 1874.656
378.4956, 1865.304
378.9778, 1866.003
379.4599, 1875.014
379.9420, 1881.264
380.4241, 1884.148
380.9062, 1884.757
381.3883, 1885.375
381.8705, 1884.039
382.3526, 1874.438
382.8347, 1853.308
383.3168, 1828.383
383.7989, 1814.062
384.2810, 1813.810
384.7632, 1819.330
385.2453, 1839.407
385.7274, 1858.595
386.2095, 1866.517
386.6916, 1862.419
387.1737, 1849.208
387.6559, 1826.475
388.1380, 1795.244
388.6201, 1785.367
389.1022, 1820.706
389.5843, 1848.324
390.0664, 1852.085
390.5486, 1842.888
391.0307, 1835.030
391.5128, 1834.155
391.9949, 1833.875
392.4770, 1823.210
392.9591, 1800.841
393.4413, 1781.715
393.9234, 1764.216
394.4055, 1756.073
394.8876, 1766.739
395.3697, 1794.183
395.8518, 1819.385
396.3340, 1830.970
396.8161, 1835.047
397.2982, 1842.490
397.7803, 1854.243
398.2624, 1863.576
398.7445, 1866.676
399.2267, 1863.444
399.7088, 1855.875
400.1909, 1838.212
400.6730, 1823.150
401.1551, 1817.834
401.6372, 1817.756
402.1194, 1814.002
402.6015, 1803.698
403.0836, 1793.564
403.5657, 1794.529
404.0478, 1813.884
404.5299, 1823.178
405.0121, 1816.899
405.4942, 1807.133
405.9763, 1794.638
406.4584, 1783.793
406.9405, 1785.573
407.4226, 1810.530
407.9048, 1849.143
408.3869, 1860.233
408.8690, 1824.414
409.3511, 1799.785
409.8332, 1806.786
410.3153, 1825.997
410.7975, 1842.363
411.2796, 1852.720
411.7617, 1859.668
412.2438, 1866.854
412.7259, 1873.115
413.2080, 1871.410
413.6902, 1859.224
414.1723, 1842.646
414.6544, 1818.919
415.1365, 1793.109
415.6186, 1784.919
416.1007, 1819.284
416.5829, 1854.631
417.0650, 1854.531
417.5471, 1827.269
418.0292, 1804.553
418.5113, 1800.908
418.9934, 1807.355
419.4756, 1804.256
419.9577, 1777.728
420.4398, 1767.642
420.9219, 1788.049
421.4040, 1816.194
421.8861, 1838.188
422.3683, 1851.205
422.8504, 1855.239
423.3325, 1849.193
423.8146, 1833.984
424.2967, 1820.636
424.7788, 1808.962
425.2610, 1799.684
425.7431, 1790.708
426.2252, 1784.967
426.7073, 1788.219
427.1894, 1802.474
427.6715, 1816.374
428.1537, 1814.060
428.6358, 1796.791
429.1179, 1786.384
429.6000, 1787.640
430.0821, 1793.606
430.5642, 1805.457
431.0464, 1819.273
431.5285, 1816.842
432.0106, 1773.573
432.4927, 1727.090
432.9748, 1711.629
433.4569, 1723.806
433.9391, 1748.529
434.4212, 1783.066
434.9033, 1817.306
435.3854, 1826.609
435.8675, 1790.814
436.3496, 1766.659
436.8318, 1761.926
437.3139, 1766.478
437.7960, 1776.331
438.2781, 1788.543
438.7602, 1797.301
439.2423, 1797.458
439.7245, 1789.666
440.2066, 1779.448
440.6887, 1757.777
441.1708, 1747.903
441.6529, 1760.116
442.1350, 1782.879
442.6172, 1806.533
443.0993, 1828.779
443.5814, 1845.596
444.0635, 1851.263
444.5456, 1847.076
445.0277, 1843.156
445.5099, 1843.042
445.9920, 1838.280
446.4741, 1811.205
446.9562, 1771.341
447.4383, 1754.109
447.9204, 1783.074
448.4026, 1820.231
448.8847, 1845.001
449.3668, 1857.498
449.8489, 1854.707
450.3310, 1833.661
450.8131, 1808.256
451.2953, 1803.529
451.7774, 1833.892
452.2595, 1852.364
452.7416, 1854.805
453.2237, 1850.058
453.7059, 1839.339
454.1880, 1825.648
454.6701, 1815.088
455.1522, 1812.412
455.6343, 1814.255
456.1165, 1808.452
456.5986, 1789.651
457.0807, 1776.988
457.5628, 1776.181
458.0449, 1782.917
458.5270, 1799.630
459.0092, 1825.656
459.4913, 1842.854
459.9734, 1830.997
460.4555, 1804.484
460.9376, 1794.047
461.4197, 1802.752
461.9019, 1815.928
462.3840, 1827.760
462.8661, 1835.755
463.3482, 1830.573
463.8303, 1789.262
464.3124, 1765.946
464.7946, 1797.091
465.2767, 1844.909
465.7588, 1857.496
466.2409, 1826.472
466.7230, 1788.557
467.2051, 1785.764
467.6873, 1821.734
468.1694, 1843.083
468.6515, 1836.857
469.1336, 1829.853
469.6157, 1829.553
470.0978, 1832.172
470.5800, 1832.357
471.0621, 1828.209
471.5442, 1821.432
472.0263, 1815.277
472.5084, 1809.280
472.9905, 1793.460
473.4727, 1756.509
473.9548, 1727.210
474.4369, 1744.632
474.9190, 1795.365
475.4011, 1826.938
475.8832, 1819.027
476.3654, 1799.103
476.8475, 1776.374
477.3296, 1756.409
477.8117, 1755.687
478.2938, 1781.719
478.7759, 1818.092
479.2581, 1837.432
479.7402, 1833.172
480.2223, 1828.761
480.7044, 1824.731
481.1865, 1820.126
481.6686, 1813.563
482.1508, 1806.130
482.6329, 1800.028
483.1150, 1796.400
483.5971, 1794.964
484.0792, 1794.998
484.5613, 1796.364
485.0435, 1800.157
485.5256, 1807.627
486.0077, 1816.786
486.4898, 1825.083
486.9719, 1832.778
487.4540, 1843.043
487.9362, 1862.916
488.4183, 1881.938
488.9004, 1886.332
489.3825, 1878.203
489.8646, 1873.166
490.3467, 1881.151
490.8289, 1891.570
491.3110, 1878.042
491.7931, 1806.401
492.2752, 1768.020
492.7573, 1788.949
493.2394, 1820.927
493.7216, 1832.944
494.2037, 1825.677
494.6858, 1814.009
495.1679, 1806.970
495.6500, 1804.250
496.1321, 1804.928
496.6143, 1809.005
497.0964, 1817.047
497.5785, 1842.699
498.0606, 1861.867
498.5427, 1844.117
499.0248, 1789.428
499.5070, 1750.643
499.9891, 1766.725
500.4712, 1804.620
500.9533, 1822.097
501.4354, 1818.377
501.9175, 1808.248
502.3997, 1797.422
502.8818, 1789.376
503.3639, 1794.539
503.8460, 1833.391
504.3281, 1855.040
504.8102, 1843.148
505.2924, 1825.331
505.7745, 1819.414
506.2566, 1826.851
506.7387, 1843.387
507.2208, 1869.728
507.7029, 1898.861
508.1851, 1905.068
508.6672, 1881.829
509.1493, 1856.628
509.6314, 1831.780
510.1135, 1812.456
510.5956, 1807.203
511.0778, 1816.283
511.5599, 1819.922
512.0420, 1802.784
512.5241, 1779.181
513.0062, 1764.228
513.4883, 1759.044
513.9705, 1766.910
514.4526, 1793.797
514.9347, 1826.850
515.4168, 1830.309
515.8989, 1765.048
516.3810, 1730.025
516.8632, 1746.468
517.3453, 1775.305
517.8274, 1791.503
518.3095, 1795.744
518.7916, 1802.323
519.2737, 1823.015
519.7559, 1848.672
520.2380, 1853.110
520.7201, 1831.570
521.2022, 1815.076
521.6843, 1814.207
522.1664, 1820.125
522.6486, 1821.658
523.1307, 1818.999
523.6128, 1823.106
524.0949, 1850.217
524.5770, 1875.934
525.0591, 1869.159
525.5413, 1839.110
526.0234, 1824.599
526.5055, 1845.753
526.9876, 1883.358
527.4697, 1897.407
527.9518, 1876.466
528.4340, 1856.594
528.9161, 1828.244
529.3982, 1809.753
529.8803, 1822.171
530.3624, 1850.889
530.8445, 1861.723
531.3267, 1833.778
531.8088, 1790.442
532.2909, 1765.770
532.7730, 1759.424
533.2551, 1762.631
533.7372, 1776.250
534.2194, 1793.730
534.7015, 1811.490
535.1836, 1828.973
535.6657, 1835.659
536.1478, 1810.578
536.6299, 1794.536
537.1121, 1825.885
537.5942, 1878.185
538.0763, 1897.975
538.5584, 1868.399
539.0405, 1823.628
539.5226, 1812.112
540.0048, 1840.072
540.4869, 1858.673
540.9690, 1859.384
541.4511, 1861.365
541.9332, 1879.796
542.4153, 1900.883
542.8975, 1900.718
543.3796, 1868.011
543.8617, 1836.872
544.3438, 1841.788
544.8259, 1868.619
545.3080, 1880.730
545.7902, 1872.493
546.2723, 1855.044
546.7544, 1832.836
547.2365, 1808.322
547.7186, 1803.576
548.2007, 1834.973
548.6829, 1862.617
549.1650, 1888.334
549.6471, 1902.735
550.1292, 1891.590
550.6113, 1857.287
551.0934, 1819.437
551.5756, 1789.277
552.0577, 1770.312
552.5398, 1782.681
553.0219, 1837.412
553.5040, 1878.446
553.9861, 1881.046
554.4683, 1864.096
554.9504, 1849.903
555.4325, 1838.054
555.9146, 1834.488
556.3967, 1846.692
556.8788, 1863.533
557.3610, 1880.861
557.8431, 1894.712
558.3252, 1892.947
558.8073, 1868.715
559.2894, 1833.862
559.7715, 1811.489
560.2537, 1801.827
560.7358, 1804.109
561.2179, 1833.854
561.7000, 1860.761
562.1821, 1875.288
562.6642, 1877.489
563.1464, 1866.287
563.6285, 1835.171
564.1106, 1806.067
564.5927, 1806.661
565.0748, 1828.457
565.5569, 1843.424
566.0391, 1846.542
566.5212, 1838.009
567.0033, 1814.237
567.4854, 1776.171
567.9675, 1753.913
568.4496, 1758.860
568.9318, 1762.951
569.4139, 1745.519
569.8960, 1733.490
570.3781, 1765.787
570.8602, 1840.500
571.3423, 1908.792
571.8245, 1925.185
572.3066, 1901.934
572.7887, 1884.217
573.2708, 1872.815
573.7529, 1863.013
574.2350, 1851.706
574.7172, 1842.360
575.1993, 1840.221
575.6814, 1845.839
576.1635, 1852.645
576.6456, 1859.159
577.1277, 1866.326
577.6099, 1876.086
