##NAMES=Digenite
##RRUFFID=R060840
##IDEAL CHEMISTRY=Cu_1.8_S
##LOCALITY=Butte, Montana, USA
##OWNER=RRUFF
##SOURCE=Michael Scott
##DESCRIPTION=Black to deep blue metallic massive, diffraction indicates that this sample is in the high temperature form
##STATUS=The identification of this mineral has been confirmed by X-ray diffraction and chemical analysis
##URL=rruff.info/R060840
##MEASURED CHEMISTRY=(Cu_1.66_Fe_0.02_)_Î£=1.68_S_1.00_
83.91797, 157.7333
84.40009, 144.9668
84.88220, 143.2633
85.36432, 148.3296
85.84644, 151.6700
86.32855, 145.3811
86.81067, 137.8948
87.29279, 136.3865
87.77490, 146.0123
88.25701, 157.3402
88.73913, 164.5282
89.22124, 167.6825
89.70336, 167.0105
90.18548, 158.7920
90.66759, 147.1637
91.14971, 139.1956
91.63183, 140.1071
92.11395, 145.3727
92.59606, 148.1627
93.07818, 148.2769
93.56030, 147.5210
94.04241, 149.1165
94.52453, 152.3384
95.00665, 152.7417
95.48875, 145.0888
95.97087, 131.5853
96.45299, 123.9080
96.93510, 123.9505
97.41722, 128.6172
97.89934, 132.0207
98.38145, 134.2150
98.86357, 134.9626
99.34569, 133.2310
99.82780, 128.5999
100.3099, 125.8464
100.7920, 126.1492
101.2742, 129.1528
101.7563, 131.8500
102.2384, 134.5348
102.7205, 136.5021
103.2026, 136.4914
103.6847, 132.7217
104.1668, 131.0772
104.6490, 133.7137
105.1311, 142.0533
105.6132, 148.6638
106.0953, 153.5650
106.5774, 156.7537
107.0595, 158.0088
107.5417, 153.4490
108.0238, 150.9275
108.5059, 153.3539
108.9880, 163.4907
109.4701, 174.8343
109.9522, 187.7486
110.4344, 202.0839
110.9165, 216.2890
111.3986, 230.5351
111.8807, 244.5954
112.3628, 258.2115
112.8449, 274.0877
113.3271, 286.7464
113.8092, 292.9013
114.2913, 292.4441
114.7734, 295.7156
115.2555, 307.3400
115.7376, 323.3539
116.2198, 339.5606
116.7019, 355.6022
117.1840, 370.8046
117.6661, 384.9919
118.1482, 398.0089
118.6303, 410.2393
119.1124, 419.4477
119.5946, 427.9231
120.0767, 439.9092
120.5588, 461.1284
121.0409, 484.7614
121.5230, 505.2680
122.0051, 520.7521
122.4873, 534.0641
122.9694, 549.2300
123.4515, 564.9429
123.9336, 575.3358
124.4157, 571.5709
124.8979, 560.7286
125.3800, 554.1976
125.8621, 557.9677
126.3442, 565.8000
126.8263, 568.3054
127.3084, 565.4872
127.7905, 563.4941
128.2727, 570.3470
128.7548, 583.3696
129.2369, 593.6204
129.7190, 595.1339
130.2011, 591.1126
130.6832, 590.5473
131.1654, 593.7086
131.6475, 599.5163
132.1296, 608.3697
132.6117, 620.0533
133.0938, 629.0126
133.5759, 629.7668
134.0581, 623.2635
134.5402, 622.8439
135.0223, 631.1792
135.5044, 643.8198
135.9865, 649.8499
136.4686, 648.2608
136.9508, 645.3859
137.4329, 644.2318
137.9150, 644.3857
138.3971, 650.3302
138.8792, 665.5400
139.3613, 687.2723
139.8434, 699.6132
140.3256, 700.3164
140.8077, 696.0987
141.2898, 692.3540
141.7719, 688.8824
142.2540, 686.6901
142.7361, 686.8823
143.2183, 689.8466
143.7004, 688.8212
144.1825, 680.8875
144.6646, 671.2618
145.1467, 666.8554
145.6288, 669.9725
146.1110, 674.9204
146.5931, 680.7104
147.0752, 688.7740
147.5573, 693.6862
148.0394, 694.2191
148.5215, 691.7778
149.0037, 689.1924
149.4858, 685.9180
149.9679, 683.0123
150.4500, 680.7513
150.9321, 677.8068
151.4142, 677.4031
151.8964, 683.1927
152.3785, 692.5427
152.8606, 695.6006
153.3427, 682.8856
153.8248, 669.8959
154.3069, 664.5558
154.7890, 677.7819
155.2712, 687.9293
155.7533, 690.2361
156.2354, 685.3427
156.7175, 681.4960
157.1996, 681.7294
157.6817, 682.8959
158.1639, 682.4788
158.6460, 677.8406
159.1281, 673.3545
159.6102, 670.1122
160.0923, 668.1367
160.5744, 667.4789
161.0566, 669.3663
161.5387, 672.1881
162.0208, 674.0574
162.5029, 672.7607
162.9850, 671.4685
163.4671, 671.9478
163.9493, 674.6527
164.4314, 677.6440
164.9135, 679.7278
165.3956, 681.4883
165.8777, 683.9526
166.3598, 690.4247
166.8420, 696.1519
167.3241, 696.6191
167.8062, 688.8786
168.2883, 681.8167
168.7704, 682.7379
169.2525, 689.2383
169.7346, 694.7081
170.2168, 694.9681
170.6989, 692.4982
171.1810, 689.4726
171.6631, 685.1050
172.1452, 682.2805
172.6273, 685.4246
173.1095, 693.2518
173.5916, 699.4247
174.0737, 699.3637
174.5558, 694.9391
175.0379, 688.7672
175.5201, 679.1727
176.0022, 670.1790
176.4843, 667.6810
176.9664, 671.3516
177.4485, 676.1595
177.9306, 678.0151
178.4128, 677.8870
178.8949, 678.0207
179.3770, 678.9413
179.8591, 680.7281
180.3412, 683.5563
180.8233, 687.4643
181.3055, 692.1800
181.7876, 699.0013
182.2697, 706.8804
182.7518, 712.2040
183.2339, 711.5581
183.7160, 707.2186
184.1982, 704.5906
184.6803, 703.7211
185.1624, 704.6893
185.6445, 710.8284
186.1266, 720.7971
186.6087, 725.1075
187.0908, 713.9612
187.5730, 691.8669
188.0551, 677.7377
188.5372, 673.0582
189.0193, 675.0742
189.5014, 680.8942
189.9835, 690.4950
190.4657, 700.3895
190.9478, 710.2242
191.4299, 719.5067
191.9120, 722.7988
192.3941, 718.2442
192.8762, 709.4635
193.3584, 702.8661
193.8405, 698.3730
194.3226, 697.1987
194.8047, 702.8147
195.2868, 714.9281
195.7689, 721.3041
196.2511, 718.7558
196.7332, 710.6241
197.2153, 706.7546
197.6974, 707.5001
198.1795, 710.4051
198.6616, 715.7810
199.1438, 724.2592
199.6259, 725.2193
200.1080, 713.4626
200.5901, 693.2277
201.0722, 685.2385
201.5543, 691.8060
202.0364, 702.7889
202.5186, 709.3527
203.0007, 710.8655
203.4828, 712.2847
203.9649, 715.0976
204.4470, 718.8816
204.9291, 718.8144
205.4113, 712.8710
205.8934, 707.5223
206.3755, 711.9540
206.8576, 729.8930
207.3397, 740.8145
207.8218, 736.4392
208.3040, 716.9814
208.7861, 708.6584
209.2682, 715.6377
209.7503, 727.3731
210.2324, 730.4260
210.7145, 722.1837
211.1967, 713.7899
211.6788, 708.0967
212.1609, 705.1964
212.6430, 704.5284
213.1251, 707.3838
213.6072, 711.0408
214.0894, 710.6944
214.5715, 703.5182
215.0536, 699.5442
215.5357, 703.6022
216.0178, 718.1280
216.4999, 726.3372
216.9820, 725.8207
217.4642, 720.8374
217.9463, 718.4204
218.4284, 719.4369
218.9105, 721.1472
219.3926, 722.5810
219.8747, 723.5662
220.3569, 724.9740
220.8390, 727.5101
221.3211, 730.0588
221.8032, 730.3505
222.2853, 727.5151
222.7674, 724.0540
223.2496, 720.4137
223.7317, 714.9479
224.2138, 714.2729
224.6959, 720.7064
225.1780, 731.0023
225.6601, 737.9570
226.1423, 740.9347
226.6244, 741.5254
227.1065, 739.8906
227.5886, 734.0538
228.0707, 730.6151
228.5528, 730.0699
229.0350, 731.8339
229.5171, 734.2238
229.9992, 737.3469
230.4813, 740.9652
230.9634, 745.3535
231.4455, 752.4149
231.9276, 756.0346
232.4098, 755.0765
232.8919, 750.5676
233.3740, 745.8827
233.8561, 739.0454
234.3382, 734.7606
234.8203, 736.0793
235.3025, 747.0433
235.7846, 755.1386
236.2667, 759.2833
236.7488, 760.1467
237.2309, 760.6455
237.7130, 762.5500
238.1952, 761.7881
238.6773, 754.8781
239.1594, 735.1044
239.6415, 723.5895
240.1236, 724.9784
240.6057, 736.2398
241.0879, 742.0400
241.5700, 739.2436
242.0521, 734.9305
242.5342, 732.9548
243.0163, 732.8267
243.4984, 736.4836
243.9806, 747.2323
244.4627, 762.6664
244.9448, 768.5688
245.4269, 759.8721
245.9090, 747.8354
246.3911, 739.0272
246.8732, 733.3684
247.3554, 731.2589
247.8375, 734.1106
248.3196, 740.9714
248.8017, 745.9366
249.2838, 749.9595
249.7659, 750.7890
250.2481, 745.4279
250.7302, 726.8417
251.2123, 718.2203
251.6944, 726.8916
252.1765, 748.9595
252.6586, 757.8022
253.1408, 745.6745
253.6229, 730.8666
254.1050, 726.2988
254.5871, 737.3523
255.0692, 746.0455
255.5513, 750.2933
256.0334, 750.5602
256.5156, 749.2742
256.9977, 743.8899
257.4798, 740.5710
257.9619, 744.9143
258.4440, 761.9993
258.9261, 773.6377
259.4083, 776.6812
259.8904, 772.2572
260.3725, 767.5953
260.8546, 761.2754
261.3367, 756.8477
261.8188, 757.7238
262.3010, 766.7227
262.7831, 772.7937
263.2652, 774.0886
263.7473, 771.3144
264.2294, 768.3143
264.7115, 764.5330
265.1937, 761.5798
265.6758, 760.7062
266.1579, 762.2211
266.6400, 765.1976
267.1221, 771.4202
267.6042, 779.0393
268.0864, 776.7356
268.5685, 759.3937
269.0506, 743.1009
269.5327, 741.6799
270.0148, 759.9866
270.4969, 771.1584
270.9791, 770.0383
271.4612, 759.8103
271.9433, 753.4023
272.4254, 751.4402
272.9075, 751.6019
273.3896, 751.7138
273.8718, 751.1333
274.3539, 755.4321
274.8360, 767.8885
275.3181, 784.5919
275.8002, 790.9939
276.2823, 784.8976
276.7645, 776.3895
277.2466, 773.1676
277.7287, 776.1751
278.2108, 773.9564
278.6929, 762.4284
279.1750, 746.9184
279.6572, 744.5677
280.1393, 757.7586
280.6214, 771.4241
281.1035, 774.7823
281.5856, 767.6891
282.0677, 760.0709
282.5499, 751.5580
283.0320, 744.7172
283.5141, 748.1456
283.9962, 763.0711
284.4783, 776.5252
284.9604, 777.9048
285.4425, 768.1490
285.9247, 763.9558
286.4068, 768.8392
286.8889, 777.0814
287.3710, 775.8842
287.8531, 765.0964
288.3352, 755.6904
288.8174, 755.9745
289.2995, 764.2653
289.7816, 770.0920
290.2637, 771.9346
290.7458, 771.9894
291.2279, 773.6638
291.7101, 776.8525
292.1922, 780.1607
292.6743, 785.2360
293.1564, 790.1450
293.6385, 785.8176
294.1206, 768.9146
294.6028, 750.8992
295.0849, 749.7542
295.5670, 762.8762
296.0491, 775.1504
296.5312, 776.2224
297.0133, 770.7330
297.4955, 770.4150
297.9776, 777.2215
298.4597, 783.7041
298.9418, 777.5205
299.4239, 762.6693
299.9060, 752.9336
300.3882, 760.1353
300.8703, 775.5707
301.3524, 785.0095
301.8345, 787.3518
302.3166, 786.6995
302.7987, 786.7590
303.2809, 786.8038
303.7630, 785.1375
304.2451, 776.0987
304.7272, 767.1710
305.2093, 769.2720
305.6914, 783.3922
306.1736, 798.1766
306.6557, 806.0366
307.1378, 808.3831
307.6199, 807.7805
308.1020, 803.4778
308.5841, 797.8628
309.0663, 791.2271
309.5484, 783.6232
310.0305, 780.5435
310.5126, 791.8399
310.9947, 807.8885
311.4768, 816.5437
311.9590, 806.0464
312.4411, 792.7466
312.9232, 786.1547
313.4053, 785.9765
313.8874, 788.2929
314.3695, 794.7256
314.8517, 801.1269
315.3337, 803.5446
315.8159, 796.7849
316.2980, 789.7851
316.7801, 786.5204
317.2622, 786.4332
317.7443, 786.2181
318.2264, 784.0158
318.7086, 781.5672
319.1907, 780.1727
319.6728, 781.8234
320.1549, 782.4349
320.6370, 778.6058
321.1191, 772.2796
321.6013, 770.2999
322.0834, 778.2196
322.5655, 788.1985
323.0476, 796.4886
323.5297, 804.3229
324.0118, 807.7009
324.4940, 800.8521
324.9761, 788.8345
325.4582, 784.3057
325.9403, 800.9132
326.4224, 815.0392
326.9045, 816.6206
327.3867, 794.3547
327.8688, 781.2414
328.3509, 784.0844
328.8330, 795.3357
329.3151, 802.2617
329.7972, 803.0779
330.2794, 801.4485
330.7615, 797.1207
331.2436, 787.6127
331.7257, 784.9720
332.2078, 794.4937
332.6899, 807.6388
333.1721, 812.8800
333.6542, 806.1850
334.1363, 798.4016
334.6184, 791.4179
335.1005, 785.1992
335.5826, 781.7404
336.0648, 782.7061
336.5469, 784.3406
337.0290, 781.8199
337.5111, 772.4045
337.9932, 767.6174
338.4753, 771.9534
338.9575, 783.5774
339.4396, 786.9619
339.9217, 779.0520
340.4038, 770.7344
340.8859, 774.0228
341.3680, 790.8900
341.8502, 797.6883
342.3323, 786.9819
342.8144, 765.7724
343.2965, 755.4761
343.7786, 756.7744
344.2607, 762.7631
344.7429, 771.0157
345.2250, 780.9333
345.7071, 786.1819
346.1892, 784.9781
346.6713, 780.8662
347.1534, 780.0524
347.6355, 782.3264
348.1176, 784.6552
348.5998, 784.9161
349.0819, 783.8408
349.5640, 783.6578
350.0461, 784.6633
350.5282, 785.9191
351.0103, 786.0434
351.4925, 785.4025
351.9746, 785.2493
352.4567, 788.0500
352.9388, 790.9727
353.4209, 789.5503
353.9030, 783.4489
354.3852, 775.8885
354.8673, 767.7662
355.3494, 760.2858
355.8315, 755.4973
356.3136, 755.4466
356.7957, 757.5854
357.2779, 760.1068
357.7600, 763.0457
358.2421, 766.6429
358.7242, 772.4266
359.2063, 778.4028
359.6884, 782.5449
360.1706, 784.0837
360.6527, 783.8585
361.1348, 780.3310
361.6169, 774.6827
362.0990, 771.9985
362.5811, 775.8133
363.0633, 782.0670
363.5454, 788.4130
364.0275, 795.2966
364.5096, 800.7454
364.9917, 805.8265
365.4738, 809.1461
365.9560, 807.6204
366.4381, 795.3513
366.9202, 782.7452
367.4023, 772.7003
367.8844, 763.6684
368.3665, 761.7737
368.8487, 774.9705
369.3308, 793.1193
369.8129, 802.4100
370.2950, 794.0843
370.7771, 788.0561
371.2592, 790.4205
371.7414, 802.4651
372.2235, 807.5935
372.7056, 801.4117
373.1877, 792.6556
373.6698, 790.2921
374.1519, 798.3890
374.6341, 802.0161
375.1162, 796.6765
375.5983, 784.5963
376.0804, 779.8113
376.5625, 784.8161
377.0446, 790.7626
377.5267, 790.9033
378.0089, 784.6072
378.4910, 778.9395
378.9731, 774.3675
379.4552, 771.1514
379.9373, 770.7178
380.4194, 773.2509
380.9016, 775.3303
381.3837, 773.6535
381.8658, 769.4409
382.3479, 770.0154
382.8300, 776.4537
383.3121, 784.4935
383.7943, 789.4982
384.2764, 791.5598
384.7585, 791.1105
385.2406, 785.5086
385.7227, 778.3024
386.2048, 776.7662
386.6870, 780.8138
387.1691, 785.4717
387.6512, 786.7599
388.1333, 785.7549
388.6154, 784.2004
389.0975, 782.3778
389.5797, 780.4601
390.0618, 778.5972
390.5439, 776.7636
391.0260, 774.9708
391.5081, 773.0792
391.9902, 771.3446
392.4724, 769.6138
392.9545, 766.6838
393.4366, 766.3618
393.9187, 773.6301
394.4008, 784.5175
394.8829, 791.2589
395.3651, 785.9016
395.8472, 780.4147
396.3293, 780.9659
396.8114, 790.2751
397.2935, 796.5298
397.7756, 795.0317
398.2578, 790.5769
398.7399, 788.5082
399.2220, 789.2601
399.7041, 792.4168
400.1862, 800.8063
400.6683, 814.2425
401.1505, 818.1946
401.6326, 805.6048
402.1147, 790.6160
402.5968, 782.9685
403.0789, 786.2474
403.5610, 788.5297
404.0432, 788.6713
404.5253, 787.2594
405.0074, 785.6260
405.4895, 783.0510
405.9716, 782.3270
406.4537, 786.3823
406.9359, 795.8339
407.4180, 799.6215
407.9001, 796.2554
408.3822, 790.1342
408.8643, 786.8507
409.3464, 786.3909
409.8285, 788.4315
410.3106, 794.6981
410.7928, 803.0096
411.2749, 806.5819
411.7570, 805.2920
412.2391, 802.5222
412.7212, 801.1266
413.2033, 800.5627
413.6855, 799.1927
414.1676, 795.4473
414.6497, 792.4114
415.1318, 795.2389
415.6139, 802.4691
416.0960, 808.1494
416.5782, 807.1061
417.0603, 803.6521
417.5424, 802.3119
418.0245, 804.3506
418.5066, 806.1375
418.9887, 804.5383
419.4709, 801.5475
419.9530, 800.2695
420.4351, 803.0278
420.9172, 806.7139
421.3993, 810.1838
421.8814, 813.3817
422.3636, 816.4031
422.8457, 820.5181
423.3278, 823.8052
423.8099, 824.7598
424.2920, 822.0721
424.7741, 818.4188
425.2563, 812.8854
425.7384, 806.2639
426.2205, 802.1243
426.7026, 800.7344
427.1847, 801.4324
427.6668, 804.3314
428.1490, 810.4953
428.6311, 815.5566
429.1132, 819.7937
429.5953, 822.6857
430.0774, 823.2602
430.5595, 821.2443
431.0417, 817.9918
431.5238, 812.8289
432.0059, 806.4921
432.4880, 804.6537
432.9701, 807.6732
433.4522, 813.1982
433.9344, 821.8356
434.4165, 832.2914
434.8986, 835.9839
435.3807, 829.4412
435.8628, 818.4885
436.3449, 810.9324
436.8271, 806.8320
437.3092, 806.4910
437.7913, 814.6195
438.2734, 824.9238
438.7555, 827.2149
439.2376, 819.5856
439.7197, 811.5073
440.2018, 811.0621
440.6840, 814.9180
441.1661, 817.9381
441.6482, 815.6735
442.1303, 814.0425
442.6124, 817.8859
443.0945, 826.4233
443.5767, 832.1465
444.0588, 827.7004
444.5409, 822.4911
445.0230, 823.2593
445.5051, 839.6852
445.9872, 849.3560
446.4694, 842.8643
446.9515, 827.8319
447.4336, 821.1071
447.9157, 833.4786
448.3978, 842.5354
448.8799, 839.9894
449.3621, 822.6646
449.8442, 813.8647
450.3263, 816.1401
450.8084, 823.8030
451.2905, 832.7579
451.7726, 844.6399
452.2548, 850.5543
452.7369, 846.8867
453.2190, 837.1206
453.7011, 833.5129
454.1832, 836.7819
454.6653, 840.9332
455.1475, 842.5747
455.6296, 841.9483
456.1117, 840.5556
456.5938, 838.5814
457.0759, 835.5848
457.5580, 828.8180
458.0402, 820.1421
458.5223, 815.6962
459.0044, 822.1898
459.4865, 831.6996
459.9686, 833.4429
460.4507, 828.2590
460.9329, 824.3828
461.4150, 828.9244
461.8971, 836.7812
462.3792, 843.0894
462.8613, 846.6653
463.3434, 848.5439
463.8256, 846.4678
464.3077, 843.1351
464.7898, 844.0021
465.2719, 860.3342
465.7540, 872.4828
466.2361, 869.1975
466.7183, 845.6414
467.2004, 833.6815
467.6825, 848.3062
468.1646, 867.1577
468.6467, 872.5278
469.1288, 852.9953
469.6110, 839.5248
470.0930, 836.6780
470.5752, 841.6622
471.0573, 844.7841
471.5394, 845.2877
472.0215, 845.8113
472.5036, 849.0147
472.9857, 855.3030
473.4679, 853.4868
473.9500, 841.0655
474.4321, 828.5562
474.9142, 832.6915
475.3963, 850.7910
475.8784, 862.5233
476.3606, 859.1496
476.8427, 848.0280
477.3248, 840.2448
477.8069, 835.8752
478.2890, 835.7525
478.7711, 844.4261
479.2533, 856.0876
479.7354, 863.3176
480.2175, 864.4396
480.6996, 863.2709
481.1817, 859.7368
481.6638, 856.0796
482.1460, 855.7476
482.6281, 864.2615
483.1102, 872.3232
483.5923, 875.9149
484.0744, 875.0419
484.5565, 873.3732
485.0387, 866.9724
485.5208, 863.2147
486.0029, 866.8115
486.4850, 885.4104
486.9671, 899.4365
487.4492, 910.0097
487.9314, 915.4805
488.4135, 910.4222
488.8956, 887.1554
489.3777, 871.7203
489.8598, 875.7007
490.3419, 897.1522
490.8241, 905.2543
491.3062, 898.1666
491.7883, 884.7618
492.2704, 867.9186
492.7525, 849.2202
493.2346, 844.1712
493.7168, 859.1466
494.1989, 879.8986
494.6810, 884.8813
495.1631, 876.7072
495.6452, 866.4880
496.1273, 856.3154
496.6095, 849.1540
497.0916, 850.3894
497.5737, 859.9761
498.0558, 870.4758
498.5379, 879.8159
499.0201, 886.3838
499.5022, 888.0867
499.9843, 880.4269
500.4664, 873.5860
500.9485, 871.2740
501.4306, 872.3932
501.9127, 874.4967
502.3948, 879.1866
502.8770, 882.8654
503.3591, 883.9190
503.8412, 881.8746
504.3233, 880.5085
504.8054, 880.1840
505.2875, 880.1469
505.7697, 879.0348
506.2518, 875.0072
506.7339, 876.3997
507.2160, 885.9950
507.6981, 900.0106
508.1802, 909.9421
508.6624, 915.8102
509.1445, 917.3471
509.6266, 912.4230
510.1087, 902.8026
510.5908, 894.5527
511.0729, 887.5924
511.5551, 883.8507
512.0372, 887.1309
512.5193, 894.7191
513.0014, 901.6288
513.4835, 908.0678
513.9656, 911.0075
514.4478, 904.7386
514.9299, 892.7654
515.4120, 883.8732
515.8941, 883.8374
516.3762, 886.4394
516.8583, 888.7578
517.3405, 890.5845
517.8226, 891.7298
518.3047, 891.9518
518.7868, 891.5728
519.2689, 890.7318
519.7510, 885.6929
520.2332, 885.7368
520.7153, 893.4105
521.1974, 905.7548
521.6795, 916.3812
522.1616, 926.7191
522.6437, 931.5624
523.1259, 927.2354
523.6080, 914.4166
524.0901, 903.6439
524.5722, 894.1124
525.0543, 890.3789
525.5364, 901.4585
526.0186, 923.3125
526.5007, 935.9656
526.9828, 933.2695
527.4649, 925.8715
527.9470, 929.5096
528.4291, 939.9843
528.9113, 945.2793
529.3934, 934.2855
529.8755, 919.1843
530.3576, 908.9886
530.8397, 904.0536
531.3218, 902.0251
531.8040, 905.4387
532.2861, 909.2252
532.7682, 909.0938
533.2503, 899.4601
533.7324, 893.9927
534.2145, 898.4539
534.6967, 907.3146
535.1788, 910.9210
535.6609, 905.1338
536.1430, 900.4407
536.6251, 899.6893
537.1072, 902.5231
537.5894, 903.6130
538.0715, 901.5993
538.5536, 901.8273
539.0357, 911.4205
539.5178, 929.5262
539.9999, 935.6944
540.4821, 925.4236
540.9642, 912.4733
541.4463, 917.8894
541.9284, 936.5298
542.4105, 949.9502
542.8926, 947.7498
543.3748, 939.9795
543.8569, 938.2499
544.3390, 941.2410
544.8211, 942.4656
545.3032, 934.3632
545.7853, 925.8577
546.2675, 924.7668
546.7495, 934.6276
547.2316, 941.3925
547.7137, 937.8078
548.1959, 930.7297
548.6780, 927.2537
549.1601, 929.0842
549.6422, 933.3596
550.1243, 941.9447
550.6064, 952.7373
551.0886, 958.4973
551.5707, 958.7586
552.0528, 954.9877
552.5349, 945.8210
553.0170, 931.5610
553.4991, 923.6204
553.9813, 922.4394
554.4634, 925.2410
554.9455, 932.0498
555.4276, 941.1030
555.9097, 945.0975
556.3918, 941.6115
556.8740, 935.1402
557.3561, 927.9859
557.8382, 921.6860
558.3203, 919.9930
558.8024, 927.3907
559.2845, 937.8498
559.7667, 950.1295
560.2488, 963.4757
560.7309, 970.6302
561.2130, 964.9520
561.6951, 955.2643
562.1772, 946.5132
562.6594, 937.5222
563.1415, 932.7554
563.6236, 934.0506
564.1057, 938.4689
564.5878, 942.5380
565.0699, 946.5187
565.5521, 949.2335
566.0342, 950.3514
566.5163, 950.0397
566.9984, 947.7974
567.4805, 943.3008
567.9626, 941.4626
568.4448, 948.8547
568.9269, 961.0402
569.4090, 963.6766
569.8911, 955.6710
570.3732, 946.8572
570.8553, 945.7222
571.3375, 949.6049
571.8196, 954.7200
572.3017, 960.8812
572.7838, 966.7393
573.2659, 972.2647
573.7480, 976.9266
574.2302, 979.7852
574.7123, 982.7493
575.1944, 981.6723
575.6765, 971.8749
576.1586, 953.3135
576.6407, 943.8414
577.1229, 948.5249
577.6050, 955.9399
578.0871, 959.2639
578.5692, 956.9337
579.0513, 958.1499
579.5334, 964.2231
