##NAMES=Diopside
##RRUFFID=R050666
##IDEAL CHEMISTRY=CaMgSi_2_O_6_
##LOCALITY=Franklin, Sussex County, New Jersey, USA
##OWNER=RRUFF
##SOURCE=University of Arizona Mineral Museum
##DESCRIPTION=Brown cleavage fragment with white hardystonite
##STATUS=The identification of this mineral has been confirmed by X-ray diffraction and chemical analysis
##URL=rruff.info/R050666
##MEASURED CHEMISTRY=Ca(Mg_0.66_Mn_0.33_Fe_0.01_)Si_2_O_6_
89.78156, 0.0000000E+00
90.26367, 8.404204
90.74579, 8.582341
91.22791, 8.488330
91.71002, 8.155795
92.19214, 7.882107
92.67426, 8.110765
93.15638, 8.614474
93.63850, 8.768329
94.12061, 8.081079
94.60273, 6.981775
95.08485, 6.529181
95.56696, 6.785011
96.04908, 7.297639
96.53120, 7.589958
97.01331, 7.663501
97.49543, 7.649542
97.97755, 7.570194
98.45966, 7.430851
98.94178, 7.324534
99.42390, 7.261879
99.90602, 7.217679
100.3881, 7.117266
100.8703, 6.925296
101.3524, 6.802929
101.8345, 6.893472
102.3166, 7.298112
102.7987, 7.457298
103.2808, 7.239703
103.7630, 6.751036
104.2451, 6.463442
104.7272, 6.419098
105.2093, 6.516788
105.6914, 6.729493
106.1735, 7.286768
106.6557, 7.551024
107.1378, 7.297135
107.6199, 6.497789
108.1020, 6.050094
108.5841, 6.267664
109.0662, 6.670004
109.5484, 6.828966
110.0305, 6.328438
110.5126, 5.999313
110.9947, 6.049428
111.4768, 6.585696
111.9590, 7.015212
112.4411, 7.194025
112.9232, 7.261803
113.4053, 7.392910
113.8874, 7.639346
114.3695, 7.938341
114.8517, 8.273082
115.3338, 8.657578
115.8159, 9.034730
116.2980, 9.367266
116.7801, 9.683118
117.2622, 10.03971
117.7444, 10.49419
118.2265, 10.97872
118.7086, 11.44584
119.1907, 11.87970
119.6728, 12.31208
120.1549, 12.70779
120.6371, 13.09743
121.1192, 13.60741
121.6013, 14.27324
122.0834, 15.10540
122.5655, 16.12997
123.0476, 17.55693
123.5298, 19.00262
124.0119, 20.03318
124.4940, 20.67847
124.9761, 21.36304
125.4582, 22.55300
125.9404, 24.01715
126.4225, 25.29131
126.9046, 26.02424
127.3867, 26.50902
127.8688, 27.20156
128.3509, 28.10971
128.8331, 29.14929
129.3152, 30.20487
129.7973, 31.30523
130.2794, 32.56318
130.7615, 34.05616
131.2436, 35.75280
131.7258, 37.56837
132.2079, 39.53638
132.6900, 41.51582
133.1721, 43.25393
133.6542, 44.73969
134.1364, 46.23027
134.6185, 48.01335
135.1006, 50.06895
135.5827, 51.64700
136.0648, 52.62256
136.5469, 53.19035
137.0291, 53.76508
137.5112, 54.32439
137.9933, 54.96980
138.4754, 55.85065
138.9575, 57.03241
139.4396, 57.99146
139.9218, 58.63924
140.4039, 59.01690
140.8860, 59.25719
141.3681, 59.24723
141.8502, 59.29899
142.3323, 59.65254
142.8145, 60.36536
143.2966, 61.25753
143.7787, 62.40084
144.2608, 63.79525
144.7429, 64.80699
145.2250, 65.15621
145.7072, 65.38573
146.1893, 66.02101
146.6714, 67.28525
147.1535, 68.61462
147.6356, 69.81995
148.1178, 70.81055
148.5999, 72.26480
149.0820, 74.54247
149.5641, 77.12855
150.0462, 79.39616
150.5283, 81.01533
151.0105, 82.61644
151.4926, 83.49178
151.9747, 84.12681
152.4568, 85.23938
152.9389, 87.25053
153.4210, 89.62890
153.9032, 91.66650
154.3853, 93.22999
154.8674, 94.48527
155.3495, 95.45190
155.8316, 96.05383
156.3137, 96.59776
156.7959, 97.35480
157.2780, 98.07708
157.7601, 98.29221
158.2422, 97.68851
158.7243, 96.72287
159.2065, 95.58874
159.6886, 94.22630
160.1707, 92.85660
160.6528, 91.32372
161.1349, 89.79609
161.6170, 88.72971
162.0992, 88.80421
162.5813, 89.07378
163.0634, 88.86636
163.5455, 87.48194
164.0276, 86.34962
164.5097, 86.29140
164.9919, 87.07853
165.4740, 87.83053
165.9561, 87.87114
166.4382, 87.79262
166.9203, 88.14415
167.4024, 89.40813
167.8846, 90.80419
168.3667, 91.78014
168.8488, 92.41189
169.3309, 93.18850
169.8130, 94.31448
170.2952, 95.78326
170.7773, 97.57173
171.2594, 99.84549
171.7415, 102.3125
172.2236, 104.6891
172.7057, 106.9933
173.1879, 109.5212
173.6700, 113.4903
174.1521, 117.7257
174.6342, 120.2680
175.1163, 119.8913
175.5984, 117.7226
176.0806, 114.7838
176.5627, 111.0614
177.0448, 107.1477
177.5269, 103.3599
178.0090, 99.78120
178.4911, 96.50366
178.9733, 93.32388
179.4554, 90.58016
179.9375, 88.96262
180.4196, 88.56281
180.9017, 88.55483
181.3838, 88.14420
181.8660, 87.42574
182.3481, 86.71689
182.8302, 86.14975
183.3123, 85.70276
183.7944, 85.35629
184.2766, 85.12367
184.7587, 84.90665
185.2408, 84.53111
185.7229, 84.03404
186.2050, 83.61826
186.6871, 83.45869
187.1693, 83.47388
187.6514, 83.37530
188.1335, 83.14055
188.6156, 82.82182
189.0977, 82.46788
189.5798, 82.08085
190.0620, 81.69522
190.5441, 81.27329
191.0262, 80.83994
191.5083, 80.59818
191.9904, 80.59855
192.4725, 80.68769
192.9547, 80.52714
193.4368, 80.10283
193.9189, 79.83821
194.4010, 80.17336
194.8831, 81.04346
195.3652, 81.32762
195.8474, 80.80560
196.3295, 79.90662
196.8116, 79.46204
197.2937, 79.49910
197.7758, 79.72693
198.2579, 80.03809
198.7401, 80.43574
199.2222, 80.76546
199.7043, 81.02383
200.1864, 81.19484
200.6685, 81.19304
201.1507, 80.97459
201.6328, 80.78543
202.1149, 80.80625
202.5970, 81.06409
203.0791, 81.22656
203.5612, 81.20524
204.0434, 81.11687
204.5255, 81.33851
205.0076, 81.96793
205.4897, 82.57265
205.9718, 82.81998
206.4539, 82.61607
206.9361, 82.64017
207.4182, 83.02096
207.9003, 83.63706
208.3824, 84.13132
208.8645, 84.51243
209.3466, 84.75393
209.8288, 84.79599
210.3109, 84.56949
210.7930, 84.44104
211.2751, 84.43051
211.7572, 84.54313
212.2393, 84.83688
212.7215, 85.38913
213.2036, 85.94445
213.6857, 86.28465
214.1678, 86.26936
214.6499, 86.55947
215.1320, 87.39796
215.6142, 88.57398
216.0963, 89.07830
216.5784, 88.60508
217.0605, 88.04002
217.5426, 87.98563
218.0247, 88.64705
218.5069, 89.18700
218.9890, 89.40100
219.4711, 89.43128
219.9532, 90.07076
220.4353, 91.80154
220.9175, 93.36189
221.3996, 93.83870
221.8817, 92.63122
222.3638, 91.92337
222.8459, 92.07398
223.3280, 92.90003
223.8102, 93.44203
224.2923, 93.56506
224.7744, 93.62524
225.2565, 93.81953
225.7386, 94.10906
226.2207, 94.62894
226.7029, 95.44829
227.1850, 96.51687
227.6671, 97.54289
228.1492, 98.52097
228.6313, 99.46378
229.1134, 100.3477
229.5956, 101.0654
230.0777, 101.9873
230.5598, 103.1985
231.0419, 104.6479
231.5240, 106.1501
232.0062, 107.9095
232.4883, 109.4481
232.9704, 110.5132
233.4525, 111.1714
233.9346, 111.1961
234.4167, 110.4066
234.8989, 108.9493
235.3810, 107.5113
235.8631, 106.1373
236.3452, 104.6969
236.8273, 103.0736
237.3094, 101.1229
237.7916, 99.28616
238.2737, 97.45890
238.7558, 95.74722
239.2379, 94.59924
239.7200, 94.26888
240.2021, 94.15614
240.6843, 93.94955
241.1664, 93.61765
241.6485, 93.25278
242.1306, 92.80962
242.6127, 92.33656
243.0948, 92.03551
243.5770, 91.95912
244.0591, 91.98497
244.5412, 92.04833
245.0233, 92.11933
245.5054, 92.31377
245.9876, 92.73757
246.4697, 93.27432
246.9518, 93.54504
247.4339, 93.40270
247.9160, 93.21445
248.3981, 93.19379
248.8803, 93.54591
249.3624, 93.53438
249.8445, 92.88676
250.3266, 91.93246
250.8087, 91.63309
251.2908, 92.36855
251.7730, 93.14650
252.2551, 93.50283
252.7372, 93.26430
253.2193, 93.04797
253.7014, 92.85095
254.1835, 92.67818
254.6657, 92.54958
255.1478, 92.49081
255.6299, 92.43156
256.1120, 92.34827
256.5941, 92.25068
257.0763, 92.10516
257.5584, 91.92250
258.0405, 91.68504
258.5226, 91.34232
259.0047, 90.82586
259.4868, 90.33989
259.9690, 89.95138
260.4511, 89.65282
260.9332, 89.52031
261.4153, 89.67692
261.8974, 89.89035
262.3795, 89.71917
262.8617, 88.97489
263.3438, 88.29701
263.8259, 87.92411
264.3080, 87.91194
264.7901, 87.81938
265.2722, 87.63329
265.7544, 87.38200
266.2365, 87.09499
266.7186, 86.75085
267.2007, 86.43688
267.6828, 86.17607
268.1649, 85.96470
268.6471, 85.83112
269.1292, 85.78429
269.6113, 85.79743
270.0934, 85.86391
270.5755, 86.02026
271.0576, 86.08105
271.5398, 85.92112
272.0219, 85.55352
272.5040, 85.53524
272.9861, 85.95968
273.4682, 86.52856
273.9503, 86.91899
274.4325, 87.08719
274.9146, 87.30788
275.3967, 87.64539
275.8788, 88.09303
276.3610, 88.58868
276.8431, 89.13916
277.3252, 89.70168
277.8073, 90.21833
278.2894, 90.68034
278.7715, 91.20302
279.2537, 91.82604
279.7358, 92.52879
280.2179, 93.23653
280.7000, 93.95288
281.1821, 94.67322
281.6642, 95.37144
282.1464, 96.04709
282.6285, 96.82947
283.1106, 97.72057
283.5927, 98.74662
284.0748, 100.0359
284.5569, 101.6196
285.0391, 103.2244
285.5212, 104.6197
286.0033, 105.8326
286.4854, 107.1892
286.9675, 108.7206
287.4496, 110.4251
287.9318, 112.3384
288.4139, 114.4795
288.8960, 116.6720
289.3781, 118.8969
289.8602, 121.1346
290.3423, 123.2169
290.8245, 125.0463
291.3066, 126.9442
291.7887, 129.3114
292.2708, 132.1537
292.7529, 135.4700
293.2350, 139.6443
293.7172, 144.3201
294.1993, 148.1085
294.6814, 150.8285
295.1635, 153.3361
295.6456, 156.5154
296.1277, 160.3346
296.6099, 164.6568
297.0920, 169.4488
297.5741, 174.6246
298.0562, 180.0278
298.5383, 185.6206
299.0204, 191.2710
299.5026, 196.8130
299.9847, 202.2634
300.4668, 207.8635
300.9489, 213.6462
301.4311, 219.5644
301.9132, 225.4206
302.3953, 231.2660
302.8774, 237.0538
303.3595, 242.7405
303.8416, 248.3863
304.3238, 254.2500
304.8059, 260.2698
305.2880, 266.5338
305.7701, 273.0303
306.2522, 279.8002
306.7343, 286.7000
307.2165, 293.7686
307.6986, 300.9485
308.1807, 308.1327
308.6628, 315.2257
309.1449, 322.5907
309.6270, 330.7030
310.1092, 339.4688
310.5913, 348.3386
311.0734, 357.3367
311.5555, 366.1616
312.0376, 374.5125
312.5197, 382.4810
313.0019, 389.6053
313.4840, 395.9795
313.9661, 401.4216
314.4482, 405.6322
314.9303, 408.7857
315.4124, 410.4684
315.8946, 410.4833
316.3767, 408.8677
316.8588, 405.2738
317.3409, 399.0097
317.8230, 390.8289
318.3051, 381.7618
318.7873, 371.7530
319.2694, 361.1354
319.7515, 349.8382
320.2336, 337.8125
320.7157, 325.8342
321.1978, 313.6758
321.6800, 301.9676
322.1621, 291.3297
322.6442, 282.1473
323.1263, 273.7692
323.6084, 266.1682
324.0905, 259.3165
324.5727, 252.8475
325.0548, 246.5391
325.5369, 240.7745
326.0190, 235.8045
326.5012, 232.0796
326.9833, 228.6343
327.4654, 225.2435
327.9475, 222.0489
328.4296, 219.6648
328.9117, 218.3482
329.3939, 217.6208
329.8760, 217.3082
330.3581, 217.5739
330.8402, 217.9406
331.3223, 218.2768
331.8044, 218.7446
332.2866, 219.7207
332.7687, 221.5577
333.2508, 223.3562
333.7329, 224.7725
334.2150, 225.6528
334.6971, 226.9247
335.1793, 228.7459
335.6614, 230.8220
336.1435, 232.7377
336.6256, 234.4223
337.1077, 236.1780
337.5898, 237.9725
338.0720, 239.8511
338.5541, 242.2383
339.0362, 245.2649
339.5183, 248.5676
340.0004, 251.8423
340.4825, 255.1421
340.9647, 258.2339
341.4468, 260.9380
341.9289, 263.4738
342.4110, 266.6819
342.8931, 270.5990
343.3752, 274.7556
343.8574, 278.8546
344.3395, 282.9194
344.8216, 286.8531
345.3037, 290.6868
345.7858, 294.2897
346.2679, 297.5965
346.7501, 300.6008
347.2322, 302.7961
347.7143, 303.9446
348.1964, 304.0862
348.6785, 303.4355
349.1607, 302.0140
349.6428, 299.6314
350.1249, 296.0100
350.6070, 291.2498
351.0891, 285.5438
351.5713, 278.6951
352.0534, 271.1649
352.5355, 263.3531
353.0176, 255.3692
353.4997, 247.4235
353.9818, 239.2983
354.4640, 231.4558
354.9461, 224.5242
355.4282, 218.9484
355.9103, 214.1083
356.3924, 209.4308
356.8745, 204.9905
357.3567, 201.1858
357.8388, 198.4032
358.3209, 196.2235
358.8030, 194.2159
359.2851, 192.2054
359.7672, 190.6837
360.2494, 189.8315
360.7315, 189.6567
361.2136, 190.1779
361.6957, 191.4593
362.1778, 193.3838
362.6599, 195.8655
363.1421, 198.8772
363.6242, 202.6055
364.1063, 207.3396
364.5884, 212.7426
365.0705, 218.4291
365.5526, 224.0422
366.0348, 230.1932
366.5169, 237.2252
366.9990, 245.0819
367.4811, 252.8208
367.9632, 260.1796
368.4453, 267.5414
368.9275, 275.0850
369.4096, 282.8605
369.8917, 290.6818
370.3738, 298.3187
370.8559, 306.0396
371.3380, 314.4637
371.8202, 324.0552
372.3023, 333.8303
372.7844, 343.2039
373.2665, 351.7413
373.7487, 361.5018
374.2308, 372.7783
374.7129, 384.9844
375.1950, 397.4671
375.6771, 410.1282
376.1592, 423.5190
376.6414, 438.0167
377.1235, 453.4977
377.6056, 469.2832
378.0877, 485.5634
378.5698, 501.9722
379.0519, 518.9169
379.5341, 536.2742
380.0162, 552.2156
380.4983, 566.4849
380.9804, 578.9635
381.4625, 589.4766
381.9446, 598.1322
382.4268, 602.7245
382.9089, 602.0779
383.3910, 596.3674
383.8731, 585.9201
384.3552, 570.6721
384.8373, 551.2431
385.3195, 527.4054
385.8016, 499.9336
386.2837, 470.5635
386.7658, 438.4846
387.2479, 406.1045
387.7300, 375.7794
388.2122, 347.6507
388.6943, 321.4254
389.1764, 297.1613
389.6585, 274.7578
390.1406, 254.6299
390.6227, 237.1313
391.1049, 221.5627
391.5870, 208.1329
392.0691, 196.5119
392.5512, 185.7063
393.0333, 175.0855
393.5154, 165.2557
393.9976, 156.6347
394.4797, 149.3800
394.9618, 142.9839
395.4439, 137.5735
395.9260, 132.8483
396.4081, 128.4270
396.8903, 124.2139
397.3724, 120.2521
397.8545, 116.4902
398.3366, 112.9235
398.8188, 109.6956
399.3009, 106.8149
399.7830, 104.2794
400.2651, 102.1004
400.7472, 100.4448
401.2293, 98.89538
401.7115, 97.44690
402.1936, 96.08083
402.6757, 94.73167
403.1578, 93.34621
403.6399, 92.06416
404.1220, 90.97536
404.6042, 90.10754
405.0863, 89.22881
405.5684, 88.33259
406.0505, 87.45093
406.5326, 86.65334
407.0147, 85.95452
407.4969, 85.19015
407.9790, 84.23145
408.4611, 83.18675
408.9432, 82.53735
409.4253, 82.31393
409.9074, 82.20921
410.3896, 82.07313
410.8717, 81.87431
411.3538, 81.42529
411.8359, 80.63636
412.3180, 79.75996
412.8001, 79.14478
413.2823, 78.75912
413.7644, 78.42957
414.2465, 78.14723
414.7286, 77.83579
415.2107, 77.35374
415.6928, 76.69422
416.1750, 76.02397
416.6571, 75.42211
417.1392, 74.90500
417.6213, 74.47262
418.1034, 74.10601
418.5855, 73.85229
419.0677, 73.87309
419.5498, 74.07034
420.0319, 74.07524
420.5140, 73.60242
420.9961, 72.98755
421.4782, 72.40522
421.9604, 71.83782
422.4425, 71.42201
422.9246, 71.31454
423.4067, 71.34456
423.8889, 71.27637
424.3710, 71.05081
424.8531, 70.75636
425.3352, 70.38535
425.8173, 69.93770
426.2994, 69.53297
426.7816, 69.08021
427.2637, 68.76669
427.7458, 68.75530
428.2279, 69.25254
428.7100, 69.53445
429.1921, 69.47165
429.6743, 69.22139
430.1564, 69.17852
430.6385, 69.40796
431.1206, 69.59185
431.6027, 69.55008
432.0848, 69.29835
432.5670, 69.22575
433.0491, 69.35001
433.5312, 69.58247
434.0133, 69.84785
434.4954, 70.14535
434.9775, 70.47258
435.4597, 70.84016
435.9418, 71.22358
436.4239, 71.61124
436.9060, 71.98642
437.3881, 72.26272
437.8702, 72.18906
438.3524, 72.05119
438.8345, 72.32172
439.3166, 73.10017
439.7987, 73.94033
440.2808, 74.39539
440.7629, 74.69864
441.2451, 75.20879
441.7272, 76.49694
442.2093, 77.64237
442.6914, 78.06037
443.1735, 77.83867
443.6556, 77.59389
444.1378, 77.36829
444.6199, 77.31575
445.1020, 77.56699
445.5841, 78.34996
446.0662, 79.02659
446.5483, 79.45451
447.0305, 79.73924
447.5126, 80.05637
447.9947, 80.43224
448.4768, 80.81081
448.9590, 81.19602
449.4411, 81.58721
449.9232, 81.91006
450.4053, 82.17133
450.8874, 82.35667
451.3695, 82.46141
451.8517, 82.49627
452.3338, 82.39199
452.8159, 82.11449
453.2980, 81.72655
453.7801, 81.38398
454.2622, 81.10239
454.7444, 80.67212
455.2265, 79.93990
455.7086, 78.97403
456.1907, 78.08463
456.6728, 77.26275
457.1549, 76.50400
457.6371, 75.82547
458.1192, 75.19315
458.6013, 74.49111
459.0834, 73.65825
459.5655, 72.82152
460.0476, 72.17480
460.5298, 71.64848
461.0119, 71.07163
461.4940, 70.26903
461.9761, 69.42367
462.4582, 68.61610
462.9403, 67.83241
463.4225, 67.29967
463.9046, 67.36507
464.3867, 67.61549
464.8688, 67.65899
465.3509, 67.20148
465.8330, 66.76028
466.3152, 66.38689
466.7973, 66.10099
467.2794, 65.97376
467.7615, 66.21368
468.2436, 66.41066
468.7257, 66.43581
469.2079, 66.27772
469.6900, 65.98166
470.1721, 65.42434
470.6542, 64.86596
471.1363, 64.61528
471.6184, 64.76548
472.1006, 64.84281
472.5827, 64.72540
473.0648, 64.50578
473.5469, 64.51937
474.0291, 64.79238
474.5112, 64.99306
474.9933, 64.83662
475.4754, 64.42857
475.9575, 64.23856
476.4396, 64.29752
476.9218, 64.46368
477.4039, 64.65067
477.8860, 64.82798
478.3681, 64.91843
478.8502, 64.86845
479.3323, 64.75665
479.8145, 64.62318
480.2966, 64.48222
480.7787, 64.39204
481.2608, 64.42986
481.7429, 64.49213
482.2250, 64.49674
482.7072, 64.42012
483.1893, 64.36909
483.6714, 64.36471
484.1535, 64.41159
484.6356, 64.51369
485.1177, 64.71628
485.5999, 64.92484
486.0820, 65.10365
486.5641, 65.27351
487.0462, 65.53069
487.5283, 66.00780
488.0104, 66.39445
488.4926, 66.52405
488.9747, 66.32265
489.4568, 66.36396
489.9389, 66.73625
490.4210, 67.19224
490.9031, 67.44849
491.3853, 67.49590
491.8674, 67.49260
492.3495, 67.40311
492.8316, 67.35978
493.3137, 67.70956
493.7958, 68.42457
494.2780, 69.18995
494.7601, 69.90725
495.2422, 70.52385
495.7243, 70.85950
496.2064, 70.89973
496.6885, 70.93494
497.1707, 71.21195
497.6528, 71.62794
498.1349, 72.03992
498.6170, 72.38423
499.0992, 72.75442
499.5813, 73.24848
500.0634, 73.81176
500.5455, 74.31539
501.0276, 74.63689
501.5097, 74.96050
501.9919, 75.41280
502.4740, 76.04348
502.9561, 76.47964
503.4382, 76.62593
503.9203, 76.62224
504.4024, 76.52760
504.8846, 76.13821
505.3667, 76.10605
505.8488, 76.63406
506.3309, 77.43788
506.8130, 77.88793
507.2951, 77.92308
507.7773, 77.87100
508.2594, 77.79879
508.7415, 77.73319
509.2236, 77.81342
509.7057, 78.03873
510.1878, 78.41694
510.6700, 79.01746
511.1521, 79.78216
511.6342, 80.56025
512.1163, 81.33295
512.5984, 82.07131
513.0806, 82.72234
513.5627, 83.31431
514.0448, 83.90630
514.5269, 84.42180
515.0090, 85.02953
515.4911, 85.90678
515.9733, 87.01613
516.4554, 88.07432
516.9375, 88.87963
517.4196, 89.67635
517.9017, 90.58718
518.3839, 91.58062
518.8660, 92.80610
519.3481, 94.51127
519.8302, 96.34506
520.3123, 97.89714
520.7944, 99.01138
521.2766, 100.1443
521.7587, 101.3502
522.2408, 102.6243
522.7229, 104.0463
523.2050, 105.6968
523.6871, 107.2058
524.1693, 108.4511
524.6514, 109.4057
525.1335, 109.9677
525.6156, 110.1387
526.0977, 109.9124
526.5798, 109.2539
527.0620, 108.1871
527.5441, 106.7819
528.0262, 105.0190
528.5083, 103.0012
528.9904, 100.6843
529.4725, 98.20482
529.9547, 95.91281
530.4368, 94.11575
530.9189, 92.47291
531.4010, 90.69802
531.8831, 88.77168
532.3652, 87.23280
532.8474, 86.40728
533.3295, 85.88852
533.8116, 85.39771
534.2937, 84.72718
534.7758, 84.40994
535.2579, 84.54741
535.7401, 85.00050
536.2222, 85.53710
536.7043, 86.05119
537.1864, 86.91538
537.6685, 88.19688
538.1506, 89.89649
538.6328, 92.09289
539.1149, 94.90567
539.5970, 97.60774
540.0791, 99.58662
540.5612, 101.0440
541.0433, 102.7703
541.5255, 104.7974
542.0076, 107.0561
542.4897, 109.7816
542.9718, 112.6712
543.4539, 115.1090
543.9360, 116.6894
544.4182, 118.1301
544.9003, 119.8834
545.3824, 121.8986
545.8645, 124.0646
546.3466, 126.2930
546.8287, 128.6987
547.3109, 131.2914
547.7930, 134.0502
548.2751, 137.1159
548.7572, 140.6326
549.2393, 144.3699
549.7214, 148.1973
550.2036, 152.0730
550.6857, 156.1770
551.1678, 160.7126
551.6499, 165.2891
552.1320, 169.3146
552.6141, 172.7771
553.0963, 175.9733
553.5784, 179.1418
554.0605, 181.9470
554.5426, 183.7825
555.0247, 184.6145
555.5068, 183.7884
555.9890, 180.6292
556.4711, 175.6595
556.9532, 169.5896
557.4353, 162.4532
557.9174, 154.7318
558.3995, 146.3166
558.8817, 137.8007
559.3638, 129.8189
559.8459, 122.5876
560.3281, 115.9227
560.8102, 109.7978
561.2923, 104.2425
561.7744, 99.35037
562.2565, 94.95530
562.7386, 91.46214
563.2208, 89.30331
563.7029, 88.25138
564.1850, 86.48902
564.6671, 83.53323
565.1492, 80.76053
565.6313, 78.93822
566.1135, 78.16830
566.5956, 77.13002
567.0777, 75.76392
567.5598, 74.36177
568.0419, 73.20236
568.5240, 72.26792
569.0062, 71.40065
569.4883, 70.55478
569.9704, 69.82317
570.4525, 69.44277
570.9346, 69.28560
571.4167, 69.03979
571.8989, 68.44217
572.3810, 67.79925
572.8631, 67.37899
573.3452, 67.13813
573.8273, 66.74358
574.3094, 65.85723
574.7916, 64.95533
575.2737, 64.29629
575.7558, 63.96182
576.2379, 63.69923
576.7200, 63.56654
577.2021, 63.45212
577.6843, 63.23336
578.1664, 62.82965
578.6485, 62.58179
579.1306, 62.57708
579.6127, 62.68306
580.0948, 62.63547
580.5770, 62.43460
581.0591, 62.17493
581.5412, 61.84204
582.0233, 61.50553
582.5054, 61.35365
582.9875, 61.36597
583.4697, 61.37197
583.9518, 61.28281
584.4339, 61.11411
584.9160, 60.79573
585.3981, 60.28092
