##NAMES=Dioptase
##RRUFFID=R040028
##IDEAL CHEMISTRY=Cu^2+^SiO_3_&#183;H_2_O
##LOCALITY=Tantara mine, Democratic Republic of the Congo
##OWNER=RRUFF
##SOURCE=University of Arizona Mineral Museum
##DESCRIPTION=Bluish green coarsely crystallized fragment
##STATUS=The identification of this mineral has been confirmed by X-ray diffraction and chemical analysis
##URL=rruff.info/R040028
##MEASURED CHEMISTRY=Cu_1.00_Si_1.00_O_3_Â·H_2_O; H_2_O estimated by difference
111.3841, 36.23079
111.8663, 36.46951
112.3484, 36.79136
112.8305, 37.13045
113.3126, 37.43441
113.7947, 37.70166
114.2768, 38.06403
114.7590, 38.70336
115.2411, 39.26270
115.7232, 39.64357
116.2053, 39.83241
116.6874, 39.83401
117.1695, 39.62092
117.6517, 39.10058
118.1338, 38.78852
118.6159, 38.70839
119.0980, 38.80502
119.5801, 39.09479
120.0622, 39.59063
120.5444, 40.12526
121.0265, 40.47166
121.5086, 40.64692
121.9907, 40.71495
122.4728, 40.59541
122.9549, 40.37388
123.4371, 40.28002
123.9192, 40.42941
124.4013, 40.66024
124.8834, 40.81533
125.3655, 40.89764
125.8476, 40.87599
126.3298, 40.67511
126.8119, 40.27729
127.2940, 39.93195
127.7761, 39.73427
128.2582, 39.59869
128.7403, 39.52773
129.2225, 39.52262
129.7046, 39.47258
130.1867, 39.12639
130.6688, 38.13494
131.1509, 37.53052
131.6330, 37.73689
132.1152, 38.19863
132.5973, 38.39026
133.0794, 38.05409
133.5615, 37.31628
134.0436, 36.70750
134.5257, 36.41032
135.0079, 36.05328
135.4900, 35.45571
135.9721, 34.77034
136.4542, 34.29134
136.9363, 34.24654
137.4184, 34.59062
137.9006, 34.58358
138.3827, 34.15448
138.8648, 33.53271
139.3469, 32.64559
139.8290, 31.57254
140.3111, 30.70989
140.7933, 30.45101
141.2754, 30.74779
141.7575, 30.91041
142.2396, 30.80709
142.7217, 30.60081
143.2038, 30.43404
143.6860, 30.30322
144.1681, 30.26873
144.6502, 30.54366
145.1323, 30.97486
145.6144, 31.19129
146.0965, 30.91714
146.5787, 30.29831
147.0608, 29.76817
147.5429, 29.28474
148.0250, 29.00854
148.5071, 29.09477
148.9892, 29.44613
149.4714, 29.79321
149.9535, 29.91084
150.4356, 29.78025
150.9177, 29.67019
151.3998, 29.54012
151.8819, 29.46846
152.3641, 29.56569
152.8462, 29.78888
153.3283, 29.96070
153.8104, 29.84993
154.2925, 29.30505
154.7746, 28.89844
155.2568, 28.60462
155.7389, 28.42984
156.2210, 28.44672
156.7031, 28.64081
157.1852, 28.87012
157.6673, 28.91336
158.1495, 28.66558
158.6316, 28.37540
159.1137, 27.95000
159.5958, 27.52261
160.0779, 27.23370
160.5600, 27.13180
161.0422, 27.15330
161.5243, 27.17384
162.0064, 27.16714
162.4885, 27.21467
162.9706, 27.39272
163.4527, 27.63499
163.9349, 27.81175
164.4170, 27.87062
164.8991, 27.83954
165.3812, 27.77356
165.8633, 27.66157
166.3454, 27.55190
166.8276, 27.47328
167.3097, 27.42283
167.7918, 27.37634
168.2739, 27.33094
168.7560, 27.28097
169.2381, 27.20642
169.7203, 27.08868
170.2024, 27.00164
170.6845, 27.06961
171.1666, 27.33765
171.6487, 27.49230
172.1308, 27.23996
172.6130, 26.91798
173.0951, 26.82478
173.5772, 27.07747
174.0593, 27.44464
174.5414, 27.48673
175.0235, 26.99455
175.5057, 26.60804
175.9878, 26.49022
176.4699, 26.50805
176.9520, 26.52794
177.4341, 26.48664
177.9162, 26.43738
178.3984, 26.55563
178.8805, 27.06748
179.3626, 27.46291
179.8447, 27.72929
180.3268, 27.83781
180.8089, 27.71404
181.2911, 27.30062
181.7732, 26.67911
182.2553, 26.31482
182.7374, 26.40351
183.2195, 26.53166
183.7016, 26.63185
184.1838, 26.71768
184.6659, 26.85451
185.1480, 27.10864
185.6301, 27.44023
186.1122, 27.42859
186.5943, 26.73098
187.0764, 26.12228
187.5586, 25.91257
188.0407, 26.04756
188.5228, 26.34492
189.0049, 26.76286
189.4870, 27.22904
189.9691, 27.38449
190.4513, 26.89141
190.9334, 26.38437
191.4155, 26.32173
191.8976, 26.68370
192.3797, 27.08782
192.8618, 27.30696
193.3440, 27.37029
193.8261, 27.38367
194.3082, 27.30497
194.7903, 27.21506
195.2724, 27.22312
195.7545, 27.34862
196.2367, 27.44535
196.7188, 27.38430
197.2009, 27.24153
197.6830, 27.10279
198.1651, 26.95359
198.6472, 26.84962
199.1294, 26.92167
199.6115, 27.25661
200.0936, 27.54988
200.5757, 27.57067
201.0578, 27.49058
201.5399, 27.55669
202.0221, 27.97275
202.5042, 28.54619
202.9863, 28.65540
203.4684, 27.88076
203.9505, 27.32738
204.4326, 27.44030
204.9148, 27.93424
205.3969, 28.43853
205.8790, 28.77006
206.3611, 28.93088
206.8432, 28.92250
207.3253, 28.47626
207.8075, 28.18155
208.2896, 28.28016
208.7717, 28.58817
209.2538, 28.81735
209.7359, 28.76755
210.2180, 28.48768
210.7002, 28.43412
211.1823, 29.04564
211.6644, 29.43593
212.1465, 29.24026
212.6286, 28.71521
213.1107, 28.32921
213.5929, 28.41171
214.0750, 28.91755
214.5571, 29.17777
215.0392, 29.06078
215.5213, 28.86898
216.0034, 28.58066
216.4856, 28.27547
216.9677, 28.14046
217.4498, 28.33944
217.9319, 28.82348
218.4140, 28.90933
218.8961, 28.28322
219.3783, 27.28492
219.8604, 27.73268
220.3425, 27.96743
220.8246, 28.00063
221.3067, 27.22860
221.7888, 27.49636
222.2710, 27.34740
222.7531, 27.18137
223.2352, 27.59548
223.7173, 26.94056
224.1994, 27.34547
224.6815, 27.32731
225.1637, 27.50277
225.6458, 27.25896
226.1279, 27.14466
226.6100, 27.44976
227.0921, 27.52263
227.5742, 27.23056
228.0564, 27.41833
228.5385, 26.74877
229.0206, 26.83153
229.5027, 27.23889
229.9848, 26.96790
230.4669, 27.16334
230.9491, 27.18113
231.4312, 26.39161
231.9133, 27.00610
232.3954, 27.01340
232.8775, 26.39725
233.3596, 26.96363
233.8418, 26.43343
234.3239, 26.29464
234.8060, 26.45042
235.2881, 26.29912
235.7702, 26.63196
236.2523, 26.49839
236.7345, 26.32315
237.2166, 26.32977
237.6987, 25.82108
238.1808, 26.26840
238.6629, 26.06268
239.1451, 26.18156
239.6272, 26.37403
240.1093, 26.00311
240.5914, 26.22864
241.0735, 25.52923
241.5556, 25.60375
242.0378, 25.59492
242.5199, 26.08078
243.0020, 25.38589
243.4841, 25.43890
243.9662, 25.81037
244.4483, 25.73625
244.9305, 25.84842
245.4126, 25.40907
245.8947, 25.48785
246.3768, 25.66374
246.8589, 25.73427
247.3410, 25.75315
247.8231, 25.72799
248.3053, 25.66730
248.7874, 25.56184
249.2695, 25.36368
249.7516, 25.08258
250.2337, 24.81662
250.7158, 24.70187
251.1980, 24.78556
251.6801, 24.90055
252.1622, 25.10653
252.6443, 25.29196
253.1264, 25.37605
253.6085, 25.35886
254.0907, 25.31107
254.5728, 25.31788
255.0549, 25.39170
255.5370, 25.48694
256.0191, 25.72636
256.5013, 25.88721
256.9834, 25.72823
257.4655, 25.30604
257.9476, 24.95851
258.4297, 25.10496
258.9118, 25.97377
259.3940, 26.38857
259.8761, 26.07936
260.3582, 25.65246
260.8403, 25.39585
261.3224, 25.32354
261.8045, 25.29359
262.2867, 25.15721
262.7688, 24.87066
263.2509, 24.79818
263.7330, 25.12108
264.2151, 25.44177
264.6972, 25.56584
265.1794, 25.51289
265.6615, 25.40593
266.1436, 25.32770
266.6257, 25.27341
267.1078, 25.40530
267.5899, 26.09455
268.0721, 26.57331
268.5542, 26.33120
269.0363, 25.56670
269.5184, 24.87936
270.0005, 24.70135
270.4826, 24.99272
270.9648, 25.15538
271.4469, 25.06234
271.9290, 25.00276
272.4111, 25.14493
272.8932, 25.40904
273.3753, 25.58211
273.8575, 25.51983
274.3396, 25.28594
274.8217, 25.21738
275.3038, 25.50612
275.7859, 25.70597
276.2680, 25.61953
276.7502, 25.34709
277.2323, 25.09101
277.7144, 24.94197
278.1965, 24.87411
278.6786, 24.81531
279.1607, 24.74230
279.6428, 24.71285
280.1249, 24.78751
280.6071, 24.91076
281.0892, 24.97968
281.5713, 24.95382
282.0534, 24.86854
282.5355, 24.77808
283.0176, 24.66207
283.4998, 24.60018
283.9819, 24.67651
284.4640, 24.80297
284.9461, 24.81542
285.4282, 24.65075
285.9103, 24.46125
286.3925, 24.49835
286.8746, 24.78306
287.3567, 25.00563
287.8388, 25.14194
288.3209, 25.16772
288.8030, 25.02306
289.2852, 24.68591
289.7673, 24.27308
290.2494, 23.86584
290.7315, 23.46661
291.2136, 23.20342
291.6957, 23.21907
292.1779, 23.31334
292.6600, 23.23886
293.1421, 22.96774
293.6242, 22.71367
294.1063, 22.68341
294.5884, 22.83218
295.0706, 22.90555
295.5527, 22.81660
296.0348, 22.68628
296.5169, 22.61030
296.9990, 22.59015
297.4811, 22.60599
297.9633, 22.67202
298.4454, 22.75880
298.9275, 22.78083
299.4096, 22.69436
299.8917, 22.58838
300.3738, 22.53652
300.8560, 22.52833
301.3381, 22.47814
301.8202, 22.29515
302.3023, 22.09179
302.7844, 22.11275
303.2665, 22.49296
303.7487, 22.77362
304.2308, 22.59199
304.7129, 22.07478
305.1950, 21.67447
305.6771, 21.56016
306.1592, 21.59362
306.6414, 21.55469
307.1235, 21.42665
307.6056, 21.37064
308.0877, 21.57165
308.5698, 21.88931
309.0519, 21.96409
309.5341, 21.65773
310.0162, 21.25658
310.4983, 21.10854
310.9804, 21.17150
311.4625, 21.19791
311.9446, 21.02807
312.4268, 20.80163
312.9089, 20.76189
313.3910, 20.96466
313.8731, 21.18850
314.3552, 21.21490
314.8373, 21.10646
315.3195, 21.06347
315.8016, 21.20968
316.2837, 21.38955
316.7658, 21.42738
317.2479, 21.31725
317.7300, 21.15928
318.2122, 20.93690
318.6943, 20.73393
319.1764, 20.75291
319.6585, 21.20719
320.1406, 21.63673
320.6227, 21.59460
321.1049, 21.15275
321.5870, 20.86056
322.0691, 21.04938
322.5512, 21.43513
323.0333, 21.44970
323.5154, 20.93576
323.9976, 20.55725
324.4797, 20.87422
324.9618, 21.63324
325.4439, 22.00832
325.9260, 21.65848
326.4081, 21.07089
326.8903, 20.92083
327.3724, 21.20179
327.8545, 21.42410
328.3366, 21.39046
328.8187, 21.19626
329.3008, 20.98252
329.7830, 20.76328
330.2651, 20.55527
330.7472, 20.34100
331.2293, 20.13707
331.7114, 20.06424
332.1935, 20.30820
332.6757, 20.59763
333.1578, 20.56864
333.6399, 20.20607
334.1220, 19.94839
334.6041, 20.14203
335.0862, 20.67515
335.5684, 21.06030
336.0505, 21.19354
336.5326, 21.26869
337.0147, 21.45448
337.4968, 21.70805
337.9789, 21.80992
338.4611, 21.60066
338.9432, 21.24343
339.4253, 21.09276
339.9074, 21.16923
340.3895, 21.35480
340.8716, 21.71171
341.3538, 22.13402
341.8359, 22.39624
342.3180, 22.41982
342.8001, 22.32648
343.2822, 22.28081
343.7643, 22.28897
344.2465, 22.27273
344.7286, 22.27778
345.2107, 22.22070
345.6928, 21.92578
346.1749, 21.37253
346.6570, 20.87905
347.1392, 20.71603
347.6213, 20.91903
348.1034, 21.28056
348.5855, 22.07267
349.0676, 22.79751
349.5497, 23.11635
350.0319, 23.06675
350.5140, 22.86488
350.9961, 22.60422
351.4782, 22.31015
351.9603, 22.10504
352.4424, 22.05957
352.9246, 22.00008
353.4067, 21.84088
353.8888, 21.63595
354.3709, 21.47568
354.8530, 21.39234
355.3351, 21.38171
355.8173, 21.45409
356.2994, 21.69921
356.7815, 21.81732
357.2636, 21.76599
357.7457, 21.58577
358.2278, 21.23792
358.7100, 20.74258
359.1921, 20.30166
359.6742, 20.15347
360.1563, 20.36124
360.6384, 20.51050
361.1205, 20.50737
361.6027, 20.53609
362.0848, 20.78523
362.5669, 21.17080
363.0490, 21.42274
363.5311, 21.34449
364.0132, 20.97711
364.4954, 20.64887
364.9775, 20.31201
365.4596, 20.06735
365.9417, 19.94928
366.4238, 19.93262
366.9059, 20.02081
367.3881, 20.21412
367.8702, 20.42106
368.3523, 20.43516
368.8344, 19.91311
369.3165, 19.77616
369.7986, 20.45029
370.2808, 21.18064
370.7629, 21.30292
371.2450, 20.79714
371.7271, 20.21143
372.2092, 20.17949
372.6913, 20.84231
373.1735, 21.14131
373.6556, 20.66506
374.1377, 20.25899
374.6198, 20.26087
375.1019, 20.56748
375.5840, 20.93638
376.0662, 21.22415
376.5483, 21.42849
377.0304, 21.52880
377.5125, 21.46973
377.9946, 21.37662
378.4767, 21.13759
378.9589, 20.94059
379.4410, 21.05033
379.9231, 21.53820
380.4052, 22.10310
380.8873, 22.24218
381.3694, 21.79181
381.8516, 21.44911
382.3337, 21.34370
382.8158, 21.29343
383.2979, 21.17614
383.7800, 21.01402
384.2621, 20.94345
384.7443, 21.15957
385.2264, 21.61964
385.7085, 21.76840
386.1906, 21.35557
386.6727, 20.98376
387.1548, 20.93789
387.6370, 21.07192
388.1191, 21.16734
388.6012, 21.12945
389.0833, 21.01082
389.5654, 20.88634
390.0475, 20.74273
390.5297, 20.65597
391.0118, 20.76378
391.4939, 20.86796
391.9760, 20.76876
392.4581, 20.43530
392.9402, 20.10587
393.4224, 19.96049
393.9045, 19.98458
394.3866, 20.11655
394.8687, 20.43819
395.3508, 20.71378
395.8329, 20.74793
396.3151, 20.58636
396.7972, 20.35853
397.2793, 20.07571
397.7614, 19.77169
398.2435, 19.47027
398.7256, 19.16830
399.2078, 18.93622
399.6899, 18.79066
400.1720, 18.76563
400.6541, 18.93627
401.1362, 19.46952
401.6183, 19.88963
402.1004, 19.78525
402.5826, 19.33749
403.0647, 19.08079
403.5468, 19.22012
404.0289, 19.48459
404.5110, 19.47413
404.9931, 19.17508
405.4753, 18.87187
405.9574, 18.52525
406.4395, 18.25274
406.9216, 18.25312
407.4037, 18.50956
407.8858, 18.68971
408.3680, 18.48835
408.8501, 17.95587
409.3322, 17.75022
409.8143, 18.09584
410.2964, 18.46295
410.7785, 18.70490
411.2607, 18.83468
411.7428, 18.89120
412.2249, 18.89068
412.7070, 18.81278
413.1891, 18.60331
413.6712, 18.06396
414.1534, 17.76377
414.6355, 17.85629
415.1176, 18.06381
415.5997, 18.24745
416.0818, 18.36030
416.5639, 18.34898
417.0461, 18.13853
417.5282, 17.72441
418.0103, 17.47869
418.4924, 17.53497
418.9745, 17.62231
419.4566, 17.69275
419.9388, 17.75581
420.4209, 17.84272
420.9030, 17.96778
421.3851, 18.09281
421.8672, 18.13832
422.3493, 18.08897
422.8315, 17.99673
423.3136, 17.83323
423.7957, 17.65640
424.2778, 17.51079
424.7599, 17.39097
425.2420, 17.24746
425.7242, 16.96376
426.2063, 16.57960
426.6884, 16.54061
427.1705, 17.12094
427.6526, 17.58621
428.1347, 17.53009
428.6169, 17.19901
429.0990, 16.92069
429.5811, 16.78462
430.0632, 16.79390
430.5453, 17.10146
431.0274, 17.72136
431.5096, 17.90497
431.9917, 17.04024
432.4738, 16.05979
432.9559, 16.06753
433.4380, 17.04944
433.9201, 17.87215
434.4023, 17.85102
434.8844, 17.36238
435.3665, 17.04369
435.8486, 16.95690
436.3307, 16.99281
436.8128, 17.15417
437.2950, 17.37589
437.7771, 17.40410
438.2592, 17.05812
438.7413, 16.70472
439.2234, 16.52922
439.7055, 16.49744
440.1877, 16.55646
440.6698, 16.70535
441.1519, 16.85334
441.6340, 16.84054
442.1161, 16.59293
442.5982, 16.39824
443.0804, 16.25224
443.5625, 16.17691
444.0446, 16.21587
444.5267, 16.35084
445.0088, 16.51481
445.4909, 16.67177
445.9731, 16.80849
446.4552, 16.79747
446.9373, 16.38702
447.4194, 16.12966
447.9015, 16.21465
448.3836, 16.44300
448.8658, 16.61806
449.3479, 16.67227
449.8300, 16.62413
450.3121, 16.48123
450.7942, 16.20738
451.2763, 15.97461
451.7585, 15.72676
452.2406, 15.57604
452.7227, 15.62749
453.2048, 15.81337
453.6869, 15.97912
454.1690, 15.70544
454.6512, 16.11971
455.1333, 16.36066
455.6154, 16.43762
456.0975, 15.85940
456.5796, 16.12721
457.0617, 16.05597
457.5439, 15.97083
458.0260, 16.35771
458.5081, 15.87479
458.9902, 16.25418
459.4723, 16.28936
459.9544, 16.48207
460.4366, 16.33365
460.9187, 16.29059
461.4008, 16.58879
461.8829, 16.69803
462.3650, 16.51033
462.8471, 16.71306
463.3293, 16.21822
463.8114, 16.33551
464.2935, 16.71690
464.7756, 16.54636
465.2577, 16.75533
465.7398, 16.81975
466.2220, 16.60741
466.7041, 16.71585
467.1862, 16.77498
467.6683, 16.77029
468.1504, 16.72439
468.6325, 16.66438
469.1147, 16.58460
469.5968, 16.42558
470.0789, 16.11393
470.5610, 15.70827
471.0431, 15.60755
471.5252, 16.26183
472.0074, 16.66843
472.4895, 16.56133
472.9716, 16.24252
473.4537, 15.94965
473.9358, 15.76831
474.4179, 15.74833
474.9001, 16.00555
475.3822, 16.59707
475.8643, 16.97937
476.3464, 17.00046
476.8285, 16.95832
477.3106, 16.95342
477.7928, 16.94891
478.2749, 16.84861
478.7570, 16.58185
479.2391, 16.30680
479.7212, 16.34538
480.2033, 16.75142
480.6855, 17.00282
481.1676, 16.88773
481.6497, 16.66802
482.1318, 16.56366
482.6139, 16.56283
483.0960, 16.54453
483.5782, 16.38810
484.0603, 16.20510
484.5424, 16.18654
485.0245, 16.34261
485.5066, 16.55086
485.9887, 16.81446
486.4709, 17.04249
486.9530, 16.99972
487.4351, 16.55379
487.9172, 16.14820
488.3993, 15.95163
488.8814, 15.87419
489.3636, 15.77176
489.8457, 15.62354
490.3278, 15.57533
490.8099, 15.80750
491.2920, 16.34121
491.7741, 16.59466
492.2563, 16.31400
492.7384, 16.09185
493.2205, 16.12469
493.7026, 16.32042
494.1847, 16.59368
494.6668, 16.90088
495.1490, 17.12860
495.6311, 17.02273
496.1132, 16.35476
496.5953, 16.09821
497.0774, 16.76936
497.5595, 17.36813
498.0417, 17.41961
498.5238, 17.09065
499.0059, 16.79116
499.4880, 16.73767
499.9701, 16.83122
500.4522, 16.90067
500.9344, 16.95608
501.4165, 16.91364
501.8986, 16.60618
502.3807, 16.32052
502.8628, 16.35423
503.3449, 16.69973
503.8271, 17.04456
504.3092, 17.29728
504.7913, 17.43496
505.2734, 17.36217
505.7555, 17.07636
506.2376, 16.83326
506.7198, 16.79306
507.2019, 16.89391
507.6840, 16.94051
508.1661, 16.92054
508.6482, 16.87921
509.1303, 16.79221
509.6125, 16.70854
510.0946, 16.69052
510.5767, 16.74489
511.0588, 16.83055
511.5409, 16.91100
512.0230, 16.98632
512.5051, 17.07298
512.9872, 17.26364
513.4694, 17.35490
513.9515, 17.23040
514.4336, 17.02155
514.9157, 16.86648
515.3978, 16.80806
515.8799, 16.81355
516.3621, 16.85911
516.8442, 16.95202
517.3263, 17.00092
517.8084, 16.94218
518.2905, 16.92353
518.7726, 17.11112
519.2548, 17.35656
519.7369, 17.38412
520.2190, 17.03818
520.7011, 16.60892
521.1832, 16.43060
521.6653, 16.47262
522.1475, 16.48966
522.6296, 16.40663
523.1117, 16.31970
523.5938, 16.36945
524.0759, 16.53193
524.5580, 16.61687
525.0402, 16.51382
525.5223, 16.39288
526.0044, 16.36492
526.4865, 16.41960
526.9686, 16.54331
527.4507, 16.74253
527.9329, 16.92486
528.4150, 16.90491
528.8971, 16.54636
529.3792, 16.29809
529.8613, 16.16787
530.3434, 16.13278
530.8256, 16.23408
531.3077, 16.41897
531.7898, 16.56787
532.2719, 16.60473
532.7540, 16.58594
533.2361, 16.69213
533.7183, 17.03838
534.2004, 17.18296
534.6825, 16.84306
535.1646, 16.44047
535.6467, 16.18348
536.1288, 16.08285
536.6110, 16.09704
537.0931, 16.27610
537.5752, 16.51810
538.0573, 16.67180
538.5394, 16.74289
539.0215, 16.58191
539.5037, 15.95063
539.9858, 15.21508
540.4679, 15.02467
540.9500, 15.45520
541.4321, 15.86391
541.9142, 16.08915
542.3964, 16.19647
542.8785, 16.23961
543.3606, 16.22606
543.8427, 16.14711
544.3248, 15.98854
544.8069, 15.77617
545.2891, 15.60313
545.7712, 15.37310
546.2533, 15.32939
546.7354, 15.67892
547.2175, 16.06227
547.6996, 16.18744
548.1818, 16.06948
548.6639, 15.92891
549.1460, 15.94783
549.6281, 16.07186
550.1102, 16.06175
550.5923, 15.86119
551.0745, 15.67246
551.5566, 15.48541
552.0387, 15.38103
552.5208, 15.47506
553.0029, 15.76756
553.4850, 16.04252
553.9672, 16.19817
554.4493, 16.24850
554.9314, 16.18463
555.4135, 16.00580
555.8956, 15.85428
556.3777, 15.81049
556.8599, 15.84414
557.3420, 15.88069
557.8241, 15.93228
558.3062, 15.95924
558.7883, 15.96669
559.2704, 15.93766
559.7526, 15.79384
560.2347, 15.57748
560.7168, 15.48657
561.1989, 15.68752
561.6810, 16.08654
562.1631, 16.24675
562.6453, 16.02566
563.1274, 15.79911
563.6095, 15.58252
564.0916, 15.39621
564.5737, 15.24439
565.0558, 15.13329
565.5380, 15.08269
566.0201, 15.12327
566.5022, 15.22616
566.9843, 15.32925
567.4664, 15.44036
567.9485, 15.50734
568.4307, 15.53289
568.9128, 15.48052
569.3949, 15.22536
569.8770, 14.72481
570.3591, 14.50401
570.8412, 15.11677
571.3234, 15.83389
571.8055, 15.74649
572.2876, 14.98115
572.7697, 14.40556
573.2518, 14.51989
573.7339, 15.05735
574.2161, 15.33982
574.6982, 15.22471
575.1803, 15.08669
575.6624, 14.75386
576.1445, 14.55051
576.6266, 14.77906
577.1088, 15.30790
577.5909, 15.78467
578.0730, 16.00437
578.5551, 16.03377
579.0372, 15.98632
579.5193, 15.83542
580.0015, 15.76160
580.4836, 15.87905
580.9657, 16.00173
581.4478, 15.96981
581.9299, 15.81597
582.4120, 15.68695
582.8942, 15.69698
583.3763, 15.70448
583.8584, 15.50592
584.3405, 15.17352
584.8226, 15.01021
585.3047, 15.14538
585.7869, 15.35406
586.2690, 15.30688
586.7511, 14.91453
587.2332, 14.71256
587.7153, 14.82498
588.1974, 14.97902
588.6796, 15.09461
589.1617, 15.16434
589.6438, 15.17443
590.1259, 15.12361
590.6080, 15.06776
591.0901, 15.10185
591.5723, 15.24100
592.0544, 15.32059
592.5365, 15.31720
593.0186, 15.28260
593.5007, 15.20369
593.9828, 15.12375
594.4650, 15.13064
594.9471, 15.27986
595.4292, 15.38242
595.9113, 15.27568
596.3934, 15.01801
596.8755, 14.34980
597.3577, 14.77436
597.8398, 15.02561
598.3219, 15.11287
598.8040, 14.54495
599.2861, 14.82306
599.7682, 14.76211
600.2504, 14.68728
600.7325, 15.08445
601.2146, 14.61183
601.6967, 15.00152
602.1788, 15.04699
602.6609, 15.25001
603.1431, 15.11189
603.6252, 15.07913
604.1073, 15.38762
604.5894, 15.50716
605.0715, 15.32975
605.5536, 15.52646
606.0358, 15.85995
606.5179, 15.77103
