##NAMES=Diopside
##RRUFFID=R060861
##IDEAL CHEMISTRY=CaMgSi_2_O_6_
##LOCALITY=Red Mountain Volcano, NW of Flagstaff, Arizona, USA
##OWNER=RRUFF
##SOURCE=Jennifer Sano
##DESCRIPTION=Worn brown fragment
##STATUS=The identification of this mineral has been confirmed by X-ray diffraction and chemical analysis
##URL=rruff.info/R060861
##MEASURED CHEMISTRY=(Ca_0.72_Fe^2+^_0.23_Na_0.05_)_Σ=1_(Mg_0.80_Al_0.15_Ti_0.03_Fe^3+^_0.02_)_Σ=1_(Si_1.82_Al_0.18_)_Σ=2_O_6_
127.3084, 1629.363
127.7905, 1645.299
128.2727, 1673.032
128.7548, 1708.440
129.2369, 1739.182
129.7190, 1761.406
130.2011, 1776.412
130.6832, 1786.064
131.1654, 1789.896
131.6475, 1791.554
132.1296, 1797.078
132.6117, 1805.853
133.0938, 1809.397
133.5759, 1799.348
134.0581, 1777.641
134.5402, 1766.066
135.0223, 1765.197
135.5044, 1773.494
135.9865, 1790.154
136.4686, 1816.120
136.9508, 1843.602
137.4329, 1869.242
137.9150, 1892.947
138.3971, 1913.682
138.8792, 1931.184
139.3613, 1945.788
139.8434, 1960.883
140.3256, 1980.946
140.8077, 1992.365
141.2898, 1981.172
141.7719, 1935.200
142.2540, 1902.539
142.7361, 1893.381
143.2183, 1906.837
143.7004, 1916.560
144.1825, 1922.439
144.6646, 1924.624
145.1467, 1923.646
145.6288, 1922.491
146.1110, 1912.972
146.5931, 1889.764
147.0752, 1847.017
147.5573, 1817.445
148.0394, 1810.600
148.5215, 1813.337
149.0037, 1806.632
149.4858, 1779.162
149.9679, 1753.350
150.4500, 1734.930
150.9321, 1725.085
151.4142, 1720.796
151.8964, 1731.025
152.3785, 1747.198
152.8606, 1749.427
153.3427, 1720.843
153.8248, 1690.216
154.3069, 1669.871
154.7890, 1668.201
155.2712, 1667.570
155.7533, 1666.364
156.2354, 1664.626
156.7175, 1662.382
157.1996, 1658.811
157.6817, 1655.163
158.1639, 1652.217
158.6460, 1652.608
159.1281, 1651.190
159.6102, 1643.933
160.0923, 1631.296
160.5744, 1623.146
161.0566, 1621.953
161.5387, 1627.079
162.0208, 1637.901
162.5029, 1664.447
162.9850, 1688.312
163.4671, 1700.869
163.9493, 1701.030
164.4314, 1694.635
164.9135, 1678.308
165.3956, 1658.161
165.8777, 1643.003
166.3598, 1638.703
166.8420, 1639.384
167.3241, 1641.805
167.8062, 1646.208
168.2883, 1650.229
168.7704, 1651.476
169.2525, 1651.221
169.7346, 1652.237
170.2168, 1660.206
170.6989, 1668.304
171.1810, 1668.426
171.6631, 1655.704
172.1452, 1642.479
172.6273, 1642.507
173.1095, 1652.124
173.5916, 1657.717
174.0737, 1643.987
174.5558, 1622.443
175.0379, 1610.534
175.5201, 1615.674
176.0022, 1627.460
176.4843, 1633.635
176.9664, 1634.914
177.4485, 1637.314
177.9306, 1646.597
178.4128, 1660.288
178.8949, 1673.373
179.3770, 1684.062
179.8591, 1693.475
180.3412, 1703.756
180.8233, 1715.004
181.3055, 1725.430
181.7876, 1735.350
182.2697, 1743.592
182.7518, 1746.472
183.2339, 1738.870
183.7160, 1725.438
184.1981, 1716.851
184.6803, 1713.219
185.1624, 1713.556
185.6445, 1721.049
186.1266, 1733.723
186.6087, 1739.798
187.0908, 1729.224
187.5730, 1706.705
188.0551, 1690.127
188.5372, 1679.393
189.0193, 1675.528
189.5014, 1683.702
189.9835, 1703.391
190.4657, 1720.208
190.9478, 1723.469
191.4299, 1715.585
191.9120, 1716.199
192.3941, 1729.746
192.8762, 1746.004
193.3584, 1743.758
193.8405, 1722.164
194.3226, 1699.467
194.8047, 1687.354
195.2868, 1685.458
195.7689, 1682.643
196.2511, 1677.074
196.7332, 1670.735
197.2153, 1669.124
197.6974, 1672.786
198.1795, 1677.730
198.6616, 1681.307
199.1437, 1683.477
199.6259, 1686.013
200.1080, 1689.745
200.5901, 1693.788
201.0722, 1694.311
201.5543, 1690.492
202.0364, 1686.054
202.5186, 1685.927
203.0007, 1691.650
203.4828, 1688.682
203.9649, 1669.216
204.4470, 1638.021
204.9291, 1629.042
205.4113, 1648.959
205.8934, 1674.347
206.3755, 1680.904
206.8576, 1663.133
207.3397, 1652.008
207.8218, 1656.324
208.3040, 1674.857
208.7861, 1689.240
209.2682, 1701.065
209.7503, 1705.884
210.2324, 1695.522
210.7145, 1663.911
211.1967, 1638.535
211.6788, 1627.599
212.1609, 1631.653
212.6430, 1635.326
213.1251, 1640.267
213.6072, 1642.767
214.0894, 1636.038
214.5715, 1614.330
215.0536, 1598.490
215.5357, 1595.817
216.0178, 1607.937
216.4999, 1619.660
216.9820, 1632.600
217.4642, 1643.290
217.9463, 1645.854
218.4284, 1636.665
218.9105, 1627.072
219.3926, 1620.033
219.8747, 1615.209
220.3569, 1615.522
220.8390, 1624.801
221.3211, 1636.547
221.8032, 1638.850
222.2853, 1626.368
222.7674, 1614.723
223.2496, 1609.842
223.7317, 1613.683
224.2138, 1617.972
224.6959, 1623.206
225.1780, 1628.712
225.6601, 1633.676
226.1423, 1639.326
226.6244, 1642.265
227.1065, 1639.095
227.5886, 1621.870
228.0707, 1620.052
228.5528, 1642.871
229.0350, 1678.332
229.5171, 1695.316
229.9992, 1685.498
230.4813, 1670.381
230.9634, 1659.335
231.4455, 1655.081
231.9276, 1648.095
232.4098, 1635.158
232.8919, 1619.913
233.3740, 1614.313
233.8561, 1623.170
234.3382, 1634.539
234.8203, 1643.263
235.3025, 1649.342
235.7846, 1652.571
236.2667, 1652.241
236.7488, 1649.119
237.2309, 1645.945
237.7130, 1643.516
238.1952, 1640.049
238.6773, 1633.882
239.1594, 1620.974
239.6415, 1614.156
240.1236, 1615.865
240.6057, 1624.243
241.0879, 1631.510
241.5700, 1637.251
242.0521, 1642.341
242.5342, 1647.537
243.0163, 1654.485
243.4984, 1657.724
243.9806, 1654.456
244.4627, 1646.803
244.9448, 1645.112
245.4269, 1651.324
245.9090, 1660.908
246.3911, 1672.155
246.8732, 1688.463
247.3554, 1698.765
247.8375, 1699.963
248.3196, 1694.027
248.8017, 1691.784
249.2838, 1696.966
249.7659, 1700.897
250.2481, 1696.727
250.7302, 1676.243
251.2123, 1666.806
251.6944, 1676.295
252.1765, 1699.824
252.6586, 1709.782
253.1408, 1698.848
253.6229, 1684.730
254.1050, 1678.771
254.5871, 1684.385
255.0692, 1690.449
255.5513, 1697.071
256.0334, 1703.565
256.5156, 1706.079
256.9977, 1703.465
257.4798, 1698.480
257.9619, 1693.401
258.4440, 1689.899
258.9261, 1680.858
259.4083, 1661.316
259.8904, 1634.813
260.3725, 1622.657
260.8546, 1629.513
261.3367, 1642.885
261.8188, 1655.860
262.3010, 1670.770
262.7831, 1678.291
263.2652, 1675.807
263.7473, 1665.109
264.2294, 1653.805
264.7115, 1639.574
265.1937, 1629.238
265.6758, 1629.637
266.1579, 1645.187
266.6400, 1654.813
267.1221, 1653.795
267.6042, 1645.287
268.0864, 1644.235
268.5685, 1653.678
269.0506, 1663.987
269.5327, 1668.435
270.0148, 1665.944
270.4969, 1662.235
270.9791, 1656.835
271.4612, 1650.976
271.9433, 1650.626
272.4254, 1657.648
272.9075, 1665.009
273.3896, 1667.184
273.8718, 1663.126
274.3539, 1660.560
274.8360, 1660.042
275.3181, 1661.708
275.8002, 1667.422
276.2823, 1678.845
276.7645, 1688.141
277.2466, 1688.714
277.7287, 1679.419
278.2108, 1672.382
278.6929, 1669.170
279.1750, 1668.707
279.6572, 1667.835
280.1393, 1666.208
280.6214, 1665.897
281.1035, 1669.509
281.5856, 1677.104
282.0677, 1680.933
282.5499, 1678.366
283.0320, 1673.666
283.5141, 1678.987
283.9962, 1695.589
284.4783, 1710.083
284.9604, 1708.664
285.4425, 1693.067
285.9247, 1693.754
286.4068, 1717.834
286.8889, 1752.308
287.3710, 1773.074
287.8531, 1780.056
288.3352, 1781.092
288.8174, 1777.591
289.2995, 1770.895
289.7816, 1770.537
290.2637, 1779.307
290.7458, 1790.322
291.2279, 1789.346
291.7101, 1777.435
292.1922, 1769.810
292.6743, 1778.834
293.1564, 1799.775
293.6385, 1816.990
294.1206, 1829.229
294.6028, 1837.093
295.0849, 1840.163
295.5670, 1839.048
296.0491, 1837.172
296.5312, 1833.620
297.0133, 1830.950
297.4955, 1835.825
297.9776, 1849.324
298.4597, 1867.285
298.9418, 1887.514
299.4239, 1908.813
299.9060, 1926.700
300.3882, 1936.114
300.8703, 1941.303
301.3524, 1948.666
301.8345, 1958.523
302.3166, 1970.179
302.7987, 1985.130
303.2809, 2001.466
303.7630, 2015.140
304.2451, 2018.298
304.7272, 2020.304
305.2093, 2033.457
305.6914, 2058.934
306.1736, 2086.803
306.6557, 2112.542
307.1378, 2135.272
307.6199, 2153.648
308.1020, 2164.649
308.5841, 2172.923
309.0663, 2179.645
309.5484, 2185.099
310.0305, 2197.802
310.5126, 2232.738
310.9947, 2275.800
311.4768, 2308.646
311.9590, 2315.291
312.4411, 2317.127
312.9232, 2328.579
313.4053, 2348.933
313.8874, 2366.152
314.3695, 2367.383
314.8516, 2365.694
315.3337, 2373.663
315.8159, 2405.173
316.2980, 2437.650
316.7801, 2461.202
317.2622, 2477.031
317.7443, 2493.714
318.2264, 2513.212
318.7086, 2535.490
319.1907, 2560.868
319.6728, 2600.125
320.1549, 2629.910
320.6370, 2634.538
321.1191, 2621.814
321.6013, 2621.880
322.0834, 2654.113
322.5655, 2692.829
323.0476, 2724.231
323.5297, 2740.772
324.0118, 2758.135
324.4940, 2782.718
324.9761, 2810.051
325.4582, 2828.100
325.9403, 2819.926
326.4224, 2814.832
326.9045, 2825.279
327.3867, 2863.607
327.8688, 2895.955
328.3509, 2921.126
328.8330, 2939.908
329.3151, 2954.093
329.7972, 2961.623
330.2794, 2966.766
330.7615, 2970.344
331.2436, 2971.464
331.7257, 2974.536
332.2078, 2984.597
332.6899, 2993.887
333.1721, 2989.920
333.6542, 2962.273
334.1363, 2939.202
334.6184, 2928.125
335.1005, 2929.986
335.5826, 2935.905
336.0648, 2950.324
336.5469, 2963.479
337.0290, 2963.572
337.5111, 2946.041
337.9932, 2928.813
338.4753, 2915.562
338.9575, 2906.005
339.4396, 2897.112
339.9217, 2888.175
340.4038, 2881.440
340.8859, 2883.000
341.3680, 2895.087
341.8502, 2891.024
342.3323, 2858.849
342.8144, 2810.978
343.2965, 2793.855
343.7786, 2811.295
344.2607, 2830.020
344.7429, 2822.260
345.2250, 2790.924
345.7071, 2766.167
346.1892, 2752.432
346.6713, 2746.479
347.1534, 2742.529
347.6355, 2740.607
348.1176, 2740.793
348.5998, 2748.950
349.0819, 2759.430
349.5640, 2753.637
350.0461, 2726.600
350.5282, 2693.379
351.0103, 2670.123
351.4925, 2655.611
351.9746, 2645.355
352.4567, 2640.121
352.9388, 2636.733
353.4209, 2630.310
353.9030, 2620.381
354.3852, 2609.902
354.8673, 2598.274
355.3494, 2588.227
355.8315, 2584.663
356.3136, 2598.115
356.7957, 2613.329
357.2779, 2616.947
357.7600, 2609.045
358.2421, 2598.355
358.7242, 2591.135
359.2063, 2583.467
359.6884, 2571.071
360.1706, 2544.012
360.6527, 2520.141
361.1348, 2508.637
361.6169, 2507.958
362.0990, 2509.998
362.5811, 2516.945
363.0633, 2522.166
363.5454, 2520.896
364.0275, 2507.116
364.5096, 2494.174
364.9917, 2485.666
365.4738, 2480.298
365.9560, 2474.660
366.4381, 2471.226
366.9202, 2464.992
367.4023, 2452.192
367.8844, 2424.196
368.3665, 2408.237
368.8487, 2416.912
369.3308, 2435.589
369.8129, 2441.697
370.2950, 2424.777
370.7771, 2408.136
371.2592, 2396.775
371.7414, 2390.880
372.2235, 2389.705
372.7056, 2394.639
373.1877, 2402.992
373.6698, 2413.375
374.1519, 2430.029
374.6341, 2437.234
375.1162, 2427.905
375.5983, 2404.914
376.0804, 2393.814
376.5625, 2397.259
377.0446, 2406.316
377.5267, 2417.249
378.0089, 2431.468
378.4910, 2432.768
378.9731, 2414.184
379.4552, 2386.621
379.9373, 2378.096
380.4194, 2389.477
380.9016, 2406.881
381.3837, 2426.586
381.8658, 2446.833
382.3479, 2455.384
382.8300, 2448.822
383.3121, 2439.474
383.7943, 2446.946
384.2764, 2467.769
384.7585, 2485.771
385.2406, 2488.356
385.7227, 2484.162
386.2048, 2488.974
386.6870, 2503.180
387.1691, 2520.884
387.6512, 2537.805
388.1333, 2554.190
388.6154, 2570.855
389.0975, 2589.550
389.5797, 2607.138
390.0618, 2620.770
390.5439, 2630.820
391.0260, 2638.395
391.5081, 2647.221
391.9902, 2652.414
392.4724, 2648.615
392.9545, 2627.482
393.4366, 2609.149
393.9187, 2605.944
394.4008, 2612.393
394.8829, 2615.140
395.3651, 2610.783
395.8472, 2601.133
396.3293, 2585.448
396.8114, 2560.287
397.2935, 2539.570
397.7756, 2534.841
398.2578, 2532.966
398.7399, 2516.456
399.2220, 2459.387
399.7041, 2413.619
400.1862, 2396.116
400.6683, 2409.750
401.1505, 2402.116
401.6326, 2361.072
402.1147, 2309.990
402.5968, 2266.085
403.0789, 2230.820
403.5610, 2199.634
404.0432, 2172.570
404.5253, 2149.177
405.0074, 2128.057
405.4895, 2109.901
405.9716, 2092.004
406.4537, 2073.781
406.9359, 2055.429
407.4180, 2031.876
407.9001, 2001.123
408.3822, 1968.335
408.8643, 1940.528
409.3464, 1917.688
409.8285, 1899.289
410.3106, 1888.699
410.7928, 1882.594
411.2749, 1867.863
411.7570, 1843.697
412.2391, 1819.693
412.7212, 1807.321
413.2033, 1802.412
413.6855, 1793.275
414.1676, 1771.880
414.6497, 1749.424
415.1318, 1742.432
415.6139, 1748.067
416.0960, 1751.812
416.5782, 1744.574
417.0603, 1730.621
417.5424, 1713.261
418.0245, 1690.746
418.5066, 1671.267
418.9887, 1660.811
419.4709, 1656.453
419.9530, 1652.503
420.4351, 1643.081
420.9172, 1636.794
421.3993, 1640.655
421.8814, 1657.136
422.3636, 1667.035
422.8457, 1660.785
423.3278, 1648.646
423.8099, 1639.870
424.2920, 1641.241
424.7741, 1639.422
425.2563, 1629.952
425.7384, 1614.401
426.2205, 1604.816
426.7026, 1602.952
427.1847, 1604.892
427.6668, 1609.794
428.1490, 1621.862
428.6311, 1625.570
429.1132, 1617.560
429.5953, 1603.500
430.0774, 1594.597
430.5595, 1592.060
431.0417, 1589.426
431.5238, 1584.411
432.0059, 1577.131
432.4880, 1567.833
432.9701, 1555.437
433.4522, 1545.833
433.9344, 1547.279
434.4165, 1558.263
434.8986, 1567.578
435.3807, 1572.855
435.8628, 1574.656
436.3449, 1572.033
436.8271, 1565.728
437.3092, 1561.117
437.7913, 1565.510
438.2734, 1572.676
438.7555, 1572.522
439.2376, 1562.422
439.7197, 1550.610
440.2018, 1539.459
440.6840, 1531.670
441.1661, 1532.099
441.6482, 1556.221
442.1303, 1578.272
442.6124, 1580.069
443.0945, 1561.360
443.5767, 1544.611
444.0588, 1535.970
444.5409, 1533.684
445.0230, 1536.463
445.5051, 1554.424
445.9872, 1565.459
446.4694, 1559.598
446.9515, 1543.503
447.4336, 1538.925
447.9157, 1563.180
448.3978, 1581.403
448.8799, 1578.973
449.3621, 1547.698
449.8442, 1526.974
450.3263, 1519.104
450.8084, 1519.352
451.2905, 1523.067
451.7726, 1531.226
452.2548, 1539.265
452.7369, 1546.998
453.2190, 1553.685
453.7011, 1555.191
454.1832, 1550.750
454.6653, 1545.667
455.1475, 1544.240
455.6296, 1545.792
456.1117, 1545.612
456.5938, 1542.586
457.0759, 1539.462
457.5580, 1541.671
458.0402, 1547.608
458.5223, 1551.129
459.0044, 1546.394
459.4865, 1539.113
459.9686, 1537.961
460.4507, 1542.957
460.9329, 1545.463
461.4150, 1535.350
461.8971, 1521.079
462.3792, 1511.699
462.8613, 1509.658
463.3434, 1513.285
463.8256, 1523.468
464.3077, 1538.892
464.7898, 1556.221
465.2719, 1587.456
465.7540, 1609.349
466.2361, 1607.521
466.7183, 1569.860
467.2004, 1546.086
467.6825, 1547.113
468.1646, 1559.509
468.6467, 1570.804
469.1288, 1582.649
469.6109, 1590.436
470.0930, 1593.090
470.5752, 1591.052
471.0573, 1585.941
471.5394, 1575.624
472.0215, 1567.335
472.5036, 1565.965
472.9857, 1571.872
473.4679, 1579.646
473.9500, 1590.349
474.4321, 1599.456
474.9142, 1597.354
475.3963, 1585.568
475.8784, 1577.988
476.3606, 1583.366
476.8427, 1594.833
477.3248, 1598.383
477.8069, 1594.549
478.2890, 1589.378
478.7711, 1586.996
479.2533, 1586.244
479.7354, 1585.500
480.2175, 1584.288
480.6996, 1583.370
481.1817, 1583.906
481.6638, 1585.031
482.1460, 1585.107
482.6281, 1581.981
483.1102, 1578.858
483.5923, 1576.901
484.0744, 1576.130
484.5565, 1576.669
485.0387, 1577.736
485.5208, 1580.495
486.0029, 1585.933
486.4850, 1596.633
486.9671, 1606.451
487.4492, 1616.609
487.9314, 1625.425
488.4135, 1627.552
488.8956, 1619.884
489.3777, 1612.188
489.8598, 1606.981
490.3419, 1604.237
490.8241, 1609.788
491.3062, 1626.235
491.7883, 1643.299
492.2704, 1649.239
492.7525, 1644.985
493.2346, 1641.060
493.7168, 1639.587
494.1989, 1639.942
494.6810, 1640.779
495.1631, 1642.336
495.6452, 1646.094
496.1273, 1657.842
496.6095, 1670.111
497.0916, 1669.669
497.5737, 1654.290
498.0558, 1643.200
498.5379, 1653.280
499.0201, 1673.598
499.5022, 1691.258
499.9843, 1702.927
500.4664, 1710.827
500.9485, 1713.593
501.4306, 1712.728
501.9127, 1713.578
502.3948, 1717.339
502.8770, 1722.874
503.3591, 1729.738
503.8412, 1737.794
504.3233, 1747.582
504.8054, 1761.308
505.2875, 1774.754
505.7697, 1782.462
506.2518, 1781.215
506.7339, 1784.604
507.2160, 1796.970
507.6981, 1814.866
508.1802, 1826.171
508.6624, 1830.402
509.1445, 1832.434
509.6266, 1835.546
510.1087, 1839.036
510.5908, 1839.250
511.0729, 1835.670
511.5551, 1831.427
512.0372, 1829.386
512.5193, 1829.234
513.0014, 1830.370
513.4835, 1833.751
513.9656, 1837.062
514.4478, 1838.218
514.9299, 1837.589
515.4120, 1836.561
515.8941, 1836.235
516.3762, 1835.332
516.8583, 1831.930
517.3405, 1824.075
517.8226, 1820.875
518.3047, 1828.715
518.7868, 1840.158
519.2689, 1847.337
519.7510, 1845.405
520.2332, 1845.442
520.7153, 1849.614
521.1974, 1856.649
521.6795, 1861.729
522.1616, 1865.167
522.6437, 1865.891
523.1259, 1860.156
523.6080, 1847.271
524.0901, 1851.197
524.5722, 1876.478
525.0543, 1902.945
525.5364, 1904.698
526.0186, 1886.566
526.5007, 1874.814
526.9828, 1878.088
527.4649, 1888.118
527.9470, 1895.545
528.4291, 1900.138
528.9113, 1901.596
529.3934, 1892.127
529.8755, 1884.191
530.3576, 1892.623
530.8397, 1919.858
531.3218, 1942.204
531.8040, 1946.269
532.2861, 1941.144
532.7682, 1935.091
533.2503, 1923.650
533.7324, 1918.652
534.2145, 1923.921
534.6967, 1936.916
535.1788, 1951.296
535.6609, 1970.490
536.1430, 1986.264
536.6251, 1996.633
537.1072, 2001.879
537.5894, 1996.116
538.0715, 1974.667
538.5536, 1953.963
539.0357, 1952.844
539.5178, 1970.511
539.9999, 1977.959
540.4821, 1968.371
540.9642, 1952.893
541.4463, 1947.421
541.9284, 1950.821
542.4105, 1957.943
542.8926, 1973.643
543.3748, 1987.598
543.8569, 1983.348
544.3390, 1962.463
544.8211, 1944.282
545.3032, 1943.842
545.7853, 1948.687
546.2675, 1948.179
546.7495, 1938.355
547.2316, 1927.635
547.7137, 1915.605
548.1959, 1904.878
548.6780, 1899.014
549.1601, 1904.331
549.6422, 1907.359
550.1243, 1905.596
550.6064, 1899.552
551.0886, 1892.449
551.5707, 1882.785
552.0528, 1875.297
552.5349, 1875.065
553.0170, 1882.673
553.4991, 1881.060
553.9813, 1868.590
554.4634, 1851.729
554.9455, 1835.633
555.4276, 1821.112
555.9097, 1812.597
556.3918, 1813.634
556.8740, 1817.958
557.3561, 1815.629
557.8382, 1809.568
558.3203, 1809.421
558.8024, 1831.917
559.2845, 1853.949
559.7667, 1855.860
560.2488, 1834.637
560.7309, 1816.503
561.2130, 1815.909
561.6951, 1818.526
562.1772, 1813.386
562.6594, 1782.197
563.1415, 1765.632
563.6236, 1772.240
564.1057, 1791.037
564.5878, 1801.569
565.0699, 1802.648
565.5521, 1797.659
566.0342, 1784.333
566.5163, 1765.328
566.9984, 1758.376
567.4805, 1764.751
567.9626, 1773.135
568.4448, 1777.037
568.9269, 1776.358
569.4090, 1768.807
569.8911, 1752.792
570.3732, 1738.138
570.8553, 1737.377
571.3375, 1744.588
571.8196, 1749.333
572.3017, 1746.433
572.7838, 1741.725
573.2659, 1737.147
573.7480, 1733.144
574.2302, 1731.014
574.7123, 1737.402
575.1944, 1740.228
575.6765, 1733.188
576.1586, 1713.997
576.6407, 1696.172
577.1229, 1673.831
577.6050, 1658.946
578.0871, 1666.045
578.5692, 1706.367
579.0513, 1720.226
579.5334, 1693.929
580.0156, 1652.185
580.4977, 1643.709
580.9798, 1666.347
581.4619, 1681.466
581.9440, 1671.644
582.4261, 1646.677
582.9083, 1619.141
583.3904, 1590.639
583.8725, 1570.805
584.3546, 1571.351
584.8367, 1580.463
585.3188, 1587.783
585.8010, 1591.888
586.2831, 1594.148
586.7652, 1597.511
587.2473, 1598.193
587.7294, 1592.445
588.2115, 1572.869
588.6937, 1555.042
589.1758, 1539.008
589.6579, 1525.823
590.1400, 1518.565
590.6221, 1519.303
591.1042, 1521.660
591.5864, 1525.956
592.0685, 1530.896
592.5506, 1521.221
593.0327, 1494.757
593.5148, 1470.473
593.9969, 1465.721
594.4791, 1475.310
594.9612, 1484.371
595.4433, 1491.877
595.9254, 1495.546
596.4075, 1493.106
596.8896, 1485.367
597.3718, 1473.528
597.8539, 1450.510
598.3360, 1431.704
598.8181, 1426.319
599.3002, 1431.154
599.7823, 1436.474
600.2645, 1443.173
600.7466, 1447.019
601.2287, 1445.600
601.7108, 1438.477
602.1929, 1432.768
602.6750, 1426.517
603.1572, 1424.851
603.6393, 1435.441
604.1214, 1460.433
604.6035, 1469.147
605.0856, 1456.209
605.5677, 1436.381
606.0499, 1431.354
606.5320, 1437.467
607.0141, 1437.550
607.4962, 1420.056
607.9783, 1401.906
608.4604, 1406.112
608.9425, 1426.691
609.4246, 1444.733
609.9067, 1452.551
610.3889, 1453.774
610.8710, 1445.694
611.3531, 1427.388
611.8352, 1421.686
612.3173, 1449.275
612.7994, 1478.627
613.2816, 1489.544
613.7637, 1466.573
614.2458, 1461.501
614.7279, 1483.827
615.2100, 1512.698
615.6921, 1516.930
616.1743, 1494.290
616.6564, 1476.914
617.1385, 1472.962
617.6206, 1477.566
618.1027, 1483.352
618.5848, 1489.809
619.0670, 1494.516
619.5491, 1493.710
620.0312, 1491.932
620.5133, 1493.151
620.9954, 1497.573
621.4775, 1505.880
621.9597, 1524.611
622.4418, 1543.113
