##NAMES=Diopside
##RRUFFID=R070123
##IDEAL CHEMISTRY=CaMgSi_2_O_6_
##LOCALITY=Yates mine, Otter Lake, Huddersfield Township, Pontiac County, Québec, Canada
##OWNER=RRUFF
##SOURCE=Michael Scott
##DESCRIPTION=Black prismatic crystals associated with orange calcite
##STATUS=The identification of this mineral has been confirmed by X-ray diffraction and chemical analysis
##URL=rruff.info/R070123
##MEASURED CHEMISTRY=(Ca_0.95_Na_0.04_Mn_0.01_)_Σ=1_(Mg_0.63_Fe_0.33_Al_0.04_)_Σ=1_Si_2.00_O_6_
164.7005, 1014.673
165.1826, 1021.336
165.6648, 1030.000
166.1469, 1041.702
166.6290, 1056.662
167.1111, 1074.635
167.5932, 1099.380
168.0753, 1125.249
168.5575, 1145.868
169.0396, 1160.244
169.5217, 1173.213
170.0038, 1189.915
170.4859, 1209.822
170.9680, 1226.893
171.4502, 1239.138
171.9323, 1248.603
172.4144, 1257.662
172.8965, 1266.633
173.3786, 1274.288
173.8607, 1276.498
174.3429, 1275.418
174.8250, 1281.585
175.3071, 1308.021
175.7892, 1338.153
176.2713, 1348.527
176.7534, 1334.994
177.2356, 1316.149
177.7177, 1303.187
178.1998, 1296.073
178.6819, 1297.004
179.1640, 1313.677
179.6461, 1335.897
180.1283, 1347.866
180.6104, 1346.784
181.0925, 1346.168
181.5746, 1360.658
182.0567, 1382.759
182.5388, 1398.107
183.0210, 1399.291
183.5031, 1392.798
183.9852, 1386.343
184.4673, 1378.720
184.9494, 1375.863
185.4315, 1388.595
185.9137, 1407.830
186.3958, 1419.297
186.8779, 1412.901
187.3600, 1400.444
187.8421, 1402.270
188.3242, 1422.842
188.8064, 1439.705
189.2885, 1434.682
189.7706, 1419.532
190.2527, 1408.034
190.7348, 1404.077
191.2169, 1405.913
191.6991, 1413.578
192.1812, 1429.593
192.6633, 1440.729
193.1454, 1435.951
193.6275, 1424.154
194.1096, 1413.781
194.5918, 1406.683
195.0739, 1402.787
195.5560, 1403.890
196.0381, 1411.971
196.5202, 1416.061
197.0023, 1407.200
197.4845, 1393.873
197.9666, 1383.439
198.4487, 1378.155
198.9308, 1375.206
199.4129, 1371.198
199.8950, 1365.976
200.3772, 1360.464
200.8593, 1356.064
201.3414, 1350.854
201.8235, 1342.351
202.3056, 1329.533
202.7877, 1316.401
203.2699, 1307.908
203.7520, 1304.576
204.2341, 1301.837
204.7162, 1299.232
205.1983, 1296.313
205.6804, 1291.586
206.1626, 1284.698
206.6447, 1279.873
207.1268, 1283.826
207.6089, 1297.789
208.0910, 1306.617
208.5731, 1303.360
209.0553, 1296.645
209.5374, 1293.072
210.0195, 1292.994
210.5016, 1290.108
210.9837, 1274.726
211.4658, 1246.107
211.9480, 1227.791
212.4301, 1232.184
212.9122, 1239.870
213.3943, 1238.672
213.8764, 1229.000
214.3585, 1218.839
214.8407, 1214.397
215.3228, 1215.530
215.8049, 1218.894
216.2870, 1228.070
216.7691, 1235.122
217.2512, 1234.804
217.7334, 1228.470
218.2155, 1221.230
218.6976, 1216.711
219.1797, 1214.580
219.6618, 1211.462
220.1439, 1204.455
220.6261, 1200.714
221.1082, 1205.524
221.5903, 1215.930
222.0724, 1225.174
222.5545, 1228.061
223.0366, 1226.715
223.5188, 1230.330
224.0009, 1243.629
224.4830, 1253.507
224.9651, 1254.233
225.4472, 1248.251
225.9293, 1237.946
226.4115, 1220.173
226.8936, 1202.217
227.3757, 1205.621
227.8578, 1243.303
228.3399, 1271.528
228.8220, 1262.020
229.3041, 1238.045
229.7863, 1227.719
230.2684, 1244.870
230.7505, 1271.755
231.2326, 1277.260
231.7147, 1255.164
232.1968, 1234.512
232.6790, 1223.243
233.1611, 1219.086
233.6432, 1223.406
234.1253, 1238.114
234.6074, 1252.816
235.0895, 1252.633
235.5717, 1235.403
236.0538, 1221.774
236.5359, 1221.900
237.0180, 1224.668
237.5001, 1219.639
237.9822, 1205.314
238.4644, 1193.513
238.9465, 1199.009
239.4286, 1221.247
239.9107, 1235.342
240.3928, 1231.267
240.8749, 1222.888
241.3571, 1222.333
241.8392, 1228.932
242.3213, 1232.051
242.8034, 1221.082
243.2855, 1199.088
243.7676, 1182.490
244.2498, 1172.638
244.7319, 1169.262
245.2140, 1175.507
245.6961, 1188.238
246.1782, 1196.369
246.6603, 1190.369
247.1425, 1175.940
247.6246, 1168.896
248.1067, 1172.414
248.5888, 1176.407
249.0709, 1173.750
249.5530, 1167.014
250.0352, 1160.592
250.5173, 1156.261
250.9994, 1152.904
251.4815, 1148.342
251.9636, 1142.121
252.4457, 1137.480
252.9279, 1135.737
253.4100, 1136.980
253.8921, 1142.715
254.3742, 1158.090
254.8563, 1170.724
255.3384, 1163.982
255.8206, 1138.640
256.3027, 1120.783
256.7848, 1126.429
257.2669, 1141.395
257.7490, 1142.626
258.2311, 1125.306
258.7133, 1107.711
259.1954, 1102.160
259.6775, 1106.135
260.1596, 1110.148
260.6417, 1112.461
261.1238, 1112.374
261.6060, 1108.000
262.0881, 1099.070
262.5702, 1091.622
263.0523, 1088.109
263.5344, 1087.704
264.0165, 1090.389
264.4987, 1097.403
264.9808, 1102.412
265.4629, 1096.344
265.9450, 1080.396
266.4271, 1066.971
266.9092, 1059.263
267.3914, 1054.675
267.8735, 1048.067
268.3556, 1039.167
268.8377, 1038.522
269.3198, 1059.176
269.8019, 1097.861
270.2841, 1119.740
270.7662, 1114.937
271.2483, 1101.960
271.7304, 1090.125
272.2125, 1079.584
272.6946, 1069.102
273.1768, 1057.007
273.6589, 1045.192
274.1410, 1041.174
274.6231, 1052.789
275.1052, 1060.853
275.5873, 1056.598
276.0695, 1045.237
276.5516, 1032.806
277.0337, 1020.204
277.5158, 1000.714
277.9979, 1020.955
278.4800, 1033.888
278.9622, 1039.905
279.4443, 1018.292
279.9264, 1032.357
280.4085, 1032.124
280.8906, 1031.304
281.3727, 1050.391
281.8549, 1032.797
282.3370, 1051.568
282.8191, 1050.733
283.3012, 1055.686
283.7833, 1061.438
284.2654, 1065.846
284.7476, 1068.778
285.2297, 1071.159
285.7118, 1073.861
286.1939, 1076.869
286.6760, 1077.371
287.1581, 1071.297
287.6403, 1067.319
288.1224, 1070.101
288.6045, 1076.192
289.0866, 1079.550
289.5687, 1076.854
290.0508, 1070.100
290.5330, 1065.761
291.0151, 1063.231
291.4972, 1064.515
291.9793, 1070.264
292.4614, 1079.311
292.9435, 1092.447
293.4257, 1109.306
293.9078, 1125.459
294.3899, 1132.931
294.8720, 1126.921
295.3541, 1125.936
295.8362, 1134.336
296.3184, 1144.354
296.8005, 1153.819
297.2826, 1161.528
297.7647, 1165.189
298.2468, 1160.222
298.7289, 1146.774
299.2111, 1143.313
299.6932, 1159.815
300.1753, 1174.684
300.6574, 1176.337
301.1395, 1171.192
301.6216, 1171.713
302.1038, 1186.438
302.5859, 1208.593
303.0680, 1221.423
303.5501, 1222.079
304.0322, 1220.781
304.5143, 1215.571
304.9964, 1212.833
305.4785, 1221.151
305.9607, 1244.312
306.4428, 1269.407
306.9249, 1279.539
307.4070, 1274.823
307.8891, 1278.261
308.3712, 1298.460
308.8534, 1326.018
309.3355, 1353.838
309.8176, 1381.733
310.2997, 1404.229
310.7818, 1416.605
311.2639, 1421.656
311.7461, 1424.674
312.2282, 1424.195
312.7103, 1428.342
313.1924, 1448.290
313.6745, 1479.397
314.1566, 1506.911
314.6388, 1527.585
315.1209, 1543.583
315.6030, 1553.932
316.0851, 1559.495
316.5672, 1570.332
317.0493, 1595.737
317.5315, 1628.312
318.0136, 1644.361
318.4957, 1632.479
318.9778, 1622.932
319.4599, 1630.983
319.9420, 1648.746
320.4242, 1662.294
320.9063, 1667.092
321.3884, 1665.434
321.8705, 1660.098
322.3526, 1648.819
322.8347, 1639.964
323.3169, 1637.024
323.7990, 1634.539
324.2811, 1628.344
324.7632, 1618.001
325.2453, 1605.547
325.7274, 1593.388
326.2096, 1581.940
326.6917, 1561.570
327.1738, 1518.229
327.6559, 1482.083
328.1380, 1468.753
328.6201, 1468.615
329.1023, 1463.588
329.5844, 1444.032
330.0665, 1415.840
330.5486, 1397.442
331.0307, 1398.348
331.5128, 1393.759
331.9950, 1376.528
332.4771, 1356.880
332.9592, 1342.824
333.4413, 1336.097
333.9234, 1333.661
334.4055, 1333.011
334.8877, 1334.778
335.3698, 1334.251
335.8519, 1329.082
336.3340, 1323.721
336.8161, 1320.263
337.2982, 1318.125
337.7804, 1315.395
338.2625, 1309.909
338.7446, 1303.566
339.2267, 1302.574
339.7088, 1309.046
340.1909, 1315.112
340.6731, 1314.487
341.1552, 1312.936
341.6373, 1316.773
342.1194, 1327.693
342.6015, 1342.954
343.0836, 1364.395
343.5658, 1390.362
344.0479, 1404.403
344.5300, 1397.377
345.0121, 1384.099
345.4942, 1380.212
345.9763, 1385.281
346.4585, 1394.939
346.9406, 1406.820
347.4227, 1422.837
347.9048, 1450.735
348.3869, 1491.533
348.8690, 1523.862
349.3512, 1528.270
349.8333, 1508.219
350.3154, 1499.419
350.7975, 1509.143
351.2796, 1522.066
351.7617, 1534.211
352.2439, 1544.168
352.7260, 1547.991
353.2081, 1543.449
353.6902, 1535.367
354.1723, 1534.159
354.6544, 1550.929
355.1366, 1555.890
355.6187, 1540.922
356.1008, 1519.655
356.5829, 1502.398
357.0650, 1490.333
357.5471, 1478.641
358.0293, 1462.241
358.5114, 1440.784
358.9935, 1423.226
359.4756, 1410.735
359.9577, 1401.227
360.4398, 1386.709
360.9220, 1371.309
361.4041, 1376.457
361.8862, 1378.703
362.3683, 1378.201
362.8504, 1366.726
363.3326, 1369.421
363.8147, 1366.438
364.2968, 1363.221
364.7789, 1367.911
365.2610, 1358.031
365.7431, 1362.356
366.2253, 1362.829
366.7074, 1359.180
367.1895, 1352.660
367.6716, 1349.755
368.1537, 1350.898
368.6358, 1355.490
369.1180, 1364.666
369.6001, 1376.761
370.0822, 1388.853
370.5643, 1399.371
371.0464, 1410.470
371.5285, 1423.363
372.0107, 1438.260
372.4928, 1458.147
372.9749, 1487.310
373.4570, 1518.074
373.9391, 1533.848
374.4212, 1529.692
374.9034, 1533.951
375.3855, 1560.620
375.8676, 1595.852
376.3497, 1623.585
376.8318, 1641.874
377.3139, 1659.025
377.7961, 1683.562
378.2782, 1715.755
378.7603, 1738.291
379.2424, 1737.472
379.7245, 1743.883
380.2066, 1774.115
380.6888, 1816.910
381.1709, 1853.644
381.6530, 1876.162
382.1351, 1890.163
382.6172, 1906.179
383.0993, 1921.834
383.5815, 1945.165
384.0636, 1988.225
384.5457, 2028.268
385.0278, 2052.611
385.5099, 2060.804
385.9920, 2058.802
386.4742, 2049.569
386.9563, 2034.082
387.4384, 2018.710
387.9205, 2004.976
388.4026, 1988.146
388.8847, 1968.769
389.3669, 1944.622
389.8490, 1912.888
390.3311, 1872.465
390.8132, 1824.857
391.2953, 1769.047
391.7774, 1706.009
392.2596, 1644.711
392.7417, 1587.076
393.2238, 1532.011
393.7059, 1479.000
394.1880, 1427.910
394.6701, 1379.342
395.1523, 1331.173
395.6344, 1287.047
396.1165, 1252.407
396.5986, 1226.563
397.0807, 1203.918
397.5628, 1182.023
398.0450, 1160.223
398.5271, 1135.126
399.0092, 1098.720
399.4913, 1070.089
399.9734, 1058.037
400.4555, 1052.101
400.9377, 1039.988
401.4197, 1019.646
401.9019, 999.3397
402.3840, 989.1539
402.8661, 991.2513
403.3482, 987.3297
403.8303, 966.7216
404.3124, 951.2534
404.7946, 951.4974
405.2767, 960.3187
405.7588, 966.0360
406.2409, 963.2306
406.7230, 954.7141
407.2051, 944.8583
407.6873, 932.8776
408.1694, 923.2209
408.6515, 917.7469
409.1336, 914.2192
409.6157, 910.2308
410.0978, 906.1687
410.5800, 905.7236
411.0621, 916.1204
411.5442, 930.1309
412.0263, 931.6999
412.5084, 918.9091
412.9905, 905.5020
413.4727, 899.2283
413.9548, 898.3596
414.4369, 896.5969
414.9190, 891.7906
415.4011, 889.6935
415.8832, 895.8473
416.3654, 905.3451
416.8475, 910.8857
417.3296, 910.6586
417.8117, 905.2222
418.2938, 894.2727
418.7759, 876.1085
419.2581, 863.1418
419.7402, 851.3065
420.2223, 847.8467
420.7044, 865.9865
421.1865, 892.9255
421.6686, 904.5411
422.1508, 888.5587
422.6329, 857.5758
423.1150, 837.5146
423.5971, 827.7307
424.0792, 831.0193
424.5613, 867.4598
425.0435, 900.7289
425.5256, 907.4542
426.0077, 890.3148
426.4898, 868.6768
426.9719, 851.9312
427.4540, 840.7818
427.9362, 838.1255
428.4183, 845.4119
428.9004, 854.6151
429.3825, 864.6390
429.8646, 872.9750
430.3467, 875.0048
430.8289, 868.1729
431.3110, 862.4645
431.7931, 865.1625
432.2752, 871.6083
432.7573, 872.5099
433.2394, 866.1300
433.7216, 860.6246
434.2037, 865.1121
434.6858, 879.7823
435.1679, 883.2261
435.6500, 863.0841
436.1321, 846.9601
436.6143, 846.6430
437.0964, 855.5781
437.5785, 854.1565
438.0606, 836.8307
438.5427, 814.6046
439.0248, 848.4435
439.5070, 870.6478
439.9891, 881.8407
440.4712, 849.0454
440.9533, 873.0516
441.4354, 874.2941
441.9175, 874.6036
442.3997, 906.6052
442.8818, 880.2083
443.3639, 911.7059
443.8460, 890.4722
444.3281, 895.1788
444.8102, 897.8174
445.2924, 889.0255
445.7745, 877.7133
446.2566, 874.9895
446.7387, 881.0444
447.2208, 885.6437
447.7029, 882.3229
448.1851, 877.1534
448.6672, 878.1890
449.1493, 885.2590
449.6314, 891.9464
450.1135, 894.1194
450.5956, 893.1450
451.0778, 894.2408
451.5599, 895.1360
452.0420, 901.0064
452.5241, 922.0984
453.0062, 942.1668
453.4883, 943.1243
453.9705, 925.1180
454.4526, 904.8558
454.9347, 897.7531
455.4168, 903.1642
455.8989, 909.8331
456.3810, 919.7743
456.8632, 927.8950
457.3453, 933.5296
457.8274, 936.5440
458.3095, 936.2572
458.7916, 932.4072
459.2737, 927.5492
459.7559, 923.3223
460.2380, 919.9401
460.7201, 918.7226
461.2022, 920.4636
461.6843, 922.4716
462.1664, 923.1849
462.6486, 922.4814
463.1307, 919.9455
463.6128, 911.7286
464.0949, 905.7738
464.5770, 901.5512
465.0591, 896.2465
465.5413, 905.1873
466.0234, 910.2662
466.5055, 911.6908
466.9876, 898.5159
467.4697, 904.1932
467.9518, 902.3154
468.4340, 900.1279
468.9161, 908.4586
469.3982, 897.4072
469.8803, 900.2495
470.3624, 905.4160
470.8445, 902.7788
471.3267, 895.5061
471.8088, 886.6286
472.2909, 874.9941
472.7730, 871.7451
473.2551, 884.2632
473.7372, 898.4662
474.2194, 906.3755
474.7015, 908.3807
475.1836, 905.7585
475.6657, 895.2502
476.1478, 883.6193
476.6299, 878.3468
477.1121, 878.2590
477.5942, 878.1807
478.0763, 876.6364
478.5584, 873.0800
479.0405, 865.7078
479.5226, 851.4225
480.0048, 844.5137
480.4869, 852.7597
480.9690, 861.5851
481.4511, 861.2973
481.9332, 854.5475
482.4153, 848.8173
482.8975, 848.0421
483.3796, 850.5126
483.8617, 853.0404
484.3438, 857.1357
484.8259, 856.9142
485.3080, 842.0134
485.7902, 831.0215
486.2723, 837.8123
486.7544, 857.6078
487.2365, 873.3856
487.7186, 873.6390
488.2007, 867.3507
488.6829, 869.2893
489.1650, 879.0136
489.6471, 885.0663
490.1292, 882.3176
490.6113, 875.6132
491.0934, 872.5692
491.5756, 873.6839
492.0577, 873.4546
492.5398, 867.0859
493.0219, 862.4334
493.5040, 867.5774
493.9861, 879.6384
494.4683, 889.1179
494.9504, 890.6871
495.4325, 888.2405
495.9146, 891.8420
496.3967, 906.5229
496.8788, 916.0674
497.3610, 917.7385
497.8431, 916.2675
498.3252, 912.6248
498.8073, 907.8370
499.2894, 903.3158
499.7715, 897.8557
500.2536, 895.6332
500.7357, 906.8629
501.2179, 931.7451
501.7000, 951.7990
502.1821, 959.6459
502.6642, 962.9498
503.1463, 972.7380
503.6284, 988.9825
504.1106, 1000.233
504.5927, 1004.102
505.0748, 1002.452
505.5569, 990.5353
506.0390, 974.0802
506.5211, 969.0797
507.0033, 983.4966
507.4854, 1007.493
507.9675, 1021.986
508.4496, 1023.259
508.9317, 1023.875
509.4138, 1021.076
509.8960, 1020.340
510.3781, 1024.680
510.8602, 1032.961
511.3423, 1043.127
511.8244, 1055.220
512.3066, 1066.004
512.7887, 1069.544
513.2708, 1066.188
513.7529, 1063.212
514.2350, 1060.980
514.7172, 1061.766
515.1993, 1068.765
515.6814, 1081.315
516.1635, 1095.319
516.6456, 1116.140
517.1277, 1132.362
517.6099, 1135.130
518.0920, 1128.902
518.5741, 1120.196
519.0562, 1111.522
519.5383, 1107.255
520.0204, 1114.533
520.5026, 1136.075
520.9847, 1153.591
521.4668, 1170.184
521.9489, 1178.714
522.4310, 1169.558
522.9131, 1153.770
523.3953, 1146.507
523.8774, 1152.937
524.3595, 1165.640
524.8416, 1179.984
525.3237, 1194.761
525.8058, 1202.661
526.2880, 1201.020
526.7701, 1200.459
527.2522, 1212.402
527.7343, 1232.102
528.2164, 1236.831
528.6985, 1208.120
529.1807, 1189.089
529.6628, 1203.691
530.1449, 1229.441
530.6270, 1239.316
531.1091, 1229.857
531.5912, 1214.670
532.0734, 1205.480
532.5555, 1201.848
533.0376, 1200.387
533.5197, 1205.099
534.0018, 1204.632
534.4839, 1189.085
534.9661, 1172.574
535.4482, 1167.902
535.9303, 1175.931
536.4124, 1186.621
536.8945, 1194.750
537.3766, 1201.015
537.8588, 1207.565
538.3409, 1214.212
538.8230, 1216.106
539.3051, 1209.887
539.7872, 1199.125
540.2693, 1191.078
540.7515, 1186.903
541.2336, 1182.527
541.7157, 1173.046
542.1978, 1167.518
542.6799, 1174.563
543.1620, 1190.085
543.6442, 1205.539
544.1263, 1216.996
544.6084, 1221.918
545.0905, 1209.888
545.5726, 1175.724
546.0547, 1162.422
546.5369, 1189.467
547.0190, 1219.375
547.5011, 1223.975
547.9832, 1211.854
548.4653, 1205.790
548.9474, 1217.197
549.4296, 1228.229
549.9116, 1223.602
550.3937, 1210.088
550.8759, 1201.209
551.3580, 1200.093
551.8401, 1203.364
552.3222, 1207.735
552.8043, 1213.213
553.2864, 1221.884
553.7686, 1244.479
554.2507, 1257.118
554.7328, 1244.522
555.2149, 1227.556
555.6970, 1230.201
556.1791, 1253.684
556.6613, 1274.594
557.1434, 1269.367
557.6255, 1247.381
558.1076, 1235.371
558.5897, 1233.871
559.0718, 1237.918
559.5540, 1249.769
560.0361, 1261.922
560.5182, 1259.162
561.0003, 1239.274
561.4824, 1220.377
561.9645, 1205.181
562.4467, 1191.834
562.9288, 1178.188
563.4109, 1165.463
563.8930, 1157.612
564.3751, 1156.623
564.8572, 1157.597
565.3394, 1151.591
565.8215, 1137.286
566.3036, 1122.589
566.7857, 1102.574
567.2678, 1089.447
567.7499, 1096.510
568.2321, 1112.460
568.7142, 1115.861
569.1963, 1097.757
569.6784, 1076.809
570.1605, 1064.943
570.6426, 1058.974
571.1248, 1054.061
571.6069, 1049.280
572.0890, 1043.134
572.5711, 1033.996
573.0532, 1022.859
573.5353, 1013.141
574.0175, 926.0438
574.4996, 936.8627
574.9817, 942.8260
575.4638, 944.1949
575.9459, 927.2081
576.4280, 933.9238
576.9102, 931.1406
577.3923, 927.9679
577.8744, 938.0195
578.3565, 925.2064
578.8386, 916.6696
579.3207, 911.3800
579.8029, 909.0469
580.2850, 906.7534
580.7671, 900.3428
581.2492, 889.5217
581.7313, 883.9120
582.2134, 894.0571
582.6956, 897.3378
583.1777, 879.2519
583.6598, 852.4433
584.1419, 832.3798
584.6240, 822.7396
585.1061, 817.9254
585.5883, 812.7232
586.0704, 807.5327
586.5525, 805.6752
587.0346, 809.0176
587.5167, 809.4688
587.9988, 800.1174
588.4810, 789.5690
588.9631, 790.7360
589.4452, 804.7144
589.9273, 809.9135
590.4094, 790.9721
590.8915, 768.2766
591.3737, 758.9874
591.8558, 759.6859
592.3379, 759.3969
592.8200, 753.7484
593.3021, 747.2564
593.7842, 747.3198
594.2664, 755.5177
594.7485, 759.6487
595.2306, 760.4180
595.7127, 755.8266
596.1948, 735.8032
596.6769, 714.8856
597.1591, 715.5794
597.6412, 744.2538
598.1233, 768.0237
598.6054, 759.9911
599.0875, 737.4738
599.5696, 726.7916
600.0518, 728.3613
600.5339, 729.9224
601.0160, 724.7972
601.4981, 716.7398
601.9802, 714.1942
602.4623, 721.0305
602.9445, 724.0314
603.4266, 719.8686
603.9087, 715.6559
604.3908, 714.9615
604.8729, 716.1773
605.3550, 716.4995
605.8372, 715.0032
606.3193, 712.1440
606.8014, 706.5906
607.2835, 700.1240
607.7656, 698.9156
608.2477, 703.8647
608.7299, 708.8129
609.2120, 709.5364
609.6941, 707.8717
610.1762, 709.5757
610.6583, 717.9995
611.1404, 724.2163
611.6226, 726.1068
612.1047, 727.4918
612.5868, 734.1968
613.0689, 741.9464
613.5510, 738.6853
614.0331, 716.9042
614.5153, 693.6520
614.9974, 697.7426
615.4795, 724.4968
615.9616, 736.0117
616.4437, 724.2713
616.9258, 710.2869
617.4080, 708.0479
617.8901, 714.9798
618.3722, 721.0042
618.8543, 728.2069
619.3364, 731.1288
619.8185, 724.1402
620.3007, 716.3947
620.7828, 716.2248
621.2649, 721.8406
621.7470, 725.7946
622.2291, 723.8347
622.7112, 718.8553
623.1934, 715.3146
623.6755, 713.2006
624.1576, 712.3068
624.6397, 711.1034
625.1218, 715.0113
625.6039, 732.3652
626.0861, 757.8397
626.5682, 771.8911
627.0503, 768.1037
627.5324, 763.2177
628.0145, 759.5076
628.4966, 758.1239
628.9788, 762.0520
629.4609, 769.6130
629.9430, 774.4987
630.4251, 772.4130
630.9072, 768.3417
631.3893, 774.6324
631.8715, 792.6680
632.3536, 801.5020
632.8357, 794.0016
633.3178, 785.5618
633.7999, 788.0963
634.2820, 797.9192
634.7642, 805.0339
635.2463, 808.4573
635.7284, 809.8440
636.2105, 807.9156
636.6926, 805.4265
637.1747, 804.9618
637.6569, 806.5820
638.1390, 809.3585
638.6211, 812.8262
639.1032, 816.6390
639.5853, 820.1985
640.0674, 823.5737
640.5496, 825.2914
641.0317, 821.5510
641.5138, 822.6835
641.9959, 841.9083
642.4780, 870.1577
642.9601, 885.2377
643.4423, 876.7643
643.9244, 874.0552
644.4065, 893.7157
644.8886, 918.8560
645.3707, 931.9392
645.8528, 934.9148
646.3350, 940.3067
646.8171, 955.2148
647.2992, 974.6363
647.7813, 988.4236
648.2634, 995.7983
648.7455, 1006.827
649.2277, 1021.163
649.7098, 1041.601
650.1919, 1075.137
650.6740, 1114.572
651.1561, 1144.626
651.6382, 1159.628
652.1204, 1177.999
652.6025, 1204.112
653.0846, 1236.592
653.5667, 1279.025
654.0488, 1326.692
654.5309, 1367.175
655.0131, 1394.162
655.4952, 1418.710
655.9773, 1461.259
656.4594, 1522.277
656.9415, 1569.827
657.4236, 1596.821
657.9058, 1626.394
658.3879, 1672.341
658.8700, 1727.896
