##NAMES=Diopside
##RRUFFID=R090046
##IDEAL CHEMISTRY=CaMgSi_2_O_6_
##LOCALITY=Merelani, Tanzania
##OWNER=RRUFF
##SOURCE=Wendell Wilson
##DESCRIPTION=Green crystals associated with graphite, R090047
##STATUS=The identification of this mineral has been confirmed by single-crystal X-ray diffraction.
##URL=rruff.info/R090046
89.78156, 0.0000000E+00
90.26367, 1406.169
90.74579, 1398.368
91.22791, 1403.433
91.71002, 1419.632
92.19214, 1431.544
92.67426, 1422.045
93.15638, 1397.833
93.63850, 1376.699
94.12061, 1362.944
94.60273, 1356.395
95.08485, 1359.887
95.56696, 1374.805
96.04908, 1390.189
96.53120, 1390.160
97.01331, 1375.571
97.49543, 1363.638
97.97755, 1363.396
98.45966, 1374.133
98.94178, 1382.852
99.42390, 1389.800
99.90602, 1394.204
100.3881, 1393.481
100.8703, 1385.971
101.3524, 1379.201
101.8345, 1378.557
102.3166, 1386.952
102.7987, 1388.275
103.2808, 1378.315
103.7630, 1360.560
104.2451, 1351.042
104.7272, 1352.676
105.2093, 1358.583
105.6914, 1365.134
106.1735, 1376.350
106.6557, 1380.861
107.1378, 1372.922
107.6199, 1351.765
108.1020, 1342.734
108.5841, 1354.127
109.0662, 1373.269
109.5484, 1388.931
110.0305, 1389.422
110.5126, 1398.190
110.9947, 1423.505
111.4768, 1471.519
111.9590, 1508.804
112.4411, 1519.257
112.9232, 1520.737
113.4053, 1535.896
113.8874, 1583.762
114.3695, 1633.915
114.8517, 1672.028
115.3338, 1687.743
115.8159, 1713.525
116.2980, 1760.304
116.7801, 1824.305
117.2622, 1896.488
117.7444, 1973.113
118.2265, 2057.531
118.7086, 2151.014
119.1907, 2252.337
119.6728, 2366.849
120.1549, 2496.953
120.6371, 2642.656
121.1192, 2804.678
121.6013, 2993.417
122.0834, 3193.927
122.5655, 3388.609
123.0476, 3568.500
123.5298, 3743.638
124.0119, 3925.281
124.4940, 4112.669
124.9761, 4295.817
125.4582, 4463.548
125.9404, 4620.183
126.4225, 4772.682
126.9046, 4924.489
127.3867, 5073.592
127.8688, 5213.797
128.3509, 5344.063
128.8331, 5475.579
129.3152, 5618.510
129.7973, 5773.248
130.2794, 5937.739
130.7615, 6102.344
131.2436, 6274.787
131.7258, 6481.533
132.2079, 6726.310
132.6900, 6997.378
133.1721, 7275.751
133.6542, 7560.138
134.1364, 7865.991
134.6185, 8207.216
135.1006, 8584.584
135.5827, 8971.707
136.0648, 9366.905
136.5469, 9790.423
137.0291, 10224.22
137.5112, 10677.32
137.9933, 11149.23
138.4754, 11634.74
138.9575, 12145.68
139.4396, 12575.48
139.9218, 12922.23
140.4039, 13176.77
140.8860, 13278.71
141.3681, 13209.47
141.8502, 13017.54
142.3323, 12723.25
142.8145, 12268.93
143.2966, 11849.14
143.7787, 11490.97
144.2608, 11191.52
144.7429, 10953.14
145.2250, 10778.32
145.7072, 10659.86
146.1893, 10592.16
146.6714, 10590.59
147.1535, 10617.11
147.6356, 10669.92
148.1178, 10752.35
148.5999, 10836.27
149.0820, 10912.22
149.5641, 10993.41
150.0462, 11094.67
150.5283, 11223.09
151.0105, 11363.18
151.4926, 11412.39
151.9747, 11466.79
152.4568, 11509.64
152.9389, 11536.14
153.4210, 11552.40
153.9032, 11567.14
154.3853, 11584.24
154.8674, 11597.24
155.3495, 11602.53
155.8316, 11594.06
156.3137, 11591.68
156.7959, 11608.39
157.2780, 11632.34
157.7601, 11641.15
158.2422, 11620.46
158.7243, 11590.61
159.2065, 11559.26
159.6886, 11519.02
160.1707, 11491.76
160.6528, 11487.08
161.1349, 11500.04
161.6170, 11518.10
162.0992, 11540.25
162.5813, 11563.66
163.0634, 11586.32
163.5455, 11606.26
164.0276, 11627.31
164.5097, 11655.85
164.9919, 11688.58
165.4740, 11712.40
165.9561, 11716.15
166.4382, 11710.46
166.9203, 11704.73
167.4024, 11698.84
167.8846, 11696.57
168.3667, 11701.51
168.8488, 11712.88
169.3309, 11725.64
169.8130, 11735.39
170.2952, 11745.09
170.7773, 11758.30
171.2594, 11779.17
171.7415, 11801.61
172.2236, 11820.14
172.7057, 11834.91
173.1879, 11849.83
173.6700, 11865.01
174.1521, 11882.39
174.6342, 11905.33
175.1163, 11936.63
175.5984, 11973.33
176.0806, 12013.05
176.5627, 12055.92
177.0448, 12098.04
177.5269, 12134.73
178.0090, 12167.76
178.4911, 12202.46
178.9733, 12240.69
179.4554, 12281.69
179.9375, 12326.32
180.4196, 12374.70
180.9017, 12422.13
181.3838, 12476.93
181.8660, 12530.43
182.3481, 12552.95
182.8302, 12515.29
183.3123, 12438.60
183.7944, 12366.94
184.2766, 12299.67
184.7587, 12244.33
185.2408, 12212.55
185.7229, 12202.15
186.2050, 12197.99
186.6871, 12190.25
187.1693, 12182.32
187.6514, 12187.34
188.1335, 12206.41
188.6156, 12235.70
189.0977, 12272.41
189.5798, 12315.99
190.0620, 12361.31
190.5441, 12403.53
191.0262, 12444.19
191.5083, 12495.13
191.9904, 12559.77
192.4725, 12629.90
192.9547, 12691.05
193.4368, 12743.50
193.9189, 12796.35
194.4010, 12859.76
194.8831, 12932.27
195.3652, 12992.39
195.8474, 13042.98
196.3295, 13074.23
196.8116, 13059.85
197.2937, 12996.63
197.7758, 12920.88
198.2579, 12849.94
198.7401, 12783.68
199.2222, 12723.28
199.7043, 12665.75
200.1864, 12618.11
200.6685, 12601.55
201.1507, 12621.21
201.6328, 12647.61
202.1149, 12664.43
202.5970, 12671.06
203.0791, 12672.71
203.5612, 12667.08
204.0434, 12658.80
204.5255, 12661.81
205.0076, 12678.80
205.4897, 12698.17
205.9718, 12712.62
206.4539, 12721.21
206.9361, 12730.76
207.4182, 12740.66
207.9003, 12752.58
208.3824, 12773.80
208.8645, 12807.88
209.3466, 12842.34
209.8288, 12868.55
210.3109, 12883.60
210.7930, 12903.30
211.2751, 12929.60
211.7572, 12961.28
212.2393, 12995.44
212.7215, 13032.56
213.2036, 13070.16
213.6857, 13107.34
214.1678, 13145.51
214.6499, 13177.56
215.1320, 13199.20
215.6142, 13214.65
216.0963, 13244.58
216.5784, 13297.76
217.0605, 13348.39
217.5426, 13375.89
218.0247, 13366.43
218.5069, 13375.21
218.9890, 13414.77
219.4711, 13476.74
219.9532, 13520.20
220.4353, 13536.31
220.9175, 13549.30
221.3996, 13574.02
221.8817, 13611.57
222.3638, 13658.58
222.8459, 13719.20
223.3280, 13789.93
223.8102, 13846.16
224.2923, 13878.36
224.7744, 13911.92
225.2565, 13963.21
225.7386, 14038.33
226.2207, 14115.01
226.7029, 14187.84
227.1850, 14260.11
227.6671, 14348.80
228.1492, 14470.05
228.6313, 14584.78
229.1134, 14669.65
229.5956, 14721.71
230.0777, 14752.84
230.5598, 14766.52
231.0419, 14760.63
231.5240, 14721.20
232.0062, 14627.76
232.4883, 14529.04
232.9704, 14455.39
233.4525, 14420.55
233.9346, 14380.43
234.4167, 14326.44
234.8989, 14264.27
235.3810, 14221.03
235.8631, 14201.16
236.3452, 14193.51
236.8273, 14192.30
237.3094, 14199.95
237.7916, 14207.98
238.2737, 14214.56
238.7558, 14220.87
239.2379, 14232.80
239.7200, 14253.12
240.2021, 14275.02
240.6843, 14295.00
241.1664, 14312.06
241.6485, 14329.47
242.1306, 14347.38
242.6127, 14366.01
243.0948, 14384.96
243.5770, 14402.72
244.0591, 14423.60
244.5412, 14450.47
245.0233, 14488.22
245.5054, 14521.66
245.9876, 14546.51
246.4697, 14567.39
246.9518, 14600.71
247.4339, 14654.26
247.9160, 14708.85
248.3981, 14753.42
248.8803, 14779.83
249.3624, 14816.03
249.8445, 14863.77
250.3266, 14920.98
250.8087, 14983.33
251.2908, 15053.22
251.7730, 15122.89
252.2551, 15186.89
252.7372, 15240.36
253.2193, 15302.90
253.7014, 15382.71
254.1835, 15467.37
254.6657, 15528.43
255.1478, 15564.61
255.6299, 15579.56
256.1120, 15574.33
256.5941, 15547.57
257.0763, 15503.26
257.5584, 15432.12
258.0405, 15349.04
258.5226, 15284.86
259.0047, 15243.97
259.4868, 15211.93
259.9690, 15182.66
260.4511, 15153.89
260.9332, 15139.85
261.4153, 15145.53
261.8974, 15161.38
262.3795, 15169.91
262.8617, 15165.62
263.3438, 15167.46
263.8259, 15185.32
264.3080, 15223.19
264.7901, 15245.17
265.2722, 15243.42
265.7544, 15234.92
266.2365, 15245.71
266.7186, 15281.67
267.2007, 15318.57
267.6828, 15349.09
268.1649, 15373.40
268.6471, 15395.95
269.1292, 15418.13
269.6113, 15437.19
270.0934, 15447.20
270.5755, 15444.15
271.0576, 15448.16
271.5398, 15466.11
272.0219, 15497.77
272.5040, 15528.92
272.9861, 15559.42
273.4682, 15588.93
273.9503, 15615.75
274.4325, 15638.29
274.9146, 15666.76
275.3967, 15706.67
275.8788, 15755.70
276.3610, 15791.73
276.8431, 15812.13
277.3252, 15826.58
277.8073, 15841.85
278.2894, 15857.60
278.7715, 15879.72
279.2537, 15912.07
279.7358, 15951.49
280.2179, 15985.46
280.7000, 16014.20
281.1821, 16037.71
281.6642, 16054.52
282.1464, 16064.65
282.6285, 16074.67
283.1106, 16081.96
283.5927, 16092.77
284.0748, 16127.92
284.5569, 16189.60
285.0391, 16256.00
285.5212, 16313.22
286.0033, 16361.59
286.4854, 16407.39
286.9675, 16450.99
287.4496, 16492.46
287.9318, 16531.74
288.4139, 16569.06
288.8960, 16605.03
289.3781, 16641.63
289.8602, 16678.25
290.3423, 16710.97
290.8245, 16738.77
291.3066, 16765.12
291.7887, 16793.99
292.2708, 16825.71
292.7529, 16861.06
293.2350, 16900.56
293.7172, 16944.18
294.1993, 16989.33
294.6814, 17035.38
295.1635, 17086.58
295.6456, 17151.05
296.1277, 17226.01
296.6099, 17299.49
297.0920, 17359.61
297.5741, 17414.50
298.0562, 17482.28
298.5383, 17563.54
299.0204, 17644.48
299.5026, 17704.86
299.9847, 17752.83
300.4668, 17812.41
300.9489, 17899.04
301.4311, 17998.62
301.9132, 18091.93
302.3953, 18179.88
302.8774, 18261.20
303.3595, 18329.19
303.8416, 18391.39
304.3238, 18463.42
304.8059, 18554.51
305.2880, 18651.61
305.7701, 18739.36
306.2522, 18819.71
306.7343, 18899.25
307.2165, 18977.81
307.6986, 19060.46
308.1807, 19154.03
308.6628, 19264.09
309.1449, 19380.80
309.6270, 19499.40
310.1092, 19620.35
310.5913, 19741.74
311.0734, 19860.54
311.5555, 19980.61
312.0376, 20103.92
312.5197, 20231.61
313.0019, 20360.60
313.4840, 20493.84
313.9661, 20628.80
314.4482, 20761.50
314.9303, 20881.57
315.4124, 21005.46
315.8946, 21141.48
316.3767, 21291.57
316.8588, 21452.71
317.3409, 21629.09
317.8230, 21815.83
318.3051, 22005.60
318.7873, 22185.80
319.2694, 22380.38
319.7515, 22608.04
320.2336, 22872.55
320.7157, 23126.53
321.1978, 23362.78
321.6800, 23577.51
322.1621, 23766.21
322.6442, 23940.88
323.1263, 24075.88
323.6084, 24172.26
324.0905, 24228.39
324.5727, 24222.87
325.0548, 24141.10
325.5369, 24004.39
326.0190, 23825.63
326.5012, 23588.46
326.9833, 23329.07
327.4654, 23033.85
327.9475, 22714.72
328.4296, 22423.12
328.9117, 22166.43
329.3939, 21931.16
329.8760, 21709.25
330.3581, 21492.80
330.8402, 21303.27
331.3223, 21145.25
331.8044, 21011.14
332.2866, 20885.17
332.7687, 20764.63
333.2508, 20657.00
333.7329, 20563.23
334.2150, 20482.34
334.6971, 20418.43
335.1793, 20373.76
335.6614, 20343.16
336.1435, 20322.06
336.6256, 20313.94
337.1077, 20306.45
337.5898, 20294.30
338.0720, 20278.68
338.5541, 20281.81
339.0362, 20308.82
339.5183, 20344.68
340.0004, 20375.63
340.4825, 20401.30
340.9647, 20428.52
341.4468, 20457.32
341.9289, 20489.04
342.4110, 20529.52
342.8931, 20578.94
343.3752, 20632.29
343.8574, 20685.42
344.3395, 20738.57
344.8216, 20791.11
345.3037, 20839.92
345.7858, 20893.06
346.2679, 20967.01
346.7501, 21061.17
347.2322, 21159.25
347.7143, 21255.95
348.1964, 21350.41
348.6785, 21439.47
349.1607, 21523.08
349.6428, 21607.60
350.1249, 21700.96
350.6070, 21802.09
351.0891, 21909.57
351.5713, 22022.21
352.0534, 22139.97
352.5355, 22266.22
353.0176, 22399.40
353.4997, 22535.91
353.9818, 22675.81
354.4640, 22815.82
354.9461, 22954.20
355.4282, 23097.27
355.9103, 23228.02
356.3924, 23330.26
356.8745, 23407.31
357.3567, 23469.79
357.8388, 23530.10
358.3209, 23575.97
358.8030, 23593.85
359.2851, 23573.16
359.7672, 23546.39
360.2494, 23534.60
360.7315, 23528.49
361.2136, 23511.17
361.6957, 23468.09
362.1778, 23418.62
362.6599, 23371.38
363.1421, 23327.09
363.6242, 23284.00
364.1063, 23235.88
364.5884, 23190.50
365.0705, 23156.17
365.5526, 23133.89
366.0348, 23123.09
366.5169, 23129.73
366.9990, 23152.22
367.4811, 23166.69
367.9632, 23172.89
368.4453, 23168.91
368.9275, 23153.25
369.4096, 23110.92
369.8917, 23077.54
370.3738, 23051.08
370.8559, 23034.01
371.3380, 23033.53
371.8202, 23052.89
372.3023, 23084.59
372.7844, 23126.03
373.2665, 23177.13
373.7487, 23238.33
374.2308, 23314.13
374.7129, 23395.70
375.1950, 23469.88
375.6771, 23530.94
376.1592, 23604.08
376.6414, 23697.37
377.1235, 23809.56
377.6056, 23933.54
378.0877, 24074.41
378.5698, 24214.31
379.0519, 24335.86
379.5341, 24437.99
380.0162, 24548.89
380.4983, 24672.21
380.9804, 24807.42
381.4625, 24943.86
381.9446, 25083.49
382.4268, 25239.56
382.9089, 25426.66
383.3910, 25637.43
383.8731, 25854.76
384.3552, 26075.85
384.8373, 26304.57
385.3195, 26544.07
385.8016, 26793.54
386.2837, 27055.96
386.7658, 27341.72
387.2479, 27632.96
387.7300, 27918.13
388.2122, 28195.12
388.6943, 28448.81
389.1764, 28681.85
389.6585, 28879.01
390.1406, 29016.93
390.6227, 29093.91
391.1049, 29103.74
391.5870, 29040.12
392.0691, 28904.92
392.5512, 28703.87
393.0333, 28398.49
393.5154, 28056.81
393.9976, 27717.20
394.4797, 27381.79
394.9618, 27060.25
395.4439, 26754.32
395.9260, 26464.48
396.4081, 26192.55
396.8903, 25934.21
397.3724, 25695.03
397.8545, 25471.29
398.3366, 25262.57
398.8188, 25083.73
399.3009, 24947.37
399.7830, 24833.69
400.2651, 24730.14
400.7472, 24627.45
401.2293, 24549.20
401.7115, 24504.92
402.1936, 24484.45
402.6757, 24455.96
403.1578, 24410.06
403.6399, 24371.96
404.1220, 24353.95
404.6042, 24359.14
405.0863, 24365.19
405.5684, 24372.45
406.0505, 24379.74
406.5326, 24385.27
407.0147, 24388.84
407.4969, 24392.69
407.9790, 24397.14
408.4611, 24402.65
408.9432, 24411.00
409.4253, 24422.36
409.9074, 24435.66
410.3896, 24448.62
410.8717, 24462.54
411.3538, 24483.84
411.8359, 24514.57
412.3180, 24549.69
412.8001, 24583.76
413.2823, 24616.07
413.7644, 24646.35
414.2465, 24668.50
414.7286, 24690.73
415.2107, 24728.27
415.6928, 24781.85
416.1750, 24832.79
416.6571, 24867.12
417.1392, 24889.63
417.6213, 24907.71
418.1034, 24917.97
418.5855, 24930.39
419.0677, 24949.61
419.5498, 24975.61
420.0319, 25007.39
420.5140, 25053.14
420.9961, 25098.91
421.4782, 25134.41
421.9604, 25151.41
422.4425, 25176.47
422.9246, 25222.49
423.4067, 25277.49
423.8889, 25325.67
424.3710, 25355.43
424.8531, 25388.20
425.3352, 25431.97
425.8173, 25486.93
426.2994, 25528.41
426.7816, 25547.97
427.2637, 25562.22
427.7458, 25580.40
428.2279, 25599.62
428.7100, 25632.17
429.1921, 25685.57
429.6743, 25748.14
430.1564, 25789.53
430.6385, 25805.72
431.1206, 25816.07
431.6027, 25824.43
432.0848, 25831.52
432.5670, 25854.84
433.0491, 25897.13
433.5312, 25945.09
434.0133, 25984.88
434.4954, 26017.89
434.9775, 26053.28
435.4597, 26094.52
435.9418, 26138.07
436.4239, 26173.49
436.9060, 26202.60
437.3881, 26238.73
437.8702, 26298.01
438.3524, 26366.49
438.8345, 26423.32
439.3166, 26465.02
439.7987, 26502.43
440.2808, 26542.47
440.7629, 26584.11
441.2451, 26625.42
441.7272, 26670.45
442.2093, 26710.30
442.6914, 26736.15
443.1735, 26750.38
443.6556, 26768.88
444.1378, 26795.95
444.6199, 26830.64
445.1020, 26872.98
445.5841, 26926.35
446.0662, 26981.34
446.5483, 27043.02
447.0305, 27104.83
447.5126, 27155.45
447.9947, 27179.73
448.4768, 27210.70
448.9590, 27258.17
449.4411, 27322.28
449.9232, 27379.34
450.4053, 27425.11
450.8874, 27469.95
451.3695, 27521.12
451.8517, 27580.01
452.3338, 27639.42
452.8159, 27699.78
453.2980, 27757.58
453.7801, 27802.66
454.2622, 27833.15
454.7444, 27871.15
455.2265, 27932.72
455.7086, 28010.82
456.1907, 28070.64
456.6728, 28112.00
457.1549, 28148.76
457.6371, 28193.34
458.1192, 28244.12
458.6013, 28299.18
459.0834, 28359.95
459.5655, 28420.40
460.0476, 28472.29
460.5298, 28518.07
461.0119, 28562.33
461.4940, 28610.59
461.9761, 28657.39
462.4582, 28695.48
462.9403, 28723.68
463.4225, 28758.37
463.9046, 28820.98
464.3867, 28887.62
464.8688, 28934.31
465.3509, 28933.24
465.8330, 28937.77
466.3152, 28965.68
466.7973, 29009.11
467.2794, 29039.07
467.7615, 29036.34
468.2436, 29037.55
468.7257, 29056.00
469.2079, 29095.29
469.6900, 29133.93
470.1721, 29172.30
470.6542, 29208.89
471.1363, 29241.11
471.6184, 29266.96
472.1006, 29296.19
472.5827, 29331.25
473.0648, 29370.32
473.5469, 29409.68
474.0291, 29449.95
474.5112, 29484.64
474.9933, 29502.40
475.4754, 29510.03
475.9575, 29539.24
476.4396, 29592.93
476.9218, 29655.21
477.4039, 29710.97
477.8860, 29761.88
478.3681, 29810.87
478.8502, 29856.52
479.3323, 29903.08
479.8145, 29955.57
480.2966, 30012.95
480.7787, 30069.53
481.2608, 30125.62
481.7429, 30178.34
482.2250, 30225.16
482.7072, 30265.21
483.1893, 30302.40
483.6714, 30338.63
484.1535, 30372.64
484.6356, 30403.21
485.1177, 30422.21
485.5999, 30448.00
486.0820, 30486.16
486.5641, 30534.18
487.0462, 30583.89
487.5283, 30636.75
488.0104, 30690.38
488.4926, 30745.19
488.9747, 30801.54
489.4568, 30853.85
489.9389, 30898.01
490.4210, 30944.82
490.9031, 31007.77
491.3853, 31088.07
491.8674, 31166.80
492.3495, 31241.49
492.8316, 31309.48
493.3137, 31358.79
493.7958, 31391.40
494.2780, 31430.07
494.7601, 31489.07
495.2422, 31562.49
495.7243, 31640.08
496.2064, 31722.46
496.6885, 31803.23
497.1707, 31882.45
497.6528, 31957.12
498.1349, 32022.03
498.6170, 32065.74
499.0992, 32114.83
499.5813, 32191.37
500.0634, 32284.95
500.5455, 32370.77
501.0276, 32431.21
501.5097, 32490.49
501.9919, 32560.69
502.4740, 32644.48
502.9561, 32722.93
503.4382, 32787.24
503.9203, 32852.08
504.4024, 32928.30
504.8846, 33019.37
505.3667, 33113.77
505.8488, 33214.37
506.3309, 33315.29
506.8130, 33404.71
507.2951, 33482.80
507.7773, 33548.21
508.2594, 33598.48
508.7415, 33634.79
509.2236, 33667.93
509.7057, 33698.75
510.1878, 33716.89
510.6700, 33704.76
511.1521, 33672.84
511.6342, 33649.74
512.1163, 33638.37
512.5984, 33643.13
513.0806, 33677.15
513.5627, 33730.50
514.0448, 33782.48
514.5269, 33826.27
515.0090, 33863.38
515.4911, 33892.23
515.9733, 33913.82
516.4554, 33934.99
516.9375, 33953.20
517.4196, 33975.26
517.9017, 34008.34
518.3839, 34065.47
518.8660, 34102.81
519.3481, 34093.02
519.8302, 34071.39
520.3123, 34076.09
520.7944, 34120.77
521.2766, 34167.64
521.7587, 34212.28
522.2408, 34255.32
522.7229, 34301.14
523.2050, 34352.23
523.6871, 34399.29
524.1693, 34432.01
524.6514, 34452.62
525.1335, 34496.26
525.6156, 34565.61
526.0977, 34642.91
526.5798, 34715.69
527.0620, 34783.04
527.5441, 34840.01
528.0262, 34881.84
528.5083, 34919.32
528.9904, 34957.27
529.4725, 34998.58
529.9547, 35050.76
530.4368, 35131.69
530.9189, 35211.98
531.4010, 35266.26
531.8831, 35294.79
532.3652, 35330.96
532.8474, 35403.11
533.3295, 35474.93
533.8116, 35522.89
534.2937, 35521.59
534.7758, 35535.09
535.2579, 35573.51
535.7401, 35623.85
536.2222, 35666.84
536.7043, 35703.10
537.1864, 35732.39
537.6685, 35747.61
538.1506, 35757.60
538.6328, 35808.21
539.1149, 35907.15
539.5970, 36004.62
540.0791, 36065.75
540.5612, 36098.88
541.0433, 36136.00
541.5255, 36177.74
542.0076, 36227.02
542.4897, 36285.84
542.9718, 36354.38
543.4539, 36436.38
543.9360, 36541.15
544.4182, 36641.84
544.9003, 36707.90
545.3824, 36752.39
545.8645, 36804.93
546.3466, 36886.97
546.8287, 36970.57
547.3109, 37040.59
547.7930, 37095.45
548.2751, 37154.60
548.7572, 37220.21
549.2393, 37291.74
549.7214, 37370.82
550.2036, 37469.26
550.6857, 37547.64
551.1678, 37595.09
551.6499, 37634.73
552.1320, 37701.86
552.6141, 37802.84
553.0963, 37893.13
553.5784, 37959.23
554.0605, 38011.42
554.5426, 38074.48
555.0247, 38148.31
555.5068, 38229.49
555.9890, 38314.16
556.4711, 38404.57
556.9532, 38511.99
557.4353, 38636.39
557.9174, 38746.80
558.3995, 38815.54
558.8817, 38858.16
559.3638, 38890.60
559.8459, 38914.61
560.3281, 38931.77
560.8102, 38940.20
561.2923, 38942.64
561.7744, 38943.50
562.2565, 38945.03
562.7386, 38943.53
563.2208, 38936.12
563.7029, 38924.48
564.1850, 38918.43
564.6671, 38917.04
565.1492, 38923.50
565.6313, 38939.53
566.1135, 38965.13
566.5956, 39000.57
567.0777, 39047.54
567.5598, 39097.29
568.0419, 39139.44
568.5240, 39175.54
569.0062, 39217.32
569.4883, 39268.23
569.9704, 39321.38
570.4525, 39365.82
570.9346, 39405.36
571.4167, 39447.50
571.8989, 39494.38
572.3810, 39547.34
572.8631, 39613.99
573.3452, 39690.81
573.8273, 39758.28
574.3094, 39795.17
574.7916, 39831.23
575.2737, 39883.64
575.7558, 39959.51
576.2379, 40034.02
576.7200, 40110.85
577.2021, 40181.57
577.6843, 40236.59
578.1664, 40266.15
578.6485, 40307.79
579.1306, 40368.83
579.6127, 40439.84
580.0948, 40503.68
580.5770, 40559.95
581.0591, 40616.60
581.5412, 40675.83
582.0233, 40737.33
582.5054, 40807.27
582.9875, 40882.19
583.4697, 40942.38
583.9518, 40955.72
584.4339, 40956.54
584.9160, 40982.22
585.3981, 41038.40
585.8802, 41106.76
586.3624, 41199.02
586.8445, 41288.91
587.3266, 41351.97
587.8087, 41347.13
588.2908, 41362.10
