##NAMES=Diopside
##RRUFFID=R060171
##IDEAL CHEMISTRY=CaMgSi_2_O_6_
##LOCALITY=Jeffrey mine, Asbestos, Quebec, Canada
##OWNER=RRUFF
##SOURCE=Guy Ouellet
##DESCRIPTION=Yellowish-brown tabular crystals associated with vesuvianite, R060170
##STATUS=The identification of this mineral has been confirmed by X-ray diffraction and chemical analysis
##URL=rruff.info/R060171
##MEASURED CHEMISTRY=Ca_1.00_(Mg_0.98_Mn_0.02_)_Î£=1_Si_2.00_O_6_
92.02539, 3529.568
92.50751, 3471.474
92.98962, 3469.563
93.47174, 3509.489
93.95386, 3576.703
94.43597, 3632.154
94.91809, 3665.536
95.40021, 3683.755
95.88232, 3694.911
96.36444, 3698.658
96.84656, 3695.994
97.32867, 3688.595
97.81078, 3678.402
98.29290, 3667.531
98.77502, 3655.263
99.25713, 3635.961
99.73925, 3616.538
100.2214, 3595.654
100.7035, 3577.077
101.1856, 3562.263
101.6677, 3550.938
102.1498, 3541.802
102.6320, 3533.203
103.1141, 3523.604
103.5962, 3518.762
104.0783, 3520.813
104.5604, 3526.195
105.0425, 3531.245
105.5247, 3534.872
106.0068, 3537.430
106.4889, 3538.491
106.9710, 3537.766
107.4531, 3536.634
107.9352, 3535.413
108.4173, 3534.069
108.8995, 3532.601
109.3816, 3529.721
109.8637, 3527.609
110.3458, 3528.541
110.8279, 3533.021
111.3100, 3539.374
111.7922, 3546.076
112.2743, 3553.527
112.7564, 3559.806
113.2385, 3565.579
113.7206, 3569.612
114.2027, 3570.466
114.6849, 3567.364
115.1670, 3561.028
115.6491, 3553.930
116.1312, 3543.097
116.6133, 3535.032
117.0954, 3532.340
117.5776, 3532.801
118.0597, 3532.909
118.5418, 3530.058
119.0239, 3524.142
119.5060, 3520.969
119.9881, 3521.990
120.4703, 3523.690
120.9524, 3524.722
121.4345, 3525.067
121.9166, 3525.482
122.3987, 3526.907
122.8808, 3529.552
123.3630, 3530.300
123.8451, 3527.175
124.3272, 3523.132
124.8093, 3521.306
125.2914, 3522.389
125.7735, 3524.303
126.2557, 3524.600
126.7378, 3523.626
127.2199, 3522.750
127.7020, 3522.502
128.1841, 3522.761
128.6662, 3523.165
129.1483, 3523.788
129.6305, 3524.412
130.1126, 3524.622
130.5947, 3524.519
131.0768, 3524.890
131.5589, 3526.737
132.0410, 3530.322
132.5232, 3533.308
133.0053, 3534.750
133.4874, 3535.985
133.9695, 3537.237
134.4516, 3538.714
134.9337, 3541.073
135.4159, 3545.574
135.8980, 3553.978
136.3801, 3561.296
136.8622, 3566.297
137.3443, 3570.795
137.8264, 3576.391
138.3086, 3583.684
138.7907, 3592.012
139.2728, 3599.405
139.7549, 3609.948
140.2370, 3614.632
140.7191, 3610.561
141.2013, 3600.578
141.6834, 3588.312
142.1655, 3575.349
142.6476, 3562.063
143.1297, 3550.309
143.6118, 3539.829
144.0939, 3530.759
144.5761, 3523.044
145.0582, 3516.766
145.5403, 3512.337
146.0224, 3510.769
146.5045, 3511.160
146.9866, 3510.392
147.4688, 3507.111
147.9509, 3503.667
148.4330, 3502.868
148.9151, 3505.226
149.3972, 3506.998
149.8793, 3504.324
150.3615, 3499.956
150.8436, 3497.422
151.3257, 3498.908
151.8078, 3502.534
152.2899, 3503.765
152.7720, 3500.910
153.2542, 3498.585
153.7363, 3499.315
154.2184, 3501.612
154.7005, 3503.166
155.1826, 3502.297
155.6647, 3499.305
156.1469, 3497.352
156.6290, 3497.120
157.1111, 3497.400
157.5932, 3498.387
158.0753, 3499.666
158.5574, 3500.422
159.0396, 3499.804
159.5217, 3497.505
160.0038, 3496.672
160.4859, 3498.378
160.9680, 3500.355
161.4501, 3501.363
161.9323, 3501.586
162.4144, 3502.288
162.8965, 3504.951
163.3786, 3510.443
163.8607, 3514.004
164.3428, 3515.528
164.8250, 3515.435
165.3071, 3513.665
165.7892, 3510.293
166.2713, 3506.059
166.7534, 3501.396
167.2355, 3496.059
167.7177, 3492.635
168.1998, 3493.212
168.6819, 3495.226
169.1640, 3495.346
169.6461, 3492.746
170.1282, 3488.784
170.6104, 3484.646
171.0925, 3480.354
171.5746, 3476.629
172.0567, 3473.758
172.5388, 3471.676
173.0209, 3470.186
173.5031, 3469.195
173.9852, 3468.977
174.4673, 3469.917
174.9494, 3471.893
175.4315, 3473.777
175.9136, 3473.911
176.3958, 3472.426
176.8779, 3473.608
177.3600, 3481.487
177.8421, 3489.364
178.3242, 3492.968
178.8063, 3492.362
179.2885, 3490.709
179.7706, 3491.318
180.2527, 3494.740
180.7348, 3498.084
181.2169, 3503.909
181.6990, 3507.626
182.1812, 3506.027
182.6633, 3498.915
183.1454, 3488.946
183.6275, 3479.289
184.1096, 3468.426
184.5917, 3461.534
185.0738, 3460.406
185.5560, 3461.208
186.0381, 3461.185
186.5202, 3459.679
187.0023, 3458.078
187.4844, 3458.825
187.9665, 3464.368
188.4487, 3468.472
188.9308, 3469.749
189.4129, 3470.305
189.8950, 3471.923
190.3771, 3475.192
190.8592, 3479.825
191.3414, 3485.479
191.8235, 3493.297
192.3056, 3499.929
192.7877, 3504.923
193.2698, 3508.538
193.7519, 3511.153
194.2341, 3512.913
194.7162, 3513.666
195.1983, 3513.340
195.6804, 3513.113
196.1625, 3509.336
196.6446, 3499.660
197.1268, 3485.602
197.6089, 3469.899
198.0910, 3452.240
198.5731, 3435.301
199.0552, 3423.290
199.5373, 3416.487
200.0195, 3411.271
200.5016, 3405.808
200.9837, 3400.264
201.4658, 3395.571
201.9479, 3392.078
202.4300, 3389.574
202.9122, 3387.727
203.3943, 3386.548
203.8764, 3385.797
204.3585, 3385.669
204.8406, 3386.162
205.3227, 3385.804
205.8048, 3383.805
206.2870, 3381.096
206.7691, 3378.099
207.2512, 3374.892
207.7333, 3371.942
208.2154, 3369.922
208.6975, 3369.024
209.1797, 3367.899
209.6618, 3365.902
210.1439, 3363.877
210.6260, 3362.174
211.1081, 3360.887
211.5902, 3360.081
212.0724, 3360.123
212.5545, 3361.673
213.0366, 3361.985
213.5187, 3360.061
214.0008, 3357.532
214.4829, 3355.121
214.9651, 3353.078
215.4472, 3351.465
215.9293, 3350.400
216.4114, 3350.024
216.8935, 3349.974
217.3756, 3351.215
217.8578, 3352.081
218.3399, 3350.853
218.8220, 3347.424
219.3041, 3343.600
219.7862, 3342.272
220.2683, 3345.431
220.7505, 3347.356
221.2326, 3346.706
221.7147, 3345.803
222.1968, 3346.736
222.6789, 3349.890
223.1610, 3353.797
223.6432, 3356.260
224.1253, 3356.304
224.6074, 3356.766
225.0895, 3357.523
225.5716, 3358.744
226.0537, 3360.635
226.5358, 3363.236
227.0180, 3366.303
227.5001, 3369.475
227.9822, 3372.567
228.4643, 3376.428
228.9464, 3381.708
229.4285, 3387.500
229.9107, 3392.613
230.3928, 3396.751
230.8749, 3400.914
231.3570, 3406.617
231.8391, 3414.062
232.3212, 3420.855
232.8034, 3427.007
233.2855, 3432.164
233.7676, 3436.806
234.2497, 3441.509
234.7318, 3442.884
235.2139, 3435.543
235.6961, 3420.601
236.1782, 3403.758
236.6603, 3384.064
237.1424, 3364.031
237.6245, 3347.479
238.1066, 3335.098
238.5888, 3325.167
239.0709, 3316.285
239.5530, 3308.424
240.0351, 3302.036
240.5172, 3298.227
240.9993, 3295.776
241.4815, 3291.847
241.9636, 3285.142
242.4457, 3279.902
242.9278, 3281.063
243.4099, 3285.954
243.8920, 3289.068
244.3742, 3286.789
244.8563, 3281.354
245.3384, 3277.793
245.8205, 3276.387
246.3026, 3276.353
246.7847, 3277.460
247.2668, 3279.475
247.7490, 3282.237
248.2311, 3286.371
248.7132, 3290.868
249.1953, 3292.975
249.6774, 3291.356
250.1595, 3290.035
250.6417, 3290.506
251.1238, 3292.278
251.6059, 3294.959
252.0880, 3298.698
252.5701, 3302.844
253.0522, 3306.003
253.5344, 3308.645
254.0165, 3309.130
254.4986, 3306.829
254.9807, 3302.603
255.4628, 3297.265
255.9449, 3291.161
256.4271, 3284.250
256.9092, 3276.203
257.3913, 3266.292
257.8734, 3256.677
258.3555, 3247.473
258.8376, 3238.877
259.3198, 3230.797
259.8019, 3223.215
260.2840, 3216.673
260.7661, 3212.708
261.2482, 3213.756
261.7303, 3212.657
262.2125, 3207.098
262.6946, 3200.243
263.1767, 3194.573
263.6588, 3190.872
264.1409, 3188.525
264.6230, 3186.612
265.1052, 3185.934
265.5873, 3183.981
266.0694, 3179.792
266.5515, 3175.068
267.0336, 3170.897
267.5157, 3167.601
267.9979, 3164.989
268.4800, 3162.776
268.9621, 3160.831
269.4442, 3159.721
269.9263, 3160.831
270.4084, 3161.633
270.8906, 3160.462
271.3727, 3157.140
271.8548, 3152.555
272.3369, 3147.535
272.8190, 3141.421
273.3011, 3137.409
273.7833, 3136.754
274.2654, 3136.744
274.7475, 3136.022
275.2296, 3134.471
275.7117, 3132.661
276.1938, 3131.196
276.6760, 3130.248
277.1581, 3128.565
277.6402, 3125.755
278.1223, 3122.758
278.6044, 3119.308
279.0865, 3115.887
279.5686, 3113.879
280.0508, 3114.627
280.5329, 3118.213
281.0150, 3120.070
281.4971, 3118.707
281.9792, 3117.465
282.4613, 3118.295
282.9435, 3120.273
283.4256, 3121.059
283.9077, 3119.056
284.3898, 3114.555
284.8719, 3110.333
285.3540, 3106.029
285.8362, 3102.293
286.3183, 3099.288
286.8004, 3096.962
287.2825, 3095.311
287.7646, 3094.382
288.2467, 3093.976
288.7289, 3093.391
289.2110, 3092.486
289.6931, 3091.616
290.1752, 3091.233
290.6573, 3090.836
291.1394, 3089.440
291.6216, 3086.600
292.1037, 3083.347
292.5858, 3081.905
293.0679, 3083.797
293.5500, 3084.601
294.0321, 3082.831
294.5143, 3080.234
294.9964, 3078.775
295.4785, 3078.981
295.9606, 3080.062
296.4427, 3080.936
296.9248, 3081.478
297.4070, 3082.216
297.8891, 3082.731
298.3712, 3083.705
298.8533, 3086.112
299.3354, 3089.975
299.8175, 3093.954
300.2997, 3096.577
300.7818, 3097.524
301.2639, 3099.287
301.7460, 3101.924
302.2281, 3105.272
302.7102, 3109.827
303.1924, 3115.306
303.6745, 3120.176
304.1566, 3123.137
304.6387, 3124.256
305.1208, 3125.967
305.6029, 3126.964
306.0851, 3129.687
306.5672, 3135.817
307.0493, 3144.790
307.5314, 3154.955
308.0135, 3165.667
308.4956, 3176.632
308.9778, 3186.386
309.4599, 3194.455
309.9420, 3202.178
310.4241, 3210.703
310.9062, 3219.120
311.3883, 3225.543
311.8705, 3229.148
312.3526, 3230.476
312.8347, 3230.341
313.3168, 3228.305
313.7989, 3226.167
314.2810, 3222.553
314.7632, 3219.631
315.2453, 3220.161
315.7274, 3224.903
316.2095, 3233.115
316.6916, 3244.097
317.1737, 3258.128
317.6559, 3274.329
318.1380, 3291.012
318.6201, 3310.821
319.1022, 3337.325
319.5843, 3370.777
320.0664, 3406.592
320.5485, 3441.119
321.0306, 3474.043
321.5128, 3505.423
321.9949, 3539.197
322.4770, 3568.388
322.9591, 3591.644
323.4412, 3607.332
323.9233, 3610.115
324.4055, 3596.056
324.8876, 3565.458
325.3697, 3525.012
325.8518, 3469.201
326.3339, 3411.155
326.8160, 3351.759
327.2982, 3293.723
327.7803, 3242.332
328.2624, 3200.297
328.7445, 3165.694
329.2266, 3133.572
329.7087, 3102.515
330.1909, 3075.837
330.6730, 3055.950
331.1551, 3040.277
331.6372, 3025.694
332.1193, 3011.302
332.6014, 2997.602
333.0836, 2985.116
333.5657, 2973.698
334.0478, 2964.581
334.5299, 2959.250
335.0120, 2955.348
335.4941, 2951.118
335.9763, 2946.316
336.4584, 2941.266
336.9405, 2936.158
337.4226, 2930.922
337.9047, 2926.882
338.3868, 2924.648
338.8690, 2922.836
339.3511, 2920.953
339.8332, 2918.908
340.3153, 2916.640
340.7974, 2914.110
341.2795, 2911.335
341.7617, 2908.412
342.2438, 2904.253
342.7259, 2901.253
343.2080, 2900.865
343.6901, 2901.762
344.1722, 2901.787
344.6544, 2900.027
345.1365, 2897.582
345.6186, 2896.754
346.1007, 2899.296
346.5828, 2900.892
347.0649, 2899.935
347.5471, 2898.948
348.0292, 2900.623
348.5113, 2905.234
348.9934, 2910.534
349.4755, 2913.667
349.9576, 2913.788
350.4398, 2915.273
350.9219, 2917.346
351.4040, 2921.179
351.8861, 2928.159
352.3682, 2937.556
352.8503, 2947.420
353.3325, 2956.339
353.8146, 2964.291
354.2967, 2971.265
354.7788, 2978.175
355.2609, 2983.036
355.7430, 2986.098
356.2252, 2986.655
356.7073, 2983.827
357.1894, 2977.180
357.6715, 2966.929
358.1536, 2953.272
358.6357, 2932.622
359.1179, 2913.972
359.5999, 2897.731
360.0821, 2883.374
360.5642, 2870.590
361.0463, 2859.246
361.5284, 2849.503
362.0105, 2841.606
362.4926, 2835.895
362.9748, 2830.826
363.4569, 2827.618
363.9390, 2823.913
364.4211, 2817.957
364.9032, 2810.509
365.3853, 2803.784
365.8675, 2799.449
366.3496, 2797.325
366.8317, 2795.740
367.3138, 2794.926
367.7959, 2794.397
368.2780, 2793.756
368.7602, 2793.409
369.2423, 2794.184
369.7244, 2796.496
370.2065, 2799.161
370.6886, 2799.617
371.1707, 2796.770
371.6529, 2794.425
372.1350, 2793.027
372.6171, 2792.312
373.0992, 2792.634
373.5813, 2793.803
374.0634, 2794.518
374.5456, 2792.746
375.0277, 2788.277
375.5098, 2786.004
375.9919, 2787.227
376.4740, 2789.556
376.9561, 2792.586
377.4383, 2795.814
377.9204, 2798.110
378.4025, 2798.273
378.8846, 2797.391
379.3667, 2798.397
379.8488, 2801.370
380.3310, 2806.098
380.8131, 2813.748
381.2952, 2822.506
381.7773, 2830.332
382.2594, 2836.443
382.7415, 2842.818
383.2237, 2851.329
383.7058, 2861.981
384.1879, 2874.474
384.6700, 2888.899
385.1521, 2905.212
385.6342, 2923.603
386.1164, 2943.838
386.5985, 2964.425
387.0806, 2984.040
387.5627, 3003.276
388.0448, 3024.791
388.5269, 3050.192
389.0091, 3072.946
389.4912, 3088.302
389.9733, 3097.398
390.4554, 3101.690
390.9375, 3101.566
391.4196, 3096.640
391.9018, 3085.584
392.3839, 3068.749
392.8660, 3049.688
393.3481, 3029.767
393.8302, 3008.535
394.3123, 2984.954
394.7945, 2958.273
395.2766, 2931.922
395.7587, 2907.399
396.2408, 2884.072
396.7229, 2861.149
397.2050, 2838.230
397.6872, 2815.742
398.1693, 2793.350
398.6514, 2770.973
399.1335, 2752.640
399.6156, 2740.280
400.0977, 2730.415
400.5798, 2721.076
401.0620, 2712.066
401.5441, 2703.401
402.0262, 2695.099
402.5083, 2687.139
402.9904, 2679.634
403.4725, 2671.749
403.9547, 2665.242
404.4368, 2661.587
404.9189, 2659.062
405.4010, 2655.273
405.8831, 2649.551
406.3652, 2643.412
406.8474, 2639.163
407.3295, 2637.751
407.8116, 2635.628
408.2937, 2632.601
408.7758, 2629.146
409.2579, 2625.156
409.7401, 2620.917
410.2222, 2617.129
410.7043, 2614.329
411.1864, 2612.394
411.6685, 2610.116
412.1506, 2606.956
412.6328, 2604.133
413.1149, 2601.914
413.5970, 2600.088
414.0791, 2598.520
414.5612, 2597.144
415.0433, 2595.736
415.5255, 2593.944
416.0076, 2591.688
416.4897, 2589.294
416.9718, 2587.003
417.4539, 2584.385
417.9360, 2580.604
418.4182, 2576.148
418.9003, 2572.673
419.3824, 2571.611
419.8645, 2572.434
420.3466, 2572.882
420.8287, 2573.075
421.3109, 2572.569
421.7930, 2570.870
422.2751, 2568.553
422.7572, 2566.308
423.2393, 2564.390
423.7214, 2562.247
424.2036, 2558.796
424.6857, 2554.141
425.1678, 2550.883
425.6499, 2550.441
426.1320, 2550.554
426.6141, 2548.975
427.0963, 2545.926
427.5784, 2543.013
428.0605, 2541.082
428.5426, 2539.641
429.0247, 2537.850
429.5068, 2535.626
429.9890, 2533.752
430.4711, 2533.115
430.9532, 2533.109
431.4353, 2531.809
431.9174, 2528.336
432.3995, 2524.859
432.8817, 2522.673
433.3638, 2521.244
433.8459, 2519.300
434.3280, 2516.375
434.8101, 2513.305
435.2922, 2511.324
435.7744, 2510.766
436.2565, 2509.918
436.7386, 2508.618
437.2207, 2507.067
437.7028, 2505.643
438.1849, 2504.161
438.6671, 2501.771
439.1492, 2497.718
439.6313, 2492.475
440.1134, 2488.928
440.5955, 2488.943
441.0776, 2488.388
441.5598, 2485.831
442.0418, 2483.027
442.5240, 2482.255
443.0061, 2483.911
443.4882, 2486.010
443.9703, 2485.927
444.4524, 2483.229
444.9345, 2480.433
445.4167, 2476.460
445.8988, 2473.489
446.3809, 2473.098
446.8630, 2474.234
447.3451, 2474.904
447.8272, 2473.998
448.3094, 2471.865
448.7915, 2469.016
449.2736, 2464.609
449.7557, 2461.860
450.2378, 2463.341
450.7199, 2465.543
451.2021, 2465.791
451.6842, 2463.859
452.1663, 2461.741
452.6484, 2461.474
453.1305, 2462.453
453.6126, 2461.683
454.0948, 2458.153
454.5769, 2454.901
455.0590, 2454.555
455.5411, 2455.865
456.0232, 2456.704
456.5053, 2456.238
456.9875, 2455.705
457.4696, 2456.205
457.9517, 2457.568
458.4338, 2459.071
458.9159, 2460.566
459.3980, 2461.927
459.8802, 2462.848
460.3623, 2463.272
460.8444, 2463.885
461.3265, 2465.495
461.8086, 2466.853
462.2907, 2466.778
462.7729, 2465.280
463.2550, 2463.033
463.7371, 2460.401
464.2192, 2457.432
464.7013, 2454.335
465.1834, 2452.375
465.6656, 2448.701
466.1477, 2441.291
466.6298, 2432.739
467.1119, 2425.719
467.5940, 2420.879
468.0761, 2417.490
468.5583, 2414.969
469.0404, 2413.691
469.5225, 2410.707
470.0046, 2404.015
470.4867, 2397.672
470.9688, 2392.681
471.4510, 2388.921
471.9331, 2386.259
472.4152, 2384.715
472.8973, 2383.652
473.3794, 2381.743
473.8615, 2378.672
474.3437, 2376.078
474.8258, 2374.801
475.3079, 2373.654
475.7900, 2372.184
476.2721, 2370.266
476.7542, 2367.532
477.2364, 2363.339
477.7185, 2358.274
478.2006, 2353.375
478.6827, 2348.535
479.1648, 2344.734
479.6469, 2342.930
480.1291, 2342.358
480.6112, 2341.653
481.0933, 2340.865
481.5754, 2339.697
482.0575, 2338.042
482.5396, 2335.905
483.0217, 2333.033
483.5038, 2329.330
483.9860, 2325.817
484.4681, 2323.564
484.9502, 2322.638
485.4323, 2321.209
485.9144, 2318.481
486.3965, 2316.113
486.8787, 2315.128
487.3608, 2314.918
487.8429, 2314.362
488.3250, 2313.004
488.8071, 2311.187
489.2892, 2309.567
489.7714, 2308.430
490.2535, 2306.706
490.7356, 2303.074
491.2177, 2300.168
491.6998, 2300.125
492.1819, 2301.952
492.6641, 2303.034
493.1462, 2301.609
493.6283, 2298.588
494.1104, 2296.672
494.5925, 2296.265
495.0746, 2295.882
495.5568, 2295.534
496.0389, 2294.841
496.5210, 2293.237
497.0031, 2290.798
497.4852, 2288.579
497.9673, 2287.244
498.4495, 2286.703
498.9316, 2286.986
499.4137, 2288.342
499.8958, 2289.331
500.3779, 2288.980
500.8600, 2287.726
501.3422, 2286.309
501.8243, 2284.015
502.3064, 2283.193
502.7885, 2285.947
503.2706, 2290.727
503.7527, 2294.562
504.2349, 2296.788
504.7170, 2299.273
505.1991, 2304.069
505.6812, 2311.397
506.1633, 2317.262
506.6454, 2321.129
507.1276, 2324.320
507.6097, 2328.646
508.0918, 2332.247
508.5739, 2332.047
509.0560, 2326.957
509.5381, 2318.627
510.0203, 2309.378
510.5024, 2298.583
510.9845, 2289.002
511.4666, 2280.183
511.9487, 2273.066
512.4308, 2269.331
512.9130, 2267.414
513.3951, 2264.159
513.8772, 2257.658
514.3593, 2249.946
514.8414, 2245.201
515.3235, 2243.970
515.8057, 2241.264
516.2878, 2234.657
516.7699, 2227.462
517.2520, 2222.618
517.7341, 2219.862
518.2162, 2217.124
518.6984, 2213.254
519.1805, 2209.065
519.6626, 2205.736
520.1447, 2203.210
520.6268, 2200.387
521.1089, 2196.524
521.5911, 2192.308
522.0732, 2189.402
522.5553, 2187.872
523.0374, 2187.074
523.5195, 2188.096
524.0016, 2188.988
524.4838, 2187.486
524.9659, 2183.929
525.4480, 2180.714
525.9301, 2179.638
526.4122, 2180.265
526.8943, 2180.350
527.3765, 2179.841
527.8586, 2178.802
528.3407, 2176.995
528.8228, 2174.866
529.3049, 2172.732
529.7870, 2170.653
530.2692, 2168.597
530.7513, 2166.765
531.2334, 2164.968
531.7155, 2161.842
532.1976, 2156.816
532.6797, 2151.822
533.1619, 2147.087
533.6440, 2143.113
534.1261, 2140.781
534.6082, 2140.444
535.0903, 2140.011
535.5724, 2138.224
536.0546, 2135.349
536.5367, 2131.452
537.0188, 2126.400
537.5009, 2122.257
537.9830, 2120.903
538.4651, 2121.772
538.9473, 2121.565
539.4294, 2119.585
539.9115, 2117.496
540.3936, 2115.390
540.8757, 2113.583
541.3578, 2112.580
541.8400, 2112.420
542.3221, 2112.643
542.8042, 2112.938
543.2863, 2113.330
543.7684, 2112.320
544.2505, 2107.736
544.7326, 2104.385
545.2147, 2104.397
545.6968, 2105.497
546.1790, 2104.765
546.6611, 2101.602
547.1432, 2098.577
547.6253, 2099.139
548.1074, 2102.870
548.5895, 2104.593
549.0717, 2103.153
549.5538, 2101.763
550.0359, 2102.111
550.5180, 2103.797
551.0001, 2106.531
551.4822, 2110.608
551.9644, 2114.851
552.4465, 2117.911
552.9286, 2120.734
553.4107, 2125.329
553.8928, 2132.091
554.3749, 2140.182
554.8571, 2149.041
555.3392, 2158.665
555.8213, 2168.012
556.3034, 2177.480
556.7855, 2186.225
557.2676, 2194.925
557.7498, 2202.413
558.2319, 2207.488
558.7140, 2209.790
559.1961, 2209.302
559.6782, 2206.244
560.1603, 2200.677
560.6425, 2190.236
561.1246, 2171.842
561.6067, 2153.035
562.0888, 2134.551
562.5709, 2117.705
563.0530, 2104.281
563.5352, 2094.829
564.0173, 2086.696
564.4994, 2077.362
564.9815, 2067.521
565.4636, 2059.666
565.9457, 2054.249
566.4279, 2049.458
566.9100, 2043.651
567.3921, 2037.662
567.8742, 2034.207
568.3563, 2034.884
568.8384, 2035.402
569.3206, 2033.903
569.8027, 2031.652
570.2848, 2030.905
570.7669, 2031.595
571.2490, 2030.686
571.7311, 2025.241
572.2133, 2015.774
572.6954, 2008.158
573.1775, 2002.871
573.6596, 1998.915
574.1417, 1996.283
574.6238, 1994.757
575.1060, 1994.813
575.5881, 1996.112
576.0702, 1996.799
576.5523, 1994.940
577.0344, 1991.274
577.5165, 1988.598
577.9987, 1987.139
578.4808, 1985.706
578.9629, 1983.854
579.4450, 1981.736
579.9271, 1979.393
580.4092, 1976.688
580.8914, 1974.758
581.3735, 1975.025
581.8556, 1975.662
582.3377, 1974.335
582.8198, 1971.215
583.3019, 1968.113
583.7841, 1966.006
584.2662, 1964.763
584.7483, 1964.042
585.2304, 1964.203
585.7125, 1964.302
586.1946, 1965.182
586.6768, 1965.260
587.1589, 1962.942
587.6410, 1958.970
