##NAMES=Diopside
##RRUFFID=R060085
##IDEAL CHEMISTRY=CaMgSi_2_O_6_
##LOCALITY=Tyrol, Austria
##OWNER=RRUFF
##SOURCE=University of Arizona Mineral Museum
##DESCRIPTION=Brownish-green massive
##STATUS=The identification of this mineral has been confirmed by X-ray diffraction and chemical analysis
##URL=rruff.info/R060085
##MEASURED CHEMISTRY=(Ca_0.97_Na_0.03_)_Σ=1_(Mg_0.79_Fe^2+^_0.10_Fe^3+^_0.04_Al_0.04_Ti_0.02_Cr_0.01_)_Σ=1_(Si_1.90_Al_0.10_)_Σ=2_O_6_
93.74609, 45.87033
94.22821, 43.88179
94.71033, 44.87455
95.19244, 48.35718
95.67456, 52.56211
96.15668, 56.95124
96.63879, 61.55287
97.12091, 66.42796
97.60303, 71.54900
98.08514, 77.16358
98.56726, 83.48180
99.04938, 90.52608
99.53149, 98.35545
100.0136, 106.9818
100.4957, 116.3652
100.9778, 126.4419
101.4600, 137.1329
101.9421, 148.5069
102.4242, 160.4228
102.9063, 172.9519
103.3884, 186.0685
103.8705, 199.8191
104.3527, 214.8508
104.8348, 229.0022
105.3169, 242.1180
105.7990, 254.2264
106.2811, 266.4790
106.7632, 279.0640
107.2454, 291.4870
107.7275, 303.1383
108.2096, 313.4423
108.6917, 323.9886
109.1738, 334.9236
109.6559, 346.3232
110.1381, 358.3049
110.6202, 370.4081
111.1023, 383.3853
111.5844, 397.9716
112.0665, 415.1903
112.5486, 433.2456
113.0308, 451.6909
113.5129, 470.4760
113.9950, 490.4504
114.4771, 512.9484
114.9592, 536.3932
115.4413, 558.8361
115.9235, 579.0834
116.4056, 598.6578
116.8877, 618.0624
117.3698, 638.1006
117.8519, 657.1273
118.3340, 674.4928
118.8162, 690.4345
119.2983, 705.4553
119.7804, 719.7079
120.2625, 733.3676
120.7446, 746.4742
121.2267, 759.2369
121.7089, 771.3562
122.1910, 782.6630
122.6731, 793.1713
123.1552, 802.9472
123.6373, 810.8134
124.1194, 818.2557
124.6016, 827.3214
125.0837, 839.1852
125.5658, 852.3699
126.0479, 865.5090
126.5300, 878.6060
127.0121, 891.7392
127.4943, 904.4362
127.9764, 917.1166
128.4585, 931.1334
128.9406, 947.3421
129.4227, 965.0276
129.9048, 982.9601
130.3869, 1001.176
130.8691, 1019.353
131.3512, 1037.344
131.8333, 1051.634
132.3154, 1059.764
132.7975, 1065.197
133.2796, 1069.764
133.7618, 1075.170
134.2439, 1081.824
134.7260, 1088.519
135.2081, 1092.965
135.6902, 1095.175
136.1723, 1097.334
136.6545, 1100.832
137.1366, 1105.661
137.6187, 1109.785
138.1008, 1113.047
138.5829, 1115.643
139.0650, 1118.292
139.5472, 1121.230
140.0293, 1123.266
140.5114, 1123.403
140.9935, 1121.123
141.4756, 1119.092
141.9577, 1117.405
142.4399, 1116.055
142.9220, 1115.286
143.4041, 1115.356
143.8862, 1115.495
144.3683, 1115.076
144.8504, 1113.676
145.3326, 1112.714
145.8147, 1112.478
146.2968, 1112.946
146.7789, 1113.495
147.2610, 1114.144
147.7431, 1114.924
148.2253, 1115.906
148.7074, 1117.515
149.1895, 1118.772
149.6716, 1119.261
150.1537, 1118.805
150.6358, 1119.154
151.1180, 1120.896
151.6001, 1123.150
152.0822, 1124.970
152.5643, 1126.030
153.0464, 1126.937
153.5285, 1127.902
154.0107, 1129.088
154.4928, 1129.551
154.9749, 1128.647
155.4570, 1127.148
155.9391, 1126.038
156.4212, 1125.870
156.9034, 1125.717
157.3855, 1125.214
157.8676, 1124.147
158.3497, 1123.377
158.8318, 1123.065
159.3139, 1123.183
159.7961, 1123.661
160.2782, 1124.791
160.7603, 1126.080
161.2424, 1127.259
161.7245, 1128.131
162.2066, 1129.272
162.6888, 1130.828
163.1709, 1132.777
163.6530, 1135.079
164.1351, 1138.331
164.6172, 1141.516
165.0993, 1143.857
165.5815, 1144.653
166.0636, 1145.489
166.5457, 1147.277
167.0278, 1149.734
167.5099, 1152.030
167.9921, 1153.806
168.4742, 1155.186
168.9563, 1156.249
169.4384, 1156.798
169.9205, 1157.334
170.4026, 1158.441
170.8848, 1159.948
171.3669, 1161.068
171.8490, 1161.033
172.3311, 1160.478
172.8132, 1160.141
173.2953, 1160.219
173.7775, 1160.662
174.2596, 1161.637
174.7417, 1163.082
175.2238, 1164.439
175.7059, 1165.352
176.1880, 1165.906
176.6702, 1166.173
177.1523, 1165.565
177.6344, 1165.114
178.1165, 1166.448
178.5986, 1169.486
179.0807, 1172.534
179.5629, 1173.982
180.0450, 1174.380
180.5271, 1174.991
181.0092, 1176.255
181.4913, 1177.977
181.9734, 1180.031
182.4556, 1182.421
182.9377, 1184.530
183.4198, 1185.479
183.9019, 1185.577
184.3840, 1185.937
184.8661, 1187.417
185.3483, 1189.364
185.8304, 1190.091
186.3125, 1189.482
186.7946, 1188.603
187.2767, 1188.719
187.7588, 1189.677
188.2409, 1190.537
188.7231, 1190.689
189.2052, 1190.447
189.6873, 1191.095
190.1694, 1192.807
190.6515, 1194.723
191.1336, 1195.647
191.6158, 1195.665
192.0979, 1195.788
192.5800, 1196.510
193.0621, 1197.748
193.5442, 1198.979
194.0263, 1200.251
194.5085, 1201.414
194.9906, 1202.147
195.4727, 1202.440
195.9548, 1202.795
196.4369, 1203.271
196.9190, 1203.883
197.4012, 1205.046
197.8833, 1206.700
198.3654, 1208.989
198.8475, 1212.975
199.3296, 1219.014
199.8117, 1223.024
200.2939, 1222.188
200.7760, 1216.430
201.2581, 1212.398
201.7402, 1210.406
202.2223, 1209.780
202.7044, 1209.366
203.1866, 1209.102
203.6687, 1209.445
204.1508, 1211.194
204.6329, 1214.662
205.1150, 1215.846
205.5971, 1213.904
206.0793, 1210.678
206.5614, 1209.842
207.0435, 1211.879
207.5256, 1214.454
208.0077, 1216.648
208.4898, 1218.459
208.9720, 1219.795
209.4541, 1220.367
209.9362, 1220.708
210.4183, 1222.116
210.9004, 1224.982
211.3825, 1227.684
211.8647, 1229.413
212.3468, 1229.900
212.8289, 1230.514
213.3110, 1231.147
213.7931, 1231.986
214.2752, 1233.621
214.7574, 1236.533
215.2395, 1239.118
215.7216, 1240.444
216.2037, 1239.896
216.6858, 1240.508
217.1679, 1242.931
217.6501, 1246.179
218.1322, 1247.664
218.6143, 1246.452
219.0964, 1245.471
219.5785, 1246.317
220.0606, 1250.018
220.5428, 1252.204
221.0249, 1252.184
221.5070, 1250.948
221.9891, 1250.875
222.4712, 1252.405
222.9533, 1254.268
223.4355, 1255.888
223.9176, 1257.172
224.3997, 1258.529
224.8818, 1260.024
225.3639, 1261.562
225.8460, 1262.931
226.3282, 1263.972
226.8103, 1265.113
227.2924, 1266.645
227.7745, 1269.110
228.2566, 1270.503
228.7387, 1270.286
229.2209, 1269.240
229.7030, 1269.255
230.1851, 1271.030
230.6672, 1272.771
231.1493, 1273.663
231.6314, 1273.201
232.1136, 1273.367
232.5957, 1274.646
233.0778, 1276.355
233.5599, 1276.872
234.0420, 1275.479
234.5241, 1274.045
235.0063, 1273.268
235.4884, 1273.250
235.9705, 1273.635
236.4526, 1274.828
236.9347, 1276.223
237.4168, 1276.376
237.8990, 1274.019
238.3811, 1272.417
238.8632, 1273.120
239.3453, 1277.408
239.8274, 1280.033
240.3095, 1280.309
240.7917, 1279.301
241.2738, 1279.010
241.7559, 1279.771
242.2380, 1280.724
242.7201, 1281.597
243.2022, 1282.397
243.6844, 1283.156
244.1665, 1283.882
244.6486, 1284.594
245.1307, 1285.283
245.6128, 1285.829
246.0949, 1286.578
246.5771, 1287.756
247.0592, 1289.615
247.5413, 1290.822
248.0234, 1290.984
248.5055, 1290.729
248.9876, 1291.031
249.4697, 1292.094
249.9519, 1293.315
250.4340, 1294.568
250.9161, 1295.899
251.3982, 1297.023
251.8803, 1297.872
252.3624, 1298.576
252.8446, 1299.256
253.3267, 1299.794
253.8088, 1300.596
254.2909, 1301.895
254.7730, 1303.824
255.2551, 1305.337
255.7373, 1306.378
256.2194, 1307.066
256.7015, 1307.448
257.1836, 1307.262
257.6657, 1307.305
258.1479, 1307.844
258.6300, 1308.902
259.1121, 1309.657
259.5942, 1310.039
260.0763, 1310.148
260.5584, 1310.044
261.0406, 1309.573
261.5227, 1309.282
262.0048, 1309.414
262.4869, 1309.959
262.9690, 1309.994
263.4511, 1309.230
263.9333, 1308.421
264.4154, 1308.373
264.8975, 1309.435
265.3796, 1310.286
265.8617, 1310.713
266.3438, 1310.751
266.8260, 1310.591
267.3081, 1310.118
267.7902, 1309.701
268.2723, 1309.702
268.7544, 1310.243
269.2365, 1310.708
269.7187, 1310.786
270.2008, 1310.702
270.6829, 1311.895
271.1650, 1314.812
271.6471, 1317.905
272.1292, 1319.851
272.6114, 1320.411
273.0935, 1321.091
273.5756, 1322.036
274.0577, 1323.192
274.5398, 1324.385
275.0219, 1325.514
275.5041, 1326.883
275.9862, 1328.625
276.4683, 1330.707
276.9504, 1333.604
277.4325, 1338.093
277.9146, 1342.759
278.3968, 1343.320
278.8788, 1338.989
279.3610, 1334.691
279.8431, 1333.553
280.3252, 1335.721
280.8073, 1338.015
281.2894, 1340.609
281.7715, 1342.807
282.2537, 1342.747
282.7358, 1340.189
283.2179, 1338.010
283.7000, 1337.764
284.1821, 1339.379
284.6642, 1341.305
285.1464, 1343.670
285.6285, 1345.884
286.1106, 1346.488
286.5927, 1345.441
287.0748, 1345.389
287.5569, 1348.537
288.0391, 1354.120
288.5212, 1356.422
289.0033, 1354.866
289.4854, 1352.542
289.9675, 1353.798
290.4496, 1358.308
290.9318, 1362.144
291.4139, 1363.600
291.8960, 1363.354
292.3781, 1363.615
292.8602, 1364.446
293.3423, 1365.337
293.8245, 1365.498
294.3066, 1365.172
294.7887, 1365.539
295.2708, 1367.276
295.7529, 1369.738
296.2350, 1371.674
296.7172, 1373.068
297.1993, 1374.048
297.6814, 1374.368
298.1635, 1374.326
298.6456, 1374.792
299.1277, 1376.072
299.6099, 1377.879
300.0920, 1380.049
300.5741, 1382.521
301.0562, 1384.538
301.5383, 1385.458
302.0204, 1385.619
302.5026, 1385.340
302.9847, 1384.104
303.4668, 1383.685
303.9489, 1387.104
304.4310, 1393.353
304.9131, 1398.957
305.3953, 1401.108
305.8774, 1401.588
306.3595, 1402.659
306.8416, 1404.707
307.3237, 1406.932
307.8058, 1408.488
308.2880, 1409.643
308.7701, 1411.016
309.2522, 1412.912
309.7343, 1415.177
310.2164, 1417.786
310.6985, 1420.814
311.1807, 1423.807
311.6628, 1426.791
312.1449, 1429.548
312.6270, 1431.648
313.1091, 1432.264
313.5912, 1432.746
314.0734, 1433.802
314.5555, 1435.472
315.0376, 1437.877
315.5197, 1441.623
316.0018, 1445.949
316.4839, 1449.967
316.9661, 1452.996
317.4482, 1456.045
317.9303, 1459.427
318.4124, 1463.115
318.8945, 1467.162
319.3766, 1471.761
319.8588, 1476.566
320.3409, 1481.295
320.8230, 1486.295
321.3051, 1490.706
321.7872, 1494.333
322.2693, 1497.198
322.7515, 1499.366
323.2336, 1499.651
323.7157, 1500.153
324.1978, 1502.220
324.6799, 1507.919
325.1620, 1511.369
325.6442, 1510.646
326.1263, 1507.344
326.6084, 1504.276
327.0905, 1501.282
327.5726, 1498.981
328.0547, 1498.001
328.5369, 1499.376
329.0190, 1498.756
329.5011, 1494.657
329.9832, 1489.205
330.4653, 1484.786
330.9474, 1482.102
331.4296, 1479.622
331.9117, 1477.256
332.3938, 1475.062
332.8759, 1472.187
333.3580, 1467.878
333.8401, 1463.584
334.3223, 1460.574
334.8044, 1459.538
335.2865, 1458.310
335.7686, 1456.437
336.2507, 1454.106
336.7328, 1452.523
337.2150, 1451.857
337.6971, 1451.538
338.1792, 1451.271
338.6613, 1451.094
339.1434, 1450.685
339.6255, 1449.903
340.1077, 1448.951
340.5898, 1448.236
341.0719, 1447.758
341.5540, 1447.574
342.0361, 1447.964
342.5182, 1448.994
343.0004, 1449.080
343.4825, 1447.918
343.9646, 1446.607
344.4467, 1446.999
344.9288, 1449.117
345.4109, 1450.988
345.8931, 1451.949
346.3752, 1452.119
346.8573, 1451.635
347.3394, 1450.384
347.8215, 1449.376
348.3036, 1449.857
348.7858, 1451.523
349.2679, 1452.922
349.7500, 1453.512
350.2321, 1453.777
350.7142, 1454.526
351.1964, 1455.730
351.6785, 1457.232
352.1606, 1459.283
352.6427, 1461.483
353.1248, 1463.015
353.6069, 1463.641
354.0891, 1463.964
354.5712, 1464.762
355.0533, 1465.836
355.5354, 1466.610
356.0175, 1466.144
356.4996, 1465.558
356.9818, 1466.279
357.4639, 1468.571
357.9460, 1470.824
358.4281, 1472.113
358.9102, 1472.599
359.3923, 1472.489
359.8745, 1470.737
360.3566, 1469.296
360.8387, 1469.620
361.3208, 1471.596
361.8029, 1473.623
362.2850, 1475.174
362.7672, 1476.342
363.2493, 1477.191
363.7314, 1477.370
364.2135, 1477.668
364.6956, 1478.245
365.1777, 1479.115
365.6599, 1480.323
366.1420, 1482.278
366.6241, 1484.281
367.1062, 1486.008
367.5883, 1487.484
368.0704, 1488.589
368.5526, 1488.603
369.0347, 1488.376
369.5168, 1489.228
369.9989, 1492.557
370.4810, 1495.532
370.9631, 1497.434
371.4453, 1498.095
371.9274, 1498.906
372.4095, 1500.187
372.8916, 1501.316
373.3737, 1501.675
373.8558, 1500.652
374.3380, 1500.087
374.8201, 1500.336
375.3022, 1501.259
375.7843, 1502.067
376.2664, 1502.806
376.7485, 1503.403
377.2307, 1503.665
377.7128, 1503.447
378.1949, 1504.000
378.6770, 1505.547
379.1591, 1507.742
379.6412, 1510.075
380.1234, 1512.645
380.6055, 1514.793
381.0876, 1515.718
381.5697, 1515.784
382.0518, 1517.897
382.5339, 1522.351
383.0161, 1527.067
383.4982, 1529.194
383.9803, 1529.280
384.4624, 1530.240
384.9445, 1533.078
385.4266, 1537.040
385.9088, 1541.214
386.3909, 1545.506
386.8730, 1549.323
387.3551, 1551.682
387.8372, 1553.407
388.3193, 1556.135
388.8015, 1560.458
389.2836, 1564.845
389.7657, 1567.771
390.2478, 1569.679
390.7299, 1571.520
391.2120, 1574.555
391.6942, 1577.243
392.1763, 1578.252
392.6584, 1577.460
393.1405, 1575.786
393.6226, 1573.250
394.1047, 1570.278
394.5869, 1567.357
395.0690, 1564.699
395.5511, 1562.068
396.0332, 1559.601
396.5153, 1557.188
396.9974, 1554.212
397.4796, 1550.114
397.9617, 1545.700
398.4438, 1541.338
398.9259, 1536.738
399.4080, 1532.782
399.8901, 1529.816
400.3723, 1527.509
400.8544, 1525.278
401.3365, 1523.118
401.8186, 1521.037
402.3007, 1519.013
402.7828, 1517.030
403.2649, 1515.265
403.7470, 1513.698
404.2292, 1512.353
404.7113, 1511.210
405.1934, 1510.107
405.6755, 1509.670
406.1576, 1510.244
406.6397, 1511.446
407.1219, 1511.797
407.6040, 1511.047
408.0861, 1510.350
408.5682, 1510.492
409.0503, 1511.438
409.5324, 1512.049
410.0146, 1512.227
410.4967, 1512.164
410.9788, 1512.203
411.4609, 1512.307
411.9430, 1512.069
412.4251, 1510.596
412.9073, 1508.983
413.3894, 1510.474
413.8715, 1515.001
414.3536, 1518.800
414.8357, 1517.730
415.3178, 1513.979
415.8000, 1511.755
416.2821, 1512.442
416.7642, 1514.038
417.2463, 1515.066
417.7284, 1515.535
418.2105, 1515.428
418.6927, 1514.395
419.1748, 1513.030
419.6569, 1511.560
420.1390, 1509.925
420.6211, 1508.970
421.1032, 1509.104
421.5854, 1510.104
422.0675, 1511.722
422.5496, 1515.144
423.0317, 1517.906
423.5138, 1518.938
423.9959, 1518.512
424.4781, 1518.471
424.9602, 1519.526
425.4423, 1520.684
425.9244, 1521.451
426.4065, 1521.515
426.8886, 1521.672
427.3708, 1521.640
427.8529, 1521.791
428.3350, 1522.790
428.8171, 1525.163
429.2992, 1527.407
429.7813, 1529.233
430.2635, 1530.628
430.7456, 1531.207
431.2277, 1530.566
431.7098, 1529.984
432.1919, 1530.803
432.6740, 1533.205
433.1562, 1534.768
433.6383, 1535.105
434.1204, 1534.602
434.6025, 1533.760
435.0846, 1532.593
435.5667, 1531.796
436.0489, 1532.035
436.5310, 1532.926
437.0131, 1533.206
437.4952, 1532.828
437.9773, 1532.333
438.4594, 1532.045
438.9416, 1532.060
439.4237, 1532.645
439.9058, 1534.396
440.3879, 1536.149
440.8700, 1536.765
441.3521, 1536.449
441.8343, 1535.894
442.3164, 1534.839
442.7985, 1534.109
443.2806, 1534.516
443.7627, 1536.421
444.2448, 1538.273
444.7270, 1539.475
445.2091, 1540.216
445.6912, 1540.709
446.1733, 1540.936
446.6554, 1540.938
447.1375, 1540.341
447.6197, 1539.252
448.1018, 1539.051
448.5839, 1540.443
449.0660, 1542.222
449.5481, 1543.879
450.0302, 1545.660
450.5124, 1546.847
450.9945, 1547.238
451.4766, 1547.201
451.9587, 1547.217
452.4408, 1547.108
452.9229, 1547.690
453.4051, 1549.601
453.8872, 1552.549
454.3693, 1553.944
454.8514, 1553.510
455.3335, 1552.766
455.8156, 1552.866
456.2978, 1553.752
456.7799, 1555.006
457.2620, 1556.676
457.7441, 1558.386
458.2262, 1559.481
458.7083, 1560.069
459.1905, 1560.763
459.6726, 1562.236
460.1547, 1563.789
460.6368, 1564.190
461.1189, 1563.471
461.6010, 1562.919
462.0832, 1563.792
462.5653, 1565.208
463.0474, 1566.169
463.5295, 1566.407
464.0116, 1566.242
464.4937, 1565.452
464.9759, 1564.429
465.4580, 1563.978
465.9401, 1564.604
466.4222, 1565.685
466.9043, 1567.336
467.3864, 1569.789
467.8686, 1571.091
468.3507, 1569.713
468.8328, 1567.926
469.3149, 1567.401
469.7970, 1569.199
470.2791, 1570.430
470.7613, 1570.585
471.2434, 1570.100
471.7255, 1570.208
472.2076, 1571.081
472.6897, 1572.051
473.1718, 1572.864
473.6540, 1573.511
474.1361, 1574.297
474.6182, 1575.288
475.1003, 1576.212
475.5824, 1576.943
476.0645, 1577.453
476.5467, 1577.237
477.0288, 1575.912
477.5109, 1574.360
477.9930, 1574.030
478.4751, 1574.767
478.9572, 1575.811
479.4394, 1577.274
479.9215, 1578.533
480.4036, 1578.288
480.8857, 1576.423
481.3678, 1575.245
481.8499, 1577.034
482.3321, 1580.052
482.8142, 1582.320
483.2963, 1582.739
483.7784, 1583.036
484.2605, 1584.269
484.7426, 1585.896
485.2248, 1586.562
485.7069, 1584.158
486.1890, 1582.387
486.6711, 1583.101
487.1532, 1587.275
487.6353, 1589.526
488.1175, 1588.543
488.5996, 1586.760
489.0817, 1586.159
489.5638, 1587.389
490.0459, 1588.184
490.5280, 1588.097
491.0102, 1587.583
491.4923, 1588.016
491.9744, 1589.675
492.4565, 1590.776
492.9386, 1590.194
493.4207, 1588.258
493.9029, 1587.279
494.3850, 1587.303
494.8671, 1587.726
495.3492, 1587.922
495.8313, 1588.075
496.3134, 1588.840
496.7956, 1590.665
497.2777, 1592.461
497.7598, 1592.829
498.2419, 1592.217
498.7240, 1591.713
499.2061, 1591.898
499.6883, 1592.367
500.1704, 1592.710
500.6525, 1592.929
501.1346, 1593.650
501.6167, 1595.414
502.0988, 1597.593
502.5810, 1599.735
503.0631, 1601.867
503.5452, 1603.819
504.0273, 1605.342
504.5094, 1606.691
504.9915, 1608.282
505.4737, 1610.298
505.9558, 1612.238
506.4379, 1613.951
506.9200, 1615.438
507.4021, 1616.919
507.8842, 1618.539
508.3664, 1619.813
508.8485, 1620.112
509.3306, 1619.392
509.8127, 1619.676
510.2948, 1621.279
510.7769, 1623.367
511.2591, 1624.913
511.7412, 1625.924
512.2233, 1626.365
512.7054, 1625.790
513.1875, 1625.018
513.6696, 1625.569
514.1517, 1627.190
514.6339, 1628.452
515.1160, 1628.294
515.5981, 1627.461
516.0802, 1626.559
516.5623, 1625.634
517.0444, 1624.914
517.5266, 1624.787
518.0087, 1624.822
518.4908, 1624.551
518.9729, 1623.266
519.4550, 1622.342
519.9371, 1622.568
520.4193, 1623.518
520.9014, 1623.324
521.3835, 1620.711
521.8656, 1618.609
522.3477, 1618.256
522.8298, 1619.936
523.3120, 1621.088
523.7941, 1621.617
524.2762, 1621.770
524.7583, 1621.382
525.2404, 1620.391
525.7225, 1620.974
526.2047, 1624.016
526.6868, 1627.701
527.1689, 1628.368
527.6510, 1626.463
528.1331, 1624.893
528.6152, 1625.615
529.0974, 1627.222
529.5795, 1627.634
530.0616, 1626.924
530.5437, 1626.139
531.0258, 1625.993
531.5079, 1626.099
531.9901, 1626.060
532.4722, 1625.709
532.9543, 1625.515
533.4364, 1625.883
533.9185, 1626.465
534.4006, 1626.793
534.8828, 1626.114
535.3649, 1625.912
535.8470, 1626.732
536.3291, 1628.362
536.8112, 1629.598
537.2933, 1630.303
537.7755, 1630.804
538.2576, 1631.252
538.7397, 1631.672
539.2218, 1631.666
539.7039, 1631.057
540.1860, 1630.471
540.6682, 1630.650
541.1503, 1631.534
541.6324, 1632.658
542.1145, 1634.139
542.5966, 1635.414
543.0787, 1635.203
543.5609, 1633.925
544.0430, 1633.120
544.5251, 1634.268
545.0072, 1635.848
545.4893, 1636.266
545.9714, 1635.556
546.4536, 1634.668
546.9357, 1633.918
547.4178, 1633.300
547.8999, 1632.743
548.3820, 1631.994
548.8641, 1631.832
549.3463, 1632.855
549.8284, 1634.371
550.3105, 1635.521
550.7926, 1636.782
551.2747, 1636.807
551.7568, 1634.487
552.2390, 1630.786
552.7211, 1630.213
553.2032, 1633.858
553.6853, 1637.303
554.1674, 1638.298
554.6495, 1637.021
555.1317, 1635.910
555.6138, 1635.036
556.0959, 1634.101
556.5780, 1632.690
557.0601, 1631.011
557.5422, 1629.527
558.0244, 1628.210
558.5065, 1627.464
558.9886, 1628.115
559.4707, 1629.617
559.9528, 1630.867
560.4349, 1630.719
560.9171, 1630.795
561.3992, 1632.348
561.8813, 1635.106
562.3634, 1637.127
562.8455, 1637.059
563.3276, 1636.806
563.8098, 1637.313
564.2919, 1638.795
564.7740, 1640.309
565.2561, 1642.126
565.7382, 1643.667
566.2203, 1644.277
566.7025, 1643.667
567.1846, 1643.278
567.6667, 1643.340
568.1488, 1643.646
568.6309, 1643.839
569.1130, 1643.924
569.5952, 1643.832
570.0773, 1643.303
570.5594, 1642.723
571.0415, 1642.994
571.5236, 1644.034
572.0057, 1644.936
572.4879, 1645.037
572.9700, 1644.743
573.4521, 1644.362
573.9342, 1643.865
574.4163, 1643.721
574.8984, 1644.647
575.3806, 1645.797
575.8627, 1646.318
576.3448, 1645.272
576.8269, 1644.475
577.3090, 1643.978
577.7911, 1643.853
578.2733, 1644.426
578.7554, 1646.319
579.2375, 1647.589
579.7196, 1647.527
580.2017, 1646.264
580.6838, 1644.895
581.1660, 1643.329
581.6481, 1642.215
582.1302, 1642.111
582.6123, 1642.896
583.0944, 1644.355
583.5765, 1646.614
584.0587, 1648.421
584.5408, 1647.814
585.0229, 1646.025
585.5050, 1645.295
585.9871, 1647.367
586.4692, 1648.976
586.9514, 1646.960
587.4335, 1643.130
587.9156, 1641.284
588.3977, 1644.270
588.8798, 1647.744
