##NAMES=Diopside
##RRUFFID=R040009
##IDEAL CHEMISTRY=CaMgSi_2_O_6_
##LOCALITY=Otter Lake, Quebec, Canada
##OWNER=RRUFF
##SOURCE=University of Arizona Mineral Museum
##DESCRIPTION=Green square prismatic crystal associated with pale orange calcite
##STATUS=The identification of this mineral has been confirmed by X-ray diffraction and chemical analysis
##URL=rruff.info/R040009
##MEASURED CHEMISTRY=(Ca_0.97_Fe_0.02_Na_0.01_)_Σ=1_(Mg_0.97_Fe_0.02_Al_0.01_)_Σ=1_Si_2.00_O_6_; trace amounts of Mn and Ti
113.3126, 2739.261
113.7947, 2746.424
114.2769, 2751.870
114.7590, 2754.953
115.2411, 2757.111
115.7232, 2758.148
116.2053, 2758.469
116.6874, 2759.150
117.1695, 2761.410
117.6517, 2765.832
118.1338, 2769.239
118.6159, 2770.895
119.0980, 2772.009
119.5801, 2773.723
120.0622, 2776.304
120.5444, 2778.971
121.0265, 2780.306
121.5086, 2780.234
121.9907, 2780.851
122.4728, 2782.717
122.9549, 2785.696
123.4371, 2789.570
123.9192, 2794.629
124.4013, 2800.177
124.8834, 2805.286
125.3655, 2809.929
125.8476, 2814.587
126.3298, 2819.761
126.8119, 2825.478
127.2940, 2830.960
127.7761, 2835.329
128.2582, 2839.758
128.7404, 2844.562
129.2225, 2849.832
129.7046, 2856.398
130.1867, 2865.938
130.6688, 2879.942
131.1509, 2894.430
131.6331, 2909.227
132.1152, 2923.985
132.5973, 2938.078
133.0794, 2951.078
133.5615, 2963.810
134.0436, 2979.514
134.5258, 2997.819
135.0079, 3019.831
135.4900, 3046.358
135.9721, 3076.758
136.4542, 3110.995
136.9363, 3149.897
137.4184, 3192.723
137.9006, 3227.183
138.3827, 3261.044
138.8648, 3282.343
139.3469, 3284.945
139.8290, 3269.338
140.3111, 3239.530
140.7933, 3194.735
141.2754, 3135.987
141.7575, 3079.699
142.2396, 3025.187
142.7217, 2974.419
143.2038, 2929.672
143.6860, 2890.940
144.1681, 2858.364
144.6502, 2834.455
145.1323, 2816.906
145.6144, 2801.820
146.0965, 2787.446
146.5787, 2774.380
147.0608, 2764.844
147.5429, 2761.289
148.0250, 2758.207
148.5071, 2751.775
148.9892, 2743.028
149.4714, 2734.898
149.9535, 2729.622
150.4356, 2727.309
150.9177, 2726.302
151.3998, 2729.028
151.8819, 2731.182
152.3641, 2730.583
152.8462, 2727.515
153.3283, 2724.075
153.8104, 2722.791
154.2925, 2724.776
154.7746, 2725.891
155.2568, 2725.599
155.7389, 2725.034
156.2210, 2724.721
156.7031, 2724.841
157.1852, 2725.455
157.6673, 2726.759
158.1495, 2730.129
158.6316, 2731.648
159.1137, 2729.044
159.5958, 2725.630
160.0779, 2724.929
160.5600, 2728.184
161.0422, 2733.744
161.5243, 2738.348
162.0064, 2741.686
162.4885, 2744.964
162.9706, 2748.636
163.4527, 2752.413
163.9349, 2755.738
164.4170, 2758.396
164.8991, 2760.469
165.3812, 2762.464
165.8633, 2764.939
166.3454, 2766.025
166.8276, 2764.941
167.3097, 2761.692
167.7918, 2755.883
168.2739, 2745.112
168.7560, 2733.269
169.2381, 2724.810
169.7203, 2720.464
170.2024, 2718.645
170.6845, 2718.162
171.1666, 2719.195
171.6487, 2720.537
172.1308, 2721.821
172.6130, 2723.218
173.0951, 2724.903
173.5772, 2726.945
174.0593, 2729.179
174.5414, 2731.170
175.0235, 2732.235
175.5057, 2734.553
175.9878, 2738.639
176.4699, 2743.855
176.9520, 2749.710
177.4341, 2755.977
177.9162, 2762.676
178.3984, 2769.906
178.8805, 2776.616
179.3626, 2785.466
179.8447, 2799.489
180.3268, 2815.024
180.8089, 2828.727
181.2911, 2838.920
181.7732, 2844.862
182.2553, 2841.766
182.7374, 2822.190
183.2195, 2801.846
183.7016, 2781.563
184.1838, 2762.661
184.6659, 2746.959
185.1480, 2735.542
185.6301, 2728.295
186.1122, 2724.231
186.5943, 2725.126
187.0765, 2726.573
187.5586, 2726.734
188.0407, 2725.960
188.5228, 2725.612
189.0049, 2726.558
189.4870, 2728.762
189.9692, 2731.355
190.4513, 2734.620
190.9334, 2737.979
191.4155, 2740.447
191.8976, 2742.146
192.3797, 2745.280
192.8619, 2752.016
193.3440, 2761.294
193.8261, 2769.897
194.3082, 2779.459
194.7903, 2786.896
195.2724, 2788.718
195.7546, 2784.625
196.2367, 2777.070
196.7188, 2764.961
197.2009, 2750.737
197.6830, 2737.363
198.1651, 2725.146
198.6473, 2714.683
199.1294, 2707.309
199.6115, 2703.975
200.0936, 2701.525
200.5757, 2699.350
201.0578, 2696.863
201.5400, 2693.041
202.0221, 2686.868
202.5042, 2679.426
202.9863, 2673.716
203.4684, 2669.754
203.9505, 2667.832
204.4327, 2668.990
204.9148, 2671.634
205.3969, 2673.492
205.8790, 2673.105
206.3611, 2671.067
206.8432, 2670.432
207.3254, 2672.222
207.8075, 2674.372
208.2896, 2675.983
208.7717, 2677.705
209.2538, 2680.820
209.7359, 2686.356
210.2181, 2693.864
210.7002, 2698.875
211.1823, 2700.345
211.6644, 2700.200
212.1465, 2697.636
212.6286, 2693.773
213.1108, 2690.351
213.5929, 2688.542
214.0750, 2688.240
214.5571, 2687.911
215.0392, 2686.606
215.5213, 2686.259
216.0035, 2688.090
216.4856, 2691.353
216.9677, 2694.224
217.4498, 2695.315
217.9319, 2694.904
218.4140, 2697.082
218.8961, 2704.077
219.3783, 2710.752
219.8604, 2714.614
220.3425, 2716.397
220.8246, 2718.578
221.3067, 2722.820
221.7888, 2728.842
222.2710, 2734.365
222.7531, 2738.367
223.2352, 2742.856
223.7173, 2748.099
224.1994, 2754.405
224.6815, 2763.398
225.1637, 2776.912
225.6458, 2793.788
226.1279, 2808.808
226.6100, 2820.068
227.0921, 2831.368
227.5742, 2846.211
228.0564, 2864.106
228.5385, 2880.972
229.0206, 2896.382
229.5027, 2907.950
229.9848, 2911.814
230.4669, 2906.400
230.9491, 2895.042
231.4312, 2878.741
231.9133, 2857.435
232.3954, 2836.558
232.8775, 2818.688
233.3596, 2802.845
233.8418, 2787.858
234.3239, 2773.562
234.8060, 2759.803
235.2881, 2746.312
235.7702, 2733.060
236.2523, 2720.348
236.7345, 2708.044
237.2166, 2696.600
237.6987, 2686.406
238.1808, 2677.434
238.6629, 2670.225
239.1451, 2665.766
239.6272, 2664.393
240.1093, 2663.954
240.5914, 2664.940
241.0735, 2666.030
241.5556, 2666.346
242.0378, 2665.677
242.5199, 2664.234
243.0020, 2662.134
243.4841, 2659.193
243.9662, 2656.246
244.4483, 2651.844
244.9305, 2648.473
245.4126, 2648.482
245.8947, 2652.213
246.3768, 2657.073
246.8589, 2659.352
247.3410, 2657.969
247.8232, 2657.345
248.3053, 2657.994
248.7874, 2659.390
249.2695, 2661.253
249.7516, 2663.543
250.2337, 2666.413
250.7159, 2670.117
251.1980, 2674.867
251.6801, 2679.997
252.1622, 2687.173
252.6443, 2693.469
253.1264, 2697.008
253.6086, 2697.690
254.0907, 2696.898
254.5728, 2696.627
255.0549, 2698.268
255.5370, 2695.879
256.0191, 2688.302
256.5013, 2678.424
256.9834, 2666.383
257.4655, 2653.050
257.9476, 2640.680
258.4297, 2631.900
258.9118, 2627.598
259.3940, 2623.263
259.8761, 2618.393
260.3582, 2613.893
260.8403, 2610.531
261.3224, 2608.109
261.8045, 2605.567
262.2867, 2601.673
262.7688, 2595.898
263.2509, 2592.660
263.7330, 2593.558
264.2151, 2594.938
264.6972, 2595.534
265.1794, 2595.156
265.6615, 2593.840
266.1436, 2591.466
266.6257, 2587.952
267.1078, 2585.482
267.5899, 2584.761
268.0721, 2584.147
268.5542, 2582.972
269.0363, 2581.316
269.5184, 2579.405
270.0005, 2577.226
270.4826, 2574.910
270.9648, 2574.483
271.4469, 2577.624
271.9290, 2580.450
272.4111, 2581.474
272.8932, 2581.048
273.3753, 2580.075
273.8575, 2578.978
274.3396, 2577.817
274.8217, 2576.940
275.3038, 2576.594
275.7859, 2576.165
276.2680, 2575.319
276.7502, 2574.251
277.2323, 2573.251
277.7144, 2572.351
278.1965, 2571.796
278.6786, 2572.523
279.1607, 2575.121
279.6429, 2577.617
280.1250, 2579.800
280.6071, 2581.502
281.0892, 2582.035
281.5713, 2580.847
282.0534, 2579.337
282.5356, 2580.792
283.0177, 2586.271
283.4998, 2590.463
283.9819, 2591.021
284.4640, 2589.754
284.9461, 2589.460
285.4283, 2590.950
285.9104, 2593.207
286.3925, 2594.966
286.8746, 2596.278
287.3567, 2597.007
287.8388, 2595.755
288.3210, 2594.435
288.8031, 2596.128
289.2852, 2601.651
289.7673, 2607.746
290.2494, 2610.531
290.7315, 2610.238
291.2137, 2610.916
291.6958, 2612.862
292.1779, 2616.248
292.6600, 2621.745
293.1421, 2629.453
293.6242, 2637.502
294.1064, 2644.091
294.5885, 2649.639
295.0706, 2656.241
295.5527, 2665.246
296.0348, 2674.575
296.5169, 2681.604
296.9991, 2686.426
297.4812, 2692.789
297.9633, 2703.154
298.4454, 2716.983
298.9275, 2731.615
299.4096, 2747.285
299.8918, 2763.363
300.3739, 2778.665
300.8560, 2793.588
301.3381, 2811.374
301.8202, 2836.461
302.3023, 2862.855
302.7845, 2879.409
303.2666, 2883.363
303.7487, 2884.194
304.2308, 2885.732
304.7129, 2888.165
305.1950, 2892.446
305.6772, 2899.616
306.1593, 2907.786
306.6414, 2913.688
307.1235, 2916.942
307.6056, 2921.736
308.0877, 2930.254
308.5699, 2941.630
309.0520, 2953.791
309.5341, 2966.109
310.0162, 2979.708
310.4983, 2996.732
310.9804, 3016.684
311.4626, 3035.829
311.9447, 3052.403
312.4268, 3067.621
312.9089, 3082.940
313.3910, 3098.312
313.8731, 3115.185
314.3553, 3135.059
314.8374, 3157.519
315.3195, 3181.970
315.8016, 3207.743
316.2837, 3235.819
316.7658, 3266.815
317.2480, 3300.711
317.7301, 3338.116
318.2122, 3378.825
318.6943, 3424.216
319.1764, 3476.436
319.6585, 3539.507
320.1407, 3604.640
320.6228, 3666.281
321.1049, 3724.411
321.5870, 3780.712
322.0691, 3839.285
322.5512, 3892.305
323.0334, 3929.930
323.5155, 3953.148
323.9976, 3959.113
324.4797, 3946.108
324.9618, 3914.440
325.4439, 3863.521
325.9261, 3789.470
326.4082, 3702.405
326.8903, 3610.644
327.3724, 3514.421
327.8545, 3423.777
328.3366, 3343.551
328.8188, 3271.227
329.3009, 3201.568
329.7830, 3133.016
330.2651, 3070.340
330.7472, 3019.477
331.2293, 2979.073
331.7115, 2943.481
332.1936, 2911.964
332.6757, 2884.680
333.1578, 2862.707
333.6399, 2846.037
334.1220, 2831.122
334.6042, 2815.671
335.0863, 2800.174
335.5684, 2786.345
336.0505, 2774.448
336.5326, 2764.037
337.0147, 2754.422
337.4969, 2745.869
337.9790, 2739.710
338.4611, 2736.899
338.9432, 2736.585
339.4253, 2736.763
339.9074, 2737.456
340.3896, 2738.450
340.8717, 2740.024
341.3538, 2741.795
341.8359, 2742.885
342.3180, 2742.931
342.8001, 2742.652
343.2822, 2742.944
343.7643, 2743.732
344.2465, 2745.285
344.7286, 2746.570
345.2107, 2749.196
345.6928, 2755.522
346.1749, 2765.862
346.6570, 2777.557
347.1392, 2788.548
347.6213, 2798.742
348.1034, 2807.925
348.5855, 2813.312
349.0676, 2820.054
349.5497, 2832.924
350.0319, 2850.811
350.5140, 2867.712
350.9961, 2879.556
351.4782, 2887.993
351.9603, 2900.758
352.4424, 2920.829
352.9246, 2940.833
353.4067, 2958.771
353.8888, 2975.181
354.3709, 2991.148
354.8530, 3007.204
355.3351, 3022.460
355.8173, 3035.522
356.2994, 3048.517
356.7815, 3054.401
357.2636, 3050.828
357.7457, 3040.836
358.2278, 3025.990
358.7100, 3007.052
359.1921, 2986.315
359.6742, 2966.281
360.1563, 2946.932
360.6384, 2928.505
361.1205, 2910.116
361.6027, 2893.305
362.0848, 2878.032
362.5669, 2864.944
363.0490, 2855.665
363.5311, 2851.646
364.0132, 2852.283
364.4954, 2852.936
364.9775, 2851.822
365.4596, 2852.777
365.9417, 2857.863
366.4238, 2865.079
366.9059, 2872.126
367.3881, 2878.082
367.8702, 2882.641
368.3523, 2885.208
368.8344, 2885.344
369.3165, 2883.865
369.7986, 2880.435
370.2808, 2875.770
370.7629, 2869.660
371.2450, 2862.508
371.7271, 2855.790
372.2092, 2851.069
372.6913, 2848.378
373.1735, 2847.411
373.6556, 2849.609
374.1377, 2851.994
374.6198, 2852.879
375.1019, 2853.162
375.5840, 2854.743
376.0662, 2858.844
376.5483, 2865.191
377.0304, 2872.339
377.5125, 2879.297
377.9946, 2888.735
378.4767, 2901.530
378.9589, 2916.470
379.4410, 2932.601
379.9231, 2949.557
380.4052, 2967.055
380.8873, 2983.994
381.3694, 2998.568
381.8516, 3018.521
382.3337, 3047.259
382.8158, 3079.193
383.2979, 3111.735
383.7800, 3144.849
384.2621, 3179.836
384.7443, 3217.644
385.2264, 3258.148
385.7085, 3301.677
386.1906, 3348.544
386.6727, 3398.501
387.1548, 3453.581
387.6370, 3510.655
388.1191, 3565.705
388.6012, 3619.014
389.0833, 3665.999
389.5654, 3700.040
390.0475, 3722.429
390.5297, 3725.946
391.0118, 3702.742
391.4939, 3661.515
391.9760, 3605.792
392.4581, 3535.882
392.9402, 3458.599
393.4224, 3375.977
393.9045, 3289.379
394.3866, 3206.915
394.8687, 3128.848
395.3508, 3056.900
395.8329, 2991.998
396.3151, 2933.597
396.7972, 2881.015
397.2793, 2834.310
397.7614, 2793.207
398.2435, 2757.742
398.7256, 2728.337
399.2078, 2701.331
399.6899, 2674.788
400.1720, 2649.887
400.6541, 2628.534
401.1362, 2611.850
401.6183, 2596.966
402.1005, 2582.138
402.5826, 2567.872
403.0647, 2555.603
403.5468, 2545.983
404.0289, 2538.042
404.5110, 2530.614
404.9932, 2523.688
405.4753, 2516.987
405.9574, 2509.679
406.4395, 2503.064
406.9216, 2498.672
407.4037, 2496.492
407.8859, 2495.284
408.3680, 2494.426
408.8501, 2493.756
409.3322, 2491.547
409.8143, 2486.511
410.2964, 2481.604
410.7786, 2477.855
411.2607, 2474.947
411.7428, 2472.301
412.2249, 2469.708
412.7070, 2467.157
413.1891, 2464.608
413.6713, 2461.961
414.1534, 2459.574
414.6355, 2456.676
415.1176, 2454.595
415.5997, 2455.411
416.0818, 2458.508
416.5640, 2460.495
417.0461, 2457.921
417.5282, 2450.691
418.0103, 2446.277
418.4924, 2447.560
418.9745, 2448.621
419.4567, 2448.134
419.9388, 2446.653
420.4209, 2445.015
420.9030, 2443.606
421.3851, 2442.258
421.8672, 2440.382
422.3494, 2437.014
422.8315, 2435.637
423.3136, 2438.300
423.7957, 2441.583
424.2778, 2443.897
424.7599, 2444.934
425.2421, 2444.697
425.7242, 2442.657
426.2063, 2439.080
426.6884, 2436.683
427.1705, 2436.099
427.6526, 2435.682
428.1348, 2434.902
428.6169, 2433.768
429.0990, 2432.205
429.5811, 2430.063
430.0632, 2427.809
430.5453, 2425.948
431.0275, 2424.480
431.5096, 2423.450
431.9917, 2422.723
432.4738, 2422.670
432.9559, 2423.641
433.4380, 2425.628
433.9202, 2427.925
434.4023, 2430.837
434.8844, 2433.650
435.3665, 2435.026
435.8486, 2434.794
436.3307, 2433.548
436.8129, 2431.052
437.2950, 2427.859
437.7771, 2426.210
438.2592, 2427.805
438.7413, 2429.163
439.2234, 2427.924
439.7056, 2425.011
440.1877, 2422.956
440.6698, 2422.875
441.1519, 2423.038
441.6340, 2420.201
442.1161, 2412.386
442.5983, 2407.556
443.0804, 2408.213
443.5625, 2410.401
444.0446, 2411.147
444.5267, 2410.452
445.0089, 2410.175
445.4910, 2411.951
445.9731, 2415.356
446.4552, 2416.237
446.9373, 2411.698
447.4194, 2408.074
447.9016, 2406.753
448.3837, 2406.582
448.8658, 2406.140
449.3479, 2405.042
449.8300, 2404.120
450.3121, 2404.880
450.7943, 2408.192
451.2764, 2409.902
451.7585, 2408.348
452.2406, 2406.704
452.7227, 2406.118
453.2048, 2406.414
453.6870, 2406.973
454.1691, 2407.452
454.6512, 2407.923
455.1333, 2408.751
455.6154, 2410.304
456.0975, 2411.091
456.5797, 2409.545
457.0618, 2407.693
457.5439, 2407.153
458.0260, 2408.151
458.5081, 2409.591
458.9902, 2410.910
459.4724, 2412.028
459.9545, 2412.421
460.4366, 2411.602
460.9187, 2411.270
461.4008, 2413.176
461.8829, 2416.582
462.3651, 2419.796
462.8472, 2423.416
463.3293, 2425.859
463.8114, 2424.974
464.2935, 2421.708
464.7756, 2419.684
465.2578, 2420.498
465.7399, 2422.454
466.2220, 2422.805
466.7041, 2421.469
467.1862, 2419.050
467.6683, 2414.831
468.1505, 2410.088
468.6326, 2405.740
469.1147, 2401.856
469.5968, 2398.202
470.0789, 2394.534
470.5610, 2390.963
471.0432, 2388.332
471.5253, 2387.898
472.0074, 2386.836
472.4895, 2384.719
472.9716, 2381.902
473.4537, 2378.074
473.9359, 2373.504
474.4180, 2369.939
474.9001, 2369.972
475.3822, 2374.242
475.8643, 2376.846
476.3464, 2377.018
476.8286, 2376.191
477.3107, 2374.223
477.7928, 2371.717
478.2749, 2369.592
478.7570, 2368.298
479.2391, 2367.395
479.7213, 2366.012
480.2034, 2364.004
480.6855, 2362.756
481.1676, 2363.293
481.6497, 2363.979
482.1318, 2363.292
482.6140, 2361.391
483.0961, 2359.714
483.5782, 2358.553
484.0603, 2358.192
484.5424, 2359.683
485.0245, 2363.133
485.5067, 2365.772
485.9888, 2366.013
486.4709, 2364.418
486.9530, 2362.551
487.4351, 2360.106
487.9172, 2358.087
488.3994, 2357.248
488.8815, 2356.862
489.3636, 2355.853
489.8457, 2354.047
490.3278, 2352.133
490.8099, 2350.641
491.2921, 2349.553
491.7742, 2349.614
492.2563, 2352.640
492.7384, 2354.548
493.2205, 2352.966
493.7026, 2349.879
494.1848, 2348.052
494.6669, 2348.528
495.1490, 2350.409
495.6311, 2352.638
496.1132, 2355.903
496.5953, 2357.236
497.0775, 2354.035
497.5596, 2351.338
498.0417, 2352.005
498.5238, 2354.701
499.0059, 2356.165
499.4880, 2354.283
499.9702, 2350.977
500.4523, 2350.345
500.9344, 2352.863
501.4165, 2355.024
501.8986, 2356.175
502.3807, 2356.247
502.8629, 2354.546
503.3450, 2351.220
503.8271, 2349.103
504.3092, 2350.475
504.7913, 2353.492
505.2734, 2354.975
505.7556, 2354.776
506.2377, 2355.500
506.7198, 2359.043
507.2019, 2364.397
507.6840, 2368.368
508.1661, 2370.630
508.6482, 2372.390
509.1303, 2373.136
509.6125, 2373.982
510.0946, 2376.690
510.5767, 2381.300
511.0588, 2385.685
511.5409, 2387.681
512.0231, 2387.311
512.5052, 2388.670
512.9873, 2393.612
513.4694, 2398.084
513.9515, 2401.640
514.4337, 2404.151
514.9158, 2405.294
515.3979, 2405.057
515.8800, 2404.157
516.3621, 2403.539
516.8442, 2403.279
517.3264, 2402.398
517.8085, 2400.074
518.2906, 2398.195
518.7727, 2398.806
519.2548, 2400.120
519.7369, 2398.797
520.2191, 2392.929
520.7012, 2386.110
521.1833, 2382.004
521.6654, 2380.460
522.1475, 2380.473
522.6296, 2382.211
523.1118, 2384.640
523.5939, 2386.458
524.0760, 2387.805
524.5581, 2390.099
525.0402, 2394.231
525.5223, 2398.797
526.0045, 2402.959
526.4866, 2406.724
526.9687, 2410.284
527.4508, 2413.709
527.9329, 2416.947
528.4150, 2419.934
528.8972, 2422.915
529.3793, 2424.944
529.8614, 2426.648
530.3435, 2426.905
530.8256, 2425.005
531.3077, 2421.129
531.7899, 2415.555
532.2720, 2408.270
532.7541, 2400.155
533.2362, 2393.677
533.7183, 2389.583
534.2004, 2384.922
534.6826, 2378.864
535.1647, 2372.331
535.6468, 2365.169
536.1289, 2357.788
536.6110, 2351.883
537.0931, 2349.203
537.5753, 2348.277
538.0574, 2346.226
538.5395, 2342.964
539.0216, 2340.394
539.5037, 2339.234
539.9858, 2339.313
540.4680, 2340.812
540.9501, 2344.290
541.4322, 2345.990
541.9143, 2343.065
542.3964, 2339.077
542.8785, 2337.666
543.3607, 2338.800
543.8428, 2340.450
544.3249, 2341.334
544.8070, 2341.758
545.2891, 2342.863
545.7712, 2345.874
546.2534, 2347.862
546.7355, 2348.302
547.2176, 2348.036
547.6997, 2347.393
548.1818, 2346.590
548.6639, 2345.884
549.1461, 2345.253
549.6282, 2345.029
550.1103, 2346.887
550.5924, 2351.691
551.0745, 2356.299
551.5566, 2360.288
552.0388, 2363.362
552.5209, 2364.437
553.0030, 2363.589
553.4851, 2364.062
553.9672, 2368.137
554.4493, 2374.635
554.9315, 2382.312
555.4136, 2391.120
555.8957, 2398.063
556.3778, 2400.909
556.8599, 2401.247
557.3420, 2403.511
557.8242, 2409.107
558.3063, 2413.030
558.7884, 2414.496
559.2705, 2413.768
559.7526, 2410.504
560.2347, 2405.085
560.7169, 2398.690
561.1990, 2392.096
561.6811, 2385.387
562.1632, 2379.194
562.6453, 2374.912
563.1274, 2368.616
563.6096, 2357.896
564.0917, 2346.823
564.5738, 2338.446
565.0559, 2332.683
565.5380, 2327.320
566.0201, 2320.479
566.5023, 2313.061
566.9844, 2307.607
567.4665, 2304.358
567.9486, 2301.490
568.4307, 2298.521
568.9128, 2295.497
569.3950, 2292.305
569.8771, 2288.865
570.3592, 2286.225
570.8413, 2285.121
571.3234, 2284.727
571.8055, 2284.644
572.2877, 2284.607
572.7698, 2283.617
573.2519, 2281.031
573.7340, 2277.426
574.2161, 2274.248
574.6982, 2270.854
575.1804, 2269.083
575.6625, 2270.594
576.1446, 2272.137
576.6267, 2271.735
577.1088, 2269.638
577.5909, 2266.894
578.0731, 2263.986
578.5552, 2261.222
579.0373, 2259.214
579.5194, 2257.931
580.0015, 2257.682
580.4836, 2259.971
580.9658, 2261.788
581.4479, 2260.257
581.9300, 2256.166
582.4121, 2252.969
582.8942, 2252.121
583.3763, 2252.544
583.8585, 2254.128
584.3406, 2256.281
584.8227, 2256.492
585.3048, 2253.704
585.7869, 2249.675
586.2690, 2246.596
586.7512, 2244.428
587.2333, 2243.842
587.7154, 2245.872
588.1975, 2248.259
588.6796, 2250.946
589.1617, 2253.089
589.6438, 2253.151
590.1259, 2250.655
590.6080, 2247.306
591.0901, 2245.797
591.5723, 2246.445
592.0544, 2245.629
592.5365, 2242.312
593.0186, 2238.935
593.5007, 2235.788
593.9828, 2233.555
594.4650, 2233.740
594.9471, 2237.385
595.4292, 2240.771
595.9113, 2240.447
596.3934, 2237.842
596.8755, 2236.469
597.3577, 2236.905
597.8398, 2237.277
598.3219, 2236.019
598.8040, 2233.465
599.2861, 2231.844
599.7682, 2231.271
600.2504, 2231.363
600.7325, 2232.853
601.2146, 2234.498
601.6967, 2235.111
602.1788, 2234.641
602.6609, 2233.792
603.1431, 2233.108
603.6252, 2232.511
604.1073, 2231.535
604.5894, 2229.729
605.0715, 2228.712
605.5536, 2230.207
606.0358, 2231.618
606.5179, 2230.511
607.0000, 2227.164
607.4821, 2224.559
