##NAMES=Diopside
##RRUFFID=R050406
##IDEAL CHEMISTRY=CaMgSi_2_O_6_
##LOCALITY=unknown
##OWNER=RRUFF
##SOURCE=University of Arizona Mineral Museum
##DESCRIPTION=Brownish gray massive
##STATUS=The identification of this mineral has been confirmed by X-ray diffraction and chemical analysis
##URL=rruff.info/R050406
##MEASURED CHEMISTRY=(Ca_0.95_Na_0.05_)(Mg_0.75_Fe^2+^_0.18_Fe^3+^_0.05_Al_0.01_Ti_0.01_Mn^2+^_0.01_)(Si_0.98_Al_0.02_)_2_O_6_
92.35352, 32.96969
92.83563, 29.44499
93.31775, 27.94391
93.79987, 28.79917
94.28198, 31.72336
94.76410, 36.13907
95.24622, 42.44587
95.72833, 49.63587
96.21045, 55.98037
96.69257, 61.58178
97.17468, 65.35905
97.65680, 64.99736
98.13892, 60.60965
98.62103, 58.00613
99.10315, 58.77081
99.58527, 62.59797
100.0674, 67.80315
100.5495, 74.61504
101.0316, 82.20623
101.5137, 89.31129
101.9958, 95.63459
102.4780, 102.6639
102.9601, 110.7076
103.4422, 119.7088
103.9243, 130.1550
104.4064, 142.5969
104.8885, 156.1863
105.3707, 169.7099
105.8528, 182.8780
106.3349, 196.2238
106.8170, 209.8743
107.2991, 224.0907
107.7813, 238.1059
108.2634, 251.5953
108.7455, 264.9050
109.2276, 278.6877
109.7097, 294.1015
110.1918, 309.2752
110.6740, 323.4561
111.1561, 336.2220
111.6382, 348.4475
112.1203, 359.5428
112.6024, 369.9006
113.0845, 381.2775
113.5667, 394.3609
114.0488, 408.2775
114.5309, 422.5948
115.0130, 436.5941
115.4951, 451.4382
115.9772, 467.2436
116.4594, 484.1711
116.9415, 502.7698
117.4236, 524.0266
117.9057, 546.8264
118.3878, 569.8751
118.8699, 593.5577
119.3521, 616.9962
119.8342, 640.2325
120.3163, 663.3408
120.7984, 685.3587
121.2805, 705.2321
121.7626, 723.6467
122.2448, 741.7755
122.7269, 761.4017
123.2090, 780.4110
123.6911, 796.7218
124.1732, 809.9966
124.6553, 821.0654
125.1375, 829.7321
125.6196, 836.5653
126.1017, 843.3649
126.5838, 851.7941
127.0659, 860.8141
127.5480, 868.3917
128.0302, 873.8674
128.5123, 878.7114
128.9944, 884.5680
129.4765, 891.4530
129.9586, 899.5154
130.4407, 909.0446
130.9229, 919.8953
131.4050, 931.6072
131.8871, 943.9316
132.3692, 956.8986
132.8513, 970.2339
133.3334, 982.3610
133.8156, 990.8016
134.2977, 997.2218
134.7798, 1005.024
135.2619, 1013.063
135.7440, 1021.473
136.2261, 1029.892
136.7083, 1037.119
137.1904, 1043.070
137.6725, 1048.375
138.1546, 1053.938
138.6367, 1060.039
139.1188, 1065.191
139.6010, 1069.331
140.0831, 1072.474
140.5652, 1073.338
141.0473, 1071.430
141.5294, 1068.006
142.0115, 1064.590
142.4937, 1061.011
142.9758, 1057.675
143.4579, 1054.548
143.9400, 1051.493
144.4221, 1049.206
144.9042, 1047.715
145.3864, 1046.889
145.8685, 1046.652
146.3506, 1047.735
146.8327, 1048.369
147.3148, 1047.890
147.7969, 1045.657
148.2791, 1043.752
148.7612, 1041.931
149.2433, 1040.459
149.7254, 1039.951
150.2075, 1041.372
150.6896, 1042.942
151.1718, 1043.943
151.6539, 1042.886
152.1360, 1043.451
152.6181, 1047.003
153.1002, 1052.424
153.5823, 1056.351
154.0645, 1057.475
154.5466, 1057.886
155.0287, 1058.552
155.5108, 1059.984
155.9929, 1061.167
156.4750, 1061.678
156.9572, 1061.711
157.4393, 1062.085
157.9214, 1062.829
158.4035, 1064.039
158.8856, 1065.775
159.3677, 1067.999
159.8499, 1070.803
160.3320, 1074.586
160.8141, 1079.153
161.2962, 1083.332
161.7783, 1087.319
162.2604, 1090.443
162.7426, 1092.149
163.2247, 1090.962
163.7068, 1089.491
164.1889, 1088.746
164.6710, 1088.726
165.1531, 1089.163
165.6353, 1089.961
166.1174, 1091.125
166.5995, 1092.659
167.0816, 1094.949
167.5637, 1097.305
168.0458, 1099.185
168.5280, 1100.562
169.0101, 1102.035
169.4922, 1103.668
169.9743, 1105.665
170.4564, 1108.313
170.9385, 1112.603
171.4207, 1117.069
171.9028, 1120.337
172.3849, 1122.309
172.8670, 1123.896
173.3491, 1124.916
173.8312, 1126.084
174.3134, 1128.783
174.7955, 1135.112
175.2776, 1142.639
175.7597, 1148.148
176.2418, 1151.314
176.7239, 1154.309
177.2061, 1159.968
177.6882, 1167.304
178.1703, 1173.519
178.6524, 1176.748
179.1345, 1178.195
179.6166, 1179.947
180.0988, 1182.272
180.5809, 1184.194
181.0630, 1184.409
181.5451, 1183.195
182.0272, 1181.667
182.5093, 1179.808
182.9915, 1178.060
183.4736, 1177.697
183.9557, 1178.990
184.4378, 1180.937
184.9199, 1182.468
185.4020, 1183.548
185.8842, 1184.147
186.3663, 1183.549
186.8484, 1182.313
187.3305, 1182.671
187.8126, 1185.048
188.2947, 1188.387
188.7769, 1191.259
189.2590, 1193.670
189.7411, 1195.640
190.2232, 1196.927
190.7053, 1197.678
191.1874, 1199.030
191.6696, 1201.373
192.1517, 1203.822
192.6338, 1204.753
193.1159, 1204.145
193.5980, 1202.722
194.0801, 1201.155
194.5623, 1199.367
195.0444, 1195.835
195.5265, 1190.051
196.0086, 1183.003
196.4907, 1176.458
196.9728, 1170.354
197.4550, 1165.204
197.9371, 1161.812
198.4192, 1160.216
198.9013, 1157.655
199.3834, 1153.530
199.8655, 1148.689
200.3477, 1145.311
200.8298, 1143.688
201.3119, 1142.244
201.7940, 1139.878
202.2761, 1136.478
202.7582, 1133.527
203.2404, 1131.221
203.7225, 1129.409
204.2046, 1127.580
204.6867, 1125.621
205.1688, 1124.066
205.6509, 1123.342
206.1331, 1123.552
206.6152, 1123.925
207.0973, 1124.434
207.5794, 1125.049
208.0615, 1125.742
208.5436, 1126.622
209.0258, 1127.289
209.5079, 1127.251
209.9900, 1126.148
210.4721, 1126.082
210.9542, 1127.590
211.4363, 1130.108
211.9185, 1131.661
212.4006, 1131.898
212.8827, 1131.906
213.3648, 1132.242
213.8469, 1132.830
214.3290, 1134.027
214.8112, 1136.031
215.2933, 1138.606
215.7754, 1141.058
216.2575, 1143.480
216.7396, 1145.593
217.2217, 1147.121
217.7039, 1147.788
218.1860, 1148.768
218.6681, 1150.455
219.1502, 1152.462
219.6323, 1153.230
220.1144, 1152.227
220.5966, 1150.907
221.0787, 1149.967
221.5608, 1149.193
222.0429, 1149.482
222.5250, 1151.258
223.0071, 1154.117
223.4893, 1156.287
223.9714, 1156.805
224.4535, 1158.202
224.9356, 1162.519
225.4177, 1172.527
225.8998, 1178.480
226.3820, 1178.395
226.8641, 1174.123
227.3462, 1171.963
227.8283, 1172.298
228.3104, 1174.127
228.7925, 1177.145
229.2747, 1182.271
229.7568, 1186.593
230.2389, 1190.076
230.7210, 1192.706
231.2031, 1194.295
231.6852, 1194.541
232.1674, 1194.181
232.6495, 1193.610
233.1316, 1193.139
233.6137, 1191.677
234.0958, 1188.652
234.5779, 1184.755
235.0601, 1182.011
235.5422, 1180.901
236.0243, 1180.221
236.5064, 1179.503
236.9885, 1178.920
237.4706, 1177.902
237.9528, 1176.303
238.4349, 1174.321
238.9170, 1172.321
239.3991, 1169.641
239.8812, 1167.930
240.3633, 1168.094
240.8455, 1171.212
241.3276, 1173.509
241.8097, 1174.668
242.2918, 1175.096
242.7739, 1175.663
243.2560, 1176.516
243.7382, 1177.288
244.2203, 1177.795
244.7024, 1177.844
245.1845, 1178.150
245.6666, 1178.551
246.1487, 1179.291
246.6309, 1181.015
247.1130, 1184.651
247.5951, 1187.757
248.0772, 1189.373
248.5593, 1189.129
249.0414, 1188.585
249.5236, 1186.755
250.0057, 1185.235
250.4878, 1187.199
250.9699, 1195.599
251.4520, 1202.183
251.9341, 1203.725
252.4163, 1198.909
252.8984, 1195.631
253.3805, 1194.216
253.8626, 1194.083
254.3447, 1194.600
254.8268, 1196.429
255.3090, 1197.527
255.7911, 1196.788
256.2732, 1193.723
256.7553, 1193.272
257.2374, 1197.133
257.7195, 1201.943
258.2017, 1203.411
258.6838, 1200.259
259.1659, 1196.667
259.6480, 1193.330
260.1301, 1190.241
260.6122, 1188.445
261.0944, 1188.405
261.5765, 1189.093
262.0586, 1189.473
262.5407, 1189.524
263.0228, 1189.310
263.5049, 1188.598
263.9871, 1187.447
264.4692, 1187.684
264.9513, 1190.313
265.4334, 1192.740
265.9155, 1191.927
266.3976, 1186.279
266.8798, 1182.974
267.3619, 1184.073
267.8440, 1188.883
268.3261, 1191.464
268.8082, 1190.938
269.2903, 1190.013
269.7725, 1191.127
270.2546, 1194.875
270.7367, 1197.855
271.2188, 1199.616
271.7009, 1200.223
272.1830, 1199.635
272.6652, 1197.312
273.1473, 1195.273
273.6294, 1194.978
274.1115, 1196.667
274.5936, 1198.637
275.0757, 1200.583
275.5579, 1202.798
276.0400, 1206.618
276.5221, 1212.670
277.0042, 1217.750
277.4863, 1219.514
277.9684, 1217.686
278.4506, 1216.226
278.9327, 1215.357
279.4148, 1215.043
279.8969, 1215.245
280.3790, 1215.990
280.8611, 1217.126
281.3433, 1218.543
281.8254, 1220.259
282.3075, 1222.729
282.7896, 1226.289
283.2717, 1229.956
283.7538, 1231.967
284.2360, 1232.267
284.7181, 1232.453
285.2002, 1233.138
285.6823, 1234.300
286.1644, 1235.813
286.6465, 1237.719
287.1287, 1239.743
287.6108, 1241.429
288.0929, 1242.800
288.5750, 1244.346
289.0571, 1245.991
289.5392, 1247.950
290.0214, 1251.477
290.5035, 1256.752
290.9856, 1261.982
291.4677, 1264.628
291.9498, 1265.223
292.4319, 1267.026
292.9141, 1271.640
293.3962, 1277.791
293.8783, 1282.428
294.3604, 1285.517
294.8425, 1288.356
295.3246, 1291.900
295.8068, 1296.125
296.2889, 1300.851
296.7710, 1306.120
297.2531, 1311.863
297.7352, 1317.838
298.2173, 1324.045
298.6995, 1330.781
299.1816, 1337.899
299.6637, 1345.688
300.1458, 1354.716
300.6279, 1365.422
301.1100, 1376.787
301.5922, 1387.032
302.0743, 1396.563
302.5564, 1407.036
303.0385, 1420.787
303.5206, 1435.655
304.0027, 1448.616
304.4849, 1458.840
304.9670, 1468.389
305.4491, 1478.621
305.9312, 1489.547
306.4133, 1501.201
306.8954, 1514.048
307.3776, 1527.447
307.8597, 1540.711
308.3418, 1553.964
308.8239, 1566.781
309.3060, 1578.191
309.7881, 1589.219
310.2703, 1601.098
310.7524, 1615.086
311.2345, 1629.734
311.7166, 1643.764
312.1987, 1657.189
312.6808, 1670.918
313.1630, 1685.602
313.6451, 1700.924
314.1272, 1716.669
314.6093, 1732.435
315.0914, 1748.660
315.5735, 1765.116
316.0557, 1781.922
316.5378, 1799.769
317.0199, 1820.107
317.5020, 1840.841
317.9841, 1860.867
318.4662, 1880.229
318.9484, 1897.767
319.4305, 1912.944
319.9126, 1925.986
320.3947, 1937.470
320.8768, 1949.566
321.3589, 1958.654
321.8411, 1962.529
322.3232, 1959.181
322.8053, 1954.784
323.2874, 1952.369
323.7695, 1949.274
324.2516, 1941.283
324.7338, 1925.523
325.2159, 1906.818
325.6980, 1886.381
326.1801, 1864.078
326.6622, 1840.609
327.1443, 1814.409
327.6265, 1787.626
328.1086, 1762.335
328.5907, 1739.719
329.0728, 1717.628
329.5549, 1695.685
330.0370, 1673.801
330.5192, 1652.865
331.0013, 1632.566
331.4834, 1613.331
331.9655, 1595.230
332.4476, 1578.116
332.9297, 1562.315
333.4119, 1547.993
333.8940, 1535.057
334.3761, 1523.392
334.8582, 1513.496
335.3403, 1504.436
335.8224, 1495.837
336.3046, 1487.715
336.7867, 1479.796
337.2688, 1471.661
337.7509, 1463.968
338.2330, 1458.230
338.7151, 1455.227
339.1973, 1451.846
339.6794, 1446.274
340.1615, 1438.359
340.6436, 1433.065
341.1257, 1431.061
341.6078, 1430.392
342.0900, 1428.487
342.5721, 1425.277
343.0542, 1422.513
343.5363, 1420.731
344.0184, 1419.853
344.5005, 1419.891
344.9827, 1421.046
345.4648, 1421.712
345.9469, 1419.667
346.4290, 1415.345
346.9111, 1412.371
347.3932, 1411.354
347.8754, 1412.045
348.3575, 1414.647
348.8396, 1418.963
349.3217, 1423.155
349.8038, 1425.753
350.2859, 1427.249
350.7681, 1428.793
351.2502, 1430.463
351.7323, 1432.344
352.2144, 1434.687
352.6965, 1437.371
353.1786, 1439.966
353.6608, 1442.942
354.1429, 1445.426
354.6250, 1445.867
355.1071, 1444.161
355.5892, 1442.524
356.0714, 1442.878
356.5535, 1444.386
357.0356, 1445.802
357.5177, 1446.580
357.9998, 1447.213
358.4819, 1447.856
358.9641, 1448.571
359.4462, 1449.690
359.9283, 1451.653
360.4104, 1453.938
360.8925, 1456.040
361.3746, 1457.421
361.8568, 1459.299
362.3389, 1462.153
362.8210, 1465.838
363.3031, 1470.096
363.7852, 1474.746
364.2673, 1480.011
364.7495, 1486.198
365.2316, 1493.685
365.7137, 1500.812
366.1958, 1505.562
366.6779, 1510.298
367.1600, 1517.848
367.6422, 1530.396
368.1243, 1543.846
368.6064, 1557.702
369.0885, 1572.040
369.5706, 1585.915
370.0527, 1598.926
370.5349, 1611.880
371.0170, 1625.480
371.4991, 1639.749
371.9812, 1654.391
372.4633, 1669.261
372.9454, 1684.576
373.4276, 1700.732
373.9097, 1717.991
374.3918, 1735.999
374.8739, 1754.383
375.3560, 1773.515
375.8381, 1792.204
376.3203, 1810.027
376.8024, 1827.667
377.2845, 1845.994
377.7666, 1864.790
378.2487, 1884.677
378.7308, 1905.633
379.2130, 1927.739
379.6951, 1949.614
380.1772, 1971.368
380.6593, 1993.203
381.1414, 2015.585
381.6235, 2038.329
382.1057, 2061.844
382.5878, 2086.416
383.0699, 2111.221
383.5520, 2134.234
384.0341, 2155.833
384.5162, 2177.670
384.9984, 2202.887
385.4805, 2229.048
385.9626, 2251.315
386.4447, 2269.210
386.9268, 2283.196
387.4089, 2294.289
387.8911, 2301.898
388.3732, 2304.421
388.8553, 2302.023
389.3374, 2293.695
389.8195, 2278.034
390.3016, 2255.362
390.7838, 2227.165
391.2659, 2193.632
391.7480, 2155.641
392.2301, 2113.858
392.7122, 2066.472
393.1943, 2018.223
393.6765, 1970.832
394.1586, 1924.386
394.6407, 1880.023
395.1228, 1838.105
395.6049, 1798.094
396.0870, 1759.050
396.5692, 1720.543
397.0513, 1684.974
397.5334, 1652.866
398.0155, 1623.781
398.4976, 1597.576
398.9797, 1575.074
399.4619, 1554.253
399.9440, 1534.870
400.4261, 1516.909
400.9082, 1499.821
401.3903, 1483.383
401.8724, 1467.983
402.3546, 1453.782
402.8367, 1440.810
403.3188, 1429.247
403.8009, 1419.084
404.2830, 1410.348
404.7651, 1403.277
405.2473, 1398.344
405.7294, 1393.945
406.2115, 1389.479
406.6936, 1384.985
407.1757, 1380.654
407.6578, 1376.498
408.1400, 1372.468
408.6221, 1368.333
409.1042, 1364.110
409.5863, 1360.342
410.0684, 1357.189
410.5505, 1354.579
411.0327, 1352.500
411.5148, 1350.910
411.9969, 1348.890
412.4790, 1344.853
412.9611, 1339.927
413.4432, 1337.101
413.9254, 1337.062
414.4075, 1337.914
414.8896, 1337.921
415.3717, 1337.252
415.8538, 1336.288
416.3359, 1335.061
416.8181, 1333.719
417.3002, 1332.275
417.7823, 1330.725
418.2644, 1329.506
418.7465, 1329.417
419.2286, 1329.475
419.7108, 1328.619
420.1929, 1324.993
420.6750, 1322.506
421.1571, 1323.941
421.6392, 1327.732
422.1213, 1329.803
422.6035, 1327.857
423.0856, 1325.017
423.5677, 1322.390
424.0498, 1320.010
424.5319, 1318.147
425.0140, 1317.245
425.4962, 1316.693
425.9783, 1315.833
426.4604, 1313.987
426.9425, 1312.911
427.4246, 1313.251
427.9067, 1314.729
428.3889, 1315.212
428.8710, 1314.148
429.3531, 1313.072
429.8352, 1312.982
430.3173, 1314.192
430.7994, 1314.660
431.2816, 1314.101
431.7637, 1313.111
432.2458, 1312.588
432.7279, 1312.525
433.2100, 1312.809
433.6921, 1313.587
434.1743, 1314.632
434.6564, 1315.216
435.1385, 1315.346
435.6206, 1314.936
436.1027, 1313.585
436.5848, 1311.635
437.0670, 1309.934
437.5491, 1308.536
438.0312, 1307.737
438.5133, 1308.075
438.9954, 1309.317
439.4775, 1310.791
439.9597, 1312.170
440.4418, 1313.646
440.9239, 1315.848
441.4060, 1318.824
441.8881, 1320.686
442.3702, 1318.963
442.8524, 1316.231
443.3345, 1314.964
443.8166, 1316.918
444.2987, 1319.123
444.7808, 1320.724
445.2629, 1321.870
445.7451, 1323.038
446.2272, 1324.650
446.7093, 1325.958
447.1914, 1326.578
447.6735, 1326.215
448.1556, 1326.006
448.6378, 1325.400
449.1199, 1325.312
449.6020, 1326.824
450.0841, 1330.773
450.5662, 1334.548
451.0483, 1337.905
451.5305, 1340.802
452.0126, 1342.832
452.4947, 1343.751
452.9768, 1344.615
453.4589, 1346.027
453.9410, 1348.007
454.4232, 1350.074
454.9053, 1352.302
455.3874, 1354.382
455.8695, 1355.875
456.3516, 1356.844
456.8337, 1357.764
457.3159, 1359.008
457.7980, 1360.126
458.2801, 1360.181
458.7622, 1359.288
459.2443, 1358.201
459.7264, 1356.776
460.2086, 1355.756
460.6907, 1356.695
461.1728, 1360.411
461.6549, 1363.334
462.1370, 1361.413
462.6191, 1357.367
463.1013, 1355.213
463.5834, 1359.739
464.0655, 1363.401
464.5476, 1362.139
465.0297, 1356.449
465.5118, 1351.011
465.9940, 1346.680
466.4761, 1343.278
466.9582, 1340.740
467.4403, 1339.139
467.9224, 1338.220
468.4045, 1338.667
468.8867, 1339.481
469.3688, 1339.186
469.8509, 1337.216
470.3330, 1335.160
470.8151, 1333.178
471.2972, 1331.352
471.7794, 1330.563
472.2615, 1331.051
472.7436, 1331.937
473.2257, 1332.848
473.7078, 1333.799
474.1899, 1333.777
474.6721, 1332.433
475.1542, 1330.851
475.6363, 1330.935
476.1184, 1332.398
476.6005, 1333.393
477.0826, 1332.727
477.5648, 1331.412
478.0469, 1331.398
478.5290, 1332.522
479.0111, 1333.298
479.4932, 1332.143
479.9753, 1330.284
480.4575, 1329.167
480.9396, 1329.151
481.4217, 1329.574
481.9038, 1330.014
482.3859, 1330.635
482.8680, 1331.678
483.3502, 1333.667
483.8323, 1335.640
484.3144, 1337.413
484.7965, 1338.922
485.2786, 1339.820
485.7607, 1339.473
486.2429, 1338.917
486.7250, 1338.624
487.2071, 1338.501
487.6892, 1338.877
488.1713, 1340.119
488.6534, 1341.624
489.1356, 1342.439
489.6177, 1342.231
490.0998, 1342.458
490.5819, 1343.726
491.0640, 1345.738
491.5461, 1346.581
492.0283, 1346.064
492.5104, 1345.998
492.9925, 1348.182
493.4746, 1352.097
493.9567, 1354.710
494.4388, 1355.684
494.9210, 1356.145
495.4031, 1357.184
495.8852, 1358.697
496.3673, 1360.482
496.8494, 1362.356
497.3315, 1364.497
497.8137, 1367.189
498.2958, 1370.329
498.7779, 1373.432
499.2600, 1376.463
499.7421, 1379.247
500.2242, 1381.498
500.7064, 1382.988
501.1885, 1385.001
501.6706, 1388.605
502.1527, 1392.641
502.6348, 1395.877
503.1169, 1397.640
503.5991, 1399.243
504.0812, 1400.490
504.5633, 1401.646
505.0454, 1403.778
505.5275, 1407.263
506.0096, 1411.054
506.4918, 1415.090
506.9739, 1419.583
507.4560, 1421.747
507.9381, 1420.995
508.4202, 1419.479
508.9023, 1419.542
509.3845, 1421.073
509.8666, 1422.124
510.3487, 1422.119
510.8308, 1421.882
511.3129, 1423.142
511.7950, 1425.550
512.2772, 1427.459
512.7593, 1427.195
513.2414, 1426.386
513.7235, 1427.330
514.2056, 1429.979
514.6877, 1432.317
515.1699, 1432.340
515.6520, 1431.818
516.1341, 1432.570
516.6162, 1436.094
517.0983, 1438.709
517.5804, 1438.998
518.0626, 1437.649
518.5447, 1435.798
519.0268, 1432.693
519.5089, 1430.074
519.9910, 1428.334
520.4731, 1427.433
520.9553, 1427.061
521.4374, 1427.600
521.9195, 1428.123
522.4016, 1427.866
522.8837, 1426.425
523.3658, 1426.588
523.8480, 1428.764
524.3301, 1431.783
524.8122, 1434.458
525.2943, 1436.752
525.7764, 1437.761
526.2585, 1436.648
526.7407, 1434.814
527.2228, 1435.151
527.7049, 1437.297
528.1870, 1439.101
528.6691, 1439.125
529.1512, 1438.175
529.6334, 1437.187
530.1155, 1436.215
530.5976, 1434.890
531.0797, 1432.786
531.5618, 1430.260
532.0439, 1427.686
532.5261, 1425.056
533.0082, 1422.446
533.4903, 1419.896
533.9724, 1417.344
534.4545, 1414.587
534.9366, 1410.914
535.4188, 1407.877
535.9009, 1406.024
536.3830, 1405.337
536.8651, 1404.533
537.3472, 1403.599
537.8293, 1402.643
538.3115, 1401.491
538.7936, 1400.058
539.2757, 1400.108
539.7578, 1402.039
540.2399, 1404.613
540.7220, 1406.254
541.2042, 1407.059
541.6863, 1407.630
542.1684, 1407.820
542.6505, 1408.258
543.1326, 1409.983
543.6147, 1412.764
544.0969, 1415.811
544.5790, 1418.572
545.0611, 1421.375
545.5432, 1424.955
546.0253, 1429.448
546.5074, 1432.501
546.9896, 1431.289
547.4717, 1429.222
547.9538, 1429.080
548.4359, 1432.974
548.9180, 1436.590
549.4001, 1439.406
549.8823, 1441.838
550.3644, 1444.586
550.8465, 1447.877
551.3286, 1451.119
551.8107, 1454.060
552.2928, 1456.824
552.7750, 1460.359
553.2571, 1464.895
553.7392, 1469.175
554.2213, 1471.974
554.7034, 1473.633
555.1855, 1476.547
555.6677, 1480.968
556.1498, 1485.526
556.6319, 1489.122
557.1140, 1491.709
557.5961, 1493.221
558.0782, 1493.931
558.5604, 1493.037
559.0425, 1489.372
559.5246, 1483.615
560.0067, 1477.276
560.4888, 1470.677
560.9709, 1463.949
561.4531, 1457.051
561.9352, 1449.962
562.4173, 1443.432
562.8994, 1438.254
563.3815, 1433.115
563.8636, 1427.208
564.3458, 1420.010
564.8279, 1413.581
565.3100, 1407.899
565.7921, 1402.941
566.2742, 1398.762
566.7563, 1395.361
567.2385, 1392.656
567.7206, 1390.828
568.2027, 1389.473
568.6848, 1387.612
569.1669, 1385.345
569.6490, 1383.625
570.1312, 1383.392
570.6133, 1383.792
571.0954, 1383.830
571.5775, 1383.449
572.0596, 1382.284
572.5417, 1379.266
573.0239, 1375.834
573.5060, 1373.233
573.9881, 1371.681
574.4702, 1370.903
574.9523, 1371.697
575.4344, 1372.900
575.9166, 1373.014
576.3987, 1370.427
576.8808, 1368.817
577.3629, 1369.105
577.8450, 1370.585
578.3271, 1370.843
578.8093, 1369.506
579.2914, 1367.997
579.7735, 1366.677
580.2556, 1365.619
580.7377, 1365.654
581.2198, 1366.866
581.7020, 1368.028
582.1841, 1368.040
582.6662, 1367.221
583.1483, 1366.300
583.6304, 1365.365
584.1125, 1364.425
584.5947, 1363.681
585.0768, 1362.913
585.5589, 1361.782
586.0410, 1359.157
586.5231, 1357.343
587.0052, 1358.045
587.4874, 1360.391
587.9695, 1361.983
