##NAMES=Diopside
##RRUFFID=R110128
##IDEAL CHEMISTRY=CaMgSi_2_O_6_
##LOCALITY=Alchori, Pakistan
##OWNER=RRUFF
##SOURCE=Jack Lowell
##DESCRIPTION=Dark green prismatic crystals associated with pale brown epidote, R110127
##STATUS=The identification of this mineral has been confirmed by single-crystal X-ray diffraction.
##URL=rruff.info/R110128
112.8167, 162.8206
113.2988, 164.2719
113.7809, 166.2340
114.2630, 168.6059
114.7451, 171.3350
115.2272, 174.3880
115.7094, 177.7661
116.1915, 181.0049
116.6736, 184.2718
117.1557, 187.2896
117.6378, 190.0405
118.1199, 192.4834
118.6021, 194.4402
119.0842, 195.5907
119.5663, 195.8759
120.0484, 196.9572
120.5305, 199.1851
121.0126, 201.9693
121.4948, 204.7506
121.9769, 207.4314
122.4590, 210.3924
122.9411, 214.2504
123.4232, 218.7683
123.9053, 223.2596
124.3875, 227.1275
124.8696, 230.7678
125.3517, 235.2898
125.8338, 241.1512
126.3159, 247.5620
126.7980, 253.7416
127.2802, 259.8138
127.7623, 266.2801
128.2444, 273.6184
128.7265, 281.8441
129.2086, 290.4484
129.6907, 298.9594
130.1729, 308.2308
130.6550, 318.6047
131.1371, 330.1620
131.6192, 342.8456
132.1013, 356.4799
132.5834, 370.9850
133.0656, 387.1623
133.5477, 404.9872
134.0298, 424.1281
134.5119, 445.5530
134.9940, 469.2655
135.4761, 493.0223
135.9583, 511.4590
136.4404, 527.9288
136.9225, 534.0122
137.4046, 527.7094
137.8867, 511.0158
138.3688, 485.4119
138.8510, 450.4480
139.3331, 409.0503
139.8152, 370.7687
140.2973, 334.1519
140.7794, 301.3677
141.2615, 273.5386
141.7437, 250.4817
142.2258, 230.9159
142.7079, 214.8937
143.1900, 202.2230
143.6721, 191.4270
144.1542, 182.7021
144.6364, 175.5214
145.1185, 169.6133
145.6006, 165.1113
146.0827, 161.0878
146.5648, 157.0448
147.0469, 153.2169
147.5291, 149.9072
148.0112, 147.2685
148.4933, 145.1603
148.9754, 143.3147
149.4575, 141.8689
149.9396, 140.4497
150.4218, 138.7395
150.9039, 137.0058
151.3860, 135.6435
151.8681, 134.9328
152.3502, 134.7809
152.8323, 134.4173
153.3145, 133.4422
153.7966, 132.6349
154.2787, 132.2294
154.7608, 132.1134
155.2429, 132.0458
155.7250, 131.8386
156.2072, 131.4805
156.6893, 131.1398
157.1714, 130.7942
157.6535, 130.4784
158.1356, 130.1935
158.6177, 129.9466
159.0999, 129.7663
159.5820, 129.7054
160.0641, 129.7973
160.5462, 129.6880
161.0283, 129.0147
161.5104, 128.3933
161.9926, 128.4318
162.4747, 129.1988
162.9568, 130.0350
163.4389, 130.1249
163.9210, 129.5181
164.4031, 129.2107
164.8853, 129.6315
165.3674, 130.3730
165.8495, 130.8128
166.3316, 130.8009
166.8137, 130.6611
167.2958, 130.6696
167.7780, 130.8010
168.2601, 130.9975
168.7422, 131.2163
169.2243, 131.4745
169.7064, 131.8685
170.1885, 132.5835
170.6707, 133.2015
171.1528, 133.3745
171.6349, 133.1937
172.1170, 133.0495
172.5991, 133.3373
173.0812, 134.0884
173.5634, 134.5926
174.0455, 134.5656
174.5276, 134.4671
175.0097, 134.4536
175.4918, 134.5420
175.9739, 134.6916
176.4561, 134.8957
176.9382, 135.2326
177.4203, 135.3474
177.9024, 135.2928
178.3845, 135.0089
178.8666, 134.2856
179.3488, 133.1922
179.8309, 132.0968
180.3130, 131.5440
180.7951, 131.9066
181.2772, 131.9896
181.7593, 131.6873
182.2415, 131.2172
182.7236, 130.7172
183.2057, 130.2270
183.6878, 129.7251
184.1699, 129.1696
184.6520, 128.4704
185.1342, 127.9171
185.6163, 127.6096
186.0984, 127.4131
186.5805, 127.1426
187.0626, 126.7331
187.5447, 126.3629
188.0269, 126.4167
188.5090, 127.0303
188.9911, 127.4432
189.4732, 127.3887
189.9553, 127.0389
190.4374, 126.6923
190.9196, 126.4390
191.4017, 126.1913
191.8838, 125.7806
192.3659, 125.1908
192.8480, 124.6732
193.3301, 124.4205
193.8123, 124.3519
194.2944, 124.1730
194.7765, 123.8104
195.2586, 123.2959
195.7407, 122.6159
196.2228, 121.7670
196.7050, 121.0365
197.1871, 120.7525
197.6692, 120.8872
198.1513, 120.8054
198.6334, 120.3259
199.1155, 119.6149
199.5977, 118.6715
200.0798, 117.5257
200.5619, 116.4766
201.0440, 115.8868
201.5261, 115.8427
202.0082, 115.6610
202.4904, 115.1665
202.9725, 114.5727
203.4546, 113.8982
203.9367, 113.1804
204.4188, 112.5500
204.9009, 112.2409
205.3831, 112.4517
205.8652, 112.3642
206.3473, 111.6769
206.8294, 110.9166
207.3115, 110.3783
207.7936, 110.1121
208.2758, 109.9838
208.7579, 109.8284
209.2400, 109.6965
209.7221, 109.4074
210.2042, 108.7770
210.6863, 108.1457
211.1685, 107.7604
211.6506, 107.6609
212.1327, 107.6979
212.6148, 107.6596
213.0969, 107.5138
213.5790, 107.3481
214.0612, 107.1958
214.5433, 107.0067
215.0254, 106.6659
215.5075, 106.1688
215.9896, 105.7183
216.4717, 105.6313
216.9539, 106.1596
217.4360, 106.4548
217.9181, 106.3737
218.4002, 106.1190
218.8823, 105.8579
219.3644, 105.6306
219.8466, 105.4476
220.3287, 105.3409
220.8108, 105.3290
221.2929, 105.2815
221.7750, 105.1693
222.2571, 105.0169
222.7393, 104.8179
223.2214, 104.5533
223.7035, 104.3490
224.1856, 104.4658
224.6677, 104.8782
225.1498, 105.1167
225.6320, 104.8929
226.1141, 104.4621
226.5962, 104.2604
227.0783, 104.3999
227.5604, 104.6466
228.0425, 104.7149
228.5247, 104.6606
229.0068, 104.7626
229.4889, 105.2711
229.9710, 105.9972
230.4531, 106.5192
230.9352, 106.7589
231.4174, 106.8585
231.8995, 106.8707
232.3816, 106.8298
232.8637, 106.8336
233.3458, 107.0705
233.8279, 107.4030
234.3101, 107.3401
234.7922, 106.6645
235.2743, 105.9293
235.7564, 105.4520
236.2385, 105.1538
236.7206, 104.8812
237.2028, 104.5904
237.6849, 104.2612
238.1670, 103.7903
238.6491, 103.1034
239.1312, 102.3746
239.6133, 101.5581
240.0955, 100.7645
240.5776, 100.1738
241.0597, 99.92406
241.5418, 99.95565
242.0239, 100.0003
242.5060, 100.1457
242.9882, 100.1713
243.4703, 99.85160
243.9524, 99.41547
244.4345, 99.24083
244.9166, 99.60636
245.3987, 100.3287
245.8809, 100.5011
246.3630, 99.44974
246.8451, 98.70609
247.3272, 98.77981
247.8093, 99.26991
248.2914, 99.65713
248.7736, 99.65711
249.2557, 99.36370
249.7378, 99.15807
250.2199, 99.10781
250.7020, 99.06970
251.1841, 99.03158
251.6663, 98.99332
252.1484, 98.97170
252.6305, 98.97620
253.1126, 98.97543
253.5947, 98.86665
254.0768, 98.52809
254.5590, 98.22156
255.0411, 97.96990
255.5232, 97.75535
256.0053, 97.58845
256.4874, 97.47298
256.9695, 97.33906
257.4517, 97.01681
257.9338, 95.99900
258.4159, 95.41561
258.8980, 95.63846
259.3801, 96.13992
259.8622, 96.38737
260.3444, 96.19503
260.8265, 95.70248
261.3086, 95.15446
261.7907, 94.26933
262.2728, 93.81065
262.7549, 94.05214
263.2371, 94.59329
263.7192, 95.14857
264.2013, 95.62611
264.6834, 95.87601
265.1655, 95.62286
265.6476, 94.51163
266.1298, 93.76089
266.6119, 93.57997
267.0940, 93.66361
267.5761, 93.78197
268.0582, 93.88171
268.5403, 93.93645
269.0225, 93.89407
269.5046, 93.71201
269.9867, 93.65591
270.4688, 94.03146
270.9509, 94.34964
271.4330, 94.05459
271.9152, 93.11534
272.3973, 92.14709
272.8794, 91.77354
273.3615, 92.05127
273.8436, 92.12173
274.3257, 91.72561
274.8079, 91.29046
275.2900, 91.15595
275.7721, 91.33294
276.2542, 91.65298
276.7363, 92.06690
277.2184, 92.52635
277.7006, 92.75762
278.1827, 92.59136
278.6648, 92.32818
279.1469, 92.13831
279.6290, 92.02625
280.1111, 91.99998
280.5933, 92.11451
281.0754, 92.30368
281.5575, 92.34073
282.0396, 92.05079
282.5217, 91.82191
283.0038, 91.98899
283.4860, 92.46965
283.9681, 92.81434
284.4502, 92.75558
284.9323, 92.49026
285.4144, 92.43032
285.8965, 92.59973
286.3787, 92.89571
286.8608, 93.33504
287.3429, 93.87154
287.8250, 94.35066
288.3071, 94.73441
288.7892, 95.01516
289.2714, 95.14478
289.7535, 95.09159
290.2356, 95.13897
290.7177, 95.48513
291.1998, 96.03399
291.6819, 96.51436
292.1641, 96.81918
292.6462, 97.14185
293.1283, 97.76043
293.6104, 98.63325
294.0925, 99.42292
294.5746, 99.86287
295.0568, 100.1493
295.5389, 100.6889
296.0210, 101.5699
296.5031, 102.5799
296.9852, 103.5956
297.4673, 104.6065
297.9495, 105.5820
298.4316, 106.3844
298.9137, 107.1909
299.3958, 108.2945
299.8779, 109.7435
300.3600, 111.2884
300.8422, 112.7609
301.3243, 114.2185
301.8064, 115.7463
302.2885, 117.4077
302.7706, 119.1238
303.2527, 120.7519
303.7349, 122.2794
304.2170, 124.0036
304.6991, 126.2189
305.1812, 128.6468
305.6633, 130.9112
306.1454, 132.9428
306.6276, 134.8516
307.1097, 136.7380
307.5918, 138.5944
308.0739, 140.3306
308.5560, 141.7629
309.0381, 143.1829
309.5203, 144.9385
310.0024, 147.0756
310.4845, 149.2337
310.9666, 151.0707
311.4487, 152.6830
311.9308, 154.5636
312.4130, 156.9148
312.8951, 159.3922
313.3772, 161.6038
313.8593, 163.6030
314.3414, 165.6896
314.8235, 168.0457
315.3057, 170.6003
315.7878, 173.2220
316.2699, 175.9166
316.7520, 178.6123
317.2341, 181.4974
317.7162, 184.3504
318.1984, 186.6190
318.6805, 187.8701
319.1626, 188.5214
319.6447, 189.3808
320.1268, 190.6233
320.6089, 191.2000
321.0911, 190.2511
321.5732, 188.3009
322.0553, 185.9566
322.5374, 183.2393
323.0195, 180.3055
323.5016, 177.4390
323.9838, 174.6281
324.4659, 171.3190
324.9480, 166.9676
325.4301, 162.2344
325.9122, 157.8897
326.3943, 153.9160
326.8765, 150.4393
327.3586, 147.7133
327.8407, 145.6164
328.3228, 143.5358
328.8049, 141.3032
329.2870, 139.0954
329.7692, 137.0116
330.2513, 135.0610
330.7334, 133.4213
331.2155, 132.2587
331.6976, 131.4681
332.1797, 130.8230
332.6619, 130.3145
333.1440, 129.9126
333.6261, 129.5676
334.1082, 129.3026
334.5903, 129.2162
335.0724, 129.4273
335.5546, 129.7896
336.0367, 130.1804
336.5188, 130.6150
337.0009, 130.8703
337.4830, 130.5518
337.9651, 130.0572
338.4473, 130.1454
338.9294, 131.1087
339.4115, 132.3348
339.8936, 133.4138
340.3757, 134.3542
340.8578, 135.1563
341.3400, 135.7180
341.8221, 136.2550
342.3042, 137.0474
342.7863, 138.0850
343.2684, 139.3868
343.7505, 141.0632
344.2327, 143.0076
344.7148, 144.9936
345.1969, 147.0057
345.6790, 148.9637
346.1611, 150.6672
346.6432, 152.1654
347.1254, 153.8789
347.6075, 156.1783
348.0896, 158.6216
348.5717, 160.5479
349.0538, 161.8925
349.5359, 163.2383
350.0181, 165.1474
350.5002, 167.4314
350.9823, 169.2437
351.4644, 170.2900
351.9465, 171.0554
352.4286, 171.9341
352.9108, 172.8461
353.3929, 173.4473
353.8750, 173.6121
354.3571, 173.2958
354.8392, 172.3965
355.3214, 170.8042
355.8035, 169.0057
356.2856, 167.1882
356.7677, 165.2828
357.2498, 163.1572
357.7319, 160.7630
358.2141, 158.1799
358.6962, 155.3797
359.1783, 152.2630
359.6604, 149.5593
360.1425, 147.5937
360.6246, 145.9142
361.1068, 144.0907
361.5889, 142.0788
362.0710, 140.1465
362.5531, 138.4658
363.0352, 137.0619
363.5173, 136.1065
363.9995, 135.7922
364.4816, 135.6810
364.9637, 135.6058
365.4458, 135.5708
365.9279, 135.5462
366.4100, 135.4640
366.8922, 135.5016
367.3743, 136.2837
367.8564, 138.5180
368.3385, 140.4412
368.8206, 141.5466
369.3027, 142.3474
369.7849, 143.3553
370.2670, 144.7224
370.7491, 146.4362
371.2312, 148.5164
371.7133, 151.1138
372.1954, 153.6015
372.6776, 155.9315
373.1597, 158.1917
373.6418, 160.2786
374.1239, 162.3091
374.6060, 164.6396
375.0881, 167.5918
375.5703, 171.1446
376.0524, 174.8961
376.5345, 178.8949
377.0166, 183.0510
377.4987, 187.2501
377.9808, 191.6376
378.4630, 196.4881
378.9451, 201.9309
379.4272, 207.7478
379.9093, 213.3797
380.3914, 218.4186
380.8735, 224.0415
381.3557, 230.6004
381.8378, 237.4601
382.3199, 244.2806
382.8020, 250.9790
383.2841, 257.5325
383.7662, 264.0016
384.2484, 270.5417
384.7305, 276.0561
385.2126, 280.6673
385.6947, 284.0618
386.1768, 286.3449
386.6589, 287.2759
387.1411, 286.4987
387.6232, 283.8322
388.1053, 279.2425
388.5874, 272.5298
389.0695, 263.0376
389.5516, 252.5374
390.0338, 241.0045
390.5159, 228.9980
390.9980, 216.8797
391.4801, 204.7373
391.9622, 192.9856
392.4443, 181.9196
392.9265, 171.5120
393.4086, 162.2341
393.8907, 154.6899
394.3728, 147.9082
394.8549, 141.3638
395.3370, 135.0849
395.8192, 129.3404
396.3013, 124.3244
396.7834, 119.9655
397.2655, 116.1532
397.7476, 113.0669
398.2297, 110.0814
398.7119, 106.7366
399.1940, 103.3273
399.6761, 100.2150
400.1582, 97.40874
400.6403, 95.09949
401.1224, 93.68706
401.6046, 93.10732
402.0867, 92.46193
402.5688, 91.47545
403.0509, 90.31394
403.5330, 89.12912
404.0151, 87.91473
404.4973, 86.85131
404.9794, 86.09119
405.4615, 85.51263
405.9436, 84.95483
406.4257, 84.42236
406.9078, 83.73829
407.3900, 82.56194
407.8721, 81.07504
408.3542, 80.16842
408.8363, 80.53880
409.3184, 80.93896
409.8005, 80.43589
410.2827, 79.25932
410.7648, 78.19968
411.2469, 77.58221
411.7290, 77.32224
412.2111, 77.31284
412.6932, 77.74596
413.1754, 77.91947
413.6575, 77.45429
414.1396, 76.81009
414.6217, 76.54660
415.1038, 76.72803
415.5859, 76.89150
416.0681, 76.53741
416.5502, 75.58938
417.0323, 74.97742
417.5144, 74.96565
417.9965, 74.95570
418.4786, 74.64122
418.9608, 74.15813
419.4429, 73.80221
419.9250, 73.73064
420.4071, 73.84202
420.8892, 73.85685
421.3713, 73.71927
421.8535, 73.56178
422.3356, 73.35987
422.8177, 73.16084
423.2998, 73.00168
423.7819, 72.88615
424.2640, 72.79750
424.7462, 72.72605
425.2283, 72.67510
425.7104, 72.58568
426.1925, 72.39211
426.6746, 72.23106
427.1567, 72.21404
427.6389, 72.23824
428.1210, 72.10610
428.6031, 71.69140
429.0852, 71.20332
429.5673, 71.12258
430.0494, 71.59841
430.5316, 71.94125
431.0137, 71.76313
431.4958, 71.55483
431.9779, 71.71490
432.4600, 72.23381
432.9421, 72.66495
433.4243, 72.59214
433.9064, 72.13323
434.3885, 71.81904
434.8706, 71.74038
435.3527, 71.64893
435.8348, 71.29104
436.3170, 70.82594
436.7991, 70.53117
437.2812, 70.53744
437.7633, 70.64685
438.2454, 70.67564
438.7275, 70.63876
439.2097, 70.63870
439.6918, 70.70710
440.1739, 70.83263
440.6560, 71.01870
441.1381, 71.27275
441.6202, 71.49314
442.1024, 71.70574
442.5845, 71.84042
443.0666, 71.72498
443.5487, 71.37204
444.0308, 71.13832
444.5129, 71.35512
444.9951, 71.94512
445.4772, 72.17181
445.9593, 71.75635
446.4414, 71.35942
446.9235, 71.13343
447.4056, 71.06493
447.8878, 71.19497
448.3699, 71.52966
448.8520, 71.86520
449.3341, 71.86517
449.8162, 71.32920
450.2983, 71.02663
450.7805, 71.05499
451.2626, 71.18839
451.7447, 71.39231
452.2268, 71.60482
452.7089, 71.69588
453.1910, 71.55500
453.6732, 71.27177
454.1553, 71.24494
454.6374, 71.69381
455.1195, 72.02776
455.6016, 72.12181
456.0837, 72.09844
456.5659, 72.08131
457.0480, 72.08384
457.5301, 71.99052
458.0122, 71.57948
458.4943, 70.86054
458.9764, 70.45182
459.4586, 70.49696
459.9407, 70.68044
460.4228, 70.92213
460.9049, 71.15838
461.3870, 71.26331
461.8691, 71.15341
462.3513, 70.96058
462.8334, 70.83006
463.3155, 70.76086
463.7976, 70.72854
464.2797, 70.73524
464.7618, 70.76609
465.2440, 70.79655
465.7261, 70.82530
466.2082, 70.88194
466.6903, 71.10383
467.1724, 71.29157
467.6545, 71.11673
468.1367, 70.58061
468.6188, 70.08990
469.1009, 69.92776
469.5830, 70.03189
470.0651, 70.07931
470.5472, 70.17542
471.0294, 70.09419
471.5115, 69.46798
471.9936, 68.76125
472.4757, 68.66389
472.9578, 69.31867
473.4399, 70.18580
473.9221, 70.63130
474.4042, 70.60302
474.8863, 70.43449
475.3684, 69.94932
475.8505, 69.52567
476.3326, 69.33275
476.8148, 69.29190
477.2969, 69.25197
477.7790, 69.13856
478.2611, 69.01271
478.7432, 69.04804
479.2253, 69.38618
479.7075, 69.47972
480.1896, 69.05600
480.6717, 68.54797
481.1538, 68.06224
481.6359, 67.67818
482.1180, 67.58546
482.6002, 68.05274
483.0823, 68.85894
483.5644, 69.40672
484.0465, 69.68245
484.5286, 69.72466
485.0107, 69.26732
485.4929, 68.72920
485.9750, 68.66084
486.4571, 69.20136
486.9392, 69.77653
487.4213, 70.08032
487.9034, 70.16275
488.3856, 70.05342
488.8677, 69.71877
489.3498, 69.50095
489.8319, 69.77512
490.3140, 70.49306
490.7961, 70.91758
491.2783, 70.84992
491.7604, 70.70644
492.2425, 70.63770
492.7246, 70.63393
493.2067, 70.66850
493.6888, 70.73170
494.1710, 70.82852
494.6531, 70.94968
495.1352, 71.02686
495.6173, 71.36912
496.0994, 72.24792
496.5815, 73.08864
497.0637, 73.60371
497.5458, 73.85950
498.0279, 74.03678
498.5100, 74.23227
498.9921, 74.43799
499.4742, 74.60863
499.9564, 74.64395
500.4385, 74.90418
500.9206, 75.74510
501.4027, 76.58466
501.8848, 76.97568
502.3669, 76.97768
502.8491, 77.04746
503.3312, 77.60423
503.8133, 78.43208
504.2954, 78.95155
504.7775, 79.13700
505.2596, 79.12212
505.7418, 78.88550
506.2239, 78.51807
506.7060, 78.13927
507.1881, 77.74365
507.6702, 77.38933
508.1523, 77.14956
508.6345, 76.95577
509.1166, 76.70132
509.5987, 76.36917
510.0808, 75.95161
510.5629, 75.35902
511.0450, 74.64854
511.5272, 74.41140
512.0093, 75.12012
512.4914, 75.67273
512.9735, 75.59717
513.4556, 75.24375
513.9377, 75.05964
514.4199, 75.17110
514.9020, 75.44615
515.3841, 75.73476
515.8662, 76.04533
516.3483, 76.30952
516.8304, 76.51276
517.3126, 76.68215
517.7947, 76.80571
518.2768, 76.90470
518.7589, 77.01548
519.2410, 77.15426
519.7231, 77.28026
520.2053, 77.28299
520.6874, 77.14091
521.1695, 77.21890
521.6516, 77.77186
522.1337, 78.28696
522.6158, 78.31089
523.0980, 78.01660
523.5801, 77.90984
524.0622, 78.30937
524.5443, 78.83285
525.0264, 79.04607
525.5085, 79.00512
525.9907, 79.04492
526.4728, 79.31163
526.9549, 79.64671
527.4370, 79.83157
527.9191, 79.87014
528.4012, 79.76487
528.8834, 79.27396
529.3655, 78.84653
529.8476, 78.90493
530.3297, 79.30302
530.8118, 79.58919
531.2939, 79.52010
531.7761, 79.19482
532.2582, 78.85580
532.7403, 78.46688
533.2224, 78.13192
533.7045, 77.79358
534.1866, 77.55171
534.6688, 77.52694
535.1509, 77.65696
535.6330, 77.75795
536.1151, 77.70723
536.5972, 77.55014
537.0793, 77.40381
537.5615, 77.27308
538.0436, 77.13569
538.5257, 76.93950
539.0078, 76.77504
539.4899, 76.78170
539.9720, 76.94631
540.4542, 76.98646
540.9363, 76.56789
541.4184, 76.04256
541.9005, 76.01991
542.3826, 76.48775
542.8647, 76.79375
543.3469, 76.51800
543.8290, 75.94638
544.3111, 75.86564
544.7932, 76.57359
545.2753, 76.99754
545.7574, 76.83366
546.2396, 76.43686
546.7217, 76.00609
547.2038, 75.61731
547.6859, 75.41142
548.1680, 75.51370
548.6501, 75.82256
549.1323, 75.86844
549.6144, 75.40549
550.0965, 75.10571
550.5786, 75.25095
551.0607, 75.40473
551.5428, 75.10323
552.0250, 74.42959
552.5071, 73.99399
552.9892, 74.41650
553.4713, 75.34587
553.9534, 75.68155
554.4355, 75.28163
554.9177, 75.01353
555.3998, 75.36553
555.8819, 75.92173
556.3640, 76.10691
556.8461, 75.87393
557.3282, 75.59449
557.8104, 75.41687
558.2925, 75.26533
558.7746, 74.95194
559.2567, 74.51855
559.7388, 74.38777
560.2209, 74.89115
560.7031, 75.75404
561.1852, 76.10012
561.6673, 75.42094
562.1494, 74.92627
562.6315, 74.70964
563.1136, 74.62110
563.5958, 74.59245
564.0779, 74.59345
564.5600, 74.59927
565.0421, 74.60568
565.5242, 74.58065
566.0063, 74.38820
566.4885, 73.94569
566.9706, 73.57968
567.4527, 73.40856
567.9348, 73.31275
568.4169, 73.27873
568.8990, 73.27498
569.3812, 73.13586
569.8633, 72.70798
570.3454, 72.13106
570.8275, 71.55748
571.3096, 70.99771
571.7917, 70.56928
572.2739, 70.35353
572.7560, 70.23686
573.2381, 69.99965
573.7202, 69.58488
574.2023, 69.27807
574.6844, 69.12415
575.1666, 69.06899
575.6487, 69.20142
576.1308, 69.40040
576.6129, 69.36131
577.0950, 68.91609
577.5771, 68.24513
578.0593, 67.74360
578.5414, 67.46431
579.0235, 67.21008
579.5056, 67.03986
579.9877, 66.82828
580.4698, 66.43230
580.9520, 65.95483
581.4341, 65.64494
581.9162, 65.67044
582.3983, 65.79199
582.8804, 65.67085
583.3625, 65.33054
583.8447, 65.02308
584.3268, 64.80150
584.8089, 64.64005
585.2910, 64.51788
585.7731, 64.43595
586.2552, 64.40805
586.7374, 64.65555
587.2195, 64.72780
587.7016, 64.11580
588.1837, 63.24096
588.6658, 62.92251
589.1479, 63.38240
589.6301, 64.04034
590.1122, 64.15397
590.5943, 63.63917
591.0764, 63.38567
591.5585, 63.68959
592.0406, 63.91408
592.5228, 63.81088
593.0049, 63.59444
593.4870, 63.56606
593.9691, 63.79539
594.4512, 63.98861
594.9333, 63.86451
595.4155, 63.46783
595.8976, 62.90268
596.3797, 62.07402
596.8618, 61.54536
597.3439, 61.80325
597.8260, 62.54072
598.3082, 62.97058
598.7903, 62.98740
599.2724, 62.96575
599.7545, 63.06501
600.2366, 63.16156
600.7188, 63.08673
601.2009, 62.85692
601.6830, 62.63099
602.1651, 62.50666
602.6472, 62.48818
603.1293, 62.60307
603.6115, 62.95708
604.0936, 63.25061
604.5757, 63.51883
605.0578, 63.67982
605.5399, 63.62630
606.0220, 63.41385
606.5042, 63.21180
606.9863, 63.10896
607.4684, 63.07595
607.9505, 63.04388
608.4326, 63.01595
608.9147, 63.12792
609.3969, 63.45888
609.8790, 63.86180
610.3611, 64.22184
610.8432, 64.53592
