##NAMES=Diopside
##RRUFFID=R040097
##IDEAL CHEMISTRY=CaMgSi_2_O_6_
##LOCALITY=Fassathal, Tyrol
##OWNER=RRUFF
##SOURCE=University of Arizona Mineral Museum
##DESCRIPTION=Green prismatic crystals
##STATUS=The identification of this mineral has been confirmed by X-ray diffraction and chemical analysis
##URL=rruff.info/R040097
##MEASURED CHEMISTRY=Ca_1.00_(Mg_0.83_Al_0.10_Fe_0.09_Ca_0.02_Ti_0.02_)(Si_0.88_Al_0.12_)_2_O_6_
148.5722, 54810.63
149.0543, 54857.23
149.5364, 54911.62
150.0185, 54969.13
150.5006, 55035.18
150.9828, 55096.34
151.4649, 55139.76
151.9470, 55168.58
152.4291, 55224.96
152.9112, 55343.23
153.3933, 55469.66
153.8755, 55567.47
154.3576, 55590.09
154.8397, 55622.92
155.3218, 55670.48
155.8039, 55726.11
156.2860, 55841.17
156.7682, 56156.21
157.2503, 56499.45
157.7324, 56657.91
158.2145, 56375.61
158.6966, 56058.64
159.1787, 55883.77
159.6609, 55934.09
160.1430, 55989.77
160.6251, 55983.77
161.1072, 55936.01
161.5893, 55890.82
162.0714, 55861.19
162.5536, 55844.27
163.0357, 55839.11
163.5178, 55856.62
163.9999, 55875.70
164.4820, 55881.96
164.9641, 55878.90
165.4463, 55886.99
165.9284, 55905.30
166.4105, 55943.04
166.8926, 56009.98
167.3747, 56165.71
167.8568, 56310.96
168.3390, 56365.05
168.8211, 56318.92
169.3032, 56264.48
169.7853, 56254.35
170.2674, 56275.95
170.7495, 56308.04
171.2317, 56349.21
171.7138, 56392.20
172.1959, 56424.17
172.6780, 56437.32
173.1601, 56464.85
173.6422, 56557.84
174.1244, 56696.90
174.6065, 56814.84
175.0886, 56843.33
175.5707, 56834.84
176.0528, 56869.58
176.5349, 56980.00
177.0171, 57114.69
177.4992, 57216.93
177.9813, 57287.71
178.4634, 57348.99
178.9455, 57392.14
179.4276, 57435.03
179.9098, 57524.45
180.3919, 57713.47
180.8740, 57934.29
181.3561, 58071.71
181.8382, 58121.02
182.3203, 58146.80
182.8025, 58215.88
183.2846, 58317.81
183.7667, 58411.77
184.2488, 58495.99
184.7309, 58562.37
185.2130, 58568.91
185.6951, 58505.55
186.1773, 58430.78
186.6594, 58411.71
187.1415, 58448.52
187.6236, 58529.91
188.1057, 58678.29
188.5878, 58875.11
189.0700, 59033.50
189.5521, 59131.91
190.0342, 59202.71
190.5163, 59329.82
190.9984, 59514.10
191.4805, 59647.11
191.9627, 59611.96
192.4448, 59422.72
192.9269, 59275.30
193.4090, 59216.18
193.8911, 59210.10
194.3732, 59138.91
194.8554, 58988.70
195.3375, 58851.24
195.8196, 58837.08
196.3017, 58950.98
196.7838, 59026.83
197.2659, 59018.98
197.7481, 58939.23
198.2302, 58844.40
198.7123, 58724.74
199.1944, 58623.73
199.6765, 58606.97
200.1586, 58686.27
200.6408, 58763.66
201.1229, 58802.87
201.6050, 58802.77
202.0871, 58806.73
202.5692, 58809.82
203.0513, 58822.04
203.5335, 58863.34
204.0156, 58937.24
204.4977, 59018.67
204.9798, 59086.14
205.4619, 59129.20
205.9440, 59228.68
206.4262, 59410.32
206.9083, 59630.22
207.3904, 59775.16
207.8725, 59828.07
208.3546, 59848.95
208.8367, 59870.04
209.3189, 59892.63
209.8010, 59909.20
210.2831, 59922.24
210.7652, 59929.14
211.2473, 59916.50
211.7294, 59882.29
212.2116, 59836.02
212.6937, 59776.69
213.1758, 59688.04
213.6579, 59648.10
214.1400, 59685.76
214.6221, 59795.83
215.1043, 59873.79
215.5864, 59911.78
216.0685, 59934.89
216.5506, 59960.97
217.0327, 59978.20
217.5148, 60032.95
217.9970, 60149.81
218.4791, 60332.95
218.9612, 60472.08
219.4433, 60541.32
219.9254, 60587.39
220.4075, 60673.82
220.8897, 60817.69
221.3718, 60959.29
221.8539, 61076.04
222.3360, 61162.69
222.8181, 61246.68
223.3002, 61320.43
223.7824, 61394.40
224.2645, 61488.56
224.7466, 61617.54
225.2287, 61744.47
225.7108, 61851.16
226.1929, 61918.40
226.6750, 62028.38
227.1572, 62223.25
227.6393, 62449.03
228.1214, 62546.86
228.6035, 62401.35
229.0856, 62299.62
229.5677, 62414.81
230.0499, 62927.74
230.5320, 63232.19
231.0141, 63236.51
231.4962, 63008.80
231.9783, 62822.11
232.4604, 62680.90
232.9426, 62576.02
233.4247, 62508.37
233.9068, 62513.66
234.3889, 62481.10
234.8710, 62370.45
235.3531, 62198.51
235.8353, 62128.59
236.3174, 62200.64
236.7995, 62331.06
237.2816, 62467.07
237.7637, 62641.89
238.2458, 62757.65
238.7280, 62776.86
239.2101, 62701.95
239.6922, 62686.88
240.1743, 62763.96
240.6564, 62868.31
241.1385, 62937.59
241.6207, 62946.27
242.1028, 62965.37
242.5849, 63012.00
243.0670, 63088.91
243.5491, 63146.59
244.0313, 63139.65
244.5134, 63151.23
244.9955, 63299.63
245.4776, 63722.39
245.9597, 64042.18
246.4418, 64137.37
246.9240, 63954.11
247.4061, 63861.89
247.8882, 63885.52
248.3703, 63983.60
248.8524, 64094.28
249.3345, 64196.04
249.8167, 64349.37
250.2988, 64588.80
250.7809, 64949.38
251.2630, 65254.88
251.7451, 65484.41
252.2272, 65667.26
252.7094, 65862.45
253.1915, 66114.46
253.6736, 66301.40
254.1557, 66379.05
254.6378, 66335.83
255.1199, 66215.23
255.6021, 65990.50
256.0842, 65702.69
256.5663, 65437.74
257.0484, 65188.05
257.5305, 64974.07
258.0126, 64804.17
258.4948, 64677.05
258.9769, 64602.48
259.4590, 64607.89
259.9411, 64657.41
260.4232, 64645.54
260.9053, 64540.97
261.3875, 64434.18
261.8696, 64362.75
262.3517, 64319.95
262.8338, 64343.54
263.3159, 64456.34
263.7980, 64631.69
264.2802, 64773.10
264.7623, 64866.18
265.2444, 64954.02
265.7265, 65072.04
266.2086, 65237.03
266.6907, 65354.91
267.1729, 65403.82
267.6550, 65398.95
268.1371, 65403.84
268.6192, 65425.50
269.1013, 65437.63
269.5834, 65411.39
270.0656, 65330.84
270.5477, 65284.26
271.0298, 65278.89
271.5119, 65316.19
271.9940, 65428.64
272.4761, 65658.74
272.9583, 65856.45
273.4404, 65884.96
273.9225, 65706.56
274.4046, 65574.74
274.8867, 65536.56
275.3688, 65573.08
275.8510, 65603.69
276.3331, 65633.20
276.8152, 65643.51
277.2973, 65598.41
277.7794, 65486.10
278.2615, 65434.16
278.7437, 65480.03
279.2258, 65603.13
279.7079, 65723.01
280.1900, 65847.83
280.6721, 65939.63
281.1542, 65941.73
281.6364, 65849.25
282.1185, 65793.77
282.6006, 65814.63
283.0827, 65892.55
283.5648, 65949.01
284.0469, 65981.62
284.5291, 66007.73
285.0112, 66036.70
285.4933, 66068.83
285.9754, 66121.82
286.4575, 66202.25
286.9396, 66304.12
287.4217, 66413.45
287.9038, 66530.98
288.3860, 66639.84
288.8681, 66719.73
289.3502, 66771.29
289.8323, 66816.63
290.3144, 66858.07
290.7965, 66896.98
291.2787, 66933.68
291.7608, 66966.91
292.2429, 67011.72
292.7250, 67109.72
293.2071, 67244.24
293.6892, 67326.91
294.1714, 67300.98
294.6535, 67219.47
295.1356, 67203.95
295.6177, 67258.63
296.0998, 67323.91
296.5819, 67328.77
297.0641, 67296.33
297.5462, 67301.41
298.0283, 67386.74
298.5104, 67515.85
298.9925, 67630.84
299.4746, 67731.94
299.9568, 67830.22
300.4389, 67938.56
300.9210, 68050.71
301.4031, 68155.84
301.8852, 68238.38
302.3673, 68314.44
302.8495, 68411.99
303.3316, 68528.39
303.8137, 68636.67
304.2958, 68700.54
304.7779, 68740.28
305.2600, 68791.34
305.7422, 68847.09
306.2243, 68932.09
306.7064, 69096.51
307.1885, 69336.94
307.6706, 69554.88
308.1527, 69666.90
308.6349, 69718.35
309.1170, 69769.77
309.5991, 69838.34
310.0812, 69921.40
310.5633, 70019.66
311.0454, 70134.25
311.5276, 70258.93
312.0097, 70403.70
312.4918, 70552.34
312.9739, 70688.48
313.4560, 70798.34
313.9381, 70900.38
314.4203, 70993.06
314.9024, 71079.78
315.3845, 71188.11
315.8666, 71332.01
316.3487, 71502.62
316.8308, 71691.45
317.3130, 71908.30
317.7951, 72130.96
318.2772, 72340.89
318.7593, 72540.99
319.2414, 72758.33
319.7235, 73033.27
320.2057, 73313.23
320.6878, 73556.80
321.1699, 73727.47
321.6520, 73890.47
322.1341, 74081.89
322.6162, 74295.00
323.0984, 74444.34
323.5805, 74481.36
324.0626, 74470.26
324.5447, 74454.54
325.0268, 74446.22
325.5089, 74427.51
325.9911, 74394.73
326.4732, 74348.30
326.9553, 74293.29
327.4374, 74228.02
327.9195, 74152.60
328.4016, 74065.90
328.8838, 73967.64
329.3659, 73853.26
329.8480, 73711.05
330.3301, 73545.87
330.8122, 73389.48
331.2943, 73218.24
331.7765, 73075.91
332.2586, 72993.97
332.7407, 73033.62
333.2228, 73024.03
333.7049, 72949.52
334.1870, 72819.94
334.6692, 72660.57
335.1513, 72425.56
335.6334, 72235.77
336.1155, 72180.49
336.5976, 72325.34
337.0797, 72390.94
337.5619, 72330.35
338.0440, 72194.14
338.5261, 72140.84
339.0082, 72199.41
339.4903, 72250.86
339.9724, 72211.47
340.4546, 72063.46
340.9367, 71977.42
341.4188, 71976.88
341.9009, 72023.65
342.3830, 72044.20
342.8651, 72039.33
343.3473, 72013.84
343.8294, 71949.50
344.3115, 71854.45
344.7936, 71829.98
345.2757, 71895.59
345.7578, 72003.97
346.2400, 72087.90
346.7221, 72147.84
347.2042, 72198.98
347.6863, 72246.86
348.1684, 72290.79
348.6505, 72319.96
349.1327, 72324.93
349.6148, 72347.19
350.0969, 72426.93
350.5790, 72561.68
351.0611, 72747.85
351.5432, 73042.13
352.0254, 73363.49
352.5075, 73595.75
352.9896, 73731.45
353.4717, 73783.59
353.9538, 73717.92
354.4359, 73579.41
354.9181, 73457.80
355.4002, 73402.65
355.8823, 73377.80
356.3644, 73343.58
356.8465, 73300.63
357.3286, 73289.76
357.8108, 73383.34
358.2929, 73514.46
358.7750, 73596.77
359.2571, 73569.88
359.7392, 73511.13
360.2213, 73440.55
360.7035, 73362.20
361.1856, 73326.85
361.6677, 73405.21
362.1498, 73511.76
362.6319, 73573.04
363.1140, 73476.23
363.5962, 73424.06
364.0783, 73512.48
364.5604, 73717.52
365.0425, 73871.79
365.5246, 73888.98
366.0067, 73873.80
366.4889, 73891.03
366.9710, 73988.05
367.4531, 74072.61
367.9352, 74132.16
368.4173, 74172.39
368.8994, 74217.01
369.3815, 74269.95
369.8636, 74325.09
370.3458, 74379.78
370.8279, 74439.37
371.3100, 74489.80
371.7921, 74525.73
372.2742, 74553.45
372.7563, 74588.05
373.2385, 74626.52
373.7206, 74674.83
374.2027, 74738.07
374.6848, 74822.11
375.1669, 74892.77
375.6490, 74946.70
376.1312, 74990.16
376.6133, 75024.81
377.0954, 75039.40
377.5775, 75093.25
378.0596, 75225.95
378.5417, 75432.71
379.0239, 75609.73
379.5060, 75750.59
379.9881, 75878.40
380.4702, 76002.07
380.9523, 76124.52
381.4344, 76299.05
381.9166, 76587.39
382.3987, 76931.38
382.8808, 77140.47
383.3629, 77202.80
383.8450, 77272.90
384.3271, 77523.86
384.8093, 77904.95
385.2914, 78255.50
385.7735, 78511.66
386.2556, 78724.06
386.7377, 78959.71
387.2198, 79212.70
387.7020, 79448.06
388.1841, 79618.66
388.6662, 79761.63
389.1483, 79935.85
389.6304, 80188.59
390.1125, 80424.80
390.5947, 80597.28
391.0768, 80704.94
391.5589, 80734.38
392.0410, 80627.38
392.5231, 80475.21
393.0052, 80352.74
393.4874, 80307.22
393.9695, 80206.23
394.4516, 79975.17
394.9337, 79653.92
395.4158, 79315.98
395.8979, 78905.11
396.3801, 78542.26
396.8622, 78298.05
397.3443, 78220.60
397.8264, 78098.55
398.3085, 77853.88
398.7906, 77566.72
399.2728, 77335.88
399.7549, 77219.70
400.2370, 77097.35
400.7191, 76938.54
401.2012, 76739.34
401.6833, 76576.03
402.1655, 76454.32
402.6476, 76367.82
403.1297, 76318.92
403.6118, 76332.39
404.0939, 76325.88
404.5760, 76282.13
405.0582, 76208.95
405.5403, 76145.97
406.0224, 76093.03
406.5045, 76051.02
406.9866, 76023.07
407.4688, 76009.16
407.9509, 75992.55
408.4330, 75968.08
408.9151, 75942.14
409.3972, 75928.66
409.8793, 75927.30
410.3615, 75932.70
410.8436, 75947.70
411.3257, 75967.80
411.8078, 75969.30
412.2899, 75944.23
412.7720, 75932.87
413.2542, 76007.55
413.7363, 76140.25
414.2184, 76247.68
414.7005, 76285.75
415.1826, 76280.18
415.6647, 76236.26
416.1469, 76153.23
416.6290, 76107.70
417.1111, 76203.16
417.5932, 76355.13
418.0753, 76450.47
418.5574, 76362.60
419.0396, 76286.44
419.5217, 76349.01
420.0038, 76526.99
420.4859, 76671.24
420.9680, 76719.69
421.4501, 76716.60
421.9323, 76692.65
422.4144, 76674.83
422.8965, 76612.23
423.3786, 76437.22
423.8607, 76208.29
424.3428, 76087.28
424.8250, 76190.64
425.3071, 76316.85
425.7892, 76393.94
426.2713, 76394.43
426.7534, 76428.08
427.2355, 76516.23
427.7177, 76623.16
428.1998, 76687.35
428.6819, 76671.61
429.1640, 76690.15
429.6461, 76788.96
430.1282, 76962.00
430.6104, 77068.29
431.0925, 77082.61
431.5746, 77084.84
432.0567, 77169.95
432.5388, 77340.02
433.0209, 77468.41
433.5031, 77522.41
433.9852, 77523.64
434.4673, 77522.69
434.9494, 77520.73
435.4315, 77514.51
435.9136, 77507.09
436.3958, 77496.40
436.8779, 77468.13
437.3600, 77413.16
437.8421, 77368.75
438.3242, 77388.60
438.8063, 77455.36
439.2885, 77518.65
439.7706, 77536.34
440.2527, 77547.92
440.7348, 77593.94
441.2169, 77680.26
441.6990, 77764.94
442.1812, 77819.55
442.6633, 77859.21
443.1454, 77902.91
443.6275, 77944.98
444.1096, 78000.30
444.5917, 78080.62
445.0739, 78183.45
445.5560, 78277.48
446.0381, 78383.36
446.5202, 78460.16
447.0023, 78483.23
447.4844, 78365.78
447.9666, 78306.40
448.4487, 78332.19
448.9308, 78416.38
449.4129, 78486.27
449.8950, 78533.20
450.3771, 78580.51
450.8593, 78643.54
451.3413, 78730.92
451.8235, 78789.71
452.3056, 78830.05
452.7877, 78826.78
453.2698, 78705.27
453.7519, 78448.04
454.2340, 78285.72
454.7162, 78326.11
455.1983, 78502.98
455.6804, 78565.39
456.1625, 78506.30
456.6446, 78450.94
457.1267, 78542.67
457.6089, 78722.96
458.0910, 78827.97
458.5731, 78799.18
459.0552, 78725.83
459.5373, 78705.04
460.0194, 78727.15
460.5016, 78759.63
460.9837, 78797.12
461.4658, 78829.45
461.9479, 78834.44
462.4300, 78798.04
462.9121, 78800.98
463.3943, 78951.94
463.8764, 79148.05
464.3585, 79253.93
464.8406, 79116.30
465.3227, 78993.27
465.8048, 78985.14
466.2870, 79093.46
466.7691, 79172.32
467.2512, 79171.55
467.7333, 79159.78
468.2154, 79178.22
468.6975, 79236.80
469.1797, 79310.01
469.6618, 79410.56
470.1439, 79519.79
470.6260, 79581.40
471.1081, 79571.70
471.5902, 79569.23
472.0724, 79614.84
472.5545, 79713.05
473.0366, 79772.61
473.5187, 79782.52
474.0008, 79782.60
474.4829, 79846.59
474.9651, 79964.98
475.4472, 80012.30
475.9293, 79912.92
476.4114, 79747.16
476.8935, 79684.34
477.3756, 79719.85
477.8578, 79773.92
478.3399, 79797.92
478.8220, 79802.66
479.3041, 79796.76
479.7862, 79769.10
480.2683, 79765.96
480.7505, 79847.25
481.2326, 79978.03
481.7147, 80084.70
482.1968, 80085.14
482.6789, 80093.97
483.1610, 80188.02
483.6432, 80385.09
484.1253, 80537.94
484.6074, 80571.67
485.0895, 80559.95
485.5716, 80566.89
486.0537, 80612.60
486.5359, 80656.70
487.0180, 80700.82
487.5001, 80741.38
487.9822, 80761.20
488.4643, 80751.08
488.9464, 80736.67
489.4286, 80723.95
489.9107, 80706.66
490.3928, 80742.99
490.8749, 80858.25
491.3570, 80987.65
491.8391, 81036.61
492.3213, 81006.50
492.8034, 80946.26
493.2855, 80851.77
493.7676, 80750.60
494.2497, 80715.17
494.7318, 80745.91
495.2140, 80802.40
495.6961, 80870.15
496.1782, 80938.10
496.6603, 80977.94
497.1424, 80965.66
497.6245, 80963.83
498.1067, 81044.95
498.5888, 81172.91
499.0709, 81265.91
499.5530, 81219.73
500.0351, 81179.72
500.5172, 81231.86
500.9994, 81392.00
501.4815, 81552.55
501.9636, 81728.87
502.4457, 81873.10
502.9278, 81942.02
503.4099, 81818.89
503.8921, 81768.45
504.3742, 81862.63
504.8563, 82055.05
505.3384, 82144.23
505.8205, 82104.91
506.3026, 82021.18
506.7848, 81920.41
507.2669, 81795.46
507.7490, 81719.48
508.2311, 81691.83
508.7132, 81721.25
509.1953, 81865.09
509.6775, 82106.95
510.1596, 82261.20
510.6417, 82211.06
511.1238, 82067.52
511.6059, 82057.64
512.0880, 82169.31
512.5701, 82290.06
513.0522, 82330.36
513.5344, 82333.90
514.0165, 82355.96
514.4986, 82407.45
514.9807, 82470.64
515.4628, 82554.03
515.9449, 82640.03
516.4271, 82697.84
516.9092, 82697.48
517.3913, 82690.48
517.8734, 82708.21
518.3555, 82755.55
518.8376, 82766.15
519.3198, 82676.48
519.8019, 82591.56
520.2840, 82580.84
520.7661, 82712.95
521.2482, 82781.40
521.7303, 82747.18
522.2125, 82660.71
522.6946, 82637.49
523.1767, 82687.50
523.6588, 82753.61
524.1409, 82820.80
524.6230, 82885.50
525.1052, 82928.23
525.5873, 82946.97
526.0694, 82960.23
526.5515, 82977.91
527.0336, 83004.35
527.5157, 83056.16
527.9979, 83150.81
528.4800, 83247.16
528.9621, 83288.55
529.4442, 83292.64
529.9263, 83312.79
530.4084, 83416.56
530.8906, 83516.42
531.3727, 83526.21
531.8548, 83421.15
532.3369, 83372.52
532.8190, 83494.97
533.3011, 83668.84
533.7833, 83783.32
534.2654, 83768.16
534.7475, 83758.48
535.2296, 83769.16
535.7117, 83794.05
536.1938, 83813.13
536.6760, 83827.65
537.1581, 83835.21
537.6402, 83832.74
538.1223, 83819.57
538.6044, 83818.34
539.0865, 83835.42
539.5687, 83849.74
540.0508, 83809.01
540.5329, 83729.14
541.0150, 83735.46
541.4971, 83896.01
541.9792, 84113.48
542.4614, 84235.56
542.9435, 84276.07
543.4256, 84297.77
543.9077, 84355.32
544.3898, 84402.40
544.8719, 84377.59
545.3541, 84262.46
545.8362, 84168.22
546.3183, 84178.27
546.8004, 84223.55
547.2825, 84228.76
547.7646, 84093.85
548.2468, 84007.95
548.7289, 84026.71
549.2110, 84127.95
549.6931, 84222.66
550.1752, 84346.96
550.6573, 84413.95
551.1395, 84360.47
551.6216, 84146.40
552.1037, 84069.27
552.5858, 84165.33
553.0679, 84319.24
553.5500, 84398.52
554.0322, 84406.13
554.5143, 84416.08
554.9964, 84448.39
555.4785, 84490.77
555.9606, 84521.21
556.4427, 84541.51
556.9249, 84558.40
557.4070, 84566.48
557.8891, 84577.70
558.3712, 84610.16
558.8533, 84667.28
559.3354, 84717.74
559.8176, 84704.95
560.2997, 84691.73
560.7818, 84742.80
561.2639, 84965.26
561.7460, 85147.73
562.2281, 85231.62
562.7103, 85237.10
563.1924, 85245.66
563.6745, 85260.09
564.1566, 85275.48
564.6387, 85296.60
565.1208, 85328.82
565.6030, 85319.20
566.0851, 85256.13
566.5672, 85183.59
567.0493, 85143.60
567.5314, 85137.20
568.0135, 85151.66
568.4957, 85194.41
568.9778, 85242.41
569.4599, 85249.97
569.9420, 85226.35
570.4241, 85209.08
570.9063, 85222.93
571.3884, 85249.52
571.8705, 85265.52
572.3526, 85269.59
572.8347, 85289.84
573.3168, 85350.52
573.7990, 85427.52
574.2811, 85500.73
574.7632, 85579.48
575.2453, 85635.79
575.7274, 85649.83
576.2095, 85641.09
576.6917, 85647.63
577.1738, 85674.72
577.6559, 85707.96
578.1380, 85745.14
578.6201, 85785.36
579.1022, 85816.43
579.5844, 85833.27
580.0665, 85857.38
580.5486, 85915.55
581.0307, 86000.76
581.5128, 86059.52
581.9949, 86083.37
582.4771, 86088.38
582.9592, 86090.25
583.4413, 86089.10
583.9234, 86084.97
584.4055, 86079.23
584.8876, 86070.70
585.3698, 86053.02
585.8519, 86030.38
586.3340, 86021.90
586.8161, 86025.01
587.2982, 86054.27
587.7803, 86127.70
588.2625, 86282.60
588.7446, 86387.59
589.2267, 86392.65
589.7088, 86375.51
590.1909, 86426.53
590.6730, 86581.14
591.1552, 86703.76
591.6373, 86765.96
592.1194, 86784.70
592.6015, 86807.98
593.0836, 86835.59
593.5657, 86860.85
594.0479, 86871.40
594.5300, 86876.30
595.0121, 86894.35
595.4942, 86924.52
595.9763, 86985.58
596.4584, 87136.56
596.9406, 87311.38
597.4227, 87426.26
597.9048, 87452.00
598.3869, 87426.48
598.8690, 87323.84
599.3511, 87187.42
599.8333, 87099.55
600.3154, 87130.40
600.7975, 87159.20
601.2796, 87156.80
601.7617, 87125.10
602.2438, 87081.22
602.7260, 87007.38
603.2081, 86958.16
603.6902, 86990.64
604.1723, 87118.04
604.6544, 87155.20
605.1365, 87064.11
605.6187, 86975.11
606.1008, 87115.03
606.5829, 87423.82
607.0650, 87646.62
607.5471, 87681.87
608.0292, 87616.09
608.5114, 87498.70
608.9935, 87352.87
609.4756, 87261.04
609.9577, 87288.51
610.4398, 87366.44
610.9219, 87463.52
611.4041, 87581.26
611.8862, 87680.23
612.3683, 87750.25
612.8504, 87798.99
613.3325, 87832.77
613.8146, 87849.01
614.2968, 87849.27
614.7789, 87815.02
615.2610, 87779.96
615.7431, 87820.85
616.2252, 87945.01
616.7073, 88068.76
617.1895, 88165.82
617.6716, 88239.29
618.1537, 88296.75
618.6358, 88338.89
619.1179, 88361.04
619.6000, 88340.88
620.0822, 88309.05
620.5643, 88302.63
621.0464, 88328.29
621.5285, 88371.47
622.0106, 88452.03
622.4927, 88534.62
622.9749, 88580.95
623.4570, 88539.23
623.9391, 88513.59
624.4212, 88524.61
624.9033, 88560.84
625.3854, 88593.00
625.8676, 88614.57
626.3497, 88644.43
626.8318, 88688.71
627.3139, 88746.14
627.7960, 88821.27
628.2781, 88919.08
628.7603, 88987.70
629.2424, 88956.58
629.7245, 88864.58
630.2066, 88814.16
630.6887, 88822.53
631.1708, 88854.45
631.6530, 88884.79
632.1351, 88916.99
632.6172, 88956.48
633.0993, 89018.51
633.5814, 89075.15
634.0635, 89119.27
634.5457, 89151.94
635.0278, 89174.80
635.5099, 89170.98
635.9920, 89177.36
636.4741, 89198.41
636.9562, 89232.79
637.4384, 89324.14
637.9205, 89488.15
638.4026, 89666.99
638.8847, 89812.09
639.3668, 89926.46
639.8489, 90050.07
640.3311, 90199.97
640.8132, 90304.12
641.2953, 90234.29
641.7774, 90055.97
642.2595, 89910.42
642.7416, 89828.98
643.2238, 89821.48
643.7059, 89939.84
644.1880, 90146.56
644.6701, 90318.56
