##NAMES=Dioptase
##RRUFFID=R040028
##IDEAL CHEMISTRY=Cu^2+^SiO_3_&#183;H_2_O
##LOCALITY=Tantara mine, Democratic Republic of the Congo
##OWNER=RRUFF
##SOURCE=University of Arizona Mineral Museum
##DESCRIPTION=Bluish green coarsely crystallized fragment
##STATUS=The identification of this mineral has been confirmed by X-ray diffraction and chemical analysis
##URL=rruff.info/R040028
##MEASURED CHEMISTRY=Cu_1.00_Si_1.00_O_3_Â·H_2_O; H_2_O estimated by difference
121.8511, 246.4787
122.3332, 253.3345
122.8154, 259.8346
123.2975, 263.7804
123.7796, 267.2787
124.2617, 272.4516
124.7438, 279.5331
125.2259, 288.4529
125.7081, 298.2514
126.1902, 309.3001
126.6723, 322.2881
127.1544, 338.8966
127.6365, 359.7481
128.1186, 384.8719
128.6008, 415.5697
129.0829, 448.3667
129.5650, 482.2090
130.0471, 516.6383
130.5292, 541.3519
131.0113, 544.8436
131.4935, 530.6630
131.9756, 512.1808
132.4577, 489.3351
132.9398, 466.0208
133.4219, 454.3259
133.9040, 454.4713
134.3862, 462.1658
134.8683, 477.9760
135.3504, 501.7248
135.8325, 516.1662
136.3146, 517.0417
136.7967, 504.4318
137.2789, 475.7169
137.7610, 427.2848
138.2431, 371.1348
138.7252, 320.8380
139.2073, 275.7517
139.6894, 238.3712
140.1716, 210.0887
140.6537, 191.5023
141.1358, 175.8669
141.6179, 163.0422
142.1000, 152.8450
142.5821, 145.3988
143.0643, 141.4034
143.5464, 138.4543
144.0285, 135.4295
144.5106, 131.7247
144.9927, 129.6129
145.4748, 129.6332
145.9570, 131.1483
146.4391, 132.3350
146.9212, 132.9219
147.4033, 133.5227
147.8854, 134.4212
148.3675, 135.6231
148.8497, 137.0992
149.3318, 138.8059
149.8139, 140.7512
150.2960, 143.0220
150.7781, 145.5539
151.2602, 148.4397
151.7424, 151.7039
152.2245, 155.0195
152.7066, 159.0623
153.1887, 163.9126
153.6708, 169.5132
154.1529, 175.6765
154.6351, 181.9603
155.1172, 189.0916
155.5993, 197.5310
156.0814, 207.7694
156.5635, 218.9612
157.0456, 231.6375
157.5278, 245.6742
158.0099, 258.5959
158.4920, 271.9821
158.9741, 283.2687
159.4562, 290.2509
159.9383, 292.7382
160.4205, 290.6254
160.9026, 282.7437
161.3847, 268.8192
161.8668, 253.9825
162.3489, 238.9046
162.8310, 224.1874
163.3132, 210.5324
163.7953, 197.6741
164.2774, 186.3032
164.7595, 176.9096
165.2416, 169.5960
165.7237, 163.4894
166.2059, 158.0483
166.6880, 153.4776
167.1701, 150.0925
167.6522, 148.6119
168.1343, 147.9848
168.6164, 147.4891
169.0985, 147.0146
169.5807, 146.8064
170.0628, 146.7076
170.5449, 146.9823
171.0270, 148.1603
171.5091, 150.7940
171.9912, 154.3115
172.4734, 158.1484
172.9555, 162.1968
173.4376, 166.7369
173.9197, 172.0918
174.4018, 178.1531
174.8839, 184.5997
175.3661, 191.6609
175.8482, 198.8055
176.3303, 205.6452
176.8124, 212.6618
177.2945, 218.0735
177.7766, 219.8405
178.2588, 218.3159
178.7409, 214.8788
179.2230, 209.7045
179.7051, 203.2771
180.1872, 196.4476
180.6693, 189.0705
181.1515, 181.7535
181.6336, 175.4535
182.1157, 170.0918
182.5978, 165.1384
183.0799, 160.1297
183.5620, 155.1851
184.0442, 150.6864
184.5263, 146.5854
185.0084, 143.0547
185.4905, 140.4695
185.9726, 138.8179
186.4547, 137.4736
186.9369, 135.9858
187.4190, 134.3966
187.9011, 132.9267
188.3832, 131.5566
188.8653, 130.3722
189.3474, 129.3956
189.8296, 128.6012
190.3117, 128.4631
190.7938, 129.4839
191.2759, 131.5817
191.7580, 134.1252
192.2401, 137.0478
192.7223, 140.3103
193.2044, 144.0166
193.6865, 148.2848
194.1686, 152.3543
194.6507, 155.6443
195.1328, 158.1607
195.6150, 159.8164
196.0971, 160.5510
196.5792, 160.3979
197.0613, 159.1478
197.5434, 156.5658
198.0255, 154.0176
198.5077, 152.8398
198.9898, 153.0470
199.4719, 153.9107
199.9540, 155.1889
200.4361, 156.9643
200.9182, 159.9325
201.4004, 164.2846
201.8825, 169.2046
202.3646, 173.7613
202.8467, 177.7860
203.3288, 182.5623
203.8109, 188.6539
204.2931, 195.8589
204.7752, 202.4271
205.2573, 208.2548
205.7394, 213.7012
206.2215, 219.0627
206.7036, 224.2334
207.1858, 229.5859
207.6679, 235.0708
208.1500, 240.7312
208.6321, 247.4150
209.1142, 255.4764
209.5963, 263.8951
210.0785, 271.5508
210.5606, 278.1838
211.0427, 284.8175
211.5248, 291.6229
212.0069, 298.6095
212.4890, 306.1381
212.9712, 314.1153
213.4533, 322.8205
213.9354, 332.4650
214.4175, 343.2227
214.8996, 354.6365
215.3817, 366.6657
215.8639, 379.2043
216.3460, 392.7324
216.8281, 407.2696
217.3102, 422.8342
217.7923, 439.3751
218.2744, 457.3195
218.7565, 475.5917
219.2387, 493.9840
219.7208, 512.7101
220.2029, 529.7753
220.6850, 545.4791
221.1671, 558.9825
221.6492, 569.2215
222.1314, 576.3822
222.6135, 580.0909
223.0956, 580.3654
223.5777, 577.2542
224.0598, 569.8227
224.5419, 557.3897
225.0241, 541.3506
225.5062, 522.7032
225.9883, 501.0381
226.4704, 477.8260
226.9525, 453.6063
227.4346, 428.0253
227.9168, 402.1311
228.3989, 375.2374
228.8810, 348.7648
229.3631, 324.5937
229.8452, 302.7397
230.3273, 282.6600
230.8095, 264.2272
231.2916, 247.4358
231.7737, 232.4980
232.2558, 219.9460
232.7379, 208.6897
233.2200, 197.7297
233.7022, 186.5720
234.1843, 176.7144
234.6664, 168.5501
235.1485, 162.1521
235.6306, 156.8034
236.1127, 152.6989
236.5949, 149.3767
237.0770, 146.3826
237.5591, 143.6195
238.0412, 141.3816
238.5233, 139.7785
239.0054, 138.8068
239.4876, 138.2070
239.9697, 138.1682
240.4518, 138.2908
240.9339, 138.3161
241.4160, 138.6023
241.8981, 138.0688
242.3803, 136.3186
242.8624, 133.3814
243.3445, 130.6707
243.8266, 128.1622
244.3087, 125.8788
244.7908, 123.8106
245.2730, 121.8273
245.7551, 120.3238
246.2372, 119.4109
246.7193, 119.0619
247.2014, 118.9445
247.6835, 119.1213
248.1657, 119.4524
248.6478, 119.7694
249.1299, 119.7953
249.6120, 120.4216
250.0941, 121.8786
250.5762, 124.0779
251.0584, 126.3192
251.5405, 128.5255
252.0226, 130.8531
252.5047, 133.3794
252.9868, 136.1481
253.4689, 139.0458
253.9511, 142.0364
254.4332, 145.1588
254.9153, 148.4445
255.3974, 151.5423
255.8795, 155.3375
256.3616, 160.3763
256.8438, 166.9635
257.3259, 174.0173
257.8080, 181.2274
258.2901, 188.8320
258.7722, 198.0980
259.2543, 209.4436
259.7365, 221.8253
260.2186, 234.9408
260.7007, 248.6189
261.1828, 263.2773
261.6649, 279.5868
262.1470, 296.6310
262.6292, 312.6842
263.1113, 328.7524
263.5934, 341.5130
264.0755, 349.4590
264.5576, 352.7051
265.0397, 350.7018
265.5219, 342.5451
266.0040, 329.7317
266.4861, 314.9555
266.9682, 297.6438
267.4503, 280.0627
267.9324, 263.3124
268.4146, 246.9034
268.8967, 232.4079
269.3788, 219.7845
269.8609, 209.1111
270.3430, 200.9948
270.8251, 195.8214
271.3073, 191.9529
271.7894, 188.9873
272.2715, 186.9707
272.7536, 185.1613
273.2357, 183.3772
273.7178, 182.0876
274.2000, 182.1793
274.6821, 183.9199
275.1642, 185.8484
275.6463, 187.4282
276.1284, 188.6565
276.6105, 190.1192
277.0927, 191.7664
277.5748, 193.7532
278.0569, 196.4361
278.5390, 199.9056
279.0211, 203.2329
279.5032, 206.0210
279.9854, 208.3386
280.4675, 211.0425
280.9496, 214.1916
281.4317, 217.5370
281.9138, 220.7960
282.3959, 223.9614
282.8781, 227.2986
283.3602, 230.9881
283.8423, 234.9034
284.3244, 238.1604
284.8065, 240.6114
285.2886, 243.4210
285.7708, 247.7033
286.2529, 253.4072
286.7350, 259.7392
287.2171, 266.9685
287.6992, 274.4410
288.1813, 280.2519
288.6635, 284.4043
289.1456, 287.4194
289.6277, 289.9955
290.1098, 291.9417
290.5919, 291.9923
291.0740, 289.9821
291.5562, 285.9381
292.0383, 279.8011
292.5204, 271.5486
293.0025, 261.8421
293.4846, 251.0531
293.9667, 239.1040
294.4489, 225.3004
294.9310, 209.2340
295.4131, 192.5528
295.8952, 177.3481
296.3773, 163.6485
296.8594, 151.2289
297.3416, 140.0707
297.8237, 129.9584
298.3058, 120.5153
298.7879, 111.6033
299.2700, 103.5430
299.7521, 96.97916
300.2343, 91.69434
300.7164, 87.33446
301.1985, 83.94664
301.6806, 81.24080
302.1627, 78.85208
302.6448, 76.75005
303.1270, 74.91289
303.6091, 73.15067
304.0912, 71.63304
304.5733, 70.63094
305.0554, 70.59559
305.5375, 70.96191
306.0197, 71.18614
306.5018, 71.26734
306.9839, 71.20432
307.4660, 70.73304
307.9481, 70.17876
308.4302, 70.01757
308.9124, 70.65463
309.3945, 71.48199
309.8766, 72.00014
310.3587, 72.26408
310.8408, 72.53671
311.3229, 72.82993
311.8051, 73.27849
312.2872, 74.05303
312.7693, 75.41264
313.2514, 76.73868
313.7335, 77.50370
314.2156, 77.92041
314.6978, 78.61929
315.1799, 79.84521
315.6620, 81.49911
316.1441, 83.53856
316.6262, 86.08332
317.1083, 88.69407
317.5905, 91.03548
318.0726, 93.32053
318.5547, 95.96120
319.0368, 99.12870
319.5189, 102.6528
320.0010, 106.4957
320.4832, 110.7398
320.9653, 114.9417
321.4474, 119.1493
321.9295, 123.1923
322.4116, 126.8717
322.8937, 130.8209
323.3759, 133.7528
323.8580, 135.1643
324.3401, 134.9842
324.8222, 134.2045
325.3043, 133.3373
325.7864, 131.7289
326.2686, 128.8752
326.7507, 123.5347
327.2328, 118.2682
327.7149, 113.2818
328.1970, 108.6272
328.6791, 104.3269
329.1613, 100.3581
329.6434, 96.79222
330.1255, 93.67003
330.6076, 90.94651
331.0897, 88.72327
331.5718, 86.90211
332.0540, 85.58875
332.5361, 85.08100
333.0182, 85.62601
333.5003, 86.64395
333.9824, 87.85533
334.4645, 89.08610
334.9467, 91.08413
335.4288, 93.96681
335.9109, 97.52438
336.3930, 101.3873
336.8751, 105.6641
337.3572, 110.0779
337.8394, 114.6625
338.3215, 119.3962
338.8036, 123.9001
339.2857, 128.1681
339.7678, 132.2310
340.2499, 136.2213
340.7320, 140.0880
341.2141, 143.7405
341.6963, 146.9737
342.1784, 149.9667
342.6605, 153.4887
343.1426, 157.5187
343.6247, 162.0326
344.1068, 167.1087
344.5890, 172.6599
345.0711, 178.1730
345.5532, 183.3141
346.0353, 188.6588
346.5174, 195.3371
346.9995, 203.3934
347.4817, 212.0595
347.9638, 220.4524
348.4459, 229.0181
348.9280, 239.2774
349.4101, 251.2388
349.8922, 265.1404
350.3744, 281.3645
350.8565, 299.6328
351.3386, 319.3207
351.8207, 340.1696
352.3028, 362.0178
352.7849, 385.6905
353.2671, 411.4320
353.7492, 436.2386
354.2313, 460.0104
354.7134, 480.7420
355.1955, 495.3333
355.6776, 503.9674
356.1598, 504.5693
356.6419, 494.0470
357.1240, 473.2620
357.6061, 446.7906
358.0882, 414.0954
358.5703, 378.5716
359.0525, 343.4456
359.5346, 308.0669
360.0167, 275.7476
360.4988, 249.1745
360.9809, 227.2653
361.4630, 207.9510
361.9452, 190.4613
362.4273, 175.2579
362.9094, 162.8149
363.3915, 153.4496
363.8736, 145.5379
364.3557, 139.1530
364.8379, 133.8036
365.3200, 128.9548
365.8021, 124.6258
366.2842, 120.6307
366.7663, 116.8187
367.2484, 113.1654
367.7306, 110.3296
368.2127, 108.6566
368.6948, 107.6652
369.1769, 107.0210
369.6590, 107.2914
370.1411, 107.1849
370.6233, 106.2274
371.1054, 104.7818
371.5875, 104.2289
372.0696, 104.8329
372.5517, 106.0135
373.0338, 107.5802
373.5160, 109.6317
373.9981, 111.8047
374.4802, 114.1014
374.9623, 116.5435
375.4444, 119.0142
375.9265, 121.2705
376.4087, 124.3371
376.8908, 128.7594
377.3729, 134.4932
377.8550, 139.5127
378.3371, 143.4952
378.8192, 147.5121
379.3014, 152.6904
379.7835, 159.1337
380.2656, 165.4290
380.7477, 171.2996
381.2298, 176.8486
381.7119, 182.3936
382.1941, 187.8857
382.6762, 193.4404
383.1583, 198.8999
383.6404, 204.4267
384.1225, 210.4632
384.6046, 217.0680
385.0868, 224.0993
385.5689, 231.6816
386.0510, 239.6571
386.5331, 247.5211
387.0152, 254.6308
387.4973, 261.7329
387.9795, 269.8907
388.4616, 279.1215
388.9437, 289.2108
389.4258, 299.9447
389.9079, 311.4802
390.3900, 323.8564
390.8722, 336.9276
391.3543, 351.0462
391.8364, 367.0538
392.3185, 384.3318
392.8006, 401.1406
393.2827, 416.1909
393.7649, 430.7512
394.2470, 445.8132
394.7291, 462.2577
395.2112, 477.1786
395.6933, 490.8292
396.1754, 502.0421
396.6576, 509.0750
397.1397, 511.5146
397.6218, 509.6955
398.1039, 503.6179
398.5860, 493.2505
399.0681, 479.0683
399.5503, 459.8465
400.0324, 437.4759
400.5145, 413.5135
400.9966, 385.5288
401.4787, 359.1690
401.9608, 334.8619
402.4430, 312.4605
402.9251, 291.3712
403.4072, 271.4263
403.8893, 252.9729
404.3714, 236.3229
404.8535, 221.3891
405.3357, 208.2048
405.8178, 197.0220
406.2999, 187.4363
406.7820, 178.9570
407.2641, 171.5522
407.7462, 165.4516
408.2284, 160.8483
408.7105, 157.6475
409.1926, 155.1032
409.6747, 153.2651
410.1568, 151.7186
410.6389, 149.7923
411.1211, 147.7262
411.6032, 146.9250
412.0853, 147.8880
412.5674, 149.6802
413.0495, 150.9430
413.5316, 151.7949
414.0138, 152.7986
414.4959, 154.5635
414.9780, 156.5831
415.4601, 157.9329
415.9422, 158.5315
416.4243, 159.1893
416.9065, 160.6825
417.3886, 162.6398
417.8707, 164.4885
418.3528, 166.2540
418.8349, 167.6483
419.3170, 168.2254
419.7992, 168.1822
420.2813, 168.4126
420.7634, 169.4257
421.2455, 170.7753
421.7276, 172.2447
422.2097, 174.0369
422.6919, 175.4006
423.1740, 175.8926
423.6561, 175.9073
424.1382, 176.0609
424.6203, 176.6194
425.1024, 177.1479
425.5846, 177.5302
426.0667, 177.7556
426.5488, 177.9966
427.0309, 178.2360
427.5130, 178.5091
427.9951, 178.8418
428.4773, 179.2481
428.9594, 179.7140
429.4415, 180.3763
429.9236, 181.0351
430.4057, 181.1256
430.8878, 180.5010
431.3700, 179.7594
431.8521, 179.1177
432.3342, 178.5772
432.8163, 178.2674
433.2984, 178.3035
433.7805, 178.1775
434.2627, 177.1656
434.7448, 175.3562
435.2269, 173.6466
435.7090, 172.2907
436.1911, 171.1092
436.6732, 169.8132
437.1554, 168.3922
437.6375, 166.8074
438.1196, 164.8732
438.6017, 162.8010
439.0838, 160.9941
439.5659, 159.5453
440.0480, 158.0617
440.5302, 156.0132
441.0123, 153.7144
441.4944, 151.6932
441.9765, 150.4835
442.4586, 149.3549
442.9407, 147.7842
443.4229, 145.8408
443.9050, 144.0231
444.3871, 142.5936
444.8692, 141.3442
445.3513, 140.1099
445.8334, 138.6149
446.3156, 137.5835
446.7977, 137.5220
447.2798, 137.9517
447.7619, 138.0321
448.2440, 137.4749
448.7261, 136.8096
449.2083, 136.0878
449.6904, 135.2923
450.1725, 134.7448
450.6546, 134.6521
451.1367, 134.5578
451.6188, 134.1627
452.1010, 133.5004
452.5831, 132.3799
453.0652, 130.7023
453.5473, 128.6234
454.0294, 126.5264
454.5115, 124.4534
454.9937, 121.9349
455.4758, 118.5086
455.9579, 114.3754
456.4400, 110.6682
456.9221, 107.3960
457.4042, 104.1670
457.8864, 100.3297
458.3685, 96.18439
458.8506, 92.51138
459.3327, 89.62813
459.8148, 87.14707
460.2969, 84.66273
460.7791, 82.19209
461.2612, 79.87051
461.7433, 77.69346
462.2254, 75.73878
462.7075, 74.18227
463.1896, 73.05373
463.6718, 71.94688
464.1539, 70.59262
464.6360, 69.18642
465.1181, 67.94566
465.6002, 66.99995
466.0823, 66.14631
466.5645, 65.38612
467.0466, 64.69502
467.5287, 63.98138
468.0108, 63.14949
468.4929, 62.36983
468.9750, 61.67684
469.4572, 61.02880
469.9393, 60.65403
470.4214, 60.78736
470.9035, 60.98084
471.3856, 60.64649
471.8677, 59.47239
472.3499, 58.79478
472.8320, 59.00143
473.3141, 59.78860
473.7962, 60.08242
474.2783, 59.83091
474.7604, 59.46625
475.2426, 59.26127
475.7247, 59.17292
476.2068, 58.85248
476.6889, 58.22837
477.1710, 57.74326
477.6531, 58.05375
478.1353, 58.91221
478.6174, 59.63844
479.0995, 59.99427
479.5816, 60.14252
480.0637, 60.05334
480.5458, 59.84800
481.0280, 59.98674
481.5101, 61.14450
481.9922, 62.48639
482.4743, 63.25795
482.9564, 63.26416
483.4385, 63.35838
483.9207, 64.20083
484.4028, 65.17304
484.8849, 65.62414
485.3670, 64.57848
485.8491, 63.93317
486.3312, 64.29841
486.8134, 65.45092
487.2955, 66.22292
487.7776, 66.49525
488.2597, 66.51340
488.7418, 66.32220
489.2239, 65.85966
489.7061, 65.50307
490.1882, 65.27586
490.6703, 65.11993
491.1524, 64.96819
491.6345, 64.81546
492.1166, 64.68812
492.5988, 64.56873
493.0809, 64.49359
493.5630, 64.56069
494.0451, 64.76817
494.5272, 65.06078
495.0093, 65.37905
495.4915, 65.76443
495.9736, 66.35461
496.4557, 67.16173
496.9378, 68.00223
497.4199, 68.81039
497.9020, 69.51763
498.3842, 69.95870
498.8663, 69.76070
499.3484, 69.76157
499.8305, 70.64297
500.3126, 72.14720
500.7947, 73.61308
501.2769, 74.86064
501.7590, 75.98081
502.2411, 76.94960
502.7232, 77.73209
503.2053, 78.69214
503.6874, 79.99837
504.1696, 81.41659
504.6517, 82.76348
505.1338, 84.02030
505.6159, 85.22469
506.0980, 86.31787
506.5801, 87.37704
507.0623, 88.60487
507.5444, 90.08739
508.0265, 91.50154
508.5086, 92.67217
508.9907, 93.65563
509.4728, 94.97889
509.9550, 96.67525
510.4371, 98.40987
510.9192, 99.93142
511.4013, 101.2455
511.8834, 102.3413
512.3655, 103.2257
512.8477, 103.9012
513.3298, 104.2109
513.8119, 104.3095
514.2940, 104.5633
514.7761, 105.2665
515.2582, 106.0919
515.7404, 106.8320
516.2225, 107.4861
516.7046, 108.0796
517.1867, 108.9982
517.6688, 109.6006
518.1509, 109.3656
518.6331, 107.7752
519.1152, 106.4410
519.5973, 105.5843
520.0794, 105.1415
520.5615, 105.0656
521.0436, 105.8975
521.5258, 106.2345
522.0079, 105.7036
522.4900, 104.4909
522.9721, 103.5352
523.4542, 102.9654
523.9363, 102.3264
524.4185, 101.2948
524.9006, 99.87141
525.3827, 98.81368
525.8648, 98.17917
526.3469, 97.59928
526.8290, 96.69152
527.3112, 95.50218
527.7933, 94.17564
528.2754, 92.67535
528.7575, 91.16541
529.2396, 89.74116
529.7217, 88.43380
530.2039, 87.35915
530.6860, 86.93527
531.1681, 86.48218
531.6502, 85.35739
532.1323, 83.54479
532.6144, 81.91151
533.0966, 80.86034
533.5787, 80.05587
534.0608, 79.26797
534.5429, 78.65588
535.0250, 77.74821
535.5071, 76.30144
535.9893, 74.62579
536.4714, 73.19654
536.9535, 72.11658
537.4356, 71.08617
537.9177, 70.02846
538.3998, 68.96577
538.8820, 68.11392
539.3641, 67.51745
539.8462, 66.97287
540.3283, 66.29136
540.8104, 65.52685
541.2925, 65.11386
541.7747, 65.11698
542.2568, 65.17815
542.7389, 64.84818
543.2210, 64.28255
543.7031, 63.83923
544.1852, 63.60299
544.6674, 63.54946
545.1495, 63.75141
545.6316, 64.12765
546.1137, 64.47496
546.5958, 64.53460
547.0779, 64.68349
547.5601, 65.16529
548.0422, 65.99975
548.5243, 66.83343
549.0064, 67.57290
549.4885, 68.30142
549.9706, 69.06776
550.4528, 69.85573
550.9349, 70.69400
551.4170, 71.50030
551.8991, 72.43459
552.3812, 73.83388
552.8633, 75.87412
553.3455, 77.62285
553.8276, 78.71145
554.3097, 79.43415
554.7918, 80.89558
555.2739, 83.07117
555.7560, 85.11163
556.2382, 86.29092
556.7203, 86.99831
557.2024, 88.11872
557.6845, 89.70078
558.1666, 91.38893
558.6487, 93.17526
559.1309, 94.77973
559.6130, 95.78252
560.0951, 95.92149
560.5772, 95.78337
561.0593, 95.73509
561.5414, 95.58395
562.0236, 94.99445
562.5057, 93.42217
562.9878, 91.87988
563.4699, 90.67284
563.9520, 89.77337
564.4341, 88.78133
564.9163, 87.69100
565.3984, 86.51151
565.8805, 85.19971
566.3626, 83.69855
566.8447, 82.39533
567.3268, 81.33937
567.8090, 80.29724
568.2911, 78.96632
568.7732, 77.37614
569.2553, 75.91009
569.7374, 74.65636
570.2195, 73.50417
570.7017, 72.29288
571.1838, 71.01786
571.6659, 69.69113
572.1480, 68.40611
572.6301, 66.98861
573.1122, 65.16991
573.5944, 62.99406
574.0765, 60.97779
574.5586, 59.51753
575.0407, 58.16643
575.5228, 56.62775
576.0049, 54.79442
576.4871, 53.01015
576.9692, 51.20107
577.4513, 49.50433
577.9334, 48.04395
578.4155, 46.98208
578.8976, 45.81385
579.3798, 44.42544
579.8619, 42.94051
580.3440, 41.67215
580.8261, 40.62769
581.3082, 39.75961
581.7903, 39.14621
582.2725, 38.67320
582.7546, 37.98429
583.2367, 37.09667
583.7188, 36.22639
584.2009, 35.53267
584.6830, 34.96034
585.1652, 34.44186
585.6473, 33.96693
586.1294, 33.54425
586.6115, 33.25389
587.0936, 32.97928
587.5757, 32.60105
588.0578, 31.87630
588.5399, 31.29544
589.0220, 30.98362
589.5042, 30.87540
589.9863, 30.81894
590.4684, 30.87585
590.9505, 30.88772
591.4326, 30.82574
591.9147, 30.68757
592.3969, 30.43499
592.8790, 30.04914
593.3611, 29.63128
593.8432, 29.17877
594.3253, 28.73509
594.8074, 28.53687
595.2896, 28.61197
595.7717, 28.74841
596.2538, 28.78452
596.7359, 28.72684
597.2180, 28.57303
597.7001, 28.28732
598.1823, 27.99022
598.6644, 27.64148
599.1465, 27.35703
599.6286, 27.33614
600.1107, 28.06191
600.5928, 28.62683
601.0750, 28.67348
601.5571, 28.25392
602.0392, 27.91009
602.5213, 27.62123
603.0034, 27.44259
603.4855, 27.43427
603.9677, 27.61564
604.4498, 27.63750
604.9319, 27.42053
605.4140, 27.29075
605.8961, 27.71794
606.3782, 28.58041
606.8604, 28.96147
607.3425, 28.67372
607.8246, 28.20412
608.3067, 28.09598
608.7888, 28.24878
609.2709, 28.45672
609.7531, 28.72674
610.2352, 28.93089
610.7173, 28.95203
611.1994, 28.83942
611.6815, 28.72851
612.1636, 28.43955
612.6458, 28.37248
613.1279, 28.83455
613.6100, 29.85133
614.0921, 30.47050
614.5742, 30.51691
615.0563, 30.40565
615.5385, 30.32715
616.0206, 30.26270
616.5027, 30.34863
616.9848, 30.60165
