##NAMES=Diopside
##RRUFFID=R050666
##IDEAL CHEMISTRY=CaMgSi_2_O_6_
##LOCALITY=Franklin, Sussex County, New Jersey, USA
##OWNER=RRUFF
##SOURCE=University of Arizona Mineral Museum
##DESCRIPTION=Brown cleavage fragment with white hardystonite
##STATUS=The identification of this mineral has been confirmed by X-ray diffraction and chemical analysis
##URL=rruff.info/R050666
##MEASURED CHEMISTRY=Ca(Mg_0.66_Mn_0.33_Fe_0.01_)Si_2_O_6_
92.02539, 88.29198
92.50751, 92.44775
92.98962, 95.05286
93.47174, 92.90395
93.95386, 89.05350
94.43597, 85.86413
94.91809, 84.72646
95.40021, 84.92022
95.88232, 83.62663
96.36444, 79.72752
96.84656, 75.92967
97.32867, 72.86478
97.81078, 70.45290
98.29290, 68.54912
98.77502, 67.10415
99.25713, 66.16196
99.73925, 64.42745
100.2214, 61.33570
100.7035, 58.18028
101.1856, 55.42173
101.6677, 53.13116
102.1498, 51.20906
102.6320, 49.52011
103.1141, 47.94997
103.5962, 47.03996
104.0783, 47.32343
104.5604, 48.03359
105.0425, 48.32226
105.5247, 47.91669
106.0068, 47.10400
106.4889, 46.34795
106.9710, 45.67255
107.4531, 44.91981
107.9352, 44.02634
108.4173, 42.99606
108.8995, 41.82464
109.3816, 40.34432
109.8637, 38.84204
110.3458, 37.60744
110.8279, 36.67948
111.3100, 35.95989
111.7922, 35.30580
112.2743, 34.66286
112.7564, 34.28724
113.2385, 34.47295
113.7206, 34.83080
114.2027, 35.02482
114.6849, 34.89515
115.1670, 34.53042
115.6491, 34.23989
116.1312, 34.01574
116.6133, 33.88972
117.0954, 33.96686
117.5776, 34.12995
118.0597, 34.19134
118.5418, 34.00423
119.0239, 33.56179
119.5060, 33.32604
119.9881, 33.36192
120.4703, 33.49248
120.9524, 33.66340
121.4345, 33.86689
121.9166, 34.12321
122.3987, 34.48431
122.8808, 34.97392
123.3630, 35.24039
123.8451, 34.96013
124.3272, 34.62073
124.8093, 34.79781
125.2914, 35.64766
125.7735, 36.60606
126.2557, 36.91654
126.7378, 36.72141
127.2199, 36.62234
127.7020, 36.91106
128.1841, 37.48278
128.6662, 37.98879
129.1483, 38.30500
129.6305, 38.63732
130.1126, 39.12819
130.5947, 39.77440
131.0768, 40.51287
131.5589, 41.32575
132.0410, 42.22932
132.5232, 43.07257
133.0053, 43.98834
133.4874, 44.73513
133.9695, 45.25956
134.4516, 45.52069
134.9337, 45.38710
135.4159, 44.59989
135.8980, 42.73961
136.3801, 40.95974
136.8622, 39.35345
137.3443, 37.81925
137.8264, 36.24078
138.3086, 34.57644
138.7907, 32.91851
139.2728, 31.56122
139.7549, 30.62156
140.2370, 29.86459
140.7191, 29.34168
141.2013, 28.97912
141.6834, 28.69993
142.1655, 28.48740
142.6476, 28.29471
143.1297, 27.91586
143.6118, 27.08183
144.0939, 26.37829
144.5761, 26.10424
145.0582, 26.19358
145.5403, 26.35073
146.0224, 26.45440
146.5045, 26.47520
146.9866, 26.36910
147.4688, 25.98132
147.9509, 25.59219
148.4330, 25.51343
148.9151, 25.79200
149.3972, 26.08708
149.8793, 26.15371
150.3615, 26.11950
150.8436, 26.13909
151.3257, 26.28949
151.8078, 26.51658
152.2899, 26.69961
152.7720, 26.83750
153.2542, 26.92811
153.7363, 26.89378
154.2184, 26.83016
154.7005, 26.89007
155.1826, 27.19208
155.6647, 27.71080
156.1469, 28.18629
156.6290, 28.81261
157.1111, 29.17298
157.5932, 29.02863
158.0753, 28.52052
158.5574, 27.94140
159.0396, 27.53451
159.5217, 27.32063
160.0038, 27.09348
160.4859, 26.82275
160.9680, 26.56694
161.4501, 26.37809
161.9323, 26.24019
162.4144, 26.07348
162.8965, 25.77715
163.3786, 25.27603
163.8607, 25.01116
164.3428, 25.19175
164.8250, 25.44320
165.3071, 25.46702
165.7892, 25.22359
166.2713, 24.92116
166.7534, 24.80204
167.2355, 24.88729
167.7177, 25.02984
168.1998, 25.27564
168.6819, 25.55064
169.1640, 25.76690
169.6461, 25.90976
170.1282, 25.98012
170.6104, 25.91324
171.0925, 25.72618
171.5746, 25.63585
172.0567, 25.76904
172.5388, 26.06894
173.0209, 26.37984
173.5031, 26.70242
173.9852, 26.98568
174.4673, 27.22681
174.9494, 27.42030
175.4315, 27.50718
175.9136, 27.41599
176.3958, 27.15189
176.8779, 26.86778
177.3600, 26.58185
177.8421, 26.27918
178.3242, 25.91230
178.8063, 25.49455
179.2885, 25.13267
179.7706, 24.97583
180.2527, 25.09586
180.7348, 25.10509
181.2169, 24.81528
181.6990, 24.52985
182.1812, 24.43839
182.6633, 24.55615
183.1454, 24.74225
183.6275, 24.80075
184.1096, 24.68243
184.5917, 24.52754
185.0738, 24.27326
185.5560, 24.03166
186.0381, 23.88918
186.5202, 23.86458
187.0023, 23.90867
187.4844, 23.94178
187.9665, 23.99180
188.4487, 23.97705
188.9308, 23.83629
189.4129, 23.66405
189.8950, 23.55225
190.3771, 23.53124
190.8592, 23.55825
191.3414, 23.55191
191.8235, 23.49607
192.3056, 23.43714
192.7877, 23.37769
193.2698, 23.31853
193.7519, 23.26725
194.2341, 23.23060
194.7162, 23.18735
195.1983, 23.06337
195.6804, 22.80079
196.1625, 22.65086
196.6446, 22.82618
197.1268, 23.17046
197.6089, 23.29407
198.0910, 22.98564
198.5731, 22.52946
199.0552, 22.40220
199.5373, 22.65212
200.0195, 22.89989
200.5016, 22.92676
200.9837, 22.76932
201.4658, 22.61101
201.9479, 22.49018
202.4300, 22.40676
202.9122, 22.36050
203.3943, 22.35397
203.8764, 22.35618
204.3585, 22.36141
204.8406, 22.36950
205.3227, 22.31389
205.8048, 22.05966
206.2870, 21.82869
206.7691, 21.80841
207.2512, 22.01700
207.7333, 22.28128
208.2154, 22.41059
208.6975, 22.37800
209.1797, 22.37018
209.6618, 22.37969
210.1439, 22.45065
210.6260, 22.67637
211.1081, 23.05049
211.5902, 23.40011
212.0724, 23.46704
212.5545, 23.12639
213.0366, 22.87943
213.5187, 22.83582
214.0008, 22.83563
214.4829, 22.79445
214.9651, 22.69096
215.4472, 22.54384
215.9293, 22.35246
216.4114, 21.98263
216.8935, 21.86991
217.3756, 22.25536
217.8578, 22.68400
218.3399, 22.79236
218.8220, 22.52473
219.3041, 22.14111
219.7862, 22.04846
220.2683, 22.46312
220.7505, 22.76611
221.2326, 22.96078
221.7147, 23.05814
222.1968, 23.00384
222.6789, 22.80657
223.1610, 22.61514
223.6432, 22.66256
224.1253, 23.14874
224.6074, 23.46732
225.0895, 23.50601
225.5716, 23.44283
226.0537, 23.42207
226.5358, 23.47985
227.0180, 23.59008
227.5001, 23.72627
227.9822, 23.90730
228.4643, 24.04844
228.9464, 24.10137
229.4285, 24.13169
229.9107, 24.19620
230.3928, 24.30620
230.8749, 24.47264
231.3570, 24.73640
231.8391, 25.11094
232.3212, 25.43188
232.8034, 25.70873
233.2855, 25.90394
233.7676, 25.94759
234.2497, 25.81407
234.7318, 25.60753
235.2139, 25.43330
235.6961, 25.28694
236.1782, 25.12893
236.6603, 24.91623
237.1424, 24.69608
237.6245, 24.55157
238.1066, 24.50918
238.5888, 24.48476
239.0709, 24.38469
239.5530, 24.23336
240.0351, 24.10715
240.5172, 24.04514
240.9993, 24.02212
241.4815, 23.97217
241.9636, 23.85658
242.4457, 23.80792
242.9278, 24.02311
243.4099, 24.37838
243.8920, 24.60681
244.3742, 24.49094
244.8563, 24.18765
245.3384, 24.07715
245.8205, 24.24448
246.3026, 24.41564
246.7847, 24.46542
247.2668, 24.41507
247.7490, 24.27987
248.2311, 24.02151
248.7132, 23.70553
249.1953, 23.49021
249.6774, 23.40213
250.1595, 23.36981
250.6417, 23.43183
251.1238, 23.50644
251.6059, 23.45576
252.0880, 23.15538
252.5701, 22.76933
253.0522, 22.76493
253.5344, 23.43413
254.0165, 23.90718
254.4986, 23.79128
254.9807, 23.42332
255.4628, 23.18760
255.9449, 23.27077
256.4271, 23.49979
256.9092, 23.43101
257.3913, 22.79957
257.8734, 22.38031
258.3555, 22.43804
258.8376, 22.68640
259.3198, 22.87125
259.8019, 22.89338
260.2840, 22.80931
260.7661, 22.72343
261.2482, 22.59012
261.7303, 22.55095
262.2125, 22.73150
262.6946, 22.93333
263.1767, 22.96412
263.6588, 22.77047
264.1409, 22.48310
264.6230, 22.34403
265.1052, 22.48125
265.5873, 22.51647
266.0694, 22.38575
266.5515, 22.19625
267.0336, 21.95462
267.5157, 21.69361
267.9979, 21.54461
268.4800, 21.76292
268.9621, 22.72978
269.4442, 23.21015
269.9263, 22.95971
270.4084, 22.50577
270.8906, 22.13022
271.3727, 21.90003
271.8548, 21.76888
272.3369, 21.68743
272.8190, 21.67202
273.3011, 21.65679
273.7833, 21.61362
274.2654, 21.59323
274.7475, 21.64234
275.2296, 21.75049
275.7117, 21.86084
276.1938, 21.91497
276.6760, 21.90091
277.1581, 21.90384
277.6402, 21.91513
278.1223, 21.94655
278.6044, 22.00391
279.0865, 22.08664
279.5686, 22.19352
280.0508, 22.32743
280.5329, 22.48912
281.0150, 22.62499
281.4971, 22.68625
281.9792, 22.77613
282.4613, 22.92480
282.9435, 23.13238
283.4256, 23.40984
283.9077, 23.77962
284.3898, 24.21836
284.8719, 24.48956
285.3540, 24.41796
285.8362, 24.40403
286.3183, 24.57790
286.8004, 24.87930
287.2825, 25.19139
287.7646, 25.45270
288.2467, 25.68938
288.7289, 26.00133
289.2110, 26.43208
289.6931, 26.87586
290.1752, 27.34907
290.6573, 27.81625
291.1394, 28.19928
291.6216, 28.46240
292.1037, 28.68822
292.5858, 29.05000
293.0679, 29.53945
293.5500, 30.17987
294.0321, 31.11665
294.5143, 32.14505
294.9964, 33.01907
295.4785, 33.67679
295.9606, 34.25066
296.4427, 34.92484
296.9248, 35.73247
297.4070, 36.55846
297.8891, 37.40017
298.3712, 38.25824
298.8533, 39.13219
299.3354, 40.01908
299.8175, 40.93036
300.2997, 41.88391
300.7818, 42.88985
301.2639, 43.85836
301.7460, 44.78254
302.2281, 45.66832
302.7102, 46.48170
303.1924, 47.24116
303.6745, 48.07378
304.1566, 49.09932
304.6387, 50.30672
305.1208, 51.44486
305.6029, 52.46037
306.0851, 53.47068
306.5672, 54.53693
307.0493, 55.64842
307.5314, 56.76245
308.0135, 57.84944
308.4956, 58.92512
308.9778, 60.04150
309.4599, 61.21835
309.9420, 62.40377
310.4241, 63.63203
310.9062, 64.85269
311.3883, 65.92390
311.8705, 66.76048
312.3526, 67.49155
312.8347, 68.42854
313.3168, 69.75858
313.7989, 70.83865
314.2810, 71.41891
314.7632, 71.72044
315.2453, 72.13993
315.7274, 72.80290
316.2095, 73.28040
316.6916, 72.93883
317.1737, 71.61302
317.6559, 70.12683
318.1380, 68.45640
318.6201, 66.70296
319.1022, 64.97494
319.5843, 63.27579
320.0664, 61.52480
320.5485, 59.62089
321.0306, 57.55650
321.5128, 55.57454
321.9949, 53.63617
322.4770, 51.79953
322.9591, 50.04428
323.4412, 48.40605
323.9233, 47.00948
324.4055, 45.98197
324.8876, 45.27198
325.3697, 44.52781
325.8518, 43.69696
326.3339, 42.89143
326.8160, 41.99649
327.2982, 41.15783
327.7803, 40.74688
328.2624, 40.99767
328.7445, 41.62800
329.2266, 41.86693
329.7087, 41.49841
330.1909, 41.19230
330.6730, 41.04815
331.1551, 41.04212
331.6372, 41.14986
332.1193, 41.36459
332.6014, 41.67657
333.0836, 42.07682
333.5657, 42.57525
334.0478, 43.15870
334.5299, 43.94470
335.0120, 44.73532
335.4941, 45.33961
335.9763, 45.74624
336.4584, 46.12144
336.9405, 46.60889
337.4226, 47.22024
337.9047, 47.88559
338.3868, 48.49684
338.8690, 49.25915
339.3511, 50.41621
339.8332, 51.84192
340.3153, 53.13343
340.7974, 54.01524
341.2795, 54.56733
341.7617, 55.29154
342.2438, 56.11066
342.7259, 57.15746
343.2080, 58.66233
343.6901, 60.36843
344.1722, 61.87428
344.6544, 63.00648
345.1365, 63.91932
345.6186, 64.92610
346.1007, 66.14596
346.5828, 67.28284
347.0649, 68.36303
347.5471, 69.33559
348.0292, 70.22697
348.5113, 71.00687
348.9934, 71.51820
349.4755, 71.56208
349.9576, 71.08411
350.4398, 70.27275
350.9219, 68.92411
351.4040, 67.48406
351.8861, 66.21717
352.3682, 65.08413
352.8503, 63.88618
353.3325, 62.48012
353.8146, 60.87691
354.2967, 59.19030
354.7788, 57.26156
355.2609, 55.43515
355.7430, 53.76495
356.2252, 52.24920
356.7073, 50.85710
357.1894, 49.57711
357.6715, 48.44292
358.1536, 47.53256
358.6357, 46.98826
359.1179, 46.47299
359.5999, 46.01701
360.0821, 45.55516
360.5642, 45.00229
361.0463, 44.35723
361.5284, 43.73064
362.0105, 43.22996
362.4926, 42.80756
362.9748, 42.71552
363.4569, 43.19387
363.9390, 43.75401
364.4211, 44.18428
364.9032, 44.51637
365.3853, 44.88591
365.8675, 45.40229
366.3496, 46.04940
366.8317, 46.66664
367.3138, 47.12843
367.7959, 47.72956
368.2780, 48.56002
368.7602, 49.54545
369.2423, 50.62354
369.7244, 51.76759
370.2065, 52.91771
370.6886, 53.92749
371.1707, 54.67722
371.6529, 55.59070
372.1350, 56.94010
372.6171, 58.31136
373.0992, 59.31618
373.5813, 59.95741
374.0634, 60.73146
374.5456, 62.25224
375.0277, 64.56017
375.5098, 66.64100
375.9919, 68.19184
376.4740, 69.82325
376.9561, 71.82713
377.4383, 74.12733
377.9204, 76.51123
378.4025, 78.89593
378.8846, 81.27455
379.3667, 83.65733
379.8488, 86.08292
380.3310, 88.40831
380.8131, 90.73011
381.2952, 92.86105
381.7773, 94.63615
382.2594, 96.04797
382.7415, 96.93876
383.2237, 97.18977
383.7058, 96.80269
384.1879, 95.63078
384.6700, 93.58241
385.1521, 90.69151
385.6342, 86.92686
386.1164, 82.36215
386.5985, 77.62754
387.0806, 72.98777
387.5627, 68.47720
388.0448, 64.12188
388.5269, 59.91239
389.0091, 55.94731
389.4912, 52.32020
389.9733, 48.98396
390.4554, 45.87603
390.9375, 42.93958
391.4196, 40.26830
391.9018, 37.97264
392.3839, 36.03090
392.8660, 34.34070
393.3481, 32.89293
393.8302, 31.64943
394.3123, 30.52842
394.7945, 29.55751
395.2766, 28.60137
395.7587, 27.54645
396.2408, 26.48849
396.7229, 25.60704
397.2050, 24.93836
397.6872, 24.40786
398.1693, 23.94848
398.6514, 23.56809
399.1335, 23.19731
399.6156, 22.83762
400.0977, 22.47923
400.5798, 22.11786
401.0620, 21.75159
401.5441, 21.36500
402.0262, 20.93548
402.5083, 20.48810
402.9904, 20.16502
403.4725, 20.02452
403.9547, 19.91465
404.4368, 19.82577
404.9189, 19.74497
405.4010, 19.65030
405.8831, 19.53670
406.3652, 19.43308
406.8474, 19.39957
407.3295, 19.53241
407.8116, 19.43691
408.2937, 18.89957
408.7758, 18.35188
409.2579, 17.99774
409.7401, 17.84836
410.2222, 17.86175
410.7043, 18.03478
411.1864, 18.32972
411.6685, 18.41841
412.1506, 18.09551
412.6328, 17.80707
413.1149, 17.63187
413.5970, 17.51797
414.0791, 17.39213
414.5612, 17.23178
415.0433, 17.09463
415.5255, 17.11812
416.0076, 17.41718
416.4897, 17.47618
416.9718, 16.99725
417.4539, 16.49656
417.9360, 16.19944
418.4182, 16.09619
418.9003, 16.07754
419.3824, 16.07420
419.8645, 16.08989
420.3466, 16.16500
420.8287, 16.38179
421.3109, 16.48085
421.7930, 16.28460
422.2751, 15.95378
422.7572, 15.63460
423.2393, 15.34782
423.7214, 15.16961
424.2036, 15.28034
424.6857, 15.66193
425.1678, 15.83315
425.6499, 15.60340
426.1320, 15.23033
426.6141, 14.89956
427.0963, 14.62077
427.5784, 14.48503
428.0605, 14.63967
428.5426, 14.91681
429.0247, 15.04401
429.5068, 15.00033
429.9890, 14.94962
430.4711, 15.02114
430.9532, 15.15392
431.4353, 15.15474
431.9174, 14.92806
432.3995, 14.71035
432.8817, 14.60729
433.3638, 14.59993
433.8459, 14.66644
434.3280, 14.80831
434.8101, 14.96924
435.2922, 15.07381
435.7744, 15.11280
436.2565, 15.11834
436.7386, 15.00604
437.2207, 14.92848
437.7028, 15.05222
438.1849, 15.32774
438.6671, 15.53343
439.1492, 15.50703
439.6313, 15.30122
440.1134, 15.22635
440.5955, 15.37081
441.0776, 15.54060
441.5598, 15.77415
442.0418, 15.99344
442.5240, 16.10770
443.0061, 16.09851
443.4882, 16.03006
443.9703, 15.98281
444.4524, 15.96261
444.9345, 15.93604
445.4167, 15.81420
445.8988, 15.77508
446.3809, 15.97996
446.8630, 16.30603
447.3451, 16.49503
447.8272, 16.36534
448.3094, 16.09165
448.7915, 16.15969
449.2736, 16.73352
449.7557, 17.17904
450.2378, 17.21782
450.7199, 17.15534
451.2021, 17.22014
451.6842, 17.43162
452.1663, 17.62127
452.6484, 17.62104
453.1305, 17.47909
453.6126, 17.42822
454.0948, 17.53750
454.5769, 17.60664
455.0590, 17.44632
455.5411, 17.15858
456.0232, 16.91637
456.5053, 16.78324
456.9875, 16.67206
457.4696, 16.47293
457.9517, 16.22006
458.4338, 16.08550
458.9159, 16.16075
459.3980, 16.31009
459.8802, 16.31276
460.3623, 16.15467
460.8444, 16.04007
461.3265, 16.10518
461.8086, 16.16052
462.2907, 15.98907
462.7729, 15.61391
463.2550, 15.25344
463.7371, 15.05216
464.2192, 14.98957
464.7013, 14.94373
465.1834, 14.96781
465.6656, 14.94014
466.1477, 14.77033
466.6298, 14.57654
467.1119, 14.51962
467.5940, 14.62094
468.0761, 14.72617
468.5583, 14.62276
469.0404, 14.24313
469.5225, 14.09037
470.0046, 14.47967
470.4867, 14.77093
470.9688, 14.69726
471.4510, 14.40936
471.9331, 14.15541
472.4152, 14.04993
472.8973, 14.05206
473.3794, 14.10911
473.8615, 14.24931
474.3437, 14.32195
474.8258, 14.20261
475.3079, 14.08572
475.7900, 14.13450
476.2721, 14.31854
476.7542, 14.44325
477.2364, 14.31497
477.7185, 14.05875
478.2006, 13.99439
478.6827, 14.16385
479.1648, 14.27616
479.6469, 14.11400
480.1291, 13.83170
480.6112, 13.71479
481.0933, 13.82327
481.5754, 13.96203
482.0575, 14.03390
482.5396, 14.06910
483.0217, 14.13829
483.5038, 14.25833
483.9860, 14.35341
484.4681, 14.35006
484.9502, 14.24209
485.4323, 14.10945
485.9144, 13.83474
486.3965, 13.66051
486.8787, 13.72394
487.3608, 13.95375
487.8429, 14.26365
488.3250, 14.61916
488.8071, 14.91069
489.2892, 14.91654
489.7714, 14.43261
490.2535, 14.16569
490.7356, 14.21991
491.2177, 14.35585
491.6998, 14.45041
492.1819, 14.52449
492.6641, 14.67615
493.1462, 14.98711
493.6283, 15.37259
494.1104, 15.55956
494.5925, 15.45034
495.0746, 15.40709
495.5568, 15.62645
496.0389, 15.86290
496.5210, 15.93061
497.0031, 15.82330
497.4852, 15.68447
497.9673, 15.60208
498.4495, 15.56570
498.9316, 15.52363
499.4137, 15.44910
499.8958, 15.49387
500.3779, 15.83834
500.8600, 16.33431
501.3422, 16.67085
501.8243, 16.79082
502.3064, 16.84388
502.7885, 16.91213
503.2706, 16.96310
503.7527, 16.91689
504.2349, 16.75486
504.7170, 16.57679
505.1991, 16.46588
505.6812, 16.42330
506.1633, 16.50087
506.6454, 16.93634
507.1276, 17.21618
507.6097, 17.06823
508.0918, 16.66681
508.5739, 16.24285
509.0560, 15.88995
509.5381, 15.64939
510.0203, 15.61066
510.5024, 15.85180
510.9845, 16.02720
511.4666, 16.04873
511.9487, 16.09140
512.4308, 16.30272
512.9130, 16.57672
513.3951, 16.68163
513.8772, 16.46799
514.3593, 16.12505
514.8414, 16.00977
515.3235, 16.15131
515.8057, 16.30021
516.2878, 16.44213
516.7699, 16.52955
517.2520, 16.49833
517.7341, 16.36664
518.2162, 16.26352
518.6984, 16.20493
519.1805, 16.22572
519.6626, 16.09985
520.1447, 16.48189
520.6268, 16.70345
521.1089, 16.77316
521.5911, 16.23620
522.0732, 16.48262
522.5553, 16.41510
523.0374, 16.33471
523.5195, 16.69140
524.0016, 16.24267
524.4838, 16.59243
524.9659, 16.62344
525.4480, 16.80034
525.9301, 16.66134
526.4122, 16.61992
526.8943, 16.89449
527.3765, 16.99409
527.8586, 16.81873
528.3407, 17.00490
528.8228, 16.54513
529.3049, 16.65218
529.7870, 17.00379
530.2692, 16.84432
530.7513, 17.03626
531.2334, 17.09437
531.7155, 16.54423
532.1976, 17.05188
532.6797, 16.73547
533.1619, 16.90018
533.6440, 17.09866
534.1261, 17.08190
534.6082, 16.77917
535.0903, 16.54070
535.5724, 16.63265
536.0546, 16.94271
536.5367, 17.24058
537.0188, 17.49773
537.5009, 17.75540
537.9830, 18.04592
538.4651, 18.36211
538.9473, 18.65695
539.4294, 18.95897
539.9115, 19.20743
540.3936, 19.31594
540.8757, 19.39518
541.3578, 19.58872
541.8400, 19.91994
542.3221, 20.31020
542.8042, 20.68012
543.2863, 21.02914
543.7684, 21.39115
544.2505, 21.71972
544.7326, 22.11957
545.2147, 22.68005
545.6968, 23.28564
546.1790, 23.80083
546.6611, 24.19472
547.1432, 24.55276
547.6253, 24.92051
548.1074, 25.31005
548.5895, 25.85790
549.0717, 26.61478
549.5538, 27.42925
550.0359, 28.19157
550.5180, 28.95872
551.0001, 29.84838
551.4822, 30.93311
551.9644, 32.00157
552.4465, 32.95111
552.9286, 33.78791
553.4107, 34.54073
553.8928, 35.21613
554.3749, 35.76819
554.8571, 36.17696
555.3392, 36.43692
555.8213, 36.38771
556.3034, 36.02630
556.7855, 35.41305
557.2676, 34.48385
557.7498, 33.34612
558.2319, 32.10176
558.7140, 30.78489
559.1961, 29.43689
559.6782, 28.07768
560.1603, 26.71355
560.6425, 25.43333
561.1246, 24.22579
561.6067, 23.14451
562.0888, 22.13737
562.5709, 21.27729
563.0530, 20.67732
563.5352, 20.37297
564.0173, 20.15731
564.4994, 19.86669
564.9815, 19.52355
565.4636, 19.20447
565.9457, 18.91958
566.4279, 18.63017
566.9100, 18.26287
567.3921, 17.88236
567.8742, 17.70140
568.3563, 17.87120
568.8384, 17.98706
569.3206, 17.87778
569.8027, 17.65709
570.2848, 17.44814
570.7669, 17.27649
571.2490, 17.11737
571.7311, 16.94440
572.2133, 16.76585
572.6954, 16.68533
573.1775, 16.88533
573.6596, 16.92740
574.1417, 16.64929
574.6238, 16.26947
575.1060, 15.93457
575.5881, 15.68456
576.0702, 15.54810
576.5523, 15.61403
577.0344, 15.80701
577.5165, 15.80842
577.9987, 15.55521
578.4808, 15.39466
578.9629, 15.57180
579.4450, 15.85620
579.9271, 15.92089
580.4092, 15.73664
580.8914, 15.50633
581.3735, 15.24713
581.8556, 15.01741
582.3377, 14.89091
582.8198, 14.86201
583.3019, 14.86783
583.7841, 14.87261
584.2662, 14.88747
584.7483, 14.94560
585.2304, 15.11322
585.7125, 15.21368
586.1946, 15.20685
586.6768, 15.17321
587.1589, 15.16026
587.6410, 15.16366
