##NAMES=Diopside
##RRUFFID=R040009
##IDEAL CHEMISTRY=CaMgSi_2_O_6_
##LOCALITY=Otter Lake, Quebec, Canada
##OWNER=RRUFF
##SOURCE=University of Arizona Mineral Museum
##DESCRIPTION=Green square prismatic crystal associated with pale orange calcite
##STATUS=The identification of this mineral has been confirmed by X-ray diffraction and chemical analysis
##URL=rruff.info/R040009
##MEASURED CHEMISTRY=(Ca_0.97_Fe_0.02_Na_0.01_)_Σ=1_(Mg_0.97_Fe_0.02_Al_0.01_)_Σ=1_Si_2.00_O_6_; trace amounts of Mn and Ti
123.2975, 763.0479
123.7796, 779.4042
124.2617, 797.4930
124.7438, 817.3336
125.2259, 839.2121
125.7081, 864.1808
126.1902, 891.2786
126.6723, 914.0782
127.1544, 931.3441
127.6365, 947.8654
128.1186, 966.7817
128.6008, 989.1520
129.0829, 1013.309
129.5650, 1036.115
130.0471, 1057.737
130.5292, 1080.956
131.0113, 1108.474
131.4935, 1139.634
131.9756, 1171.704
132.4577, 1202.395
132.9398, 1233.870
133.4219, 1270.813
133.9040, 1313.238
134.3862, 1361.399
134.8683, 1414.115
135.3504, 1471.528
135.8325, 1536.866
136.3146, 1614.105
136.7967, 1701.513
137.2789, 1788.887
137.7610, 1882.204
138.2431, 1964.029
138.7252, 2016.247
139.2073, 2041.158
139.6894, 2027.947
140.1716, 1966.604
140.6537, 1850.576
141.1358, 1730.655
141.6179, 1601.580
142.1000, 1471.027
142.5821, 1354.925
143.0643, 1252.712
143.5464, 1163.284
144.0285, 1085.013
144.5106, 1018.150
144.9927, 963.1113
145.4748, 922.9733
145.9570, 894.3264
146.4391, 869.6313
146.9212, 849.6622
147.4033, 832.3347
147.8854, 816.4925
148.3675, 802.3179
148.8497, 789.4166
149.3318, 777.5203
149.8139, 766.8605
150.2960, 758.7877
150.7781, 755.7178
151.2602, 753.4865
151.7424, 749.8864
152.2245, 741.7279
152.7066, 735.8128
153.1887, 733.6761
153.6708, 734.9744
154.1529, 735.2228
154.6351, 733.2978
155.1172, 730.7233
155.5993, 728.5275
156.0814, 726.7952
156.5635, 725.4464
157.0456, 724.0469
157.5278, 722.6163
158.0099, 722.8295
158.4920, 726.2341
158.9741, 730.8881
159.4562, 735.0743
159.9383, 736.6624
160.4205, 739.3029
160.9026, 744.3666
161.3847, 751.9962
161.8668, 760.6493
162.3489, 769.8571
162.8310, 779.7853
163.3132, 790.6242
163.7953, 805.3915
164.2774, 818.8051
164.7595, 828.7855
165.2416, 835.3550
165.7237, 837.1960
166.2059, 832.4466
166.6880, 822.8087
167.1701, 810.8695
167.6522, 794.7520
168.1343, 778.6119
168.6164, 765.4343
169.0985, 755.7285
169.5807, 747.8707
170.0628, 740.7960
170.5449, 734.7469
171.0270, 730.2802
171.5091, 727.8159
171.9912, 726.9969
172.4734, 727.4395
172.9555, 729.0319
173.4376, 732.1379
173.9197, 737.9111
174.4018, 745.6029
174.8839, 753.1386
175.3661, 758.7930
175.8482, 763.7028
176.3303, 769.0283
176.8124, 774.5973
177.2945, 781.5474
177.7766, 791.1234
178.2588, 803.2131
178.7409, 816.9484
179.2230, 833.2721
179.7051, 850.8354
180.1872, 867.7156
180.6693, 885.2845
181.1515, 899.2640
181.6336, 903.9083
182.1157, 899.5254
182.5978, 888.2384
183.0799, 867.8425
183.5620, 841.2643
184.0442, 816.3776
184.5263, 793.4738
185.0084, 774.2255
185.4905, 761.8904
185.9726, 756.3841
186.4547, 753.8882
186.9369, 751.9293
187.4190, 750.6073
187.9011, 750.4648
188.3832, 751.7712
188.8653, 754.1801
189.3474, 756.6227
189.8296, 759.0790
190.3117, 762.8066
190.7938, 768.7546
191.2759, 776.8823
191.7580, 787.0697
192.2401, 800.2301
192.7223, 815.0334
193.2044, 828.0887
193.6865, 839.5641
194.1686, 848.9465
194.6507, 857.0900
195.1328, 863.8246
195.6150, 863.6978
196.0971, 853.8050
196.5792, 836.4106
197.0613, 819.6126
197.5434, 803.2516
198.0255, 788.3597
198.5077, 776.5586
198.9898, 767.8538
199.4719, 760.3202
199.9540, 753.3904
200.4361, 747.2708
200.9182, 743.0899
201.4004, 741.0889
201.8825, 740.4006
202.3646, 740.5526
202.8467, 741.7167
203.3288, 742.2361
203.8109, 741.2368
204.2931, 739.0761
204.7752, 738.9490
205.2573, 741.2344
205.7394, 744.6436
206.2215, 747.9669
206.7036, 751.1575
207.1858, 754.3100
207.6679, 757.2432
208.1500, 760.0291
208.6321, 764.0709
209.1142, 769.9496
209.5963, 775.9942
210.0785, 779.9023
210.5606, 780.6349
211.0427, 783.1499
211.5248, 789.4078
212.0069, 799.2770
212.4890, 806.5177
212.9712, 810.2548
213.4533, 812.7465
213.9354, 816.4535
214.4175, 821.8031
214.8996, 827.1644
215.3817, 832.1134
215.8639, 836.6037
216.3460, 841.6188
216.8281, 847.1193
217.3102, 853.2120
217.7923, 860.0056
218.2744, 867.7360
218.7565, 875.6462
219.2387, 883.0281
219.7208, 889.8726
220.2029, 898.9964
220.6850, 910.7411
221.1671, 924.2642
221.6492, 938.5568
222.1314, 953.9525
222.6135, 969.6737
223.0956, 985.2085
223.5777, 1000.738
224.0598, 1016.230
224.5419, 1030.134
225.0241, 1045.844
225.5062, 1067.659
225.9883, 1097.580
226.4704, 1129.226
226.9525, 1161.303
227.4346, 1194.336
227.9168, 1225.874
228.3989, 1258.437
228.8810, 1286.847
229.3631, 1305.755
229.8452, 1316.106
230.3273, 1315.313
230.8095, 1301.901
231.2916, 1275.647
231.7737, 1242.542
232.2558, 1198.976
232.7379, 1152.320
233.2200, 1110.154
233.7022, 1072.788
234.1843, 1039.442
234.6664, 1010.279
235.1485, 985.5441
235.6306, 964.1221
236.1127, 946.1348
236.5949, 931.0609
237.0770, 918.5659
237.5591, 909.7133
238.0412, 901.3871
238.5233, 892.9474
239.0054, 884.3662
239.4876, 877.0944
239.9697, 870.9951
240.4518, 866.2798
240.9339, 863.3123
241.4160, 863.0015
241.8981, 862.6019
242.3803, 861.1791
242.8624, 858.8240
243.3445, 859.0574
243.8266, 863.7314
244.3087, 868.8942
244.7908, 870.9841
245.2730, 867.6967
245.7551, 865.9462
246.2372, 866.9260
246.7193, 870.4634
247.2014, 874.3241
247.6835, 878.3581
248.1657, 882.8334
248.6478, 887.8381
249.1299, 893.2358
249.6120, 899.5174
250.0941, 906.8864
250.5762, 915.2487
251.0584, 923.9717
251.5405, 933.3331
252.0226, 942.5999
252.5047, 951.2962
252.9868, 959.9326
253.4689, 967.1995
253.9511, 974.1235
254.4332, 979.8417
254.9153, 978.9867
255.3974, 969.8401
255.8795, 956.8842
256.3616, 942.4352
256.8438, 925.0653
257.3259, 909.7158
257.8080, 896.8243
258.2901, 886.2673
258.7722, 877.0929
259.2543, 869.0883
259.7365, 862.7729
260.2186, 858.5667
260.7007, 857.2888
261.1828, 855.7465
261.6649, 853.7544
262.1470, 851.3759
262.6292, 848.6055
263.1113, 845.0453
263.5934, 841.9017
264.0755, 839.6418
264.5576, 838.0668
265.0397, 838.1947
265.5219, 840.7716
266.0040, 844.5949
266.4861, 846.9481
266.9682, 847.5234
267.4503, 847.3784
267.9324, 846.7256
268.4146, 845.2418
268.8967, 844.9048
269.3788, 846.1540
269.8609, 848.1289
270.3430, 849.2306
270.8251, 849.3658
271.3073, 848.9286
271.7894, 847.6328
272.2715, 845.2235
272.7536, 844.8130
273.2357, 847.0421
273.7178, 850.3163
274.2000, 851.9368
274.6821, 851.3234
275.1642, 851.5781
275.6463, 854.0674
276.1284, 858.7908
276.6105, 863.1514
277.0927, 867.2734
277.5748, 870.7567
278.0569, 872.5865
278.5390, 872.4398
279.0211, 873.3746
279.5032, 877.0436
279.9854, 882.9229
280.4675, 885.9663
280.9496, 885.4434
281.4317, 884.5622
281.9138, 886.8716
282.3959, 892.4698
282.8781, 898.8639
283.3602, 906.0760
283.8423, 913.5302
284.3244, 918.0791
284.8065, 919.3669
285.2886, 920.1581
285.7708, 923.2274
286.2529, 928.4250
286.7350, 932.8123
287.2171, 935.1528
287.6992, 936.7258
288.1813, 941.4497
288.6635, 949.4752
289.1456, 957.9781
289.6277, 963.6281
290.1098, 967.2493
290.5919, 975.0270
291.0740, 989.8635
291.5562, 1006.530
292.0383, 1012.611
292.5204, 1008.701
293.0025, 1006.211
293.4846, 1014.531
293.9667, 1030.659
294.4489, 1043.530
294.9310, 1050.698
295.4131, 1056.965
295.8952, 1069.796
296.3773, 1088.398
296.8594, 1107.815
297.3416, 1124.946
297.8237, 1141.128
298.3058, 1158.787
298.7879, 1178.058
299.2700, 1199.672
299.7521, 1224.665
300.2343, 1252.639
300.7164, 1281.098
301.1985, 1312.792
301.6806, 1343.307
302.1627, 1364.956
302.6448, 1377.470
303.1270, 1384.327
303.6091, 1385.959
304.0912, 1384.426
304.5733, 1384.099
305.0554, 1386.712
305.5375, 1391.439
306.0197, 1396.895
306.5018, 1403.141
306.9839, 1412.071
307.4660, 1424.522
307.9481, 1440.607
308.4302, 1460.618
308.9124, 1487.712
309.3945, 1515.993
309.8766, 1539.181
310.3587, 1558.716
310.8408, 1581.050
311.3229, 1610.867
311.8051, 1645.307
312.2872, 1680.860
312.7693, 1717.313
313.2514, 1754.086
313.7335, 1789.082
314.2156, 1823.973
314.6978, 1864.013
315.1799, 1912.219
315.6620, 1966.395
316.1441, 2023.088
316.6262, 2079.925
317.1083, 2145.190
317.5905, 2222.451
318.0726, 2310.080
318.5547, 2406.614
319.0368, 2515.127
319.5189, 2629.115
320.0010, 2746.118
320.4832, 2867.922
320.9653, 2985.271
321.4474, 3102.960
321.9295, 3212.396
322.4116, 3303.533
322.8937, 3384.907
323.3759, 3437.497
323.8580, 3456.791
324.3401, 3442.342
324.8222, 3395.108
325.3043, 3308.006
325.7864, 3192.166
326.2686, 3056.171
326.7507, 2876.808
327.2328, 2703.904
327.7149, 2540.795
328.1970, 2389.188
328.6791, 2250.544
329.1613, 2127.242
329.6434, 2016.044
330.1255, 1915.645
330.6076, 1826.986
331.0897, 1747.770
331.5718, 1678.387
332.0540, 1618.458
332.5361, 1566.365
333.0182, 1523.277
333.5003, 1485.786
333.9824, 1453.186
334.4645, 1425.843
334.9467, 1401.567
335.4288, 1380.509
335.9109, 1362.578
336.3930, 1348.286
336.8751, 1338.279
337.3572, 1330.159
337.8394, 1323.425
338.3215, 1318.188
338.8036, 1312.654
339.2857, 1305.813
339.7678, 1300.423
340.2499, 1300.308
340.7320, 1306.518
341.2141, 1311.614
341.6963, 1313.252
342.1784, 1312.520
342.6605, 1314.281
343.1426, 1318.526
343.6247, 1325.200
344.1068, 1335.451
344.5890, 1348.925
345.0711, 1360.240
345.5532, 1367.484
346.0353, 1373.564
346.5174, 1384.243
346.9995, 1399.574
347.4817, 1417.285
347.9638, 1436.152
348.4459, 1456.310
348.9280, 1477.992
349.4101, 1500.904
349.8922, 1526.292
350.3744, 1556.102
350.8565, 1589.536
351.3386, 1624.290
351.8207, 1657.423
352.3028, 1691.424
352.7849, 1732.060
353.2671, 1779.820
353.7492, 1828.656
354.2313, 1874.873
354.7134, 1918.311
355.1955, 1959.738
355.6776, 2003.609
356.1598, 2040.981
356.6419, 2065.399
357.1240, 2076.928
357.6061, 2075.786
358.0882, 2057.650
358.5703, 2029.021
359.0525, 1995.542
359.5346, 1956.039
360.0167, 1916.583
360.4988, 1880.698
360.9809, 1847.644
361.4630, 1816.183
361.9452, 1783.894
362.4273, 1754.435
362.9094, 1729.499
363.3915, 1709.090
363.8736, 1693.972
364.3557, 1685.955
364.8379, 1682.948
365.3200, 1682.590
365.8021, 1686.155
366.2842, 1690.541
366.7663, 1696.218
367.2484, 1703.230
367.7306, 1706.220
368.2127, 1704.614
368.6948, 1698.815
369.1769, 1689.091
369.6590, 1671.446
370.1411, 1654.758
370.6233, 1637.538
371.1054, 1621.199
371.5875, 1611.208
372.0696, 1609.823
372.5517, 1612.152
373.0338, 1616.334
373.5160, 1622.437
373.9981, 1630.084
374.4802, 1638.514
374.9623, 1649.178
375.4444, 1664.405
375.9265, 1685.101
376.4087, 1708.288
376.8908, 1733.153
377.3729, 1759.784
377.8550, 1787.940
378.3371, 1817.040
378.8192, 1848.591
379.3014, 1883.046
379.7835, 1920.622
380.2656, 1962.857
380.7477, 2009.844
381.2298, 2061.633
381.7119, 2119.621
382.1941, 2183.324
382.6762, 2252.153
383.1583, 2322.893
383.6404, 2397.756
384.1225, 2483.324
384.6046, 2580.876
385.0868, 2686.377
385.5689, 2797.834
386.0510, 2914.245
386.5331, 3033.051
387.0152, 3159.726
387.4973, 3286.474
387.9795, 3407.476
388.4616, 3522.547
388.9437, 3619.115
389.4258, 3697.440
389.9079, 3749.021
390.3900, 3760.225
390.8722, 3725.361
391.3543, 3651.145
391.8364, 3531.764
392.3185, 3374.718
392.8006, 3203.758
393.2827, 3015.486
393.7649, 2826.914
394.2470, 2651.211
394.7291, 2490.751
395.2112, 2342.022
395.6933, 2203.116
396.1754, 2075.263
396.6576, 1960.327
397.1397, 1859.696
397.6218, 1771.137
398.1039, 1695.281
398.5860, 1632.605
399.0681, 1576.617
399.5503, 1528.661
400.0324, 1485.938
400.5145, 1446.698
400.9966, 1409.146
401.4787, 1377.278
401.9608, 1352.907
402.4430, 1334.586
402.9251, 1316.851
403.4072, 1300.060
403.8893, 1283.243
404.3714, 1265.661
404.8535, 1246.240
405.3357, 1230.229
405.8178, 1218.471
406.2999, 1209.207
406.7820, 1199.926
407.2641, 1190.366
407.7462, 1182.339
408.2284, 1176.804
408.7105, 1173.297
409.1926, 1169.099
409.6747, 1164.199
410.1568, 1158.719
410.6389, 1151.607
411.1211, 1143.587
411.6032, 1138.754
412.0853, 1138.506
412.5674, 1140.287
413.0495, 1140.564
413.5316, 1139.499
414.0138, 1137.900
414.4959, 1135.559
414.9780, 1133.182
415.4601, 1132.202
415.9422, 1132.777
416.4243, 1133.152
416.9065, 1131.004
417.3886, 1127.917
417.8707, 1126.339
418.3528, 1129.154
418.8349, 1131.755
419.3170, 1130.124
419.7992, 1125.297
420.2813, 1122.240
420.7634, 1125.343
421.2455, 1129.409
421.7276, 1130.698
422.2097, 1127.127
422.6919, 1124.420
423.1740, 1124.665
423.6561, 1126.480
424.1382, 1127.756
424.6203, 1127.223
425.1024, 1127.048
425.5846, 1127.873
426.0667, 1129.752
426.5488, 1131.634
427.0309, 1133.889
427.5130, 1135.840
427.9951, 1137.014
428.4773, 1137.222
428.9594, 1137.060
429.4415, 1136.499
429.9236, 1135.639
430.4057, 1134.469
430.8878, 1132.588
431.3700, 1131.733
431.8521, 1133.455
432.3342, 1137.762
432.8163, 1138.873
433.2984, 1136.073
433.7805, 1132.602
434.2627, 1132.584
434.7448, 1135.640
435.2269, 1137.899
435.7090, 1138.216
436.1911, 1137.346
436.6732, 1136.489
437.1554, 1135.679
437.6375, 1135.300
438.1196, 1135.702
438.6017, 1136.653
439.0838, 1137.795
439.5659, 1139.083
440.0480, 1140.553
440.5302, 1142.489
441.0123, 1144.603
441.4944, 1146.414
441.9765, 1147.967
442.4586, 1148.969
442.9407, 1148.750
443.4229, 1147.533
443.9050, 1147.055
444.3871, 1148.290
444.8692, 1150.348
445.3513, 1152.686
445.8334, 1155.331
446.3156, 1158.063
446.7977, 1161.621
447.2798, 1165.105
447.7619, 1166.870
448.2440, 1163.979
448.7261, 1162.448
449.2083, 1164.344
449.6904, 1169.954
450.1725, 1173.129
450.6546, 1172.533
451.1367, 1171.135
451.6188, 1171.013
452.1010, 1172.202
452.5831, 1174.738
453.0652, 1179.017
453.5473, 1184.314
454.0294, 1189.272
454.5115, 1193.945
454.9937, 1197.987
455.4758, 1201.135
455.9579, 1203.504
456.4400, 1205.991
456.9221, 1208.683
457.4042, 1210.788
457.8864, 1210.497
458.3685, 1208.908
458.8506, 1209.398
459.3327, 1213.392
459.8148, 1218.802
460.2969, 1223.021
460.7791, 1226.551
461.2612, 1230.932
461.7433, 1239.130
462.2254, 1247.264
462.7075, 1251.619
463.1896, 1251.721
463.6718, 1250.541
464.1539, 1248.487
464.6360, 1246.443
465.1181, 1245.325
465.6002, 1246.097
466.0823, 1247.051
466.5645, 1248.659
467.0466, 1250.335
467.5287, 1249.851
468.0108, 1244.005
468.4929, 1238.627
468.9750, 1236.256
469.4572, 1238.386
469.9393, 1237.746
470.4214, 1232.414
470.9035, 1226.042
471.3856, 1222.766
471.8677, 1223.577
472.3499, 1224.299
472.8320, 1224.098
473.3141, 1223.357
473.7962, 1223.417
474.2783, 1224.342
474.7604, 1225.676
475.2426, 1227.669
475.7247, 1230.048
476.2068, 1230.917
476.6889, 1230.113
477.1710, 1228.574
477.6531, 1226.525
478.1353, 1224.510
478.6174, 1224.084
479.0995, 1226.201
479.5816, 1229.607
480.0637, 1234.083
480.5458, 1238.968
481.0280, 1241.730
481.5101, 1237.737
481.9922, 1233.058
482.4743, 1233.394
482.9564, 1240.431
483.4385, 1246.306
483.9207, 1246.567
484.4028, 1244.541
484.8849, 1243.714
485.3670, 1245.866
485.8491, 1248.123
486.3312, 1250.182
486.8134, 1252.003
487.2955, 1253.371
487.7776, 1253.552
488.2597, 1254.198
488.7418, 1256.339
489.2239, 1260.684
489.7061, 1262.800
490.1882, 1261.619
490.6703, 1259.796
491.1524, 1260.471
491.6345, 1263.982
492.1166, 1267.377
492.5988, 1269.991
493.0809, 1272.260
493.5630, 1275.804
494.0451, 1280.559
494.5272, 1284.090
495.0093, 1283.692
495.4915, 1281.234
495.9736, 1281.330
496.4557, 1284.301
496.9378, 1287.619
497.4199, 1288.418
497.9020, 1288.259
498.3842, 1289.569
498.8663, 1293.741
499.3484, 1298.666
499.8305, 1303.943
500.3126, 1309.020
500.7947, 1312.457
501.2769, 1311.223
501.7590, 1310.446
502.2411, 1312.899
502.7232, 1319.305
503.2053, 1325.230
503.6874, 1329.391
504.1696, 1333.256
504.6517, 1337.857
505.1338, 1343.956
505.6159, 1349.397
506.0980, 1353.866
506.5801, 1357.629
507.0623, 1361.006
507.5444, 1363.518
508.0265, 1367.388
508.5086, 1374.349
508.9907, 1383.729
509.4728, 1389.623
509.9550, 1391.714
510.4371, 1392.755
510.9192, 1394.441
511.4013, 1396.974
511.8834, 1401.341
512.3655, 1408.128
512.8477, 1415.481
513.3298, 1421.662
513.8119, 1426.762
514.2940, 1430.974
514.7761, 1435.406
515.2582, 1438.219
515.7404, 1436.671
516.2225, 1431.483
516.7046, 1427.927
517.1867, 1430.135
517.6688, 1433.512
518.1509, 1434.996
518.6331, 1433.300
519.1152, 1431.778
519.5973, 1429.667
520.0794, 1428.498
520.5615, 1430.239
521.0436, 1437.115
521.5258, 1443.301
522.0079, 1447.140
522.4900, 1449.482
522.9721, 1455.078
523.4542, 1464.989
523.9363, 1474.678
524.4185, 1480.901
524.9006, 1483.734
525.3827, 1490.777
525.8648, 1502.953
526.3469, 1514.965
526.8290, 1519.839
527.3112, 1519.382
527.7933, 1520.912
528.2754, 1527.378
528.7575, 1534.409
529.2396, 1536.936
529.7217, 1535.786
530.2039, 1533.362
530.6860, 1530.731
531.1681, 1527.393
531.6502, 1522.970
532.1323, 1517.406
532.6144, 1510.790
533.0966, 1501.320
533.5787, 1491.898
534.0608, 1484.560
534.5429, 1481.652
535.0250, 1477.562
535.5071, 1470.890
535.9893, 1463.192
536.4714, 1456.676
536.9535, 1450.884
537.4356, 1447.302
537.9177, 1446.983
538.3998, 1449.287
538.8820, 1449.954
539.3641, 1448.545
539.8462, 1447.522
540.3283, 1449.171
540.8104, 1452.909
541.2925, 1453.821
541.7747, 1451.185
542.2568, 1449.169
542.7389, 1453.850
543.2210, 1462.556
543.7031, 1468.844
544.1852, 1469.947
544.6674, 1469.588
545.1495, 1470.669
545.6316, 1472.913
546.1137, 1475.620
546.5958, 1479.449
547.0779, 1482.842
547.5601, 1483.615
548.0422, 1481.558
548.5243, 1483.607
549.0064, 1495.912
549.4885, 1509.437
549.9706, 1518.284
550.4528, 1517.530
550.9349, 1521.324
551.4170, 1531.290
551.8991, 1544.552
552.3812, 1557.388
552.8633, 1570.084
553.3455, 1580.802
553.8276, 1587.841
554.3097, 1593.289
554.7918, 1604.822
555.2739, 1622.250
555.7560, 1640.267
556.2382, 1656.632
556.7203, 1671.065
557.2024, 1682.646
557.6845, 1691.312
558.1666, 1698.422
558.6487, 1707.967
559.1309, 1715.537
559.6130, 1714.903
560.0951, 1702.103
560.5772, 1685.779
561.0593, 1668.058
561.5414, 1649.824
562.0236, 1632.906
562.5057, 1618.730
562.9878, 1604.680
563.4699, 1589.090
563.9520, 1572.398
564.4341, 1558.522
564.9163, 1548.295
565.3984, 1539.675
565.8805, 1531.359
566.3626, 1522.904
566.8447, 1517.578
567.3268, 1515.920
567.8090, 1515.649
568.2911, 1514.332
568.7732, 1512.077
569.2553, 1509.814
569.7374, 1507.481
570.2195, 1505.721
570.7017, 1505.751
571.1838, 1507.129
571.6659, 1508.441
572.1480, 1509.375
572.6301, 1509.686
573.1122, 1508.652
573.5944, 1506.491
574.0765, 1505.081
574.5586, 1506.294
575.0407, 1507.742
575.5228, 1507.874
576.0049, 1505.900
576.4871, 1504.292
576.9692, 1501.898
577.4513, 1500.785
577.9334, 1503.586
578.4155, 1513.658
578.8976, 1519.329
579.3798, 1517.949
579.8619, 1512.433
580.3440, 1509.349
580.8261, 1508.744
581.3082, 1510.114
581.7903, 1513.930
582.2725, 1519.405
582.7546, 1524.715
583.2367, 1529.784
583.7188, 1533.437
584.2009, 1533.313
584.6830, 1531.825
585.1652, 1532.851
585.6473, 1537.498
586.1294, 1540.388
586.6115, 1535.472
587.0936, 1528.424
587.5757, 1525.280
588.0578, 1530.879
588.5399, 1536.560
589.0220, 1541.465
589.5042, 1545.311
589.9863, 1547.412
590.4684, 1546.223
590.9505, 1545.759
591.4326, 1547.224
591.9147, 1550.389
592.3969, 1553.487
592.8790, 1556.764
593.3611, 1558.979
593.8432, 1558.573
594.3253, 1556.190
594.8074, 1555.585
595.2896, 1557.081
595.7717, 1558.753
596.2538, 1557.530
596.7359, 1555.400
597.2180, 1556.287
597.7001, 1562.471
598.1823, 1569.065
598.6644, 1573.157
599.1465, 1575.369
599.6286, 1576.765
600.1107, 1577.078
600.5928, 1577.224
601.0750, 1577.101
601.5571, 1576.871
602.0392, 1577.688
602.5213, 1579.736
603.0034, 1582.600
603.4855, 1586.482
603.9677, 1591.590
604.4498, 1594.871
604.9319, 1596.064
605.4140, 1596.257
605.8961, 1595.520
606.3782, 1594.263
606.8604, 1595.967
607.3425, 1601.665
607.8246, 1607.886
608.3067, 1609.655
608.7888, 1608.833
609.2709, 1609.445
609.7531, 1614.151
610.2352, 1619.325
610.7173, 1622.840
611.1994, 1624.990
611.6815, 1626.617
612.1636, 1628.532
612.6458, 1629.510
613.1279, 1627.733
613.6100, 1623.056
614.0921, 1623.369
614.5742, 1632.238
615.0563, 1641.437
615.5385, 1646.255
616.0206, 1645.882
616.5027, 1646.044
616.9848, 1646.745
617.4669, 1647.983
