##NAMES=Diopside
##RRUFFID=R060061
##IDEAL CHEMISTRY=CaMgSi_2_O_6_
##LOCALITY=Oka, near Montreal, Quebec, Canada
##OWNER=RRUFF
##SOURCE=University of Arizona Mineral Museum
##DESCRIPTION=Pale green prismatic single crystal
##STATUS=The identification of this mineral is confirmed by single-crystal X-ray diffraction and chemical analysis.
##URL=rruff.info/R060061
##MEASURED CHEMISTRY=(Ca_0.99_Mn_0.01_)_Σ=1_(Mg_0.92_Fe^2+^_0.06_Mn_0.02_)_Σ=1_(Si_1.99_Al_0.01_)_Σ=2_O_6_
107.1171, 134.6064
107.5992, 133.7307
108.0813, 133.1810
108.5634, 133.1303
109.0455, 133.4056
109.5276, 133.7478
110.0098, 134.0186
110.4919, 134.3595
110.9740, 135.1564
111.4561, 136.6901
111.9382, 138.1111
112.4203, 138.8058
112.9025, 138.8441
113.3846, 139.0283
113.8667, 139.8119
114.3488, 140.9819
114.8309, 142.2440
115.3130, 143.5759
115.7952, 144.9548
116.2773, 146.4054
116.7594, 147.9974
117.2415, 149.4558
117.7236, 150.5697
118.2057, 151.5282
118.6879, 152.5513
119.1700, 153.7875
119.6521, 155.1968
120.1342, 156.4507
120.6163, 157.4245
121.0984, 158.3418
121.5805, 159.2112
122.0627, 160.0587
122.5448, 160.9226
123.0269, 161.8388
123.5090, 162.8143
123.9911, 163.7808
124.4732, 164.4542
124.9554, 165.3363
125.4375, 166.7629
125.9196, 168.7269
126.4017, 170.9333
126.8838, 173.0651
127.3659, 175.0883
127.8481, 177.0650
128.3302, 178.8855
128.8123, 180.7021
129.2944, 182.6689
129.7765, 184.8150
130.2586, 187.1712
130.7408, 189.8533
131.2229, 192.8475
131.7050, 195.8817
132.1871, 198.5982
132.6692, 201.1971
133.1513, 204.4707
133.6335, 208.8434
134.1156, 213.8553
134.5977, 219.0735
135.0798, 224.5340
135.5619, 229.8655
136.0440, 234.9019
136.5262, 239.7595
137.0083, 243.6054
137.4904, 247.2180
137.9725, 249.1566
138.4546, 248.0627
138.9367, 243.5103
139.4189, 236.4407
139.9010, 228.4003
140.3831, 218.8078
140.8652, 209.2900
141.3473, 199.6744
141.8294, 190.4428
142.3116, 182.0896
142.7937, 174.8061
143.2758, 168.5972
143.7579, 163.3064
144.2400, 159.4351
144.7221, 156.0711
145.2043, 153.1648
145.6864, 150.6775
146.1685, 148.6404
146.6506, 147.0955
147.1327, 146.0161
147.6148, 144.8950
148.0969, 143.6432
148.5791, 142.4455
149.0612, 141.2303
149.5433, 140.0715
150.0254, 139.3029
150.5075, 139.2805
150.9896, 139.9778
151.4718, 140.5177
151.9539, 140.9412
152.4360, 141.1731
152.9181, 141.1168
153.4002, 140.7500
153.8823, 140.2188
154.3645, 139.5964
154.8466, 138.8926
155.3287, 138.1179
155.8108, 137.1596
156.2929, 136.1369
156.7750, 135.2977
157.2572, 134.6047
157.7393, 134.2027
158.2214, 134.2454
158.7035, 134.6033
159.1856, 134.9919
159.6677, 135.3259
160.1499, 135.5903
160.6320, 135.4965
161.1141, 134.5704
161.5962, 133.7286
162.0783, 133.3674
162.5604, 133.4166
163.0426, 133.5930
163.5247, 133.6134
164.0068, 133.4137
164.4889, 133.3994
164.9710, 133.7910
165.4531, 134.1735
165.9353, 134.3388
166.4174, 134.2839
166.8995, 134.1434
167.3816, 134.0540
167.8637, 133.9146
168.3458, 134.1602
168.8279, 135.1047
169.3101, 136.1693
169.7922, 136.8813
170.2743, 137.1559
170.7564, 137.3162
171.2385, 137.8580
171.7206, 139.0217
172.2028, 140.0267
172.6849, 140.7255
173.1670, 141.2888
173.6491, 141.9306
174.1312, 142.7285
174.6133, 143.5509
175.0955, 144.0827
175.5776, 144.2326
176.0597, 144.6326
176.5418, 145.5961
177.0239, 146.9422
177.5060, 148.3097
177.9882, 149.6583
178.4703, 150.8803
178.9524, 152.1624
179.4345, 153.6734
179.9166, 154.1328
180.3987, 152.1830
180.8809, 148.1240
181.3630, 144.4830
181.8451, 142.0442
182.3272, 140.2386
182.8093, 138.5167
183.2914, 136.8388
183.7736, 135.3783
184.2557, 134.3400
184.7378, 133.7612
185.2199, 133.3130
185.7020, 133.0550
186.1841, 132.8309
186.6663, 132.5809
187.1484, 132.2872
187.6305, 131.9122
188.1126, 131.3275
188.5947, 130.3331
189.0768, 129.6929
189.5589, 129.7803
190.0411, 130.0280
190.5232, 129.9910
191.0053, 129.5471
191.4874, 128.9706
191.9695, 128.8182
192.4516, 129.5957
192.9338, 129.9578
193.4159, 129.7830
193.8980, 129.2514
194.3801, 128.3474
194.8622, 127.0915
195.3443, 125.8140
195.8265, 125.2744
196.3086, 126.7892
196.7907, 127.5212
197.2728, 126.9077
197.7549, 125.6779
198.2370, 124.6223
198.7192, 124.0698
199.2013, 123.8796
199.6834, 123.6974
200.1655, 123.5322
200.6476, 123.3600
201.1297, 123.2316
201.6119, 123.0858
202.0940, 122.7896
202.5761, 122.2560
203.0582, 121.6130
203.5403, 121.2137
204.0224, 121.1143
204.5046, 121.0691
204.9867, 120.9118
205.4688, 120.7329
205.9509, 120.8226
206.4330, 121.4160
206.9151, 122.2013
207.3973, 122.5507
207.8794, 122.3376
208.3615, 122.0763
208.8436, 122.0405
209.3257, 122.2062
209.8078, 122.4458
210.2899, 122.7554
210.7721, 123.0847
211.2542, 123.3682
211.7363, 123.5987
212.2184, 123.8035
212.7005, 123.9373
213.1826, 123.9995
213.6648, 124.2625
214.1469, 125.1172
214.6290, 125.9961
215.1111, 126.3225
215.5932, 125.9783
216.0753, 125.5566
216.5575, 125.8167
217.0396, 126.9134
217.5217, 127.6520
218.0038, 127.1263
218.4859, 126.5195
218.9680, 126.6235
219.4502, 127.5909
219.9323, 128.8892
220.4144, 129.8505
220.8965, 130.3768
221.3786, 130.8887
221.8607, 131.2952
222.3429, 131.8033
222.8250, 132.6526
223.3071, 133.8640
223.7892, 135.1221
224.2713, 135.8634
224.7534, 135.6130
225.2356, 135.9975
225.7177, 137.4915
226.1998, 139.2693
226.6819, 140.7997
227.1640, 141.9507
227.6461, 142.9399
228.1283, 144.0715
228.6104, 145.3211
229.0925, 146.8024
229.5746, 148.8826
230.0567, 150.9156
230.5388, 152.5742
231.0210, 153.7288
231.5031, 154.3047
231.9852, 154.1664
232.4673, 152.9870
232.9494, 151.6251
233.4315, 150.2326
233.9137, 148.5901
234.3958, 146.3105
234.8779, 143.3855
235.3600, 140.3899
235.8421, 138.1194
236.3242, 136.8436
236.8064, 135.8380
237.2885, 135.4872
237.7706, 135.1700
238.2527, 134.1109
238.7348, 132.2084
239.2169, 130.3710
239.6991, 129.8408
240.1812, 131.1445
240.6633, 131.9988
241.1454, 132.1433
241.6275, 131.9202
242.1096, 131.5126
242.5918, 130.9643
243.0739, 130.5476
243.5560, 130.6184
244.0381, 131.2235
244.5202, 131.8782
245.0023, 132.7022
245.4845, 133.4769
245.9666, 133.9155
246.4487, 133.9659
246.9308, 133.9133
247.4129, 133.9338
247.8950, 134.0504
248.3772, 134.5204
248.8593, 135.8329
249.3414, 137.3046
249.8235, 138.0663
250.3056, 137.9924
250.7877, 137.7248
251.2698, 137.8591
251.7520, 138.2383
252.2341, 138.3534
252.7162, 138.1569
253.1983, 137.6144
253.6804, 136.5863
254.1625, 134.9972
254.6447, 133.3210
255.1268, 131.7327
255.6089, 130.2959
256.0910, 129.1680
256.5731, 128.5705
257.0552, 128.1784
257.5374, 127.5413
258.0195, 126.6155
258.5016, 125.6703
258.9837, 124.9282
259.4658, 124.2307
259.9479, 123.3095
260.4301, 121.8520
260.9122, 120.4782
261.3943, 120.2113
261.8764, 121.3152
262.3585, 122.2705
262.8406, 122.2408
263.3228, 121.8010
263.8049, 121.4159
264.2870, 121.2092
264.7691, 121.0712
265.2512, 120.7792
265.7333, 120.2352
266.2155, 120.0094
266.6976, 120.7306
267.1797, 121.6030
267.6618, 121.9662
268.1439, 121.6430
268.6260, 121.1854
269.1082, 121.3470
269.5903, 122.2824
270.0724, 123.0321
270.5545, 123.1234
271.0366, 123.1395
271.5187, 123.4308
272.0009, 124.0499
272.4830, 124.8075
272.9651, 125.4956
273.4472, 126.0893
273.9293, 126.7552
274.4114, 127.6449
274.8936, 128.5139
275.3757, 129.2827
275.8578, 129.9254
276.3399, 130.4313
276.8220, 130.7271
277.3041, 130.7639
277.7863, 130.9417
278.2684, 131.3898
278.7505, 131.8891
279.2326, 132.4947
279.7147, 133.1093
280.1968, 133.4921
280.6789, 133.3910
281.1610, 132.7912
281.6432, 132.2072
282.1253, 131.7706
282.6074, 131.2121
283.0895, 130.2278
283.5716, 129.0504
284.0537, 128.1836
284.5359, 128.0484
285.0180, 128.5651
285.5001, 128.8114
285.9822, 128.5505
286.4643, 128.2595
286.9464, 127.9850
287.4286, 127.7645
287.9107, 127.6172
288.3928, 127.5387
288.8749, 127.5718
289.3570, 127.9331
289.8391, 129.1239
290.3213, 129.9828
290.8034, 129.9888
291.2855, 129.7120
291.7676, 129.8727
292.2497, 130.8058
292.7318, 132.1550
293.2140, 132.9501
293.6961, 132.4201
294.1782, 132.5742
294.6603, 133.9103
295.1424, 135.7462
295.6245, 137.5097
296.1067, 139.0132
296.5888, 140.4105
297.0709, 141.9899
297.5530, 143.9082
298.0351, 145.7010
298.5172, 147.0666
298.9994, 148.5256
299.4815, 150.4515
299.9636, 152.9029
300.4457, 155.6885
300.9278, 158.6251
301.4099, 161.8085
301.8921, 164.8336
302.3742, 167.7025
302.8563, 170.4749
303.3384, 173.2144
303.8205, 175.9083
304.3026, 178.4530
304.7848, 180.7349
305.2669, 182.7467
305.7490, 184.7534
306.2311, 186.3110
306.7132, 188.3038
307.1953, 191.4265
307.6775, 195.2444
308.1596, 198.7793
308.6417, 201.3207
309.1238, 202.9744
309.6059, 204.8629
310.0880, 206.9362
310.5702, 209.3246
311.0523, 212.2339
311.5344, 215.4259
312.0165, 218.5910
312.4986, 221.5726
312.9807, 224.4276
313.4629, 227.4164
313.9450, 230.6351
314.4271, 233.8460
314.9092, 236.6997
315.3913, 239.6804
315.8734, 243.4095
316.3556, 248.0675
316.8377, 253.0975
317.3198, 257.5161
317.8019, 261.0566
318.2840, 264.3821
318.7661, 267.8739
319.2483, 270.9252
319.7304, 273.2234
320.2125, 274.6650
320.6946, 275.2356
321.1767, 275.0171
321.6588, 274.2967
322.1409, 271.4204
322.6230, 265.3760
323.1052, 258.4802
323.5873, 251.5374
324.0694, 244.6458
324.5515, 237.7525
325.0336, 230.7296
325.5157, 223.6048
325.9979, 216.7552
326.4800, 210.1350
326.9621, 203.8683
327.4442, 198.1100
327.9263, 192.7473
328.4084, 187.5817
328.8906, 182.4771
329.3727, 177.5807
329.8548, 173.5423
330.3369, 170.9448
330.8190, 168.5783
331.3011, 166.3452
331.7833, 164.2685
332.2654, 162.3418
332.7475, 160.5752
333.2296, 159.0239
333.7117, 157.8523
334.1938, 157.4891
334.6760, 156.6703
335.1581, 154.7804
335.6402, 152.9245
336.1223, 151.9021
336.6044, 151.7845
337.0865, 152.0626
337.5687, 152.1778
338.0508, 152.0870
338.5329, 152.0339
339.0150, 152.0767
339.4971, 152.1015
339.9792, 151.8885
340.4614, 151.6015
340.9435, 151.6858
341.4256, 152.5872
341.9077, 154.1912
342.3898, 155.0587
342.8719, 154.3364
343.3541, 153.8237
343.8362, 153.7931
344.3183, 154.2211
344.8004, 155.1630
345.2825, 156.6830
345.7646, 158.4495
346.2468, 159.5551
346.7289, 159.5433
347.2110, 159.7061
347.6931, 160.0587
348.1752, 160.7128
348.6573, 161.9305
349.1395, 163.7184
349.6216, 165.5686
350.1037, 166.8088
350.5858, 167.3173
351.0679, 167.6624
351.5500, 167.4827
352.0322, 167.4661
352.5143, 168.1482
352.9964, 169.3610
353.4785, 170.4333
353.9606, 170.7649
354.4427, 170.3910
354.9249, 170.0795
355.4070, 170.0065
355.8891, 169.7605
356.3712, 169.4221
356.8533, 168.7951
357.3354, 167.4941
357.8176, 165.1880
358.2997, 162.3371
358.7818, 160.1146
359.2639, 158.7390
359.7460, 157.4233
360.2281, 156.1177
360.7103, 154.6763
361.1924, 152.8365
361.6745, 150.5220
362.1566, 148.2200
362.6387, 146.5654
363.1208, 145.6034
363.6029, 144.6760
364.0851, 143.6018
364.5672, 142.6112
365.0493, 141.8912
365.5314, 141.4133
366.0135, 140.9729
366.4956, 140.3318
366.9778, 139.5868
367.4599, 139.1925
367.9420, 139.2372
368.4241, 139.5110
368.9062, 139.8910
369.3883, 140.3925
369.8705, 141.0968
370.3526, 142.2143
370.8347, 143.3582
371.3168, 143.8817
371.7989, 143.7047
372.2810, 143.5497
372.7632, 143.6743
373.2453, 144.0131
373.7274, 144.5246
374.2095, 145.2498
374.6916, 145.9554
375.1737, 146.2717
375.6559, 146.3507
376.1380, 147.0264
376.6201, 148.7502
377.1022, 150.7009
377.5843, 151.9434
378.0664, 152.5593
378.5486, 153.2648
379.0307, 154.3362
379.5128, 155.6404
379.9949, 156.9668
380.4770, 158.2948
380.9591, 159.7509
381.4413, 161.5256
381.9234, 163.5144
382.4055, 165.2920
382.8876, 166.5725
383.3697, 167.8973
383.8518, 169.6915
384.3340, 171.8554
384.8161, 174.1203
385.2982, 176.5128
385.7803, 178.7134
386.2624, 179.9198
386.7445, 180.1280
387.2267, 179.7550
387.7088, 178.9320
388.1909, 177.5827
388.6730, 175.6021
389.1551, 172.9585
389.6372, 169.7121
390.1194, 165.8242
390.6015, 161.1669
391.0836, 156.6931
391.5657, 152.2610
392.0478, 148.1476
392.5299, 144.7291
393.0121, 141.8248
393.4942, 138.7666
393.9763, 135.0390
394.4584, 130.8940
394.9405, 127.6588
395.4226, 126.0402
395.9048, 124.4016
396.3869, 122.3975
396.8690, 120.2790
397.3511, 118.2383
397.8332, 116.3683
398.3153, 114.8309
398.7975, 113.9742
399.2796, 114.3569
399.7617, 113.9309
400.2438, 111.9175
400.7259, 109.8962
401.2080, 108.8332
401.6902, 108.6166
402.1723, 108.5536
402.6544, 108.0825
403.1365, 107.2561
403.6186, 106.7312
404.1007, 106.7557
404.5828, 106.8106
405.0649, 106.9795
405.5471, 107.0603
406.0292, 106.7335
406.5113, 105.8764
406.9934, 104.8548
407.4755, 104.3215
407.9576, 104.4594
408.4398, 104.5385
408.9219, 104.5678
409.4040, 104.4562
409.8861, 103.9802
410.3682, 103.2459
410.8503, 102.7113
411.3325, 102.8567
411.8146, 103.5721
412.2967, 104.0229
412.7788, 104.1753
413.2609, 104.1021
413.7430, 103.6334
414.2252, 103.0463
414.7073, 102.7570
415.1894, 102.9704
415.6715, 103.3681
416.1536, 103.5785
416.6357, 103.6013
417.1179, 103.4346
417.6000, 102.9527
418.0821, 102.3837
418.5642, 101.9066
419.0463, 101.5265
419.5284, 101.3104
420.0106, 101.4701
420.4927, 101.7914
420.9748, 101.7507
421.4569, 101.2332
421.9390, 100.6717
422.4211, 100.4336
422.9033, 100.4120
423.3854, 100.2533
423.8675, 99.67048
424.3496, 99.17893
424.8317, 99.23774
425.3138, 99.71095
425.7960, 100.1118
426.2781, 100.2389
426.7602, 100.2019
427.2423, 100.2239
427.7244, 100.3691
428.2065, 100.3567
428.6887, 99.98348
429.1708, 99.51807
429.6529, 99.27283
430.1350, 99.26616
430.6171, 99.22655
431.0992, 98.86656
431.5814, 98.18056
432.0635, 97.94250
432.5456, 98.41917
433.0277, 98.94590
433.5098, 99.44187
433.9919, 99.82027
434.4741, 99.92734
434.9562, 99.69906
435.4383, 99.29941
435.9204, 99.06898
436.4025, 99.20853
436.8846, 99.12803
437.3668, 98.46933
437.8489, 97.91698
438.3310, 98.03036
438.8131, 98.69522
439.2952, 99.33960
439.7773, 99.49080
440.2595, 99.19308
440.7416, 98.88226
441.2237, 98.51114
441.7058, 98.20027
442.1879, 97.94613
442.6700, 97.77705
443.1522, 97.71703
443.6343, 97.77388
444.1164, 97.95315
444.5985, 98.33248
445.0806, 98.93713
445.5627, 99.38618
446.0448, 99.63409
446.5269, 99.68325
447.0091, 99.47228
447.4912, 99.06423
447.9733, 98.68949
448.4554, 98.36246
448.9375, 98.18021
449.4196, 98.45783
449.9018, 99.27813
450.3839, 99.83731
450.8660, 99.49540
451.3481, 98.77774
451.8302, 98.66590
452.3123, 99.40818
452.7945, 100.1068
453.2766, 100.2195
453.7587, 99.96852
454.2408, 99.78515
454.7229, 99.75679
455.2050, 99.82452
455.6872, 99.96497
456.1693, 100.1832
456.6514, 100.2790
457.1335, 100.1328
457.6156, 99.97409
458.0977, 99.90833
458.5799, 99.93574
459.0620, 100.0812
459.5441, 100.3751
460.0262, 100.6942
460.5083, 100.7274
460.9904, 100.1647
461.4726, 99.78735
461.9547, 99.69637
462.4368, 99.71159
462.9189, 99.73595
463.4010, 99.74153
463.8831, 99.71790
464.3653, 99.65852
464.8474, 99.56229
465.3295, 99.40305
465.8116, 99.02128
466.2937, 98.79042
466.7758, 98.88328
467.2580, 99.11159
467.7401, 99.31989
468.2222, 99.45190
468.7043, 99.43894
469.1864, 99.07491
469.6685, 98.30796
470.1507, 97.90291
470.6328, 98.20788
471.1149, 98.56738
471.5970, 98.63115
472.0791, 98.45425
472.5612, 98.18266
473.0434, 97.77160
473.5255, 97.39835
474.0076, 97.38194
474.4897, 97.73203
474.9718, 98.07536
475.4539, 98.30984
475.9361, 98.42417
476.4182, 98.39332
476.9003, 98.19735
477.3824, 98.01417
477.8645, 97.90813
478.3466, 97.85478
478.8288, 97.82600
479.3109, 97.81823
479.7930, 97.83263
480.2751, 97.87242
480.7572, 97.93619
481.2393, 98.01009
481.7215, 98.07479
482.2036, 98.17058
482.6857, 98.19805
483.1678, 98.30471
483.6499, 98.75855
484.1320, 99.61575
484.6142, 100.5847
485.0963, 101.2645
485.5784, 101.5456
486.0605, 102.0544
486.5426, 103.0459
487.0247, 103.9826
487.5068, 104.6262
487.9890, 105.0820
488.4711, 105.5432
488.9532, 106.0986
489.4353, 106.7363
489.9174, 107.4837
490.3995, 108.4503
490.8817, 109.1363
491.3638, 109.1343
491.8459, 109.0859
492.3280, 109.3392
492.8101, 109.8763
493.2922, 110.4826
493.7744, 110.9527
494.2565, 111.4293
494.7386, 112.2618
495.2207, 113.4811
495.7028, 114.8712
496.1849, 116.5426
496.6671, 118.2047
497.1492, 119.3807
497.6313, 119.9264
498.1134, 120.5215
498.5955, 121.4398
499.0776, 122.6244
499.5598, 124.0888
500.0419, 125.8318
500.5240, 127.4699
501.0061, 128.5780
501.4882, 129.2366
501.9703, 130.5194
502.4525, 132.9509
502.9346, 135.2997
503.4167, 137.4244
503.8988, 139.1519
504.3809, 140.2366
504.8630, 140.6140
505.3452, 140.4410
505.8273, 139.9392
506.3094, 139.1623
506.7915, 137.7735
507.2736, 135.4064
507.7557, 132.8154
508.2379, 130.0266
508.7200, 127.2263
509.2021, 124.6790
509.6842, 122.4965
510.1663, 120.5553
510.6484, 118.6008
511.1306, 116.5945
511.6127, 114.8988
512.0948, 113.6718
512.5769, 112.6819
513.0590, 111.7839
513.5411, 110.9853
514.0233, 110.3350
514.5054, 109.8970
514.9875, 109.5907
515.4696, 109.3614
515.9517, 109.2026
516.4338, 108.9537
516.9160, 108.5021
517.3981, 107.9920
517.8802, 107.6534
518.3623, 107.4796
518.8444, 107.4388
519.3265, 107.6392
519.8087, 107.8888
520.2908, 108.0851
520.7729, 108.1829
521.2550, 108.0162
521.7371, 107.4199
522.2192, 106.5761
522.7014, 106.2113
523.1835, 106.8305
523.6656, 107.2851
524.1477, 107.3788
524.6298, 107.4102
525.1119, 107.6352
525.5941, 108.0571
526.0762, 108.5059
526.5583, 108.8719
527.0404, 109.1363
527.5225, 109.1399
528.0046, 108.6909
528.4868, 108.3579
528.9689, 108.4664
529.4510, 108.6738
529.9331, 108.6304
530.4152, 108.2791
530.8973, 107.9221
531.3795, 107.8069
531.8616, 107.8675
532.3437, 107.9367
532.8258, 108.0197
533.3079, 108.0111
533.7900, 107.7860
534.2722, 107.4230
534.7543, 107.1926
535.2364, 107.2674
535.7185, 107.1841
536.2006, 106.5358
536.6827, 105.6943
537.1649, 105.2411
537.6470, 105.2761
538.1291, 105.4718
538.6112, 105.5296
539.0933, 105.4482
539.5754, 105.3316
540.0576, 104.9939
540.5397, 104.8478
541.0218, 105.1567
541.5039, 105.6189
541.9860, 105.8832
542.4681, 105.8614
542.9503, 105.7245
543.4324, 105.6569
543.9145, 105.6600
544.3966, 105.6826
544.8787, 105.6741
545.3608, 105.7687
545.8430, 106.1558
546.3251, 106.6211
546.8072, 106.8318
547.2892, 106.6485
547.7714, 106.4366
548.2535, 106.5973
548.7356, 106.9965
549.2177, 107.1511
549.6998, 106.9436
550.1819, 106.6390
550.6641, 106.4139
551.1462, 106.2819
551.6283, 106.2639
552.1104, 106.4213
552.5925, 106.6244
553.0746, 106.8676
553.5568, 107.1078
554.0389, 107.3143
554.5210, 107.4699
555.0031, 107.4891
555.4852, 107.2468
555.9673, 106.7099
556.4495, 106.3027
556.9316, 106.1805
557.4137, 106.0134
557.8958, 105.6785
558.3779, 105.2807
558.8600, 104.9381
559.3422, 104.6873
559.8243, 104.5101
560.3064, 104.4808
560.7885, 104.5721
561.2706, 104.2826
561.7527, 103.3230
562.2349, 102.5195
562.7170, 102.6718
563.1991, 103.2448
563.6812, 103.3860
564.1633, 102.8360
564.6454, 102.1278
565.1276, 101.4305
565.6097, 100.8438
566.0918, 100.6400
566.5739, 100.8695
567.0560, 101.1655
567.5381, 101.2177
568.0203, 101.0342
568.5024, 100.8216
568.9845, 100.7057
569.4666, 100.4085
569.9487, 99.66611
570.4308, 98.82010
570.9130, 98.23681
571.3951, 97.98259
571.8772, 97.89908
572.3593, 97.84153
572.8414, 97.81045
573.3235, 97.84547
573.8057, 98.11733
574.2878, 98.13892
574.7699, 97.61256
575.2520, 96.85882
575.7341, 96.13001
576.2162, 95.46916
576.6984, 94.97123
577.1805, 94.79967
577.6626, 94.81434
578.1447, 94.65751
578.6268, 94.28962
579.1089, 94.11797
579.5911, 94.50316
580.0732, 95.18047
580.5553, 95.33735
581.0374, 94.74138
581.5195, 94.20531
582.0016, 93.97680
582.4838, 93.80649
582.9659, 93.42536
583.4480, 92.86608
583.9301, 92.37399
584.4122, 92.11388
584.8943, 92.05343
585.3765, 92.10432
585.8586, 92.43767
586.3407, 92.51775
586.8228, 92.00823
587.3049, 91.46971
587.7870, 91.27926
588.2692, 91.39055
588.7513, 91.49748
589.2334, 91.38106
589.7155, 91.20586
590.1976, 91.29723
590.6797, 91.64831
591.1619, 91.89198
591.6440, 91.88987
592.1261, 91.76846
592.6082, 91.70745
593.0903, 91.71110
593.5724, 91.57812
594.0546, 91.08416
594.5367, 90.63356
595.0188, 90.56779
595.5009, 90.72490
595.9830, 90.73098
596.4651, 90.44183
596.9473, 90.02447
597.4294, 89.71692
597.9115, 89.51463
598.3936, 89.44353
598.8757, 89.67233
599.3578, 89.85685
599.8400, 89.95147
600.3221, 89.92036
600.8042, 89.59406
601.2863, 88.88749
601.7684, 88.40313
