##NAMES=Diopside
##RRUFFID=R060861
##IDEAL CHEMISTRY=CaMgSi_2_O_6_
##LOCALITY=Red Mountain Volcano, NW of Flagstaff, Arizona, USA
##OWNER=RRUFF
##SOURCE=Jennifer Sano
##DESCRIPTION=Worn brown fragment
##STATUS=The identification of this mineral has been confirmed by X-ray diffraction and chemical analysis
##URL=rruff.info/R060861
##MEASURED CHEMISTRY=(Ca_0.72_Fe^2+^_0.23_Na_0.05_)_Σ=1_(Mg_0.80_Al_0.15_Ti_0.03_Fe^3+^_0.02_)_Σ=1_(Si_1.82_Al_0.18_)_Σ=2_O_6_
165.1826, 4690.234
165.6647, 4734.099
166.1469, 4762.939
166.6290, 4776.256
167.1111, 4796.845
167.5932, 4833.611
168.0753, 4875.109
168.5574, 4910.863
169.0396, 4939.569
169.5217, 4962.186
170.0038, 4976.911
170.4859, 4984.571
170.9680, 4994.047
171.4501, 5003.917
171.9323, 5017.560
172.4144, 5043.209
172.8965, 5083.566
173.3786, 5119.965
173.8607, 5131.983
174.3428, 5124.604
174.8250, 5118.210
175.3071, 5115.752
175.7892, 5116.895
176.2713, 5121.954
176.7534, 5131.381
177.2355, 5142.214
177.7177, 5151.927
178.1998, 5161.134
178.6819, 5171.600
179.1640, 5186.490
179.6461, 5201.761
180.1283, 5209.348
180.6104, 5206.560
181.0925, 5207.253
181.5746, 5224.638
182.0567, 5252.823
182.5388, 5282.261
183.0210, 5313.586
183.5031, 5343.323
183.9852, 5365.588
184.4673, 5379.554
184.9494, 5390.049
185.4315, 5392.534
185.9137, 5394.484
186.3958, 5409.524
186.8779, 5452.013
187.3600, 5502.995
187.8421, 5530.694
188.3242, 5528.373
188.8064, 5529.395
189.2885, 5561.954
189.7706, 5607.066
190.2527, 5640.410
190.7348, 5651.105
191.2169, 5650.442
191.6991, 5652.771
192.1812, 5657.387
192.6633, 5667.962
193.1454, 5692.398
193.6275, 5721.850
194.1096, 5748.181
194.5918, 5770.979
195.0739, 5786.612
195.5560, 5787.182
196.0381, 5769.068
196.5202, 5752.146
197.0023, 5741.894
197.4845, 5738.083
197.9666, 5743.565
198.4487, 5761.711
198.9308, 5781.687
199.4129, 5789.153
199.8950, 5782.607
200.3771, 5771.801
200.8593, 5751.422
201.3414, 5732.360
201.8235, 5724.510
202.3056, 5731.071
202.7877, 5743.309
203.2698, 5751.542
203.7520, 5755.321
204.2341, 5758.756
204.7162, 5771.499
205.1983, 5778.526
205.6804, 5762.554
206.1625, 5720.059
206.6447, 5678.297
207.1268, 5671.340
207.6089, 5703.229
208.0910, 5724.618
208.5731, 5718.697
209.0552, 5703.802
209.5374, 5688.192
210.0195, 5673.427
210.5016, 5663.492
210.9837, 5661.875
211.4658, 5668.632
211.9479, 5682.906
212.4301, 5717.563
212.9122, 5747.806
213.3943, 5755.269
213.8764, 5741.918
214.3585, 5726.102
214.8406, 5724.222
215.3228, 5735.659
215.8049, 5741.455
216.2870, 5729.547
216.7691, 5724.270
217.2512, 5743.656
217.7333, 5782.087
218.2155, 5819.274
218.6976, 5839.796
219.1797, 5845.425
219.6618, 5851.496
220.1439, 5859.178
220.6260, 5865.616
221.1082, 5866.943
221.5903, 5865.974
222.0724, 5869.216
222.5545, 5882.879
223.0366, 5903.727
223.5187, 5919.505
224.0009, 5931.182
224.4830, 5935.384
224.9651, 5920.915
225.4472, 5900.621
225.9293, 5896.324
226.4114, 5924.470
226.8936, 5970.200
227.3757, 5996.956
227.8578, 5997.529
228.3399, 5996.019
228.8220, 6007.121
229.3041, 6020.009
229.7863, 6018.821
230.2684, 5992.312
230.7505, 5961.128
231.2326, 5965.991
231.7147, 6020.711
232.1968, 6060.520
232.6790, 6047.085
233.1611, 6016.064
233.6432, 5994.853
234.1253, 5990.042
234.6074, 5997.150
235.0895, 6014.819
235.5717, 6045.008
236.0538, 6069.523
236.5359, 6082.428
237.0180, 6087.945
237.5001, 6086.876
237.9822, 6079.197
238.4644, 6071.744
238.9465, 6068.521
239.4286, 6069.624
239.9107, 6081.499
240.3928, 6115.839
240.8749, 6150.954
241.3571, 6170.716
241.8392, 6175.497
242.3213, 6175.827
242.8034, 6173.846
243.2855, 6171.750
243.7676, 6182.812
244.2497, 6214.753
244.7319, 6251.119
245.2140, 6284.402
245.6961, 6313.292
246.1782, 6332.233
246.6603, 6331.889
247.1424, 6320.018
247.6246, 6318.908
248.1067, 6334.530
248.5888, 6347.446
249.0709, 6336.659
249.5530, 6314.836
250.0351, 6306.059
250.5173, 6324.911
250.9994, 6357.277
251.4815, 6386.024
251.9636, 6412.141
252.4457, 6427.681
252.9278, 6417.322
253.4100, 6396.594
253.8921, 6389.108
254.3742, 6403.664
254.8563, 6425.347
255.3384, 6443.407
255.8205, 6457.682
256.3027, 6462.146
256.7848, 6448.778
257.2669, 6427.797
257.7490, 6415.178
258.2311, 6412.780
258.7133, 6414.019
259.1954, 6417.973
259.6775, 6422.953
260.1596, 6422.368
260.6417, 6414.407
261.1238, 6399.767
261.6060, 6374.948
262.0880, 6338.546
262.5702, 6313.198
263.0523, 6316.216
263.5344, 6334.866
264.0165, 6345.883
264.4986, 6344.732
264.9807, 6337.738
265.4629, 6330.457
265.9450, 6322.891
266.4271, 6314.332
266.9092, 6303.604
267.3913, 6292.404
267.8734, 6280.833
268.3556, 6268.965
268.8377, 6262.302
269.3198, 6267.240
269.8019, 6282.547
270.2840, 6291.890
270.7661, 6292.385
271.2483, 6289.444
271.7304, 6285.964
272.2125, 6281.882
272.6946, 6275.353
273.1767, 6263.135
273.6588, 6249.381
274.1410, 6250.625
274.6231, 6282.182
275.1052, 6306.562
275.5873, 6304.791
276.0694, 6289.195
276.5515, 6282.296
277.0337, 6293.086
277.5158, 6313.937
277.9979, 6330.337
278.4800, 6341.208
278.9621, 6349.772
279.4442, 6348.968
279.9264, 6349.734
280.4085, 6368.774
280.8906, 6407.756
281.3727, 6445.127
281.8548, 6452.605
282.3369, 6416.366
282.8191, 6404.124
283.3012, 6434.511
283.7833, 6470.476
284.2654, 6492.735
284.7475, 6500.541
285.2296, 6500.879
285.7118, 6497.933
286.1939, 6491.811
286.6760, 6495.696
287.1581, 6514.017
287.6402, 6536.751
288.1223, 6565.521
288.6045, 6596.214
289.0866, 6623.705
289.5687, 6645.467
290.0508, 6660.787
290.5329, 6665.553
291.0150, 6635.140
291.4972, 6630.532
291.9793, 6675.994
292.4614, 6737.300
292.9435, 6785.279
293.4256, 6810.787
293.9077, 6820.762
294.3899, 6822.701
294.8720, 6810.015
295.3541, 6808.291
295.8362, 6821.630
296.3183, 6842.509
296.8004, 6869.410
297.2826, 6900.906
297.7647, 6934.301
298.2468, 6969.976
298.7289, 7007.728
299.2110, 7031.166
299.6931, 7024.651
300.1753, 7022.366
300.6574, 7032.797
301.1395, 7056.481
301.6216, 7096.607
302.1037, 7162.581
302.5858, 7236.967
303.0680, 7271.126
303.5501, 7244.830
304.0322, 7232.365
304.5143, 7278.490
304.9964, 7341.981
305.4785, 7382.213
305.9607, 7385.715
306.4428, 7381.840
306.9249, 7402.856
307.4070, 7448.513
307.8891, 7494.802
308.3712, 7539.188
308.8534, 7578.988
309.3355, 7607.854
309.8176, 7626.483
310.2997, 7652.971
310.7818, 7712.104
311.2639, 7785.555
311.7461, 7820.511
312.2282, 7799.503
312.7103, 7778.474
313.1924, 7815.771
313.6745, 7893.710
314.1566, 7955.963
314.6388, 7979.146
315.1209, 7990.023
315.6030, 8010.104
316.0851, 8039.817
316.5672, 8079.631
317.0493, 8133.848
317.5315, 8196.435
318.0136, 8248.138
318.4957, 8284.046
318.9778, 8317.313
319.4599, 8349.253
319.9420, 8382.314
320.4242, 8423.999
320.9063, 8477.642
321.3884, 8532.926
321.8705, 8572.608
322.3526, 8589.060
322.8347, 8609.213
323.3169, 8628.601
323.7990, 8655.728
324.2811, 8703.681
324.7632, 8770.235
325.2453, 8835.727
325.7274, 8882.476
326.2096, 8909.660
326.6917, 8934.322
327.1738, 8953.591
327.6559, 8973.932
328.1380, 8999.473
328.6201, 9027.219
329.1023, 9051.824
329.5844, 9070.337
330.0665, 9084.914
330.5486, 9102.103
331.0307, 9128.817
331.5128, 9146.509
331.9950, 9146.268
332.4771, 9142.124
332.9592, 9147.714
333.4413, 9164.582
333.9234, 9181.059
334.4055, 9181.999
334.8877, 9164.864
335.3698, 9148.894
335.8519, 9139.965
336.3340, 9126.466
336.8161, 9103.134
337.2982, 9071.416
337.7804, 9034.498
338.2625, 8990.834
338.7446, 8945.339
339.2267, 8914.042
339.7088, 8902.336
340.1909, 8890.217
340.6731, 8874.413
341.1552, 8851.412
341.6373, 8813.190
342.1194, 8753.689
342.6015, 8694.429
343.0836, 8657.320
343.5658, 8640.262
344.0479, 8627.326
344.5300, 8617.408
345.0121, 8606.320
345.4942, 8589.387
345.9763, 8566.960
346.4584, 8541.341
346.9406, 8506.510
347.4227, 8471.848
347.9048, 8452.003
348.3869, 8448.412
348.8690, 8448.785
349.3511, 8445.582
349.8333, 8438.359
350.3154, 8426.920
350.7975, 8415.152
351.2796, 8395.388
351.7617, 8355.661
352.2438, 8305.721
352.7260, 8266.387
353.2081, 8246.807
353.6902, 8241.036
354.1723, 8237.161
354.6544, 8232.735
355.1365, 8235.138
355.6187, 8266.921
356.1008, 8290.215
356.5829, 8263.841
357.0650, 8190.931
357.5471, 8116.476
358.0292, 8085.610
358.5114, 8101.574
358.9935, 8095.872
359.4756, 8040.447
359.9577, 7992.429
360.4398, 7971.149
360.9219, 7965.018
361.4041, 7957.115
361.8862, 7939.832
362.3683, 7913.813
362.8504, 7876.155
363.3325, 7816.424
363.8146, 7775.789
364.2968, 7783.452
364.7789, 7796.327
365.2610, 7783.502
365.7431, 7744.116
366.2252, 7704.677
366.7073, 7691.625
367.1895, 7698.375
367.6716, 7688.350
368.1537, 7652.836
368.6358, 7615.432
369.1179, 7589.750
369.6000, 7573.121
370.0822, 7562.564
370.5643, 7562.810
371.0464, 7562.729
371.5285, 7548.422
372.0106, 7522.306
372.4927, 7500.897
372.9749, 7490.351
373.4570, 7488.123
373.9391, 7493.174
374.4212, 7510.459
374.9033, 7514.314
375.3854, 7480.845
375.8676, 7439.494
376.3497, 7430.262
376.8318, 7456.313
377.3139, 7481.427
377.7960, 7471.100
378.2781, 7423.880
378.7603, 7398.719
379.2424, 7411.306
379.7245, 7424.250
380.2066, 7424.004
380.6887, 7416.151
381.1708, 7411.146
381.6530, 7413.557
382.1351, 7419.081
382.6172, 7418.250
383.0993, 7405.248
383.5814, 7398.123
384.0635, 7409.367
384.5457, 7416.085
385.0278, 7401.100
385.5099, 7367.008
385.9920, 7329.510
386.4741, 7293.813
386.9562, 7264.546
387.4384, 7276.610
387.9205, 7358.076
388.4026, 7427.991
388.8847, 7453.161
389.3668, 7450.340
389.8489, 7434.247
390.3311, 7405.287
390.8132, 7376.891
391.2953, 7363.536
391.7774, 7363.562
392.2595, 7365.260
392.7416, 7367.202
393.2238, 7368.077
393.7059, 7367.307
394.1880, 7364.915
394.6701, 7357.911
395.1522, 7341.884
395.6343, 7323.366
396.1165, 7307.680
396.5986, 7295.288
397.0807, 7288.016
397.5628, 7289.475
398.0449, 7294.791
398.5270, 7284.312
399.0092, 7254.543
399.4913, 7216.008
399.9734, 7159.827
400.4555, 7101.098
400.9376, 7054.690
401.4197, 7024.000
401.9019, 7003.968
402.3840, 6990.267
402.8661, 6984.710
403.3482, 6972.085
403.8303, 6949.083
404.3124, 6922.269
404.7946, 6891.237
405.2767, 6858.023
405.7588, 6825.850
406.2409, 6796.131
406.7230, 6766.874
407.2051, 6730.410
407.6873, 6681.567
408.1694, 6650.305
408.6515, 6665.158
409.1336, 6680.879
409.6157, 6660.063
410.0978, 6605.721
410.5800, 6556.783
411.0621, 6537.327
411.5442, 6537.409
412.0263, 6542.200
412.5084, 6552.812
412.9905, 6551.972
413.4727, 6522.119
413.9548, 6475.414
414.4369, 6447.137
414.9190, 6446.768
415.4011, 6449.438
415.8832, 6444.202
416.3654, 6435.523
416.8475, 6432.086
417.3296, 6435.947
417.8117, 6439.165
418.2938, 6431.516
418.7759, 6409.917
419.2581, 6396.593
419.7402, 6397.820
420.2223, 6399.424
420.7044, 6396.866
421.1865, 6390.254
421.6686, 6379.393
422.1508, 6363.944
422.6329, 6347.715
423.1150, 6339.866
423.5971, 6344.515
424.0792, 6346.656
424.5613, 6346.454
425.0435, 6342.011
425.5256, 6329.512
426.0077, 6310.747
426.4898, 6293.120
426.9719, 6278.318
427.4540, 6268.916
427.9361, 6277.423
428.4182, 6310.528
428.9004, 6329.385
429.3825, 6301.270
429.8646, 6255.221
430.3467, 6239.097
430.8288, 6264.862
431.3109, 6290.043
431.7931, 6288.435
432.2752, 6273.741
432.7573, 6270.410
433.2394, 6282.944
433.7215, 6300.133
434.2036, 6314.542
434.6858, 6325.973
435.1679, 6319.094
435.6500, 6271.025
436.1321, 6232.571
436.6142, 6222.869
437.0963, 6233.142
437.5785, 6254.202
438.0606, 6281.735
438.5427, 6306.331
439.0248, 6311.706
439.5069, 6292.271
439.9890, 6271.669
440.4712, 6235.508
440.9533, 6211.977
441.4354, 6219.797
441.9175, 6248.982
442.3996, 6277.933
442.8817, 6297.437
443.3639, 6307.510
443.8460, 6305.635
444.3281, 6290.666
444.8102, 6277.109
445.2923, 6272.072
445.7744, 6267.290
446.2566, 6250.764
446.7387, 6222.197
447.2208, 6200.527
447.7029, 6191.962
448.1850, 6194.344
448.6671, 6210.290
449.1493, 6237.778
449.6314, 6261.286
450.1135, 6271.081
450.5956, 6269.913
451.0777, 6267.948
451.5598, 6270.839
452.0420, 6265.452
452.5241, 6238.580
453.0062, 6210.538
453.4883, 6202.128
453.9704, 6214.072
454.4525, 6229.677
454.9347, 6231.970
455.4168, 6222.417
455.8989, 6228.468
456.3810, 6270.596
456.8631, 6296.881
457.3452, 6280.867
457.8274, 6250.055
458.3095, 6234.458
458.7916, 6241.729
459.2737, 6256.522
459.7558, 6266.214
460.2379, 6271.527
460.7201, 6276.199
461.2022, 6280.957
461.6843, 6284.189
462.1664, 6285.474
462.6485, 6284.156
463.1306, 6277.864
463.6128, 6256.217
464.0949, 6240.508
464.5770, 6245.866
465.0591, 6264.075
465.5412, 6283.345
466.0233, 6300.015
466.5055, 6306.124
466.9876, 6287.160
467.4697, 6231.017
467.9518, 6210.060
468.4339, 6253.123
468.9160, 6295.996
469.3982, 6317.070
469.8803, 6321.684
470.3624, 6321.324
470.8445, 6321.020
471.3266, 6316.847
471.8087, 6295.979
472.2909, 6253.323
472.7730, 6237.446
473.2551, 6275.446
473.7372, 6316.633
474.2193, 6323.350
474.7014, 6304.863
475.1836, 6291.603
475.6657, 6297.419
476.1478, 6310.251
476.6299, 6320.582
477.1120, 6327.964
477.5941, 6329.584
478.0763, 6323.870
478.5584, 6313.466
479.0405, 6301.144
479.5226, 6283.967
480.0047, 6275.855
480.4868, 6287.493
480.9690, 6298.754
481.4511, 6295.189
481.9332, 6281.563
482.4153, 6271.484
482.8974, 6272.369
483.3795, 6278.371
483.8617, 6273.785
484.3438, 6249.661
484.8259, 6240.759
485.3080, 6270.701
485.7901, 6299.901
486.2722, 6306.313
486.7544, 6294.005
487.2365, 6280.040
487.7186, 6272.094
488.2007, 6268.393
488.6828, 6266.976
489.1649, 6267.774
489.6471, 6268.767
490.1292, 6268.636
490.6113, 6269.249
491.0934, 6273.819
491.5755, 6282.505
492.0576, 6292.247
492.5398, 6304.474
493.0219, 6316.049
493.5040, 6323.835
493.9861, 6328.876
494.4682, 6334.952
494.9503, 6344.152
495.4325, 6354.632
495.9146, 6361.438
496.3967, 6362.307
496.8788, 6364.470
497.3609, 6365.007
497.8430, 6369.698
498.3252, 6390.398
498.8073, 6418.613
499.2894, 6429.987
499.7715, 6405.076
500.2536, 6364.105
500.7357, 6337.942
501.2179, 6326.579
501.7000, 6332.844
502.1821, 6363.031
502.6642, 6403.975
503.1463, 6446.105
503.6284, 6490.154
504.1106, 6511.375
504.5927, 6475.393
505.0748, 6440.581
505.5569, 6457.895
506.0390, 6512.591
506.5211, 6560.816
507.0033, 6582.220
507.4854, 6584.211
507.9675, 6579.116
508.4496, 6558.415
508.9317, 6551.677
509.4138, 6567.993
509.8959, 6588.605
510.3781, 6606.322
510.8602, 6621.839
511.3423, 6640.443
511.8244, 6668.112
512.3065, 6690.377
512.7886, 6677.238
513.2708, 6630.741
513.7529, 6604.301
514.2350, 6616.661
514.7171, 6639.345
515.1992, 6644.779
515.6813, 6634.980
516.1635, 6621.691
516.6456, 6602.587
517.1277, 6584.260
517.6098, 6569.542
518.0919, 6558.593
518.5740, 6552.121
519.0562, 6550.321
519.5383, 6551.262
520.0204, 6552.631
520.5025, 6554.779
520.9846, 6555.331
521.4667, 6550.266
521.9489, 6548.014
522.4310, 6557.134
522.9131, 6568.304
523.3952, 6565.461
523.8773, 6542.014
524.3594, 6519.383
524.8416, 6524.920
525.3237, 6551.710
525.8058, 6565.173
526.2879, 6558.423
526.7700, 6550.008
527.2521, 6555.454
527.7343, 6570.760
528.2164, 6575.649
528.6985, 6555.157
529.1806, 6544.181
529.6627, 6562.704
530.1448, 6591.644
530.6270, 6609.865
531.1091, 6613.666
531.5912, 6608.520
532.0733, 6597.045
532.5554, 6581.320
533.0375, 6582.143
533.5197, 6612.885
534.0018, 6636.119
534.4839, 6640.266
534.9660, 6635.984
535.4481, 6630.197
535.9302, 6624.217
536.4124, 6619.775
536.8945, 6619.335
537.3766, 6620.609
537.8587, 6617.283
538.3408, 6609.757
538.8229, 6610.052
539.3051, 6625.836
539.7872, 6649.968
540.2693, 6669.036
540.7514, 6686.629
541.2335, 6689.719
541.7156, 6665.205
542.1978, 6637.320
542.6799, 6620.133
543.1620, 6612.326
543.6441, 6606.785
544.1262, 6599.665
544.6083, 6594.798
545.0905, 6599.712
545.5726, 6615.050
546.0547, 6637.374
546.5368, 6676.942
547.0189, 6709.333
547.5010, 6711.574
547.9832, 6694.467
548.4653, 6686.771
548.9474, 6702.877
549.4295, 6720.305
549.9116, 6722.854
550.3937, 6715.433
550.8759, 6706.874
551.3580, 6699.339
551.8401, 6693.363
552.3222, 6688.765
552.8043, 6685.599
553.2864, 6690.922
553.7686, 6713.328
554.2507, 6734.335
554.7328, 6755.133
555.2149, 6770.960
555.6970, 6775.342
556.1791, 6768.474
556.6613, 6759.318
557.1434, 6750.319
557.6255, 6745.230
558.1076, 6760.351
558.5897, 6798.569
559.0718, 6827.122
559.5540, 6831.057
560.0361, 6819.146
560.5182, 6805.249
561.0003, 6788.832
561.4824, 6773.511
561.9645, 6761.336
562.4467, 6749.079
562.9288, 6732.585
563.4109, 6714.368
563.8930, 6702.321
564.3751, 6700.375
564.8572, 6699.248
565.3394, 6678.649
565.8215, 6631.764
566.3036, 6603.976
566.7857, 6611.464
567.2678, 6619.533
567.7499, 6609.158
568.2321, 6587.562
568.7142, 6568.336
569.1963, 6557.034
569.6784, 6542.268
570.1605, 6508.872
570.6426, 6469.073
571.1248, 6445.849
571.6069, 6442.291
572.0890, 6447.378
572.5711, 6453.600
573.0532, 6460.971
573.5353, 6469.762
574.0175, 6488.378
574.4996, 6495.570
574.9817, 6484.601
575.4638, 6466.851
575.9459, 6446.306
576.4280, 6426.023
576.9102, 6412.670
577.3923, 6412.871
577.8744, 6418.367
578.3565, 6413.915
578.8386, 6400.324
579.3207, 6390.933
579.8029, 6390.748
580.2850, 6391.828
580.7671, 6383.965
581.2492, 6366.516
581.7313, 6358.190
582.2134, 6367.833
582.6956, 6376.479
583.1777, 6375.689
583.6598, 6370.609
584.1419, 6368.420
584.6240, 6370.449
585.1061, 6372.392
585.5883, 6369.845
586.0704, 6363.443
586.5525, 6357.699
587.0346, 6353.685
587.5167, 6346.608
587.9988, 6329.802
588.4810, 6312.883
588.9631, 6309.686
589.4452, 6321.348
589.9273, 6325.939
590.4094, 6310.514
590.8915, 6290.863
591.3737, 6279.357
591.8558, 6274.311
592.3379, 6269.368
592.8200, 6261.974
593.3021, 6255.526
593.7842, 6256.007
594.2664, 6265.220
594.7485, 6268.759
595.2306, 6260.853
595.7127, 6255.086
596.1948, 6259.060
596.6769, 6266.256
597.1591, 6268.624
597.6412, 6264.529
598.1233, 6257.479
598.6054, 6249.419
599.0875, 6239.883
599.5696, 6226.255
600.0518, 6209.457
600.5339, 6195.529
601.0160, 6187.079
601.4981, 6185.503
601.9802, 6194.546
602.4623, 6219.715
602.9445, 6242.302
603.4266, 6269.038
603.9087, 6286.437
604.3908, 6277.597
604.8729, 6258.440
605.3550, 6258.707
605.8372, 6290.994
606.3193, 6324.960
606.8014, 6325.716
607.2835, 6304.573
607.7656, 6296.875
608.2477, 6306.997
608.7299, 6314.556
609.2120, 6303.869
609.6941, 6284.055
610.1762, 6283.738
610.6583, 6321.784
611.1404, 6347.871
611.6226, 6352.020
612.1047, 6352.009
612.5868, 6360.887
613.0689, 6374.357
613.5510, 6379.553
614.0331, 6369.462
614.5153, 6355.065
614.9974, 6351.376
615.4795, 6357.277
615.9616, 6363.237
616.4437, 6366.450
616.9258, 6376.902
617.4080, 6405.552
617.8901, 6446.154
618.3722, 6473.369
618.8543, 6476.075
619.3364, 6485.706
619.8185, 6520.557
620.3007, 6553.433
620.7828, 6558.952
621.2649, 6543.081
621.7470, 6529.427
622.2291, 6531.247
622.7112, 6540.743
623.1934, 6541.347
623.6755, 6533.013
624.1576, 6540.693
624.6397, 6572.190
625.1218, 6609.519
625.6039, 6643.955
626.0861, 6674.042
626.5682, 6694.656
627.0503, 6694.157
627.5324, 6703.645
628.0145, 6742.673
628.4966, 6786.973
628.9788, 6811.491
629.4609, 6819.191
629.9430, 6830.046
630.4251, 6856.785
630.9072, 6888.903
631.3893, 6898.413
631.8715, 6881.513
632.3535, 6896.012
632.8356, 6963.988
633.3177, 7036.156
633.7999, 7079.289
634.2820, 7099.677
634.7641, 7112.753
635.2462, 7107.083
635.7283, 7116.478
636.2104, 7161.625
636.6926, 7220.335
637.1747, 7272.934
637.6568, 7317.844
638.1389, 7360.052
638.6210, 7402.431
639.1031, 7444.418
639.5853, 7480.750
640.0674, 7509.136
640.5495, 7558.783
641.0316, 7645.235
641.5137, 7731.464
641.9958, 7784.145
642.4780, 7819.687
642.9601, 7876.885
643.4422, 7970.391
643.9243, 8061.454
644.4064, 8132.698
644.8885, 8198.691
645.3707, 8272.042
645.8528, 8353.648
646.3349, 8436.711
646.8170, 8517.049
647.2991, 8604.292
647.7813, 8724.262
648.2634, 8880.334
648.7455, 9009.258
649.2276, 9086.583
649.7097, 9174.378
650.1918, 9319.313
650.6740, 9498.423
651.1561, 9663.858
651.6382, 9800.420
652.1203, 9955.736
652.6024, 10159.08
653.0845, 10374.86
653.5667, 10572.19
654.0488, 10755.78
654.5309, 10947.93
655.0130, 11158.65
655.4951, 11380.65
655.9772, 11606.85
656.4594, 11838.60
656.9415, 12050.17
657.4236, 12228.92
657.9057, 12421.42
658.3878, 12665.00
658.8699, 12932.08
659.3521, 13158.85
659.8342, 13328.25
660.3163, 13525.55
