##NAMES=Diopside
##RRUFFID=R050496
##IDEAL CHEMISTRY=CaMgSi_2_O_6_
##LOCALITY=New City Quarry, Riverside, Riverside County, Calfornia, USA
##OWNER=RRUFF
##SOURCE=California Institute of Technology
##DESCRIPTION=Aggregate of light green irregular grains
##STATUS=The identification of this mineral has been confirmed by X-ray diffraction and chemical analysis
##URL=rruff.info/R050496
##MEASURED CHEMISTRY=Ca(Mg_0.66_Fe_0.33_Mn_0.01_)(Si_0.95_Al_0.05_)_2_O_6_
92.37695, 944.3126
92.85907, 940.7881
93.34119, 942.2140
93.82330, 940.3552
94.30542, 934.8345
94.78754, 928.1400
95.26965, 921.6698
95.75177, 913.6232
96.23389, 903.3365
96.71600, 892.0859
97.19812, 881.3815
97.68024, 871.4300
98.16235, 862.6890
98.64447, 856.2646
99.12659, 853.5457
99.60870, 847.3043
100.0908, 837.5129
100.5729, 826.5367
101.0551, 815.7849
101.5372, 805.5482
102.0193, 796.1251
102.5014, 789.9938
102.9835, 789.9919
103.4656, 790.4559
103.9478, 790.4081
104.4299, 790.0605
104.9120, 790.3414
105.3941, 792.2929
105.8762, 796.3555
106.3583, 796.0281
106.8405, 787.6481
107.3226, 778.5601
107.8047, 772.8276
108.2868, 770.8478
108.7689, 770.5327
109.2510, 769.6973
109.7332, 768.2420
110.2153, 767.6061
110.6974, 768.2208
111.1795, 769.6827
111.6616, 771.3657
112.1437, 773.0273
112.6259, 775.1428
113.1080, 778.1071
113.5901, 781.8326
114.0722, 786.2762
114.5543, 792.2355
115.0364, 799.5781
115.5185, 804.9803
116.0007, 806.1299
116.4828, 806.1944
116.9649, 806.8432
117.4470, 808.3478
117.9291, 810.5280
118.4112, 813.4875
118.8934, 818.1420
119.3755, 821.1848
119.8576, 820.5168
120.3397, 819.2790
120.8218, 820.2366
121.3039, 824.4755
121.7861, 830.6622
122.2682, 834.9836
122.7503, 835.8907
123.2324, 836.2795
123.7145, 835.5641
124.1966, 834.5599
124.6788, 834.5475
125.1609, 836.4003
125.6430, 839.7806
126.1251, 841.7190
126.6072, 840.4964
127.0893, 839.8760
127.5715, 842.0495
128.0536, 846.5423
128.5357, 850.7698
129.0178, 852.8453
129.4999, 852.9284
129.9821, 853.0576
130.4642, 853.2734
130.9463, 853.5898
131.4284, 854.0895
131.9105, 854.8318
132.3926, 855.5043
132.8748, 855.9601
133.3569, 856.1959
133.8390, 856.1033
134.3211, 855.5432
134.8032, 854.6104
135.2853, 853.7354
135.7674, 853.5950
136.2496, 852.4727
136.7317, 849.9079
137.2138, 845.8903
137.6959, 840.4816
138.1780, 833.6921
138.6601, 825.5166
139.1423, 816.0153
139.6244, 803.5432
140.1065, 791.0571
140.5886, 779.2589
141.0707, 768.4230
141.5528, 758.5850
142.0350, 749.8377
142.5171, 742.3287
142.9992, 735.7190
143.4813, 730.0370
143.9634, 725.0472
144.4455, 720.4277
144.9277, 716.1669
145.4098, 712.6047
145.8919, 710.4100
146.3740, 710.8677
146.8561, 710.3365
147.3382, 707.6342
147.8204, 704.1924
148.3025, 702.0549
148.7846, 702.1446
149.2667, 703.0412
149.7488, 701.3526
150.2309, 696.1673
150.7131, 692.0259
151.1952, 691.6706
151.6773, 693.9201
152.1594, 694.8519
152.6415, 692.2179
153.1236, 688.2992
153.6058, 686.6915
154.0879, 687.8712
154.5700, 689.9158
155.0521, 691.4858
155.5342, 692.5681
156.0163, 693.3853
156.4985, 693.8006
156.9806, 694.0654
157.4627, 694.3111
157.9448, 694.5326
158.4269, 694.8828
158.9090, 695.6542
159.3912, 697.0412
159.8733, 698.3522
160.3554, 699.9820
160.8375, 701.2248
161.3196, 701.1597
161.8017, 699.2889
162.2839, 696.4379
162.7660, 695.1667
163.2481, 697.3304
163.7302, 698.6426
164.2123, 698.0540
164.6944, 696.4326
165.1766, 694.7224
165.6587, 693.4111
166.1408, 692.5663
166.6229, 692.6454
167.1050, 694.3377
167.5871, 696.2017
168.0693, 698.2729
168.5514, 700.3130
169.0335, 701.9960
169.5156, 703.1503
169.9977, 703.7404
170.4798, 703.3445
170.9620, 700.8180
171.4441, 698.6038
171.9262, 698.0765
172.4083, 698.9789
172.8904, 700.0078
173.3725, 700.3524
173.8547, 699.9280
174.3368, 698.9941
174.8189, 697.0887
175.3010, 694.9904
175.7831, 692.9766
176.2652, 691.0251
176.7474, 690.1042
177.2295, 691.8837
177.7116, 695.2799
178.1937, 697.5839
178.6758, 698.0586
179.1579, 697.1901
179.6401, 695.3626
180.1222, 692.1531
180.6043, 689.2570
181.0864, 687.7975
181.5685, 687.3311
182.0506, 687.3099
182.5328, 687.7957
183.0149, 688.5121
183.4970, 688.6140
183.9791, 688.0625
184.4612, 686.8408
184.9433, 684.6581
185.4255, 681.9490
185.9076, 679.4256
186.3897, 677.5339
186.8718, 676.2449
187.3539, 675.2897
187.8360, 675.2942
188.3182, 674.9678
188.8003, 673.8044
189.2824, 672.0225
189.7645, 670.0131
190.2466, 667.9482
190.7287, 665.7678
191.2109, 664.8749
191.6930, 667.4976
192.1751, 669.2602
192.6572, 668.3041
193.1393, 665.1619
193.6214, 661.5356
194.1036, 658.9672
194.5857, 657.6744
195.0678, 655.5437
195.5499, 651.4689
196.0320, 647.7374
196.5141, 645.5096
196.9963, 644.7093
197.4784, 644.5496
197.9605, 644.3934
198.4426, 644.2569
198.9247, 643.8279
199.4068, 643.0492
199.8890, 642.0544
200.3711, 640.8032
200.8532, 639.3302
201.3353, 637.9490
201.8174, 637.0125
202.2995, 636.5483
202.7817, 635.7917
203.2638, 634.6091
203.7459, 633.1828
204.2280, 631.4674
204.7101, 629.4195
205.1922, 627.7635
205.6744, 627.8602
206.1565, 629.1659
206.6386, 628.9065
207.1207, 625.1635
207.6028, 620.0800
208.0849, 616.4641
208.5671, 614.5660
209.0492, 613.8710
209.5313, 614.8363
210.0134, 616.7426
210.4955, 618.0273
210.9776, 617.2916
211.4598, 615.6446
211.9419, 615.9654
212.4240, 619.5467
212.9061, 622.3875
213.3882, 621.5048
213.8703, 618.3202
214.3525, 615.3238
214.8346, 613.5964
215.3167, 613.0369
215.7988, 613.5460
216.2809, 616.2953
216.7630, 618.2534
217.2451, 617.6486
217.7273, 615.5322
218.2094, 613.7698
218.6915, 613.6735
219.1736, 614.8724
219.6557, 615.1022
220.1378, 613.5657
220.6200, 611.9566
221.1021, 610.7277
221.5842, 609.7963
222.0663, 608.9560
222.5484, 608.0437
223.0305, 607.1074
223.5127, 606.6049
223.9948, 606.7383
224.4769, 607.1632
224.9590, 608.3412
225.4411, 609.7168
225.9232, 610.3195
226.4054, 609.4118
226.8875, 607.1761
227.3696, 605.6983
227.8517, 606.1614
228.3338, 606.1766
228.8159, 604.7372
229.2981, 602.5205
229.7802, 600.7676
230.2623, 600.2979
230.7444, 600.9995
231.2265, 601.6162
231.7086, 602.1044
232.1908, 602.5629
232.6729, 603.3286
233.1550, 604.0734
233.6371, 604.1083
234.1192, 602.9406
234.6013, 600.7678
235.0835, 599.0709
235.5656, 597.6697
236.0477, 596.8032
236.5298, 596.5270
237.0119, 596.8392
237.4940, 597.9890
237.9762, 600.3980
238.4583, 603.4559
238.9404, 604.2422
239.4225, 601.4270
239.9046, 598.3250
240.3867, 595.9386
240.8689, 594.1066
241.3510, 592.4083
241.8331, 590.5734
242.3152, 588.8248
242.7973, 587.8351
243.2794, 588.1541
243.7616, 588.2387
244.2437, 587.0516
244.7258, 585.0419
245.2079, 583.6838
245.6900, 583.8846
246.1721, 584.7221
246.6543, 584.1113
247.1364, 581.3094
247.6185, 579.1887
248.1006, 580.4783
248.5827, 583.9524
249.0648, 584.7717
249.5470, 579.8357
250.0291, 573.2744
250.5112, 571.5245
250.9933, 575.2279
251.4754, 579.1315
251.9576, 580.3698
252.4397, 579.3566
252.9218, 577.8779
253.4039, 576.1249
253.8860, 574.3642
254.3681, 572.8838
254.8503, 571.6761
255.3324, 570.5706
255.8145, 569.3741
256.2966, 568.1589
256.7787, 567.2867
257.2608, 566.8010
257.7430, 566.7552
258.2251, 567.3625
258.7072, 568.5035
259.1893, 569.3738
259.6714, 569.3661
260.1535, 568.6157
260.6357, 567.8380
261.1178, 567.0332
261.5999, 566.3073
262.0820, 565.8549
262.5641, 565.5545
263.0462, 565.0312
263.5284, 563.9261
264.0105, 562.3475
264.4926, 560.7996
264.9747, 558.7268
265.4568, 557.5970
265.9389, 558.5014
266.4211, 560.7173
266.9032, 562.8093
267.3853, 564.0411
267.8674, 564.4648
268.3495, 564.2670
268.8316, 563.1904
269.3138, 561.8102
269.7959, 559.9127
270.2780, 557.9798
270.7601, 556.7880
271.2422, 556.8909
271.7243, 557.8693
272.2065, 558.2875
272.6886, 557.6744
273.1707, 557.2921
273.6528, 557.7195
274.1349, 558.4461
274.6170, 558.7498
275.0992, 558.2313
275.5813, 557.4592
276.0634, 558.0939
276.5455, 561.7087
277.0276, 563.7057
277.5097, 562.0141
277.9919, 559.2539
278.4740, 557.9081
278.9561, 558.8571
279.4382, 561.0587
279.9203, 562.7061
280.4024, 563.9885
280.8846, 564.1815
281.3667, 562.0360
281.8488, 559.7178
282.3309, 559.0568
282.8130, 560.4137
283.2951, 562.5345
283.7773, 563.4266
284.2594, 562.1546
284.7415, 562.0125
285.2236, 564.3232
285.7057, 566.6790
286.1878, 567.5241
286.6700, 566.7628
287.1521, 565.4229
287.6342, 564.5378
288.1163, 563.9833
288.5984, 564.4711
289.0805, 567.0199
289.5627, 569.6046
290.0448, 571.0173
290.5269, 571.5126
291.0090, 572.3135
291.4911, 574.6924
291.9732, 578.8545
292.4554, 581.8891
292.9375, 583.5912
293.4196, 584.4053
293.9017, 583.3553
294.3838, 581.4899
294.8659, 580.9802
295.3481, 583.5474
295.8302, 588.8978
296.3123, 592.9062
296.7944, 593.6984
297.2765, 595.1158
297.7586, 598.4980
298.2408, 602.8569
298.7229, 606.5532
299.2050, 608.6318
299.6871, 609.6144
300.1692, 611.5062
300.6513, 615.5858
301.1335, 619.0577
301.6156, 621.6076
302.0977, 623.4523
302.5798, 624.4737
303.0619, 624.6689
303.5440, 624.8742
304.0262, 626.9739
304.5083, 632.9673
304.9904, 637.9052
305.4725, 641.3573
305.9546, 644.0408
306.4367, 646.1486
306.9189, 647.8884
307.4010, 650.0001
307.8831, 653.6962
308.3652, 660.1695
308.8473, 665.0422
309.3294, 668.1920
309.8116, 670.1774
310.2937, 670.8488
310.7758, 670.5068
311.2579, 670.0385
311.7400, 670.3453
312.2221, 671.5673
312.7043, 672.5889
313.1864, 672.9182
313.6685, 673.5571
314.1506, 675.1826
314.6327, 677.4798
315.1148, 679.5978
315.5970, 680.8539
316.0791, 681.3550
316.5612, 682.5650
317.0433, 687.2862
317.5254, 689.6078
318.0075, 686.4534
318.4897, 680.4711
318.9718, 675.6886
319.4539, 674.2061
319.9360, 675.0231
320.4181, 674.9373
320.9002, 673.4597
321.3824, 671.5660
321.8645, 669.2855
322.3466, 666.6385
322.8287, 663.1637
323.3108, 658.8572
323.7929, 654.8378
324.2751, 653.2728
324.7572, 656.5225
325.2393, 657.6600
325.7214, 655.7038
326.2035, 652.6924
326.6856, 649.7578
327.1678, 647.1722
327.6499, 644.7820
328.1320, 642.3998
328.6141, 639.9735
329.0962, 637.8156
329.5783, 635.1367
330.0605, 633.4115
330.5426, 633.7969
331.0247, 635.7403
331.5068, 637.8011
331.9889, 638.8950
332.4710, 639.0844
332.9532, 639.3828
333.4353, 641.1909
333.9174, 641.5452
334.3995, 637.8891
334.8816, 632.9027
335.3637, 630.6594
335.8459, 633.2928
336.3280, 639.0592
336.8101, 642.6833
337.2922, 642.5731
337.7743, 642.5596
338.2564, 642.6755
338.7386, 643.1627
339.2206, 644.4162
339.7028, 646.4769
340.1849, 648.7631
340.6670, 650.3463
341.1491, 650.8048
341.6312, 651.5987
342.1133, 653.5208
342.5955, 655.0807
343.0776, 655.1268
343.5597, 653.8694
344.0418, 652.5292
344.5239, 652.2981
345.0060, 653.2552
345.4882, 653.9314
345.9703, 653.9166
346.4524, 654.0098
346.9345, 654.8781
347.4166, 655.9640
347.8987, 656.0889
348.3809, 654.3300
348.8630, 651.4160
349.3451, 650.4787
349.8272, 653.1300
350.3093, 655.3174
350.7914, 656.8178
351.2736, 657.2828
351.7557, 656.0670
352.2378, 652.9680
352.7199, 649.0051
353.2020, 645.6224
353.6841, 642.4584
354.1663, 641.0428
354.6484, 644.6385
355.1305, 647.6219
355.6126, 645.8353
356.0947, 639.4658
356.5768, 632.5012
357.0590, 628.9756
357.5411, 629.0641
358.0232, 628.5255
358.5053, 626.6119
358.9874, 624.8986
359.4695, 623.8966
359.9517, 623.5854
360.4338, 623.8961
360.9159, 624.9008
361.3980, 626.4254
361.8801, 628.0129
362.3622, 629.8033
362.8444, 631.3160
363.3265, 631.7097
363.8086, 632.0522
364.2907, 633.6931
364.7728, 637.2087
365.2549, 641.1622
365.7371, 643.2214
366.2192, 643.0173
366.7013, 644.4434
367.1834, 649.8063
367.6655, 656.0281
368.1476, 660.6441
368.6298, 663.6513
369.1119, 666.8736
369.5940, 672.2712
370.0761, 679.1964
370.5582, 684.3320
371.0403, 686.7451
371.5225, 688.5231
372.0046, 691.0284
372.4867, 694.0167
372.9688, 696.9615
373.4509, 699.3474
373.9330, 701.7578
374.4152, 705.3993
374.8973, 710.4705
375.3794, 714.9400
375.8615, 717.3212
376.3436, 718.6497
376.8257, 720.5647
377.3079, 723.4344
377.7900, 726.3344
378.2721, 728.6251
378.7542, 730.3837
379.2363, 731.9539
379.7184, 733.4476
380.2006, 734.7562
380.6827, 735.9647
381.1648, 737.1198
381.6469, 737.3076
382.1290, 735.7502
382.6111, 733.2496
383.0933, 731.0847
383.5754, 729.4332
384.0575, 727.2919
384.5396, 723.7554
385.0217, 718.8923
385.5038, 713.7830
385.9860, 708.6709
386.4681, 703.1564
386.9502, 697.0759
387.4323, 690.4235
387.9144, 683.0805
388.3965, 675.0029
388.8787, 666.2391
389.3608, 656.7658
389.8429, 646.0156
390.3250, 635.7589
390.8071, 626.5641
391.2892, 617.9586
391.7714, 609.4142
392.2535, 600.8216
392.7356, 592.2442
393.2177, 583.7806
393.6998, 575.3849
394.1819, 567.3944
394.6641, 559.3405
395.1462, 552.0231
395.6283, 545.9550
396.1104, 541.0557
396.5925, 537.1970
397.0746, 534.3775
397.5568, 532.3715
398.0389, 529.7966
398.5210, 525.8649
399.0031, 522.3318
399.4852, 519.3985
399.9673, 516.9485
400.4495, 515.1185
400.9316, 513.8673
401.4137, 512.4400
401.8958, 509.4279
402.3779, 503.4947
402.8600, 499.6873
403.3422, 499.7341
403.8243, 500.0337
404.3064, 498.5466
404.7885, 495.6220
405.2706, 492.8850
405.7527, 491.6486
406.2349, 491.6897
406.7170, 491.2631
407.1991, 489.7015
407.6812, 488.6480
408.1633, 489.2572
408.6454, 490.1987
409.1276, 489.8097
409.6097, 487.4663
410.0918, 484.4010
410.5739, 482.3481
411.0560, 481.4117
411.5381, 480.9697
412.0203, 480.6611
412.5024, 481.1329
412.9845, 483.8221
413.4666, 488.0537
413.9487, 490.8040
414.4308, 488.8413
414.9130, 483.5725
415.3951, 480.4301
415.8772, 480.0275
416.3593, 480.2628
416.8414, 480.2419
417.3235, 480.0721
417.8057, 479.8710
418.2878, 479.6360
418.7699, 479.4384
419.2520, 479.5621
419.7341, 479.9209
420.2162, 479.5905
420.6984, 477.9732
421.1805, 475.9651
421.6626, 474.8130
422.1447, 474.5070
422.6268, 474.0308
423.1089, 472.6048
423.5911, 470.9770
424.0732, 470.3564
424.5553, 470.8824
425.0374, 471.3642
425.5195, 470.6767
426.0016, 469.1234
426.4838, 468.7480
426.9659, 470.7517
427.4480, 472.6279
427.9301, 473.0141
428.4122, 472.4649
428.8943, 472.2665
429.3765, 472.9585
429.8586, 473.8252
430.3407, 473.5231
430.8228, 470.9820
431.3049, 469.6680
431.7870, 470.3922
432.2692, 471.7705
432.7513, 473.5091
433.2334, 475.1275
433.7155, 475.1815
434.1976, 472.1570
434.6797, 466.4255
435.1619, 463.4294
435.6440, 465.3933
436.1261, 467.6298
436.6082, 470.1708
437.0903, 472.2647
437.5724, 472.9506
438.0546, 471.9309
438.5367, 470.0283
439.0188, 468.3149
439.5009, 466.4529
439.9830, 465.8911
440.4651, 468.1561
440.9473, 470.3998
441.4294, 471.3298
441.9115, 471.1184
442.3936, 470.4987
442.8757, 469.7443
443.3578, 469.0748
443.8400, 469.5242
444.3221, 471.9099
444.8042, 473.3661
445.2863, 472.0215
445.7684, 469.7339
446.2505, 468.0011
446.7327, 467.1024
447.2148, 466.9647
447.6969, 468.1159
448.1790, 470.1954
448.6611, 471.0869
449.1432, 470.1407
449.6254, 468.5930
450.1075, 467.1452
450.5896, 465.8963
451.0717, 465.2900
451.5538, 465.6445
452.0359, 466.5536
452.5181, 468.0013
453.0002, 469.8358
453.4823, 470.9560
453.9644, 470.7037
454.4465, 469.6255
454.9286, 468.9281
455.4108, 468.6840
455.8929, 468.4981
456.3750, 468.7913
456.8571, 468.8243
457.3392, 467.1790
457.8214, 463.9102
458.3035, 461.3028
458.7856, 461.5848
459.2677, 464.8046
459.7498, 466.6948
460.2319, 467.0428
460.7141, 466.5547
461.1962, 464.5980
461.6783, 462.1857
462.1604, 460.8326
462.6425, 461.0891
463.1246, 462.0821
463.6068, 462.1858
464.0889, 460.5590
464.5710, 460.3074
465.0531, 463.4323
465.5352, 465.9948
466.0173, 465.3605
466.4995, 462.5264
466.9816, 460.4778
467.4637, 461.4378
467.9458, 464.2347
468.4279, 464.9012
468.9100, 462.4051
469.3922, 460.4640
469.8743, 460.3871
470.3564, 461.1730
470.8385, 462.3218
471.3206, 463.7300
471.8027, 464.8387
472.2849, 465.5682
472.7670, 465.6946
473.2491, 463.7347
473.7312, 458.4825
474.2133, 454.2740
474.6954, 455.8077
475.1776, 460.6722
475.6597, 463.2419
476.1418, 461.2664
476.6239, 458.4484
477.1060, 457.1603
477.5881, 457.0900
478.0703, 457.3864
478.5524, 457.8452
479.0345, 458.2841
479.5166, 458.3690
479.9987, 457.9515
480.4808, 457.9164
480.9630, 458.9264
481.4451, 459.8230
481.9272, 459.4262
482.4093, 458.1456
482.8914, 457.4348
483.3735, 458.2067
483.8557, 460.0662
484.3378, 461.6460
484.8199, 463.7664
485.3020, 464.2960
485.7841, 461.8409
486.2662, 458.7689
486.7484, 456.7666
487.2305, 456.0808
487.7126, 456.0994
488.1947, 456.1905
488.6768, 456.4186
489.1589, 457.9252
489.6411, 462.0156
490.1232, 465.3047
490.6053, 466.8707
491.0874, 467.1435
491.5695, 466.1559
492.0516, 463.7924
492.5338, 461.7990
493.0159, 462.2818
493.4980, 464.9818
493.9801, 467.6843
494.4622, 470.4005
494.9443, 472.4583
495.4265, 472.9390
495.9086, 472.2982
496.3907, 471.6960
496.8728, 471.2845
497.3549, 471.1254
497.8370, 471.5366
498.3192, 472.3056
498.8013, 472.5063
499.2834, 471.6355
499.7655, 470.4582
500.2476, 470.1366
500.7297, 470.6514
501.2119, 472.1749
501.6940, 476.5296
502.1761, 480.4126
502.6582, 480.7301
503.1403, 478.3514
503.6224, 476.5904
504.1045, 477.5620
504.5866, 480.5021
505.0688, 482.6615
505.5509, 483.5539
506.0330, 484.3970
506.5151, 485.5494
506.9972, 486.4822
507.4793, 486.3371
507.9615, 485.3939
508.4436, 485.1814
508.9257, 487.4897
509.4078, 491.6587
509.8899, 493.2260
510.3720, 490.6367
510.8542, 488.8494
511.3363, 490.6644
511.8184, 493.6902
512.3005, 495.6555
512.7827, 496.1197
513.2648, 495.9469
513.7469, 495.2353
514.2290, 494.3962
514.7111, 495.0107
515.1932, 497.6574
515.6754, 499.8743
516.1575, 499.1319
516.6396, 496.3014
517.1217, 495.5385
517.6038, 499.1460
518.0859, 502.3304
518.5681, 502.1698
519.0502, 500.3454
519.5323, 500.0326
520.0144, 502.0941
520.4965, 504.3741
520.9786, 504.0581
521.4608, 500.4496
521.9429, 498.5067
522.4250, 498.9936
522.9071, 500.0071
523.3892, 501.6869
523.8713, 503.2176
524.3535, 502.9616
524.8356, 500.2911
525.3177, 497.3098
525.7998, 498.2423
526.2819, 504.4506
526.7640, 507.7033
527.2462, 505.5577
527.7283, 502.2665
528.2104, 499.2565
528.6925, 496.7423
529.1746, 495.0189
529.6567, 494.3955
530.1389, 494.3251
530.6210, 494.0309
531.1031, 493.5488
531.5852, 493.7396
532.0673, 495.5529
532.5494, 497.0445
533.0316, 495.0638
533.5137, 489.8867
533.9958, 485.8179
534.4779, 483.7055
534.9600, 483.0292
535.4421, 484.2354
535.9243, 486.6363
536.4064, 488.1373
536.8885, 487.7026
537.3706, 485.9694
537.8527, 484.1857
538.3348, 481.5448
538.8170, 480.5800
539.2991, 483.0611
539.7812, 485.4998
540.2633, 485.5602
540.7454, 483.8272
541.2275, 482.3840
541.7097, 482.5728
542.1918, 483.6149
542.6739, 483.3203
543.1560, 481.1103
543.6381, 479.4144
544.1202, 479.2624
544.6024, 479.3272
545.0845, 478.6689
545.5666, 477.4004
546.0487, 476.3712
546.5308, 476.3920
547.0129, 476.7299
547.4951, 475.9104
547.9772, 473.9789
548.4593, 472.8051
548.9414, 473.3156
549.4235, 474.8248
549.9056, 476.4524
550.3878, 478.5148
550.8699, 479.1669
551.3520, 477.3780
551.8341, 474.5594
552.3162, 470.7175
552.7983, 466.7162
553.2805, 465.3913
553.7626, 468.6847
554.2447, 474.5545
554.7268, 476.9488
555.2089, 473.1616
555.6910, 470.6303
556.1732, 470.7445
556.6553, 470.9828
557.1374, 469.3260
557.6195, 466.3255
558.1016, 464.2010
558.5837, 464.6558
559.0659, 466.4112
559.5480, 466.3558
560.0301, 464.2103
560.5122, 461.8643
560.9943, 459.4299
561.4764, 457.4125
561.9586, 456.6225
562.4407, 456.9406
562.9228, 456.5631
563.4049, 454.1276
563.8870, 451.1568
564.3691, 449.2824
564.8513, 448.3994
565.3334, 447.7615
565.8155, 447.1166
566.2976, 446.2874
566.7797, 444.8603
567.2618, 442.2804
567.7440, 440.4353
568.2261, 439.9004
568.7082, 439.5775
569.1903, 438.9191
569.6724, 437.9432
570.1545, 436.7863
570.6367, 435.5104
571.1188, 434.2412
571.6009, 433.3359
572.0830, 432.9605
572.5651, 432.2781
573.0472, 431.2219
573.5294, 429.7856
574.0115, 427.5050
574.4936, 424.8235
574.9757, 422.9603
575.4578, 422.6905
575.9399, 423.0724
576.4221, 423.1848
576.9042, 423.0339
577.3863, 422.6299
577.8684, 421.9496
578.3505, 421.0888
578.8326, 420.0731
579.3148, 418.8806
579.7969, 418.0501
580.2790, 418.2524
580.7611, 418.1421
581.2432, 416.7820
581.7253, 414.7531
582.2075, 412.8808
582.6896, 411.4976
583.1717, 410.7363
583.6538, 411.1158
584.1359, 413.0810
584.6180, 412.9289
585.1002, 407.8804
585.5823, 404.0069
586.0643, 403.9204
586.5464, 405.7844
587.0286, 407.4112
587.5107, 408.2361
