##NAMES=Diopside
##RRUFFID=R050496
##IDEAL CHEMISTRY=CaMgSi_2_O_6_
##LOCALITY=New City Quarry, Riverside, Riverside County, Calfornia, USA
##OWNER=RRUFF
##SOURCE=California Institute of Technology
##DESCRIPTION=Aggregate of light green irregular grains
##STATUS=The identification of this mineral has been confirmed by X-ray diffraction and chemical analysis
##URL=rruff.info/R050496
##MEASURED CHEMISTRY=Ca(Mg_0.66_Fe_0.33_Mn_0.01_)(Si_0.95_Al_0.05_)_2_O_6_
90.92609, 0.0000000E+00
91.40820, 112.7164
91.89032, 115.8901
92.37244, 114.0558
92.85455, 108.0734
93.33667, 103.0832
93.81879, 104.4143
94.30090, 109.9083
94.78302, 112.8436
95.26514, 110.8434
95.74725, 106.1871
96.22937, 103.7014
96.71149, 103.4876
97.19360, 104.5353
97.67572, 106.3321
98.15784, 108.8317
98.63995, 111.1362
99.12207, 113.4325
99.60419, 115.4881
100.0863, 114.8303
100.5684, 110.4783
101.0505, 105.3671
101.5327, 103.4034
102.0148, 105.3913
102.4969, 107.8636
102.9790, 109.3903
103.4611, 109.3785
103.9432, 112.0966
104.4253, 119.7868
104.9075, 128.9774
105.3896, 131.9132
105.8717, 122.9097
106.3538, 115.4048
106.8359, 114.6469
107.3180, 125.1146
107.8002, 134.5444
108.2823, 141.7607
108.7644, 147.6989
109.2465, 156.1250
109.7286, 168.2602
110.2107, 181.9041
110.6929, 196.3353
111.1750, 210.1677
111.6571, 226.1267
112.1392, 244.3107
112.6213, 264.7466
113.1034, 287.9464
113.5856, 315.2855
114.0677, 345.0735
114.5498, 375.8431
115.0319, 403.6176
115.5140, 436.0816
115.9961, 474.7102
116.4783, 519.5774
116.9604, 571.0479
117.4425, 630.8666
117.9246, 697.5833
118.4067, 768.9547
118.8888, 846.0812
119.3710, 926.9160
119.8531, 1011.940
120.3352, 1101.362
120.8173, 1189.505
121.2994, 1272.410
121.7815, 1350.905
122.2637, 1426.754
122.7458, 1500.910
123.2279, 1571.984
123.7100, 1637.528
124.1921, 1696.518
124.6742, 1753.201
125.1564, 1807.980
125.6385, 1862.748
126.1206, 1923.776
126.6027, 1994.873
127.0848, 2074.188
127.5669, 2157.227
128.0491, 2241.847
128.5312, 2333.057
129.0133, 2440.912
129.4954, 2563.348
129.9775, 2690.319
130.4596, 2814.859
130.9418, 2937.180
131.4239, 3063.524
131.9060, 3196.919
132.3881, 3333.679
132.8702, 3462.198
133.3523, 3582.670
133.8345, 3700.519
134.3166, 3821.743
134.7987, 3947.268
135.2808, 4066.440
135.7629, 4179.193
136.2450, 4285.614
136.7272, 4384.480
137.2093, 4477.712
137.6914, 4559.473
138.1735, 4623.501
138.6556, 4668.389
139.1377, 4700.128
139.6199, 4717.933
140.1020, 4721.725
140.5841, 4724.972
141.0662, 4726.328
141.5483, 4728.885
142.0304, 4735.133
142.5126, 4741.515
142.9947, 4757.635
143.4768, 4773.391
143.9589, 4779.984
144.4410, 4789.041
144.9231, 4799.740
145.4053, 4813.352
145.8874, 4832.606
146.3695, 4861.138
146.8516, 4890.067
147.3337, 4915.941
147.8158, 4937.243
148.2980, 4960.847
148.7801, 4987.786
149.2622, 5016.972
149.7443, 5045.557
150.2264, 5077.163
150.7085, 5105.558
151.1907, 5128.080
151.6728, 5141.413
152.1549, 5155.424
152.6370, 5169.984
153.1191, 5185.271
153.6012, 5201.473
154.0834, 5223.452
154.5655, 5242.408
155.0476, 5254.662
155.5297, 5255.146
156.0118, 5254.775
156.4939, 5252.830
156.9761, 5250.564
157.4582, 5252.421
157.9403, 5261.125
158.4224, 5273.002
158.9045, 5286.081
159.3866, 5302.130
159.8688, 5316.712
160.3509, 5326.519
160.8330, 5332.996
161.3151, 5342.774
161.7972, 5361.749
162.2793, 5383.167
162.7615, 5401.890
163.2436, 5416.172
163.7257, 5427.876
164.2078, 5436.100
164.6899, 5441.513
165.1720, 5449.004
165.6541, 5463.245
166.1363, 5479.735
166.6184, 5494.036
167.1005, 5503.137
167.5826, 5510.697
168.0647, 5519.119
168.5468, 5528.276
169.0290, 5536.667
169.5111, 5542.405
169.9932, 5547.042
170.4753, 5552.665
170.9574, 5561.407
171.4395, 5570.570
171.9217, 5578.029
172.4038, 5583.807
172.8859, 5588.773
173.3680, 5592.513
173.8501, 5596.025
174.3322, 5601.105
174.8144, 5607.951
175.2965, 5617.103
175.7786, 5629.872
176.2607, 5646.470
176.7428, 5663.415
177.2249, 5677.854
177.7071, 5690.122
178.1892, 5701.446
178.6713, 5712.508
179.1534, 5722.844
179.6355, 5732.235
180.1176, 5740.875
180.5998, 5747.087
181.0819, 5746.861
181.5640, 5742.049
182.0461, 5739.405
182.5282, 5743.946
183.0103, 5752.711
183.4925, 5759.148
183.9746, 5762.898
184.4567, 5764.802
184.9388, 5764.743
185.4209, 5763.210
185.9030, 5763.023
186.3852, 5767.205
186.8673, 5774.121
187.3494, 5777.917
187.8315, 5778.091
188.3136, 5776.285
188.7957, 5774.431
189.2779, 5772.575
189.7600, 5770.507
190.2421, 5766.992
190.7242, 5762.750
191.2063, 5762.881
191.6884, 5768.904
192.1706, 5775.931
192.6527, 5775.854
193.1348, 5768.491
193.6169, 5759.858
194.0990, 5752.758
194.5811, 5747.007
195.0633, 5740.300
195.5454, 5732.143
196.0275, 5723.587
196.5096, 5716.967
196.9917, 5712.356
197.4738, 5708.414
197.9560, 5704.975
198.4381, 5702.124
198.9202, 5697.872
199.4023, 5691.751
199.8844, 5685.055
200.3665, 5680.619
200.8487, 5678.852
201.3308, 5677.379
201.8129, 5675.022
202.2950, 5671.756
202.7771, 5668.386
203.2592, 5664.498
203.7414, 5660.942
204.2235, 5660.259
204.7056, 5663.396
205.1877, 5665.461
205.6698, 5662.870
206.1519, 5654.321
206.6341, 5649.121
207.1162, 5647.876
207.5983, 5649.747
208.0804, 5653.646
208.5625, 5660.381
209.0446, 5666.431
209.5268, 5669.352
210.0089, 5667.907
210.4910, 5669.808
210.9731, 5677.033
211.4552, 5686.595
211.9373, 5690.801
212.4195, 5688.029
212.9016, 5684.265
213.3837, 5681.728
213.8658, 5679.729
214.3479, 5681.997
214.8300, 5689.974
215.3121, 5701.465
215.7943, 5711.235
216.2764, 5718.822
216.7585, 5725.307
217.2406, 5731.500
217.7227, 5738.139
218.2048, 5741.238
218.6870, 5739.055
219.1691, 5734.023
219.6512, 5732.231
220.1333, 5735.606
220.6154, 5738.537
221.0975, 5737.671
221.5797, 5729.541
222.0618, 5728.433
222.5439, 5738.137
223.0260, 5753.201
223.5081, 5761.031
223.9902, 5757.840
224.4724, 5754.286
224.9545, 5755.125
225.4366, 5762.534
225.9187, 5768.440
226.4008, 5772.479
226.8829, 5775.350
227.3651, 5778.163
227.8472, 5779.651
228.3293, 5783.228
228.8114, 5790.750
229.2935, 5804.065
229.7757, 5815.206
230.2578, 5822.915
230.7399, 5828.795
231.2220, 5836.386
231.7041, 5847.176
232.1862, 5856.972
232.6684, 5864.460
233.1505, 5869.806
233.6326, 5871.737
234.1147, 5868.208
234.5968, 5862.319
235.0789, 5859.850
235.5611, 5862.290
236.0432, 5865.792
236.5253, 5869.326
237.0074, 5872.948
237.4895, 5876.555
237.9716, 5881.151
238.4538, 5885.190
238.9359, 5885.727
239.4180, 5879.892
239.9001, 5875.311
240.3822, 5874.538
240.8643, 5878.395
241.3465, 5882.377
241.8286, 5886.760
242.3107, 5891.043
242.7928, 5894.540
243.2749, 5897.155
243.7570, 5899.030
244.2392, 5900.194
244.7213, 5900.647
245.2034, 5899.993
245.6855, 5896.526
246.1676, 5893.396
246.6497, 5895.122
247.1319, 5905.372
247.6140, 5913.964
248.0961, 5918.101
248.5782, 5917.312
249.0603, 5916.986
249.5424, 5916.319
250.0246, 5917.001
250.5067, 5921.435
250.9888, 5932.494
251.4709, 5941.644
251.9530, 5946.436
252.4351, 5946.576
252.9173, 5947.802
253.3994, 5949.525
253.8815, 5952.718
254.3636, 5958.709
254.8457, 5968.912
255.3278, 5978.442
255.8100, 5987.468
256.2921, 5995.799
256.7742, 5996.851
257.2563, 5986.525
257.7384, 5974.408
258.2205, 5969.396
258.7026, 5975.266
259.1848, 5978.651
259.6669, 5976.406
260.1490, 5969.542
260.6311, 5966.958
261.1132, 5970.874
261.5953, 5975.684
262.0775, 5976.901
262.5596, 5972.955
263.0417, 5970.050
263.5238, 5968.294
264.0059, 5968.050
264.4880, 5972.025
264.9702, 5982.594
265.4523, 5992.475
265.9344, 5996.334
266.4165, 5992.115
266.8986, 5989.363
267.3807, 5989.308
267.8629, 5991.013
268.3450, 5991.401
268.8271, 5990.139
269.3092, 5988.563
269.7913, 5987.547
270.2734, 5987.438
270.7556, 5986.651
271.2377, 5984.700
271.7198, 5982.657
272.2019, 5982.764
272.6840, 5985.174
273.1661, 5989.667
273.6483, 5996.350
274.1304, 6005.327
274.6125, 6015.912
275.0946, 6029.013
275.5767, 6042.208
276.0588, 6050.110
276.5410, 6051.245
277.0231, 6053.835
277.5052, 6062.381
277.9873, 6076.937
278.4694, 6086.773
278.9515, 6090.531
279.4337, 6091.999
279.9158, 6096.595
280.3979, 6104.521
280.8800, 6112.775
281.3621, 6120.670
281.8442, 6128.126
282.3264, 6133.654
282.8085, 6137.172
283.2906, 6139.486
283.7727, 6140.909
284.2548, 6141.507
284.7369, 6143.409
285.2191, 6147.221
285.7012, 6152.897
286.1833, 6160.482
286.6654, 6170.123
287.1475, 6180.900
287.6296, 6192.894
288.1118, 6205.801
288.5939, 6215.758
289.0760, 6220.625
289.5581, 6222.794
290.0402, 6228.732
290.5223, 6238.529
291.0045, 6248.962
291.4866, 6258.092
291.9687, 6265.925
292.4508, 6272.100
292.9329, 6275.651
293.4150, 6279.059
293.8972, 6287.541
294.3793, 6300.784
294.8614, 6314.571
295.3435, 6324.909
295.8256, 6333.565
296.3077, 6345.688
296.7899, 6362.415
297.2720, 6381.077
297.7541, 6397.821
298.2362, 6413.015
298.7183, 6428.638
299.2004, 6445.994
299.6826, 6464.333
300.1647, 6482.675
300.6468, 6500.763
301.1289, 6518.833
301.6110, 6536.921
302.0931, 6555.110
302.5753, 6574.294
303.0574, 6594.165
303.5395, 6615.379
304.0216, 6638.366
304.5037, 6663.342
304.9858, 6690.213
305.4680, 6720.170
305.9501, 6751.958
306.4322, 6783.283
306.9143, 6813.313
307.3964, 6842.920
307.8785, 6872.664
308.3607, 6902.679
308.8428, 6934.833
309.3249, 6972.675
309.8070, 7012.563
310.2891, 7049.946
310.7712, 7082.712
311.2534, 7114.207
311.7355, 7145.032
312.2176, 7176.125
312.6997, 7210.274
313.1818, 7249.696
313.6639, 7291.738
314.1461, 7334.822
314.6282, 7378.665
315.1103, 7422.564
315.5924, 7468.096
316.0745, 7513.251
316.5566, 7554.597
317.0388, 7587.743
317.5209, 7618.446
318.0030, 7651.793
318.4851, 7690.703
318.9672, 7722.787
319.4493, 7742.850
319.9315, 7753.942
320.4136, 7760.274
320.8957, 7762.689
321.3778, 7760.713
321.8599, 7753.669
322.3420, 7741.308
322.8242, 7726.470
323.3063, 7712.454
323.7884, 7694.896
324.2705, 7669.988
324.7526, 7629.551
325.2347, 7589.446
325.7169, 7554.482
326.1990, 7523.854
326.6811, 7490.817
327.1632, 7453.628
327.6453, 7414.766
328.1274, 7375.609
328.6096, 7333.488
329.0917, 7294.185
329.5738, 7258.213
330.0559, 7225.491
330.5380, 7195.216
331.0201, 7167.854
331.5023, 7142.472
331.9844, 7119.050
332.4665, 7099.643
332.9486, 7077.188
333.4307, 7048.343
333.9128, 7018.263
334.3950, 6996.763
334.8771, 6987.324
335.3592, 6979.515
335.8413, 6969.966
336.3234, 6958.136
336.8055, 6949.522
337.2877, 6945.147
337.7698, 6942.627
338.2519, 6939.147
338.7340, 6934.189
339.2161, 6930.505
339.6982, 6929.243
340.1803, 6929.844
340.6624, 6928.876
341.1446, 6926.202
341.6267, 6922.470
342.1088, 6916.744
342.5909, 6908.859
343.0730, 6905.738
343.5551, 6909.501
344.0373, 6917.130
344.5194, 6921.452
345.0015, 6922.335
345.4836, 6923.122
345.9657, 6925.559
346.4478, 6929.535
346.9300, 6934.353
347.4121, 6939.906
347.8942, 6946.788
348.3763, 6957.292
348.8584, 6970.671
349.3405, 6982.502
349.8227, 6990.858
350.3048, 6996.445
350.7869, 7000.869
351.2690, 7004.225
351.7511, 7005.498
352.2332, 7002.995
352.7154, 6997.729
353.1975, 6991.869
353.6796, 6986.564
354.1617, 6980.366
354.6438, 6970.103
355.1259, 6956.604
355.6081, 6944.768
356.0902, 6940.833
356.5723, 6938.688
357.0544, 6930.374
357.5365, 6911.667
358.0186, 6892.681
358.5008, 6880.477
358.9829, 6873.071
359.4650, 6866.286
359.9471, 6859.341
360.4292, 6851.623
360.9113, 6842.085
361.3935, 6830.356
361.8756, 6820.171
362.3577, 6812.894
362.8398, 6808.222
363.3219, 6805.806
363.8040, 6810.364
364.2862, 6812.713
364.7683, 6806.549
365.2504, 6792.683
365.7325, 6786.607
366.2146, 6797.409
366.6967, 6813.065
367.1789, 6826.106
367.6610, 6832.827
368.1431, 6840.387
368.6252, 6848.630
369.1073, 6858.055
369.5894, 6870.009
370.0716, 6886.975
370.5537, 6903.958
371.0358, 6919.016
371.5179, 6930.808
372.0000, 6944.592
372.4821, 6959.702
372.9643, 6977.010
373.4464, 6998.255
373.9285, 7025.661
374.4106, 7051.587
374.8927, 7073.380
375.3748, 7091.333
375.8570, 7113.067
376.3391, 7139.687
376.8212, 7167.908
377.3033, 7196.014
377.7854, 7224.117
378.2675, 7249.671
378.7497, 7271.877
379.2318, 7292.028
379.7139, 7314.357
380.1960, 7338.927
380.6781, 7363.309
381.1602, 7386.464
381.6424, 7408.326
382.1245, 7427.592
382.6066, 7444.117
383.0887, 7459.550
383.5708, 7477.482
384.0529, 7496.839
384.5351, 7513.067
385.0172, 7523.492
385.4993, 7529.821
385.9814, 7536.467
386.4635, 7543.131
386.9456, 7545.003
387.4278, 7537.940
387.9099, 7523.498
388.3920, 7503.845
388.8741, 7479.102
389.3562, 7449.991
389.8383, 7416.603
390.3205, 7378.852
390.8026, 7337.523
391.2847, 7291.461
391.7668, 7243.064
392.2489, 7192.769
392.7310, 7140.273
393.2132, 7089.352
393.6953, 7041.469
394.1774, 6996.958
394.6595, 6955.896
395.1416, 6921.043
395.6237, 6887.591
396.1059, 6853.201
396.5880, 6818.110
397.0701, 6786.114
397.5522, 6758.744
398.0343, 6734.620
398.5164, 6713.063
398.9986, 6696.741
399.4807, 6679.555
399.9628, 6660.744
400.4449, 6641.029
400.9270, 6621.642
401.4091, 6599.534
401.8913, 6582.081
402.3734, 6572.928
402.8555, 6574.096
403.3376, 6571.732
403.8197, 6563.716
404.3018, 6554.561
404.7840, 6549.331
405.2661, 6549.034
405.7482, 6548.994
406.2303, 6548.657
406.7124, 6547.727
407.1945, 6544.616
407.6767, 6538.795
408.1588, 6532.992
408.6409, 6529.200
409.1230, 6527.251
409.6051, 6524.811
410.0872, 6521.345
410.5694, 6518.257
411.0515, 6517.664
411.5336, 6519.429
412.0157, 6522.651
412.4978, 6529.501
412.9799, 6536.919
413.4621, 6538.026
413.9442, 6533.007
414.4263, 6526.489
414.9084, 6521.173
415.3905, 6517.170
415.8727, 6514.716
416.3548, 6514.638
416.8369, 6514.958
417.3190, 6513.379
417.8011, 6510.794
418.2832, 6509.543
418.7654, 6511.423
419.2475, 6514.516
419.7296, 6517.948
420.2117, 6521.884
420.6938, 6524.195
421.1759, 6522.972
421.6581, 6520.036
422.1402, 6517.298
422.6223, 6512.241
423.1044, 6510.483
423.5865, 6516.612
424.0686, 6528.986
424.5508, 6535.248
425.0329, 6527.438
425.5150, 6518.778
425.9971, 6515.396
426.4792, 6520.769
426.9613, 6524.299
427.4435, 6524.646
427.9256, 6523.995
428.4077, 6526.329
428.8898, 6534.276
429.3719, 6539.282
429.8540, 6537.502
430.3362, 6529.749
430.8183, 6529.170
431.3004, 6538.189
431.7825, 6547.458
432.2646, 6547.553
432.7467, 6538.431
433.2289, 6533.830
433.7110, 6536.759
434.1931, 6542.995
434.6752, 6544.190
435.1573, 6540.825
435.6394, 6538.600
436.1216, 6541.533
436.6036, 6547.488
437.0858, 6551.717
437.5679, 6554.107
438.0500, 6555.876
438.5321, 6557.894
439.0142, 6560.067
439.4963, 6562.248
439.9785, 6564.391
440.4606, 6566.633
440.9427, 6569.408
441.4248, 6572.517
441.9069, 6575.210
442.3890, 6576.564
442.8712, 6577.950
443.3533, 6580.765
443.8354, 6585.767
444.3175, 6589.248
444.7996, 6587.604
445.2817, 6584.729
445.7639, 6584.650
446.2460, 6590.231
446.7281, 6596.150
447.2102, 6599.916
447.6923, 6602.303
448.1744, 6609.490
448.6566, 6628.497
449.1387, 6644.697
449.6208, 6650.710
450.1029, 6641.925
450.5850, 6636.628
451.0671, 6635.366
451.5493, 6637.053
452.0314, 6640.646
452.5135, 6646.589
452.9956, 6652.783
453.4777, 6659.483
453.9598, 6665.893
454.4420, 6667.813
454.9241, 6664.874
455.4062, 6661.013
455.8883, 6659.572
456.3704, 6659.856
456.8525, 6658.386
457.3347, 6654.558
457.8168, 6650.089
458.2989, 6646.881
458.7810, 6644.788
459.2631, 6643.455
459.7452, 6644.515
460.2274, 6645.200
460.7095, 6641.239
461.1916, 6633.291
461.6737, 6626.714
462.1558, 6625.753
462.6379, 6627.044
463.1201, 6627.367
463.6022, 6625.358
464.0843, 6623.966
464.5664, 6625.469
465.0485, 6628.070
465.5306, 6628.925
466.0128, 6626.665
466.4949, 6623.195
466.9770, 6617.721
467.4591, 6610.111
467.9412, 6606.636
468.4233, 6610.843
468.9055, 6616.247
469.3876, 6618.988
469.8697, 6616.956
470.3518, 6617.300
470.8339, 6621.385
471.3160, 6627.231
471.7982, 6631.267
472.2803, 6633.405
472.7624, 6634.111
473.2445, 6632.554
473.7266, 6629.519
474.2087, 6630.358
474.6909, 6635.337
475.1730, 6641.267
475.6551, 6645.123
476.1372, 6647.424
476.6193, 6650.825
477.1014, 6655.969
477.5836, 6661.089
478.0657, 6663.923
478.5478, 6664.898
479.0299, 6665.285
479.5120, 6664.627
479.9941, 6664.367
480.4763, 6666.442
480.9584, 6670.646
481.4405, 6674.490
481.9226, 6676.115
482.4047, 6677.203
482.8868, 6679.249
483.3690, 6683.309
483.8511, 6686.812
484.3332, 6688.500
484.8153, 6689.313
485.2974, 6690.812
485.7795, 6693.013
486.2617, 6696.167
486.7438, 6700.969
487.2259, 6707.378
487.7080, 6711.769
488.1901, 6711.548
488.6722, 6712.761
489.1544, 6720.089
489.6365, 6736.119
490.1186, 6747.826
490.6007, 6754.017
491.0828, 6756.993
491.5649, 6758.950
492.0471, 6759.617
492.5292, 6764.630
493.0113, 6776.922
493.4934, 6794.087
493.9755, 6811.404
494.4576, 6828.542
494.9398, 6842.819
495.4219, 6849.300
495.9040, 6852.045
496.3861, 6858.618
496.8682, 6870.510
497.3503, 6883.197
497.8325, 6892.441
498.3146, 6900.221
498.7967, 6909.813
499.2788, 6923.634
499.7609, 6938.585
500.2430, 6954.862
500.7252, 6971.617
501.2073, 6985.181
501.6894, 6991.757
502.1715, 6997.134
502.6536, 7004.556
503.1357, 7016.024
503.6179, 7024.571
504.1000, 7028.980
504.5821, 7031.125
505.0642, 7032.916
505.5463, 7035.058
506.0284, 7034.888
506.5106, 7031.213
506.9927, 7025.042
507.4748, 7019.654
507.9569, 7014.917
508.4390, 7011.017
508.9211, 7008.025
509.4033, 7005.880
509.8854, 7004.900
510.3675, 7005.266
510.8496, 7005.102
511.3317, 7002.072
511.8138, 6997.040
512.2960, 6992.558
512.7781, 6989.613
513.2602, 6986.486
513.7423, 6980.345
514.2244, 6972.584
514.7065, 6966.538
515.1887, 6966.927
515.6708, 6967.167
516.1529, 6961.649
516.6350, 6950.458
517.1171, 6941.610
517.5992, 6939.419
518.0814, 6939.623
518.5635, 6939.446
519.0456, 6937.493
519.5277, 6936.986
520.0098, 6938.709
520.4919, 6941.648
520.9741, 6944.267
521.4562, 6945.938
521.9383, 6948.378
522.4204, 6951.892
522.9025, 6956.416
523.3846, 6962.219
523.8668, 6969.718
524.3489, 6976.278
524.8310, 6979.691
525.3131, 6980.354
525.7952, 6982.229
526.2773, 6985.771
526.7595, 6988.821
527.2416, 6989.031
527.7237, 6986.834
528.2058, 6983.084
528.6879, 6977.275
529.1700, 6971.335
529.6522, 6967.389
530.1343, 6965.014
530.6164, 6962.709
531.0985, 6959.296
531.5806, 6956.218
532.0627, 6954.507
532.5449, 6954.322
533.0270, 6954.542
533.5091, 6955.165
533.9912, 6955.864
534.4733, 6956.358
534.9554, 6954.436
535.4376, 6955.376
535.9197, 6960.859
536.4018, 6968.231
536.8839, 6972.874
537.3660, 6974.417
537.8481, 6973.742
538.3303, 6969.407
538.8124, 6962.986
539.2945, 6964.953
539.7766, 6976.519
540.2587, 6986.293
540.7408, 6983.179
541.2230, 6971.487
541.7051, 6968.081
542.1872, 6974.861
542.6693, 6984.356
543.1514, 6990.271
543.6335, 6993.552
544.1157, 6995.993
544.5978, 6997.875
545.0799, 6999.548
545.5620, 7000.406
546.0441, 7001.196
546.5262, 7003.760
547.0084, 7006.991
547.4905, 7013.698
547.9726, 7027.355
548.4547, 7048.835
548.9368, 7065.017
549.4189, 7069.296
549.9011, 7072.270
550.3832, 7080.218
550.8653, 7096.522
551.3474, 7109.602
551.8295, 7118.397
552.3116, 7124.687
552.7938, 7130.971
553.2759, 7137.313
553.7580, 7142.854
554.2401, 7147.552
554.7222, 7151.177
555.2043, 7153.708
555.6865, 7155.018
556.1686, 7153.548
556.6507, 7147.231
557.1328, 7138.092
557.6149, 7128.901
558.0970, 7119.886
558.5792, 7110.677
559.0613, 7102.517
559.5434, 7093.542
560.0255, 7081.411
560.5076, 7062.890
560.9897, 7046.446
561.4719, 7035.748
561.9540, 7028.644
562.4361, 7021.679
562.9182, 7015.836
563.4003, 7008.105
563.8824, 6995.836
564.3646, 6980.337
564.8467, 6971.131
565.3288, 6970.539
565.8109, 6971.140
566.2930, 6969.117
566.7751, 6964.314
567.2573, 6959.131
567.7394, 6953.250
568.2215, 6947.928
568.7036, 6944.110
569.1857, 6941.854
569.6678, 6941.977
570.1500, 6945.994
570.6321, 6949.183
571.1142, 6945.900
571.5963, 6937.679
572.0784, 6927.958
572.5605, 6914.276
573.0427, 6903.104
573.5248, 6900.667
574.0069, 6905.489
574.4890, 6907.171
574.9711, 6899.914
575.4532, 6890.950
575.9354, 6883.833
576.4175, 6879.318
576.8996, 6874.743
577.3817, 6869.575
577.8638, 6864.924
578.3459, 6861.889
578.8281, 6860.888
579.3102, 6859.436
579.7923, 6856.471
580.2744, 6853.942
580.7565, 6857.298
581.2386, 6866.022
581.7208, 6871.728
582.2029, 6870.421
582.6850, 6864.647
583.1671, 6857.544
583.6492, 6849.568
584.1313, 6843.451
584.6134, 6842.100
585.0955, 6842.728
585.5776, 6842.310
586.0598, 6840.330
