##NAMES=Dixenite
##RRUFFID=R100044
##IDEAL CHEMISTRY=Cu^1+^Mn^2+^_14_Fe^3+^(As^3+^O_3_)_5_(SiO_4_)_2_(As^5+^O_4_)(OH)_6_
##LOCALITY=Moss mine, Nordmark, Varmland, Sweden
##OWNER=RRUFF
##SOURCE=William W Pinch
##DESCRIPTION=Thin tabular reddish-brown hexagonal plates, associated with synadelphite and colorless or grey allactite
##STATUS=The identification of this mineral has been confirmed only by single crystal X-ray diffraction.
##URL=rruff.info/R100044
129.6045, 5.410844
130.0867, 5.840469
130.5688, 7.168913
131.0509, 8.166040
131.5330, 8.696270
132.0151, 8.934775
132.4972, 9.048127
132.9794, 9.035770
133.4615, 9.207250
133.9436, 9.902555
134.4257, 11.07853
134.9078, 12.05009
135.3899, 12.70308
135.8721, 13.12010
136.3542, 13.49962
136.8363, 13.81114
137.3184, 14.22321
137.8005, 15.04424
138.2826, 16.41245
138.7648, 17.08948
139.2469, 16.38042
139.7290, 14.67250
140.2111, 15.15068
140.6932, 18.58590
141.1753, 22.78147
141.6575, 25.55192
142.1396, 26.39559
142.6217, 27.26120
143.1038, 28.63212
143.5859, 30.56750
144.0681, 31.99821
144.5502, 32.76452
145.0323, 33.18070
145.5144, 33.48603
145.9965, 32.88727
146.4786, 33.43867
146.9608, 36.00470
147.4429, 41.38738
147.9250, 45.49235
148.4071, 47.89322
148.8892, 49.18366
149.3713, 50.17499
149.8535, 50.15789
150.3356, 50.55671
150.8177, 51.89043
151.2998, 54.91280
151.7819, 57.23510
152.2640, 57.82384
152.7462, 57.81953
153.2283, 59.25295
153.7104, 63.83900
154.1925, 68.58296
154.6746, 72.44561
155.1567, 75.08524
155.6389, 77.20164
156.1210, 78.67772
156.6031, 79.68111
157.0852, 80.64535
157.5673, 81.68337
158.0495, 82.68053
158.5316, 83.57305
159.0137, 84.16821
159.4958, 84.91032
159.9779, 86.57703
160.4600, 88.64394
160.9422, 89.39847
161.4243, 86.63261
161.9064, 83.29807
162.3885, 81.43850
162.8706, 82.84889
163.3527, 84.25523
163.8349, 84.22100
164.3170, 82.97991
164.7991, 81.64920
165.2812, 79.69149
165.7633, 78.33811
166.2454, 78.74914
166.7276, 83.06533
167.2097, 87.61631
167.6918, 90.09251
168.1739, 90.69135
168.6560, 91.25095
169.1381, 92.97486
169.6203, 95.19160
170.1024, 96.49466
170.5845, 97.00447
171.0666, 97.16940
171.5487, 96.80782
172.0309, 95.97927
172.5130, 95.50863
172.9951, 96.54640
173.4772, 98.22592
173.9593, 99.19383
174.4414, 98.36464
174.9236, 96.87863
175.4057, 95.87352
175.8878, 95.34081
176.3699, 95.16909
176.8520, 95.39768
177.3341, 95.90889
177.8163, 96.45342
178.2984, 97.06326
178.7805, 97.59165
179.2626, 97.81279
179.7447, 97.71682
180.2268, 97.38136
180.7090, 96.71651
181.1911, 95.83801
181.6732, 95.11316
182.1553, 94.52306
182.6374, 94.22317
183.1195, 94.74064
183.6017, 96.20493
184.0838, 97.82401
184.5659, 98.87257
185.0480, 99.35754
185.5301, 99.33725
186.0123, 98.32497
186.4944, 96.77535
186.9765, 96.35711
187.4586, 97.32934
187.9407, 98.64377
188.4228, 98.66837
188.9050, 97.52956
189.3871, 96.54916
189.8692, 96.56413
190.3513, 97.36754
190.8334, 97.90710
191.3155, 98.08237
191.7977, 98.11405
192.2798, 98.39441
192.7619, 98.92358
193.2440, 99.36961
193.7261, 99.51407
194.2082, 99.38663
194.6904, 99.19074
195.1725, 98.74728
195.6546, 98.59555
196.1367, 100.3449
196.6188, 104.2176
197.1009, 107.2088
197.5831, 106.9451
198.0652, 103.4455
198.5473, 101.7919
199.0294, 102.6225
199.5115, 104.8994
199.9937, 106.6701
200.4758, 107.8999
200.9579, 108.7372
201.4400, 109.1526
201.9221, 109.1148
202.4042, 109.1291
202.8864, 109.3160
203.3685, 109.4775
203.8506, 109.0159
204.3327, 107.7615
204.8148, 106.5881
205.2969, 106.1029
205.7791, 106.4544
206.2612, 106.3882
206.7433, 105.7502
207.2254, 104.7195
207.7075, 103.7288
208.1896, 102.7753
208.6718, 101.8623
209.1539, 100.9715
209.6360, 100.1007
210.1181, 99.28617
210.6002, 98.46878
211.0823, 97.74239
211.5645, 97.46469
212.0466, 97.86098
212.5287, 98.17566
213.0108, 97.95659
213.4929, 97.05233
213.9750, 96.20527
214.4572, 95.42199
214.9393, 94.73605
215.4214, 94.17052
215.9035, 93.58591
216.3856, 93.40221
216.8678, 94.00871
217.3499, 95.83627
217.8320, 97.02515
218.3141, 97.27809
218.7962, 96.89077
219.2783, 96.83501
219.7605, 97.37876
220.2426, 97.76131
220.7247, 97.46034
221.2068, 96.04675
221.6889, 95.19429
222.1710, 95.12497
222.6532, 95.62893
223.1353, 96.04278
223.6174, 96.26589
224.0995, 96.57764
224.5816, 97.20417
225.0637, 98.50140
225.5459, 99.18084
226.0280, 98.92055
226.5101, 98.08278
226.9922, 97.82060
227.4743, 98.46638
227.9564, 99.15909
228.4386, 99.44587
228.9207, 99.03672
229.4028, 98.91500
229.8849, 99.16334
230.3670, 99.68853
230.8492, 100.2995
231.3313, 101.2397
231.8134, 101.8898
232.2955, 101.8780
232.7776, 100.7021
233.2597, 100.0403
233.7419, 100.0101
234.2240, 100.4712
234.7061, 101.0702
235.1882, 101.8260
235.6703, 102.6910
236.1524, 103.7194
236.6346, 105.2055
237.1167, 106.1337
237.5988, 106.2317
238.0809, 105.8762
238.5630, 105.9812
239.0451, 106.8608
239.5273, 107.7256
240.0094, 108.2304
240.4915, 108.1867
240.9736, 108.2755
241.4557, 108.5614
241.9378, 108.9478
242.4200, 109.1829
242.9021, 108.9572
243.3842, 109.0641
243.8663, 109.8332
244.3484, 111.4432
244.8306, 113.2276
245.3127, 115.3930
245.7948, 117.6087
246.2769, 119.2299
246.7590, 120.0284
247.2411, 120.5886
247.7233, 121.0084
248.2054, 121.1104
248.6875, 121.7668
249.1696, 123.1649
249.6517, 124.9838
250.1338, 126.7846
250.6160, 128.8724
251.0981, 130.3874
251.5802, 130.8551
252.0623, 129.9468
252.5444, 129.7319
253.0265, 130.4338
253.5087, 131.6483
253.9908, 132.8148
254.4729, 133.9464
254.9550, 135.0235
255.4371, 136.0586
255.9192, 137.0542
256.4014, 137.9186
256.8835, 138.6516
257.3656, 139.2531
257.8477, 139.8217
258.3298, 140.6161
258.8120, 140.7707
259.2941, 139.8793
259.7762, 137.8484
260.2583, 136.2685
260.7404, 135.1658
261.2225, 134.4582
261.7047, 134.1536
262.1868, 134.5604
262.6689, 134.5482
263.1510, 133.8323
263.6331, 132.4327
264.1152, 130.7627
264.5974, 128.6565
265.0795, 126.5518
265.5616, 124.9472
266.0437, 123.9416
266.5258, 123.0437
267.0079, 122.2262
267.4901, 121.4586
267.9722, 120.4964
268.4543, 119.2496
268.9364, 117.9746
269.4185, 116.9102
269.9006, 116.1314
270.3828, 115.2190
270.8649, 113.9876
271.3470, 112.5788
271.8291, 111.6993
272.3112, 111.4836
272.7933, 111.4129
273.2755, 111.1436
273.7576, 110.6664
274.2397, 110.0524
274.7218, 109.3177
275.2039, 108.4477
275.6860, 107.3202
276.1682, 105.8260
276.6503, 104.4463
277.1324, 103.5105
277.6145, 103.0563
278.0966, 102.6799
278.5787, 102.3772
279.0609, 102.1124
279.5430, 101.7838
280.0251, 101.3805
280.5072, 101.0088
280.9893, 100.6718
281.4715, 100.3739
281.9536, 100.4531
282.4357, 101.1173
282.9178, 101.7864
283.3999, 101.1051
283.8820, 98.96664
284.3642, 97.36773
284.8463, 97.70691
285.3284, 99.75037
285.8105, 100.6256
286.2926, 100.1054
286.7747, 99.10360
287.2569, 99.04387
287.7390, 99.87563
288.2211, 100.2724
288.7032, 99.35753
289.1853, 97.51505
289.6674, 96.51389
290.1496, 96.42720
290.6317, 96.66067
291.1138, 96.47817
291.5959, 95.97010
292.0780, 95.77769
292.5602, 96.28277
293.0423, 97.18208
293.5244, 97.68948
294.0065, 97.79173
294.4886, 97.76270
294.9707, 97.91850
295.4529, 98.16728
295.9350, 98.13513
296.4171, 97.53767
296.8992, 96.78521
297.3813, 96.71120
297.8634, 97.26173
298.3456, 97.83408
298.8277, 97.88081
299.3098, 97.61242
299.7919, 97.49018
300.2740, 97.62876
300.7561, 97.91780
301.2383, 98.37576
301.7204, 98.92735
302.2025, 99.19322
302.6846, 98.58614
303.1667, 97.64502
303.6488, 97.23982
304.1310, 97.63042
304.6131, 98.17834
305.0952, 98.21133
305.5773, 97.88541
306.0594, 97.62329
306.5415, 97.64476
307.0237, 97.84262
307.5058, 98.15563
307.9879, 98.60162
308.4700, 98.98249
308.9521, 99.14246
309.4343, 99.13471
309.9164, 99.05949
310.3985, 98.70139
310.8806, 98.46728
311.3627, 98.85271
311.8448, 99.89035
312.3270, 100.6875
312.8091, 100.2785
313.2912, 99.46651
313.7733, 99.20037
314.2554, 100.4935
314.7375, 101.8322
315.2197, 102.3485
315.7018, 102.1303
316.1839, 101.9251
316.6660, 102.2937
317.1481, 102.7033
317.6302, 102.7011
318.1124, 101.8107
318.5945, 100.9561
319.0766, 100.3148
319.5587, 99.92463
320.0408, 99.90041
320.5229, 100.5688
321.0051, 101.4086
321.4872, 102.1674
321.9693, 102.9187
322.4514, 103.3588
322.9335, 103.3841
323.4156, 103.0606
323.8978, 102.5149
324.3799, 101.1546
324.8620, 100.1095
325.3441, 99.83409
325.8262, 100.5718
326.3083, 101.4202
326.7905, 102.7424
327.2726, 104.0041
327.7547, 104.5337
328.2368, 103.0452
328.7189, 102.1522
329.2010, 102.7557
329.6832, 105.0923
330.1653, 106.2111
330.6474, 105.1282
331.1295, 103.5361
331.6116, 102.8110
332.0938, 103.5142
332.5759, 104.2010
333.0580, 104.7254
333.5401, 105.0976
334.0222, 105.3405
334.5043, 105.3515
334.9865, 105.3769
335.4686, 105.6229
335.9507, 106.3134
336.4328, 106.5862
336.9149, 106.2527
337.3970, 105.5423
337.8792, 104.9929
338.3613, 104.4823
338.8434, 104.4496
339.3255, 105.3506
339.8076, 107.4218
340.2898, 108.5230
340.7719, 108.3933
341.2540, 107.7648
341.7361, 107.7967
342.2182, 108.5762
342.7003, 109.1545
343.1825, 108.9250
343.6646, 108.1295
344.1467, 108.6662
344.6288, 110.7798
345.1109, 113.0086
345.5930, 113.8939
346.0752, 113.5088
346.5573, 112.6749
347.0394, 111.3276
347.5215, 109.8719
348.0036, 109.0654
348.4857, 108.9168
348.9679, 109.4905
349.4500, 111.3447
349.9321, 114.0050
350.4142, 116.0953
350.8963, 117.3911
351.3784, 118.1255
351.8606, 118.2892
352.3427, 118.0426
352.8248, 117.9839
353.3069, 118.7990
353.7890, 119.8671
354.2711, 120.2087
354.7533, 119.6659
355.2354, 119.1601
355.7175, 119.5961
356.1996, 120.6000
356.6817, 121.5194
357.1638, 122.0386
357.6460, 122.3989
358.1281, 122.5736
358.6102, 122.6152
359.0923, 123.1450
359.5744, 125.3429
360.0565, 127.8303
360.5387, 129.2323
361.0208, 128.4458
361.5029, 127.4113
361.9850, 126.6390
362.4671, 126.2332
362.9492, 126.5393
363.4314, 128.5695
363.9135, 130.6953
364.3956, 131.9900
364.8777, 132.0538
365.3598, 131.9457
365.8419, 131.7256
366.3241, 131.5052
366.8062, 131.4540
367.2883, 131.5605
367.7704, 131.8713
368.2526, 132.5202
368.7347, 133.6291
369.2168, 134.3641
369.6989, 134.3386
370.1810, 134.1709
370.6631, 134.3938
371.1453, 135.5253
371.6274, 136.2658
372.1095, 136.3069
372.5916, 135.7782
373.0737, 135.5470
373.5558, 135.7157
374.0380, 136.0250
374.5201, 136.3121
375.0022, 136.4924
375.4843, 136.9856
375.9664, 138.0379
376.4485, 139.2052
376.9307, 139.4927
377.4128, 138.6701
377.8949, 137.9300
378.3770, 137.7416
378.8591, 138.0850
379.3412, 138.6745
379.8234, 139.5732
380.3055, 140.4771
380.7876, 141.0003
381.2697, 141.1662
381.7518, 141.2872
382.2339, 141.3921
382.7161, 141.5466
383.1982, 142.0263
383.6803, 142.8122
384.1624, 143.4604
384.6445, 143.4669
385.1266, 143.0828
385.6088, 142.9814
386.0909, 143.3430
386.5730, 143.7551
387.0551, 143.6314
387.5372, 143.1454
388.0193, 142.7923
388.5015, 142.7309
388.9836, 142.9897
389.4657, 143.7497
389.9478, 145.0368
390.4299, 146.2350
390.9120, 146.9713
391.3942, 147.3625
391.8763, 147.5378
392.3584, 147.3499
392.8405, 147.1422
393.3226, 147.0728
393.8047, 147.1286
394.2869, 147.2486
394.7690, 147.5302
395.2511, 147.7873
395.7332, 147.8989
396.2154, 147.7937
396.6975, 147.6545
397.1796, 147.3555
397.6617, 147.0715
398.1438, 147.1000
398.6259, 148.3760
399.1081, 149.0965
399.5902, 148.4775
400.0723, 146.2224
400.5544, 144.6807
401.0365, 144.1605
401.5186, 144.1206
402.0008, 144.2066
402.4829, 144.8805
402.9650, 144.7349
403.4471, 143.1268
403.9292, 140.5802
404.4113, 139.4939
404.8935, 140.4688
405.3756, 141.5015
405.8577, 141.5296
406.3398, 140.4341
406.8219, 139.1447
407.3040, 137.5066
407.7862, 135.9908
408.2683, 135.3852
408.7504, 135.7175
409.2325, 136.0878
409.7146, 136.3039
410.1967, 136.3050
410.6789, 135.7214
411.1610, 134.5289
411.6431, 133.4133
412.1252, 133.1998
412.6073, 133.5563
413.0894, 133.4613
413.5716, 132.5478
414.0537, 131.5007
414.5358, 131.3358
415.0179, 131.7890
415.5000, 131.9937
415.9821, 130.9832
416.4643, 129.7478
416.9464, 129.4092
417.4285, 130.0976
417.9106, 130.9488
418.3927, 131.4899
418.8748, 131.8465
419.3570, 132.1592
419.8391, 132.2365
420.3212, 132.5130
420.8033, 133.5223
421.2854, 135.0169
421.7675, 135.8582
422.2497, 134.6321
422.7318, 133.4614
423.2139, 133.6374
423.6960, 136.2695
424.1781, 138.1290
424.6602, 138.3481
425.1424, 137.7346
425.6245, 137.4403
426.1066, 137.2922
426.5887, 137.7192
427.0709, 139.1302
427.5530, 141.5231
428.0351, 142.9470
428.5172, 143.0233
428.9993, 142.6646
429.4814, 142.4432
429.9636, 142.3017
430.4457, 142.5331
430.9278, 143.2203
431.4099, 144.2331
431.8920, 145.3690
432.3741, 146.6742
432.8563, 147.8224
433.3384, 148.7300
433.8205, 149.3776
434.3026, 149.4797
434.7847, 148.9727
435.2668, 148.4367
435.7490, 148.4866
436.2311, 149.0077
436.7132, 149.6270
437.1953, 150.3616
437.6774, 150.9878
438.1595, 151.0066
438.6417, 150.5859
439.1238, 150.4195
439.6059, 151.5480
440.0880, 152.8271
440.5701, 152.8390
441.0522, 151.2545
441.5344, 149.6561
442.0165, 149.1402
442.4986, 149.1516
442.9807, 149.0143
443.4628, 148.5327
443.9449, 147.8334
444.4271, 146.7694
444.9092, 145.4441
445.3913, 144.4247
445.8734, 144.1602
446.3555, 144.0201
446.8376, 143.7030
447.3198, 143.1461
447.8019, 142.4824
448.2840, 141.6242
448.7661, 140.7061
449.2482, 139.9212
449.7303, 139.3517
450.2125, 138.7961
450.6946, 138.2537
451.1767, 137.7083
451.6588, 136.8386
452.1409, 135.3610
452.6230, 134.2013
453.1052, 134.2604
453.5873, 135.6701
454.0694, 136.5627
454.5515, 136.7920
455.0337, 136.4561
455.5158, 135.4173
455.9979, 133.7357
456.4800, 132.4455
456.9621, 132.1464
457.4442, 132.4867
457.9264, 132.6254
458.4085, 132.5726
458.8906, 132.6126
459.3727, 133.2599
459.8548, 134.0843
460.3369, 134.3492
460.8191, 133.7757
461.3012, 132.9120
461.7833, 131.8856
462.2654, 130.9038
462.7475, 130.3983
463.2296, 130.4500
463.7118, 131.1111
464.1939, 132.8369
464.6760, 135.6840
465.1581, 137.6998
465.6402, 137.6949
466.1223, 136.9721
466.6045, 136.4394
467.0866, 136.0930
467.5687, 136.0941
468.0508, 136.5094
468.5329, 137.2679
469.0150, 138.2797
469.4972, 139.9394
469.9793, 141.2334
470.4614, 141.7747
470.9435, 141.5275
471.4256, 141.1974
471.9077, 140.6489
472.3899, 140.2918
472.8720, 140.6860
473.3541, 141.9438
473.8362, 142.5659
474.3183, 142.1205
474.8004, 141.3055
475.2826, 141.8497
475.7647, 143.6205
476.2468, 144.7404
476.7289, 143.3773
477.2110, 140.8524
477.6931, 140.3058
478.1753, 141.7503
478.6574, 143.6271
479.1395, 144.9107
479.6216, 145.7336
480.1037, 146.2343
480.5858, 146.2461
481.0680, 146.3291
481.5501, 147.1172
482.0322, 148.2536
482.5143, 148.9850
482.9964, 148.3785
483.4786, 147.8538
483.9607, 148.2201
484.4428, 149.5960
484.9249, 150.7771
485.4070, 151.2478
485.8892, 151.6140
486.3713, 152.3084
486.8534, 153.5045
487.3355, 154.7776
487.8176, 156.2136
488.2997, 157.6848
488.7819, 158.9142
489.2640, 159.7549
489.7461, 160.6731
490.2282, 161.6730
490.7103, 162.8039
491.1924, 164.8939
491.6746, 168.1080
492.1567, 171.6420
492.6388, 174.8603
493.1209, 177.8077
493.6030, 180.4496
494.0851, 182.7385
494.5673, 184.9562
495.0494, 187.4068
495.5315, 190.1051
496.0136, 193.0122
496.4957, 195.9288
496.9778, 199.1712
497.4600, 203.2857
497.9421, 208.2088
498.4242, 213.4196
498.9063, 219.1809
499.3884, 224.8026
499.8705, 229.5089
500.3527, 232.2699
500.8348, 236.2204
501.3169, 242.9986
501.7990, 251.3981
502.2811, 259.7910
502.7632, 267.9576
503.2454, 275.9089
503.7275, 283.5732
504.2096, 290.9745
504.6917, 298.7968
505.1738, 307.0909
505.6559, 315.6099
506.1381, 324.0736
506.6202, 332.3215
507.1023, 341.3042
507.5844, 351.2604
508.0665, 361.5057
508.5486, 370.8913
509.0308, 379.4351
509.5129, 388.1139
509.9950, 397.6520
510.4771, 407.0759
510.9592, 414.4488
511.4413, 419.7986
511.9235, 423.8349
512.4056, 426.4994
512.8877, 428.2995
513.3698, 430.2328
513.8519, 432.4299
514.3340, 433.7828
514.8162, 433.7229
515.2983, 432.2676
515.7804, 429.3603
516.2625, 423.6805
516.7446, 418.2085
517.2267, 414.9765
517.7089, 412.9013
518.1910, 409.3391
518.6731, 402.5130
519.1552, 395.2396
519.6373, 388.6233
520.1194, 382.7573
520.6016, 376.2135
521.0837, 368.0804
521.5658, 360.3624
522.0479, 354.8426
522.5300, 352.5461
523.0121, 348.7512
523.4943, 342.7121
523.9764, 335.6183
524.4585, 329.5050
524.9406, 324.4880
525.4227, 319.7398
525.9048, 315.1540
526.3870, 310.5725
526.8691, 305.2684
527.3513, 299.2803
527.8334, 293.5419
528.3155, 288.8842
528.7976, 284.7683
529.2797, 280.4476
529.7618, 275.8169
530.2440, 270.8953
530.7261, 265.6584
531.2082, 260.1722
531.6903, 254.6207
532.1724, 248.6026
532.6545, 242.9463
533.1367, 237.7385
533.6188, 233.0383
534.1009, 228.8530
534.5830, 226.0379
535.0651, 222.9533
535.5472, 218.9057
536.0294, 213.6062
536.5115, 209.2622
536.9936, 206.3699
537.4757, 203.7419
537.9578, 200.2697
538.4399, 195.6975
538.9221, 191.7661
539.4042, 188.7246
539.8863, 186.1912
540.3684, 183.5729
540.8505, 180.8638
541.3326, 177.9809
541.8148, 174.7004
542.2969, 171.3511
542.7790, 168.5478
543.2611, 166.2456
543.7432, 163.9858
544.2253, 161.4354
544.7075, 158.7820
545.1896, 156.1852
545.6717, 153.6474
546.1538, 151.2791
546.6359, 149.3709
547.1180, 147.5564
547.6002, 145.4702
548.0823, 142.1333
548.5644, 139.5441
549.0465, 138.3588
549.5286, 138.1832
550.0107, 137.9045
550.4929, 137.6245
550.9750, 137.0814
551.4571, 136.1391
551.9392, 134.7901
552.4213, 133.4872
552.9034, 132.2571
553.3856, 130.9673
553.8677, 129.3541
554.3498, 127.4789
554.8319, 126.1780
555.3140, 125.6379
555.7961, 125.2959
556.2783, 124.3609
556.7604, 123.0280
557.2425, 121.8676
557.7246, 121.2424
558.2067, 120.7194
558.6888, 119.8002
559.1710, 118.6137
559.6531, 117.6055
560.1352, 117.0424
560.6173, 116.6936
561.0994, 116.4810
561.5815, 116.4144
562.0637, 116.3037
562.5458, 116.4843
563.0279, 116.3565
563.5100, 115.4406
563.9921, 112.7923
564.4742, 111.0533
564.9564, 110.6261
565.4385, 110.8606
565.9206, 110.6889
566.4027, 110.0553
566.8848, 109.2400
567.3669, 108.1061
567.8491, 106.9631
568.3312, 107.1668
568.8133, 108.6571
569.2954, 109.8849
569.7775, 109.6043
570.2596, 108.4468
570.7418, 107.5505
571.2239, 106.9820
571.7060, 106.4391
572.1881, 105.4750
572.6702, 104.5071
573.1523, 104.0600
573.6345, 104.7241
574.1166, 105.0945
574.5987, 104.1410
575.0808, 102.6579
575.5629, 101.9520
576.0450, 103.3955
576.5272, 104.3382
577.0093, 104.1241
577.4914, 102.9348
577.9735, 101.9196
578.4556, 101.0962
578.9377, 100.4283
579.4199, 99.87012
579.9020, 99.42725
580.3841, 99.32712
580.8662, 99.63913
581.3483, 99.93067
581.8304, 99.54105
582.3126, 98.73771
582.7947, 98.54235
583.2768, 99.30258
583.7589, 100.2290
584.2410, 100.5594
584.7231, 100.4309
585.2053, 100.1154
585.6874, 99.80459
586.1696, 99.26201
586.6517, 98.04647
587.1338, 96.38743
587.6159, 95.30239
588.0980, 95.31467
588.5801, 95.72297
589.0623, 96.35577
589.5444, 97.28588
590.0265, 97.90439
590.5086, 98.29469
590.9907, 98.26884
591.4728, 97.50549
591.9550, 95.82217
592.4371, 94.63144
592.9192, 94.07218
593.4013, 93.97411
593.8834, 94.34457
594.3655, 95.07101
594.8477, 95.39918
595.3298, 94.89694
595.8119, 94.11903
596.2940, 93.80856
596.7761, 93.86208
597.2582, 93.92208
597.7404, 93.80208
598.2225, 93.61763
598.7046, 93.51571
599.1867, 93.49678
599.6688, 93.21885
600.1509, 92.31363
600.6331, 91.30372
601.1152, 90.47491
601.5973, 89.66441
602.0794, 89.48031
602.5615, 90.38680
603.0436, 91.47637
603.5258, 91.66174
604.0079, 90.78374
604.4900, 89.80418
604.9721, 88.73939
605.4542, 87.86552
605.9363, 87.97268
606.4185, 88.94473
606.9006, 89.75320
607.3827, 89.88409
607.8648, 89.60043
608.3469, 89.05033
608.8290, 88.32357
609.3112, 87.95495
609.7933, 88.62206
610.2754, 89.50912
610.7575, 90.03159
611.2396, 90.09264
611.7217, 89.95023
612.2039, 89.05410
612.6860, 88.36855
613.1681, 88.70204
613.6502, 91.35915
614.1323, 92.71359
614.6144, 92.14567
615.0966, 90.76421
615.5787, 90.23924
616.0608, 90.75319
616.5429, 90.95109
617.0250, 90.41887
617.5071, 89.50320
617.9893, 88.92700
618.4714, 88.67921
618.9535, 88.67695
619.4356, 89.21491
619.9177, 89.78691
620.3998, 89.66805
620.8820, 88.91152
621.3641, 88.06650
621.8462, 87.14548
622.3283, 86.44400
622.8104, 86.25579
623.2925, 86.75842
623.7747, 87.17604
624.2568, 87.52586
624.7389, 87.62834
