##NAMES=Dixenite
##RRUFFID=R100044
##IDEAL CHEMISTRY=Cu^1+^Mn^2+^_14_Fe^3+^(As^3+^O_3_)_5_(SiO_4_)_2_(As^5+^O_4_)(OH)_6_
##LOCALITY=Moss mine, Nordmark, Varmland, Sweden
##OWNER=RRUFF
##SOURCE=William W Pinch
##DESCRIPTION=Thin tabular reddish-brown hexagonal plates, associated with synadelphite and colorless or grey allactite
##STATUS=The identification of this mineral has been confirmed only by single crystal X-ray diffraction.
##URL=rruff.info/R100044
90.60547, 292.8814
91.08759, 300.5994
91.56970, 307.1241
92.05182, 305.3398
92.53394, 299.8230
93.01605, 294.8371
93.49817, 293.9176
93.98029, 296.3989
94.46240, 296.5908
94.94452, 292.4543
95.42664, 287.2462
95.90874, 282.7896
96.39086, 279.2274
96.87298, 276.1491
97.35509, 272.9341
97.83721, 269.1032
98.31933, 265.5187
98.80145, 262.9397
99.28356, 260.1656
99.76568, 256.1526
100.2478, 250.5871
100.7299, 244.2365
101.2120, 239.0544
101.6941, 234.6461
102.1763, 231.9563
102.6584, 231.7016
103.1405, 232.9974
103.6226, 234.8966
104.1047, 237.0445
104.5868, 239.1736
105.0690, 239.4641
105.5511, 237.1859
106.0332, 234.2222
106.5153, 230.8960
106.9974, 227.3551
107.4795, 224.5275
107.9617, 223.3621
108.4438, 223.5168
108.9259, 223.6441
109.4080, 224.1807
109.8901, 224.3879
110.3722, 223.0589
110.8544, 219.7598
111.3365, 215.9091
111.8186, 212.2175
112.3007, 208.7008
112.7828, 205.4245
113.2649, 202.3835
113.7471, 199.5791
114.2292, 197.2308
114.7113, 195.5667
115.1934, 194.1847
115.6755, 193.0965
116.1576, 192.1929
116.6397, 191.2009
117.1219, 189.7830
117.6040, 187.7288
118.0861, 185.8730
118.5682, 184.1471
119.0503, 182.6151
119.5324, 181.3418
120.0146, 180.3320
120.4967, 179.5159
120.9788, 178.7968
121.4609, 178.3608
121.9430, 177.7266
122.4251, 176.7460
122.9073, 175.6120
123.3894, 174.5983
123.8715, 173.8288
124.3536, 173.1411
124.8357, 172.0293
125.3178, 170.1299
125.8000, 168.6190
126.2821, 168.0986
126.7642, 168.3854
127.2463, 168.8649
127.7284, 169.5132
128.2105, 169.9930
128.6927, 169.7945
129.1748, 168.6865
129.6569, 167.2522
130.1390, 165.9384
130.6211, 164.7163
131.1032, 163.7979
131.5854, 163.5373
132.0675, 163.5325
132.5496, 163.4307
133.0317, 163.0872
133.5138, 162.5938
133.9959, 162.2244
134.4781, 162.3329
134.9602, 161.9388
135.4423, 160.4924
135.9244, 158.5170
136.4065, 156.7116
136.8886, 155.5231
137.3708, 154.8928
137.8529, 154.1092
138.3350, 153.0927
138.8171, 151.9859
139.2992, 150.6900
139.7813, 149.3117
140.2635, 148.0907
140.7456, 147.2837
141.2277, 146.9844
141.7098, 146.1477
142.1919, 144.2224
142.6740, 142.3334
143.1561, 141.2172
143.6383, 140.8695
144.1204, 140.6111
144.6025, 139.6840
145.0846, 137.9350
145.5667, 136.6307
146.0488, 135.9809
146.5310, 135.7284
147.0131, 135.6966
147.4952, 135.9029
147.9773, 136.0881
148.4594, 135.9607
148.9415, 135.5710
149.4237, 134.9650
149.9058, 133.9533
150.3879, 132.7193
150.8700, 131.8118
151.3521, 131.4409
151.8342, 131.2591
152.3164, 131.0274
152.7985, 130.7350
153.2806, 130.2855
153.7627, 129.4886
154.2448, 128.3307
154.7269, 127.4210
155.2091, 127.2291
155.6912, 127.0191
156.1733, 126.3547
156.6554, 125.2258
157.1375, 123.9840
157.6196, 123.0528
158.1018, 122.5300
158.5839, 122.0481
159.0660, 121.5126
159.5481, 121.0509
160.0302, 120.8881
160.5123, 121.0255
160.9945, 121.1333
161.4766, 120.6107
161.9587, 118.8781
162.4408, 117.3210
162.9229, 116.0071
163.4050, 114.8341
163.8871, 113.6861
164.3693, 112.5178
164.8514, 111.4265
165.3335, 110.6634
165.8156, 110.4165
166.2977, 110.2392
166.7798, 110.1894
167.2620, 110.1641
167.7441, 109.9351
168.2262, 109.3418
168.7083, 108.6301
169.1904, 108.5326
169.6725, 109.2261
170.1547, 110.0360
170.6368, 110.8120
171.1189, 111.5204
171.6010, 112.0224
172.0831, 112.1757
172.5652, 112.1345
173.0474, 112.2094
173.5295, 112.3501
174.0116, 112.6958
174.4937, 113.4911
174.9758, 114.7359
175.4579, 115.8271
175.9401, 116.4112
176.4222, 116.7401
176.9043, 117.0124
177.3864, 117.1848
177.8685, 117.5017
178.3506, 118.3815
178.8328, 120.0207
179.3149, 121.5261
179.7970, 122.5128
180.2791, 123.2746
180.7612, 124.0460
181.2433, 124.9247
181.7255, 125.8218
182.2076, 126.5516
182.6897, 127.0755
183.1718, 127.4776
183.6539, 127.7933
184.1360, 128.0173
184.6181, 128.2421
185.1003, 128.5403
185.5824, 128.7006
186.0645, 127.9320
186.5466, 124.8996
187.0287, 122.5380
187.5108, 121.5589
187.9930, 121.3751
188.4751, 121.2091
188.9572, 120.6152
189.4393, 119.7410
189.9214, 119.4345
190.4035, 120.2646
190.8857, 121.0304
191.3678, 121.4407
191.8499, 121.6415
192.3320, 121.8934
192.8141, 122.3459
193.2962, 122.9880
193.7784, 123.7628
194.2605, 124.8126
194.7426, 125.8102
195.2247, 126.4890
195.7068, 126.9967
196.1889, 127.8201
196.6711, 129.3834
197.1532, 131.4487
197.6353, 132.8206
198.1174, 133.0344
198.5995, 133.0662
199.0816, 133.3357
199.5638, 133.8485
200.0459, 134.6591
200.5280, 136.0110
201.0101, 137.6272
201.4922, 138.7099
201.9743, 139.0332
202.4565, 139.0232
202.9386, 139.0750
203.4207, 139.1992
203.9028, 139.0527
204.3849, 138.3165
204.8670, 137.2213
205.3492, 136.0862
205.8313, 134.9475
206.3134, 133.8142
206.7955, 132.7273
207.2776, 131.7104
207.7597, 130.6305
208.2419, 129.5528
208.7240, 128.3305
209.2061, 126.7427
209.6882, 124.6321
210.1703, 122.3020
210.6524, 120.2374
211.1346, 118.4524
211.6167, 116.9527
212.0988, 115.7327
212.5809, 114.7677
213.0630, 114.1004
213.5451, 113.7865
214.0273, 113.6414
214.5094, 113.2154
214.9915, 112.2386
215.4736, 111.4747
215.9557, 110.9704
216.4378, 110.7492
216.9200, 110.9173
217.4021, 111.5359
217.8842, 112.3948
218.3663, 112.8736
218.8484, 112.5074
219.3305, 112.4293
219.8127, 113.0588
220.2948, 113.9045
220.7769, 114.3715
221.2590, 114.1885
221.7411, 113.6582
222.2232, 113.6826
222.7054, 115.0382
223.1875, 116.0468
223.6696, 116.2684
224.1517, 116.2154
224.6338, 116.5684
225.1159, 117.6370
225.5980, 119.0728
226.0802, 119.8598
226.5623, 119.3333
227.0444, 118.9230
227.5265, 118.7892
228.0086, 118.8098
228.4907, 118.8577
228.9729, 118.8847
229.4550, 118.8627
229.9371, 118.7015
230.4192, 118.2289
230.9013, 117.8923
231.3834, 117.9262
231.8656, 118.1017
232.3477, 118.0841
232.8298, 117.7429
233.3119, 117.1649
233.7940, 116.4455
234.2761, 115.3541
234.7583, 114.6777
235.2404, 114.9627
235.7225, 115.7395
236.2046, 116.1071
236.6867, 115.6653
237.1688, 114.9784
237.6510, 115.1601
238.1331, 116.3405
238.6152, 117.3253
239.0973, 117.6972
239.5794, 117.5936
240.0615, 117.2070
240.5437, 116.4353
241.0258, 115.7158
241.5079, 115.7429
241.9900, 116.5012
242.4721, 117.1763
242.9542, 117.3053
243.4364, 117.0929
243.9185, 117.0539
244.4006, 117.2885
244.8827, 117.7265
245.3648, 118.4133
245.8469, 119.3029
246.3290, 119.9903
246.8112, 120.1683
247.2933, 119.9808
247.7754, 119.8024
248.2575, 119.4942
248.7396, 119.5470
249.2217, 120.5172
249.7039, 122.1673
250.1860, 123.6993
250.6681, 124.7675
251.1502, 125.3880
251.6323, 125.5210
252.1144, 124.7184
252.5966, 124.1724
253.0787, 124.7447
253.5608, 126.0682
254.0429, 127.3383
254.5250, 128.1338
255.0071, 128.5202
255.4893, 128.6988
255.9714, 128.4308
256.4535, 128.3524
256.9356, 128.8227
257.4177, 129.6259
257.8998, 130.4322
258.3820, 131.0989
258.8641, 131.6188
259.3462, 131.9510
259.8283, 132.0124
260.3104, 132.0063
260.7925, 132.0278
261.2747, 132.0293
261.7568, 131.9460
262.2389, 131.7411
262.7210, 131.4402
263.2031, 131.1205
263.6852, 130.8218
264.1674, 130.4243
264.6495, 129.8367
265.1316, 129.1805
265.6137, 128.6227
266.0958, 128.2457
266.5779, 127.9130
267.0601, 127.2470
267.5422, 125.8715
268.0243, 124.8617
268.5064, 124.6327
268.9885, 124.6380
269.4706, 124.3919
269.9528, 123.7250
270.4349, 122.8230
270.9170, 122.0083
271.3991, 121.2085
271.8812, 120.6770
272.3633, 120.8274
272.8455, 120.9571
273.3276, 120.3945
273.8097, 119.0352
274.2918, 117.4394
274.7739, 116.5069
275.2560, 116.7302
275.7382, 116.5727
276.2202, 115.8206
276.7024, 114.9313
277.1845, 114.1451
277.6666, 113.5161
278.1487, 113.0070
278.6308, 112.6045
279.1129, 112.4158
279.5951, 111.9475
280.0772, 110.7944
280.5593, 109.7544
281.0414, 109.3095
281.5235, 109.4161
282.0056, 109.7151
282.4878, 109.9030
282.9699, 110.0139
283.4520, 109.7302
283.9341, 108.4372
284.4162, 107.3970
284.8983, 107.4160
285.3805, 108.1698
285.8626, 108.6840
286.3447, 108.1361
286.8268, 106.5573
287.3089, 105.7565
287.7910, 106.7631
288.2732, 107.3838
288.7553, 106.5921
289.2374, 104.9769
289.7195, 103.7250
290.2016, 103.5754
290.6837, 104.3135
291.1659, 104.7540
291.6480, 104.4831
292.1301, 104.3961
292.6122, 104.7891
293.0943, 105.4151
293.5764, 105.9665
294.0586, 106.3096
294.5407, 106.4296
295.0228, 106.2848
295.5049, 105.3796
295.9870, 104.8149
296.4691, 104.7357
296.9513, 104.9703
297.4334, 105.4657
297.9155, 106.1824
298.3976, 106.8442
298.8797, 106.9419
299.3618, 105.7832
299.8440, 105.3983
300.3261, 106.5702
300.8082, 108.0107
301.2903, 108.6116
301.7724, 108.1973
302.2545, 107.4361
302.7367, 107.1025
303.2188, 107.3362
303.7009, 107.5091
304.1830, 107.3293
304.6651, 107.3253
305.1472, 108.0364
305.6294, 109.3426
306.1115, 110.5332
306.5936, 110.9542
307.0757, 110.5473
307.5578, 110.5073
308.0399, 111.1558
308.5221, 111.7829
309.0042, 112.1266
309.4863, 112.1995
309.9684, 111.9884
310.4505, 111.3931
310.9326, 110.5760
311.4148, 110.7422
311.8969, 112.9088
312.3790, 114.7256
312.8611, 115.5178
313.3432, 115.6152
313.8253, 115.5220
314.3075, 115.4492
314.7896, 115.4206
315.2717, 115.4999
315.7538, 115.6835
316.2359, 115.9855
316.7180, 116.6321
317.2001, 117.3003
317.6823, 117.5910
318.1644, 117.3969
318.6465, 116.9696
319.1286, 116.6582
319.6107, 116.4116
320.0928, 116.4761
320.5750, 116.9976
321.0571, 117.7169
321.5392, 118.5461
322.0213, 119.4199
322.5034, 120.1547
322.9855, 120.5306
323.4677, 120.4753
323.9498, 120.5972
324.4319, 121.0711
324.9140, 121.5311
325.3961, 121.7169
325.8782, 121.7142
326.3604, 121.8252
326.8425, 122.2785
327.3246, 123.0365
327.8067, 123.6760
328.2888, 124.0581
328.7709, 124.4995
329.2531, 125.2384
329.7352, 126.0619
330.2173, 126.5813
330.6994, 126.5994
331.1815, 126.3158
331.6636, 126.2692
332.1458, 126.3572
332.6279, 126.8485
333.1100, 128.2428
333.5921, 129.7990
334.0742, 130.6635
334.5563, 130.6312
335.0385, 130.3365
335.5206, 130.7351
336.0027, 132.2987
336.4848, 133.3444
336.9669, 133.6349
337.4490, 133.6651
337.9312, 133.5433
338.4133, 133.4062
338.8954, 133.6013
339.3775, 134.4990
339.8596, 136.1769
340.3417, 137.6106
340.8239, 138.6819
341.3060, 139.6663
341.7881, 140.6709
342.2702, 141.6635
342.7523, 142.4914
343.2344, 143.0229
343.7166, 143.4016
344.1987, 144.3276
344.6808, 146.2768
345.1629, 148.2851
345.6450, 150.8655
346.1271, 153.2087
346.6093, 154.2012
347.0914, 153.4794
347.5735, 151.9292
348.0556, 151.1841
348.5377, 151.3387
349.0198, 152.2478
349.5020, 154.5636
349.9841, 157.0363
350.4662, 158.9116
350.9483, 160.0498
351.4304, 160.6241
351.9125, 160.6847
352.3947, 160.0538
352.8768, 160.1078
353.3589, 161.5994
353.8410, 163.0198
354.3231, 163.7357
354.8052, 163.9655
355.2874, 164.2400
355.7695, 164.9062
356.2516, 165.9194
356.7337, 167.0835
357.2158, 168.9240
357.6979, 170.1538
358.1800, 170.0387
358.6621, 169.4543
359.1443, 169.4678
359.6264, 170.4854
360.1085, 171.8411
360.5906, 172.2078
361.0727, 170.9585
361.5548, 170.3710
362.0370, 171.1588
362.5191, 172.2637
363.0012, 173.1665
363.4833, 173.7642
363.9654, 174.0915
364.4475, 174.0068
364.9297, 173.4501
365.4118, 173.5246
365.8939, 175.0783
366.3760, 176.3378
366.8581, 176.1924
367.3402, 175.2466
367.8224, 174.8138
368.3045, 175.8466
368.7866, 177.7657
369.2687, 178.7824
369.7508, 178.4343
370.2329, 178.1927
370.7151, 178.6370
371.1972, 179.3847
371.6793, 180.1446
372.1614, 180.8517
372.6435, 181.3871
373.1256, 181.4902
373.6078, 181.1175
374.0899, 180.9085
374.5720, 180.6135
375.0541, 180.9320
375.5362, 182.8584
376.0183, 186.1805
376.5005, 188.9431
376.9826, 189.3664
377.4647, 188.1326
377.9468, 187.8437
378.4289, 188.9694
378.9110, 190.3415
379.3932, 191.1418
379.8753, 191.6225
380.3574, 192.2559
380.8395, 193.1975
381.3216, 194.3485
381.8037, 195.6073
382.2859, 196.9771
382.7680, 198.4382
383.2501, 200.1638
383.7322, 201.8410
384.2143, 202.9778
384.6964, 203.4174
385.1786, 203.8229
385.6607, 204.6732
386.1428, 205.7763
386.6249, 206.6149
387.1070, 207.0412
387.5891, 207.2537
388.0713, 207.4096
388.5534, 207.5163
389.0355, 207.7131
389.5176, 208.1855
389.9997, 208.6635
390.4818, 208.8791
390.9640, 208.8220
391.4461, 208.6098
391.9282, 208.2962
392.4103, 207.8891
392.8924, 207.4578
393.3745, 206.9932
393.8567, 206.5136
394.3388, 205.9687
394.8209, 205.4186
395.3030, 205.0112
395.7851, 204.8088
396.2672, 204.7012
396.7494, 204.5261
397.2315, 204.4272
397.7136, 203.8654
398.1957, 202.5672
398.6778, 200.9571
399.1599, 199.2031
399.6420, 197.4174
400.1241, 195.9197
400.6063, 195.0382
401.0884, 194.7931
401.5705, 194.3797
402.0526, 193.9243
402.5347, 193.1956
403.0168, 191.7722
403.4990, 190.0993
403.9811, 189.0254
404.4632, 188.9752
404.9453, 189.3713
405.4274, 188.7537
405.9095, 186.1749
406.3917, 184.1756
406.8738, 183.1212
407.3559, 182.4055
407.8380, 181.5877
408.3201, 180.6244
408.8022, 179.7652
409.2844, 179.3324
409.7665, 179.3798
410.2486, 178.9796
410.7307, 177.5458
411.2128, 176.2859
411.6949, 175.7172
412.1771, 175.5221
412.6592, 175.1267
413.1413, 174.2038
413.6234, 173.0788
414.1055, 172.5087
414.5876, 172.7052
415.0698, 172.8055
415.5519, 172.6764
416.0340, 172.3319
416.5161, 171.5557
416.9982, 170.3848
417.4803, 169.5074
417.9625, 169.7377
418.4446, 170.8824
418.9267, 171.6016
419.4088, 171.7051
419.8909, 171.5433
420.3730, 171.1467
420.8552, 170.6757
421.3373, 170.4789
421.8194, 170.7157
422.3015, 171.2293
422.7836, 172.0478
423.2657, 173.1590
423.7479, 173.7151
424.2300, 173.0150
424.7121, 171.8994
425.1942, 171.7400
425.6763, 172.7099
426.1584, 173.6995
426.6406, 174.2193
427.1227, 174.4569
427.6048, 174.8046
428.0869, 175.3559
428.5690, 175.6455
429.0511, 175.0325
429.5333, 173.5493
430.0154, 172.9736
430.4975, 174.1029
430.9796, 175.3956
431.4617, 175.9810
431.9438, 176.0334
432.4260, 176.1331
432.9081, 176.5871
433.3902, 177.0987
433.8723, 176.9261
434.3544, 175.2092
434.8365, 174.2396
435.3187, 174.7831
435.8008, 175.6406
436.2829, 175.7840
436.7650, 175.1382
437.2471, 174.3049
437.7292, 173.8537
438.2114, 173.7971
438.6935, 173.5594
439.1756, 173.3586
439.6577, 172.7239
440.1398, 170.9403
440.6219, 168.8523
441.1040, 167.7331
441.5862, 168.1169
442.0683, 169.1583
442.5504, 169.2682
443.0325, 168.0839
443.5146, 167.0843
443.9967, 166.5666
444.4789, 166.1230
444.9610, 165.5577
445.4431, 164.8798
445.9252, 164.1858
446.4073, 163.5287
446.8894, 162.9180
447.3716, 162.3582
447.8537, 161.7691
448.3358, 161.4344
448.8179, 161.8007
449.3000, 162.3455
449.7821, 162.4556
450.2643, 161.9343
450.7464, 161.3105
451.2285, 161.0141
451.7106, 161.0029
452.1927, 161.1393
452.6748, 161.5183
453.1570, 161.7852
453.6391, 161.4243
454.1212, 160.5795
454.6033, 159.8910
455.0854, 159.3298
455.5675, 159.1192
456.0497, 159.6361
456.5318, 160.7712
457.0139, 161.9022
457.4960, 162.7452
457.9781, 163.3442
458.4602, 163.7988
458.9424, 164.0915
459.4245, 164.3120
459.9066, 164.4888
460.3887, 164.5926
460.8708, 164.5022
461.3529, 164.2442
461.8351, 164.0752
462.3172, 164.2167
462.7993, 164.6669
463.2814, 165.4882
463.7635, 167.2615
464.2456, 168.7132
464.7278, 169.3056
465.2099, 169.4653
465.6920, 169.7756
466.1741, 170.4659
466.6562, 171.3710
467.1383, 172.2156
467.6205, 172.9716
468.1026, 173.7769
468.5847, 174.7032
469.0668, 175.6210
469.5489, 176.4908
470.0310, 177.3033
470.5132, 178.0091
470.9953, 178.4739
471.4774, 178.9132
471.9595, 180.0004
472.4416, 181.9674
472.9237, 183.7140
473.4059, 184.6297
473.8880, 185.2712
474.3701, 186.1285
474.8522, 187.2541
475.3343, 188.4343
475.8164, 189.2962
476.2986, 190.1258
476.7807, 191.8012
477.2628, 194.5550
477.7449, 197.3843
478.2270, 199.5710
478.7091, 201.1969
479.1913, 202.6857
479.6734, 203.8722
480.1555, 205.1273
480.6376, 206.6195
481.1197, 208.3200
481.6018, 210.1188
482.0839, 211.9655
482.5660, 214.0831
483.0482, 216.8645
483.5303, 220.5872
484.0124, 223.9507
484.4945, 226.4975
484.9766, 229.1275
485.4587, 232.6489
485.9409, 236.6601
486.4230, 239.9909
486.9051, 241.9298
487.3872, 243.1974
487.8693, 245.9717
488.3514, 251.6136
488.8336, 256.2474
489.3157, 258.6573
489.7978, 260.8626
490.2799, 264.4176
490.7620, 269.1870
491.2441, 273.7832
491.7263, 276.8624
492.2084, 278.8490
492.6905, 281.8804
493.1726, 286.3454
493.6547, 290.9056
494.1368, 294.8993
494.6190, 298.7360
495.1011, 302.8703
495.5832, 307.4095
496.0653, 311.9717
496.5474, 316.2818
497.0295, 320.3570
497.5117, 324.2231
497.9938, 327.8882
498.4759, 331.3102
498.9580, 334.2138
499.4401, 336.8148
499.9222, 340.1916
500.4044, 345.0206
500.8865, 350.0109
501.3686, 354.8180
501.8507, 359.2872
502.3328, 363.0583
502.8149, 365.9747
503.2971, 368.5418
503.7792, 371.3808
504.2613, 374.3690
504.7434, 378.3105
505.2255, 384.2866
505.7076, 390.0434
506.1898, 394.4579
506.6719, 397.8407
507.1540, 400.8984
507.6361, 403.9973
508.1182, 407.0852
508.6003, 409.9993
509.0825, 412.6653
509.5646, 415.3677
510.0467, 418.4989
510.5288, 421.3514
511.0109, 423.5952
511.4930, 425.2206
511.9752, 426.3397
512.4573, 427.0374
512.9394, 427.2638
513.4215, 426.8226
513.9036, 425.6327
514.3857, 424.2451
514.8679, 422.6175
515.3500, 421.0788
515.8321, 420.3611
516.3142, 420.6762
516.7963, 419.9686
517.2784, 416.6499
517.7606, 412.1102
518.2427, 408.1952
518.7248, 405.0713
519.2069, 402.2254
519.6890, 399.3234
520.1711, 396.4127
520.6533, 393.8441
521.1354, 392.3989
521.6175, 390.1932
522.0996, 386.1342
522.5817, 381.6291
523.0638, 378.2580
523.5460, 376.1836
524.0281, 374.3234
524.5102, 371.6361
524.9923, 368.1615
525.4744, 364.9218
525.9565, 362.4399
526.4387, 359.5252
526.9208, 355.8490
527.4029, 351.6813
527.8850, 347.2907
528.3671, 342.7509
528.8492, 338.0393
529.3314, 333.0279
529.8135, 327.7737
530.2956, 322.7758
530.7777, 318.2439
531.2598, 313.6244
531.7419, 308.4587
532.2241, 303.0151
532.7062, 297.6551
533.1883, 292.5699
533.6704, 287.3491
534.1525, 281.4065
534.6346, 275.1334
535.1168, 269.5158
535.5989, 264.8287
536.0810, 260.2454
536.5631, 254.9153
537.0452, 248.7747
537.5273, 242.9983
538.0095, 237.7440
538.4916, 232.6220
538.9737, 227.4732
539.4558, 222.3476
539.9379, 217.2815
540.4200, 212.3056
540.9022, 207.4770
541.3843, 202.9187
541.8664, 198.6570
542.3485, 194.5131
542.8306, 190.5503
543.3127, 186.6741
543.7948, 182.8756
544.2769, 179.1510
544.7590, 175.5328
545.2411, 172.0339
545.7233, 168.5740
546.2054, 164.9191
546.6875, 161.1108
547.1696, 158.0945
547.6517, 156.3656
548.1339, 154.7860
548.6160, 152.1993
549.0981, 148.9787
549.5802, 146.1463
550.0623, 144.2286
550.5444, 142.4053
551.0266, 140.1877
551.5087, 137.6563
551.9908, 134.8396
552.4729, 131.7214
552.9550, 128.8213
553.4371, 126.8658
553.9193, 126.0774
554.4014, 124.8529
554.8835, 122.7935
555.3656, 120.8078
555.8477, 119.4321
556.3298, 118.2606
556.8120, 116.5883
557.2941, 114.1727
557.7762, 111.6201
558.2583, 109.8128
558.7404, 108.8500
559.2225, 107.8765
559.7047, 106.8518
560.1868, 105.8538
560.6689, 104.9286
561.1510, 104.0473
561.6331, 103.1389
562.1152, 102.1582
562.5974, 101.2233
563.0795, 100.5271
563.5616, 99.97965
564.0437, 99.21580
564.5258, 98.11955
565.0079, 96.98263
565.4901, 96.03654
565.9722, 95.29461
566.4543, 94.70509
566.9364, 94.55765
567.4185, 94.23312
567.9006, 93.30447
568.3828, 92.12980
568.8649, 91.26766
569.3470, 90.84249
569.8291, 90.45750
570.3112, 89.61852
570.7933, 88.27738
571.2755, 87.30631
571.7576, 87.07632
572.2397, 86.75571
572.7218, 85.90487
573.2039, 84.97827
573.6860, 84.55510
574.1682, 84.76626
574.6503, 85.11164
575.1324, 85.20296
575.6145, 85.04241
576.0966, 84.55676
576.5787, 83.63346
577.0609, 82.81541
577.5430, 82.50124
578.0251, 82.51316
578.5072, 82.41312
578.9893, 82.18771
579.4714, 81.86143
579.9536, 81.24117
580.4357, 80.63112
580.9178, 80.53167
581.3999, 80.92485
581.8820, 81.22598
582.3641, 80.96156
582.8463, 80.25079
583.3284, 79.79639
583.8105, 79.99342
584.2926, 79.86710
584.7747, 79.01064
585.2568, 78.07350
585.7390, 77.44322
