##NAMES=Djurleite
##RRUFFID=R070333
##IDEAL CHEMISTRY=Cu_31_S_16_
##LOCALITY=Cornwall, England
##OWNER=RRUFF
##SOURCE=Michael Scott
##DESCRIPTION=Aggregate of black metallic prismatic crystals with bluish tarnish
##STATUS=The identification of this mineral has been confirmed by X-ray diffraction and chemical analysis
##URL=rruff.info/R070333
##MEASURED CHEMISTRY=Cu_30.75_S_16_ = Cu_1.92_S
166.2887, 1659.152
166.7709, 1663.219
167.2530, 1670.477
167.7351, 1680.843
168.2172, 1688.869
168.6993, 1695.647
169.1814, 1699.130
169.6636, 1696.135
170.1457, 1685.514
170.6278, 1671.157
171.1099, 1651.896
171.5920, 1629.216
172.0741, 1617.115
172.5563, 1626.885
173.0384, 1651.957
173.5205, 1673.818
174.0026, 1690.328
174.4847, 1701.648
174.9668, 1709.577
175.4490, 1714.089
175.9311, 1713.854
176.4132, 1706.237
176.8953, 1691.397
177.3774, 1676.999
177.8595, 1661.665
178.3417, 1649.507
178.8238, 1644.456
179.3059, 1646.613
179.7880, 1650.742
180.2701, 1651.489
180.7522, 1648.544
181.2344, 1643.344
181.7165, 1628.918
182.1986, 1616.882
182.6807, 1615.991
183.1628, 1628.399
183.6449, 1647.638
184.1271, 1664.181
184.6092, 1681.392
185.0913, 1687.896
185.5734, 1676.149
186.0555, 1658.609
186.5376, 1646.550
187.0198, 1644.498
187.5019, 1647.771
187.9840, 1643.561
188.4661, 1617.082
188.9482, 1602.132
189.4303, 1610.705
189.9125, 1628.944
190.3946, 1640.361
190.8767, 1636.411
191.3588, 1620.494
191.8409, 1608.397
192.3230, 1595.936
192.8052, 1591.930
193.2873, 1604.041
193.7694, 1625.459
194.2515, 1645.727
194.7336, 1659.442
195.2157, 1666.229
195.6979, 1661.043
196.1800, 1625.926
196.6621, 1599.827
197.1442, 1603.136
197.6263, 1628.818
198.1084, 1654.834
198.5906, 1667.013
199.0727, 1665.417
199.5548, 1661.456
200.0369, 1651.478
200.5190, 1642.473
201.0011, 1637.299
201.4833, 1636.309
201.9654, 1641.569
202.4475, 1660.373
202.9296, 1688.598
203.4117, 1695.633
203.8938, 1659.808
204.3760, 1615.317
204.8581, 1590.896
205.3402, 1588.364
205.8223, 1599.452
206.3044, 1628.296
206.7865, 1667.685
207.2687, 1690.395
207.7508, 1677.007
208.2329, 1649.514
208.7150, 1640.173
209.1971, 1655.452
209.6792, 1670.543
210.1614, 1657.750
210.6435, 1628.512
211.1256, 1609.891
211.6077, 1618.490
212.0898, 1643.650
212.5719, 1662.161
213.0541, 1671.020
213.5362, 1677.077
214.0183, 1688.409
214.5004, 1701.528
214.9825, 1706.799
215.4646, 1691.078
215.9468, 1661.260
216.4289, 1648.305
216.9110, 1664.923
217.3931, 1682.168
217.8752, 1682.145
218.3573, 1669.126
218.8395, 1655.588
219.3216, 1651.396
219.8037, 1655.563
220.2858, 1654.933
220.7679, 1643.497
221.2500, 1633.527
221.7322, 1630.897
222.2143, 1634.596
222.6964, 1640.683
223.1785, 1647.201
223.6606, 1654.315
224.1427, 1657.972
224.6249, 1648.402
225.1070, 1644.206
225.5891, 1659.631
226.0712, 1665.910
226.5533, 1689.094
227.0354, 1700.581
227.5176, 1701.000
227.9997, 1657.202
228.4818, 1670.501
228.9639, 1660.918
229.4460, 1650.397
229.9281, 1671.733
230.4103, 1634.365
230.8924, 1655.196
231.3745, 1671.451
231.8566, 1685.245
232.3387, 1698.374
232.8208, 1705.931
233.3030, 1701.910
233.7851, 1688.313
234.2672, 1652.492
234.7493, 1679.469
235.2314, 1694.750
235.7135, 1698.964
236.1957, 1658.959
236.6778, 1676.052
237.1599, 1670.264
237.6420, 1663.536
238.1241, 1688.666
238.6062, 1655.093
239.0884, 1679.717
239.5705, 1681.110
240.0526, 1693.136
240.5347, 1682.138
241.0168, 1678.251
241.4989, 1697.395
241.9811, 1703.787
242.4632, 1681.767
242.9453, 1649.147
243.4274, 1627.228
243.9095, 1617.585
244.3916, 1615.658
244.8738, 1622.658
245.3559, 1636.801
245.8380, 1649.644
246.3201, 1650.396
246.8022, 1632.270
247.2843, 1624.103
247.7665, 1629.062
248.2486, 1640.596
248.7307, 1658.869
249.2128, 1681.936
249.6949, 1699.794
250.1770, 1699.303
250.6592, 1671.237
251.1413, 1657.287
251.6234, 1668.442
252.1055, 1685.390
252.5876, 1695.121
253.0697, 1695.503
253.5519, 1689.995
254.0340, 1681.082
254.5161, 1666.467
254.9982, 1659.717
255.4803, 1668.971
255.9624, 1680.561
256.4445, 1682.820
256.9267, 1674.551
257.4088, 1663.784
257.8909, 1658.364
258.3730, 1659.443
258.8551, 1662.911
259.3372, 1669.119
259.8194, 1677.459
260.3015, 1691.209
260.7836, 1709.833
261.2657, 1722.327
261.7478, 1715.322
262.2299, 1684.684
262.7121, 1665.363
263.1942, 1667.679
263.6763, 1675.037
264.1584, 1672.163
264.6405, 1658.050
265.1227, 1645.140
265.6048, 1646.072
266.0869, 1662.164
266.5690, 1672.319
267.0511, 1674.394
267.5332, 1671.606
268.0154, 1663.675
268.4975, 1651.190
268.9796, 1641.714
269.4617, 1642.503
269.9438, 1653.779
270.4259, 1662.851
270.9081, 1670.886
271.3902, 1675.592
271.8723, 1674.361
272.3544, 1667.259
272.8365, 1657.040
273.3186, 1642.387
273.8008, 1625.509
274.2829, 1622.085
274.7650, 1646.503
275.2471, 1673.921
275.7292, 1685.362
276.2113, 1681.077
276.6935, 1672.716
277.1756, 1667.861
277.6577, 1665.507
278.1398, 1659.683
278.6219, 1645.170
279.1040, 1631.350
279.5862, 1625.603
280.0683, 1627.182
280.5504, 1629.854
281.0325, 1630.546
281.5146, 1629.071
281.9967, 1625.902
282.4789, 1617.844
282.9610, 1610.985
283.4431, 1610.944
283.9252, 1616.404
284.4073, 1619.794
284.8894, 1616.783
285.3716, 1608.861
285.8537, 1601.344
286.3358, 1591.882
286.8179, 1585.676
287.3000, 1585.362
287.7821, 1590.676
288.2643, 1602.087
288.7464, 1623.852
289.2285, 1648.362
289.7106, 1656.434
290.1927, 1638.300
290.6748, 1622.831
291.1570, 1628.583
291.6391, 1648.737
292.1212, 1661.924
292.6033, 1658.644
293.0854, 1645.518
293.5675, 1636.013
294.0497, 1630.802
294.5318, 1626.333
295.0139, 1619.522
295.4960, 1612.412
295.9781, 1610.222
296.4602, 1615.446
296.9424, 1624.578
297.4245, 1633.274
297.9066, 1643.734
298.3887, 1646.383
298.8708, 1631.865
299.3529, 1608.735
299.8351, 1590.823
300.3172, 1581.160
300.7993, 1579.455
301.2814, 1588.944
301.7635, 1610.790
302.2456, 1628.488
302.7278, 1639.287
303.2099, 1643.382
303.6920, 1637.951
304.1741, 1621.415
304.6562, 1604.717
305.1383, 1602.242
305.6205, 1615.000
306.1026, 1622.625
306.5847, 1617.641
307.0668, 1608.875
307.5489, 1606.107
308.0310, 1610.557
308.5132, 1615.605
308.9953, 1614.161
309.4774, 1606.006
309.9595, 1603.174
310.4416, 1615.555
310.9237, 1626.775
311.4059, 1621.698
311.8880, 1600.725
312.3701, 1576.619
312.8522, 1556.707
313.3343, 1542.185
313.8164, 1537.013
314.2986, 1546.104
314.7807, 1559.658
315.2628, 1576.290
315.7449, 1593.792
316.2270, 1603.678
316.7091, 1598.279
317.1913, 1581.506
317.6734, 1576.478
318.1555, 1591.171
318.6376, 1606.991
319.1197, 1619.193
319.6018, 1627.343
320.0840, 1629.651
320.5661, 1624.154
321.0482, 1614.202
321.5303, 1611.391
322.0124, 1623.271
322.4945, 1630.904
322.9767, 1627.152
323.4588, 1617.506
323.9409, 1610.476
324.4230, 1609.413
324.9051, 1610.951
325.3872, 1608.162
325.8694, 1597.530
326.3515, 1588.797
326.8336, 1585.502
327.3157, 1583.121
327.7978, 1574.144
328.2799, 1557.243
328.7621, 1542.362
329.2442, 1544.536
329.7263, 1576.321
330.2084, 1593.555
330.6905, 1586.503
331.1726, 1572.649
331.6548, 1563.267
332.1369, 1560.124
332.6190, 1559.697
333.1011, 1558.136
333.5832, 1554.418
334.0653, 1555.917
334.5475, 1569.671
335.0296, 1581.225
335.5117, 1578.262
335.9938, 1565.772
336.4759, 1561.676
336.9580, 1582.801
337.4402, 1628.336
337.9223, 1643.459
338.4044, 1586.010
338.8865, 1544.839
339.3686, 1559.591
339.8507, 1604.431
340.3329, 1631.081
340.8150, 1610.296
341.2971, 1556.120
341.7792, 1529.403
342.2613, 1562.704
342.7434, 1583.819
343.2256, 1577.421
343.7077, 1558.316
344.1898, 1540.985
344.6719, 1531.248
345.1540, 1528.527
345.6361, 1532.808
346.1183, 1550.529
346.6004, 1562.679
347.0825, 1565.524
347.5646, 1564.974
348.0467, 1566.713
348.5288, 1571.218
349.0110, 1572.804
349.4931, 1561.576
349.9752, 1531.695
350.4573, 1512.203
350.9394, 1504.756
351.4215, 1507.099
351.9037, 1526.520
352.3858, 1557.605
352.8679, 1582.508
353.3500, 1581.709
353.8321, 1556.300
354.3142, 1543.459
354.7964, 1550.889
355.2785, 1562.652
355.7606, 1576.057
356.2427, 1588.589
356.7248, 1596.237
357.2069, 1597.264
357.6891, 1591.515
358.1712, 1574.526
358.6533, 1534.754
359.1354, 1510.259
359.6175, 1533.293
360.0996, 1572.598
360.5818, 1591.000
361.0639, 1572.376
361.5460, 1539.858
362.0281, 1524.360
362.5102, 1527.576
362.9923, 1532.167
363.4745, 1534.973
363.9566, 1534.978
364.4387, 1530.086
364.9208, 1519.370
365.4029, 1509.158
365.8850, 1501.046
366.3672, 1496.329
366.8493, 1504.582
367.3314, 1536.319
367.8135, 1568.929
368.2956, 1578.372
368.7777, 1566.419
369.2599, 1549.794
369.7420, 1530.510
370.2241, 1512.238
370.7062, 1502.307
371.1883, 1502.379
371.6704, 1505.702
372.1526, 1506.260
372.6347, 1505.020
373.1168, 1507.594
373.5989, 1518.399
374.0810, 1530.523
374.5631, 1538.898
375.0453, 1543.492
375.5274, 1545.533
376.0095, 1545.549
376.4916, 1543.536
376.9737, 1539.923
377.4558, 1533.401
377.9380, 1526.956
378.4201, 1520.198
378.9022, 1514.394
379.3843, 1511.681
379.8664, 1512.730
380.3485, 1518.156
380.8307, 1530.112
381.3128, 1557.941
381.7949, 1574.819
382.2770, 1570.615
382.7591, 1559.372
383.2412, 1555.738
383.7234, 1561.873
384.2055, 1568.129
384.6876, 1562.617
385.1697, 1541.357
385.6518, 1525.164
386.1339, 1510.526
386.6161, 1503.063
387.0982, 1509.718
387.5803, 1526.480
388.0624, 1542.855
388.5445, 1551.329
389.0266, 1552.496
389.5088, 1552.700
389.9909, 1551.122
390.4730, 1549.435
390.9551, 1547.559
391.4372, 1545.855
391.9193, 1544.156
392.4015, 1542.306
392.8836, 1541.881
393.3657, 1547.963
393.8478, 1567.135
394.3299, 1576.118
394.8120, 1563.878
395.2942, 1546.613
395.7763, 1533.776
396.2584, 1527.223
396.7405, 1525.010
397.2226, 1522.696
397.7047, 1520.185
398.1869, 1533.303
398.6690, 1582.732
399.1511, 1624.054
399.6332, 1630.366
400.1153, 1608.817
400.5974, 1580.646
401.0796, 1549.974
401.5617, 1522.208
402.0438, 1511.826
402.5259, 1522.776
403.0080, 1535.577
403.4901, 1538.920
403.9723, 1537.711
404.4544, 1539.596
404.9365, 1548.255
405.4186, 1556.275
405.9007, 1555.357
406.3828, 1547.412
406.8650, 1543.203
407.3471, 1547.425
407.8292, 1555.996
408.3113, 1564.073
408.7934, 1573.619
409.2755, 1574.797
409.7577, 1553.667
410.2398, 1526.563
410.7219, 1518.355
411.2040, 1533.477
411.6861, 1554.499
412.1682, 1564.135
412.6504, 1560.441
413.1325, 1560.173
413.6146, 1565.575
414.0967, 1572.184
414.5788, 1577.869
415.0609, 1582.676
415.5431, 1588.739
416.0252, 1598.499
416.5073, 1608.721
416.9894, 1604.017
417.4715, 1559.742
417.9536, 1530.115
418.4358, 1529.463
418.9179, 1541.814
419.4000, 1549.529
419.8821, 1547.407
420.3642, 1543.341
420.8463, 1551.867
421.3285, 1583.804
421.8106, 1598.049
422.2927, 1577.142
422.7748, 1554.863
423.2569, 1548.019
423.7390, 1555.118
424.2212, 1565.189
424.7033, 1571.180
425.1854, 1573.064
425.6675, 1569.257
426.1496, 1552.605
426.6317, 1542.812
427.1139, 1553.158
427.5960, 1571.780
428.0781, 1583.685
428.5602, 1583.154
429.0423, 1575.902
429.5244, 1565.864
430.0066, 1552.815
430.4887, 1547.794
430.9708, 1558.620
431.4529, 1574.640
431.9350, 1584.466
432.4171, 1588.014
432.8993, 1587.522
433.3814, 1581.599
433.8635, 1572.965
434.3456, 1567.410
434.8277, 1566.211
435.3098, 1563.574
435.7920, 1552.220
436.2741, 1533.476
436.7562, 1523.858
437.2383, 1530.313
437.7204, 1540.132
438.2025, 1545.572
438.6847, 1548.192
439.1668, 1554.741
439.6489, 1569.761
440.1310, 1587.325
440.6131, 1591.056
441.0952, 1566.910
441.5774, 1548.492
442.0595, 1537.495
442.5416, 1532.747
443.0237, 1534.587
443.5058, 1542.347
443.9879, 1553.211
444.4701, 1564.955
444.9522, 1578.512
445.4343, 1585.910
445.9164, 1578.709
446.3985, 1573.796
446.8806, 1581.882
447.3628, 1595.477
447.8449, 1599.232
448.3270, 1582.944
448.8091, 1556.530
449.2912, 1545.175
449.7733, 1553.610
450.2555, 1564.129
450.7375, 1576.589
451.2197, 1586.623
451.7018, 1590.341
452.1839, 1587.109
452.6660, 1580.495
453.1481, 1571.009
453.6302, 1559.922
454.1124, 1553.668
454.5945, 1554.150
455.0766, 1556.861
455.5587, 1558.969
456.0408, 1560.456
456.5229, 1560.922
457.0051, 1558.902
457.4872, 1556.882
457.9693, 1556.290
458.4514, 1557.372
458.9335, 1561.878
459.4156, 1571.637
459.8978, 1584.084
460.3799, 1592.379
460.8620, 1597.080
461.3441, 1597.528
461.8262, 1588.361
462.3083, 1577.615
462.7905, 1575.917
463.2726, 1584.224
463.7547, 1592.417
464.2368, 1588.971
464.7189, 1571.620
465.2010, 1562.550
465.6832, 1568.673
466.1653, 1575.204
466.6474, 1576.675
467.1295, 1575.511
467.6116, 1577.335
468.0938, 1585.421
468.5759, 1594.807
469.0580, 1592.153
469.5401, 1570.057
470.0222, 1557.033
470.5043, 1565.464
470.9865, 1579.151
471.4686, 1589.020
471.9507, 1594.092
472.4328, 1597.459
472.9149, 1603.427
473.3970, 1609.743
473.8792, 1605.668
474.3613, 1586.095
474.8434, 1570.166
475.3255, 1576.297
475.8076, 1569.956
476.2897, 1598.747
476.7719, 1615.841
477.2540, 1621.868
477.7361, 1583.677
478.2182, 1602.583
478.7003, 1598.608
479.1824, 1593.694
479.6646, 1620.637
480.1467, 1588.877
480.6288, 1615.315
481.1109, 1618.521
481.5930, 1632.359
482.0751, 1623.175
482.5573, 1617.293
483.0394, 1605.215
483.5215, 1593.875
484.0036, 1589.511
484.4857, 1591.314
484.9678, 1594.061
485.4500, 1599.528
485.9321, 1603.502
486.4142, 1605.125
486.8963, 1605.220
487.3784, 1604.343
487.8605, 1602.714
488.3427, 1600.740
488.8248, 1598.701
489.3069, 1596.577
489.7890, 1595.043
490.2711, 1594.321
490.7532, 1593.991
491.2354, 1592.723
491.7175, 1591.618
492.1996, 1593.572
492.6817, 1602.755
493.1638, 1612.361
493.6459, 1612.050
494.1281, 1602.741
494.6102, 1597.769
495.0923, 1603.723
495.5744, 1614.732
496.0565, 1619.927
496.5386, 1617.775
497.0208, 1617.999
497.5029, 1629.550
497.9850, 1640.467
498.4671, 1634.772
498.9492, 1613.403
499.4313, 1593.732
499.9135, 1590.431
500.3956, 1601.930
500.8777, 1607.051
501.3598, 1600.342
501.8419, 1593.750
502.3240, 1584.031
502.8062, 1577.799
503.2883, 1587.408
503.7704, 1614.825
504.2525, 1641.264
504.7346, 1637.947
505.2167, 1598.903
505.6989, 1573.153
506.1810, 1564.785
506.6631, 1567.749
507.1452, 1587.521
507.6273, 1615.281
508.1094, 1631.295
508.5916, 1621.841
509.0737, 1603.425
509.5558, 1601.237
510.0379, 1614.492
510.5200, 1618.576
511.0021, 1599.760
511.4843, 1574.041
511.9664, 1566.733
512.4485, 1579.415
512.9306, 1592.853
513.4127, 1606.650
513.8948, 1616.091
514.3770, 1611.990
514.8591, 1596.460
515.3412, 1584.948
515.8233, 1588.446
516.3054, 1605.063
516.7875, 1622.581
517.2697, 1653.476
517.7518, 1669.493
518.2339, 1660.889
518.7160, 1640.212
519.1981, 1613.802
519.6802, 1585.699
520.1624, 1566.791
520.6445, 1573.586
521.1266, 1606.996
521.6087, 1629.099
522.0908, 1638.923
522.5729, 1637.819
523.0551, 1617.570
523.5372, 1590.369
524.0193, 1576.522
524.5014, 1585.491
524.9835, 1601.379
525.4656, 1608.778
525.9478, 1609.254
526.4299, 1611.382
526.9120, 1617.794
527.3941, 1625.202
527.8762, 1629.226
528.3583, 1629.652
528.8405, 1632.219
529.3226, 1644.720
529.8047, 1653.117
530.2868, 1644.679
530.7689, 1624.263
531.2510, 1605.378
531.7332, 1594.776
532.2153, 1590.440
532.6974, 1587.588
533.1795, 1586.534
533.6616, 1586.520
534.1437, 1587.023
534.6259, 1588.816
535.1080, 1592.870
535.5901, 1598.775
536.0722, 1605.081
536.5543, 1611.016
537.0364, 1616.440
537.5186, 1621.580
538.0007, 1627.580
538.4828, 1628.654
538.9649, 1614.228
539.4470, 1599.004
539.9291, 1604.428
540.4113, 1636.108
540.8934, 1657.968
541.3755, 1641.027
541.8576, 1607.353
542.3397, 1591.988
542.8218, 1598.674
543.3040, 1610.879
543.7861, 1616.675
544.2682, 1617.159
544.7503, 1621.801
545.2324, 1641.070
545.7145, 1650.927
546.1967, 1637.811
546.6788, 1617.527
547.1609, 1607.656
547.6430, 1611.675
548.1251, 1620.195
548.6072, 1623.197
549.0894, 1620.514
549.5715, 1617.651
550.0536, 1614.248
550.5357, 1611.213
551.0178, 1607.678
551.4999, 1605.067
551.9821, 1605.503
552.4642, 1609.906
552.9463, 1616.175
553.4284, 1623.016
553.9105, 1630.219
554.3926, 1636.942
554.8748, 1643.103
555.3569, 1648.433
555.8390, 1652.589
556.3211, 1655.535
556.8032, 1657.934
557.2853, 1664.421
557.7675, 1665.512
558.2496, 1651.714
558.7317, 1630.686
559.2138, 1615.232
559.6959, 1610.023
560.1780, 1611.504
560.6602, 1615.036
561.1423, 1621.522
561.6244, 1626.446
562.1065, 1625.402
562.5886, 1627.198
563.0707, 1641.124
563.5529, 1659.009
564.0350, 1664.651
564.5171, 1648.176
564.9992, 1625.540
565.4813, 1617.964
565.9634, 1624.710
566.4456, 1635.247
566.9277, 1650.975
567.4098, 1663.349
567.8919, 1656.615
568.3740, 1633.591
568.8561, 1625.801
569.3383, 1655.724
569.8204, 1685.759
570.3025, 1690.864
570.7846, 1676.668
571.2667, 1655.221
571.7488, 1631.163
572.2310, 1611.773
572.7131, 1612.635
573.1952, 1647.218
573.6773, 1665.560
574.1594, 1654.296
574.6415, 1641.028
575.1237, 1638.501
575.6058, 1642.990
576.0879, 1643.906
576.5700, 1634.437
577.0521, 1623.551
577.5342, 1628.253
578.0164, 1648.671
578.4985, 1661.880
578.9806, 1660.983
579.4627, 1653.584
579.9448, 1646.351
580.4269, 1639.276
580.9091, 1632.392
581.3912, 1625.151
581.8733, 1618.587
582.3554, 1610.394
582.8375, 1603.467
583.3196, 1606.587
583.8018, 1623.746
584.2839, 1646.140
584.7660, 1658.067
585.2481, 1654.952
585.7302, 1654.200
586.2123, 1658.670
586.6945, 1662.500
587.1766, 1665.434
587.6587, 1665.589
588.1408, 1658.149
588.6229, 1638.536
589.1050, 1618.118
589.5872, 1614.260
590.0693, 1626.446
590.5514, 1642.177
591.0335, 1663.284
591.5156, 1679.336
591.9977, 1674.510
592.4799, 1652.226
592.9620, 1638.454
593.4441, 1644.581
593.9262, 1652.322
594.4083, 1647.761
594.8904, 1637.565
595.3726, 1638.485
595.8547, 1656.106
596.3368, 1675.316
596.8189, 1671.428
597.3010, 1635.864
597.7831, 1618.415
598.2653, 1636.848
598.7474, 1655.619
599.2295, 1666.891
599.7116, 1670.385
600.1937, 1664.012
600.6758, 1644.797
601.1580, 1627.482
601.6401, 1630.428
602.1222, 1649.783
602.6043, 1668.010
603.0864, 1683.622
603.5685, 1692.780
604.0507, 1689.821
604.5328, 1676.072
605.0149, 1667.289
605.4970, 1666.019
605.9791, 1666.655
606.4612, 1667.913
606.9434, 1669.695
607.4255, 1674.365
607.9076, 1681.260
608.3897, 1682.281
608.8718, 1664.769
609.3539, 1629.581
609.8361, 1620.196
610.3182, 1656.481
610.8003, 1685.612
611.2824, 1687.236
611.7645, 1675.229
612.2466, 1661.452
612.7288, 1647.450
613.2109, 1639.486
613.6930, 1645.451
614.1751, 1659.055
614.6572, 1670.806
615.1393, 1679.667
615.6215, 1681.484
616.1036, 1671.965
616.5857, 1654.813
617.0678, 1643.285
617.5499, 1637.597
618.0320, 1637.398
618.5142, 1645.130
618.9963, 1656.494
619.4784, 1673.457
619.9605, 1691.844
620.4426, 1698.946
620.9247, 1682.711
621.4069, 1653.915
621.8890, 1643.210
622.3711, 1654.369
622.8532, 1661.245
623.3353, 1655.030
623.8174, 1643.949
624.2996, 1634.265
624.7817, 1626.191
625.2638, 1624.928
625.7459, 1642.809
626.2280, 1658.531
626.7101, 1648.201
627.1923, 1622.226
627.6744, 1609.774
628.1565, 1622.583
628.6386, 1647.131
629.1207, 1661.939
629.6028, 1664.470
630.0850, 1667.532
630.5671, 1668.521
631.0492, 1672.909
631.5313, 1689.658
632.0134, 1708.744
632.4955, 1712.598
632.9777, 1693.363
633.4598, 1671.549
633.9419, 1670.292
634.4240, 1682.872
634.9061, 1685.092
635.3882, 1672.441
635.8704, 1659.820
636.3525, 1659.513
636.8346, 1668.855
637.3167, 1670.527
637.7988, 1657.301
638.2809, 1647.099
638.7631, 1640.459
639.2452, 1639.706
639.7273, 1653.727
640.2094, 1678.253
640.6915, 1692.255
641.1736, 1675.225
641.6558, 1638.958
642.1379, 1627.655
642.6200, 1647.730
643.1021, 1664.720
643.5842, 1667.570
644.0663, 1664.553
644.5485, 1663.780
645.0306, 1665.229
645.5127, 1668.638
645.9948, 1678.204
646.4769, 1686.011
646.9590, 1681.288
647.4412, 1669.821
647.9233, 1668.388
648.4054, 1683.571
648.8875, 1703.176
649.3696, 1708.363
649.8517, 1695.968
650.3339, 1684.943
650.8160, 1673.868
651.2981, 1666.148
651.7802, 1663.452
652.2623, 1664.389
652.7444, 1667.855
653.2266, 1674.144
653.7087, 1678.943
654.1908, 1676.756
654.6729, 1671.164
655.1550, 1671.706
655.6371, 1679.255
656.1193, 1682.811
656.6014, 1673.169
657.0835, 1655.724
657.5656, 1651.032
658.0477, 1678.166
658.5298, 1691.935
659.0120, 1677.941
659.4941, 1662.381
659.9762, 1665.199
660.4583, 1682.812
660.9404, 1699.166
661.4225, 1705.480
661.9047, 1705.205
662.3868, 1703.360
662.8689, 1699.994
663.3510, 1696.865
