##NAMES=Dolerophanite
##RRUFFID=R070652
##IDEAL CHEMISTRY=Cu^2+^_2_OS^6+^O_4_
##LOCALITY=First scoria cone, Northern Breakthrough (North Breach), Great Fissure (Main Fracture) eruption, Tolbachik volcano, Kamchatka Oblast', Far-Eastern Region, Russia
##OWNER=RRUFF
##SOURCE=Michael Scott
##DESCRIPTION=Very dark brown prismatic crystal to golden brown crystal fragments associated with euchlorine
##STATUS=The identification of this mineral has been confirmed by single-crystal X-ray diffraction.
##URL=rruff.info/R070652
107.0261, 2385.144
107.5082, 2538.039
107.9903, 2656.051
108.4724, 2726.637
108.9545, 2765.321
109.4366, 2800.373
109.9188, 2851.365
110.4009, 2883.031
110.8830, 2883.742
111.3651, 2827.973
111.8472, 2774.048
112.3293, 2716.438
112.8115, 2659.325
113.2936, 2626.835
113.7757, 2657.897
114.2578, 2696.657
114.7399, 2703.385
115.2220, 2634.287
115.7041, 2564.970
116.1863, 2515.721
116.6684, 2488.629
117.1505, 2474.540
117.6326, 2470.341
118.1147, 2477.097
118.5968, 2496.327
119.0790, 2544.300
119.5611, 2595.255
120.0432, 2628.104
120.5253, 2626.932
121.0074, 2635.719
121.4895, 2686.080
121.9717, 2770.341
122.4538, 2862.900
122.9359, 2974.423
123.4180, 3078.680
123.9001, 3142.220
124.3822, 3136.034
124.8644, 3099.532
125.3465, 3069.940
125.8286, 3047.198
126.3107, 3026.592
126.7928, 2999.553
127.2749, 2970.829
127.7571, 2953.029
128.2392, 2960.868
128.7213, 2982.338
129.2034, 2991.657
129.6855, 2983.136
130.1676, 2962.420
130.6498, 2955.956
131.1319, 2970.331
131.6140, 2974.450
132.0961, 2938.701
132.5782, 2872.033
133.0603, 2821.698
133.5425, 2795.810
134.0246, 2788.560
134.5067, 2786.339
134.9888, 2788.911
135.4709, 2796.947
135.9530, 2810.767
136.4352, 2830.086
136.9173, 2856.111
137.3994, 2888.943
137.8815, 2928.720
138.3636, 2977.445
138.8457, 3039.181
139.3279, 3103.907
139.8100, 3158.139
140.2921, 3201.959
140.7742, 3237.304
141.2563, 3263.165
141.7384, 3275.709
142.2206, 3292.652
142.7027, 3312.899
143.1848, 3337.697
143.6669, 3373.680
144.1490, 3426.730
144.6311, 3481.600
145.1133, 3528.303
145.5954, 3560.927
146.0775, 3597.726
146.5596, 3645.100
147.0417, 3702.214
147.5238, 3744.320
148.0060, 3759.320
148.4881, 3767.935
148.9702, 3788.849
149.4523, 3844.593
149.9344, 3887.480
150.4165, 3902.812
150.8987, 3875.408
151.3808, 3871.072
151.8629, 3900.586
152.3450, 3950.367
152.8271, 3999.957
153.3092, 4056.745
153.7914, 4106.371
154.2735, 4142.664
154.7556, 4154.567
155.2377, 4170.547
155.7198, 4191.979
156.2019, 4219.418
156.6841, 4254.683
157.1662, 4317.305
157.6483, 4376.071
158.1304, 4412.713
158.6125, 4414.073
159.0946, 4402.914
159.5768, 4388.987
160.0589, 4371.168
160.5410, 4331.933
161.0231, 4251.841
161.5052, 4152.911
161.9873, 4056.431
162.4695, 3975.957
162.9516, 3893.318
163.4337, 3798.936
163.9158, 3690.081
164.3979, 3582.456
164.8800, 3478.832
165.3622, 3381.420
165.8443, 3293.836
166.3264, 3228.636
166.8085, 3167.152
167.2906, 3093.629
167.7727, 3000.304
168.2549, 2910.329
168.7370, 2836.157
169.2191, 2776.584
169.7012, 2727.973
170.1833, 2693.091
170.6654, 2666.731
171.1476, 2645.129
171.6297, 2637.510
172.1118, 2623.051
172.5939, 2578.213
173.0760, 2506.526
173.5581, 2433.343
174.0403, 2372.535
174.5224, 2322.625
175.0045, 2281.069
175.4866, 2248.120
175.9687, 2222.901
176.4508, 2208.209
176.9330, 2204.788
177.4151, 2198.713
177.8972, 2174.832
178.3793, 2137.596
178.8614, 2099.754
179.3435, 2059.541
179.8257, 2023.886
180.3078, 2007.693
180.7899, 2014.855
181.2720, 2029.105
181.7541, 2031.679
182.2362, 2024.129
182.7184, 2015.104
183.2005, 2006.599
183.6826, 2000.350
184.1647, 2002.596
184.6468, 2017.566
185.1289, 2035.890
185.6111, 2039.282
186.0932, 2028.387
186.5753, 2018.080
187.0574, 2019.732
187.5395, 2031.755
188.0216, 2047.162
188.5037, 2065.777
188.9859, 2085.649
189.4680, 2102.635
189.9501, 2116.616
190.4322, 2127.377
190.9143, 2132.179
191.3964, 2131.656
191.8786, 2134.250
192.3607, 2144.124
192.8428, 2159.430
193.3249, 2170.981
193.8070, 2177.616
194.2891, 2184.242
194.7713, 2197.227
195.2534, 2216.831
195.7355, 2239.226
196.2176, 2263.684
196.6997, 2289.854
197.1818, 2316.373
197.6640, 2343.211
198.1461, 2370.282
198.6282, 2398.075
199.1103, 2426.983
199.5924, 2453.879
200.0745, 2476.369
200.5567, 2493.762
201.0388, 2513.462
201.5209, 2537.375
202.0030, 2562.649
202.4851, 2583.760
202.9672, 2602.385
203.4494, 2610.337
203.9315, 2598.127
204.4136, 2562.114
204.8957, 2530.034
205.3778, 2505.597
205.8599, 2487.810
206.3421, 2472.263
206.8242, 2459.600
207.3063, 2447.866
207.7884, 2435.471
208.2705, 2422.331
208.7526, 2409.345
209.2348, 2398.153
209.7169, 2388.377
210.1990, 2368.214
210.6811, 2330.384
211.1632, 2293.570
211.6453, 2281.089
212.1275, 2301.560
212.6096, 2320.148
213.0917, 2326.751
213.5738, 2320.114
214.0559, 2314.623
214.5380, 2308.553
215.0202, 2305.339
215.5023, 2311.338
215.9844, 2329.765
216.4665, 2349.704
216.9486, 2366.878
217.4307, 2379.940
217.9129, 2396.447
218.3950, 2419.427
218.8771, 2444.087
219.3592, 2458.937
219.8413, 2456.538
220.3234, 2458.282
220.8056, 2475.490
221.2877, 2516.440
221.7698, 2549.748
222.2519, 2570.475
222.7340, 2583.874
223.2161, 2608.645
223.6983, 2648.597
224.1804, 2693.563
224.6625, 2738.636
225.1446, 2786.621
225.6267, 2826.922
226.1088, 2854.334
226.5910, 2872.240
227.0731, 2903.038
227.5552, 2949.188
228.0373, 3004.690
228.5194, 3067.596
229.0015, 3146.186
229.4836, 3212.678
229.9658, 3262.907
230.4479, 3297.555
230.9300, 3321.403
231.4121, 3336.330
231.8942, 3338.661
232.3763, 3323.132
232.8585, 3281.080
233.3406, 3239.061
233.8227, 3204.665
234.3048, 3179.034
234.7869, 3140.160
235.2690, 3083.554
235.7512, 3017.191
236.2333, 2948.816
236.7154, 2875.389
237.1975, 2805.315
237.6796, 2739.001
238.1617, 2676.550
238.6439, 2619.877
239.1260, 2571.774
239.6081, 2527.445
240.0902, 2479.235
240.5723, 2417.910
241.0544, 2366.773
241.5366, 2333.513
242.0187, 2322.592
242.5008, 2312.618
242.9829, 2305.256
243.4650, 2297.923
243.9471, 2284.857
244.4293, 2258.825
244.9114, 2238.284
245.3935, 2231.546
245.8756, 2245.813
246.3577, 2252.736
246.8398, 2249.432
247.3220, 2239.789
247.8041, 2232.813
248.2862, 2231.603
248.7683, 2228.287
249.2504, 2219.227
249.7325, 2201.513
250.2147, 2185.023
250.6968, 2171.239
251.1789, 2158.462
251.6610, 2140.730
252.1431, 2112.650
252.6252, 2087.647
253.1074, 2074.255
253.5895, 2081.497
254.0716, 2077.754
254.5537, 2058.366
255.0358, 2027.349
255.5179, 1998.766
256.0001, 1970.099
256.4822, 1947.695
256.9643, 1934.829
257.4464, 1932.105
257.9285, 1938.492
258.4106, 1958.223
258.8928, 1987.618
259.3749, 2007.118
259.8570, 2015.509
260.3391, 2016.181
260.8212, 2007.135
261.3033, 1977.388
261.7855, 1970.239
262.2676, 2000.067
262.7497, 2058.601
263.2318, 2091.933
263.7139, 2089.341
264.1960, 2079.040
264.6782, 2085.088
265.1603, 2116.741
265.6424, 2136.329
266.1245, 2137.410
266.6066, 2121.534
267.0887, 2100.481
267.5709, 2073.745
268.0530, 2043.132
268.5351, 2008.907
269.0172, 1968.706
269.4993, 1934.050
269.9814, 1908.756
270.4636, 1891.549
270.9457, 1870.489
271.4278, 1843.700
271.9099, 1817.025
272.3920, 1796.614
272.8741, 1783.300
273.3563, 1772.617
273.8384, 1764.930
274.3205, 1759.615
274.8026, 1748.297
275.2847, 1727.764
275.7668, 1708.867
276.2490, 1707.779
276.7311, 1728.821
277.2132, 1738.807
277.6953, 1725.340
278.1774, 1691.509
278.6595, 1668.455
279.1417, 1658.516
279.6238, 1652.822
280.1059, 1640.884
280.5880, 1621.972
281.0701, 1605.403
281.5522, 1593.789
282.0344, 1586.872
282.5165, 1584.502
282.9986, 1587.793
283.4807, 1591.830
283.9628, 1589.041
284.4449, 1579.292
284.9271, 1573.968
285.4092, 1578.073
285.8913, 1589.901
286.3734, 1601.900
286.8555, 1614.675
287.3376, 1624.941
287.8198, 1627.007
288.3019, 1621.363
288.7840, 1616.672
289.2661, 1612.941
289.7482, 1612.360
290.2303, 1627.199
290.7124, 1659.527
291.1945, 1694.328
291.6767, 1714.895
292.1588, 1722.402
292.6409, 1725.250
293.1230, 1725.723
293.6051, 1723.955
294.0872, 1718.332
294.5694, 1707.978
295.0515, 1700.359
295.5336, 1710.154
296.0157, 1732.050
296.4978, 1742.946
296.9799, 1726.093
297.4621, 1693.198
297.9442, 1670.448
298.4263, 1658.114
298.9084, 1649.108
299.3905, 1638.071
299.8727, 1624.966
300.3548, 1609.663
300.8369, 1591.761
301.3190, 1571.868
301.8011, 1548.165
302.2832, 1519.918
302.7654, 1497.311
303.2475, 1498.892
303.7296, 1512.950
304.2117, 1514.106
304.6938, 1478.463
305.1759, 1430.396
305.6581, 1398.843
306.1402, 1384.102
306.6223, 1376.487
307.1044, 1367.514
307.5865, 1360.410
308.0686, 1360.814
308.5508, 1378.383
309.0329, 1399.899
309.5150, 1414.219
309.9971, 1421.283
310.4792, 1424.451
310.9613, 1421.584
311.4435, 1417.231
311.9256, 1417.614
312.4077, 1430.933
312.8898, 1445.463
313.3719, 1452.854
313.8540, 1452.784
314.3362, 1452.481
314.8183, 1453.315
315.3004, 1456.665
315.7825, 1464.083
316.2646, 1478.742
316.7467, 1495.287
317.2289, 1511.486
317.7110, 1527.252
318.1931, 1543.193
318.6752, 1556.401
319.1573, 1571.190
319.6394, 1591.667
320.1216, 1630.151
320.6037, 1663.789
321.0858, 1684.501
321.5679, 1692.071
322.0500, 1695.854
322.5321, 1682.210
323.0143, 1673.723
323.4964, 1688.391
323.9785, 1764.264
324.4606, 1827.092
324.9427, 1856.047
325.4248, 1852.048
325.9070, 1853.421
326.3891, 1867.557
326.8712, 1886.368
327.3533, 1904.314
327.8354, 1921.495
328.3175, 1937.289
328.7997, 1951.732
329.2818, 1964.736
329.7639, 1976.185
330.2460, 1987.054
330.7281, 1995.704
331.2102, 2001.899
331.6924, 2014.204
332.1745, 2010.490
332.6566, 1985.432
333.1387, 1941.678
333.6208, 1894.059
334.1029, 1834.741
334.5851, 1782.954
335.0672, 1753.247
335.5493, 1758.240
336.0314, 1754.722
336.5135, 1738.467
336.9956, 1711.582
337.4778, 1678.777
337.9599, 1634.809
338.4420, 1596.855
338.9241, 1577.634
339.4062, 1582.080
339.8883, 1579.515
340.3705, 1565.868
340.8526, 1545.347
341.3347, 1528.366
341.8168, 1515.811
342.2989, 1503.119
342.7810, 1488.299
343.2632, 1471.227
343.7453, 1450.577
344.2274, 1424.619
344.7095, 1397.576
345.1916, 1376.619
345.6737, 1361.859
346.1559, 1350.028
346.6380, 1340.750
347.1201, 1333.203
347.6022, 1323.120
348.0843, 1310.177
348.5664, 1295.011
349.0486, 1273.906
349.5307, 1248.927
350.0128, 1232.707
350.4949, 1241.431
350.9770, 1261.265
351.4591, 1260.392
351.9413, 1235.096
352.4234, 1206.319
352.9055, 1199.419
353.3876, 1206.677
353.8697, 1208.185
354.3518, 1185.501
354.8340, 1157.296
355.3161, 1147.867
355.7982, 1158.755
356.2803, 1169.905
356.7624, 1164.192
357.2445, 1149.292
357.7267, 1137.220
358.2088, 1132.168
358.6909, 1131.795
359.1730, 1137.556
359.6551, 1149.101
360.1372, 1156.277
360.6194, 1150.406
361.1015, 1138.817
361.5836, 1128.909
362.0657, 1119.758
362.5478, 1115.854
363.0299, 1123.436
363.5121, 1140.650
363.9942, 1151.078
364.4763, 1143.236
364.9584, 1130.584
365.4405, 1122.451
365.9226, 1125.356
366.4048, 1127.740
366.8869, 1128.801
367.3690, 1128.246
367.8511, 1124.489
368.3332, 1110.258
368.8153, 1098.119
369.2975, 1094.291
369.7796, 1108.608
370.2617, 1117.639
370.7438, 1117.729
371.2259, 1112.729
371.7080, 1113.497
372.1901, 1123.077
372.6722, 1134.475
373.1544, 1145.908
373.6365, 1160.199
374.1186, 1166.709
374.6007, 1164.312
375.0828, 1155.089
375.5649, 1140.292
376.0471, 1114.492
376.5292, 1098.207
377.0113, 1102.838
377.4934, 1130.291
377.9755, 1148.454
378.4576, 1156.211
378.9398, 1157.672
379.4219, 1156.452
379.9040, 1152.179
380.3861, 1151.159
380.8682, 1156.692
381.3503, 1167.273
381.8325, 1175.877
382.3146, 1182.055
382.7967, 1188.437
383.2788, 1199.239
383.7609, 1212.986
384.2430, 1222.696
384.7252, 1222.073
385.2073, 1219.376
385.6894, 1231.472
386.1715, 1257.488
386.6536, 1284.573
387.1357, 1304.188
387.6179, 1318.084
388.1000, 1328.749
388.5821, 1336.583
389.0642, 1341.844
389.5463, 1340.584
390.0284, 1335.644
390.5106, 1337.197
390.9927, 1350.894
391.4748, 1373.729
391.9569, 1404.495
392.4390, 1446.045
392.9211, 1487.304
393.4033, 1523.213
393.8854, 1554.260
394.3675, 1582.213
394.8496, 1600.155
395.3317, 1620.936
395.8138, 1650.239
396.2960, 1688.423
396.7781, 1735.649
397.2602, 1799.184
397.7423, 1869.394
398.2244, 1934.906
398.7065, 1988.405
399.1887, 2042.906
399.6708, 2102.546
400.1529, 2168.330
400.6350, 2229.798
401.1171, 2277.472
401.5992, 2327.953
402.0814, 2395.977
402.5635, 2495.961
403.0456, 2587.462
403.5277, 2661.410
404.0098, 2721.145
404.4919, 2789.998
404.9741, 2869.250
405.4562, 2955.914
405.9383, 3045.867
406.4204, 3139.454
406.9025, 3239.895
407.3846, 3348.569
407.8668, 3463.290
408.3489, 3577.914
408.8310, 3690.806
409.3131, 3811.238
409.7952, 3950.575
410.2773, 4104.794
410.7595, 4240.403
411.2416, 4355.164
411.7237, 4456.221
412.2058, 4545.731
412.6879, 4626.495
413.1700, 4715.646
413.6522, 4844.545
414.1343, 4977.065
414.6164, 5054.684
415.0985, 5075.620
415.5806, 5069.194
416.0627, 5055.089
416.5449, 5030.815
417.0270, 4992.180
417.5091, 4942.491
417.9912, 4874.506
418.4733, 4773.292
418.9554, 4644.660
419.4376, 4518.229
419.9197, 4410.277
420.4018, 4310.648
420.8839, 4212.516
421.3660, 4106.449
421.8481, 4011.701
422.3303, 3941.872
422.8124, 3887.266
423.2945, 3820.515
423.7766, 3719.363
424.2587, 3618.716
424.7408, 3532.520
425.2230, 3471.245
425.7051, 3403.509
426.1872, 3322.036
426.6693, 3235.856
427.1514, 3157.620
427.6335, 3091.231
428.1157, 3025.188
428.5978, 2954.745
429.0799, 2879.753
429.5620, 2814.892
430.0441, 2761.763
430.5262, 2718.148
431.0084, 2683.556
431.4905, 2658.597
431.9726, 2637.341
432.4547, 2619.732
432.9368, 2604.513
433.4189, 2585.169
433.9011, 2561.102
434.3832, 2543.423
434.8653, 2539.879
435.3474, 2549.272
435.8295, 2568.195
436.3116, 2598.950
436.7938, 2631.648
437.2759, 2655.825
437.7580, 2671.180
438.2401, 2676.057
438.7222, 2654.944
439.2043, 2629.731
439.6865, 2633.190
440.1686, 2669.602
440.6507, 2701.679
441.1328, 2695.933
441.6149, 2671.289
442.0970, 2653.332
442.5792, 2655.684
443.0613, 2662.960
443.5434, 2667.902
444.0255, 2670.810
444.5076, 2676.126
444.9897, 2690.661
445.4719, 2704.596
445.9540, 2711.305
446.4361, 2697.158
446.9182, 2692.588
447.4003, 2706.844
447.8824, 2733.078
448.3646, 2752.790
448.8467, 2762.889
449.3288, 2769.828
449.8109, 2772.966
450.2930, 2767.279
450.7751, 2780.711
451.2573, 2822.211
451.7394, 2873.123
452.2215, 2908.551
452.7036, 2925.836
453.1857, 2939.783
453.6678, 2951.214
454.1500, 2962.289
454.6320, 2985.337
455.1142, 3021.788
455.5963, 3060.610
456.0784, 3092.160
456.5605, 3117.729
457.0426, 3140.963
457.5247, 3159.178
458.0069, 3181.565
458.4890, 3227.582
458.9711, 3291.851
459.4532, 3352.751
459.9353, 3394.269
460.4174, 3426.424
460.8996, 3463.123
461.3817, 3507.474
461.8638, 3543.096
462.3459, 3550.406
462.8280, 3544.125
463.3102, 3544.615
463.7923, 3563.880
464.2744, 3587.219
464.7565, 3611.066
465.2386, 3634.522
465.7207, 3651.979
466.2029, 3659.928
466.6850, 3662.611
467.1671, 3662.747
467.6492, 3657.549
468.1313, 3653.813
468.6134, 3654.945
469.0956, 3657.463
469.5777, 3653.157
470.0598, 3644.845
470.5419, 3625.147
471.0240, 3587.849
471.5061, 3529.475
471.9883, 3481.224
472.4704, 3445.562
472.9525, 3416.009
473.4346, 3387.696
473.9167, 3360.893
474.3988, 3325.778
474.8810, 3274.124
475.3631, 3215.762
475.8452, 3179.801
476.3273, 3166.094
476.8094, 3159.072
477.2915, 3150.189
477.7737, 3139.267
478.2558, 3125.626
478.7379, 3108.786
479.2200, 3090.603
479.7021, 3072.343
480.1842, 3054.136
480.6664, 3036.174
481.1485, 3016.941
481.6306, 2999.347
482.1127, 2985.488
482.5948, 2975.631
483.0769, 2967.899
483.5591, 2971.836
484.0412, 2972.399
484.5233, 2956.133
485.0054, 2907.538
485.4875, 2856.242
485.9696, 2798.664
486.4518, 2739.518
486.9339, 2701.253
487.4160, 2709.275
487.8981, 2709.920
488.3802, 2678.203
488.8623, 2599.920
489.3445, 2536.164
489.8266, 2488.683
490.3087, 2452.121
490.7908, 2420.361
491.2729, 2393.458
491.7550, 2369.183
492.2372, 2345.513
492.7193, 2323.903
493.2014, 2313.802
493.6835, 2315.573
494.1656, 2316.673
494.6477, 2308.217
495.1299, 2291.340
495.6120, 2266.361
496.0941, 2228.773
496.5762, 2194.281
497.0583, 2178.586
497.5404, 2178.637
498.0226, 2187.164
498.5047, 2220.564
498.9868, 2246.779
499.4689, 2235.971
499.9510, 2184.158
500.4331, 2136.463
500.9153, 2122.648
501.3974, 2115.838
501.8795, 2092.133
502.3616, 2021.699
502.8437, 1963.109
503.3258, 1932.103
503.8080, 1921.370
504.2901, 1900.164
504.7722, 1862.661
505.2543, 1822.481
505.7364, 1784.884
506.2185, 1750.135
506.7007, 1717.248
507.1828, 1686.982
507.6649, 1656.831
508.1470, 1623.653
508.6291, 1587.203
509.1112, 1547.966
509.5934, 1502.228
510.0755, 1455.221
510.5576, 1422.282
511.0397, 1403.140
511.5218, 1388.866
512.0039, 1374.247
512.4860, 1359.792
512.9681, 1346.989
513.4503, 1336.924
513.9324, 1324.903
514.4145, 1304.516
514.8966, 1279.614
515.3787, 1257.138
515.8608, 1237.514
516.3430, 1223.194
516.8251, 1220.252
517.3072, 1227.807
517.7893, 1226.938
518.2714, 1201.239
518.7535, 1172.844
519.2357, 1155.868
519.7178, 1164.901
520.1999, 1167.371
520.6820, 1163.058
521.1641, 1152.171
521.6462, 1133.586
522.1284, 1101.912
522.6105, 1074.151
523.0926, 1055.810
523.5747, 1046.780
524.0568, 1041.397
524.5389, 1040.555
525.0211, 1040.019
525.5032, 1035.149
525.9853, 1026.681
526.4674, 1019.764
526.9495, 1015.733
527.4316, 1012.976
527.9138, 1011.337
528.3959, 1009.610
528.8780, 1003.210
529.3601, 982.4267
529.8422, 960.1084
530.3243, 949.0082
530.8065, 950.1879
531.2886, 955.3669
531.7707, 964.0319
532.2528, 972.6454
532.7349, 978.1201
533.2170, 985.6694
533.6992, 983.1825
534.1813, 960.9236
534.6634, 925.6165
535.1455, 900.2181
535.6276, 887.1311
536.1097, 881.5842
536.5919, 884.0331
537.0740, 896.3776
537.5561, 902.7071
538.0382, 901.6374
538.5203, 897.1474
539.0024, 892.0975
539.4846, 886.2996
539.9667, 884.5291
540.4488, 889.6121
540.9309, 896.7994
541.4130, 893.6020
541.8951, 881.4858
542.3773, 873.4709
542.8594, 882.8129
543.3415, 898.9438
543.8236, 905.4352
544.3057, 900.7231
544.7878, 894.0251
545.2700, 889.0455
545.7521, 886.7573
546.2342, 888.3217
546.7163, 900.9300
547.1984, 910.0888
547.6805, 904.8420
548.1627, 891.1067
548.6448, 889.1328
549.1269, 917.8079
549.6090, 943.8738
550.0911, 953.7532
550.5732, 942.1156
551.0554, 939.3850
551.5375, 948.7637
552.0196, 963.0789
552.5017, 975.7150
552.9838, 986.5622
553.4659, 996.7336
553.9481, 1006.968
554.4302, 1016.080
554.9123, 1018.371
555.3944, 1014.453
555.8765, 1015.939
556.3586, 1032.877
556.8408, 1058.513
557.3229, 1082.201
557.8050, 1103.525
558.2871, 1120.868
558.7692, 1130.427
559.2513, 1136.221
559.7335, 1142.941
560.2156, 1150.239
560.6977, 1161.059
561.1798, 1178.037
561.6619, 1199.614
562.1440, 1221.220
562.6262, 1238.619
563.1083, 1259.623
563.5904, 1288.255
564.0725, 1326.626
564.5546, 1358.075
565.0367, 1381.620
565.5189, 1399.435
566.0010, 1412.125
566.4831, 1418.325
566.9652, 1428.188
567.4473, 1444.891
567.9294, 1463.133
568.4116, 1474.255
568.8937, 1478.353
569.3758, 1476.427
569.8579, 1465.697
570.3400, 1450.536
570.8221, 1439.480
571.3043, 1432.535
571.7864, 1422.383
572.2685, 1400.639
572.7506, 1374.674
573.2327, 1352.496
573.7148, 1336.533
574.1970, 1322.723
574.6791, 1309.808
575.1612, 1297.856
575.6433, 1287.468
576.1254, 1280.516
576.6075, 1272.709
577.0897, 1259.814
577.5718, 1242.358
578.0539, 1240.436
578.5360, 1261.728
579.0181, 1284.605
579.5002, 1292.221
579.9824, 1283.069
580.4645, 1284.243
580.9466, 1299.536
581.4287, 1318.880
581.9108, 1324.928
582.3929, 1321.474
582.8751, 1326.741
583.3572, 1352.596
583.8393, 1385.394
584.3214, 1407.222
584.8035, 1420.411
585.2856, 1435.780
585.7678, 1461.446
586.2499, 1490.347
586.7320, 1516.145
587.2141, 1535.621
587.6962, 1561.758
588.1783, 1612.273
588.6605, 1664.281
589.1426, 1693.224
589.6247, 1676.533
590.1068, 1670.901
590.5889, 1686.495
591.0710, 1715.550
591.5532, 1734.175
592.0353, 1739.533
592.5174, 1745.290
592.9995, 1761.203
593.4816, 1784.260
593.9637, 1787.203
594.4459, 1767.881
594.9280, 1751.760
595.4101, 1770.916
595.8922, 1808.891
596.3743, 1831.921
596.8564, 1830.157
597.3386, 1819.029
597.8207, 1804.227
598.3028, 1789.650
598.7849, 1782.848
599.2670, 1803.508
599.7491, 1816.029
600.2313, 1802.444
600.7134, 1763.398
