##NAMES=Dolerophanite
##RRUFFID=R060139
##IDEAL CHEMISTRY=Cu^2+^_2_OS^6+^O_4_
##LOCALITY=Vesuvius, Italy
##OWNER=RRUFF
##SOURCE=University of Arizona Mineral Museum
##DESCRIPTION=Rootbeer brown fragment
##STATUS=The identification of this mineral has been confirmed by single-crystal X-ray diffraction.
##URL=rruff.info/R060139
89.78156, 0.0000000E+00
90.26367, 13.53745
90.74579, 13.51764
91.22791, 13.52971
91.71002, 13.56964
92.19214, 13.60178
92.67426, 13.64123
93.15638, 13.65619
93.63850, 13.55118
94.12061, 13.14671
94.60273, 12.63855
95.08485, 12.55443
95.56696, 12.94101
96.04908, 13.44110
96.53120, 13.62841
97.01331, 13.51278
97.49543, 13.35692
97.97755, 13.30729
98.45966, 13.35138
98.94178, 13.18957
99.42390, 12.72212
99.90602, 12.19109
100.3881, 12.10696
100.8703, 12.58342
101.3524, 13.10616
101.8345, 13.44496
102.3166, 13.59352
102.7987, 13.54744
103.2808, 13.21013
103.7630, 12.67910
104.2451, 12.42180
104.7272, 12.59533
105.2093, 12.83181
105.6914, 12.88173
106.1735, 12.61366
106.6557, 12.38237
107.1378, 12.22927
107.6199, 12.15437
108.1020, 12.12236
108.5841, 12.21697
109.0662, 12.31016
109.5484, 12.28842
110.0305, 12.00090
110.5126, 11.74807
110.9947, 11.52065
111.4768, 11.25490
111.9590, 11.30446
112.4411, 12.00764
112.9232, 12.97203
113.4053, 13.67209
113.8874, 13.65427
114.3695, 13.65635
114.8517, 14.02108
115.3338, 15.00761
115.8159, 15.79383
116.2980, 15.88424
116.7801, 15.59789
117.2622, 15.62833
117.7444, 16.30842
118.2265, 17.34753
118.7086, 18.58516
119.1907, 20.16101
119.6728, 21.68642
120.1549, 22.74402
120.6371, 23.49208
121.1192, 24.57734
121.6013, 26.59537
122.0834, 29.06517
122.5655, 31.43652
123.0476, 33.37949
123.5298, 35.30114
124.0119, 37.52864
124.4940, 40.05845
124.9761, 42.85255
125.4582, 46.15150
125.9404, 49.67269
126.4225, 52.83136
126.9046, 55.17358
127.3867, 57.08348
127.8688, 59.09700
128.3509, 61.20460
128.8331, 63.50935
129.3152, 66.17660
129.7973, 69.17726
130.2794, 72.29165
130.7615, 75.27415
131.2436, 78.27200
131.7258, 81.79348
132.2079, 85.91415
132.6900, 90.39269
133.1721, 94.87652
133.6542, 99.34481
134.1364, 103.9661
134.6185, 108.9296
135.1006, 114.2437
135.5827, 119.4588
136.0648, 124.4952
136.5469, 129.5202
137.0291, 135.0579
137.5112, 141.2062
137.9933, 147.3148
138.4754, 153.0842
138.9575, 158.4638
139.4396, 163.4484
139.9218, 167.7728
140.4039, 171.6816
140.8860, 176.2979
141.3681, 181.6614
141.8502, 187.6206
142.3323, 194.0598
142.8145, 201.4583
143.2966, 208.3208
143.7787, 214.2576
144.2608, 219.3328
144.7429, 224.3299
145.2250, 229.1494
145.7072, 234.0410
146.1893, 239.2978
146.6714, 245.2784
147.1535, 251.0581
147.6356, 256.1272
148.1178, 260.1652
148.5999, 265.5113
149.0820, 272.1701
149.5641, 280.1248
150.0462, 289.3238
150.5283, 301.6040
151.0105, 313.1795
151.4926, 319.9165
151.9747, 323.1421
152.4568, 327.7140
152.9389, 334.8551
153.4210, 343.0726
153.9032, 350.4059
154.3853, 356.8084
154.8674, 362.1095
155.3495, 366.1351
155.8316, 368.5399
156.3137, 370.6531
156.7959, 373.1643
157.2780, 375.5079
157.7601, 376.6020
158.2422, 376.4312
158.7243, 374.8449
159.2065, 371.7154
159.6886, 366.6146
160.1707, 360.7362
160.6528, 354.2307
161.1349, 347.1846
161.6170, 339.8287
162.0992, 331.9148
162.5813, 323.9117
163.0634, 316.0797
163.5455, 308.1325
164.0276, 300.8105
164.5097, 294.5453
164.9919, 289.2040
165.4740, 284.2951
165.9561, 280.0665
166.4382, 275.9496
166.9203, 271.3495
167.4024, 265.4872
167.8846, 259.7328
168.3667, 254.8050
168.8488, 250.6599
169.3309, 247.0503
169.8130, 243.8801
170.2952, 241.1220
170.7773, 238.7926
171.2594, 237.2363
171.7415, 235.8161
172.2236, 233.8484
172.7057, 231.3737
173.1879, 229.0327
173.6700, 227.4190
174.1521, 226.2416
174.6342, 225.0033
175.1163, 223.0664
175.5984, 221.1676
176.0806, 220.5018
176.5627, 221.0754
177.0448, 221.5238
177.5269, 220.3933
178.0090, 218.1995
178.4911, 216.1314
178.9733, 214.6999
179.4554, 213.7226
179.9375, 212.9543
180.4196, 212.4112
180.9017, 211.9530
181.3838, 211.4265
181.8660, 210.8667
182.3481, 210.3745
182.8302, 210.1919
183.3123, 210.1024
183.7944, 209.4844
184.2766, 208.2313
184.7587, 206.9272
185.2408, 206.3615
185.7229, 206.4321
186.2050, 206.4820
186.6871, 206.0823
187.1693, 205.3808
187.6514, 205.0095
188.1335, 205.0625
188.6156, 205.1867
189.0977, 204.6835
189.5798, 203.5985
190.0620, 202.8130
190.5441, 203.0979
191.0262, 204.2259
191.5083, 204.6367
191.9904, 204.1431
192.4725, 203.1629
192.9547, 202.2336
193.4368, 201.3367
193.9189, 200.8125
194.4010, 201.0598
194.8831, 202.0147
195.3652, 202.6288
195.8474, 202.7889
196.3295, 202.6578
196.8116, 202.5301
197.2937, 202.4096
197.7758, 202.2666
198.2579, 202.0515
198.7401, 201.7598
199.2222, 201.5502
199.7043, 201.4067
200.1864, 201.3785
200.6685, 201.6289
201.1507, 202.2001
201.6328, 202.8368
202.1149, 203.3755
202.5970, 203.7990
203.0791, 204.3009
203.5612, 204.9216
204.0434, 205.6062
204.5255, 206.1369
205.0076, 206.4263
205.4897, 206.8659
205.9718, 207.8537
206.4539, 209.5684
206.9361, 210.6843
207.4182, 210.7890
207.9003, 210.3549
208.3824, 210.9794
208.8645, 212.9280
209.3466, 215.2520
209.8288, 217.3886
210.3109, 219.2552
210.7930, 221.3293
211.2751, 223.7863
211.7572, 226.4404
212.2393, 228.5912
212.7215, 229.9289
213.2036, 231.3913
213.6857, 233.6329
214.1678, 236.9062
214.6499, 240.1408
215.1320, 243.3061
215.6142, 246.3858
216.0963, 249.2523
216.5784, 251.8992
217.0605, 254.3252
217.5426, 256.3608
218.0247, 257.5620
218.5069, 259.6767
218.9890, 263.1931
219.4711, 267.7587
219.9532, 271.6716
220.4353, 274.5499
220.9175, 277.4621
221.3996, 281.1728
221.8817, 285.9505
222.3638, 290.7148
222.8459, 295.1425
223.3280, 299.4803
223.8102, 304.6757
224.2923, 311.2184
224.7744, 317.9949
225.2565, 324.2590
225.7386, 329.8041
226.2207, 335.3088
226.7029, 340.8708
227.1850, 346.4445
227.6671, 351.5784
228.1492, 356.4189
228.6313, 360.6140
229.1134, 363.9891
229.5956, 366.7237
230.0777, 368.3320
230.5598, 368.8924
231.0419, 368.3260
231.5240, 366.2411
232.0062, 362.4879
232.4883, 357.4403
232.9704, 351.2198
233.4525, 343.4622
233.9346, 335.3612
234.4167, 326.9074
234.8989, 318.1945
235.3810, 309.6767
235.8631, 301.1704
236.3452, 292.9508
236.8273, 284.9984
237.3094, 276.9729
237.7916, 269.9840
238.2737, 264.2311
238.7558, 259.5386
239.2379, 255.0584
239.7200, 250.6461
240.2021, 246.6312
240.6843, 243.2196
241.1664, 240.7759
241.6485, 238.1182
242.1306, 235.0341
242.6127, 231.6901
243.0948, 228.8450
243.5770, 226.7157
244.0591, 224.7841
244.5412, 222.7866
245.0233, 220.5320
245.5054, 218.6346
245.9876, 217.2350
246.4697, 216.1982
246.9518, 215.0551
247.4339, 213.7613
247.9160, 212.4221
248.3981, 211.0637
248.8803, 209.5392
249.3624, 208.3348
249.8445, 207.5760
250.3266, 207.1070
250.8087, 206.4863
251.2908, 205.5885
251.7730, 204.7404
252.2551, 204.1279
252.7372, 203.9053
253.2193, 203.4916
253.7014, 202.8098
254.1835, 201.9730
254.6657, 201.2685
255.1478, 200.8183
255.6299, 200.2842
256.1120, 199.4710
256.5941, 198.2212
257.0763, 197.2115
257.5584, 196.4348
258.0405, 195.8944
258.5226, 195.6807
259.0047, 196.0441
259.4868, 196.2120
259.9690, 195.7628
260.4511, 194.4341
260.9332, 193.7128
261.4153, 193.3918
261.8974, 193.7037
262.3795, 193.8330
262.8617, 193.7896
263.3438, 193.0564
263.8259, 193.2140
264.3080, 193.0146
264.7901, 192.8005
265.2722, 193.0835
265.7544, 192.4506
266.2365, 192.7257
266.7186, 192.6383
267.2007, 192.7169
267.6828, 192.4362
268.1649, 192.2665
268.6471, 192.2149
269.1292, 191.8469
269.6113, 191.4533
270.0934, 191.4779
270.5755, 192.0709
271.0576, 192.5055
271.5398, 192.5584
272.0219, 192.2402
272.5040, 191.8987
272.9861, 191.5344
273.4682, 191.1552
273.9503, 190.6693
274.4325, 189.9902
274.9146, 189.7284
275.3967, 190.1582
275.8788, 191.1716
276.3610, 191.8501
276.8431, 192.1119
277.3252, 192.2698
277.8073, 192.6811
278.2894, 193.3911
278.7715, 193.8129
279.2537, 193.7086
279.7358, 193.2602
280.2179, 193.2866
280.7000, 193.8768
281.1821, 194.5533
281.6642, 194.8780
282.1464, 194.8487
282.6285, 194.9772
283.1106, 195.3248
283.5927, 195.8985
284.0748, 196.8293
284.5569, 198.1662
285.0391, 199.4308
285.5212, 200.2087
286.0033, 200.5461
286.4854, 201.0278
286.9675, 201.7512
287.4496, 202.6087
287.9318, 203.4784
288.4139, 204.3680
288.8960, 205.0172
289.3781, 205.0852
289.8602, 204.7252
290.3423, 204.7366
290.8245, 205.2383
291.3066, 206.0074
291.7887, 206.7399
292.2708, 207.4403
292.7529, 208.1069
293.2350, 208.8866
293.7172, 209.6434
294.1993, 209.8330
294.6814, 209.3531
295.1635, 208.6888
295.6456, 208.4216
296.1277, 208.4905
296.6099, 208.6488
297.0920, 208.8986
297.5741, 209.1334
298.0562, 209.0970
298.5383, 208.7710
299.0204, 208.3660
299.5026, 208.1744
299.9847, 208.0807
300.4668, 207.7652
300.9489, 206.9663
301.4311, 205.9525
301.9132, 205.0461
302.3953, 204.2436
302.8774, 203.6379
303.3595, 203.5555
303.8416, 203.6835
304.3238, 203.4488
304.8059, 202.4808
305.2880, 201.2665
305.7701, 200.1849
306.2522, 199.2484
306.7343, 198.6006
307.2165, 198.5726
307.6986, 198.7980
308.1807, 198.8134
308.6628, 198.4461
309.1449, 197.9310
309.6270, 197.4518
310.1092, 196.9699
310.5913, 196.3779
311.0734, 195.2733
311.5555, 194.2117
312.0376, 193.7755
312.5197, 194.2895
313.0019, 194.8263
313.4840, 194.7852
313.9661, 194.3946
314.4482, 194.1217
314.9303, 194.3393
315.4124, 194.6156
315.8946, 194.7263
316.3767, 194.6622
316.8588, 194.3541
317.3409, 193.5277
317.8230, 192.5068
318.3051, 191.7210
318.7873, 191.4473
319.2694, 191.2989
319.7515, 191.1436
320.2336, 190.9733
320.7157, 190.7744
321.1978, 190.3049
321.6800, 189.9138
322.1621, 189.9192
322.6442, 191.1381
323.1263, 191.9796
323.6084, 191.8290
324.0905, 190.7606
324.5727, 190.0194
325.0548, 190.0141
325.5369, 190.2487
326.0190, 190.4255
326.5012, 190.5673
326.9833, 190.6006
327.4654, 190.5110
327.9475, 190.3076
328.4296, 190.0231
328.9117, 189.5684
329.3939, 189.1111
329.8760, 188.6937
330.3581, 188.1668
330.8402, 187.9637
331.3223, 188.3005
331.8044, 188.8947
332.2866, 189.1716
332.7687, 188.9874
333.2508, 188.6747
333.7329, 188.2409
334.2150, 187.5530
334.6971, 187.4546
335.1793, 188.3546
335.6614, 189.4491
336.1435, 189.6070
336.6256, 188.4543
337.1077, 187.3537
337.5898, 186.5860
338.0720, 186.1482
338.5541, 186.2374
339.0362, 187.0399
339.5183, 187.9682
340.0004, 188.4297
340.4825, 188.3501
340.9647, 188.4325
341.4468, 188.9626
341.9289, 189.6500
342.4110, 189.3413
342.8931, 187.8787
343.3752, 186.4583
343.8574, 186.0588
344.3395, 186.5976
344.8216, 186.8321
345.3037, 186.5402
345.7858, 186.0830
346.2679, 186.1353
346.7501, 186.6676
347.2322, 187.2240
347.7143, 187.6903
348.1964, 188.0002
348.6785, 187.8135
349.1607, 187.0298
349.6428, 186.2664
350.1249, 186.3993
350.6070, 187.1584
351.0891, 187.6907
351.5713, 187.4687
352.0534, 186.9043
352.5355, 186.5953
353.0176, 186.5398
353.4997, 186.5421
353.9818, 186.5114
354.4640, 186.4281
354.9461, 186.2518
355.4282, 185.9246
355.9103, 185.5648
356.3924, 185.1999
356.8745, 184.8662
357.3567, 184.7119
357.8388, 185.0611
358.3209, 185.4903
358.8030, 185.5813
359.2851, 185.1137
359.7672, 184.7035
360.2494, 184.8168
360.7315, 185.2075
361.2136, 185.4199
361.6957, 185.0878
362.1778, 184.6950
362.6599, 184.4602
363.1421, 184.4054
363.6242, 184.4770
364.1063, 184.7643
364.5884, 185.1261
365.0705, 185.4153
365.5526, 185.5357
366.0348, 185.6467
366.5169, 185.7851
366.9990, 185.9483
367.4811, 186.0961
367.9632, 186.2032
368.4453, 186.3075
368.9275, 186.4327
369.4096, 186.7072
369.8917, 186.8265
370.3738, 186.7544
370.8559, 186.5241
371.3380, 186.2110
371.8202, 185.6442
372.3023, 185.2241
372.7844, 185.1414
373.2665, 185.4978
373.7487, 185.7818
374.2308, 185.9995
374.7129, 186.1405
375.1950, 186.1531
375.6771, 185.9551
376.1592, 185.9012
376.6414, 186.1301
377.1235, 186.6074
377.6056, 187.0410
378.0877, 187.4945
378.5698, 187.7145
379.0519, 187.3710
379.5341, 186.4639
380.0162, 185.6112
380.4983, 184.8431
380.9804, 184.2811
381.4625, 184.3928
381.9446, 185.1633
382.4268, 185.8584
382.9089, 185.9382
383.3910, 185.5773
383.8731, 185.3124
384.3552, 185.1712
384.8373, 185.1965
385.3195, 185.5692
385.8016, 186.1699
386.2837, 186.6542
386.7658, 186.8611
387.2479, 186.8662
387.7300, 186.7266
388.2122, 186.4471
388.6943, 186.1217
389.1764, 185.6938
389.6585, 185.3037
390.1406, 185.1751
390.6227, 185.6160
391.1049, 185.9778
391.5870, 185.6179
392.0691, 184.7905
392.5512, 184.2613
393.0333, 184.6575
393.5154, 185.2724
393.9976, 185.6336
394.4797, 185.5853
394.9618, 185.5986
395.4439, 185.8933
395.9260, 186.3166
396.4081, 186.6646
396.8903, 186.8669
397.3724, 187.0221
397.8545, 187.1430
398.3366, 187.2293
398.8188, 187.3359
399.3009, 187.5210
399.7830, 187.6911
400.2651, 187.7770
400.7472, 187.5748
401.2293, 187.6039
401.7115, 188.0204
402.1936, 188.6718
402.6757, 189.0864
403.1578, 189.1576
403.6399, 189.1723
404.1220, 189.2319
404.6042, 189.3305
405.0863, 189.5501
405.5684, 189.9996
406.0505, 190.3909
406.5326, 190.1198
407.0147, 189.0134
407.4969, 188.6206
407.9790, 189.6126
408.4611, 191.5778
408.9432, 192.8666
409.4253, 193.4384
409.9074, 193.6889
410.3896, 193.6550
410.8717, 193.4910
411.3538, 194.0229
411.8359, 195.5764
412.3180, 197.3271
412.8001, 197.9703
413.2823, 197.7367
413.7644, 197.6018
414.2465, 198.0720
414.7286, 198.9344
415.2107, 200.0508
415.6928, 201.4153
416.1750, 202.6138
416.6571, 203.1843
417.1392, 203.4288
417.6213, 203.7678
418.1034, 204.2244
418.5855, 204.9321
419.0677, 206.1640
419.5498, 207.7719
420.0319, 209.1499
420.5140, 209.7608
420.9961, 210.2913
421.4782, 211.2781
421.9604, 213.1796
422.4425, 214.4880
422.9246, 214.5168
423.4067, 213.8575
423.8889, 213.3195
424.3710, 213.2186
424.8531, 213.0160
425.3352, 212.6025
425.8173, 211.9805
426.2994, 211.2681
426.7816, 210.5439
427.2637, 209.6544
427.7458, 208.4122
428.2279, 206.3902
428.7100, 205.0646
429.1921, 204.7583
429.6743, 205.0584
430.1564, 205.0139
430.6385, 204.5500
431.1206, 204.0275
431.6027, 203.5121
432.0848, 203.0136
432.5670, 202.9085
433.0491, 203.2489
433.5312, 203.7731
434.0133, 204.2150
434.4954, 204.5947
434.9775, 205.0669
435.4597, 205.7433
435.9418, 206.4410
436.4239, 206.6368
436.9060, 206.4393
437.3881, 206.5523
437.8702, 207.6560
438.3524, 209.2603
438.8345, 210.7280
439.3166, 212.0088
439.7987, 213.0247
440.2808, 213.4575
440.7629, 213.6324
441.2451, 214.0527
441.7272, 214.9708
442.2093, 216.1285
442.6914, 217.5421
443.1735, 219.1477
443.6556, 220.5449
444.1378, 221.2023
444.6199, 221.8743
445.1020, 223.0682
445.5841, 225.1881
446.0662, 227.1804
446.5483, 228.7582
447.0305, 230.1596
447.5126, 231.7907
447.9947, 233.7978
448.4768, 235.8454
448.9590, 237.9273
449.4411, 240.0389
449.9232, 241.8782
450.4053, 243.3494
450.8874, 244.7057
451.3695, 246.0685
451.8517, 247.3919
452.3338, 248.9394
452.8159, 250.7165
453.2980, 252.7214
453.7801, 255.1001
454.2622, 257.8643
454.7444, 260.5161
455.2265, 262.7369
455.7086, 264.6451
456.1907, 266.6937
456.6728, 268.9285
457.1549, 271.0456
457.6371, 272.5615
458.1192, 273.7826
458.6013, 275.6463
459.0834, 278.8070
459.5655, 281.8602
460.0476, 283.0071
460.5298, 282.7315
461.0119, 282.4131
461.4940, 282.9868
461.9761, 283.6605
462.4582, 284.0267
462.9403, 284.0966
463.4225, 283.2060
463.9046, 280.5096
464.3867, 276.9492
464.8688, 273.4826
465.3509, 270.3125
465.8330, 267.2434
466.3152, 264.4075
466.7973, 261.6938
467.2794, 258.7133
467.7615, 255.3009
468.2436, 251.7097
468.7257, 247.8681
469.2079, 243.6115
469.6900, 240.1263
470.1721, 237.8382
470.6542, 235.8848
471.1363, 233.2126
471.6184, 229.4603
472.1006, 226.4691
472.5827, 224.7548
473.0648, 223.8887
473.5469, 222.5770
474.0291, 220.7912
474.5112, 218.9031
474.9933, 217.0491
475.4754, 215.2567
475.9575, 213.6402
476.4396, 212.2045
476.9218, 210.9350
477.4039, 209.8442
477.8860, 208.9158
478.3681, 208.1451
478.8502, 207.6598
479.3323, 207.1682
479.8145, 206.2744
480.2966, 205.0887
480.7787, 204.0623
481.2608, 203.5733
481.7429, 203.1986
482.2250, 202.5995
482.7072, 201.6768
483.1893, 200.8865
483.6714, 200.4371
484.1535, 200.1757
484.6356, 199.9464
485.1177, 199.9533
485.5999, 199.7318
486.0820, 199.0687
486.5641, 198.1024
487.0462, 197.3157
487.5283, 196.8088
488.0104, 196.3498
488.4926, 195.7947
488.9747, 195.0805
489.4568, 194.7605
489.9389, 194.9734
490.4210, 195.3362
490.9031, 195.4578
491.3853, 195.3355
491.8674, 194.9752
492.3495, 194.2422
492.8316, 193.4326
493.3137, 193.3732
493.7958, 193.9855
494.2780, 194.4028
494.7601, 193.8758
495.2422, 192.8660
495.7243, 192.2578
496.2064, 192.0922
496.6885, 192.1053
497.1707, 192.0933
497.6528, 192.1198
498.1349, 192.2917
498.6170, 192.8079
499.0992, 193.2280
499.5813, 193.2717
500.0634, 193.0367
500.5455, 192.7668
501.0276, 192.4378
501.5097, 192.1836
501.9919, 192.1100
502.4740, 192.2703
502.9561, 192.2778
503.4382, 191.9880
503.9203, 191.6198
504.4024, 191.3059
504.8846, 190.9997
505.3667, 190.8606
505.8488, 190.9500
506.3309, 191.1821
506.8130, 191.4083
507.2951, 191.6621
507.7773, 191.7522
508.2594, 191.4990
508.7415, 191.0068
509.2236, 190.9158
509.7057, 191.2522
510.1878, 191.6602
510.6700, 191.9277
511.1521, 192.0382
511.6342, 191.9087
512.1163, 191.4820
512.5984, 190.9824
513.0806, 190.4835
513.5627, 190.0925
514.0448, 190.0340
514.5269, 190.9241
515.0090, 191.7514
515.4911, 191.6698
515.9733, 190.8123
516.4554, 190.1270
516.9375, 190.0026
517.4196, 190.1373
517.9017, 190.3881
518.3839, 190.8268
518.8660, 191.1563
519.3481, 191.3005
519.8302, 191.3375
520.3123, 191.3440
520.7944, 191.3260
521.2766, 191.2689
521.7587, 191.1579
522.2408, 191.0121
522.7229, 190.9126
523.2050, 190.8887
523.6871, 190.8167
524.1693, 190.5280
524.6514, 190.0697
525.1335, 190.0613
525.6156, 190.5648
526.0977, 191.1226
526.5798, 191.2195
527.0620, 190.9933
527.5441, 190.8497
528.0262, 190.8902
528.5083, 191.0284
528.9904, 191.2569
529.4725, 191.5134
529.9547, 191.6456
530.4368, 191.3341
530.9189, 191.0609
531.4010, 191.2852
531.8831, 192.0025
532.3652, 192.3985
532.8474, 191.8808
533.3295, 191.1873
533.8116, 190.7710
534.2937, 190.7096
534.7758, 190.9133
535.2579, 191.7084
535.7401, 192.6067
536.2222, 192.8287
536.7043, 192.0161
537.1864, 191.3996
537.6685, 191.3339
538.1506, 191.6584
538.6328, 191.4974
539.1149, 190.7313
539.5970, 190.2361
540.0791, 190.9134
540.5612, 192.4075
541.0433, 192.8410
541.5255, 192.0572
542.0076, 191.0897
542.4897, 190.8755
542.9718, 191.2248
543.4539, 191.8117
543.9360, 192.7494
544.4182, 193.5226
544.9003, 193.5808
545.3824, 193.1576
545.8645, 192.7743
546.3466, 192.3869
546.8287, 192.3111
547.3109, 192.8678
547.7930, 194.0722
548.2751, 195.0194
548.7572, 195.3367
549.2393, 195.5451
549.7214, 195.9393
550.2036, 196.6952
550.6857, 197.2272
551.1678, 197.4267
551.6499, 197.5194
552.1320, 197.8645
552.6141, 198.5306
553.0963, 198.9916
553.5784, 199.0101
554.0605, 198.8479
554.5426, 199.2564
555.0247, 200.2083
555.5068, 201.2048
555.9890, 201.9876
556.4711, 202.5974
556.9532, 203.0478
557.4353, 203.3398
557.9174, 203.6442
558.3995, 204.0083
558.8817, 204.4829
559.3638, 205.1287
559.8459, 205.9692
560.3281, 206.9494
560.8102, 208.2334
561.2923, 209.5951
561.7744, 210.6700
562.2565, 211.0935
562.7386, 211.5537
563.2208, 212.2608
563.7029, 213.1561
564.1850, 213.8618
564.6671, 214.3108
565.1492, 214.6809
565.6313, 215.0799
566.1135, 215.5202
566.5956, 215.7869
567.0777, 215.8766
567.5598, 215.7963
568.0419, 215.5746
568.5240, 215.1966
569.0062, 214.4852
569.4883, 213.2477
569.9704, 212.0641
570.4525, 211.8714
570.9346, 212.3456
571.4167, 212.6574
571.8989, 212.3999
572.3810, 211.8759
572.8631, 211.1720
573.3452, 210.3388
573.8273, 209.6314
574.3094, 209.0689
574.7916, 208.7271
575.2737, 208.6832
575.7558, 209.0453
576.2379, 209.3916
576.7200, 209.7462
577.2021, 210.0485
577.6843, 210.2114
578.1664, 210.1201
578.6485, 210.2465
579.1306, 210.7149
579.6127, 211.3389
580.0948, 211.7784
580.5770, 212.0315
581.0591, 212.1340
581.5412, 211.8416
582.0233, 211.5501
582.5054, 212.3949
582.9875, 214.2154
583.4697, 215.8812
583.9518, 216.2922
584.4339, 216.3081
584.9160, 216.9395
585.3981, 218.3675
585.8802, 219.7239
586.3624, 220.7638
586.8445, 221.4312
587.3266, 221.6698
587.8087, 221.0059
588.2908, 220.5069
