##NAMES=Dolomite
##RRUFFID=R050241
##IDEAL CHEMISTRY=CaMg(CO_3_)_2_
##LOCALITY=Eugui quarries, Navarre, Spain
##OWNER=RRUFF
##SOURCE=Marcus Origlieri
##DESCRIPTION=Light gray colored tabular crystals
##STATUS=The identification of this mineral has been confirmed by X-ray diffraction and chemical analysis
##URL=rruff.info/R050241
##MEASURED CHEMISTRY=(Ca_0.96_Mg_0.04_)_Σ=1_(Mg_0.98_Fe^2+^_0.02_)_Σ=1_(CO_3_)_2_ ; CO_2_ estimated by difference
92.35352, 74.56174
92.83563, 75.15924
93.31775, 75.38910
93.79987, 75.55617
94.28198, 74.98208
94.76410, 74.66608
95.24622, 74.93648
95.72833, 75.17948
96.21045, 74.88628
96.69257, 74.25582
97.17468, 72.50452
97.65680, 68.29910
98.13892, 63.71816
98.62103, 60.49986
99.10315, 59.35970
99.58527, 59.58926
100.0674, 59.12473
100.5495, 57.15491
101.0316, 55.49818
101.5137, 54.76711
101.9958, 54.47663
102.4780, 53.80709
102.9601, 52.08303
103.4422, 49.19927
103.9243, 47.43023
104.4064, 47.17532
104.8885, 47.27456
105.3707, 47.33918
105.8528, 47.28427
106.3349, 47.04571
106.8170, 46.49582
107.2991, 45.57681
107.7813, 44.78341
108.2634, 44.11568
108.7455, 43.59316
109.2276, 43.26981
109.7097, 43.19123
110.1918, 43.21074
110.6740, 43.22728
111.1561, 43.24057
111.6382, 43.09959
112.1203, 42.48637
112.6024, 41.50374
113.0845, 41.05314
113.5666, 41.86652
114.0488, 42.84140
114.5309, 43.24735
115.0130, 43.00783
115.4951, 42.44793
115.9772, 41.89336
116.4593, 41.27730
116.9415, 40.87382
117.4236, 40.77029
117.9057, 40.82733
118.3878, 40.96741
118.8699, 41.15856
119.3520, 41.39629
119.8342, 41.66146
120.3163, 41.78725
120.7984, 42.16468
121.2805, 43.17311
121.7626, 44.37608
122.2447, 45.17846
122.7269, 45.21859
123.2090, 44.58534
123.6911, 43.99050
124.1732, 43.29443
124.6553, 42.75582
125.1374, 42.43066
125.6196, 42.33290
126.1017, 42.55506
126.5838, 43.36217
127.0659, 44.58933
127.5480, 45.09983
128.0302, 44.12868
128.5123, 42.83863
128.9944, 42.38562
129.4765, 42.91038
129.9586, 43.76821
130.4407, 44.81447
130.9229, 45.85344
131.4050, 46.39375
131.8871, 45.90125
132.3692, 44.71697
132.8513, 43.93744
133.3334, 43.63690
133.8155, 43.73823
134.2977, 44.24268
134.7798, 45.06526
135.2619, 46.00167
135.7440, 47.04641
136.2261, 48.27894
136.7082, 48.86645
137.1904, 48.03133
137.6725, 47.15906
138.1546, 46.61962
138.6367, 46.52145
139.1188, 46.91973
139.6009, 47.99431
140.0831, 50.35691
140.5652, 51.85806
141.0473, 52.05259
141.5294, 51.84774
142.0115, 51.74575
142.4936, 51.91111
142.9758, 52.34233
143.4579, 53.06004
143.9400, 54.31115
144.4221, 55.43126
144.9042, 56.31173
145.3863, 57.06016
145.8685, 57.66924
146.3506, 58.04243
146.8327, 58.58193
147.3148, 60.29919
147.7969, 63.33434
148.2790, 66.70823
148.7612, 70.16516
149.2433, 73.68077
149.7254, 77.07034
150.2075, 79.99501
150.6896, 83.05024
151.1717, 86.89921
151.6539, 91.46625
152.1360, 97.06599
152.6181, 104.0414
153.1002, 112.4909
153.5823, 121.7066
154.0644, 131.4375
154.5466, 141.8109
155.0287, 153.4981
155.5108, 167.0866
155.9929, 180.8307
156.4750, 191.5850
156.9571, 198.4979
157.4393, 204.0125
157.9214, 208.7337
158.4035, 212.7197
158.8856, 215.8024
159.3677, 217.8169
159.8498, 219.1700
160.3320, 221.3284
160.8141, 224.1930
161.2962, 228.2065
161.7783, 233.9370
162.2604, 240.7290
162.7425, 247.6111
163.2247, 253.9609
163.7068, 259.9061
164.1889, 266.8024
164.6710, 275.5108
165.1531, 284.1699
165.6352, 291.3940
166.1174, 298.0600
166.5995, 306.1566
167.0816, 317.3725
167.5637, 331.6778
168.0458, 345.5993
168.5279, 357.4504
169.0101, 370.3057
169.4922, 385.2217
169.9743, 402.4012
170.4564, 422.3889
170.9385, 445.1165
171.4206, 471.3641
171.9028, 503.3544
172.3849, 540.7827
172.8670, 584.1803
173.3491, 634.6962
173.8312, 692.7070
174.3133, 755.5020
174.7955, 830.9134
175.2776, 910.9080
175.7597, 974.3039
176.2418, 1021.060
176.7239, 1045.789
177.2060, 1034.872
177.6882, 980.3013
178.1703, 903.0374
178.6524, 808.6903
179.1345, 703.9413
179.6166, 603.4122
180.0987, 512.7537
180.5809, 431.9817
181.0630, 362.5037
181.5451, 306.3381
182.0272, 260.6132
182.5093, 224.9320
182.9914, 197.6664
183.4736, 175.8397
183.9557, 157.9215
184.4378, 143.9968
184.9199, 131.4769
185.4020, 120.4538
185.8841, 110.9310
186.3663, 103.5430
186.8484, 97.86642
187.3305, 92.87047
187.8126, 87.49603
188.2947, 81.48656
188.7768, 76.75336
189.2590, 73.99348
189.7411, 71.72462
190.2232, 69.34200
190.7053, 66.81935
191.1874, 64.44579
191.6695, 62.56157
192.1517, 61.34347
192.6338, 59.90163
193.1159, 58.09541
193.5980, 56.21083
194.0801, 54.36681
194.5622, 52.60757
195.0444, 50.96766
195.5265, 49.48066
196.0086, 48.15557
196.4907, 47.11454
196.9728, 46.32829
197.4549, 45.83619
197.9371, 45.89034
198.4192, 46.54287
198.9013, 47.09085
199.3834, 46.54913
199.8655, 44.90154
200.3476, 43.56983
200.8298, 42.95938
201.3119, 42.72834
201.7940, 42.46935
202.2761, 42.14505
202.7582, 41.69227
203.2403, 40.88990
203.7225, 39.82953
204.2046, 38.99355
204.6867, 38.67573
205.1688, 38.69151
205.6509, 38.59083
206.1330, 38.24539
206.6152, 37.93153
207.0973, 37.88006
207.5794, 38.03664
208.0615, 38.24357
208.5436, 38.47678
209.0257, 38.70770
209.5079, 38.80035
209.9900, 38.73986
210.4721, 38.52613
210.9542, 38.08275
211.4363, 37.49032
211.9184, 36.97210
212.4006, 36.69305
212.8827, 36.64513
213.3648, 36.68356
213.8469, 36.95499
214.3290, 37.16057
214.8111, 37.11966
215.2933, 36.90543
215.7754, 36.71875
216.2575, 36.75217
216.7396, 37.02234
217.2217, 37.16515
217.7038, 36.85360
218.1859, 36.70890
218.6681, 37.11012
219.1502, 37.87974
219.6323, 38.52409
220.1144, 38.56627
220.5965, 37.92428
221.0786, 37.58883
221.5608, 37.88496
222.0429, 38.16121
222.5250, 38.09496
223.0071, 37.77851
223.4892, 37.55157
223.9713, 37.74347
224.4535, 38.43697
224.9356, 38.75331
225.4177, 38.32310
225.8998, 37.93621
226.3819, 38.09892
226.8640, 38.66076
227.3462, 39.03954
227.8283, 38.69662
228.3104, 37.54897
228.7925, 36.73883
229.2746, 36.60511
229.7567, 36.43943
230.2389, 35.70338
230.7210, 34.53016
231.2031, 33.61185
231.6852, 33.57615
232.1673, 34.42367
232.6494, 34.80378
233.1316, 34.23912
233.6137, 33.65797
234.0958, 33.72197
234.5779, 34.35072
235.0600, 34.89064
235.5421, 34.83219
236.0243, 34.22909
236.5064, 33.83366
236.9885, 33.77349
237.4706, 33.81266
237.9527, 33.79531
238.4348, 33.72591
238.9170, 33.68863
239.3991, 33.70975
239.8812, 33.82178
240.3633, 34.08269
240.8454, 34.73690
241.3275, 35.32937
241.8097, 35.44262
242.2918, 35.09098
242.7739, 34.67550
243.2560, 34.34667
243.7381, 34.12425
244.2202, 34.01933
244.7024, 34.00707
245.1845, 34.14949
245.6666, 34.63486
246.1487, 35.47458
246.6308, 36.10034
247.1129, 36.04899
247.5951, 35.73780
248.0772, 35.70786
248.5593, 36.12014
249.0414, 36.59434
249.5235, 36.68053
250.0056, 36.34064
250.4878, 36.13638
250.9699, 36.33112
251.4520, 36.72071
251.9341, 37.19772
252.4162, 37.77355
252.8983, 38.24290
253.3805, 38.22997
253.8626, 37.64007
254.3447, 37.43682
254.8268, 38.26482
255.3089, 39.32479
255.7910, 40.05015
256.2732, 40.36288
256.7553, 40.65563
257.2374, 41.48799
257.7195, 42.99783
258.2016, 44.05062
258.6837, 44.08196
259.1659, 43.85351
259.6480, 43.64113
260.1301, 43.50986
260.6122, 43.50722
261.0943, 43.74400
261.5764, 44.27390
262.0586, 44.67283
262.5407, 44.35915
263.0228, 44.36566
263.5049, 45.43076
263.9870, 47.38445
264.4691, 49.33806
264.9513, 50.32009
265.4334, 50.14009
265.9155, 50.53198
266.3976, 52.16550
266.8797, 53.81748
267.3618, 54.97221
267.8440, 55.74504
268.3261, 56.56797
268.8082, 57.82966
269.2903, 59.54977
269.7724, 61.17387
270.2545, 62.45308
270.7367, 63.87289
271.2188, 65.67632
271.7009, 67.73653
272.1830, 69.62834
272.6651, 70.87093
273.1472, 71.59631
273.6294, 74.24610
274.1115, 81.03690
274.5936, 87.64371
275.0757, 93.13335
275.5578, 97.82803
276.0399, 102.1674
276.5221, 106.3222
277.0042, 110.5456
277.4863, 116.2556
277.9684, 124.7060
278.4505, 133.4787
278.9326, 142.4022
279.4148, 151.5135
279.8969, 161.2457
280.3790, 171.9093
280.8611, 182.7565
281.3432, 191.3896
281.8253, 194.9365
282.3075, 199.6436
282.7896, 206.8097
283.2717, 214.8949
283.7538, 222.2453
284.2359, 228.2192
284.7180, 233.3444
285.2002, 238.6870
285.6823, 244.9906
286.1644, 250.4195
286.6465, 254.0617
287.1286, 257.3678
287.6107, 261.3992
288.0929, 266.5171
288.5750, 272.7453
289.0571, 280.3124
289.5392, 290.2704
290.0213, 299.1060
290.5034, 305.5048
290.9856, 311.7196
291.4677, 319.4468
291.9498, 328.8228
292.4319, 338.8446
292.9140, 348.1478
293.3961, 356.1988
293.8783, 366.1306
294.3604, 378.3210
294.8425, 391.7767
295.3246, 406.1918
295.8067, 421.3487
296.2888, 436.8024
296.7710, 452.2441
297.2531, 467.5826
297.7352, 482.7416
298.2173, 500.7911
298.6994, 515.7241
299.1815, 526.0834
299.6637, 531.2738
300.1458, 530.3488
300.6279, 522.3864
301.1100, 507.8420
301.5921, 489.6456
302.0742, 467.9496
302.5564, 443.3534
303.0385, 414.4487
303.5206, 382.9634
304.0027, 351.1593
304.4848, 320.0692
304.9669, 290.2168
305.4491, 263.1405
305.9312, 238.6663
306.4133, 216.8565
306.8954, 198.2188
307.3775, 182.0964
307.8596, 167.7759
308.3418, 155.0412
308.8239, 143.7837
309.3060, 133.9936
309.7881, 125.9835
310.2702, 118.9699
310.7523, 113.2715
311.2345, 108.3328
311.7166, 103.6739
312.1987, 99.21491
312.6808, 95.14851
313.1629, 91.75944
313.6451, 89.28249
314.1272, 86.66363
314.6093, 83.41132
315.0914, 80.42043
315.5735, 78.30783
316.0556, 77.07804
316.5378, 76.34277
317.0199, 75.80074
317.5020, 75.46511
317.9841, 75.38903
318.4662, 75.57665
318.9483, 75.97114
319.4305, 76.78923
319.9126, 77.82390
320.3947, 78.46151
320.8768, 78.23390
321.3589, 77.42297
321.8410, 77.55431
322.3232, 79.76325
322.8053, 81.41136
323.2874, 81.46336
323.7695, 80.64635
324.2516, 80.03963
324.7337, 80.07858
325.2159, 80.61436
325.6980, 81.36137
326.1801, 82.58884
326.6622, 83.54778
327.1443, 83.76698
327.6264, 83.90208
328.1086, 84.56938
328.5907, 85.92879
329.0728, 87.86330
329.5549, 90.23661
330.0370, 93.13684
330.5191, 96.35335
331.0013, 100.1832
331.4834, 104.0746
331.9655, 107.2976
332.4476, 110.0282
332.9297, 113.3627
333.4118, 118.3321
333.8940, 125.0256
334.3761, 131.7906
334.8582, 137.4735
335.3403, 144.3545
335.8224, 153.9551
336.3045, 165.4974
336.7867, 177.5945
337.2688, 189.5539
337.7509, 201.0210
338.2330, 210.0504
338.7151, 217.9449
339.1972, 221.9835
339.6793, 221.3618
340.1614, 216.7881
340.6436, 208.8324
341.1257, 197.6524
341.6078, 183.9890
342.0899, 169.0437
342.5720, 150.7733
343.0541, 134.8853
343.5363, 121.9980
344.0184, 110.8948
344.5005, 100.5699
344.9826, 90.88759
345.4647, 82.39689
345.9468, 75.76529
346.4290, 71.19931
346.9111, 67.56398
347.3932, 65.60487
347.8753, 63.69062
348.3574, 60.93601
348.8395, 57.55690
349.3217, 54.27999
349.8038, 51.64019
350.2859, 49.59049
350.7680, 47.74038
351.2501, 45.86791
351.7322, 44.44946
352.2144, 43.93246
352.6965, 43.81879
353.1786, 43.45557
353.6607, 42.54820
354.1428, 41.30192
354.6249, 40.14980
355.1071, 38.78936
355.5892, 38.08883
356.0713, 38.74278
356.5534, 39.56611
357.0355, 39.49487
357.5176, 38.41494
357.9998, 37.14542
358.4819, 36.79072
358.9640, 37.74296
359.4461, 37.96950
359.9282, 36.61387
360.4103, 35.37211
360.8925, 35.18876
361.3746, 35.75901
361.8567, 36.11903
362.3388, 35.47710
362.8209, 33.99051
363.3030, 33.12889
363.7852, 33.36993
364.2673, 33.67982
364.7494, 33.87464
365.2315, 33.98686
365.7136, 34.05070
366.1957, 34.07755
366.6779, 34.10704
367.1600, 34.29470
367.6421, 34.89301
368.1242, 34.99146
368.6063, 33.89965
369.0884, 32.69350
369.5706, 32.21319
370.0527, 32.51814
370.5348, 32.93543
371.0169, 32.65411
371.4990, 31.59792
371.9811, 30.97087
372.4633, 31.13062
372.9454, 31.40468
373.4275, 31.59695
373.9096, 31.66353
374.3917, 31.52794
374.8738, 31.04830
375.3560, 30.37768
375.8381, 30.03406
376.3202, 30.17493
376.8023, 30.27436
377.2844, 30.03566
377.7665, 29.68429
378.2487, 29.43789
378.7308, 29.34525
379.2129, 29.41690
379.6950, 29.80310
380.1771, 30.53073
380.6592, 30.90471
381.1414, 30.52624
381.6235, 29.92716
382.1056, 29.58324
382.5877, 29.49347
383.0698, 29.37669
383.5519, 28.93239
384.0341, 28.32040
384.5162, 28.10735
384.9983, 28.49985
385.4804, 28.88275
385.9625, 28.59347
386.4446, 27.94648
386.9268, 27.61984
387.4089, 28.02774
387.8910, 28.65110
388.3731, 28.89091
388.8552, 28.76208
389.3373, 28.72119
389.8195, 29.12551
390.3016, 29.63121
390.7837, 29.53395
391.2658, 28.58540
391.7479, 27.77336
392.2300, 27.73382
392.7122, 28.16177
393.1943, 28.36234
393.6764, 28.12691
394.1585, 27.81747
394.6406, 27.98109
395.1227, 28.64262
395.6049, 28.84171
396.0870, 28.02347
396.5691, 26.99583
397.0512, 26.43872
397.5333, 26.36094
398.0154, 26.43972
398.4976, 26.49045
398.9797, 26.50899
399.4618, 26.47407
399.9439, 26.47146
400.4260, 26.32884
400.9081, 25.70822
401.3903, 24.98152
401.8724, 24.84056
402.3545, 25.54244
402.8366, 26.60046
403.3187, 27.20647
403.8008, 27.22256
404.2830, 27.00840
404.7651, 26.18364
405.2472, 25.42782
405.7293, 25.31643
406.2114, 25.79194
406.6935, 26.34755
407.1757, 26.55539
407.6578, 26.42480
408.1399, 26.39408
408.6220, 26.55500
409.1041, 26.71252
409.5862, 26.97153
410.0684, 27.15659
410.5505, 26.93346
411.0326, 26.16359
411.5147, 25.24037
411.9968, 24.98657
412.4789, 25.77404
412.9611, 26.42123
413.4432, 27.03833
413.9253, 27.38981
414.4074, 27.13703
414.8895, 26.40297
415.3716, 25.75255
415.8538, 25.77816
416.3359, 26.41744
416.8180, 26.57798
417.3001, 25.85775
417.7822, 25.21771
418.2643, 25.02594
418.7465, 25.09380
419.2286, 25.14647
419.7107, 25.05884
420.1928, 24.98499
420.6749, 25.28105
421.1570, 26.05165
421.6392, 26.40876
422.1213, 25.71161
422.6034, 24.86945
423.0855, 24.61802
423.5676, 24.95318
424.0497, 25.37102
424.5319, 25.52869
425.0140, 25.52979
425.4961, 25.72189
425.9782, 26.22311
426.4603, 26.58119
426.9424, 26.29443
427.4246, 25.65187
427.9067, 25.22424
428.3888, 25.15372
428.8709, 25.27017
429.3530, 25.57936
429.8351, 26.00706
430.3173, 26.18597
430.7994, 25.93758
431.2815, 25.46076
431.7636, 24.99272
432.2457, 24.46508
432.7278, 24.29006
433.2100, 24.83633
433.6921, 25.62443
434.1742, 26.28444
434.6563, 26.73548
435.1384, 26.73674
435.6205, 25.98739
436.1027, 24.55423
436.5848, 23.56301
437.0669, 23.05031
437.5490, 22.84862
438.0311, 23.06335
438.5132, 23.51262
438.9954, 23.96328
439.4775, 24.32498
439.9596, 24.57998
440.4417, 24.66722
440.9238, 24.38564
441.4059, 24.42018
441.8881, 25.17099
442.3702, 25.84453
442.8523, 25.87810
443.3344, 25.39774
443.8165, 24.93811
444.2986, 24.92451
444.7808, 25.24739
445.2629, 25.18070
445.7450, 24.15659
446.2271, 23.61787
446.7092, 24.15026
447.1913, 25.06615
447.6735, 25.73106
448.1556, 25.96976
448.6377, 26.00718
449.1198, 26.16507
449.6019, 26.46960
450.0840, 26.38227
450.5662, 25.45059
451.0483, 24.61782
451.5304, 24.58313
452.0125, 25.03843
452.4946, 25.20289
452.9767, 24.52967
453.4589, 23.56656
453.9410, 23.22085
454.4231, 23.53349
454.9052, 23.92288
455.3873, 24.22526
455.8694, 24.44342
456.3516, 24.59027
456.8337, 24.65913
457.3158, 24.69677
457.7979, 24.73755
458.2800, 24.75760
458.7621, 24.68023
459.2443, 24.48565
459.7264, 24.34218
460.2085, 24.43394
460.6906, 24.72526
461.1727, 24.82252
461.6548, 24.60697
462.1370, 24.32402
462.6191, 24.07749
463.1012, 23.84334
463.5833, 23.53489
464.0654, 23.11068
464.5475, 22.70961
465.0297, 22.56466
465.5118, 22.75257
465.9939, 23.04110
466.4760, 23.66448
466.9581, 24.17899
467.4402, 24.23033
467.9224, 23.92495
468.4045, 23.60376
468.8866, 23.48155
469.3687, 23.55274
469.8508, 23.82477
470.3329, 24.70721
470.8151, 25.10875
471.2972, 24.41166
471.7793, 23.54374
472.2614, 23.28456
472.7435, 23.75846
473.2256, 24.53590
473.7078, 25.35509
474.1899, 26.20659
474.6720, 26.51410
475.1541, 26.02214
475.6362, 25.36414
476.1183, 24.73569
476.6005, 24.17962
477.0826, 23.78560
477.5647, 23.61504
478.0468, 23.53487
478.5289, 23.36195
479.0110, 23.12047
479.4932, 23.10446
479.9753, 23.59157
480.4574, 24.01044
480.9395, 23.43258
481.4216, 21.97927
481.9037, 21.07018
482.3859, 21.46199
482.8680, 22.29325
483.3501, 22.84803
483.8322, 23.09492
484.3143, 23.08306
484.7964, 22.75401
485.2786, 22.29481
485.7607, 22.31070
486.2428, 23.24314
486.7249, 23.83748
487.2070, 23.69617
487.6891, 23.30337
488.1713, 23.13716
488.6534, 23.23577
489.1355, 23.29618
489.6176, 23.00299
490.0997, 22.37204
490.5818, 22.14801
491.0640, 22.73972
491.5461, 23.29581
492.0282, 23.77237
492.5103, 24.10096
492.9924, 24.17464
493.4745, 23.97261
493.9567, 23.64002
494.4388, 23.30881
494.9209, 22.96485
495.4030, 22.81515
495.8851, 23.07512
496.3672, 23.27366
496.8494, 23.20136
497.3315, 22.90721
497.8136, 22.45890
498.2957, 21.79051
498.7778, 21.14048
499.2599, 20.70291
499.7421, 20.49202
500.2242, 20.89103
500.7063, 22.41981
501.1884, 24.03596
501.6705, 24.24018
502.1526, 23.11840
502.6348, 22.29026
503.1169, 22.42352
503.5990, 22.84948
504.0811, 22.96332
504.5632, 22.76693
505.0453, 22.48877
505.5274, 22.24765
506.0096, 22.01446
506.4917, 21.68447
506.9738, 20.78453
507.4559, 20.57016
507.9380, 21.84882
508.4201, 23.33280
508.9023, 23.87727
509.3844, 23.47900
509.8665, 22.91020
510.3486, 22.80867
510.8307, 23.10038
511.3128, 23.12790
511.7950, 22.64125
512.2771, 22.25488
512.7592, 21.92231
513.2413, 21.81502
513.7234, 22.31533
514.2056, 23.40959
514.6877, 24.30595
515.1698, 23.96995
515.6519, 22.59320
516.1340, 21.94935
516.6161, 22.41052
517.0983, 22.92921
517.5804, 22.76387
518.0625, 22.32008
518.5446, 22.23697
519.0267, 22.82452
519.5089, 23.33319
519.9910, 23.09975
520.4731, 22.36099
520.9552, 21.73816
521.4373, 21.35814
521.9194, 21.14506
522.4016, 21.03014
522.8837, 21.02287
523.3658, 21.11475
523.8479, 21.41665
524.3300, 21.69932
524.8121, 21.84809
525.2943, 21.90798
525.7764, 21.94774
526.2585, 21.99402
526.7406, 22.07564
527.2227, 22.26212
527.7048, 22.64857
528.1870, 22.79326
528.6691, 22.53840
529.1512, 22.21752
529.6333, 21.84676
530.1154, 21.52135
530.5975, 21.40443
531.0797, 21.58589
531.5618, 21.92234
532.0439, 22.19679
532.5260, 22.41104
533.0081, 22.54149
533.4902, 22.55584
533.9724, 22.51297
534.4545, 22.43849
534.9366, 22.34392
535.4187, 22.27327
535.9008, 22.31811
536.3829, 22.33518
536.8651, 22.05912
537.3472, 21.55510
537.8293, 21.27552
538.3114, 21.39964
538.7935, 21.79987
539.2756, 22.37268
539.7578, 23.24023
540.2399, 23.67335
540.7220, 23.15619
541.2041, 22.57223
541.6862, 22.56717
542.1683, 23.01332
542.6505, 23.45505
543.1326, 23.64988
543.6147, 23.68093
544.0968, 23.77938
544.5789, 24.18132
545.0610, 24.15100
545.5432, 23.41031
546.0253, 22.51889
546.5074, 21.51351
546.9895, 20.61506
547.4716, 20.34147
547.9537, 21.18680
548.4359, 22.55461
548.9180, 23.07818
549.4001, 22.62478
549.8822, 22.27421
550.3643, 22.47818
550.8464, 22.73255
551.3286, 22.39831
551.8107, 21.54582
552.2928, 21.04100
552.7749, 21.58289
553.2570, 22.38441
553.7391, 22.52860
554.2213, 22.09602
554.7034, 21.71679
555.1855, 21.69136
555.6676, 21.84482
556.1497, 21.81056
556.6318, 21.40198
557.1140, 21.25075
557.5961, 21.56135
558.0782, 21.96282
558.5603, 22.28346
559.0424, 22.48869
559.5245, 22.54554
560.0067, 22.42758
560.4888, 22.20597
560.9709, 22.07601
561.4530, 22.11681
561.9351, 22.02679
562.4172, 21.50016
562.8994, 21.06888
563.3815, 21.01361
563.8636, 21.29642
564.3457, 21.77063
564.8278, 22.52648
565.3099, 23.25218
565.7921, 23.36480
566.2742, 22.89560
566.7563, 22.55211
567.2384, 22.56811
567.7205, 22.77387
568.2026, 22.97234
568.6848, 23.16277
569.1669, 23.38268
569.6490, 23.83891
570.1311, 24.14360
570.6132, 23.88477
571.0953, 23.26990
571.5775, 22.83706
572.0596, 22.82122
572.5417, 22.99927
573.0238, 22.96701
573.5059, 22.58279
573.9880, 22.42537
574.4702, 22.81022
574.9523, 23.08250
575.4344, 22.92836
575.9165, 22.49052
576.3986, 22.00332
576.8807, 21.55098
577.3629, 21.20678
577.8450, 21.15261
578.3271, 21.38336
578.8092, 21.40660
579.2913, 20.98971
579.7734, 20.64044
580.2556, 20.87666
580.7377, 21.48486
581.2198, 21.95571
581.7019, 22.20526
582.1840, 22.28180
582.6661, 21.94859
583.1483, 21.51652
583.6304, 21.82628
584.1125, 23.07585
584.5946, 24.17517
585.0767, 23.87482
585.5588, 22.09851
586.0409, 21.12936
586.5230, 21.69924
587.0051, 22.12540
587.4872, 21.84014
587.9694, 21.33434
