##NAMES=Dolomite
##RRUFFID=R050357
##IDEAL CHEMISTRY=CaMg(CO_3_)_2_
##LOCALITY=Black Rock, Lawrence County, Arkansas, USA
##OWNER=RRUFF
##SOURCE=California Institute of Technology
##DESCRIPTION=Aggregate of pale pink curved saddle-shaped crystals
##STATUS=The identification of this mineral has been confirmed by X-ray diffraction and chemical analysis
##URL=rruff.info/R050357
##MEASURED CHEMISTRY=Ca_1.00_(Mg_0.98_Fe^2+^_0.02_)_Î£=1_(CO_3_)_2_ ; CO_2_ estimated by difference
119.3521, 71.13447
119.8342, 73.48402
120.3163, 77.52025
120.7984, 81.37722
121.2805, 83.53896
121.7626, 84.77515
122.2448, 86.40169
122.7269, 90.03453
123.2090, 93.87281
123.6911, 95.88034
124.1732, 95.50580
124.6553, 94.71199
125.1375, 95.42805
125.6196, 97.26299
126.1017, 98.97924
126.5838, 99.44612
127.0659, 99.36549
127.5480, 100.1011
128.0302, 102.0706
128.5123, 104.4520
128.9944, 105.9342
129.4765, 106.6279
129.9586, 107.5665
130.4407, 109.8332
130.9229, 113.0701
131.4050, 115.8049
131.8871, 117.5791
132.3692, 118.7810
132.8513, 120.1950
133.3334, 121.6399
133.8156, 122.6361
134.2977, 122.8721
134.7798, 122.8086
135.2619, 124.0306
135.7440, 127.6422
136.2261, 132.7512
136.7083, 134.9025
137.1904, 133.3985
137.6725, 131.2789
138.1546, 131.9110
138.6367, 135.8214
139.1188, 139.4807
139.6010, 142.1234
140.0831, 143.7519
140.5652, 144.5639
141.0473, 144.1557
141.5294, 143.5105
142.0115, 144.0075
142.4937, 146.1518
142.9758, 148.2196
143.4579, 149.5954
143.9400, 149.9789
144.4221, 151.0961
144.9042, 153.1170
145.3864, 155.7510
145.8685, 158.4752
146.3506, 161.3573
146.8327, 164.2621
147.3148, 167.1985
147.7969, 170.2381
148.2791, 173.0886
148.7612, 175.3308
149.2433, 177.4076
149.7254, 180.3916
150.2075, 184.0618
150.6896, 188.7967
151.1718, 194.7436
151.6539, 202.8295
152.1360, 210.7641
152.6181, 217.5345
153.1002, 223.9679
153.5823, 232.5126
154.0645, 243.7675
154.5466, 256.9127
155.0287, 271.5272
155.5108, 288.0630
155.9929, 305.7259
156.4750, 323.8961
156.9572, 342.8872
157.4393, 363.6534
157.9214, 388.9840
158.4035, 414.7934
158.8856, 438.6058
159.3677, 458.6637
159.8499, 478.0037
160.3320, 497.8180
160.8141, 517.7697
161.2962, 535.8231
161.7783, 549.4578
162.2604, 561.5796
162.7426, 574.5864
163.2247, 589.3757
163.7068, 605.0336
164.1889, 621.1002
164.6710, 637.4818
165.1531, 654.9064
165.6353, 673.5368
166.1174, 693.4224
166.5995, 714.6160
167.0816, 737.1795
167.5637, 761.0032
168.0458, 785.5482
168.5280, 810.6074
169.0101, 838.4476
169.4922, 869.2468
169.9743, 903.6429
170.4564, 942.3929
170.9385, 985.6497
171.4207, 1033.436
171.9028, 1085.455
172.3849, 1141.393
172.8670, 1202.971
173.3491, 1274.086
173.8312, 1352.093
174.3134, 1432.290
174.7955, 1520.674
175.2776, 1605.811
175.7597, 1678.329
176.2418, 1739.772
176.7239, 1775.730
177.2061, 1774.917
177.6882, 1739.326
178.1703, 1674.914
178.6524, 1573.795
179.1345, 1447.740
179.6166, 1314.138
180.0988, 1170.805
180.5809, 1029.808
181.0630, 901.2103
181.5451, 784.3334
182.0272, 682.0666
182.5093, 596.2725
182.9915, 524.8553
183.4736, 465.0321
183.9557, 416.6702
184.4378, 377.3501
184.9199, 343.9071
185.4020, 316.7079
185.8842, 294.0538
186.3663, 276.6946
186.8484, 263.5604
187.3305, 251.6227
187.8126, 240.6413
188.2947, 230.4838
188.7769, 220.8371
189.2590, 211.7099
189.7411, 203.3499
190.2232, 195.9044
190.7053, 189.3411
191.1874, 183.1916
191.6696, 177.2593
192.1517, 171.8950
192.6338, 167.9083
193.1159, 165.3359
193.5980, 163.1078
194.0801, 160.4902
194.5623, 157.5522
195.0444, 155.1738
195.5265, 153.5247
196.0086, 152.3673
196.4907, 151.3402
196.9728, 150.4846
197.4550, 149.4107
197.9371, 147.9447
198.4192, 146.0891
198.9013, 143.5116
199.3834, 139.7178
199.8655, 135.6719
200.3477, 134.0958
200.8298, 135.5198
201.3119, 137.0405
201.7940, 136.6455
202.2761, 134.1056
202.7582, 132.3122
203.2404, 131.7142
203.7225, 131.8715
204.2046, 131.4908
204.6867, 130.3906
205.1688, 129.3752
205.6509, 129.0797
206.1331, 129.6649
206.6152, 129.8763
207.0973, 129.5055
207.5794, 128.7473
208.0615, 128.2290
208.5436, 128.0475
209.0258, 127.8488
209.5079, 127.4359
209.9900, 126.8073
210.4721, 125.9352
210.9542, 124.6461
211.4363, 123.1682
211.9185, 122.3072
212.4006, 122.2053
212.8827, 122.4097
213.3648, 122.6655
213.8469, 122.9738
214.3290, 123.3414
214.8112, 123.8002
215.2933, 124.3093
215.7754, 124.8024
216.2575, 125.4460
216.7396, 125.7572
217.2217, 125.1958
217.7038, 123.0825
218.1860, 122.2845
218.6681, 123.5535
219.1502, 126.1908
219.6323, 127.5072
220.1144, 126.8192
220.5965, 125.9658
221.0787, 126.0907
221.5608, 127.7302
222.0429, 128.8613
222.5250, 129.1709
223.0071, 128.9086
223.4892, 128.9680
223.9714, 129.4253
224.4535, 130.0866
224.9356, 130.8958
225.4177, 131.9769
225.8998, 132.9175
226.3819, 133.7920
226.8641, 134.5053
227.3462, 134.6877
227.8283, 134.2369
228.3104, 133.4135
228.7925, 132.3208
229.2746, 130.8061
229.7568, 129.2827
230.2389, 127.5095
230.7210, 125.7596
231.2031, 125.0532
231.6852, 125.9979
232.1673, 127.0833
232.6495, 127.5144
233.1316, 126.7996
233.6137, 126.5596
234.0958, 127.0783
234.5779, 128.0451
235.0600, 128.5336
235.5422, 128.1684
236.0243, 127.8777
236.5064, 128.1538
236.9885, 129.5243
237.4706, 130.2776
237.9527, 130.2271
238.4349, 129.5990
238.9170, 128.8431
239.3991, 127.4607
239.8812, 126.6971
240.3633, 127.2344
240.8454, 129.8831
241.3276, 131.8319
241.8097, 132.9823
242.2918, 133.4435
242.7739, 133.3548
243.2560, 132.3146
243.7381, 131.3427
244.2203, 130.7699
244.7024, 130.5244
245.1845, 130.9084
245.6666, 132.1179
246.1487, 133.8619
246.6308, 135.7256
247.1130, 138.2160
247.5951, 139.9858
248.0772, 140.3012
248.5593, 138.4937
249.0414, 137.7107
249.5235, 138.2798
250.0057, 139.6663
250.4878, 141.0675
250.9699, 142.6345
251.4520, 143.9457
251.9341, 144.8053
252.4162, 145.1160
252.8984, 145.4770
253.3805, 145.8939
253.8626, 146.3606
254.3447, 146.8310
254.8268, 147.2162
255.3089, 147.7906
255.7911, 148.5652
256.2732, 149.5004
256.7553, 151.0518
257.2374, 153.5663
257.7195, 156.3643
258.2017, 158.6867
258.6838, 160.6473
259.1659, 161.8477
259.6480, 161.6545
260.1301, 159.9330
260.6122, 160.6462
261.0944, 164.8573
261.5765, 170.2040
262.0586, 174.2618
262.5407, 176.7939
263.0228, 178.6255
263.5049, 179.5865
263.9871, 179.7562
264.4692, 180.9018
264.9513, 183.1227
265.4334, 186.1717
265.9155, 190.1987
266.3976, 195.6991
266.8798, 200.1575
267.3619, 202.5681
267.8440, 203.3658
268.3261, 205.9923
268.8082, 210.8388
269.2903, 216.6650
269.7725, 222.6371
270.2546, 228.7917
270.7367, 234.5160
271.2188, 239.4408
271.7009, 243.8563
272.1830, 249.1165
272.6652, 255.2618
273.1473, 262.0376
273.6294, 269.1424
274.1115, 276.3824
274.5936, 285.2392
275.0757, 296.0682
275.5579, 308.5288
276.0400, 321.1702
276.5221, 333.7325
277.0042, 347.5064
277.4863, 363.1256
277.9684, 380.5788
278.4506, 400.0313
278.9327, 421.6292
279.4148, 445.0510
279.8969, 469.6802
280.3790, 495.5151
280.8611, 522.5570
281.3433, 550.6899
281.8254, 580.0470
282.3075, 611.4906
282.7896, 645.9476
283.2717, 680.9393
283.7538, 711.7443
284.2360, 738.1746
284.7181, 765.4192
285.2002, 796.8047
285.6823, 831.6500
286.1644, 863.0207
286.6465, 889.7272
287.1287, 916.1747
287.6108, 948.5659
288.0929, 986.5847
288.5750, 1024.471
289.0571, 1058.855
289.5392, 1091.511
290.0214, 1128.715
290.5035, 1170.427
290.9856, 1215.426
291.4677, 1262.649
291.9498, 1312.252
292.4319, 1363.184
292.9141, 1413.747
293.3962, 1466.639
293.8783, 1530.233
294.3604, 1604.409
294.8425, 1680.699
295.3246, 1752.476
295.8068, 1821.285
296.2889, 1891.304
296.7710, 1966.363
297.2531, 2040.988
297.7352, 2108.093
298.2173, 2166.985
298.6995, 2213.838
299.1816, 2248.271
299.6637, 2268.044
300.1458, 2268.287
300.6279, 2249.162
301.1100, 2208.114
301.5922, 2137.369
302.0743, 2040.373
302.5564, 1931.639
303.0385, 1813.240
303.5206, 1689.997
304.0027, 1564.585
304.4849, 1436.997
304.9670, 1313.678
305.4491, 1200.528
305.9312, 1097.612
306.4133, 1005.056
306.8954, 925.7759
307.3776, 855.1942
307.8597, 790.1570
308.3418, 729.7949
308.8239, 675.4479
309.3060, 629.0902
309.7881, 588.7137
310.2703, 552.6153
310.7524, 520.4827
311.2345, 491.4673
311.7166, 465.7065
312.1987, 443.1341
312.6808, 422.6314
313.1630, 403.5060
313.6451, 385.9324
314.1272, 369.9407
314.6093, 356.3704
315.0914, 343.7999
315.5735, 331.3961
316.0557, 319.3885
316.5378, 309.0080
317.0199, 301.6665
317.5020, 295.6652
317.9841, 289.6739
318.4662, 283.3583
318.9484, 277.2810
319.4305, 271.4138
319.9126, 265.9088
320.3947, 261.1650
320.8768, 257.5414
321.3589, 254.5245
321.8411, 251.9908
322.3232, 250.3396
322.8053, 248.2076
323.2874, 244.7217
323.7695, 240.7093
324.2516, 237.4804
324.7338, 235.3920
325.2159, 233.9690
325.6980, 233.3604
326.1801, 233.9254
326.6622, 233.6582
327.1443, 231.5130
327.6265, 228.8670
328.1086, 227.1020
328.5907, 226.9168
329.0728, 226.8714
329.5549, 226.5132
330.0370, 225.8321
330.5192, 226.2793
331.0013, 228.5170
331.4834, 231.3226
331.9655, 233.8445
332.4476, 235.5315
332.9297, 237.9085
333.4119, 241.2647
333.8940, 245.4139
334.3761, 249.5858
334.8582, 253.9024
335.3403, 257.9015
335.8224, 261.1910
336.3046, 263.3293
336.7867, 266.2606
337.2688, 270.7251
337.7509, 275.4843
338.2330, 278.4209
338.7151, 279.8112
339.1973, 278.3972
339.6794, 272.9083
340.1615, 263.1682
340.6436, 254.4728
341.1257, 247.1986
341.6078, 240.3545
342.0899, 232.5931
342.5721, 223.9813
343.0542, 215.3156
343.5363, 206.4834
344.0184, 197.9030
344.5005, 191.4855
344.9826, 187.4617
345.4648, 184.2961
345.9469, 180.6750
346.4290, 176.6576
346.9111, 173.1204
347.3932, 170.2502
347.8753, 167.8601
348.3575, 165.8910
348.8396, 164.2952
349.3217, 162.4360
349.8038, 159.3452
350.2859, 155.7082
350.7680, 153.2470
351.2502, 152.2562
351.7323, 152.0908
352.2144, 152.7061
352.6965, 153.6776
353.1786, 153.7016
353.6607, 151.1568
354.1429, 147.7581
354.6250, 145.7053
355.1071, 145.1218
355.5892, 144.9353
356.0713, 144.2143
356.5534, 143.3815
357.0356, 143.0739
357.5177, 144.3877
357.9998, 145.5840
358.4819, 145.0546
358.9640, 143.1036
359.4461, 141.4347
359.9283, 141.3229
360.4104, 141.6688
360.8925, 141.5592
361.3746, 140.6859
361.8567, 139.5086
362.3388, 137.5202
362.8210, 135.3548
363.3031, 134.4023
363.7852, 136.4682
364.2673, 138.7471
364.7494, 139.8539
365.2315, 139.3184
365.7137, 138.8082
366.1958, 138.7793
366.6779, 138.9025
367.1600, 138.7901
367.6421, 138.2573
368.1242, 137.6333
368.6064, 136.8055
369.0885, 135.7426
369.5706, 135.2976
370.0527, 136.1071
370.5348, 137.0403
371.0169, 137.3705
371.4991, 136.8571
371.9812, 136.1087
372.4633, 134.8355
372.9454, 133.3635
373.4275, 132.9885
373.9096, 134.4221
374.3918, 135.7072
374.8739, 135.7751
375.3560, 134.2042
375.8381, 133.4267
376.3202, 133.7914
376.8023, 134.5061
377.2845, 134.1734
377.7666, 132.5297
378.2487, 131.3072
378.7308, 131.2594
379.2129, 132.1722
379.6950, 132.6213
380.1772, 132.5717
380.6593, 132.2554
381.1414, 131.8784
381.6235, 131.4329
382.1056, 130.7604
382.5877, 129.7105
383.0699, 128.5878
383.5520, 127.9731
384.0341, 127.8364
384.5162, 127.9236
384.9983, 128.0144
385.4804, 128.2201
385.9626, 128.9742
386.4447, 130.4630
386.9268, 131.7230
387.4089, 131.3976
387.8910, 130.0794
388.3731, 129.1093
388.8553, 129.7104
389.3374, 130.5385
389.8195, 130.1303
390.3016, 128.5480
390.7837, 126.9634
391.2658, 125.8755
391.7480, 125.2737
392.2301, 125.1690
392.7122, 125.7642
393.1943, 126.5807
393.6764, 127.8317
394.1585, 129.1910
394.6407, 129.7139
395.1228, 128.2329
395.6049, 126.5181
396.0870, 125.3463
396.5691, 124.7767
397.0512, 124.8974
397.5334, 126.5809
398.0155, 128.6929
398.4976, 129.7943
398.9797, 129.2313
399.4618, 128.1978
399.9439, 126.4596
400.4261, 124.0249
400.9082, 122.9127
401.3903, 124.0405
401.8724, 125.6158
402.3545, 126.4479
402.8366, 125.9258
403.3188, 126.0317
403.8009, 127.2411
404.2830, 128.9826
404.7651, 129.7370
405.2472, 129.2232
405.7293, 128.5061
406.2115, 127.9956
406.6936, 127.7027
407.1757, 127.3784
407.6578, 127.0039
408.1399, 126.6488
408.6220, 126.3452
409.1042, 126.0965
409.5863, 126.0664
410.0684, 126.3947
410.5505, 126.8935
411.0326, 127.0577
411.5147, 126.9010
411.9969, 126.8184
412.4790, 127.1048
412.9611, 127.6765
413.4432, 128.5602
413.9253, 130.0000
414.4074, 130.8397
414.8896, 128.8529
415.3717, 125.2540
415.8538, 122.9195
416.3359, 124.4533
416.8180, 127.0914
417.3001, 128.3771
417.7823, 128.2916
418.2644, 127.8542
418.7465, 127.3452
419.2286, 126.9169
419.7107, 126.7607
420.1928, 127.4267
420.6750, 127.6854
421.1571, 126.5049
421.6392, 124.5121
422.1213, 123.3666
422.6034, 123.8678
423.0855, 124.9938
423.5677, 126.6091
424.0498, 129.1283
424.5319, 130.5467
425.0140, 129.8240
425.4961, 128.3622
425.9782, 127.5788
426.4604, 127.9811
426.9425, 128.3349
427.4246, 128.5404
427.9067, 128.5806
428.3888, 128.2459
428.8709, 127.2494
429.3531, 126.3865
429.8352, 126.2251
430.3173, 127.0013
430.7994, 127.2592
431.2815, 126.8824
431.7636, 126.1004
432.2458, 125.0662
432.7279, 123.7292
433.2100, 122.9894
433.6921, 123.3636
434.1742, 124.5492
434.6563, 125.4568
435.1385, 126.0928
435.6206, 126.6146
436.1027, 127.1299
436.5848, 127.6387
437.0669, 128.1787
437.5490, 128.8252
438.0312, 129.3389
438.5133, 129.5141
438.9954, 129.3526
439.4775, 128.8559
439.9596, 127.6213
440.4417, 126.3109
440.9239, 125.4694
441.4060, 125.1291
441.8881, 125.1989
442.3702, 126.0442
442.8523, 127.0830
443.3344, 127.7625
443.8166, 127.8487
444.2987, 127.6544
444.7808, 126.9811
445.2629, 126.0593
445.7450, 125.5631
446.2271, 125.8087
446.7093, 126.3567
447.1914, 127.1470
447.6735, 128.3731
448.1556, 129.1753
448.6377, 129.4503
449.1198, 129.3645
449.6020, 129.0111
450.0841, 128.0921
450.5662, 127.5687
451.0483, 127.7325
451.5304, 128.3977
452.0125, 128.7147
452.4947, 128.6136
452.9768, 128.3889
453.4589, 128.2191
453.9410, 128.1060
454.4231, 127.7665
454.9052, 127.1059
455.3874, 126.4898
455.8695, 126.3973
456.3516, 126.7859
456.8337, 127.3659
457.3158, 128.1958
457.7979, 129.0413
458.2801, 129.4781
458.7622, 129.5344
459.2443, 129.4080
459.7264, 129.0714
460.2085, 128.6970
460.6906, 128.4716
461.1728, 128.3894
461.6549, 128.6154
462.1370, 129.9123
462.6191, 131.4563
463.1012, 132.0039
463.5833, 129.8209
464.0655, 127.7310
464.5476, 127.1678
465.0297, 127.9821
465.5118, 128.6940
465.9939, 128.9691
466.4760, 128.9817
466.9582, 128.7661
467.4403, 127.8317
467.9224, 127.5706
468.4045, 128.4872
468.8866, 129.8783
469.3687, 130.7818
469.8509, 131.1480
470.3330, 131.0453
470.8151, 130.1961
471.2972, 128.7540
471.7793, 128.4859
472.2614, 129.7553
472.7436, 131.2051
473.2257, 131.9758
473.7078, 132.0639
474.1899, 131.5482
474.6720, 130.2311
475.1541, 128.8665
475.6363, 128.8243
476.1184, 129.8850
476.6005, 130.6216
477.0826, 130.0524
477.5647, 129.0612
478.0468, 129.4829
478.5290, 131.1296
479.0111, 132.2923
479.4932, 131.2159
479.9753, 129.2160
480.4574, 127.7372
480.9395, 126.9686
481.4217, 126.9759
481.9038, 128.5636
482.3859, 130.7842
482.8680, 132.2235
483.3501, 131.2749
483.8322, 130.5736
484.3144, 131.6771
484.7965, 134.3826
485.2786, 135.6234
485.7607, 133.0738
486.2428, 130.4111
486.7249, 129.5666
487.2071, 131.8330
487.6892, 133.1461
488.1713, 133.1446
488.6534, 132.4438
489.1355, 131.9127
489.6176, 131.6068
490.0998, 131.3238
490.5819, 131.0704
491.0640, 130.7959
491.5461, 130.0224
492.0282, 128.6117
492.5103, 127.6931
492.9925, 128.4521
493.4746, 130.5166
493.9567, 131.8831
494.4388, 132.3804
494.9209, 132.4254
495.4030, 132.3712
495.8852, 132.2376
496.3673, 132.0638
496.8494, 131.7059
497.3315, 131.4625
497.8136, 131.7755
498.2957, 132.5040
498.7779, 133.0614
499.2600, 132.9942
499.7421, 132.7523
500.2242, 132.6221
500.7063, 132.6327
501.1884, 132.7875
501.6706, 133.4651
502.1527, 134.1232
502.6348, 134.2002
503.1169, 132.9166
503.5990, 131.8932
504.0811, 131.2382
504.5633, 130.9657
505.0454, 131.2196
505.5275, 132.4569
506.0096, 133.4243
506.4917, 133.5548
506.9738, 132.7758
507.4560, 131.9897
507.9381, 131.1301
508.4202, 130.4396
508.9023, 130.1948
509.3844, 130.3800
509.8665, 130.8007
510.3487, 131.5576
510.8308, 132.2823
511.3129, 132.1183
511.7950, 131.2764
512.2772, 130.7370
512.7593, 131.5503
513.2414, 132.6677
513.7235, 132.6271
514.2056, 131.4559
514.6877, 130.4034
515.1699, 130.0390
515.6520, 130.2768
516.1341, 131.1708
516.6162, 133.3653
517.0983, 134.9675
517.5804, 134.8848
518.0626, 133.9172
518.5447, 133.3774
519.0268, 133.7664
519.5089, 134.2963
519.9910, 134.8778
520.4731, 135.4962
520.9553, 135.9110
521.4374, 136.2176
521.9195, 136.1765
522.4016, 135.3526
522.8837, 133.3293
523.3658, 133.0277
523.8480, 135.0281
524.3301, 137.5760
524.8122, 138.0529
525.2943, 136.6032
525.7764, 135.6073
526.2585, 135.9765
526.7407, 136.8513
527.2228, 136.3867
527.7049, 134.8384
528.1870, 133.7110
528.6691, 134.4205
529.1512, 135.7768
529.6334, 136.3956
530.1155, 136.1695
530.5976, 135.6586
531.0797, 134.7767
531.5618, 133.9692
532.0439, 133.7024
532.5261, 134.4359
533.0082, 135.2134
533.4903, 135.8999
533.9724, 136.4594
534.4545, 136.8281
534.9366, 136.6814
535.4188, 136.7177
535.9009, 137.2763
536.3830, 138.3318
536.8651, 138.6528
537.3472, 137.9904
537.8293, 137.0928
538.3115, 136.4821
538.7936, 136.1971
539.2757, 135.5964
539.7578, 134.5020
540.2399, 133.5251
540.7220, 133.5468
541.2042, 134.4539
541.6863, 135.6631
542.1684, 137.3596
542.6505, 138.8452
543.1326, 138.7814
543.6147, 137.5355
544.0969, 136.5075
544.5790, 136.6618
545.0611, 137.2959
545.5432, 138.0689
546.0253, 138.9807
546.5074, 139.2547
546.9896, 137.4018
547.4717, 135.4253
547.9538, 134.9872
548.4359, 138.5207
548.9180, 140.6418
549.4001, 139.7607
549.8823, 137.5977
550.3644, 137.2412
550.8465, 140.2574
551.3286, 142.0609
551.8107, 141.0426
552.2928, 137.7157
552.7750, 135.9584
553.2571, 135.9546
553.7392, 136.5484
554.2213, 137.3279
554.7034, 138.1587
555.1855, 138.0054
555.6677, 136.6614
556.1498, 135.5081
556.6319, 136.4582
557.1140, 138.6367
557.5961, 140.2536
558.0782, 140.7506
558.5604, 140.6051
559.0425, 139.7561
559.5246, 138.5573
560.0067, 137.8044
560.4888, 137.9249
560.9709, 138.4789
561.4531, 139.5576
561.9352, 141.1478
562.4173, 142.0984
562.8994, 141.9503
563.3815, 141.3613
563.8636, 140.5770
564.3458, 139.3615
564.8279, 138.6338
565.3100, 138.5357
565.7921, 138.7384
566.2742, 138.7938
566.7563, 138.6659
567.2385, 138.7760
567.7206, 139.2918
568.2027, 139.9990
568.6848, 140.3449
569.1669, 140.3899
569.6490, 140.5527
570.1312, 141.2535
570.6133, 142.1217
571.0954, 142.6568
571.5775, 142.8551
572.0596, 142.7673
572.5417, 142.3796
573.0239, 141.7523
573.5060, 140.7596
573.9881, 138.8849
574.4702, 137.9965
574.9523, 139.5994
575.4344, 142.1450
575.9166, 143.6588
576.3987, 143.4669
576.8808, 142.9521
577.3629, 141.9802
577.8450, 140.8154
578.3271, 140.3153
578.8093, 140.5511
579.2914, 141.2629
579.7735, 142.6665
580.2556, 144.5477
580.7377, 145.2420
581.2198, 144.6696
581.7020, 143.6866
582.1841, 142.7062
582.6662, 141.8805
583.1483, 141.6462
583.6304, 142.1359
584.1125, 142.8288
584.5947, 143.5026
585.0768, 144.0247
585.5589, 144.1911
586.0410, 143.4561
586.5231, 142.8942
587.0052, 143.0803
587.4873, 143.7963
587.9694, 144.4477
588.4515, 145.2836
588.9337, 145.6589
589.4158, 145.1053
589.8979, 143.6128
590.3800, 143.1589
590.8621, 144.2838
591.3442, 145.4911
591.8264, 145.6449
592.3085, 144.6318
592.7906, 144.4975
593.2727, 145.5041
593.7548, 146.6589
594.2369, 146.6599
594.7191, 145.7871
595.2012, 145.1146
595.6833, 144.9018
596.1654, 144.9918
596.6475, 145.4060
597.1296, 145.9907
597.6118, 146.4002
598.0939, 146.2222
598.5760, 146.0573
599.0581, 146.4610
599.5402, 147.3215
600.0223, 147.6252
600.5045, 146.4915
600.9866, 145.3242
601.4687, 144.8190
601.9508, 145.2057
602.4329, 145.1958
602.9150, 144.4382
603.3972, 143.7727
603.8793, 144.1555
604.3614, 145.7422
604.8435, 146.6240
605.3256, 146.3978
605.8077, 145.7983
606.2899, 146.0044
606.7720, 146.8751
607.2541, 147.7888
607.7362, 148.8469
608.2183, 149.4886
608.7004, 148.6566
609.1826, 146.7395
609.6647, 145.1167
610.1468, 144.1262
610.6289, 143.9233
611.1110, 145.1322
611.5931, 147.8521
612.0753, 149.4147
612.5574, 147.8968
613.0395, 146.1759
613.5216, 145.9958
614.0037, 148.3148
