##NAMES=Dolomite
##RRUFFID=R100168
##IDEAL CHEMISTRY=CaMg(CO_3_)_2_
##LOCALITY=Oberdorf An Der Laming Moine near Bruck An Der Mur, Styria, Austria
##OWNER=RRUFF
##SOURCE=Mineralogical Museum, Harvard University
##DESCRIPTION=Colorless transparent cleavage rhomb
##STATUS=The identification of this mineral has been confirmed only by single crystal X-ray diffraction.
##URL=rruff.info/R100168
91.03516, 47.12605
91.51727, 47.12848
91.99939, 47.09544
92.48151, 47.05494
92.96362, 47.08685
93.44574, 47.50989
93.92786, 48.00928
94.40997, 47.87579
94.89210, 47.00177
95.37421, 45.66590
95.85633, 43.83244
96.33845, 41.55083
96.82056, 40.09076
97.30268, 41.11382
97.78480, 44.25879
98.26691, 45.70936
98.74903, 44.59920
99.23115, 41.80237
99.71326, 39.74089
100.1954, 38.53114
100.6775, 37.68418
101.1596, 36.67972
101.6417, 35.33223
102.1239, 34.86600
102.6060, 35.89742
103.0881, 38.28070
103.5702, 39.21906
104.0523, 38.01687
104.5344, 36.22871
105.0166, 35.54412
105.4987, 36.65213
105.9808, 37.66109
106.4629, 38.22311
106.9450, 38.38099
107.4271, 37.84285
107.9093, 35.53881
108.3914, 32.91393
108.8735, 32.13684
109.3556, 35.85398
109.8377, 38.96892
110.3198, 39.89176
110.8020, 36.83476
111.2841, 35.02715
111.7662, 35.91812
112.2483, 38.19044
112.7304, 38.93708
113.2125, 35.82976
113.6947, 32.51257
114.1768, 30.75659
114.6589, 31.96074
115.1410, 33.15834
115.6231, 33.66911
116.1052, 33.61802
116.5874, 33.48717
117.0695, 33.70869
117.5516, 33.77903
118.0337, 33.30979
118.5158, 31.22323
118.9980, 29.43817
119.4801, 29.10384
119.9622, 30.09891
120.4443, 30.96491
120.9264, 30.42563
121.4085, 29.40875
121.8907, 29.05615
122.3728, 31.19222
122.8549, 33.32379
123.3370, 32.78671
123.8191, 29.39219
124.3012, 26.28185
124.7834, 26.42293
125.2655, 28.74868
125.7476, 30.98205
126.2297, 32.17084
126.7118, 32.56314
127.1939, 32.36135
127.6761, 31.49714
128.1582, 30.44117
128.6403, 29.54302
129.1224, 28.84653
129.6045, 28.56291
130.0867, 28.94015
130.5688, 29.85078
131.0509, 30.88891
131.5330, 32.06825
132.0151, 33.27647
132.4972, 34.63579
132.9794, 36.14790
133.4615, 36.84062
133.9436, 35.00286
134.4257, 30.95218
134.9078, 29.50599
135.3899, 32.03807
135.8721, 36.99925
136.3542, 39.91444
136.8363, 40.42336
137.3184, 40.48900
137.8005, 41.70365
138.2826, 44.23569
138.7648, 46.74044
139.2469, 48.90876
139.7290, 50.84450
140.2111, 53.08522
140.6932, 55.52544
141.1753, 58.50251
141.6575, 62.46743
142.1396, 67.92471
142.6217, 73.07561
143.1038, 77.30721
143.5859, 80.56715
144.0681, 84.88654
144.5502, 91.02772
145.0323, 97.58266
145.5144, 103.0139
145.9965, 106.7727
146.4786, 110.1728
146.9608, 113.2202
147.4429, 115.6201
147.9250, 119.1621
148.4071, 124.4488
148.8892, 130.6655
149.3713, 136.4797
149.8535, 141.1179
150.3356, 146.1918
150.8177, 152.0572
151.2998, 158.5214
151.7819, 166.1967
152.2640, 174.6875
152.7462, 184.4569
153.2283, 196.1831
153.7104, 210.5369
154.1925, 226.3469
154.6746, 243.0977
155.1567, 259.9349
155.6389, 278.7433
156.1210, 299.4315
156.6031, 322.2984
157.0852, 348.2435
157.5673, 378.7814
158.0495, 411.3691
158.5316, 445.3717
159.0137, 482.9348
159.4958, 518.2966
159.9779, 550.1526
160.4600, 578.8409
160.9422, 605.4658
161.4243, 629.4484
161.9064, 652.0359
162.3885, 673.8461
162.8706, 693.6468
163.3527, 714.6745
163.8349, 737.7822
164.3170, 763.1578
164.7991, 791.6973
165.2812, 823.8865
165.7633, 859.4022
166.2454, 897.9287
166.7276, 938.7245
167.2097, 983.0935
167.6918, 1031.544
168.1739, 1083.906
168.6560, 1142.306
169.1381, 1205.581
169.6203, 1275.724
170.1024, 1346.458
170.5845, 1420.147
171.0666, 1505.130
171.5487, 1603.469
172.0309, 1714.381
172.5130, 1838.104
172.9951, 1975.904
173.4772, 2125.949
173.9593, 2286.190
174.4414, 2464.033
174.9236, 2646.408
175.4057, 2827.587
175.8878, 3009.869
176.3699, 3158.876
176.8520, 3272.077
177.3341, 3334.627
177.8163, 3312.160
178.2984, 3170.024
178.7805, 2943.783
179.2626, 2665.430
179.7447, 2336.378
180.2268, 2003.810
180.7090, 1707.119
181.1911, 1446.305
181.6732, 1226.828
182.1553, 1061.887
182.6374, 938.4989
183.1195, 836.9059
183.6017, 756.1252
184.0838, 691.0413
184.5659, 635.0436
185.0480, 588.2365
185.5301, 548.7951
186.0123, 518.0220
186.4944, 494.1779
186.9765, 473.3188
187.4586, 455.2304
187.9407, 439.4191
188.4228, 425.1423
188.9050, 412.4478
189.3871, 401.4272
189.8692, 392.8893
190.3513, 386.4029
190.8334, 379.4985
191.3155, 371.9364
191.7977, 364.3781
192.2798, 358.0450
192.7619, 352.9340
193.2440, 347.9124
193.7261, 341.9915
194.2082, 335.3567
194.6904, 329.8721
195.1725, 325.6911
195.6546, 322.5514
196.1367, 320.3845
196.6188, 319.2464
197.1009, 318.1519
197.5831, 316.6163
198.0652, 314.6273
198.5473, 312.3600
199.0294, 309.6766
199.5115, 306.9174
199.9937, 304.7239
200.4758, 303.1205
200.9579, 302.0254
201.4400, 301.7983
201.9221, 302.5787
202.4042, 302.1080
202.8864, 299.8859
203.3685, 296.7209
203.8506, 294.4495
204.3327, 293.1642
204.8148, 292.4532
205.2969, 292.1368
205.7791, 292.2223
206.2612, 292.7523
206.7433, 294.0487
207.2254, 295.5513
207.7075, 295.6592
208.1896, 293.9725
208.6718, 292.0614
209.1539, 290.6697
209.6360, 289.8081
210.1181, 289.5313
210.6002, 290.0611
211.0823, 291.0621
211.5645, 291.5100
212.0466, 291.1548
212.5287, 290.8600
213.0108, 291.2518
213.4929, 292.6958
213.9750, 293.3784
214.4572, 292.9798
214.9393, 291.8530
215.4214, 290.9474
215.9035, 290.1565
216.3856, 289.7948
216.8678, 290.1130
217.3499, 291.3273
217.8320, 292.4974
218.3141, 293.5501
218.7962, 294.5213
219.2783, 295.5464
219.7605, 296.6982
220.2426, 297.7372
220.7247, 298.4311
221.2068, 298.4705
221.6889, 299.0379
222.1710, 300.2632
222.6532, 302.0301
223.1353, 304.0661
223.6174, 306.8860
224.0995, 309.1642
224.5816, 310.0190
225.0637, 308.4915
225.5459, 308.0695
226.0280, 309.2509
226.5101, 311.5223
226.9922, 313.3414
227.4743, 314.8133
227.9564, 315.7013
228.4386, 315.8860
228.9207, 315.2798
229.4028, 314.1239
229.8849, 312.1064
230.3670, 309.6153
230.8492, 307.6832
231.3313, 306.4694
231.8134, 305.5963
232.2955, 304.9106
232.7776, 304.4958
233.2597, 304.1314
233.7419, 303.9342
234.2240, 303.7609
234.7061, 303.1594
235.1882, 301.6806
235.6703, 300.4703
236.1524, 300.0976
236.6346, 301.1376
237.1167, 301.6998
237.5988, 301.6345
238.0809, 301.1533
238.5630, 300.6899
239.0451, 300.0395
239.5273, 299.7152
240.0094, 299.9785
240.4915, 301.1032
240.9736, 302.0927
241.4557, 302.9321
241.9378, 303.6399
242.4200, 304.2226
242.9021, 304.5083
243.3842, 304.9389
243.8663, 305.7213
244.3484, 307.0247
244.8306, 308.1706
245.3127, 309.1031
245.7948, 309.8991
246.2769, 310.6526
246.7590, 311.1763
247.2411, 311.9706
247.7233, 313.3398
248.2054, 315.6149
248.6875, 317.2758
249.1696, 318.3819
249.6517, 318.8321
250.1338, 318.1771
250.6160, 315.1728
251.0981, 313.3356
251.5802, 314.2384
252.0623, 318.7579
252.5444, 321.4077
253.0265, 321.3427
253.5087, 320.0870
253.9908, 319.8708
254.4729, 321.3406
254.9550, 322.5002
255.4371, 322.4029
255.9192, 320.6551
256.4014, 321.0273
256.8835, 324.5605
257.3656, 329.1840
257.8477, 332.4731
258.3298, 334.0186
258.8120, 335.1365
259.2941, 336.0308
259.7762, 336.6738
260.2583, 337.6035
260.7404, 338.8357
261.2225, 340.3352
261.7047, 342.1858
262.1868, 344.6240
262.6689, 346.7466
263.1510, 348.1258
263.6331, 348.7918
264.1152, 350.6127
264.5974, 354.0484
265.0795, 357.9128
265.5616, 360.8702
266.0437, 362.5646
266.5258, 364.7213
267.0079, 367.8078
267.4901, 371.7135
267.9722, 375.0860
268.4543, 377.7159
268.9364, 380.3245
269.4185, 383.4409
269.9006, 387.0502
270.3828, 391.3227
270.8649, 396.6636
271.3470, 402.6796
271.8291, 407.3113
272.3112, 409.9814
272.7933, 412.8998
273.2755, 417.6372
273.7576, 424.3256
274.2397, 431.8216
274.7218, 440.0639
275.2039, 448.9198
275.6860, 457.6644
276.1682, 466.0049
276.6503, 475.6429
277.1324, 487.8555
277.6145, 502.6460
278.0966, 518.3915
278.5787, 534.7051
279.0609, 552.1483
279.5430, 572.4266
280.0251, 595.6459
280.5072, 620.6000
280.9893, 646.0399
281.4715, 671.7766
281.9536, 702.2178
282.4357, 738.0911
282.9178, 777.6826
283.3999, 818.4826
283.8820, 860.5098
284.3642, 903.3710
284.8463, 946.8657
285.3284, 991.1818
285.8105, 1036.171
286.2926, 1082.069
286.7747, 1128.554
287.2569, 1174.663
287.7390, 1220.454
288.2211, 1268.060
288.7032, 1317.792
289.1853, 1369.915
289.6674, 1425.901
290.1496, 1485.816
290.6317, 1550.648
291.1138, 1621.348
291.5959, 1698.230
292.0780, 1780.224
292.5602, 1865.370
293.0423, 1956.626
293.5244, 2061.965
294.0065, 2181.096
294.4886, 2311.355
294.9707, 2451.863
295.4529, 2603.174
295.9350, 2764.492
296.4171, 2940.077
296.8992, 3123.760
297.3813, 3307.555
297.8634, 3489.864
298.3456, 3661.936
298.8277, 3824.750
299.3098, 3970.531
299.7919, 4082.259
300.2740, 4158.483
300.7561, 4193.670
301.2383, 4179.481
301.7204, 4116.811
302.2025, 4009.358
302.6846, 3846.502
303.1667, 3643.885
303.6488, 3416.145
304.1310, 3161.538
304.6131, 2901.102
305.0952, 2651.669
305.5773, 2414.730
306.0594, 2195.255
306.5415, 1990.590
307.0237, 1805.743
307.5058, 1643.867
307.9879, 1507.045
308.4700, 1388.557
308.9521, 1284.812
309.4343, 1195.275
309.9164, 1116.382
310.3985, 1048.634
310.8806, 988.8118
311.3627, 934.8271
311.8448, 886.1032
312.3270, 842.7004
312.8091, 805.7561
313.2912, 773.6774
313.7733, 744.5828
314.2554, 718.1794
314.7375, 694.2706
315.2197, 673.5333
315.7018, 655.5240
316.1839, 638.1847
316.6660, 619.5521
317.1481, 601.6263
317.6302, 586.2906
318.1124, 575.0777
318.5945, 564.9944
319.0766, 555.0491
319.5587, 545.3972
320.0408, 536.4194
320.5229, 528.5194
321.0051, 521.1251
321.4872, 513.8083
321.9693, 506.0729
322.4514, 499.3843
322.9335, 494.2850
323.4156, 490.4150
323.8978, 487.0816
324.3799, 484.6152
324.8620, 482.2759
325.3441, 479.7310
325.8262, 476.7907
326.3083, 474.2561
326.7905, 472.0499
327.2726, 470.3197
327.7547, 469.2713
328.2368, 468.8028
328.7189, 469.1172
329.2010, 470.5301
329.6832, 473.1618
330.1653, 475.3935
330.6474, 476.7101
331.1295, 477.9961
331.6116, 479.9431
332.0938, 482.3562
332.5759, 485.7545
333.0580, 490.1935
333.5401, 495.6850
334.0222, 502.0064
334.5043, 509.3105
334.9865, 517.2976
335.4686, 525.7996
335.9507, 534.6414
336.4328, 544.6722
336.9149, 556.5512
337.3970, 569.5085
337.8792, 581.5093
338.3613, 593.4025
338.8434, 602.4943
339.3255, 607.7620
339.8076, 609.1628
340.2898, 607.1443
340.7719, 601.7650
341.2540, 592.8896
341.7361, 579.3685
342.2182, 561.0816
342.7003, 541.4952
343.1825, 521.2737
343.6646, 500.6210
344.1467, 481.9254
344.6288, 464.9039
345.1109, 450.4331
345.5930, 439.6807
346.0752, 432.5359
346.5573, 426.4942
347.0394, 421.0486
347.5215, 416.1966
348.0036, 411.7586
348.4857, 407.7579
348.9679, 404.3612
349.4500, 401.8206
349.9321, 399.9624
350.4142, 398.4129
350.8963, 397.2820
351.3784, 395.9895
351.8606, 393.4330
352.3427, 389.9792
352.8248, 386.9230
353.3069, 384.9554
353.7890, 383.8748
354.2711, 383.5980
354.7533, 384.2061
355.2354, 384.8332
355.7175, 384.7031
356.1996, 384.0858
356.6817, 383.4500
357.1638, 382.9192
357.6460, 382.4975
358.1281, 382.1580
358.6102, 381.9071
359.0923, 381.8210
359.5744, 382.0631
360.0565, 382.4398
360.5387, 382.7984
361.0208, 383.5394
361.5029, 383.7007
361.9850, 382.2292
362.4671, 379.7197
362.9492, 378.0249
363.4314, 378.6769
363.9135, 379.6719
364.3956, 379.8069
364.8777, 378.3737
365.3598, 377.3906
365.8419, 377.7146
366.3241, 378.6492
366.8062, 379.1491
367.2883, 378.0269
367.7704, 377.4589
368.2526, 378.4263
368.7347, 381.4225
369.2168, 383.1588
369.6989, 382.9819
370.1810, 381.9163
370.6631, 380.7128
371.1453, 378.4402
371.6274, 377.4605
372.1095, 378.5990
372.5916, 381.4533
373.0737, 383.3290
373.5558, 384.0839
374.0380, 384.0968
374.5201, 383.3724
375.0022, 381.4603
375.4843, 380.3940
375.9664, 380.5278
376.4485, 381.2848
376.9307, 381.3878
377.4128, 380.5854
377.8949, 380.2102
378.3770, 381.1265
378.8591, 383.2199
379.3412, 384.1739
379.8234, 383.8399
380.3055, 382.8604
380.7876, 381.7988
381.2697, 380.6599
381.7518, 379.6537
382.2339, 378.7475
382.7161, 378.0799
383.1982, 378.1642
383.6803, 378.9745
384.1624, 379.7357
384.6445, 379.7019
385.1266, 379.1810
385.6088, 378.9360
386.0909, 379.1013
386.5730, 379.5021
387.0551, 380.0664
387.5372, 380.7196
388.0193, 381.2565
388.5015, 381.3303
388.9836, 381.3529
389.4657, 381.8550
389.9478, 382.8783
390.4299, 383.8726
390.9120, 384.6230
391.3942, 385.0775
391.8763, 385.1538
392.3584, 384.3421
392.8405, 383.6085
393.3226, 383.4992
393.8047, 383.9139
394.2869, 384.3901
394.7690, 385.1803
395.2511, 385.6841
395.7332, 385.3715
396.2154, 383.3812
396.6975, 382.2169
397.1796, 383.0086
397.6617, 384.8582
398.1438, 386.2123
398.6259, 386.6107
399.1081, 386.7513
399.5902, 386.7585
400.0723, 386.6073
400.5544, 386.4917
401.0365, 386.1613
401.5186, 386.0449
402.0008, 386.5757
402.4829, 388.4287
402.9650, 389.6314
403.4471, 389.8269
403.9292, 389.2057
404.4113, 388.5461
404.8935, 387.8152
405.3756, 387.1117
405.8577, 386.3799
406.3398, 385.5448
406.8219, 385.3686
407.3040, 385.9957
407.7862, 387.0366
408.2683, 388.1484
408.7504, 389.3566
409.2325, 389.9658
409.7146, 389.4937
410.1967, 388.3100
410.6789, 387.5942
411.1610, 387.3593
411.6431, 387.3521
412.1252, 387.2128
412.6073, 387.1172
413.0894, 387.6570
413.5716, 389.1034
414.0537, 390.8423
414.5358, 392.1855
415.0179, 393.1876
415.5000, 394.0807
415.9821, 395.0135
416.4643, 395.8640
416.9464, 396.5854
417.4285, 397.1793
417.9106, 397.3455
418.3927, 396.2482
418.8748, 394.8176
419.3570, 394.1781
419.8391, 395.4970
420.3212, 396.9055
420.8033, 397.6151
421.2854, 397.7433
421.7675, 397.8652
422.2497, 398.2995
422.7318, 398.6781
423.2139, 398.7610
423.6960, 398.2850
424.1781, 398.0529
424.6602, 398.3310
425.1424, 398.8636
425.6245, 399.2672
426.1066, 399.3087
426.5887, 399.5146
427.0709, 400.1050
427.5530, 401.0771
428.0351, 401.6170
428.5172, 401.4156
428.9993, 401.2034
429.4814, 401.5391
429.9636, 402.5675
430.4457, 403.6218
430.9278, 404.7728
431.4099, 405.7935
431.8920, 405.9602
432.3741, 405.1181
432.8563, 404.6472
433.3384, 405.6609
433.8205, 407.7798
434.3026, 408.0458
434.7847, 406.2484
435.2668, 404.3047
435.7490, 404.2752
436.2311, 405.7575
436.7132, 407.3820
437.1953, 408.9551
437.6774, 410.2743
438.1595, 411.0175
438.6417, 411.2617
439.1238, 411.3231
439.6059, 411.2267
440.0880, 411.1326
440.5701, 411.2440
441.0522, 411.6126
441.5344, 411.9946
442.0165, 412.4282
442.4986, 412.7289
442.9807, 412.6656
443.4628, 411.4862
443.9449, 410.5896
444.4271, 410.6798
444.9092, 411.6003
445.3913, 412.4409
445.8734, 412.8553
446.3555, 413.2065
446.8376, 413.6980
447.3198, 414.5674
447.8019, 415.1188
448.2840, 415.0483
448.7661, 414.7714
449.2482, 414.9074
449.7303, 415.8961
450.2125, 416.5125
450.6946, 416.1988
451.1767, 415.0916
451.6588, 415.3834
452.1409, 417.6380
452.6230, 419.9928
453.1052, 421.0267
453.5873, 420.6475
454.0694, 420.3170
454.5515, 420.1999
455.0337, 420.0683
455.5158, 419.2139
455.9979, 417.7236
456.4800, 417.0368
456.9621, 418.3939
457.4442, 420.7910
457.9264, 421.8161
458.4085, 421.5053
458.8906, 420.8074
459.3727, 420.0269
459.8548, 419.4837
460.3369, 419.8304
460.8191, 421.5414
461.3012, 423.3878
461.7833, 424.7669
462.2654, 425.5486
462.7475, 425.4587
463.2296, 422.9339
463.7118, 420.6905
464.1939, 420.5647
464.6760, 422.6874
465.1581, 424.5662
465.6402, 425.1075
466.1223, 425.2902
466.6045, 425.7924
467.0866, 427.5117
467.5687, 428.5321
468.0508, 428.1643
468.5329, 427.0860
469.0150, 426.8252
469.4972, 427.8244
469.9793, 428.9788
470.4614, 430.0110
470.9435, 430.9286
471.4256, 431.6110
471.9077, 432.0323
472.3899, 432.2849
472.8720, 432.4396
473.3541, 432.4998
473.8362, 432.4662
474.3183, 432.3126
474.8004, 432.1102
475.2826, 431.8495
475.7647, 431.5612
476.2468, 431.7021
476.7289, 432.7974
477.2110, 434.4288
477.6931, 435.7167
478.1753, 436.6561
478.6574, 437.2922
479.1395, 437.6516
479.6216, 437.7332
480.1037, 437.3825
480.5858, 435.9752
481.0680, 435.2363
481.5501, 437.4433
482.0322, 441.1566
482.5143, 443.3470
482.9964, 441.2885
483.4786, 438.7778
483.9607, 437.6719
484.4428, 438.2042
484.9249, 438.6567
485.4070, 438.5977
485.8892, 438.4145
486.3713, 438.3819
486.8534, 438.6502
487.3355, 438.8408
487.8176, 438.7599
488.2997, 438.6547
488.7819, 439.1209
489.2640, 440.4530
489.7461, 441.6992
490.2282, 442.6301
490.7103, 443.2371
491.1924, 443.0553
491.6746, 441.8162
492.1567, 440.8681
492.6388, 441.7553
493.1209, 444.2336
493.6030, 446.1023
494.0851, 447.1101
494.5673, 447.3650
495.0494, 446.4291
495.5315, 444.7133
496.0136, 443.7357
496.4957, 444.5945
496.9778, 446.3226
497.4600, 448.3105
497.9421, 450.4350
498.4242, 451.6978
498.9063, 450.9102
499.3884, 449.3516
499.8705, 448.0574
500.3527, 447.1841
500.8348, 446.7270
501.3169, 447.0165
501.7990, 447.6452
502.2811, 448.0412
502.7632, 447.8683
503.2454, 447.7073
503.7275, 447.5521
504.2096, 447.4437
504.6917, 447.8596
505.1738, 449.0753
505.6559, 450.4423
506.1381, 451.7419
506.6202, 453.1737
507.1023, 453.5898
507.5844, 452.6026
508.0665, 451.3085
508.5486, 451.2814
509.0308, 452.5510
509.5129, 453.8556
509.9950, 454.8233
510.4771, 455.6611
510.9592, 457.1203
511.4413, 459.0718
511.9235, 460.4241
512.4056, 459.9596
512.8877, 458.6456
513.3698, 457.8505
513.8519, 457.6785
514.3340, 457.9442
514.8162, 459.2386
515.2983, 460.6285
515.7804, 460.9169
516.2625, 458.2520
516.7446, 456.3463
517.2267, 457.2680
517.7089, 460.0851
518.1910, 462.5020
518.6731, 464.4976
519.1552, 465.5951
519.6373, 465.1598
520.1194, 462.9595
520.6016, 461.8673
521.0837, 462.2535
521.5658, 463.3353
522.0479, 464.7463
522.5300, 466.7894
523.0121, 467.8890
523.4943, 467.6334
523.9764, 466.7945
524.4585, 466.8849
524.9406, 467.9289
525.4227, 468.6812
525.9048, 468.5858
526.3870, 467.9467
526.8691, 467.3944
527.3513, 466.9415
527.8334, 466.7712
528.3155, 467.1287
528.7976, 467.8094
529.2797, 468.5298
529.7618, 469.2602
530.2440, 470.0181
530.7261, 471.0835
531.2082, 472.0923
531.6903, 472.5599
532.1724, 471.6328
532.6545, 470.8811
533.1367, 470.6851
533.6188, 471.0403
534.1009, 471.9101
534.5830, 474.3891
535.0651, 476.3107
535.5472, 476.8228
536.0294, 475.7094
536.5115, 474.7011
536.9936, 473.5239
537.4757, 472.8383
537.9578, 473.4265
538.4399, 475.5807
538.9221, 477.2314
539.4042, 478.2275
539.8863, 478.5621
540.3684, 477.7904
540.8505, 476.0473
541.3326, 474.9922
541.8148, 475.7453
542.2969, 477.3309
542.7790, 477.7778
543.2611, 477.2657
543.7432, 477.2321
544.2253, 479.5047
544.7075, 482.2974
545.1896, 483.5206
545.6717, 482.5810
546.1538, 481.8553
546.6359, 483.0836
547.1180, 484.8943
547.6002, 485.8141
548.0823, 484.6353
548.5644, 483.5362
549.0465, 482.6961
549.5286, 482.2011
550.0107, 482.3559
550.4929, 483.8033
550.9750, 484.8997
551.4571, 484.8517
551.9392, 483.6467
552.4213, 483.8287
552.9034, 485.8211
553.3856, 487.8693
553.8677, 488.3141
554.3498, 487.3200
554.8319, 486.9768
555.3140, 487.6122
555.7961, 488.4828
556.2783, 488.4113
556.7604, 487.7666
557.2425, 487.6271
557.7246, 488.8709
558.2067, 490.2987
558.6888, 490.6348
559.1710, 490.1454
559.6531, 489.7121
560.1352, 489.3942
560.6173, 489.5641
561.0994, 490.7814
561.5815, 493.2990
562.0637, 494.9792
562.5458, 494.6283
563.0279, 493.7880
563.5100, 493.5929
563.9921, 494.4865
564.4742, 495.1942
564.9564, 495.3596
565.4385, 495.5659
565.9206, 497.2282
566.4027, 500.8871
566.8848, 503.0815
567.3669, 502.3150
567.8491, 499.6270
568.3312, 498.1698
568.8133, 497.9278
569.2954, 498.4950
569.7775, 500.4181
570.2596, 502.7518
570.7418, 503.4225
571.2239, 502.2675
571.7060, 501.1587
572.1881, 501.9273
572.6702, 503.3384
573.1523, 503.9693
573.6345, 502.9495
574.1166, 502.0437
574.5987, 502.1674
575.0808, 502.7806
575.5629, 502.9871
576.0450, 501.1773
576.5272, 500.6593
577.0093, 502.9458
577.4914, 507.3612
577.9735, 509.3060
578.4556, 507.8081
578.9377, 505.8169
579.4199, 504.6128
579.9020, 504.2210
580.3841, 504.4868
580.8662, 505.5025
581.3483, 506.7034
581.8304, 507.4171
582.3126, 507.8264
582.7947, 508.7277
583.2768, 510.5345
583.7589, 512.0515
584.2410, 511.4211
584.7231, 509.6068
585.2053, 508.5173
585.6874, 509.3755
586.1696, 510.7695
586.6517, 512.2704
587.1338, 513.7474
587.6159, 514.6995
588.0980, 514.3492
