##NAMES=Dolomite
##RRUFFID=R050272
##IDEAL CHEMISTRY=CaMg(CO_3_)_2_
##LOCALITY=Eagle mine, Gillman, Colorado, USA
##OWNER=RRUFF
##SOURCE=University of Arizona Mineral Museum
##DESCRIPTION=Gray-white rhombohedral crystals
##STATUS=The identification of this mineral has been confirmed by X-ray diffraction and chemical analysis
##URL=rruff.info/R050272
##MEASURED CHEMISTRY=(Ca_0.96_Fe^2+^_0.04_)_Σ=1_(Mg_0.63_Mn^2+^_0.21_Fe^2+^_0.16_)_Σ=1_(CO_3_)_2_ ; CO_3_ estimated by difference and stoichiometry
92.67285, 112.5789
93.15497, 113.2873
93.63708, 113.6394
94.11920, 115.4445
94.60132, 116.1222
95.08344, 114.2405
95.56555, 110.5741
96.04767, 107.4735
96.52979, 106.2531
97.01190, 105.5618
97.49402, 103.1493
97.97614, 98.49200
98.45825, 94.24982
98.94037, 90.60199
99.42249, 87.47141
99.90460, 84.96918
100.3867, 83.47100
100.8688, 82.79567
101.3510, 82.44820
101.8331, 82.60698
102.3152, 82.57806
102.7973, 81.59959
103.2794, 79.59103
103.7615, 77.98444
104.2437, 77.57180
104.7258, 77.78307
105.2079, 78.36774
105.6900, 79.41070
106.1721, 80.52318
106.6542, 80.78321
107.1364, 79.72606
107.6185, 78.46521
108.1006, 77.09207
108.5827, 75.76929
109.0648, 74.75375
109.5469, 74.27294
110.0291, 74.30257
110.5112, 73.83015
110.9933, 72.44540
111.4754, 70.96681
111.9575, 69.55578
112.4396, 68.25418
112.9218, 67.03932
113.4039, 65.86873
113.8860, 64.70207
114.3681, 63.94061
114.8502, 63.89230
115.3323, 64.00669
115.8144, 63.90745
116.2966, 63.51975
116.7787, 62.91041
117.2608, 61.99717
117.7429, 60.73093
118.2250, 59.88142
118.7071, 59.83144
119.1893, 60.31853
119.6714, 60.82842
120.1535, 61.34044
120.6356, 61.66364
121.1177, 61.52258
121.5998, 60.91056
122.0820, 60.37001
122.5641, 60.48759
123.0462, 61.31772
123.5283, 61.75393
124.0104, 60.87714
124.4925, 59.89736
124.9747, 59.58033
125.4568, 60.09525
125.9389, 60.97324
126.4210, 61.43604
126.9031, 61.13697
127.3852, 61.12501
127.8674, 61.54528
128.3495, 62.23879
128.8316, 63.15171
129.3137, 64.25569
129.7958, 65.43903
130.2780, 66.27759
130.7601, 66.30538
131.2422, 66.47598
131.7243, 67.07472
132.2064, 67.86609
132.6885, 68.42493
133.1707, 68.43919
133.6528, 68.00300
134.1349, 68.08054
134.6170, 69.03041
135.0991, 70.03221
135.5812, 70.70985
136.0633, 71.09030
136.5455, 71.39582
137.0276, 71.68373
137.5097, 72.03932
137.9918, 72.77697
138.4739, 74.21565
138.9560, 75.89003
139.4382, 77.30880
139.9203, 78.41820
140.4024, 79.40257
140.8845, 80.41497
141.3666, 81.40425
141.8487, 82.26957
142.3309, 82.76927
142.8130, 83.07646
143.2951, 83.80699
143.7772, 85.17139
144.2593, 86.70309
144.7414, 87.97777
145.2236, 89.18285
145.7057, 90.79297
146.1878, 93.33180
146.6699, 96.86930
147.1520, 100.0842
147.6341, 102.1765
148.1163, 104.6179
148.5984, 108.1302
149.0805, 112.5878
149.5626, 117.3506
150.0447, 121.6700
150.5268, 125.2773
151.0090, 129.3398
151.4911, 134.1513
151.9732, 139.0765
152.4553, 143.7592
152.9374, 148.0941
153.4195, 152.2238
153.9017, 156.2813
154.3838, 159.9810
154.8659, 164.2233
155.3480, 169.6949
155.8301, 175.4254
156.3122, 180.2439
156.7944, 183.7093
157.2765, 186.6600
157.7586, 190.6480
158.2407, 195.7778
158.7228, 201.1626
159.2049, 206.2023
159.6871, 211.3063
160.1692, 217.6362
160.6513, 226.1311
161.1334, 235.2251
161.6155, 242.3046
162.0976, 246.9897
162.5798, 251.8462
163.0619, 258.3508
163.5440, 266.4491
164.0261, 275.5667
164.5082, 285.9593
164.9903, 297.0665
165.4725, 308.4947
165.9546, 320.1348
166.4367, 332.0410
166.9188, 344.1070
167.4009, 356.3840
167.8830, 368.8144
168.3652, 381.5450
168.8473, 394.3758
169.3294, 407.8135
169.8115, 422.0609
170.2936, 435.6170
170.7757, 445.8732
171.2579, 453.2157
171.7400, 455.7481
172.2221, 453.8179
172.7042, 447.7429
173.1863, 437.4312
173.6684, 422.8469
174.1506, 404.7061
174.6327, 385.2176
175.1148, 363.0654
175.5969, 340.7419
176.0790, 317.7213
176.5611, 294.8448
177.0433, 272.7122
177.5254, 251.5832
178.0075, 231.7567
178.4896, 214.9508
178.9717, 202.6416
179.4538, 191.2911
179.9360, 180.1063
180.4181, 169.3302
180.9002, 159.6128
181.3823, 151.4574
181.8644, 144.6603
182.3465, 138.1407
182.8287, 131.3320
183.3108, 125.2833
183.7929, 120.8343
184.2750, 117.7566
184.7571, 114.8057
185.2392, 111.2393
185.7214, 107.2946
186.2035, 103.6816
186.6856, 100.3455
187.1677, 97.42101
187.6498, 95.17076
188.1319, 93.61352
188.6141, 92.17747
189.0962, 90.67513
189.5783, 89.05421
190.0604, 87.16023
190.5425, 84.71085
191.0246, 82.25071
191.5068, 80.65907
191.9889, 80.23505
192.4710, 79.67764
192.9531, 78.03291
193.4352, 76.07506
193.9173, 74.68284
194.3995, 74.33160
194.8816, 74.55159
195.3637, 74.21387
195.8458, 72.94413
196.3279, 71.79523
196.8100, 71.29237
197.2922, 70.99107
197.7743, 70.28853
198.2564, 68.79180
198.7385, 66.84026
199.2206, 65.78172
199.7027, 66.61916
200.1849, 67.09102
200.6670, 66.51971
201.1491, 65.40652
201.6312, 64.44064
202.1133, 64.04521
202.5954, 64.08218
203.0776, 63.72359
203.5597, 62.30942
204.0418, 61.18266
204.5239, 60.65442
205.0060, 60.54178
205.4881, 60.59317
205.9703, 60.67604
206.4524, 60.75911
206.9345, 60.54894
207.4166, 59.48004
207.8987, 58.75786
208.3808, 58.94807
208.8630, 59.73945
209.3451, 60.49979
209.8272, 60.87717
210.3093, 60.86474
210.7914, 60.43362
211.2735, 58.91246
211.7557, 57.73791
212.2378, 57.73089
212.7199, 58.60503
213.2020, 59.43575
213.6841, 59.69659
214.1662, 59.45216
214.6484, 59.15448
215.1305, 58.60928
215.6126, 58.19735
216.0947, 58.23677
216.5768, 58.66032
217.0589, 59.03078
217.5410, 59.08971
218.0232, 58.92695
218.5053, 58.81183
218.9874, 58.66664
219.4695, 58.66932
219.9516, 59.05784
220.4337, 59.82366
220.9159, 60.55051
221.3980, 61.25640
221.8801, 61.66909
222.3622, 61.30654
222.8443, 59.75901
223.3264, 58.06229
223.8086, 57.43292
224.2907, 57.99001
224.7728, 58.43380
225.2549, 58.12356
225.7370, 57.48143
226.2191, 56.77654
226.7013, 56.00393
227.1834, 55.41836
227.6655, 55.43988
228.1476, 56.22002
228.6297, 56.96087
229.1118, 57.48922
229.5940, 57.84074
230.0761, 57.95844
230.5582, 57.81123
231.0403, 57.62130
231.5224, 57.73840
232.0045, 58.25765
232.4867, 58.80909
232.9688, 59.42734
233.4509, 59.99389
233.9330, 60.36431
234.4151, 60.50880
234.8972, 60.61329
235.3794, 61.05695
235.8615, 62.20971
236.3436, 62.82418
236.8257, 61.93447
237.3078, 61.09556
237.7899, 61.73891
238.2721, 64.11379
238.7542, 66.99983
239.2363, 68.26574
239.7184, 66.60820
240.2005, 65.89877
240.6826, 66.71217
241.1648, 68.00877
241.6469, 69.09109
242.1290, 69.78122
242.6111, 70.31322
243.0932, 71.05921
243.5753, 72.31415
244.0575, 73.15892
244.5396, 73.05669
245.0217, 72.95525
245.5038, 73.60103
245.9859, 75.10419
246.4680, 76.98214
246.9502, 78.61345
247.4323, 79.91125
247.9144, 81.11791
248.3965, 82.19334
248.8786, 83.21349
249.3607, 84.12489
249.8429, 84.96391
250.3250, 85.97321
250.8071, 87.46111
251.2892, 89.57280
251.7713, 91.69866
252.2534, 93.71564
252.7356, 95.81113
253.2177, 98.24357
253.6998, 100.9859
254.1819, 103.6497
254.6640, 105.8067
255.1461, 107.3339
255.6283, 109.0527
256.1104, 111.1360
256.5925, 113.2722
257.0746, 114.9604
257.5567, 116.2601
258.0388, 118.1285
258.5210, 121.5703
259.0031, 126.6499
259.4852, 131.1203
259.9673, 134.7268
260.4494, 137.9374
260.9315, 140.9257
261.4137, 143.7486
261.8958, 146.7060
262.3779, 149.8518
262.8600, 153.3869
263.3421, 157.8257
263.8242, 163.8267
264.3064, 170.2158
264.7885, 175.8666
265.2706, 180.8847
265.7527, 186.5917
266.2348, 194.0412
266.7169, 202.6474
267.1991, 210.5691
267.6812, 217.0710
268.1633, 223.6679
268.6454, 231.2179
269.1275, 239.7207
269.6096, 249.4000
270.0918, 260.8904
270.5739, 273.3335
271.0560, 285.1787
271.5381, 296.4114
272.0202, 307.0866
272.5023, 316.6111
272.9845, 325.2521
273.4666, 335.0070
273.9487, 347.0741
274.4308, 360.2710
274.9129, 373.0411
275.3951, 385.2860
275.8772, 397.2746
276.3593, 408.8438
276.8414, 420.1458
277.3235, 432.2108
277.8056, 445.4258
278.2878, 459.3335
278.7699, 473.3520
279.2520, 487.5821
279.7341, 501.7244
280.2162, 515.5970
280.6983, 529.2764
281.1805, 542.8499
281.6626, 556.3173
282.1447, 569.6664
282.6268, 582.4457
283.1089, 594.9108
283.5910, 608.1978
284.0732, 623.8123
284.5553, 640.8795
285.0374, 656.2592
285.5195, 669.2978
286.0016, 681.3215
286.4837, 692.9127
286.9659, 704.2194
287.4480, 715.5571
287.9301, 727.1168
288.4122, 738.8322
288.8943, 750.8677
289.3764, 764.4923
289.8586, 775.5934
290.3407, 781.8488
290.8228, 784.8766
291.3049, 786.8382
291.7870, 788.8591
292.2691, 789.9066
292.7513, 788.1974
293.2334, 783.8447
293.7155, 776.2060
294.1976, 765.1476
294.6797, 750.8989
295.1618, 732.7273
295.6440, 710.1682
296.1261, 685.2372
296.6082, 660.8452
297.0903, 637.2914
297.5724, 612.9141
298.0545, 586.3343
298.5367, 559.0978
299.0188, 531.8473
299.5009, 504.6943
299.9830, 478.2777
300.4651, 453.3339
300.9472, 429.8708
301.4294, 406.6901
301.9115, 382.5793
302.3936, 359.5345
302.8757, 338.6124
303.3578, 319.7737
303.8399, 302.3857
304.3221, 285.8631
304.8042, 270.2405
305.2863, 255.4919
305.7684, 241.2646
306.2505, 228.3840
306.7326, 217.5707
307.2148, 208.4217
307.6969, 199.9127
308.1790, 191.4276
308.6611, 183.0137
309.1432, 174.7731
309.6253, 166.2979
310.1075, 158.7171
310.5896, 152.7453
311.0717, 147.7740
311.5538, 142.8332
312.0359, 137.3333
312.5180, 131.7299
313.0002, 127.3067
313.4823, 124.7050
313.9644, 121.9913
314.4465, 118.2071
314.9286, 114.2170
315.4107, 110.9924
315.8929, 108.8990
316.3750, 107.1941
316.8571, 104.5603
317.3392, 100.5586
317.8213, 97.00684
318.3034, 94.09596
318.7856, 91.84178
319.2677, 90.56952
319.7498, 90.23818
320.2319, 90.06604
320.7140, 89.12256
321.1961, 87.29257
321.6783, 85.62624
322.1604, 84.17316
322.6425, 82.95770
323.1246, 82.12901
323.6067, 81.60223
324.0888, 81.05718
324.5710, 80.11649
325.0531, 78.83791
325.5352, 78.10165
326.0173, 78.61382
326.4994, 78.76483
326.9815, 77.39620
327.4637, 75.29222
327.9458, 73.91124
328.4279, 74.23530
328.9100, 75.70427
329.3921, 76.69981
329.8742, 77.39002
330.3564, 77.18956
330.8385, 75.04005
331.3206, 72.38347
331.8027, 70.84138
332.2848, 71.06438
332.7669, 72.12673
333.2491, 72.60591
333.7312, 72.36114
334.2133, 72.09068
334.6954, 71.89248
335.1775, 71.77087
335.6596, 71.70307
336.1418, 71.69319
336.6239, 71.83722
337.1060, 72.54243
337.5881, 73.85417
338.0702, 74.10213
338.5523, 72.32363
339.0345, 70.17796
339.5165, 68.63358
339.9987, 67.57438
340.4808, 66.44864
340.9629, 64.76219
341.4450, 62.65604
341.9271, 60.93094
342.4092, 59.73064
342.8914, 58.67981
343.3735, 57.65536
343.8556, 56.62540
344.3377, 55.54402
344.8198, 54.38357
345.3019, 53.17094
345.7841, 51.91071
346.2662, 50.55334
346.7483, 49.35049
347.2304, 48.74565
347.7125, 48.18613
348.1946, 46.97771
348.6768, 44.84489
349.1589, 42.89989
349.6410, 42.70052
350.1231, 44.22440
350.6052, 44.73151
351.0873, 42.90903
351.5695, 40.52970
352.0516, 38.94595
352.5337, 38.18356
353.0158, 37.97033
353.4979, 38.55215
353.9800, 39.60343
354.4622, 39.92210
354.9443, 39.14223
355.4264, 38.17741
355.9085, 37.62236
356.3906, 37.37890
356.8727, 37.26754
357.3549, 37.43004
357.8370, 37.57339
358.3191, 37.20512
358.8012, 36.26980
359.2833, 35.28884
359.7654, 34.43216
360.2476, 33.74659
360.7297, 33.31848
361.2118, 33.21307
361.6939, 33.24915
362.1760, 33.42831
362.6581, 33.68716
363.1403, 33.63321
363.6224, 33.02921
364.1045, 32.20927
364.5866, 31.57244
365.0687, 31.11132
365.5508, 30.81636
366.0330, 30.72372
366.5151, 30.78675
366.9972, 30.99835
367.4793, 31.40445
367.9614, 31.69785
368.4435, 31.54387
368.9257, 31.00060
369.4078, 30.41121
369.8899, 29.59878
370.3720, 28.92333
370.8541, 28.82797
371.3362, 29.25039
371.8184, 29.56617
372.3005, 29.34811
372.7826, 28.80802
373.2647, 28.68105
373.7468, 29.27729
374.2289, 29.76016
374.7111, 29.77132
375.1932, 29.44355
375.6753, 28.96837
376.1574, 28.37669
376.6395, 27.83419
377.1216, 27.63861
377.6038, 27.87955
378.0859, 28.11681
378.5680, 28.48651
379.0501, 28.72331
379.5322, 28.45538
380.0143, 27.69932
380.4965, 26.93848
380.9786, 26.59549
381.4607, 26.68604
381.9428, 26.80208
382.4249, 27.10376
382.9070, 27.26509
383.3892, 26.98312
383.8713, 26.46519
384.3534, 26.19626
384.8355, 26.45301
385.3176, 27.00811
385.7997, 27.18765
386.2819, 26.35947
386.7640, 25.94528
387.2461, 26.40443
387.7282, 27.06823
388.2103, 27.26101
388.6924, 26.85637
389.1746, 26.26743
389.6567, 26.01318
390.1388, 26.20947
390.6209, 26.28234
391.1030, 26.14724
391.5851, 25.99126
392.0673, 25.92474
392.5494, 25.90797
393.0315, 25.81303
393.5136, 25.53611
393.9957, 25.12764
394.4778, 24.89657
394.9600, 25.04029
395.4421, 25.09869
395.9242, 24.85351
396.4063, 24.56605
396.8884, 24.57045
397.3705, 24.95915
397.8527, 25.43449
398.3348, 25.52002
398.8169, 25.10323
399.2990, 24.69436
399.7811, 24.09822
400.2632, 23.70848
400.7454, 23.91225
401.2275, 24.55314
401.7096, 25.06956
402.1917, 24.96267
402.6738, 24.35658
403.1559, 23.99907
403.6381, 24.02039
404.1202, 24.07293
404.6023, 24.02637
405.0844, 23.92796
405.5665, 23.81150
406.0486, 23.66629
406.5308, 23.58693
407.0129, 23.79074
407.4950, 24.31504
407.9771, 24.58271
408.4592, 24.23632
408.9413, 23.76937
409.4235, 23.62052
409.9056, 23.78651
410.3877, 23.99218
410.8698, 24.09063
411.3519, 24.11145
411.8340, 24.14273
412.3162, 24.20848
412.7983, 24.22150
413.2804, 24.04108
413.7625, 23.76425
414.2446, 23.63136
414.7267, 23.91456
415.2089, 24.10686
415.6910, 23.48346
416.1731, 22.26917
416.6552, 21.80101
417.1373, 22.91402
417.6194, 24.60817
418.1016, 24.87468
418.5837, 23.43951
419.0658, 22.27037
419.5479, 22.09904
420.0300, 22.38409
420.5121, 22.44294
420.9943, 22.17755
421.4764, 21.91932
421.9585, 21.93892
422.4406, 22.25330
422.9227, 22.82182
423.4048, 24.34032
423.8870, 25.37738
424.3691, 24.91257
424.8512, 23.51865
425.3333, 22.36360
425.8154, 21.98843
426.2975, 22.17541
426.7797, 22.45070
427.2618, 23.26884
427.7439, 23.43454
428.2260, 22.28494
428.7081, 20.97658
429.1902, 20.42049
429.6724, 20.66112
430.1545, 21.11842
430.6366, 21.24055
431.1187, 21.01655
431.6008, 20.94412
432.0829, 20.90070
432.5651, 21.16724
433.0472, 22.20963
433.5293, 23.47552
434.0114, 24.22136
434.4935, 24.11840
434.9756, 23.47580
435.4578, 22.83418
435.9399, 22.21531
436.4220, 21.53190
436.9041, 20.19242
437.3862, 19.24774
437.8683, 19.68856
438.3505, 21.25948
438.8326, 22.59274
439.3147, 22.50906
439.7968, 21.34361
440.2789, 20.47481
440.7610, 19.85520
441.2432, 19.66197
441.7253, 20.34938
442.2074, 21.37740
442.6895, 22.08100
443.1716, 22.23686
443.6537, 22.23264
444.1359, 22.49461
444.6180, 22.95143
445.1001, 23.10669
445.5822, 22.72052
446.0643, 22.18975
446.5464, 22.02139
447.0286, 22.16979
447.5107, 22.19318
447.9928, 21.80325
448.4749, 21.33527
448.9570, 21.13970
449.4391, 21.22255
449.9213, 21.45716
450.4034, 21.83448
450.8855, 22.26935
451.3676, 22.42692
451.8497, 22.22394
452.3318, 21.92721
452.8140, 21.50104
453.2961, 21.06078
453.7782, 20.74411
454.2603, 20.58637
454.7424, 20.57764
455.2245, 20.74156
455.7067, 21.15152
456.1888, 21.28728
456.6709, 20.72767
457.1530, 20.37599
457.6351, 20.84076
458.1172, 21.74894
458.5994, 22.36303
459.0815, 22.29041
459.5636, 21.79451
460.0457, 21.56160
460.5278, 21.81988
461.0099, 21.87340
461.4921, 21.48788
461.9742, 21.05562
462.4563, 20.87001
462.9384, 20.91159
463.4205, 20.91958
463.9026, 20.57771
464.3848, 19.99072
464.8669, 19.94255
465.3490, 20.74661
465.8311, 21.49723
466.3132, 21.84787
466.7953, 21.95076
467.2775, 21.95994
467.7596, 21.91169
468.2417, 21.78868
468.7238, 21.54025
469.2059, 21.18350
469.6880, 20.81705
470.1702, 20.34650
470.6523, 20.08040
471.1344, 20.55477
471.6165, 21.56261
472.0986, 22.21263
472.5807, 22.15551
473.0629, 21.73972
473.5450, 21.05774
474.0271, 20.21776
474.5092, 19.84480
474.9913, 20.36986
475.4734, 21.33966
475.9556, 21.64547
476.4377, 20.98334
476.9198, 20.53382
477.4019, 20.70027
477.8840, 21.01728
478.3661, 20.97077
478.8483, 20.56276
479.3304, 20.24780
479.8125, 20.44646
480.2946, 21.10849
480.7767, 21.36480
481.2589, 20.81901
481.7410, 20.33315
482.2231, 19.79698
482.7052, 19.50530
483.1873, 19.97784
483.6694, 21.28437
484.1516, 22.68521
484.6337, 23.17587
485.1158, 22.61631
485.5979, 21.97508
486.0800, 21.03023
486.5621, 20.25183
487.0443, 19.81810
487.5264, 19.67342
488.0085, 19.72653
488.4906, 19.96394
488.9727, 20.31187
489.4548, 20.73357
489.9370, 21.24767
490.4191, 21.50460
490.9012, 21.31568
491.3833, 20.91852
491.8654, 20.40104
492.3475, 19.80301
492.8297, 19.62981
493.3118, 20.51558
493.7939, 21.72298
494.2760, 22.25649
494.7581, 22.09647
495.2402, 21.74837
495.7224, 21.42596
496.2045, 21.15658
496.6866, 21.01933
497.1687, 20.99955
497.6508, 21.10743
498.1329, 21.60454
498.6151, 22.09157
499.0972, 22.06258
499.5793, 21.48082
500.0614, 20.70876
500.5435, 20.02235
501.0256, 19.42238
501.5078, 19.34253
501.9899, 20.39426
502.4720, 21.24123
502.9541, 21.63063
503.4362, 21.68306
503.9183, 21.41152
504.4004, 20.86693
504.8825, 20.39291
505.3647, 20.56960
505.8468, 21.54417
506.3289, 22.01789
506.8110, 21.62605
507.2931, 21.13904
507.7752, 20.87307
508.2574, 20.74600
508.7395, 20.58022
509.2216, 20.25106
509.7037, 19.99733
510.1858, 20.20038
510.6679, 20.83176
511.1501, 21.39962
511.6322, 21.87327
512.1143, 22.10404
512.5964, 21.73863
513.0786, 20.87989
513.5607, 20.33636
514.0428, 20.54550
514.5249, 20.98341
515.0070, 21.23082
515.4891, 21.29594
515.9713, 21.27496
516.4534, 21.19782
516.9355, 21.10385
517.4176, 21.10167
517.8997, 21.41940
518.3818, 21.34216
518.8640, 20.27193
519.3461, 19.26033
519.8282, 19.22822
520.3103, 19.99781
520.7924, 20.70201
521.2745, 20.71984
521.7567, 20.25876
522.2388, 20.23302
522.7209, 21.07621
523.2030, 21.55062
523.6851, 21.22156
524.1672, 20.71226
524.6494, 20.42392
525.1315, 20.41359
525.6136, 20.57914
526.0957, 20.94339
526.5778, 21.41653
527.0599, 21.68273
527.5421, 21.73256
528.0242, 21.58819
528.5063, 20.98207
528.9884, 20.32942
529.4705, 20.24727
529.9526, 20.90691
530.4348, 21.55059
530.9169, 21.84756
531.3990, 21.84780
531.8811, 21.54925
532.3632, 20.95525
532.8453, 20.34267
533.3275, 19.86917
533.8096, 19.55874
534.2917, 19.62292
534.7738, 20.43615
535.2559, 21.08700
535.7380, 21.34482
536.2202, 21.35012
536.7023, 21.11855
537.1844, 20.72935
537.6665, 20.53447
538.1486, 20.98293
538.6307, 22.08295
539.1129, 22.72443
539.5950, 22.65306
540.0771, 22.41960
540.5592, 22.03442
541.0413, 21.62366
541.5234, 21.28161
542.0056, 21.03825
542.4877, 20.97186
542.9698, 21.35009
543.4519, 22.06365
543.9340, 22.20608
544.4161, 21.44566
544.8983, 20.76211
545.3804, 20.96439
545.8625, 21.66457
546.3446, 22.16468
546.8267, 22.41131
547.3088, 22.36631
547.7910, 21.74590
548.2731, 20.87099
548.7552, 20.32604
549.2373, 20.24110
549.7194, 20.57331
550.2015, 21.40787
550.6837, 22.76944
551.1658, 23.47955
551.6479, 23.18375
552.1300, 22.77190
552.6121, 22.45811
553.0942, 22.17693
553.5764, 21.77144
554.0585, 21.22370
554.5406, 20.74319
555.0227, 20.56191
555.5048, 20.68121
555.9869, 21.11600
556.4691, 22.34237
556.9512, 23.20406
557.4333, 23.10221
557.9154, 22.52568
558.3975, 22.04299
558.8796, 21.79459
559.3618, 21.76768
559.8439, 22.13092
560.3260, 22.73159
560.8081, 22.93808
561.2902, 22.59081
561.7723, 22.18174
562.2545, 22.17092
562.7366, 22.41052
563.2187, 22.21036
563.7008, 21.00220
564.1829, 20.07553
564.6650, 20.13057
565.1472, 20.67584
565.6293, 21.05974
566.1114, 21.14081
566.5935, 21.15217
567.0756, 21.35889
567.5577, 21.75850
568.0399, 21.75676
568.5220, 20.67734
569.0041, 20.01398
569.4862, 20.40296
569.9683, 21.09360
570.4504, 21.22825
570.9326, 20.68309
571.4147, 20.13043
571.8968, 20.39251
572.3789, 21.28777
572.8610, 21.54036
573.3431, 20.89076
573.8253, 20.35342
574.3074, 20.68383
574.7895, 21.30734
575.2716, 21.35083
575.7537, 20.60856
576.2358, 19.90165
576.7180, 19.57581
577.2001, 19.54468
577.6822, 19.77944
578.1643, 20.24288
578.6464, 20.66745
579.1285, 20.86054
579.6107, 20.87812
580.0928, 20.96274
580.5749, 21.40584
581.0570, 21.51828
581.5391, 20.90001
582.0212, 20.22298
582.5034, 20.01744
582.9855, 20.27811
583.4676, 20.74162
583.9497, 21.30939
584.4318, 21.82158
584.9139, 21.63585
585.3961, 20.48047
585.8782, 19.55346
586.3602, 19.14204
586.8423, 19.09655
