##NAMES=Dolomite
##RRUFFID=R050129
##IDEAL CHEMISTRY=CaMg(CO_3_)_2_
##LOCALITY=Black Cloud mine, Leadville, Lake County, Colorado, USA
##OWNER=RRUFF
##SOURCE=Dave Bunk Minerals
##DESCRIPTION=Aggregate of colorless to white rhombohedra
##STATUS=The identification of this mineral has been confirmed by X-ray diffraction and chemical analysis
##URL=rruff.info/R050129
##MEASURED CHEMISTRY=Ca(Mg_0.62_Fe^2+^_0.33_Mn_0.05_)_Î£=1_(CO_3_)_2_ ; CO_2_ estimated by difference
93.08527, 0.0000000E+00
93.56738, 107.6776
94.04950, 106.8158
94.53162, 107.1135
95.01373, 107.6239
95.49585, 108.8074
95.97797, 109.8701
96.46008, 109.8702
96.94220, 108.7838
97.42432, 107.7690
97.90643, 106.9169
98.38855, 106.1685
98.87067, 105.5925
99.35278, 105.2008
99.83490, 104.8561
100.3170, 104.2234
100.7991, 102.9024
101.2813, 101.5331
101.7634, 99.81530
102.2455, 98.15648
102.7276, 97.08186
103.2097, 96.90296
103.6918, 97.43862
104.1740, 97.67892
104.6561, 97.64190
105.1382, 97.39585
105.6203, 96.82726
106.1024, 96.00462
106.5845, 95.26134
107.0667, 94.90837
107.5488, 94.82889
108.0309, 94.45668
108.5130, 93.38004
108.9951, 92.15823
109.4772, 91.46301
109.9594, 91.40154
110.4415, 91.57645
110.9236, 91.74242
111.4057, 91.91645
111.8878, 92.14349
112.3699, 92.45714
112.8521, 92.85061
113.3342, 93.28226
113.8163, 94.00947
114.2984, 94.48371
114.7805, 94.35623
115.2626, 93.73838
115.7448, 93.00988
116.2269, 92.53256
116.7090, 92.35596
117.1911, 92.27999
117.6732, 92.25961
118.1553, 92.35111
118.6375, 92.64354
119.1196, 93.12894
119.6017, 93.68277
120.0838, 94.09313
120.5659, 94.14431
121.0480, 94.38615
121.5302, 95.03979
122.0123, 95.79776
122.4944, 96.28094
122.9765, 96.31911
123.4586, 96.11805
123.9407, 96.28742
124.4228, 97.17827
124.9050, 97.70886
125.3871, 97.01728
125.8692, 95.54247
126.3513, 94.76550
126.8334, 95.63731
127.3155, 97.53840
127.7977, 99.09828
128.2798, 100.3430
128.7619, 101.1703
129.2440, 101.2420
129.7261, 100.3944
130.2083, 99.84145
130.6904, 100.6093
131.1725, 101.8207
131.6546, 102.6371
132.1367, 102.6295
132.6188, 102.1817
133.1010, 102.2314
133.5831, 103.0433
134.0652, 103.9693
134.5473, 104.8211
135.0294, 105.6491
135.5115, 106.5349
135.9937, 107.5305
136.4758, 108.6307
136.9579, 109.7261
137.4400, 110.7167
137.9221, 111.8089
138.4042, 113.1146
138.8864, 114.5738
139.3685, 116.0339
139.8506, 117.3285
140.3327, 118.3844
140.8148, 119.9086
141.2969, 122.3922
141.7791, 124.8538
142.2612, 126.5167
142.7433, 127.4053
143.2254, 128.3317
143.7075, 130.1931
144.1896, 133.1581
144.6718, 136.3208
145.1539, 139.6594
145.6360, 143.1727
146.1181, 146.7151
146.6002, 150.1874
147.0823, 154.0056
147.5645, 159.0318
148.0466, 165.0759
148.5287, 170.8457
149.0108, 175.6341
149.4929, 179.6982
149.9750, 183.8760
150.4572, 188.3138
150.9393, 192.8791
151.4214, 197.5952
151.9035, 202.4284
152.3856, 206.9885
152.8677, 210.8516
153.3499, 213.9461
153.8320, 217.2076
154.3141, 221.0084
154.7962, 224.8716
155.2783, 228.5323
155.7604, 231.9748
156.2425, 235.3371
156.7247, 238.7619
157.2068, 242.2095
157.6889, 245.9287
158.1710, 250.0541
158.6531, 254.3304
159.1352, 258.5400
159.6174, 262.6232
160.0995, 266.7537
160.5816, 271.2483
161.0637, 276.4295
161.5458, 281.5845
162.0279, 286.8734
162.5101, 292.0698
162.9922, 296.7722
163.4743, 300.8053
163.9564, 304.5152
164.4385, 309.0022
164.9206, 315.2922
165.4028, 320.9932
165.8849, 325.5797
166.3670, 329.3062
166.8491, 332.7723
167.3312, 336.3606
167.8133, 339.6548
168.2955, 341.4916
168.7776, 341.8291
169.2597, 341.1083
169.7418, 339.7707
170.2239, 337.6677
170.7060, 334.0474
171.1882, 328.4529
171.6703, 320.8268
172.1524, 311.5775
172.6345, 300.2790
173.1166, 288.0072
173.5987, 275.6001
174.0809, 262.9943
174.5630, 250.3330
175.0451, 237.2441
175.5272, 224.3836
176.0093, 212.4124
176.4914, 201.5635
176.9736, 191.6754
177.4557, 182.3540
177.9378, 173.4377
178.4199, 165.5897
178.9020, 159.0292
179.3841, 153.4221
179.8663, 148.4583
180.3484, 144.0654
180.8305, 140.1568
181.3126, 136.5586
181.7947, 133.4175
182.2768, 130.3955
182.7590, 127.3104
183.2411, 124.3053
183.7232, 121.5719
184.2053, 119.2368
184.6874, 117.2323
185.1695, 115.2029
185.6517, 112.8187
186.1338, 110.7663
186.6159, 109.3299
187.0980, 108.2832
187.5801, 107.2444
188.0622, 105.9398
188.5444, 104.4202
189.0265, 103.3406
189.5086, 103.1615
189.9907, 102.8720
190.4728, 102.0610
190.9549, 100.8665
191.4371, 99.66875
191.9192, 98.68959
192.4013, 97.95292
192.8834, 97.51119
193.3655, 97.73909
193.8476, 97.87832
194.3298, 97.50357
194.8119, 96.65730
195.2940, 95.64690
195.7761, 94.58756
196.2582, 93.54636
196.7403, 92.77741
197.2225, 92.43914
197.7046, 92.26038
198.1867, 92.07455
198.6688, 91.87796
199.1509, 91.62061
199.6330, 91.18165
200.1152, 90.66796
200.5973, 90.32300
201.0794, 90.27966
201.5615, 90.36441
202.0436, 90.35591
202.5257, 90.22874
203.0079, 90.11953
203.4900, 90.22844
203.9721, 90.37979
204.4542, 90.32307
204.9363, 89.89658
205.4184, 89.27058
205.9006, 88.75407
206.3827, 88.36185
206.8648, 88.06067
207.3469, 87.83511
207.8290, 87.67913
208.3111, 87.60069
208.7933, 87.62507
209.2754, 87.70842
209.7575, 87.72635
210.2396, 87.68527
210.7217, 87.55482
211.2038, 87.16611
211.6860, 86.74102
212.1681, 86.59018
212.6502, 86.92379
213.1323, 87.60402
213.6144, 88.00019
214.0965, 87.87875
214.5787, 87.73835
215.0608, 87.62333
215.5429, 87.55883
216.0250, 87.58904
216.5071, 87.74953
216.9892, 88.00159
217.4714, 88.12529
217.9535, 87.89786
218.4356, 87.77177
218.9177, 87.96950
219.3998, 88.28608
219.8819, 88.37524
220.3641, 88.01524
220.8462, 87.30538
221.3283, 86.91236
221.8104, 87.13508
222.2925, 87.31959
222.7746, 87.23759
223.2568, 87.03197
223.7389, 86.97591
224.2210, 87.23634
224.7031, 87.75333
225.1852, 88.19112
225.6673, 88.53892
226.1495, 88.84225
226.6316, 89.21535
227.1137, 89.55554
227.5958, 89.54420
228.0779, 88.89072
228.5600, 87.90691
229.0422, 87.84573
229.5243, 89.45300
230.0064, 90.86478
230.4885, 91.10594
230.9706, 90.54497
231.4527, 90.24764
231.9349, 90.74537
232.4170, 91.82394
232.8991, 92.93124
233.3812, 94.30216
233.8633, 95.29871
234.3454, 95.18114
234.8276, 94.26555
235.3097, 93.96653
235.7918, 95.17093
236.2739, 97.01218
236.7560, 97.92097
237.2381, 97.64962
237.7203, 97.21590
238.2024, 97.13595
238.6845, 97.40906
239.1666, 98.11111
239.6487, 99.65670
240.1308, 101.2900
240.6130, 101.9669
241.0951, 101.5116
241.5772, 101.1726
242.0593, 102.0192
242.5414, 103.9720
243.0235, 105.8289
243.5057, 107.2368
243.9878, 108.4844
244.4699, 109.8499
244.9520, 111.3554
245.4341, 112.7745
245.9162, 113.9097
246.3984, 114.7621
246.8805, 115.4935
247.3626, 115.6502
247.8447, 116.1583
248.3268, 117.7670
248.8089, 120.3965
249.2911, 123.2107
249.7732, 125.4502
250.2553, 127.0932
250.7374, 128.7917
251.2195, 130.3147
251.7016, 132.1771
252.1838, 134.7721
252.6659, 137.9744
253.1480, 141.3419
253.6301, 144.5061
254.1122, 147.4790
254.5943, 150.2465
255.0765, 152.1747
255.5586, 154.5032
256.0407, 157.9451
256.5228, 162.2389
257.0049, 166.5688
257.4870, 170.1705
257.9691, 173.0150
258.4513, 176.4821
258.9334, 180.8376
259.4155, 185.6763
259.8976, 191.1129
260.3797, 196.9653
260.8618, 202.9352
261.3440, 208.8265
261.8261, 214.6558
262.3082, 220.2463
262.7903, 224.8998
263.2724, 229.9914
263.7545, 235.8368
264.2367, 242.3373
264.7188, 249.3457
265.2009, 256.7683
265.6830, 264.5725
266.1651, 272.2257
266.6472, 279.4018
267.1294, 286.8174
267.6115, 294.7418
268.0936, 302.9557
268.5757, 311.1436
269.0578, 319.1115
269.5399, 326.9444
270.0221, 334.9593
270.5042, 342.7517
270.9863, 351.2130
271.4684, 361.3813
271.9505, 371.9926
272.4326, 381.2141
272.9148, 388.2289
273.3969, 393.9890
273.8790, 401.1134
274.3611, 411.0971
274.8432, 420.7871
275.3253, 430.5411
275.8075, 439.7942
276.2896, 447.8322
276.7717, 454.4200
277.2538, 460.1804
277.7359, 466.3482
278.2180, 473.2545
278.7002, 480.1262
279.1823, 487.3189
279.6644, 494.2577
280.1465, 500.3625
280.6286, 505.4734
281.1107, 510.0307
281.5929, 514.6257
282.0750, 519.5115
282.5571, 523.7222
283.0392, 526.9396
283.5213, 529.7116
284.0034, 532.5805
284.4856, 535.5979
284.9677, 538.3593
285.4498, 540.5543
285.9319, 542.2237
286.4140, 542.3264
286.8961, 540.1526
287.3783, 537.0275
287.8604, 533.8093
288.3425, 530.5580
288.8246, 526.9937
289.3067, 523.0723
289.7888, 518.6941
290.2710, 512.7402
290.7531, 504.6784
291.2352, 495.6714
291.7173, 486.0405
292.1994, 475.9453
292.6815, 465.8573
293.1637, 456.2775
293.6458, 446.9023
294.1279, 436.0512
294.6100, 422.8352
295.0921, 409.3329
295.5742, 396.5379
296.0564, 384.1569
296.5385, 371.3407
297.0206, 357.5055
297.5027, 343.0654
297.9848, 329.1712
298.4669, 315.8239
298.9491, 302.8800
299.4312, 289.9966
299.9133, 277.4128
300.3954, 265.6925
300.8775, 255.0508
301.3596, 245.1262
301.8418, 235.3384
302.3239, 225.3845
302.8060, 216.1683
303.2881, 208.1259
303.7702, 200.8505
304.2523, 193.8705
304.7345, 187.1022
305.2166, 180.5413
305.6987, 174.2583
306.1808, 168.2269
306.6629, 162.6556
307.1451, 157.6329
307.6272, 153.0485
308.1093, 148.9275
308.5914, 145.2674
309.0735, 141.7376
309.5556, 137.9978
310.0378, 134.0889
310.5199, 130.5342
311.0020, 127.4103
311.4841, 124.6258
311.9662, 122.1464
312.4483, 119.9511
312.9305, 117.9593
313.4126, 116.1592
313.8947, 114.5087
314.3768, 112.7312
314.8589, 110.6912
315.3410, 108.6823
315.8232, 106.8195
316.3053, 105.1033
316.7874, 103.5401
317.2695, 102.1128
317.7516, 100.8727
318.2337, 99.99200
318.7159, 99.72752
319.1980, 99.18749
319.6801, 97.66734
320.1622, 95.68028
320.6443, 94.32718
321.1264, 94.03692
321.6086, 94.18262
322.0907, 93.80362
322.5728, 92.88282
323.0549, 91.85013
323.5370, 90.50925
324.0191, 89.22099
324.5013, 88.58701
324.9834, 88.73665
325.4655, 89.03185
325.9476, 88.83810
326.4297, 88.14388
326.9118, 87.39613
327.3940, 86.54832
327.8761, 85.71846
328.3582, 85.05390
328.8403, 84.54453
329.3224, 83.98336
329.8045, 83.16061
330.2867, 82.16148
330.7688, 81.48729
331.2509, 81.30898
331.7330, 81.26907
332.2151, 81.32964
332.6972, 81.40686
333.1794, 81.19491
333.6615, 80.46745
334.1436, 79.46561
334.6257, 78.86644
335.1078, 78.83668
335.5899, 78.78047
336.0721, 78.48837
336.5542, 78.06175
337.0363, 77.65386
337.5184, 77.30204
338.0005, 77.01809
338.4826, 76.86717
338.9648, 76.93621
339.4469, 76.74940
339.9290, 76.04843
340.4111, 75.18350
340.8932, 74.52010
341.3753, 74.10342
341.8575, 73.69078
342.3396, 73.04290
342.8217, 72.12934
343.3038, 71.32323
343.7859, 70.44172
344.2680, 69.82016
344.7502, 69.90688
345.2323, 70.50373
345.7144, 70.85488
346.1965, 70.45506
346.6786, 69.43652
347.1607, 68.56637
347.6429, 67.92333
348.1250, 67.30042
348.6071, 66.56477
349.0892, 65.82504
349.5713, 65.29884
350.0534, 65.08059
350.5356, 65.02229
351.0177, 64.81678
351.4998, 64.31880
351.9819, 63.95359
352.4640, 63.81831
352.9461, 63.78193
353.4283, 63.75219
353.9104, 63.70109
354.3925, 63.59517
354.8746, 63.38076
355.3567, 63.01535
355.8388, 62.76936
356.3210, 62.66472
356.8031, 62.64003
357.2852, 62.73117
357.7673, 62.88496
358.2494, 62.98361
358.7315, 62.95835
359.2137, 62.79792
359.6958, 62.37435
360.1779, 61.23418
360.6600, 60.37257
361.1421, 60.21024
361.6242, 60.38161
362.1064, 60.32324
362.5885, 59.79470
363.0706, 59.08051
363.5527, 58.82377
364.0348, 59.50603
364.5169, 59.93250
364.9991, 60.11784
365.4812, 60.05837
365.9633, 59.60732
366.4454, 58.82333
366.9275, 58.06301
367.4096, 57.74427
367.8918, 57.96449
368.3739, 58.11943
368.8560, 58.03794
369.3381, 58.06337
369.8202, 58.46547
370.3023, 59.08425
370.7845, 59.57257
371.2666, 59.70897
371.7487, 59.51504
372.2308, 59.08750
372.7129, 57.98153
373.1950, 57.25246
373.6772, 57.30527
374.1593, 57.69200
374.6414, 57.93591
375.1235, 57.86799
375.6056, 57.66638
376.0877, 57.62581
376.5699, 57.77628
377.0520, 58.00844
377.5341, 58.44606
378.0162, 58.85394
378.4983, 59.08758
378.9804, 59.15084
379.4626, 59.15398
379.9447, 59.20759
380.4268, 59.30802
380.9089, 59.29703
381.3910, 59.10162
381.8731, 58.87996
382.3553, 58.65178
382.8374, 58.44930
383.3195, 58.31460
383.8016, 58.26156
384.2837, 58.30175
384.7658, 58.53703
385.2480, 59.10604
385.7301, 59.40196
386.2122, 58.91112
386.6943, 58.24103
387.1764, 57.90880
387.6585, 58.01137
388.1407, 58.14380
388.6228, 57.91205
389.1049, 57.33942
389.5870, 56.73899
390.0691, 56.04094
390.5512, 55.49134
391.0334, 55.30764
391.5155, 55.41599
391.9976, 55.54292
392.4797, 55.52232
392.9618, 55.45092
393.4439, 55.58581
393.9261, 56.00401
394.4082, 56.21387
394.8903, 55.73590
395.3724, 54.92212
395.8545, 54.36715
396.3366, 54.19482
396.8188, 54.18298
397.3009, 54.26937
397.7830, 54.40470
398.2651, 54.30735
398.7472, 53.75459
399.2293, 53.16638
399.7115, 53.30989
400.1936, 54.22315
400.6757, 54.80372
401.1578, 54.54404
401.6399, 53.86520
402.1220, 53.19747
402.6042, 52.59733
403.0863, 52.19355
403.5684, 52.11401
404.0505, 52.35686
404.5326, 52.65877
405.0147, 53.08432
405.4969, 53.50109
405.9790, 54.00036
406.4611, 54.44426
406.9432, 54.43425
407.4253, 53.74276
407.9074, 52.69991
408.3896, 52.06274
408.8717, 52.07522
409.3538, 52.02826
409.8359, 51.77359
410.3180, 51.50182
410.8001, 51.44087
411.2823, 51.59254
411.7644, 51.71086
412.2465, 51.51269
412.7286, 50.93537
413.2107, 50.74321
413.6928, 51.38211
414.1750, 51.87125
414.6571, 51.75563
415.1392, 51.27825
415.6213, 50.88539
416.1034, 50.80735
416.5855, 50.92994
417.0677, 50.93592
417.5498, 50.64259
418.0319, 50.55955
418.5140, 50.94065
418.9961, 51.35528
419.4782, 51.45683
419.9604, 51.22596
420.4425, 50.91358
420.9246, 50.77679
421.4067, 50.82565
421.8888, 50.81338
422.3709, 50.51557
422.8531, 50.43699
423.3352, 51.00599
423.8173, 51.84143
424.2994, 52.32516
424.7815, 52.14421
425.2636, 51.55003
425.7458, 50.93621
426.2279, 50.24479
426.7100, 49.77836
427.1921, 49.75346
427.6742, 49.90255
428.1563, 50.02440
428.6385, 50.10766
429.1206, 50.29219
429.6027, 50.87652
430.0848, 51.66754
430.5669, 51.89441
431.0490, 51.31092
431.5312, 50.64188
432.0133, 50.47840
432.4954, 50.60132
432.9775, 50.60358
433.4596, 50.34994
433.9417, 49.99597
434.4239, 49.56676
434.9060, 49.10925
435.3881, 48.97824
435.8702, 49.43473
436.3523, 50.09704
436.8344, 50.27202
437.3166, 49.91065
437.7987, 49.53622
438.2808, 49.22503
438.7629, 49.00091
439.2450, 48.90087
439.7271, 48.92675
440.2093, 49.04772
440.6914, 49.25610
441.1735, 49.54607
441.6556, 49.79706
442.1377, 50.25951
442.6198, 50.41229
443.1020, 49.80829
443.5841, 48.84602
444.0662, 48.13972
444.5483, 47.91976
445.0304, 48.06275
445.5125, 48.38752
445.9947, 49.11816
446.4768, 49.49663
446.9589, 49.14414
447.4410, 48.82091
447.9231, 49.14325
448.4052, 49.92611
448.8874, 50.48523
449.3695, 50.28685
449.8516, 49.46793
450.3337, 48.86347
450.8158, 48.65601
451.2979, 48.38456
451.7801, 47.69105
452.2622, 47.04828
452.7443, 46.99339
453.2264, 47.63794
453.7085, 48.48550
454.1906, 49.04840
454.6728, 49.32658
455.1549, 49.27100
455.6370, 48.49078
456.1191, 47.88084
456.6012, 48.05951
457.0833, 48.75132
457.5655, 49.35561
458.0476, 49.65795
458.5297, 49.70343
459.0118, 49.43253
459.4939, 48.83183
459.9760, 48.43658
460.4582, 48.54281
460.9403, 48.87165
461.4224, 49.04264
461.9045, 49.05064
462.3866, 48.96439
462.8687, 48.72672
463.3508, 48.44482
463.8329, 48.28587
464.3151, 48.27063
464.7972, 48.30552
465.2793, 48.30465
465.7614, 48.29089
466.2435, 48.41652
466.7256, 49.02818
467.2078, 49.37952
467.6899, 48.93666
468.1720, 48.12331
468.6541, 47.66473
469.1362, 47.80254
469.6183, 48.16980
470.1005, 48.22095
470.5826, 47.79179
471.0647, 47.58867
471.5468, 47.74366
472.0289, 47.96482
472.5110, 48.13167
472.9932, 48.24609
473.4753, 48.35904
473.9574, 48.50731
474.4395, 48.65015
474.9216, 48.64226
475.4037, 48.35572
475.8859, 48.17706
476.3680, 48.19923
476.8501, 48.29929
477.3322, 48.39315
477.8143, 48.47380
478.2964, 48.58475
478.7786, 48.78474
479.2607, 49.05519
479.7428, 49.28448
480.2249, 49.51435
480.7070, 49.61045
481.1891, 49.48322
481.6713, 49.19652
482.1534, 48.76661
482.6355, 48.12356
483.1176, 47.58146
483.5997, 47.45623
484.0818, 47.66322
484.5640, 47.88752
485.0461, 48.08111
485.5282, 48.23001
486.0103, 48.35641
486.4924, 48.44684
486.9745, 48.33706
487.4567, 47.59388
487.9388, 47.00420
488.4209, 47.35276
488.9030, 48.34290
489.3851, 49.02758
489.8672, 48.94750
490.3494, 48.44020
490.8315, 48.19143
491.3136, 48.39536
491.7957, 48.50278
492.2778, 48.47213
492.7599, 48.37795
493.2421, 48.30382
493.7242, 48.22236
494.2063, 47.96727
494.6884, 47.35489
495.1705, 46.55367
495.6526, 46.51763
496.1348, 48.13321
496.6169, 49.08743
497.0990, 48.69765
497.5811, 47.82898
498.0632, 47.02188
498.5453, 46.44616
499.0275, 46.26608
499.5096, 46.96336
499.9917, 48.38998
500.4738, 48.85894
500.9559, 47.90053
501.4380, 46.90526
501.9202, 46.61654
502.4023, 46.70845
502.8844, 46.75469
503.3665, 46.62815
503.8486, 46.54083
504.3307, 46.74280
504.8129, 47.13792
505.2950, 47.32326
505.7771, 47.13109
506.2592, 47.01313
506.7413, 47.60258
507.2234, 48.83234
507.7056, 49.49110
508.1877, 49.07746
508.6698, 48.46855
509.1519, 48.01768
509.6340, 47.77227
510.1161, 47.92543
510.5983, 48.58866
511.0804, 49.27818
511.5625, 49.08063
512.0446, 47.31491
512.5267, 46.42212
513.0089, 47.08752
513.4910, 47.87781
513.9731, 47.99429
514.4552, 47.61222
514.9373, 47.32244
515.4194, 47.48789
515.9016, 47.89634
516.3837, 47.95885
516.8658, 47.51354
517.3479, 47.16438
517.8300, 46.94622
518.3121, 46.90434
518.7943, 47.18845
519.2764, 47.72737
519.7585, 48.18261
520.2406, 48.34958
520.7227, 48.28595
521.2048, 48.06689
521.6870, 47.66870
522.1691, 47.31614
522.6512, 47.13913
523.1333, 47.04590
523.6154, 46.80073
524.0975, 46.29557
524.5797, 46.14233
525.0618, 46.93708
525.5439, 48.02319
526.0260, 48.50521
526.5081, 48.33393
526.9902, 48.09571
527.4724, 48.22429
527.9545, 48.63707
528.4366, 48.82758
528.9187, 48.55748
529.4008, 48.39146
529.8829, 48.63848
530.3651, 48.87860
530.8472, 48.57172
531.3293, 47.72674
531.8114, 46.92419
532.2935, 46.74952
532.7756, 47.16919
533.2578, 47.49291
533.7399, 47.78401
534.2220, 47.86516
534.7041, 47.49547
535.1862, 47.02348
535.6683, 46.86959
536.1505, 47.12291
536.6326, 47.36996
537.1147, 47.08835
537.5968, 46.44055
538.0789, 46.24103
538.5610, 46.65895
539.0432, 47.18924
539.5253, 47.60330
540.0074, 47.87200
540.4895, 47.91758
540.9716, 47.60980
541.4537, 47.29750
541.9359, 47.20959
542.4180, 47.22630
542.9001, 47.11456
543.3822, 46.82728
543.8643, 46.52939
544.3464, 46.37510
544.8286, 46.36726
545.3107, 46.43117
545.7928, 46.44210
546.2749, 46.66035
546.7570, 47.38829
547.2391, 48.25325
547.7213, 48.84059
548.2034, 49.02820
548.6855, 48.92628
549.1676, 48.61010
549.6497, 48.05927
550.1318, 47.62024
550.6140, 47.37072
551.0961, 47.12242
551.5782, 46.71225
552.0603, 46.29389
552.5424, 46.10525
553.0245, 46.23731
553.5067, 46.43584
553.9888, 46.43890
554.4709, 46.31097
554.9530, 46.32200
555.4351, 46.54535
555.9172, 46.77169
556.3994, 46.82845
556.8815, 46.74014
557.3636, 46.67013
557.8457, 46.47793
558.3278, 46.47401
558.8099, 47.12671
559.2921, 47.91727
559.7742, 47.92823
560.2563, 47.00470
560.7384, 45.98054
561.2205, 45.78288
561.7026, 46.45614
562.1848, 46.82052
562.6669, 46.46023
563.1490, 46.26656
563.6311, 46.65462
564.1132, 47.16888
564.5953, 47.23023
565.0775, 46.72515
565.5596, 46.13234
566.0417, 46.00574
566.5238, 46.29139
567.0059, 46.40226
567.4880, 46.26300
567.9702, 46.09898
568.4523, 45.95391
568.9344, 45.88740
569.4165, 46.05157
569.8986, 46.57464
570.3807, 46.95238
570.8629, 46.64746
571.3450, 46.08994
571.8271, 46.16941
572.3092, 46.98100
572.7913, 47.63494
573.2734, 47.41465
573.7556, 46.45327
574.2377, 45.69955
574.7198, 45.08126
575.2019, 44.74881
575.6840, 44.90994
576.1661, 45.24443
576.6483, 45.46684
577.1304, 45.54711
577.6125, 45.62916
578.0946, 45.85544
578.5767, 46.17792
579.0588, 46.32550
579.5410, 46.28534
580.0231, 46.09777
580.5052, 45.51904
580.9873, 44.96719
581.4694, 44.84466
581.9515, 45.15805
582.4337, 45.46473
582.9158, 45.52441
583.3979, 45.41754
583.8800, 45.21970
584.3621, 44.94143
584.8442, 44.73986
585.3264, 44.70132
585.8085, 44.76362
586.2906, 44.79541
586.7727, 44.75413
587.2548, 44.81377
587.7369, 45.30326
