##NAMES=Dolomite
##RRUFFID=R050370
##IDEAL CHEMISTRY=CaMg(CO_3_)_2_
##LOCALITY=Morro Velho mine, Nova Lima, Minas Gerais, Brazil
##OWNER=RRUFF
##SOURCE=Eugene Schlepp
##DESCRIPTION=Colorless bladed crystals associated with pyrrhotite and albite
##STATUS=The identification of this mineral has been confirmed by X-ray diffraction and chemical analysis
##URL=rruff.info/R050370
##MEASURED CHEMISTRY=(Ca_0.84_Fe_0.16_)_Σ=1_(Mg_0.98_Mn_0.02_)_Σ=1_(CO_3_)_2_ ; CO_2_ estimated by difference
93.48767, 128.9028
93.96979, 133.7859
94.45190, 136.6560
94.93402, 135.4444
95.41614, 131.1599
95.89825, 126.7332
96.38037, 124.2292
96.86249, 123.0227
97.34460, 121.3239
97.82672, 118.5070
98.30884, 116.2701
98.79095, 115.3607
99.27307, 115.0866
99.75519, 114.2094
100.2373, 112.2571
100.7194, 109.5884
101.2015, 107.5978
101.6837, 106.9521
102.1658, 106.3518
102.6479, 104.4066
103.1300, 100.9088
103.6121, 97.96415
104.0942, 97.70329
104.5764, 99.01283
105.0585, 100.4067
105.5406, 101.5848
106.0227, 102.4792
106.5048, 102.8500
106.9869, 102.5691
107.4691, 101.8101
107.9512, 100.5369
108.4333, 98.89693
108.9154, 97.24104
109.3975, 95.80708
109.8796, 94.57757
110.3618, 93.65971
110.8439, 93.33829
111.3260, 93.07781
111.8081, 92.55936
112.2902, 91.79558
112.7723, 91.08243
113.2544, 90.86707
113.7366, 91.60349
114.2187, 92.01251
114.7008, 91.87056
115.1829, 91.54369
115.6650, 91.25060
116.1471, 91.06212
116.6293, 91.12598
117.1114, 91.97253
117.5935, 94.51735
118.0756, 96.07850
118.5577, 95.37347
119.0398, 93.15720
119.5220, 91.15224
120.0041, 89.98628
120.4862, 89.72758
120.9683, 90.27776
121.4504, 92.04967
121.9325, 93.91521
122.4147, 95.09825
122.8968, 95.59257
123.3789, 95.47083
123.8610, 93.99342
124.3431, 92.15462
124.8252, 90.92099
125.3074, 90.67475
125.7895, 91.08909
126.2716, 91.47728
126.7537, 91.67082
127.2358, 92.16881
127.7179, 93.51031
128.2001, 95.11346
128.6822, 96.17741
129.1643, 96.10933
129.6464, 95.02647
130.1285, 94.43307
130.6107, 94.62160
131.0928, 95.06607
131.5749, 95.76457
132.0570, 96.63792
132.5391, 97.57106
133.0212, 98.45826
133.5033, 99.29191
133.9855, 100.1611
134.4676, 101.1346
134.9497, 102.0831
135.4318, 102.9003
135.9139, 103.5888
136.3960, 104.2451
136.8782, 104.8584
137.3603, 105.3215
137.8424, 106.6567
138.3245, 110.2062
138.8066, 114.1644
139.2887, 116.1024
139.7709, 115.1918
140.2530, 113.3974
140.7351, 113.1490
141.2172, 114.2664
141.6993, 115.6889
142.1814, 116.9756
142.6636, 118.2017
143.1457, 119.6744
143.6278, 121.5331
144.1099, 123.5867
144.5920, 125.7143
145.0741, 127.8997
145.5563, 130.0479
146.0384, 131.6936
146.5205, 132.6128
147.0026, 134.9105
147.4847, 140.5295
147.9668, 146.6649
148.4490, 151.5931
148.9311, 155.0041
149.4132, 158.1670
149.8953, 163.0246
150.3774, 170.3544
150.8595, 178.0146
151.3417, 185.5883
151.8238, 193.4294
152.3059, 201.7115
152.7880, 210.4620
153.2701, 219.8676
153.7522, 230.2896
154.2344, 243.7455
154.7165, 255.8542
155.1986, 266.4291
155.6807, 275.6182
156.1628, 283.4855
156.6449, 289.9755
157.1271, 295.3520
157.6092, 300.6028
158.0913, 305.2767
158.5734, 310.3704
159.0555, 315.7304
159.5376, 321.6467
160.0198, 328.9813
160.5019, 338.4515
160.9840, 349.6797
161.4661, 360.6611
161.9482, 370.8161
162.4303, 381.3318
162.9125, 393.1306
163.3946, 406.1635
163.8767, 419.3365
164.3588, 431.5005
164.8409, 443.5180
165.3230, 456.9024
165.8052, 471.8206
166.2873, 488.2405
166.7694, 505.6518
167.2515, 523.7972
167.7336, 544.1734
168.2157, 567.6436
168.6979, 593.6099
169.1800, 622.1536
169.6621, 654.0807
170.1442, 688.0724
170.6263, 720.8976
171.1084, 753.5494
171.5906, 782.9290
172.0727, 809.9733
172.5548, 833.4932
173.0369, 852.7225
173.5190, 868.2082
174.0011, 878.8838
174.4833, 875.7084
174.9654, 852.2228
175.4475, 819.0182
175.9296, 774.2970
176.4117, 721.5311
176.8938, 665.1577
177.3760, 607.9852
177.8581, 549.8806
178.3402, 496.3752
178.8223, 446.0294
179.3044, 401.0218
179.7865, 363.5548
180.2687, 332.5973
180.7508, 305.4150
181.2329, 279.8974
181.7150, 256.0084
182.1971, 235.6696
182.6792, 219.8944
183.1614, 206.2265
183.6435, 193.1461
184.1256, 180.6763
184.6077, 170.0065
185.0898, 162.6265
185.5719, 158.8523
186.0541, 154.3624
186.5362, 148.4924
187.0183, 142.2172
187.5004, 135.9986
187.9825, 129.7951
188.4646, 124.8555
188.9468, 123.3159
189.4289, 124.3329
189.9110, 124.4801
190.3931, 122.6711
190.8752, 119.6454
191.3573, 116.3824
191.8395, 112.8170
192.3216, 109.3881
192.8037, 106.3285
193.2858, 103.6377
193.7679, 101.4078
194.2500, 99.84561
194.7322, 98.80061
195.2143, 97.75846
195.6964, 96.64857
196.1785, 95.66154
196.6606, 95.12503
197.1427, 94.78563
197.6249, 94.07434
198.1070, 92.41362
198.5891, 89.93238
199.0712, 87.94356
199.5533, 86.66888
200.0354, 85.70909
200.5176, 85.04198
200.9997, 84.56845
201.4818, 84.09538
201.9639, 83.40969
202.4460, 82.49379
202.9281, 82.01622
203.4103, 82.52678
203.8924, 83.00516
204.3745, 83.27975
204.8566, 83.28126
205.3387, 82.90540
205.8208, 81.97969
206.3030, 80.37997
206.7851, 79.38612
207.2672, 79.55692
207.7493, 79.73929
208.2314, 79.36679
208.7135, 78.55708
209.1957, 77.84956
209.6778, 77.77890
210.1599, 78.48506
210.6420, 78.71138
211.1241, 77.93261
211.6062, 77.22536
212.0884, 77.21089
212.5705, 77.84612
213.0526, 78.68233
213.5347, 79.39301
214.0168, 79.97289
214.4989, 80.05387
214.9811, 79.34731
215.4632, 78.41646
215.9453, 77.52135
216.4274, 76.70885
216.9095, 76.07547
217.3916, 75.73291
217.8737, 75.70065
218.3559, 75.68652
218.8380, 75.61511
219.3201, 75.60616
219.8022, 75.73531
220.2843, 76.00864
220.7664, 76.49868
221.2486, 77.61872
221.7307, 79.06768
222.2128, 79.54085
222.6949, 78.00860
223.1770, 75.84697
223.6591, 74.59669
224.1413, 74.37255
224.6234, 74.53638
225.1055, 74.78438
225.5876, 75.09579
226.0697, 75.44961
226.5518, 75.95689
227.0340, 76.44173
227.5161, 76.62152
227.9982, 76.44322
228.4803, 76.13732
228.9624, 75.72220
229.4445, 75.29023
229.9267, 74.97300
230.4088, 74.85786
230.8909, 74.85482
231.3730, 74.79220
231.8551, 74.64414
232.3372, 74.50258
232.8194, 74.27015
233.3015, 74.10353
233.7836, 74.22858
234.2657, 74.79573
234.7478, 75.61581
235.2299, 76.24397
235.7121, 76.55046
236.1942, 76.93263
236.6763, 77.73502
237.1584, 78.57622
237.6405, 79.01730
238.1227, 78.84079
238.6048, 78.27504
239.0869, 77.83144
239.5690, 77.22868
240.0511, 77.31922
240.5332, 78.75414
241.0154, 80.62193
241.4975, 82.10138
241.9796, 82.84837
242.4617, 82.92086
242.9438, 82.30759
243.4259, 79.76100
243.9081, 78.58346
244.3902, 79.83568
244.8723, 82.12477
245.3544, 84.28319
245.8365, 85.84636
246.3186, 86.88344
246.8008, 87.51936
247.2829, 87.08998
247.7650, 87.24165
248.2471, 88.15244
248.7292, 89.56924
249.2113, 91.49105
249.6935, 93.86314
250.1756, 96.23584
250.6577, 97.71483
251.1398, 97.54041
251.6219, 97.47694
252.1040, 97.29028
252.5862, 97.32881
253.0683, 97.99654
253.5504, 99.38233
254.0325, 101.1421
254.5146, 102.7099
254.9967, 103.8302
255.4789, 105.2368
255.9610, 107.1316
256.4431, 109.1838
256.9252, 111.0528
257.4073, 112.6777
257.8894, 114.3429
258.3716, 116.4686
258.8537, 119.3466
259.3358, 121.9239
259.8179, 123.7643
260.3000, 125.5741
260.7821, 128.1670
261.2643, 131.6416
261.7464, 135.1290
262.2285, 137.6375
262.7106, 138.8964
263.1927, 140.4108
263.6748, 141.3475
264.1570, 143.0871
264.6391, 147.3054
265.1212, 154.0439
265.6033, 161.1839
266.0854, 166.6355
266.5675, 170.2839
267.0497, 174.5417
267.5318, 179.7477
268.0139, 185.3572
268.4960, 191.0342
268.9781, 196.7326
269.4602, 202.3345
269.9424, 207.4050
270.4245, 212.2674
270.9066, 218.6487
271.3887, 227.5981
271.8708, 237.3459
272.3529, 246.3619
272.8351, 254.7463
273.3172, 263.7343
273.7993, 274.2746
274.2814, 286.0536
274.7635, 297.7366
275.2456, 308.8167
275.7278, 320.2675
276.2099, 333.1971
276.6920, 347.3873
277.1741, 360.9240
277.6562, 372.2007
278.1383, 382.7095
278.6205, 395.2801
279.1026, 410.7298
279.5847, 426.7308
280.0668, 441.6800
280.5489, 455.8350
281.0310, 470.4934
281.5132, 486.6865
281.9953, 502.9603
282.4774, 516.9365
282.9595, 528.1583
283.4416, 539.7675
283.9237, 553.9910
284.4059, 570.2449
284.8880, 586.3097
285.3701, 601.7067
285.8522, 616.5472
286.3343, 630.8576
286.8164, 644.6633
287.2986, 658.6188
287.7807, 673.0447
288.2628, 687.9193
288.7449, 703.0828
289.2270, 718.7411
289.7091, 734.3623
290.1913, 750.4575
290.6734, 766.5093
291.1555, 780.7709
291.6376, 791.5279
292.1197, 799.9059
292.6018, 809.1158
293.0840, 820.2278
293.5661, 829.7246
294.0482, 835.4905
294.5303, 838.1543
295.0124, 838.4368
295.4945, 836.6787
295.9767, 832.6268
296.4588, 826.1732
296.9409, 817.7357
297.4230, 805.3609
297.9051, 786.2105
298.3872, 762.9573
298.8694, 738.2747
299.3515, 713.1380
299.8336, 686.4369
300.3157, 656.1343
300.7978, 621.5663
301.2799, 586.2603
301.7621, 549.6309
302.2442, 513.7585
302.7263, 480.2740
303.2084, 449.4106
303.6905, 421.0976
304.1726, 395.4651
304.6548, 372.6423
305.1369, 350.7380
305.6190, 328.8448
306.1011, 308.1296
306.5832, 289.5870
307.0653, 273.2610
307.5475, 258.3299
308.0296, 244.1855
308.5117, 230.8759
308.9938, 218.6696
309.4759, 207.8160
309.9580, 198.0183
310.4402, 189.0473
310.9223, 180.8685
311.4044, 173.3601
311.8865, 166.6490
312.3686, 160.6352
312.8507, 154.6739
313.3329, 148.3948
313.8150, 142.8643
314.2971, 138.5594
314.7792, 135.2602
315.2613, 132.6375
315.7434, 130.8494
316.2256, 129.4277
316.7077, 127.3129
317.1898, 124.2757
317.6719, 121.1165
318.1540, 118.0522
318.6361, 115.1032
319.1183, 112.1685
319.6004, 109.0229
320.0825, 106.3911
320.5646, 105.6551
321.0467, 107.2100
321.5288, 108.1324
322.0110, 106.8481
322.4931, 104.9366
322.9752, 103.4889
323.4573, 102.6748
323.9394, 102.3377
324.4215, 102.5324
324.9037, 103.2428
325.3858, 103.7249
325.8679, 103.8195
326.3500, 103.6507
326.8321, 103.1162
327.3142, 102.3204
327.7964, 101.8373
328.2785, 102.4631
328.7606, 103.8487
329.2427, 104.1384
329.7248, 102.5243
330.2069, 101.0431
330.6891, 100.7563
331.1712, 101.4767
331.6533, 102.9258
332.1354, 105.5081
332.6175, 108.4734
333.0996, 110.1810
333.5818, 110.3175
334.0639, 110.2284
334.5460, 110.6987
335.0281, 111.2820
335.5102, 111.3271
335.9923, 110.3878
336.4745, 109.5143
336.9566, 110.2419
337.4387, 112.6905
337.9208, 114.6474
338.4029, 115.2475
338.8850, 115.0930
339.3671, 115.0008
339.8492, 115.0975
340.3314, 114.2997
340.8135, 111.4010
341.2956, 106.6980
341.7777, 102.0622
342.2598, 97.37543
342.7419, 93.53935
343.2241, 91.65780
343.7062, 91.35890
344.1883, 90.84341
344.6704, 89.14197
345.1525, 86.64775
345.6346, 84.25642
346.1168, 82.12666
346.5989, 79.74715
347.0810, 76.25156
347.5631, 72.29635
348.0452, 69.03621
348.5273, 66.73404
349.0095, 65.27751
349.4916, 64.98927
349.9737, 65.90891
350.4558, 66.19273
350.9379, 64.46551
351.4200, 61.89174
351.9022, 60.41328
352.3843, 60.40322
352.8664, 60.70391
353.3485, 60.65292
353.8306, 60.30225
354.3127, 59.79020
354.7949, 58.99878
355.2770, 58.32135
355.7591, 58.39157
356.2412, 59.19056
356.7233, 59.81276
357.2054, 59.95764
357.6876, 59.71815
358.1697, 59.13237
358.6518, 58.15324
359.1339, 57.20410
359.6160, 56.79623
360.0981, 56.78441
360.5803, 56.39230
361.0624, 54.95888
361.5445, 53.54075
362.0266, 53.12141
362.5087, 53.60850
362.9908, 54.19421
363.4730, 54.47569
363.9551, 54.51566
364.4372, 54.56223
364.9193, 54.78390
365.4014, 54.74493
365.8835, 54.01986
366.3657, 52.93193
366.8478, 52.19698
367.3299, 52.10835
367.8120, 52.21941
368.2941, 51.78942
368.7762, 50.69796
369.2584, 49.65326
369.7405, 48.36292
370.2226, 47.38947
370.7047, 47.60000
371.1868, 49.00584
371.6689, 50.37309
372.1511, 50.54124
372.6332, 49.43768
373.1153, 48.73959
373.5974, 48.55437
374.0795, 48.61463
374.5616, 49.13242
375.0438, 49.81143
375.5259, 49.89610
376.0080, 48.91515
376.4901, 47.18816
376.9722, 45.84355
377.4543, 44.20414
377.9365, 43.79729
378.4186, 45.96275
378.9007, 48.90772
379.3828, 50.65854
379.8649, 50.67522
380.3470, 49.71024
380.8292, 48.73488
381.3113, 47.58042
381.7934, 46.97691
382.2755, 47.68069
382.7576, 48.20874
383.2397, 47.34779
383.7219, 45.44669
384.2040, 43.91321
384.6861, 43.95810
385.1682, 45.43238
385.6503, 45.94690
386.1324, 43.55379
386.6146, 42.36020
387.0967, 44.09317
387.5788, 47.09465
388.0609, 49.26495
388.5430, 49.70374
389.0251, 49.06018
389.5073, 48.66477
389.9894, 48.90163
390.4715, 48.54628
390.9536, 46.29810
391.4357, 44.46219
391.9178, 45.20619
392.4000, 48.25082
392.8821, 51.05679
393.3642, 50.92970
393.8463, 47.75821
394.3284, 45.30664
394.8105, 43.60738
395.2927, 42.67157
395.7748, 42.97526
396.2569, 43.91979
396.7390, 44.53359
397.2211, 44.28838
397.7032, 43.53164
398.1854, 42.98609
398.6675, 42.62540
399.1496, 42.55720
399.6317, 43.08467
400.1138, 43.75132
400.5959, 44.31533
401.0781, 44.72450
401.5602, 44.80576
402.0423, 44.20786
402.5244, 43.01144
403.0065, 42.07503
403.4886, 41.41748
403.9708, 41.18902
404.4529, 41.71047
404.9350, 42.72169
405.4171, 43.49325
405.8992, 43.69715
406.3813, 43.48708
406.8635, 42.97034
407.3456, 42.09144
407.8277, 41.41990
408.3098, 41.34231
408.7919, 41.60248
409.2740, 41.72931
409.7562, 41.61420
410.2383, 41.58389
410.7204, 41.78633
411.2025, 42.22721
411.6846, 43.07441
412.1667, 44.56639
412.6489, 45.91984
413.1310, 45.93085
413.6131, 44.64959
414.0952, 43.66743
414.5773, 43.48579
415.0594, 43.56363
415.5416, 43.43821
416.0237, 43.09066
416.5058, 42.65452
416.9879, 42.16131
417.4700, 41.66954
417.9521, 41.49476
418.4343, 41.77768
418.9164, 42.14672
419.3985, 42.56368
419.8806, 42.98773
420.3627, 43.44549
420.8448, 43.94213
421.3270, 44.20602
421.8091, 43.72456
422.2912, 41.86593
422.7733, 41.16996
423.2554, 42.88016
423.7375, 44.57961
424.2197, 44.50640
424.7018, 43.05253
425.1839, 41.88218
425.6660, 42.25112
426.1481, 43.87785
426.6302, 44.86246
427.1124, 45.42113
427.5945, 44.93096
428.0766, 42.09614
428.5587, 38.81457
429.0408, 37.07008
429.5229, 37.42144
430.0051, 38.77909
430.4872, 39.62955
430.9693, 39.78631
431.4514, 40.20245
431.9335, 41.49842
432.4156, 42.52196
432.8978, 42.81748
433.3799, 42.45537
433.8620, 41.62191
434.3441, 40.15893
434.8262, 38.52639
435.3083, 38.19731
435.7905, 39.61039
436.2726, 41.12025
436.7547, 42.47216
437.2368, 43.48166
437.7189, 43.78384
438.2010, 43.26450
438.6832, 42.72277
439.1653, 43.18151
439.6474, 44.33650
440.1295, 44.35151
440.6116, 42.41743
441.0938, 40.32462
441.5759, 39.76297
442.0580, 40.31546
442.5401, 40.80058
443.0222, 40.80012
443.5043, 40.65120
443.9865, 40.65500
444.4686, 40.80914
444.9507, 41.11979
445.4328, 41.71289
445.9149, 42.33639
446.3970, 42.32952
446.8792, 41.41802
447.3613, 40.77941
447.8434, 41.12312
448.3255, 41.73227
448.8076, 41.50286
449.2897, 40.30985
449.7719, 39.29228
450.2540, 39.66660
450.7361, 41.54129
451.2182, 42.36960
451.7003, 41.66784
452.1824, 40.62787
452.6646, 39.09585
453.1467, 37.64016
453.6288, 37.39246
454.1109, 38.85237
454.5930, 41.01015
455.0751, 41.81258
455.5573, 40.38743
456.0394, 39.26328
456.5215, 38.33695
457.0036, 37.74236
457.4857, 37.51034
457.9678, 37.67291
458.4500, 38.33836
458.9321, 39.71550
459.4142, 41.62168
459.8963, 42.97363
460.3784, 43.51997
460.8605, 43.93211
461.3427, 44.62110
461.8248, 45.16721
462.3069, 44.97572
462.7890, 43.90215
463.2711, 42.82829
463.7532, 42.86740
464.2354, 43.91557
464.7175, 44.49065
465.1996, 44.34281
465.6817, 43.81637
466.1638, 42.90142
466.6459, 41.80922
467.1281, 41.08585
467.6102, 40.84136
468.0923, 41.10953
468.5744, 42.48134
469.0565, 44.76627
469.5386, 45.77935
470.0208, 44.24178
470.5029, 41.52652
470.9850, 40.04897
471.4671, 39.89332
471.9492, 39.99890
472.4313, 40.27085
472.9135, 40.57190
473.3956, 40.80911
473.8777, 40.95253
474.3598, 40.83450
474.8419, 40.18791
475.3240, 39.15424
475.8062, 39.17525
476.2883, 41.47363
476.7704, 43.17541
477.2525, 43.24261
477.7346, 42.60606
478.2167, 42.51210
478.6989, 43.24377
479.1810, 43.94363
479.6631, 43.35609
480.1452, 41.02604
480.6273, 39.77300
481.1094, 40.78952
481.5916, 41.67386
482.0737, 41.39335
482.5558, 40.48675
483.0379, 39.98173
483.5200, 40.39914
484.0021, 41.30602
484.4843, 42.00792
484.9664, 42.60121
485.4485, 42.52128
485.9306, 40.70611
486.4127, 38.99869
486.8948, 38.83800
487.3770, 40.02348
487.8591, 41.15574
488.3412, 41.09528
488.8233, 40.55204
489.3054, 41.17699
489.7875, 43.14174
490.2697, 44.61566
490.7518, 44.41211
491.2339, 43.24105
491.7160, 42.66299
492.1981, 42.93063
492.6802, 43.05834
493.1624, 42.32399
493.6445, 41.30914
494.1266, 40.98788
494.6087, 41.50894
495.0908, 42.13530
495.5729, 42.13915
496.0551, 41.53904
496.5372, 41.64682
497.0193, 43.47812
497.5014, 44.73003
497.9835, 44.18123
498.4656, 42.80952
498.9478, 42.12705
499.4299, 42.59374
499.9120, 43.29664
500.3941, 42.73327
500.8762, 40.20730
501.3583, 39.19152
501.8405, 41.55613
502.3226, 43.53209
502.8047, 43.39918
503.2868, 41.95754
503.7689, 40.74893
504.2510, 40.51225
504.7331, 40.91053
505.2152, 41.61144
505.6974, 42.83974
506.1795, 42.89735
506.6616, 39.93132
507.1437, 37.14285
507.6258, 37.19081
508.1079, 39.67435
508.5901, 42.15742
509.0722, 43.33189
509.5543, 43.88854
510.0364, 45.19214
510.5185, 47.21857
511.0006, 48.02425
511.4828, 46.21759
511.9649, 43.05756
512.4470, 41.24780
512.9291, 41.05718
513.4113, 40.97580
513.8934, 40.48626
514.3755, 40.00829
514.8576, 40.15555
515.3397, 40.87283
515.8218, 41.35192
516.3040, 40.87841
516.7861, 39.69763
517.2682, 39.59181
517.7503, 41.94817
518.2324, 43.65925
518.7145, 43.98042
519.1967, 43.82311
519.6788, 44.09505
520.1609, 44.91916
520.6430, 45.77351
521.1251, 46.19874
521.6072, 46.19369
522.0894, 45.61869
522.5715, 43.88731
523.0536, 42.52444
523.5357, 42.30424
524.0178, 42.56829
524.4999, 42.49609
524.9821, 41.84316
525.4642, 41.25123
525.9463, 41.25355
526.4284, 41.80491
526.9105, 42.89947
527.3926, 44.82428
527.8748, 46.41058
528.3569, 46.56863
528.8390, 45.61262
529.3211, 44.63588
529.8032, 43.56670
530.2853, 42.70026
530.7675, 42.36132
531.2496, 42.31494
531.7317, 41.90219
532.2138, 40.91752
532.6959, 40.29268
533.1780, 41.39979
533.6602, 44.80343
534.1423, 46.36710
534.6244, 44.81446
535.1065, 43.13462
535.5886, 42.54198
536.0707, 42.52961
536.5529, 42.08201
537.0350, 40.81922
537.5171, 39.47706
537.9992, 39.39600
538.4813, 40.90871
538.9634, 41.96330
539.4456, 42.22959
539.9277, 42.27532
540.4098, 42.31718
540.8919, 42.34029
541.3740, 42.28375
541.8561, 42.09517
542.3383, 41.87915
542.8204, 41.78720
543.3025, 41.80228
543.7846, 41.73702
544.2667, 41.48975
544.7488, 41.25826
545.2310, 41.25983
545.7131, 41.47483
546.1952, 41.81292
546.6773, 42.23109
547.1594, 42.79323
547.6415, 43.75166
548.1237, 44.88260
548.6058, 45.67309
549.0879, 45.91436
549.5700, 45.72050
550.0521, 45.20968
550.5342, 44.10632
551.0164, 43.55716
551.4985, 44.10146
551.9806, 44.56517
552.4627, 44.38662
552.9448, 43.75571
553.4269, 43.12462
553.9091, 42.71722
554.3912, 42.30249
554.8733, 41.18110
555.3554, 39.05666
555.8375, 38.29725
556.3196, 39.97630
556.8018, 42.24992
557.2839, 44.48440
557.7660, 46.37191
558.2481, 46.97811
558.7302, 45.27866
559.2123, 42.98655
559.6945, 41.83456
560.1766, 41.61689
560.6587, 41.35261
561.1408, 40.65304
561.6229, 40.14423
562.1050, 40.81978
562.5872, 42.97368
563.0693, 44.06364
563.5514, 43.12106
564.0335, 42.05192
564.5156, 42.22884
564.9977, 42.88720
565.4799, 42.19975
565.9620, 39.48875
566.4441, 36.47729
566.9262, 36.09147
567.4083, 39.12893
567.8904, 41.56223
568.3726, 43.82227
568.8547, 44.94089
569.3368, 43.69067
569.8189, 41.29359
570.3010, 39.73695
570.7831, 39.79657
571.2653, 40.58141
571.7474, 41.24546
572.2295, 41.76529
572.7116, 41.90627
573.1937, 41.49868
573.6758, 41.04507
574.1580, 41.21725
574.6401, 41.72964
575.1222, 41.43248
575.6043, 38.82922
576.0864, 36.97333
576.5685, 38.06473
577.0507, 40.70693
577.5328, 42.77697
578.0149, 43.70399
578.4970, 43.64451
578.9791, 42.58488
579.4612, 40.44780
579.9434, 39.26490
580.4255, 39.93008
580.9076, 40.52448
581.3897, 40.61603
581.8718, 40.50762
582.3539, 40.63556
582.8361, 41.05930
583.3182, 41.32756
583.8003, 40.69131
584.2824, 39.36594
584.7645, 39.09079
585.2466, 40.24695
585.7288, 41.38284
586.2108, 41.77214
586.6929, 41.71777
587.1750, 41.61947
587.6572, 41.49317
588.1393, 41.37193
