##NAMES=Dolomite
##RRUFFID=R050357
##IDEAL CHEMISTRY=CaMg(CO_3_)_2_
##LOCALITY=Black Rock, Lawrence County, Arkansas, USA
##OWNER=RRUFF
##SOURCE=California Institute of Technology
##DESCRIPTION=Aggregate of pale pink curved saddle-shaped crystals
##STATUS=The identification of this mineral has been confirmed by X-ray diffraction and chemical analysis
##URL=rruff.info/R050357
##MEASURED CHEMISTRY=Ca_1.00_(Mg_0.98_Fe^2+^_0.02_)_Î£=1_(CO_3_)_2_ ; CO_2_ estimated by difference
118.5577, 38.86407
119.0398, 38.85789
119.5220, 38.84008
120.0041, 38.73682
120.4862, 38.67765
120.9683, 38.94006
121.4504, 39.74965
121.9325, 40.49934
122.4147, 40.58723
122.8968, 39.95236
123.3789, 39.39455
123.8610, 39.38383
124.3431, 39.64262
124.8252, 39.96687
125.3074, 40.34294
125.7895, 40.69093
126.2716, 40.80773
126.7537, 40.50414
127.2358, 40.30485
127.7179, 40.41706
128.2001, 40.70371
128.6822, 40.96901
129.1643, 41.06481
129.6464, 41.02298
130.1285, 41.24826
130.6106, 42.32407
131.0928, 43.12200
131.5749, 43.20686
132.0570, 42.76462
132.5391, 42.24047
133.0212, 42.01385
133.5033, 42.11589
133.9855, 42.37085
134.4676, 43.03580
134.9497, 43.61979
135.4318, 43.70562
135.9139, 43.31197
136.3960, 42.93061
136.8782, 43.15232
137.3603, 44.12430
137.8424, 45.00826
138.3245, 45.72791
138.8066, 46.34672
139.2887, 46.92397
139.7709, 47.46584
140.2530, 47.98005
140.7351, 48.48780
141.2172, 48.98866
141.6993, 49.43185
142.1814, 49.67819
142.6636, 49.81628
143.1457, 50.18961
143.6278, 50.94526
144.1099, 51.89559
144.5920, 52.81969
145.0741, 53.71697
145.5563, 54.76841
146.0384, 56.28318
146.5205, 58.35536
147.0026, 60.06131
147.4847, 60.46495
147.9668, 60.96128
148.4490, 62.41649
148.9311, 64.97965
149.4132, 68.09469
149.8953, 70.86623
150.3774, 72.86868
150.8595, 75.47382
151.3417, 78.38242
151.8238, 81.99205
152.3059, 86.79238
152.7880, 92.90060
153.2701, 99.91956
153.7522, 106.7594
154.2344, 112.3825
154.7165, 119.0358
155.1986, 127.2400
155.6807, 136.4067
156.1628, 146.0734
156.6449, 156.0774
157.1271, 166.0663
157.6092, 174.4401
158.0913, 181.0963
158.5734, 186.7297
159.0555, 191.2008
159.5376, 194.7253
160.0198, 197.7492
160.5019, 200.2855
160.9840, 202.6477
161.4661, 205.8175
161.9482, 210.0324
162.4303, 214.7453
162.9125, 219.4253
163.3946, 224.0972
163.8767, 229.4958
164.3588, 236.3493
164.8409, 244.1567
165.3230, 252.1157
165.8052, 260.0192
166.2873, 268.0651
166.7694, 276.4230
167.2515, 285.2028
167.7336, 294.0345
168.2157, 302.8842
168.6979, 311.6695
169.1800, 320.2393
169.6621, 328.2560
170.1442, 336.2205
170.6263, 345.6208
171.1084, 356.9514
171.5906, 369.0964
172.0727, 381.3517
172.5548, 394.1199
173.0369, 408.1723
173.5190, 424.2433
174.0011, 441.9771
174.4833, 458.3769
174.9654, 475.8067
175.4475, 489.1468
175.9296, 499.0396
176.4117, 503.9576
176.8938, 501.5624
177.3760, 489.9179
177.8581, 468.9141
178.3402, 442.2686
178.8223, 406.8033
179.3044, 369.6524
179.7865, 331.5956
180.2687, 293.7191
180.7508, 257.9654
181.2329, 226.0242
181.7150, 198.0437
182.1971, 174.3315
182.6792, 155.6757
183.1614, 139.8901
183.6435, 126.0082
184.1256, 113.9215
184.6077, 103.6680
185.0898, 95.49793
185.5719, 89.67408
186.0540, 84.46240
186.5362, 80.01197
187.0183, 76.07362
187.5004, 72.44698
187.9825, 69.09818
188.4646, 66.11974
188.9467, 63.70701
189.4289, 61.77532
189.9110, 59.99770
190.3931, 58.33201
190.8752, 56.77436
191.3573, 55.31130
191.8394, 53.94996
192.3216, 52.66477
192.8037, 51.40455
193.2858, 50.19817
193.7679, 49.13226
194.2500, 48.21776
194.7321, 47.47333
195.2143, 46.99929
195.6964, 47.03307
196.1785, 46.96984
196.6606, 46.36370
197.1427, 45.41921
197.6248, 44.59298
198.1070, 44.23212
198.5891, 44.28577
199.0712, 44.24134
199.5533, 44.06455
200.0354, 43.81119
200.5175, 43.43467
200.9997, 42.99752
201.4818, 42.62698
201.9639, 42.43181
202.4460, 42.41520
202.9281, 42.42175
203.4102, 42.63955
203.8924, 42.70355
204.3745, 42.34817
204.8566, 41.71603
205.3387, 41.17525
205.8208, 41.07123
206.3029, 41.46825
206.7851, 41.70108
207.2672, 41.59867
207.7493, 41.51129
208.2314, 41.63239
208.7135, 41.91115
209.1956, 42.13667
209.6778, 42.09470
210.1599, 41.72193
210.6420, 41.59401
211.1241, 41.91208
211.6062, 42.24860
212.0883, 42.38046
212.5705, 42.31077
213.0526, 42.16327
213.5347, 42.01704
214.0168, 41.86604
214.4989, 41.93763
214.9810, 42.51960
215.4632, 43.08292
215.9453, 43.21432
216.4274, 42.91697
216.9095, 42.56658
217.3916, 42.48030
217.8737, 42.67419
218.3559, 42.85448
218.8380, 43.05210
219.3201, 43.21355
219.8022, 43.18180
220.2843, 42.94628
220.7664, 42.92086
221.2486, 43.61721
221.7307, 44.85003
222.2128, 45.78014
222.6949, 46.02843
223.1770, 46.05600
223.6591, 46.38517
224.1413, 47.06030
224.6234, 47.82647
225.1055, 48.55712
225.5876, 49.24422
226.0697, 49.87009
226.5518, 50.61827
227.0340, 51.20237
227.5161, 51.06274
227.9982, 49.98689
228.4803, 48.92286
228.9624, 48.53851
229.4445, 48.48155
229.9267, 48.28827
230.4088, 47.70637
230.8909, 46.97040
231.3730, 46.57090
231.8551, 46.65364
232.3372, 46.70821
232.8194, 46.44713
233.3015, 46.06309
233.7836, 45.77098
234.2657, 45.65719
234.7478, 45.68859
235.2299, 45.82730
235.7121, 46.19947
236.1942, 46.41602
236.6763, 46.25982
237.1584, 45.95757
237.6405, 45.73732
238.1227, 45.69543
238.6048, 45.79202
239.0869, 45.91877
239.5690, 46.02657
240.0511, 46.26754
240.5332, 46.85398
241.0154, 47.48551
241.4975, 47.82933
241.9796, 47.74086
242.4617, 47.38713
242.9438, 47.18563
243.4259, 47.24232
243.9081, 47.29510
244.3902, 47.21169
244.8723, 47.15741
245.3544, 47.32864
245.8365, 47.79707
246.3186, 48.41815
246.8007, 48.86470
247.2829, 48.99593
247.7650, 49.13761
248.2471, 49.19268
248.7292, 49.31829
249.2113, 49.75549
249.6934, 50.56338
250.1756, 51.46517
250.6577, 51.90178
251.1398, 51.26717
251.6219, 51.03542
252.1040, 51.49767
252.5861, 52.18782
253.0683, 52.66066
253.5504, 52.79481
254.0325, 52.83389
254.5146, 53.18214
254.9967, 54.06921
255.4788, 54.86547
255.9610, 55.48380
256.4431, 56.05885
256.9252, 56.78762
257.4073, 57.69808
257.8894, 58.51981
258.3716, 58.83268
258.8537, 58.23573
259.3358, 58.24061
259.8179, 59.09915
260.3000, 60.40575
260.7821, 62.06092
261.2643, 63.99388
261.7464, 65.62939
262.2285, 66.21425
262.7106, 65.40458
263.1927, 65.24583
263.6748, 65.98597
264.1570, 67.24947
264.6391, 68.85582
265.1212, 70.75346
265.6033, 72.70032
266.0854, 74.43664
266.5675, 75.94936
267.0497, 77.59071
267.5318, 79.29765
268.0139, 81.17607
268.4960, 83.37554
268.9781, 85.88470
269.4602, 88.43476
269.9424, 90.68037
270.4245, 92.77816
270.9066, 95.59702
271.3887, 99.54710
271.8708, 103.9433
272.3529, 108.2718
272.8351, 112.5495
273.3172, 116.9800
273.7993, 121.6790
274.2814, 126.6815
274.7635, 131.9190
275.2456, 136.8776
275.7278, 142.6115
276.2099, 150.0791
276.6920, 159.1389
277.1741, 168.6407
277.6562, 177.9480
278.1383, 187.4708
278.6204, 197.6846
279.1025, 208.6974
279.5847, 220.3750
280.0668, 232.6828
280.5489, 245.6471
281.0310, 259.2906
281.5131, 274.2955
281.9952, 289.2612
282.4774, 302.2741
282.9595, 313.1684
283.4416, 323.1743
283.9237, 332.6684
284.4058, 341.7646
284.8879, 351.0179
285.3701, 360.4161
285.8522, 370.1840
286.3343, 380.5809
286.8164, 391.5718
287.2985, 402.7209
287.7806, 413.4357
288.2628, 424.1026
288.7449, 435.9258
289.2270, 449.3583
289.7091, 463.5706
290.1912, 478.0796
290.6733, 492.8073
291.1555, 507.9292
291.6376, 523.8848
292.1197, 540.1484
292.6018, 555.4811
293.0839, 569.1588
293.5660, 583.3007
294.0482, 599.8921
294.5303, 617.8102
295.0124, 635.3361
295.4945, 651.8397
295.9766, 667.3906
296.4587, 682.2351
296.9409, 696.5800
297.4230, 709.5171
297.9051, 721.9393
298.3872, 732.3879
298.8693, 738.9886
299.3514, 741.7435
299.8336, 739.5210
300.3157, 730.7903
300.7978, 715.2880
301.2799, 694.3835
301.7620, 666.4009
302.2441, 633.9065
302.7263, 597.9044
303.2084, 558.0445
303.6905, 517.4618
304.1726, 478.6089
304.6547, 441.5657
305.1368, 406.3474
305.6190, 372.3803
306.1011, 340.8187
306.5832, 312.6018
307.0653, 287.7771
307.5474, 265.5816
308.0295, 245.6825
308.5117, 228.0586
308.9938, 212.0169
309.4759, 197.6384
309.9580, 184.9423
310.4401, 173.8503
310.9222, 164.2755
311.4044, 155.8971
311.8865, 148.9315
312.3686, 143.1442
312.8507, 137.3247
313.3328, 131.1600
313.8149, 125.5275
314.2971, 120.8139
314.7792, 116.8500
315.2613, 113.3467
315.7434, 110.2662
316.2255, 107.4839
316.7076, 104.7391
317.1898, 102.0025
317.6719, 99.31753
318.1540, 96.43356
318.6361, 93.70198
319.1182, 91.59120
319.6003, 90.31407
320.0825, 89.46024
320.5646, 88.53841
321.0467, 87.55479
321.5288, 86.46782
322.0109, 85.37572
322.4930, 84.08772
322.9752, 82.28316
323.4573, 79.90271
323.9394, 77.63335
324.4215, 76.14506
324.9036, 75.43295
325.3857, 74.90411
325.8679, 74.56117
326.3500, 74.28941
326.8321, 74.09821
327.3142, 73.94407
327.7963, 73.59877
328.2784, 72.73392
328.7606, 71.49709
329.2427, 70.59327
329.7248, 70.08993
330.2069, 69.89410
330.6890, 70.08537
331.1711, 70.50379
331.6533, 70.81086
332.1354, 70.81725
332.6175, 70.63600
333.0996, 70.46907
333.5817, 70.29407
334.0638, 70.20477
334.5460, 70.29945
335.0281, 70.48920
335.5102, 70.67984
335.9923, 70.83818
336.4744, 71.01452
336.9565, 71.39003
337.4387, 71.99681
337.9208, 72.22859
338.4029, 71.74949
338.8850, 70.87113
339.3671, 69.91454
339.8492, 68.90505
340.3314, 67.73628
340.8135, 66.31445
341.2956, 64.64826
341.7777, 62.82742
342.2598, 60.72106
342.7419, 58.67868
343.2241, 57.00826
343.7062, 55.65343
344.1883, 54.38998
344.6704, 53.03380
345.1525, 51.70560
345.6346, 50.62110
346.1168, 49.74439
346.5989, 49.26455
347.0810, 49.96737
347.5631, 51.12265
348.0452, 51.33727
348.5273, 49.67590
349.0095, 47.44930
349.4916, 46.12387
349.9737, 45.72004
350.4558, 45.50444
350.9379, 45.17068
351.4200, 44.82893
351.9022, 44.68777
352.3843, 44.85947
352.8664, 44.94622
353.3485, 44.55069
353.8306, 43.81567
354.3127, 43.34071
354.7949, 43.38132
355.2770, 43.58550
355.7591, 43.52284
356.2412, 43.20794
356.7233, 42.78923
357.2054, 42.19175
357.6876, 41.56340
358.1697, 41.16016
358.6518, 41.03200
359.1339, 41.00613
359.6160, 40.98407
360.0981, 40.94973
360.5803, 40.82002
361.0624, 40.38436
361.5445, 40.00086
362.0266, 40.09187
362.5087, 40.58900
362.9908, 40.91286
363.4730, 40.67007
363.9551, 40.06948
364.4372, 39.79060
364.9193, 40.11004
365.4014, 40.26907
365.8835, 39.76454
366.3657, 38.89884
366.8478, 38.30742
367.3299, 38.22863
367.8120, 38.37838
368.2941, 38.30561
368.7762, 37.95094
369.2584, 37.65619
369.7405, 37.44846
370.2226, 37.33287
370.7047, 37.33202
371.1868, 37.44381
371.6689, 37.62930
372.1511, 37.89687
372.6332, 38.24906
373.1153, 38.32436
373.5974, 37.89008
374.0795, 37.43819
374.5616, 37.21931
375.0438, 37.17533
375.5259, 37.13978
376.0080, 37.03039
376.4901, 36.84708
376.9722, 36.58445
377.4543, 36.04833
377.9365, 35.68340
378.4186, 35.62776
378.9007, 35.72342
379.3828, 35.85023
379.8649, 35.96062
380.3470, 35.97346
380.8292, 35.75027
381.3113, 35.13619
381.7934, 34.75425
382.2755, 34.77197
382.7576, 34.84332
383.2397, 34.75755
383.7219, 34.53912
384.2040, 34.34552
384.6861, 34.30996
385.1682, 34.41779
385.6503, 34.43386
386.1324, 34.24441
386.6146, 34.08601
387.0967, 34.04903
387.5788, 34.05008
388.0609, 33.95076
388.5430, 33.69402
389.0251, 33.39835
389.5073, 33.33186
389.9894, 33.70141
390.4715, 33.86088
390.9536, 33.63046
391.4357, 33.32320
391.9178, 33.16008
392.4000, 33.14243
392.8821, 33.10162
393.3642, 32.85887
393.8463, 32.40623
394.3284, 31.98907
394.8105, 31.52183
395.2927, 31.19886
395.7748, 31.15703
396.2569, 31.28395
396.7390, 31.40764
397.2211, 31.45668
397.7032, 31.42292
398.1854, 31.24497
398.6675, 30.82825
399.1496, 30.55499
399.6317, 30.55630
400.1138, 30.72791
400.5959, 31.09538
401.0780, 31.65184
401.5602, 32.10966
402.0423, 32.17310
402.5244, 31.87051
403.0065, 31.47179
403.4886, 30.83410
403.9707, 30.37130
404.4529, 30.49714
404.9350, 31.02155
405.4171, 31.41050
405.8992, 31.36097
406.3813, 31.08189
406.8634, 30.89840
407.3456, 30.82160
407.8277, 30.73746
408.3098, 30.60172
408.7919, 30.41402
409.2740, 30.14916
409.7561, 29.72873
410.2383, 29.43289
410.7204, 29.56534
411.2025, 29.96489
411.6846, 30.13904
412.1667, 29.92733
412.6488, 29.56800
413.1310, 29.34972
413.6131, 29.26640
414.0952, 29.14690
414.5773, 28.83429
415.0594, 28.55888
415.5415, 28.64647
416.0237, 29.05381
416.5058, 29.29806
416.9879, 28.99270
417.4700, 28.28439
417.9521, 27.98104
418.4342, 28.43206
418.9164, 28.79557
419.3985, 28.71563
419.8806, 28.44708
420.3627, 28.43066
420.8448, 28.80358
421.3269, 29.22976
421.8091, 29.18406
422.2912, 28.41279
422.7733, 27.88491
423.2554, 27.91634
423.7375, 27.89971
424.2196, 27.26194
424.7018, 26.21247
425.1839, 25.50193
425.6660, 25.71697
426.1481, 26.69059
426.6302, 27.28959
427.1123, 27.33617
427.5945, 27.17607
428.0766, 26.57125
428.5587, 25.92476
429.0408, 25.69630
429.5229, 26.00218
430.0050, 26.49431
430.4872, 26.67350
430.9693, 26.45524
431.4514, 26.27683
431.9335, 26.18195
432.4156, 26.09881
432.8977, 25.94437
433.3799, 25.77558
433.8620, 25.75254
434.3441, 26.05213
434.8262, 26.50374
435.3083, 26.56162
435.7904, 26.05966
436.2726, 25.62336
436.7547, 25.57530
437.2368, 25.64057
437.7189, 25.54170
438.2010, 25.21227
438.6831, 24.94018
439.1653, 25.12743
439.6474, 25.64289
440.1295, 25.68624
440.6116, 24.88289
441.0937, 24.07979
441.5758, 24.15165
442.0580, 24.83832
442.5401, 25.37385
443.0222, 25.51216
443.5043, 25.42747
443.9864, 25.25099
444.4685, 24.99189
444.9507, 24.69057
445.4328, 24.30986
445.9149, 23.95775
446.3970, 23.89822
446.8791, 24.18972
447.3612, 24.53279
447.8434, 25.00219
448.3255, 25.40754
448.8076, 25.43050
449.2897, 25.04096
449.7718, 24.61057
450.2539, 24.49243
450.7361, 24.70432
451.2182, 24.89481
451.7003, 25.31265
452.1824, 25.44685
452.6645, 24.78208
453.1466, 23.77834
453.6288, 23.28365
454.1109, 23.67035
454.5930, 24.45780
455.0751, 24.66912
455.5572, 23.91437
456.0393, 23.32787
456.5215, 22.92491
457.0036, 22.64654
457.4857, 22.42162
457.9678, 22.28063
458.4499, 22.34313
458.9320, 22.74716
459.4142, 23.41584
459.8963, 23.91452
460.3784, 24.27656
460.8605, 24.38727
461.3426, 24.10217
461.8247, 23.65030
462.3069, 23.18432
462.7890, 22.74376
463.2711, 22.48177
463.7532, 22.73686
464.2353, 23.44857
464.7174, 23.66255
465.1996, 22.94028
465.6817, 22.23657
466.1638, 22.38599
466.6459, 23.08016
467.1280, 23.54406
467.6101, 23.39544
468.0923, 23.02069
468.5744, 22.77493
469.0565, 22.65784
469.5386, 22.71013
470.0207, 23.01204
470.5028, 23.41020
470.9850, 23.63520
471.4671, 23.68373
471.9492, 23.65789
472.4313, 23.58242
472.9134, 23.44586
473.3955, 23.19590
473.8777, 22.84661
474.3598, 22.51931
474.8419, 22.29922
475.3240, 22.18497
475.8061, 22.17176
476.2882, 22.40122
476.7704, 22.54404
477.2525, 22.39688
477.7346, 22.18825
478.2167, 22.23656
478.6988, 22.60875
479.1809, 23.06194
479.6631, 23.30878
480.1452, 23.34946
480.6273, 23.16637
481.1094, 22.31912
481.5915, 21.70203
482.0736, 21.78834
482.5558, 22.27680
483.0379, 22.64524
483.5200, 22.64627
484.0021, 22.39463
484.4842, 22.01854
484.9663, 21.41520
485.4485, 21.16989
485.9306, 21.85025
486.4127, 22.53664
486.8948, 22.47525
487.3769, 21.78593
487.8590, 21.27023
488.3412, 21.60995
488.8233, 22.35971
489.3054, 22.57697
489.7875, 22.19276
490.2696, 21.90480
490.7517, 22.21162
491.2339, 22.75184
491.7160, 22.76627
492.1981, 22.05062
492.6802, 21.40962
493.1623, 21.22088
493.6444, 21.30365
494.1266, 21.42535
494.6087, 21.54275
495.0908, 21.62863
495.5729, 21.65509
496.0550, 21.62226
496.5371, 21.58943
497.0193, 21.64445
497.5014, 21.59946
497.9835, 21.20135
498.4656, 20.73611
498.9477, 20.71359
499.4298, 21.26918
499.9120, 21.90524
500.3941, 21.82070
500.8762, 20.68988
501.3583, 20.13778
501.8404, 20.67588
502.3225, 21.27518
502.8047, 21.62414
503.2868, 21.76188
503.7689, 21.80178
504.2510, 21.79587
504.7331, 21.73837
505.2152, 21.57291
505.6974, 21.25524
506.1795, 21.11098
506.6616, 21.37545
507.1437, 21.67523
507.6258, 21.74041
508.1079, 21.59167
508.5901, 21.37584
509.0722, 21.03195
509.5543, 20.72765
510.0364, 20.76440
510.5185, 21.13784
511.0006, 21.51774
511.4828, 21.76789
511.9649, 21.91364
512.4470, 22.02487
512.9291, 22.14610
513.4112, 22.10618
513.8933, 21.64963
514.3754, 21.13785
514.8575, 21.01857
515.3397, 21.28225
515.8218, 21.53142
516.3039, 21.45597
516.7860, 21.11514
517.2681, 20.93968
517.7502, 21.11642
518.2324, 21.22865
518.7145, 21.18657
519.1966, 21.09541
519.6787, 21.02996
520.1608, 21.01712
520.6429, 21.08389
521.1251, 21.29764
521.6072, 21.65023
522.0893, 21.81384
522.5714, 21.72415
523.0535, 21.53840
523.5356, 21.15998
524.0178, 20.79553
524.4999, 20.76119
524.9820, 21.16993
525.4641, 21.55240
525.9462, 21.37595
526.4283, 20.78043
526.9105, 20.38208
527.3926, 20.26611
527.8747, 20.35873
528.3568, 20.74437
528.8389, 21.30651
529.3210, 21.64312
529.8032, 21.62202
530.2853, 21.47190
530.7674, 21.27683
531.2495, 21.04689
531.7316, 20.77770
532.2137, 20.46551
532.6959, 20.19029
533.1780, 20.04818
533.6601, 20.04654
534.1422, 20.14295
534.6243, 20.46915
535.1064, 20.73487
535.5886, 20.81339
536.0707, 20.76512
536.5528, 20.70215
537.0349, 20.66786
537.5170, 20.59063
537.9991, 20.26209
538.4813, 19.54254
538.9634, 19.31008
539.4455, 20.07919
539.9276, 20.82399
540.4097, 21.07859
540.8918, 20.96524
541.3740, 20.72722
541.8561, 20.39623
542.3382, 20.11317
542.8203, 20.11956
543.3024, 20.37754
543.7845, 20.49920
544.2667, 20.33092
544.7488, 20.11476
545.2309, 20.14720
545.7130, 20.39749
546.1951, 20.59962
546.6772, 20.63968
547.1594, 20.68784
547.6415, 20.96928
548.1236, 21.34479
548.6057, 21.42954
549.0878, 21.05939
549.5699, 20.49129
550.0521, 20.14001
550.5342, 20.04893
551.0163, 20.06104
551.4984, 20.34751
551.9805, 20.54729
552.4626, 20.38609
552.9448, 20.04244
553.4269, 19.88154
553.9090, 20.08646
554.3911, 20.44551
554.8732, 20.57969
555.3553, 20.45343
555.8375, 20.33806
556.3196, 20.16694
556.8017, 20.14016
557.2838, 20.54622
557.7659, 21.19346
558.2480, 21.53328
558.7302, 21.26271
559.2123, 20.73291
559.6944, 20.12424
560.1765, 19.51804
560.6586, 19.35565
561.1407, 19.85227
561.6229, 20.56434
562.1050, 20.94529
562.5871, 20.93132
563.0692, 20.98463
563.5513, 21.37214
564.0334, 21.56324
564.5156, 21.09164
564.9977, 20.27196
565.4798, 19.66262
565.9619, 19.48895
566.4440, 19.60090
566.9261, 19.79927
567.4083, 20.14081
567.8904, 20.33760
568.3725, 20.30632
568.8546, 20.20622
569.3367, 20.02744
569.8188, 19.83128
570.3010, 19.70274
570.7831, 19.66823
571.2652, 19.72827
571.7473, 19.92976
572.2294, 20.24923
572.7115, 20.53753
573.1937, 20.83693
573.6758, 20.92667
574.1579, 20.36747
574.6400, 19.40117
575.1221, 18.98826
575.6042, 19.74678
576.0864, 20.47583
576.5685, 20.46794
577.0506, 20.07230
577.5327, 19.86018
578.0148, 19.97421
578.4969, 20.23155
578.9791, 20.45668
579.4612, 20.65297
579.9433, 20.73236
580.4254, 20.64342
580.9075, 20.49265
581.3896, 20.19607
581.8718, 19.89972
582.3539, 19.80070
582.8360, 19.92400
583.3181, 20.05995
583.8002, 19.92436
584.2823, 19.58064
584.7645, 19.53980
585.2466, 19.91311
585.7287, 20.27729
586.2108, 20.42507
586.6929, 20.43774
587.1750, 20.40756
587.6572, 20.31805
588.1393, 20.28553
588.6214, 20.44513
589.1035, 20.65040
589.5856, 20.68341
590.0677, 20.53996
590.5499, 20.39044
591.0320, 20.35340
591.5141, 20.38158
591.9962, 20.29811
592.4783, 19.89570
592.9604, 19.67842
593.4426, 19.89560
593.9247, 20.09679
594.4068, 19.83525
594.8889, 19.25179
595.3710, 18.88406
595.8531, 19.11930
596.3353, 19.70828
596.8174, 20.10102
597.2995, 20.29164
597.7816, 20.28433
598.2637, 19.89350
598.7458, 19.50584
599.2280, 19.48740
599.7101, 19.77569
600.1922, 20.02872
600.6743, 20.15467
601.1564, 20.18976
601.6385, 20.12435
602.1207, 19.99067
602.6028, 19.87892
603.0849, 19.81879
603.5670, 19.79650
604.0491, 19.79740
604.5313, 19.82461
605.0134, 19.85589
605.4955, 20.08235
605.9776, 20.09472
606.4597, 19.50180
606.9418, 18.73295
607.4240, 18.40809
607.9061, 18.67740
608.3882, 19.07288
608.8703, 18.96635
609.3524, 18.42061
609.8345, 18.36588
610.3167, 19.07015
610.7988, 19.62011
611.2809, 19.31643
611.7630, 18.70413
612.2451, 18.57604
612.7272, 19.11092
613.2094, 19.58171
