##NAMES=Dolomite
##RRUFFID=R040030
##IDEAL CHEMISTRY=CaMg(CO_3_)_2_
##LOCALITY=Austria
##OWNER=RRUFF
##SOURCE=University of Arizona Mineral Museum
##DESCRIPTION=Group of colorless tabular crystals
##STATUS=The identification of this mineral has been confirmed by X-ray diffraction and chemical analysis
##URL=rruff.info/R040030
##MEASURED CHEMISTRY=(Ca_0.99_Mg_0.01_)_Î£=1_Mg_1.00_(CO_3_)_2_ ; trace amounts of Mn; CO_2_ estimated by difference
120.0622, 90.95966
120.5444, 91.39101
121.0265, 91.08378
121.5086, 90.02074
121.9907, 89.17765
122.4728, 89.18178
122.9549, 89.63732
123.4371, 89.44151
123.9192, 87.91074
124.4013, 86.13792
124.8834, 85.26491
125.3655, 85.30444
125.8476, 85.85895
126.3298, 87.01862
126.8119, 88.90372
127.2940, 89.86295
127.7761, 88.15416
128.2582, 86.07906
128.7404, 85.13344
129.2225, 85.71677
129.7046, 86.91235
130.1867, 87.02171
130.6688, 84.94450
131.1509, 83.90100
131.6331, 85.31783
132.1152, 87.35761
132.5973, 88.14235
133.0794, 86.73595
133.5615, 83.80119
134.0436, 82.13634
134.5258, 82.68219
135.0079, 83.59158
135.4900, 85.05026
135.9721, 86.69302
136.4542, 87.92797
136.9363, 88.32414
137.4184, 87.94328
137.9006, 87.87083
138.3827, 88.17734
138.8648, 88.64576
139.3469, 89.19073
139.8290, 89.80727
140.3111, 90.53200
140.7933, 91.45515
141.2754, 92.53987
141.7575, 93.45306
142.2396, 93.80045
142.7217, 94.15426
143.2038, 95.15081
143.6860, 96.89889
144.1681, 98.98927
144.6502, 101.2782
145.1323, 103.6615
145.6144, 105.9052
146.0965, 107.5761
146.5787, 108.9834
147.0608, 111.1438
147.5429, 114.2971
148.0250, 118.0276
148.5071, 121.9051
148.9892, 126.0190
149.4714, 130.6701
149.9535, 135.6105
150.4356, 140.6831
150.9177, 148.1615
151.3998, 159.4886
151.8819, 172.2783
152.3641, 185.8057
152.8462, 200.0664
153.3283, 215.4732
153.8104, 232.8389
154.2925, 252.9720
154.7746, 272.6474
155.2568, 292.9287
155.7389, 312.2073
156.2210, 329.8546
156.7031, 345.5423
157.1852, 358.8448
157.6673, 368.9354
158.1495, 373.4491
158.6316, 378.2585
159.1137, 383.1683
159.5958, 388.4570
160.0779, 394.1076
160.5600, 400.0995
161.0422, 407.0718
161.5243, 416.6628
162.0064, 429.3473
162.4885, 442.9605
162.9706, 457.1815
163.4527, 472.0121
163.9349, 487.5059
164.4170, 503.7999
164.8991, 520.6473
165.3812, 537.5724
165.8633, 554.4476
166.3454, 571.9176
166.8276, 590.0040
167.3097, 608.7894
167.7918, 629.4647
168.2739, 652.0558
168.7560, 677.3097
169.2381, 705.4950
169.7203, 736.5513
170.2024, 770.6449
170.6845, 807.4069
171.1666, 846.1364
171.6487, 890.9280
172.1308, 944.2852
172.6130, 1003.798
173.0951, 1070.129
173.5772, 1144.313
174.0593, 1220.805
174.5414, 1294.315
175.0235, 1376.986
175.5057, 1427.129
175.9878, 1445.086
176.4699, 1429.999
176.9520, 1376.297
177.4341, 1280.152
177.9162, 1152.130
178.3984, 1022.433
178.8805, 879.2135
179.3626, 751.0773
179.8447, 638.9162
180.3268, 543.0607
180.8089, 463.4138
181.2911, 400.6864
181.7732, 353.3012
182.2553, 312.3624
182.7374, 279.1027
183.2195, 250.7363
183.7016, 227.9216
184.1838, 209.6444
184.6659, 194.5430
185.1480, 181.9379
185.6301, 171.6434
186.1122, 161.9549
186.5943, 152.4200
187.0765, 143.8064
187.5586, 136.5051
188.0407, 130.4164
188.5228, 125.1615
189.0049, 120.6010
189.4870, 116.7710
189.9692, 113.2995
190.4513, 110.1692
190.9334, 107.3797
191.4155, 105.1458
191.8976, 103.4288
192.3797, 101.5105
192.8619, 98.64671
193.3440, 95.27283
193.8261, 92.63731
194.3082, 91.37360
194.7903, 90.57465
195.2724, 89.31200
195.7546, 87.53710
196.2367, 85.64184
196.7188, 83.64677
197.2009, 81.72695
197.6830, 80.17989
198.1651, 79.23540
198.6473, 78.61810
199.1294, 77.80455
199.6115, 76.64217
200.0936, 75.68224
200.5757, 75.29360
201.0578, 75.20625
201.5400, 75.10921
202.0221, 74.88782
202.5042, 74.54262
202.9863, 74.03330
203.4684, 73.16190
203.9505, 72.46565
204.4327, 72.07261
204.9148, 71.93504
205.3969, 72.01779
205.8790, 72.34826
206.3611, 72.84790
206.8432, 73.13877
207.3254, 73.36544
207.8075, 73.14285
208.2896, 71.94194
208.7717, 70.33743
209.2538, 69.17863
209.7359, 69.05413
210.2181, 69.82689
210.7002, 70.23092
211.1823, 69.61354
211.6644, 69.29106
212.1465, 69.92873
212.6286, 71.01280
213.1108, 71.60209
213.5929, 71.02057
214.0750, 69.37491
214.5571, 68.25195
215.0392, 67.76882
215.5213, 67.60902
216.0035, 67.82167
216.4856, 68.30507
216.9677, 68.90244
217.4498, 69.54629
217.9319, 70.21036
218.4140, 70.56853
218.8961, 70.49255
219.3783, 70.31789
219.8604, 70.03319
220.3425, 69.72757
220.8246, 69.64262
221.3067, 69.96009
221.7888, 70.63966
222.2710, 71.30290
222.7531, 72.06322
223.2352, 72.70495
223.7173, 73.06753
224.1994, 73.19292
224.6815, 73.32085
225.1637, 73.68846
225.6458, 74.11956
226.1279, 74.03496
226.6100, 72.97266
227.0921, 71.86214
227.5742, 71.57394
228.0564, 71.99709
228.5385, 71.90077
229.0206, 70.23028
229.5027, 67.74149
229.9848, 66.13109
230.4669, 65.69420
230.9491, 65.87646
231.4312, 66.46623
231.9133, 67.46992
232.3954, 68.15341
232.8775, 68.02724
233.3596, 67.42201
233.8418, 66.73798
234.3239, 65.95500
234.8060, 65.24077
235.2881, 64.62791
235.7702, 64.06263
236.2523, 64.12757
236.7345, 66.01871
237.2166, 68.15432
237.6987, 68.92668
238.1808, 67.80364
238.6629, 66.21266
239.1451, 66.05309
239.6272, 67.65942
240.1093, 68.90232
240.5914, 68.96069
241.0735, 68.50874
241.5556, 67.82219
242.0378, 66.95345
242.5199, 66.19670
243.0020, 65.95876
243.4841, 66.34852
243.9662, 66.87468
244.4483, 67.40235
244.9305, 68.06139
245.4126, 69.18040
245.8947, 70.77002
246.3768, 72.17243
246.8589, 72.31144
247.3410, 70.61749
247.8232, 69.43883
248.3053, 69.20602
248.7874, 69.35299
249.2695, 69.58556
249.7516, 69.83845
250.2337, 70.19331
250.7159, 70.76158
251.1980, 71.57691
251.6801, 72.53357
252.1622, 74.09361
252.6443, 75.43105
253.1264, 75.94987
253.6086, 75.64845
254.0907, 75.03697
254.5728, 74.69795
255.0549, 74.59940
255.5370, 74.91422
256.0191, 75.83525
256.5013, 76.93301
256.9834, 77.98213
257.4655, 78.96240
257.9476, 79.99458
258.4297, 81.24935
258.9118, 82.88390
259.3940, 84.08331
259.8761, 84.53015
260.3582, 84.91027
260.8403, 85.43619
261.3224, 86.19466
261.8045, 87.30169
262.2867, 88.91729
262.7688, 91.13811
263.2509, 93.19692
263.7330, 94.92602
264.2151, 96.66869
264.6972, 98.68192
265.1794, 100.8807
265.6615, 102.9290
266.1436, 104.4503
266.6257, 105.3938
267.1078, 107.3046
267.5899, 110.5387
268.0721, 114.1686
268.5542, 117.9862
269.0363, 121.8867
269.5184, 125.6551
270.0005, 129.0214
270.4826, 132.0891
270.9648, 136.2032
271.4469, 141.6823
271.9290, 147.6046
272.4111, 153.5296
272.8932, 159.6084
273.3753, 166.2748
273.8575, 173.7422
274.3396, 181.9821
274.8217, 190.9412
275.3038, 199.7179
275.7859, 209.9758
276.2680, 222.2042
276.7502, 236.2551
277.2323, 252.1803
277.7144, 270.2299
278.1965, 289.7164
278.6786, 308.6659
279.1607, 326.3703
279.6429, 344.7292
280.1250, 365.0665
280.6071, 386.3931
281.0892, 406.7667
281.5713, 425.5551
282.0534, 443.2607
282.5356, 461.0181
283.0177, 479.3478
283.4998, 496.2407
283.9819, 509.6924
284.4640, 521.7303
284.9461, 535.6818
285.4283, 552.6176
285.9104, 570.6602
286.3925, 586.8680
286.8746, 600.8909
287.3567, 616.7266
287.8388, 636.2650
288.3210, 657.7299
288.8031, 678.2032
289.2852, 697.1069
289.7673, 717.0698
290.2494, 741.4838
290.7315, 770.2079
291.2137, 798.6284
291.6958, 824.6359
292.1779, 850.9351
292.6600, 880.3594
293.1421, 913.1447
293.6242, 948.0518
294.1064, 984.0696
294.5885, 1021.464
295.0706, 1060.265
295.5527, 1102.079
296.0348, 1144.207
296.5169, 1184.943
296.9991, 1224.117
297.4812, 1261.525
297.9633, 1300.023
298.4454, 1334.926
298.9275, 1355.764
299.4096, 1362.034
299.8918, 1354.307
300.3739, 1332.445
300.8560, 1296.562
301.3381, 1247.433
301.8202, 1182.056
302.3023, 1105.079
302.7845, 1025.801
303.2666, 943.0067
303.7487, 862.1606
304.2308, 785.6805
304.7129, 713.8895
305.1950, 647.1370
305.6772, 585.0699
306.1593, 529.2054
306.6414, 481.2777
307.1235, 440.9604
307.6056, 405.4118
308.0877, 373.7066
308.5699, 345.7328
309.0520, 321.4447
309.5341, 301.3702
310.0162, 283.6567
310.4983, 266.4399
310.9804, 249.6232
311.4626, 234.4459
311.9447, 221.2192
312.4268, 209.9016
312.9089, 200.7119
313.3910, 193.8860
313.8731, 187.8281
314.3553, 181.0689
314.8374, 173.9566
315.3195, 167.6071
315.8016, 162.4586
316.2837, 158.0394
316.7658, 153.7851
317.2480, 149.6717
317.7301, 146.2730
318.2122, 144.2717
318.6943, 143.1793
319.1764, 141.7246
319.6585, 139.4291
320.1407, 137.2419
320.6228, 136.1544
321.1049, 135.9916
321.5870, 135.3909
322.0691, 133.5534
322.5512, 131.1405
323.0334, 129.2689
323.5155, 127.8929
323.9976, 127.1712
324.4797, 127.5252
324.9618, 128.6517
325.4439, 129.6253
325.9261, 130.1828
326.4082, 130.5301
326.8903, 130.8854
327.3724, 131.2357
327.8545, 131.7255
328.3366, 132.1576
328.8188, 132.8229
329.3009, 134.3622
329.7830, 137.0061
330.2651, 139.8881
330.7472, 141.9702
331.2293, 143.4625
331.7115, 145.6314
332.1936, 149.0307
332.6757, 153.0262
333.1578, 157.0075
333.6399, 160.9517
334.1220, 164.9343
334.6042, 168.7089
335.0863, 172.6801
335.5684, 177.9703
336.0505, 185.9362
336.5326, 193.8817
337.0147, 200.6700
337.4969, 206.1695
337.9790, 209.8243
338.4611, 211.4966
338.9432, 210.9176
339.4253, 207.7504
339.9074, 202.0305
340.3896, 194.3207
340.8717, 183.7582
341.3538, 171.4713
341.8359, 159.5643
342.3180, 148.5009
342.8001, 138.2380
343.2822, 128.6791
343.7643, 119.7593
344.2465, 111.6800
344.7286, 104.2735
345.2107, 97.83319
345.6928, 92.97443
346.1749, 89.74550
346.6570, 87.05791
347.1392, 83.91694
347.6213, 80.32652
348.1034, 77.41875
348.5855, 75.09178
349.0676, 73.51744
349.5497, 73.33604
350.0319, 74.19896
350.5140, 74.52634
350.9961, 73.23625
351.4782, 70.73924
351.9603, 69.02688
352.4424, 68.82443
352.9246, 68.38017
353.4067, 66.81116
353.8888, 64.68380
354.3709, 63.07053
354.8530, 62.41018
355.3351, 62.24055
355.8173, 61.64746
356.2994, 60.19498
356.7815, 59.33829
357.2636, 59.81241
357.7457, 60.59931
358.2278, 60.63131
358.7100, 59.75605
359.1921, 58.63554
359.6742, 57.96666
360.1563, 57.81123
360.6384, 57.85909
361.1205, 58.52959
361.6027, 59.00623
362.0848, 58.68791
362.5669, 57.75390
363.0490, 56.81715
363.5311, 56.28908
364.0132, 56.13134
364.4954, 56.05845
364.9775, 56.17636
365.4596, 56.24822
365.9417, 56.16719
366.4238, 56.03051
366.9059, 55.99459
367.3881, 56.12202
367.8702, 56.31031
368.3523, 56.33701
368.8344, 55.95432
369.3165, 55.82262
369.7986, 56.26862
370.2808, 56.71766
370.7629, 56.70509
371.2450, 56.19695
371.7271, 55.49007
372.2092, 54.87876
372.6913, 54.34170
373.1735, 54.02427
373.6556, 54.31766
374.1377, 54.42812
374.6198, 53.69592
375.1019, 52.56955
375.5840, 52.10387
376.0662, 53.08477
376.5483, 55.05035
377.0304, 55.73098
377.5125, 54.04203
377.9946, 52.56666
378.4767, 51.56254
378.9589, 51.02566
379.4410, 51.07706
379.9231, 51.72941
380.4052, 52.58514
380.8873, 53.04305
381.3694, 53.02178
381.8516, 52.85438
382.3337, 52.42701
382.8158, 51.97228
383.2979, 51.61755
383.7800, 51.35468
384.2621, 51.08598
384.7443, 50.67582
385.2264, 50.15396
385.7085, 49.89295
386.1906, 50.06598
386.6727, 50.26328
387.1548, 50.39206
387.6370, 50.42095
388.1191, 50.29404
388.6012, 49.96911
389.0833, 49.51475
389.5654, 48.97387
390.0475, 48.26347
390.5297, 47.85275
391.0118, 48.29718
391.4939, 48.86012
391.9760, 48.84455
392.4581, 48.14476
392.9402, 47.49325
393.4224, 47.68307
393.9045, 48.53143
394.3866, 48.84079
394.8687, 48.16550
395.3508, 47.38923
395.8329, 47.27268
396.3151, 47.65029
396.7972, 48.00480
397.2793, 48.06462
397.7614, 48.02628
398.2435, 48.28552
398.7256, 48.88540
399.2078, 49.18066
399.6899, 48.53930
400.1720, 47.44834
400.6541, 47.00621
401.1362, 47.60079
401.6183, 48.20009
402.1005, 48.07429
402.5826, 47.46770
403.0647, 47.06486
403.5468, 47.08852
404.0289, 47.34186
404.5110, 47.62497
404.9932, 47.96799
405.4753, 48.08881
405.9574, 47.78697
406.4395, 47.33173
406.9216, 46.95366
407.4037, 46.67776
407.8859, 46.46719
408.3680, 46.28799
408.8501, 46.14850
409.3322, 46.13031
409.8143, 46.48901
410.2964, 46.66959
410.7786, 46.20971
411.2607, 45.48711
411.7428, 45.23746
412.2249, 45.77976
412.7070, 46.67763
413.1891, 47.06117
413.6713, 46.44270
414.1534, 46.17067
414.6355, 46.41743
415.1176, 46.86727
415.5997, 47.49744
416.0818, 48.17312
416.5640, 48.48263
417.0461, 47.97738
417.5282, 46.64207
418.0103, 45.74649
418.4924, 45.76166
418.9745, 45.72103
419.4567, 45.25711
419.9388, 44.65689
420.4209, 44.35435
420.9030, 44.55112
421.3851, 45.02271
421.8672, 45.32335
422.3494, 45.42094
422.8315, 45.42558
423.3136, 45.02454
423.7957, 44.79099
424.2778, 45.28326
424.7599, 46.39185
425.2421, 47.38620
425.7242, 47.70188
426.2063, 47.36514
426.6884, 46.49780
427.1705, 44.52294
427.6526, 43.00642
428.1348, 42.76846
428.6169, 43.30883
429.0990, 44.00211
429.5811, 44.73780
430.0632, 45.29885
430.5453, 45.29383
431.0275, 44.70880
431.5096, 44.23649
431.9917, 44.02590
432.4738, 44.06827
432.9559, 44.43053
433.4380, 45.10640
433.9202, 45.57964
434.4023, 45.44633
434.8844, 44.99627
435.3665, 44.70382
435.8486, 44.60738
436.3307, 44.71370
436.8129, 45.18587
437.2950, 45.87028
437.7771, 46.14262
438.2592, 45.63442
438.7413, 45.09101
439.2234, 44.97555
439.7056, 45.13173
440.1877, 45.18551
440.6698, 44.99967
441.1519, 44.66084
441.6340, 44.27319
442.1161, 43.75061
442.5983, 43.45631
443.0804, 43.84885
443.5625, 44.14588
444.0446, 43.43585
444.5267, 41.93210
445.0089, 40.82650
445.4910, 41.08792
445.9731, 42.54469
446.4552, 43.52102
446.9373, 43.74234
447.4194, 43.81059
447.9016, 43.67998
448.3837, 43.49851
448.8658, 43.38627
449.3479, 43.39070
449.8300, 43.54729
450.3121, 44.00198
450.7943, 44.97174
451.2764, 45.41977
451.7585, 44.92801
452.2406, 44.29053
452.7227, 43.68410
453.2048, 43.17416
453.6870, 42.83859
454.1691, 42.74543
454.6512, 42.82487
455.1333, 42.92294
455.6154, 43.07822
456.0975, 43.13442
456.5797, 42.77711
457.0618, 42.46231
457.5439, 42.69504
458.0260, 43.53662
458.5081, 44.23443
458.9902, 44.18538
459.4724, 43.52444
459.9545, 42.59748
460.4366, 41.22322
460.9187, 40.18291
461.4008, 40.35290
461.8829, 41.32047
462.3651, 42.11678
462.8472, 42.54429
463.3293, 42.79306
463.8114, 42.98798
464.2935, 43.12146
464.7756, 43.14306
465.2578, 43.00730
465.7399, 42.81977
466.2220, 42.73650
466.7041, 42.72625
467.1862, 42.93063
467.6683, 43.81153
468.1505, 44.59220
468.6326, 44.41050
469.1147, 43.40827
469.5968, 42.54373
470.0789, 42.52591
470.5610, 43.19825
471.0432, 43.50696
471.5253, 42.82327
472.0074, 42.55301
472.4895, 43.26900
472.9716, 44.24178
473.4537, 44.82497
473.9359, 44.83318
474.4180, 44.33823
474.9001, 43.21535
475.3822, 41.27087
475.8643, 40.37003
476.3464, 41.83704
476.8286, 42.96008
477.3107, 42.56416
477.7928, 41.31581
478.2749, 40.32769
478.7570, 40.09914
479.2391, 40.31089
479.7213, 40.48698
480.2034, 40.62600
480.6855, 40.74384
481.1676, 40.82114
481.6497, 40.90147
482.1318, 40.98780
482.6140, 41.09238
483.0961, 41.29705
483.5782, 41.90865
484.0603, 42.53255
484.5424, 42.41693
485.0245, 41.51460
485.5067, 40.63363
485.9888, 40.18578
486.4709, 40.07856
486.9530, 40.06886
487.4351, 40.28823
487.9172, 40.31591
488.3994, 39.49562
488.8815, 38.61261
489.3636, 39.09984
489.8457, 41.13448
490.3278, 43.02445
490.8099, 43.02618
491.2921, 41.02828
491.7742, 39.94227
492.2563, 40.35130
492.7384, 40.84384
493.2205, 41.14585
493.7026, 41.21945
494.1848, 40.96111
494.6669, 40.35112
495.1490, 39.66280
495.6311, 39.35486
496.1132, 39.57679
496.5953, 39.69916
497.0775, 39.50625
497.5596, 39.41962
498.0417, 39.77229
498.5238, 40.35517
499.0059, 40.69485
499.4880, 40.49613
499.9702, 40.00547
500.4523, 39.68653
500.9344, 39.54581
501.4165, 39.52882
501.8986, 39.63612
502.3807, 39.85920
502.8629, 40.25468
503.3450, 40.80643
503.8271, 41.22925
504.3092, 41.27566
504.7913, 41.15789
505.2734, 41.30593
505.7556, 41.73840
506.2377, 41.85494
506.7198, 41.11749
507.2019, 39.92321
507.6840, 39.54147
508.1661, 40.37600
508.6482, 41.13327
509.1303, 41.57507
509.6125, 41.71406
510.0946, 41.41646
510.5767, 40.72881
511.0588, 40.08226
511.5409, 39.89810
512.0231, 40.17225
512.5052, 40.27936
512.9873, 40.21240
513.4694, 39.98306
513.9515, 39.39766
514.4337, 38.74090
514.9158, 38.35806
515.3979, 38.33710
515.8800, 38.45369
516.3621, 38.38139
516.8442, 38.07806
517.3264, 38.04937
517.8085, 38.47832
518.2906, 38.96267
518.7727, 39.30001
519.2548, 39.57027
519.7369, 39.97053
520.2191, 40.69078
520.7012, 41.24509
521.1833, 40.89009
521.6654, 39.76555
522.1475, 38.99146
522.6296, 38.90984
523.1118, 39.08515
523.5939, 39.06627
524.0760, 38.88268
524.5581, 38.74247
525.0402, 38.72498
525.5223, 38.72189
526.0045, 38.56701
526.4866, 38.35531
526.9687, 38.40685
527.4508, 38.88297
527.9329, 39.53683
528.4150, 39.90409
528.8972, 39.83744
529.3793, 39.80478
529.8614, 39.97598
530.3435, 40.02484
530.8256, 39.60970
531.3077, 38.91989
531.7899, 38.43054
532.2720, 38.43076
532.7541, 38.76559
533.2362, 39.07565
533.7183, 39.43076
534.2004, 39.56457
534.6826, 39.06679
535.1647, 38.62106
535.6468, 38.72076
536.1289, 39.28519
536.6110, 39.81890
537.0931, 40.00202
537.5753, 39.98309
538.0574, 40.05331
538.5395, 40.22122
539.0216, 40.27305
539.5037, 40.01377
539.9858, 39.68937
540.4680, 39.80516
540.9501, 40.48927
541.4322, 40.82538
541.9143, 40.17432
542.3964, 39.30905
542.8785, 38.91409
543.3607, 39.04464
543.8428, 39.66003
544.3249, 40.83786
544.8070, 42.29452
545.2891, 42.97425
545.7712, 42.14668
546.2534, 41.50631
546.7355, 41.09436
547.2176, 40.88276
547.6997, 40.87257
548.1818, 41.04679
548.6639, 41.40260
549.1461, 42.02922
549.6282, 42.76763
550.1103, 42.88954
550.5924, 42.17601
551.0745, 41.41558
551.5566, 40.37773
552.0388, 39.68975
552.5209, 40.26025
553.0030, 42.08414
553.4851, 43.37784
553.9672, 42.46933
554.4493, 40.59343
554.9315, 40.13038
555.4136, 41.20651
555.8957, 42.27850
556.3778, 42.53308
556.8599, 42.20098
557.3420, 41.86260
557.8242, 41.48521
558.3063, 41.17662
558.7884, 41.17282
559.2705, 41.10109
559.7526, 40.35617
560.2347, 39.11197
560.7169, 38.32594
561.1990, 38.76564
561.6811, 40.08540
562.1632, 40.66961
562.6453, 39.90266
563.1274, 39.44093
563.6096, 39.82255
564.0917, 40.25676
564.5738, 40.12775
565.0559, 39.45906
565.5380, 38.72044
566.0201, 38.19323
566.5023, 37.85885
566.9844, 37.69176
567.4665, 37.70788
567.9486, 37.79825
568.4307, 38.00961
568.9128, 38.19959
569.3950, 38.06094
569.8771, 37.52999
570.3592, 37.41042
570.8413, 38.47853
571.3234, 39.73960
571.8055, 40.16627
572.2877, 39.79245
572.7698, 39.05680
573.2519, 38.13532
573.7340, 37.20681
574.2161, 36.74366
574.6982, 36.99973
575.1804, 37.30851
575.6625, 37.59641
576.1446, 37.99622
576.6267, 38.87660
577.1088, 39.93943
577.5909, 40.40449
578.0731, 39.72404
578.5552, 38.43943
579.0373, 37.79415
579.5194, 37.93006
580.0015, 37.89518
580.4836, 37.18446
580.9658, 36.59882
581.4479, 36.93334
581.9300, 37.95994
582.4121, 38.66992
582.8942, 38.43442
583.3763, 37.94301
583.8585, 37.88822
584.3406, 38.15924
584.8227, 38.36677
585.3048, 38.39316
585.7869, 38.22206
586.2690, 37.74560
586.7512, 36.79097
587.2333, 36.45847
587.7154, 37.44004
588.1975, 38.25549
588.6796, 38.13968
589.1617, 37.48259
589.6438, 36.91885
590.1259, 36.69074
590.6080, 36.64941
591.0901, 36.58674
591.5723, 36.48840
592.0544, 36.50440
592.5365, 36.62695
593.0186, 36.88521
593.5007, 37.54799
593.9828, 38.25855
594.4650, 38.41397
594.9471, 37.74997
595.4292, 36.98980
595.9113, 36.72870
596.3934, 36.77343
596.8755, 36.64791
597.3577, 36.27415
597.8398, 35.92127
598.3219, 35.80054
598.8040, 35.87992
599.2861, 35.94062
599.7682, 36.02702
600.2504, 36.04058
600.7325, 35.78254
601.2146, 35.56574
601.6967, 35.82027
602.1788, 36.47602
602.6609, 36.98369
603.1431, 36.85896
603.6252, 36.27645
604.1073, 36.03155
604.5894, 36.29356
605.0715, 36.44889
605.5536, 36.28744
606.0358, 36.00419
606.5179, 35.65313
607.0000, 35.27263
607.4821, 35.05725
607.9642, 35.26044
608.4464, 35.57477
608.9285, 35.50012
609.4106, 35.13594
609.8927, 35.13526
610.3748, 35.80849
610.8569, 36.75097
611.3391, 37.41058
611.8212, 37.79366
612.3033, 37.76710
612.7854, 36.87808
613.2675, 36.07809
613.7496, 35.99474
614.2318, 36.22507
614.7139, 35.96245
615.1960, 34.94291
615.6781, 33.87281
