##NAMES=Dolomite
##RRUFFID=R100118
##IDEAL CHEMISTRY=CaMg(CO_3_)_2_
##LOCALITY=Bay Mag mine, Mount Brussilof, British Columbia, Canada
##OWNER=RRUFF
##SOURCE=Ray Hill and Robert Woodside
##DESCRIPTION=Colorless crystals and cleavage fragments
##STATUS=The identification of this mineral has been confirmed only by single crystal X-ray diffraction.
##URL=rruff.info/R100118
91.03516, 11.28532
91.51727, 11.24104
91.99939, 11.30914
92.48151, 11.44065
92.96362, 11.49633
93.44574, 11.28890
93.92786, 10.96692
94.40997, 10.91457
94.89210, 11.23453
95.37421, 11.59349
95.85633, 11.34997
96.33845, 10.53673
96.82056, 9.858881
97.30268, 9.961554
97.78480, 10.74361
98.26691, 11.14476
98.74903, 10.94847
99.23115, 10.35492
99.71326, 9.917075
100.1954, 9.660319
100.6775, 9.477556
101.1596, 9.267450
101.6417, 9.002752
102.1239, 8.858588
102.6060, 8.897689
103.0881, 9.107295
103.5702, 9.267184
104.0523, 9.383974
104.5344, 9.444947
105.0166, 9.420382
105.4987, 9.225837
105.9808, 9.097543
106.4629, 9.103075
106.9450, 9.276097
107.4271, 9.433749
107.9093, 9.610489
108.3914, 9.760466
108.8735, 9.816297
109.3556, 9.686175
109.8377, 9.546235
110.3198, 9.438939
110.8020, 9.359960
111.2841, 9.323274
111.7662, 9.466557
112.2483, 9.654567
112.7304, 9.591781
113.2125, 8.945389
113.6947, 8.247525
114.1768, 7.750079
114.6589, 7.523636
115.1410, 7.438172
115.6231, 7.459363
116.1052, 7.594782
116.5874, 7.877100
117.0695, 8.713863
117.5516, 9.506064
118.0337, 9.786879
118.5158, 8.811421
118.9980, 7.851576
119.4801, 7.553547
119.9622, 7.868780
120.4443, 8.199121
120.9264, 8.273927
121.4085, 8.157247
121.8907, 7.926814
122.3728, 7.377669
122.8549, 6.874247
123.3370, 6.759979
123.8191, 7.054607
124.3012, 7.467864
124.7834, 7.940174
125.2655, 8.367578
125.7476, 8.527467
126.2297, 8.010473
126.7118, 7.255143
127.1939, 6.910649
127.6761, 7.048242
128.1582, 7.438372
128.6403, 7.923217
129.1224, 8.474534
129.6045, 8.956094
130.0867, 9.202421
130.5688, 9.307452
131.0509, 9.613750
131.5330, 10.23139
132.0151, 10.89978
132.4972, 11.06774
132.9794, 10.73420
133.4615, 10.46682
133.9436, 10.71087
134.4257, 11.43070
134.9078, 12.09158
135.3899, 12.58559
135.8721, 13.00857
136.3542, 13.64881
136.8363, 14.52340
137.3184, 15.54400
137.8005, 16.66651
138.2826, 17.92021
138.7648, 19.11293
139.2469, 20.12129
139.7290, 21.02346
140.2111, 22.37153
140.6932, 24.30882
141.1753, 26.44774
141.6575, 28.41263
142.1396, 30.19318
142.6217, 31.87504
143.1038, 33.43453
143.5859, 34.87491
144.0681, 36.43365
144.5502, 38.28169
145.0323, 40.10844
145.5144, 41.55635
145.9965, 42.33603
146.4786, 43.16443
146.9608, 44.16064
147.4429, 45.31778
147.9250, 46.73550
148.4071, 48.41405
148.8892, 50.35729
149.3713, 52.52421
149.8535, 54.69950
150.3356, 57.34280
150.8177, 60.67250
151.2998, 65.13828
151.7819, 69.31052
152.2640, 72.55770
152.7462, 75.58744
153.2283, 79.60429
153.7104, 85.40565
154.1925, 91.61604
154.6746, 97.69975
155.1567, 103.1278
155.6389, 109.1388
156.1210, 115.4790
156.6031, 122.4992
157.0852, 131.1071
157.5673, 142.3625
158.0495, 154.5836
158.5316, 167.2189
159.0137, 181.3651
159.4958, 194.0614
159.9779, 204.2838
160.4600, 212.4525
160.9422, 219.9405
161.4243, 226.5755
161.9064, 233.0472
162.3885, 239.8004
162.8706, 247.3256
163.3527, 254.8121
163.8349, 261.6074
164.3170, 267.9725
164.7991, 275.1551
165.2812, 283.7866
165.7633, 293.4801
166.2454, 303.8934
166.7276, 315.1269
167.2097, 326.8629
167.6918, 339.0500
168.1739, 351.6009
168.6560, 364.6993
169.1381, 377.5477
169.6203, 391.0939
170.1024, 405.2962
170.5845, 418.5242
171.0666, 434.7656
171.5487, 450.6689
172.0309, 466.3146
172.5130, 484.2886
172.9951, 506.3084
173.4772, 531.7291
173.9593, 559.7040
174.4414, 590.7189
174.9236, 623.4903
175.4057, 658.0326
175.8878, 694.7433
176.3699, 727.3167
176.8520, 757.7138
177.3341, 780.8983
177.8163, 785.5264
178.2984, 764.0097
178.7805, 722.5844
179.2626, 665.2341
179.7447, 591.9647
180.2268, 516.1570
180.7090, 449.4516
181.1911, 391.3424
181.6732, 341.4551
182.1553, 301.0583
182.6374, 268.5651
183.1195, 242.3950
183.6017, 222.4085
184.0838, 207.0032
184.5659, 194.5254
185.0480, 184.8288
185.5301, 176.6519
186.0123, 169.8835
186.4944, 164.2196
186.9765, 158.9063
187.4586, 153.7913
187.9407, 149.2495
188.4228, 146.0176
188.9050, 144.0023
189.3871, 142.1297
189.8692, 139.7487
190.3513, 137.0268
190.8334, 134.7830
191.3155, 133.1190
191.7977, 131.8060
192.2798, 130.5556
192.7619, 129.3689
193.2440, 128.1635
193.7261, 126.7965
194.2082, 125.3077
194.6904, 124.0928
195.1725, 123.1943
195.6546, 122.5291
196.1367, 122.0811
196.6188, 121.8766
197.1009, 121.5271
197.5831, 120.6990
198.0652, 119.3876
198.5473, 118.3919
199.0294, 117.7994
199.5115, 117.4736
199.9937, 117.1572
200.4758, 116.8503
200.9579, 116.5653
201.4400, 116.3561
201.9221, 116.2386
202.4042, 115.8879
202.8864, 115.1174
203.3685, 114.2690
203.8506, 114.3740
204.3327, 115.7312
204.8148, 116.8255
205.2969, 116.5583
205.7791, 114.6351
206.2612, 113.5723
206.7433, 113.7643
207.2254, 114.7040
207.7075, 115.0466
208.1896, 114.5959
208.6718, 114.1235
209.1539, 114.0891
209.6360, 114.6006
210.1181, 115.0006
210.6002, 115.2360
211.0823, 115.3525
211.5645, 115.5185
212.0466, 115.8357
212.5287, 115.9690
213.0108, 115.5938
213.4929, 114.4212
213.9750, 113.9306
214.4572, 114.4850
214.9393, 115.6578
215.4214, 116.1632
215.9035, 115.7727
216.3856, 115.1793
216.8678, 114.7385
217.3499, 114.4608
217.8320, 114.2492
218.3141, 114.0088
218.7962, 113.8528
219.2783, 114.2649
219.7605, 115.6461
220.2426, 116.8518
220.7247, 117.1189
221.2068, 115.8794
221.6889, 115.3737
222.1710, 116.0234
222.6532, 117.3924
223.1353, 118.0316
223.6174, 117.5298
224.0995, 117.0010
224.5816, 117.0520
225.0637, 118.0019
225.5459, 118.7306
226.0280, 119.1933
226.5101, 119.4193
226.9922, 119.4771
227.4743, 119.3499
227.9564, 119.0839
228.4386, 118.6335
228.9207, 117.7628
229.4028, 117.3235
229.8849, 117.5337
230.3670, 118.1290
230.8492, 118.3565
231.3313, 118.0273
231.8134, 117.6137
232.2955, 117.3182
232.7776, 117.1773
233.2597, 117.0791
233.7419, 116.9902
234.2240, 116.9550
234.7061, 117.1222
235.1882, 117.6780
235.6703, 118.1574
236.1524, 118.3369
236.6346, 118.0136
237.1167, 117.8595
237.5988, 117.9251
238.0809, 118.1395
238.5630, 118.3697
239.0451, 118.7446
239.5273, 118.9338
240.0094, 118.7393
240.4915, 117.8809
240.9736, 117.3745
241.4557, 117.3512
241.9378, 117.6134
242.4200, 117.7306
242.9021, 117.5179
243.3842, 117.4485
243.8663, 117.7515
244.3484, 118.6309
244.8306, 119.2684
245.3127, 119.5974
245.7948, 119.7160
246.2769, 119.7824
246.7590, 119.7423
247.2411, 119.7451
247.7233, 119.8790
248.2054, 120.2365
248.6875, 120.3524
249.1696, 120.0291
249.6517, 119.5975
250.1338, 119.6396
250.6160, 120.4463
251.0981, 121.2079
251.5802, 121.6643
252.0623, 121.7708
252.5444, 121.8003
253.0265, 121.6552
253.5087, 121.5141
253.9908, 121.6593
254.4729, 122.2466
254.9550, 122.8066
255.4371, 123.2018
255.9192, 123.4075
256.4014, 123.6306
256.8835, 123.9020
257.3656, 124.1601
257.8477, 124.3120
258.3298, 124.2628
258.8120, 124.3124
259.2941, 124.4826
259.7762, 124.7601
260.2583, 125.5128
260.7404, 127.1120
261.2225, 128.7313
261.7047, 129.3892
262.1868, 128.5875
262.6689, 128.1302
263.1510, 128.4659
263.6331, 129.5678
264.1152, 130.7028
264.5974, 132.0157
265.0795, 133.1234
265.5616, 133.5400
266.0437, 133.0258
266.5258, 132.6201
267.0079, 132.4297
267.4901, 132.4832
267.9722, 133.1017
268.4543, 134.4706
268.9364, 136.0544
269.4185, 137.4294
269.9006, 138.5529
270.3828, 139.6487
270.8649, 140.7276
271.3470, 141.8122
271.8291, 142.9700
272.3112, 144.1265
272.7933, 145.5828
273.2755, 147.6558
273.7576, 150.4548
274.2397, 153.0617
274.7218, 155.2473
275.2039, 157.2175
275.6860, 159.5199
276.1682, 162.1291
276.6503, 165.2463
277.1324, 169.0609
277.6145, 173.5627
278.0966, 178.4495
278.5787, 183.6989
279.0609, 189.3015
279.5430, 195.2011
280.0251, 201.2903
280.5072, 208.2188
280.9893, 216.3765
281.4715, 225.6947
281.9536, 236.0468
282.4357, 247.5961
282.9178, 259.8564
283.3999, 271.8586
283.8820, 283.5508
284.3642, 295.8981
284.8463, 309.8634
285.3284, 325.2822
285.8105, 339.3940
286.2926, 352.0714
286.7747, 364.0249
287.2569, 376.1915
287.7390, 388.5494
288.2211, 400.6850
288.7032, 412.0993
289.1853, 423.0890
289.6674, 435.3363
290.1496, 449.0280
290.6317, 463.1229
291.1138, 475.9336
291.5959, 487.8641
292.0780, 501.1987
292.5602, 517.0201
293.0423, 534.7435
293.5244, 552.7969
294.0065, 571.0724
294.4886, 590.4727
294.9707, 612.2787
295.4529, 636.2062
295.9350, 660.6922
296.4171, 685.4998
296.8992, 710.8578
297.3813, 737.0873
297.8634, 764.0129
298.3456, 791.1296
298.8277, 820.1324
299.3098, 848.7078
299.7919, 871.8109
300.2740, 888.6279
300.7561, 898.7924
301.2383, 902.4744
301.7204, 899.2589
302.2025, 886.7607
302.6846, 862.0154
303.1667, 827.4905
303.6488, 785.0432
304.1310, 733.7995
304.6131, 679.5010
305.0952, 626.2841
305.5773, 574.7751
306.0594, 526.8754
306.5415, 482.3470
307.0237, 442.2059
307.5058, 407.1477
307.9879, 377.6711
308.4700, 351.9396
308.9521, 328.5849
309.4343, 307.9107
309.9164, 289.8647
310.3985, 274.8088
310.8806, 261.9412
311.3627, 250.9993
311.8448, 241.8804
312.3270, 233.5647
312.8091, 225.3376
313.2912, 217.5785
313.7733, 210.7357
314.2554, 205.3444
314.7375, 200.5843
315.2197, 196.1287
315.7018, 191.9355
316.1839, 188.0347
316.6660, 184.3558
317.1481, 180.9962
317.6302, 178.0911
318.1124, 175.9568
318.5945, 173.8950
319.0766, 171.4679
319.5587, 168.8698
320.0408, 166.7331
320.5229, 165.4778
321.0051, 164.5821
321.4872, 163.7999
321.9693, 163.2919
322.4514, 162.5371
322.9335, 161.1334
323.4156, 159.4354
323.8978, 158.1267
324.3799, 157.4503
324.8620, 157.0727
325.3441, 156.9153
325.8262, 157.0388
326.3083, 157.1803
326.7905, 157.3902
327.2726, 157.5860
327.7547, 157.6635
328.2368, 157.6044
328.7189, 157.4418
329.2010, 157.0343
329.6832, 156.3153
330.1653, 156.1416
330.6474, 156.9775
331.1295, 158.0247
331.6116, 158.6205
332.0938, 158.3265
332.5759, 158.2711
333.0580, 158.5543
333.5401, 159.1789
334.0222, 160.1922
334.5043, 161.8826
334.9865, 163.5747
335.4686, 164.7601
335.9507, 164.9677
336.4328, 166.0540
336.9149, 168.5660
337.3970, 171.8225
337.8792, 173.8748
338.3613, 174.4693
338.8434, 174.6742
339.3255, 175.0560
339.8076, 175.7298
340.2898, 175.7273
340.7719, 175.0731
341.2540, 173.7130
341.7361, 171.3794
342.2182, 168.0375
342.7003, 164.4363
343.1825, 160.7074
343.6646, 156.9038
344.1467, 153.6190
344.6288, 150.8409
345.1109, 148.4944
345.5930, 146.4871
346.0752, 144.8377
346.5573, 143.4877
347.0394, 142.4622
347.5215, 141.6796
348.0036, 140.9557
348.4857, 140.2927
348.9679, 139.6879
349.4500, 139.1716
349.9321, 138.7080
350.4142, 138.1931
350.8963, 137.5987
351.3784, 136.9754
351.8606, 136.2641
352.3427, 135.5488
352.8248, 135.1297
353.3069, 135.3747
353.7890, 135.9475
354.2711, 136.5011
354.7533, 137.0421
355.2354, 137.2629
355.7175, 136.6169
356.1996, 135.4955
356.6817, 134.5806
357.1638, 134.2697
357.6460, 134.1933
358.1281, 133.9886
358.6102, 133.6840
359.0923, 133.6806
359.5744, 134.5749
360.0565, 135.7190
360.5387, 136.4824
361.0208, 136.5595
361.5029, 136.3897
361.9850, 136.0337
362.4671, 135.5599
362.9492, 135.1835
363.4314, 135.1264
363.9135, 135.0806
364.3956, 134.8443
364.8777, 134.2500
365.3598, 133.8016
365.8419, 133.5106
366.3241, 133.4484
366.8062, 133.7272
367.2883, 134.9503
367.7704, 135.9488
368.2526, 136.3179
368.7347, 135.9128
369.2168, 135.6719
369.6989, 135.7734
370.1810, 135.9431
370.6631, 135.9604
371.1453, 135.7997
371.6274, 135.5123
372.1095, 134.9914
372.5916, 134.3065
373.0737, 133.9513
373.5558, 134.0742
374.0380, 134.3010
374.5201, 134.4056
375.0022, 134.2958
375.4843, 134.4055
375.9664, 134.8945
376.4485, 135.4814
376.9307, 135.5590
377.4128, 135.0153
377.8949, 134.4253
378.3770, 133.9037
378.8591, 133.4708
379.3412, 133.6932
379.8234, 134.7182
380.3055, 135.8719
380.7876, 136.4355
381.2697, 136.4282
381.7518, 136.0406
382.2339, 135.1067
382.7161, 133.9961
383.1982, 133.6788
383.6803, 134.1339
384.1624, 134.6641
384.6445, 134.6807
385.1266, 134.3782
385.6088, 134.2434
386.0909, 134.3671
386.5730, 134.6158
387.0551, 134.9334
387.5372, 135.2646
388.0193, 135.4545
388.5015, 135.3517
388.9836, 135.1003
389.4657, 134.7782
389.9478, 134.3824
390.4299, 134.1509
390.9120, 134.3606
391.3942, 134.7923
391.8763, 135.1762
392.3584, 135.5982
392.8405, 135.7787
393.3226, 135.3064
393.8047, 134.3692
394.2869, 133.8275
394.7690, 134.4614
395.2511, 135.2918
395.7332, 135.6664
396.2154, 135.1476
396.6975, 134.8765
397.1796, 135.2861
397.6617, 136.0639
398.1438, 136.6684
398.6259, 137.1384
399.1081, 137.3263
399.5902, 137.0468
400.0723, 136.1794
400.5544, 135.6863
401.0365, 135.6883
401.5186, 135.9725
402.0008, 136.4065
402.4829, 137.2462
402.9650, 137.7364
403.4471, 137.6700
403.9292, 137.1906
404.4113, 136.9140
404.8935, 136.9007
405.3756, 136.9451
405.8577, 137.0110
406.3398, 137.1468
406.8219, 136.8525
407.3040, 135.9353
407.7862, 134.9498
408.2683, 134.8387
408.7504, 135.6349
409.2325, 136.2370
409.7146, 136.1156
410.1967, 135.5553
410.6789, 135.5278
411.1610, 136.0479
411.6431, 136.7563
412.1252, 137.4909
412.6073, 138.1762
413.0894, 138.5515
413.5716, 138.4873
414.0537, 138.2551
414.5358, 138.2031
415.0179, 138.2641
415.5000, 138.2184
415.9821, 137.6652
416.4643, 137.0937
416.9464, 137.1148
417.4285, 137.8085
417.9106, 138.5064
418.3927, 138.8467
418.8748, 138.9207
419.3570, 138.8321
419.8391, 138.3164
420.3212, 137.9343
420.8033, 138.0417
421.2854, 138.5293
421.7675, 138.8794
422.2497, 138.8064
422.7318, 138.6536
423.2139, 138.6063
423.6960, 138.7445
424.1781, 138.8659
424.6602, 138.9885
425.1424, 139.0741
425.6245, 139.0598
426.1066, 138.8387
426.5887, 138.6453
427.0709, 138.3965
427.5530, 138.0919
428.0351, 138.5359
428.5172, 140.3727
428.9993, 142.0793
429.4814, 142.3850
429.9636, 140.7816
430.4457, 139.7744
430.9278, 139.7278
431.4099, 140.2256
431.8920, 140.3037
432.3741, 139.8884
432.8563, 139.6353
433.3384, 140.0046
433.8205, 140.8595
434.3026, 141.2009
434.7847, 140.9866
435.2668, 140.6201
435.7490, 140.4811
436.2311, 140.5274
436.7132, 140.6182
437.1953, 140.7298
437.6774, 140.8506
438.1595, 140.9788
438.6417, 141.1083
439.1238, 141.2135
439.6059, 141.2896
440.0880, 141.3293
440.5701, 141.2471
441.0522, 140.9870
441.5344, 140.9529
442.0165, 141.8122
442.4986, 142.9113
442.9807, 143.4431
443.4628, 142.3818
443.9449, 141.4473
444.4271, 141.3941
444.9092, 142.0942
445.3913, 142.7755
445.8734, 143.5201
446.3555, 143.9764
446.8376, 143.8875
447.3198, 142.6977
447.8019, 142.0414
448.2840, 142.3525
448.7661, 143.0465
449.2482, 143.3119
449.7303, 142.9495
450.2125, 142.4789
450.6946, 141.9088
451.1767, 141.2688
451.6588, 141.0322
452.1409, 141.2761
452.6230, 141.7403
453.1052, 142.3279
453.5873, 143.0728
454.0694, 143.5363
454.5515, 143.6457
455.0337, 143.5423
455.5158, 143.4333
455.9979, 143.3161
456.4800, 143.1698
456.9621, 142.9526
457.4442, 142.7082
457.9264, 142.5500
458.4085, 142.4763
458.8906, 142.4161
459.3727, 142.2334
459.8548, 142.0478
460.3369, 142.0669
460.8191, 142.3792
461.3012, 142.8045
461.7833, 143.3028
462.2654, 143.8061
462.7475, 144.1704
463.2296, 144.2407
463.7118, 144.2357
464.1939, 144.3208
464.6760, 144.5085
465.1581, 144.5203
465.6402, 143.8053
466.1223, 143.1582
466.6045, 143.1496
467.0866, 144.7266
467.5687, 145.8596
468.0508, 146.3564
468.5329, 146.3489
469.0150, 146.0816
469.4972, 145.2196
469.9793, 144.6167
470.4614, 144.6357
470.9435, 145.3211
471.4256, 145.7677
471.9077, 145.9980
472.3899, 145.9500
472.8720, 145.3045
473.3541, 143.9350
473.8362, 143.5556
474.3183, 144.6591
474.8004, 146.4512
475.2826, 147.4732
475.7647, 147.7493
476.2468, 147.6229
476.7289, 147.0120
477.2110, 146.1682
477.6931, 145.6030
478.1753, 145.3174
478.6574, 145.3483
479.1395, 146.1555
479.6216, 147.1787
480.1037, 147.5041
480.5858, 146.5046
481.0680, 145.4979
481.5501, 145.5760
482.0322, 146.3047
482.5143, 146.7788
482.9964, 146.2524
483.4786, 145.7321
483.9607, 145.7608
484.4428, 146.4146
484.9249, 146.9905
485.4070, 147.5194
485.8892, 147.8188
486.3713, 147.7348
486.8534, 146.8092
487.3355, 146.1868
487.8176, 145.9536
488.2997, 146.0193
488.7819, 146.1990
489.2640, 146.5073
489.7461, 146.9142
490.2282, 147.5269
490.7103, 148.3075
491.1924, 148.3703
491.6746, 147.5227
492.1567, 146.7456
492.6388, 147.1381
493.1209, 148.5315
493.6030, 149.3486
494.0851, 149.2970
494.5673, 148.8636
495.0494, 148.6719
495.5315, 148.6800
496.0136, 148.7448
496.4957, 148.8019
496.9778, 148.8795
497.4600, 149.0452
497.9421, 149.2860
498.4242, 149.4761
498.9063, 149.6211
499.3884, 149.6396
499.8705, 149.3755
500.3527, 148.5399
500.8348, 148.0762
501.3169, 148.7424
501.7990, 149.8735
502.2811, 150.5358
502.7632, 150.1788
503.2454, 149.7454
503.7275, 149.3158
504.2096, 148.9214
504.6917, 148.9068
505.1738, 149.4757
505.6559, 150.1489
506.1381, 150.6999
506.6202, 151.1398
507.1023, 151.4477
507.5844, 151.6782
508.0665, 151.6844
508.5486, 151.1028
509.0308, 149.9108
509.5129, 148.9896
509.9950, 148.5475
510.4771, 148.5204
510.9592, 148.9323
511.4413, 149.7310
511.9235, 150.4502
512.4056, 150.7133
512.8877, 150.7372
513.3698, 150.8597
513.8519, 151.1120
514.3340, 151.3460
514.8162, 151.2818
515.2983, 151.2002
515.7804, 151.4642
516.2625, 152.6728
516.7446, 153.6243
517.2267, 153.6750
517.7089, 153.1072
518.1910, 152.6056
518.6731, 152.1930
519.1552, 151.9898
519.6373, 152.1567
520.1194, 152.7544
520.6016, 153.0545
521.0837, 152.9586
521.5658, 152.6704
522.0479, 152.2612
522.5300, 151.6010
523.0121, 151.3635
523.4943, 151.7673
523.9764, 152.3770
524.4585, 152.3042
524.9406, 151.5315
525.4227, 150.9183
525.9048, 150.7979
526.3870, 151.0382
526.8691, 151.3573
527.3513, 151.7529
527.8334, 152.1581
528.3155, 152.6418
528.7976, 153.0681
529.2797, 153.1891
529.7618, 152.9316
530.2440, 152.6500
530.7261, 152.4787
531.2082, 152.4681
531.6903, 152.6853
532.1724, 153.6968
532.6545, 154.3630
533.1367, 154.0441
533.6188, 153.0369
534.1009, 152.3964
534.5830, 152.4643
535.0651, 152.7547
535.5472, 153.1428
536.0294, 153.6489
536.5115, 154.1609
536.9936, 154.7831
537.4757, 155.2678
537.9578, 155.3902
538.4399, 155.1130
538.9221, 154.6860
539.4042, 154.0713
539.8863, 153.4183
540.3684, 152.8987
540.8505, 152.5287
541.3326, 152.5239
541.8148, 153.1922
542.2969, 154.1444
542.7790, 154.6660
543.2611, 154.8000
543.7432, 154.9104
544.2253, 155.4039
544.7075, 155.9140
545.1896, 155.9556
545.6717, 155.3499
546.1538, 154.9262
546.6359, 155.2559
547.1180, 155.9101
547.6002, 156.4293
548.0823, 156.7001
548.5644, 156.8362
549.0465, 156.8120
549.5286, 156.6650
550.0107, 156.4969
550.4929, 156.2586
550.9750, 156.0704
551.4571, 155.9723
551.9392, 155.9638
552.4213, 155.9896
552.9034, 156.0469
553.3856, 156.1440
553.8677, 156.3675
554.3498, 156.6886
554.8319, 156.7218
555.3140, 156.3865
555.7961, 155.9146
556.2783, 155.4215
556.7604, 155.0209
557.2425, 155.0715
557.7246, 156.0264
558.2067, 157.1582
558.6888, 157.7458
559.1710, 157.9077
559.6531, 158.0311
560.1352, 158.4043
560.6173, 158.7168
561.0994, 158.7434
561.5815, 158.4327
562.0637, 158.1509
562.5458, 157.9854
563.0279, 157.8638
563.5100, 157.7187
563.9921, 157.3943
564.4742, 157.3463
564.9564, 157.7558
565.4385, 158.3076
565.9206, 158.3566
566.4027, 157.7320
566.8848, 157.4838
567.3669, 158.0678
567.8491, 159.1585
568.3312, 159.7439
568.8133, 159.8309
569.2954, 159.6157
569.7775, 158.9559
570.2596, 158.1549
570.7418, 157.7910
571.2239, 157.9010
571.7060, 158.2477
572.1881, 159.0296
572.6702, 159.7818
573.1523, 159.9154
573.6345, 158.7699
574.1166, 157.9238
574.5987, 158.3703
575.0808, 159.4186
575.5629, 159.9279
576.0450, 159.0559
576.5272, 158.3552
577.0093, 158.1458
577.4914, 158.3648
577.9735, 158.6363
578.4556, 159.0456
578.9377, 159.3268
579.4199, 159.2145
579.9020, 158.6957
580.3841, 158.9140
580.8662, 160.0337
581.3483, 161.0214
581.8304, 160.4002
582.3126, 158.7184
582.7947, 157.9834
583.2768, 158.7624
583.7589, 159.9764
584.2410, 160.6016
584.7231, 160.8062
585.2053, 160.9241
585.6874, 160.9535
586.1696, 161.0605
586.6517, 161.5389
587.1338, 162.2328
587.6159, 162.4645
588.0980, 161.4105
588.5801, 160.4278
