##NAMES=Dolomite
##RRUFFID=R050370
##IDEAL CHEMISTRY=CaMg(CO_3_)_2_
##LOCALITY=Morro Velho mine, Nova Lima, Minas Gerais, Brazil
##OWNER=RRUFF
##SOURCE=Eugene Schlepp
##DESCRIPTION=Colorless bladed crystals associated with pyrrhotite and albite
##STATUS=The identification of this mineral has been confirmed by X-ray diffraction and chemical analysis
##URL=rruff.info/R050370
##MEASURED CHEMISTRY=(Ca_0.84_Fe_0.16_)_Σ=1_(Mg_0.98_Mn_0.02_)_Σ=1_(CO_3_)_2_ ; CO_2_ estimated by difference
92.35352, 8.078364
92.83563, 7.289656
93.31775, 6.953787
93.79987, 7.459844
94.28198, 8.470163
94.76410, 8.939079
95.24622, 8.447062
95.72833, 7.526956
96.21045, 7.433504
96.69257, 8.214563
97.17468, 9.044045
97.65680, 8.991231
98.13892, 8.080066
98.62103, 7.556530
99.10315, 7.869585
99.58527, 8.876085
100.0674, 9.579833
100.5495, 9.897913
101.0316, 10.08179
101.5137, 10.44931
101.9958, 11.06824
102.4780, 11.63785
102.9601, 12.02604
103.4422, 12.18360
103.9243, 12.47729
104.4064, 12.90204
104.8885, 13.46679
105.3707, 14.22182
105.8528, 15.28949
106.3349, 16.36726
106.8170, 17.34150
107.2991, 18.20425
107.7813, 18.98009
108.2634, 19.69972
108.7455, 20.34017
109.2276, 20.80113
109.7097, 20.76141
110.1918, 20.77987
110.6740, 21.08848
111.1561, 22.07375
111.6382, 22.92177
112.1203, 23.41565
112.6024, 23.64727
113.0845, 24.14994
113.5667, 25.14269
114.0488, 26.35580
114.5309, 27.62004
115.0130, 28.79856
115.4951, 30.10844
115.9772, 31.68811
116.4594, 33.54310
116.9415, 35.34682
117.4236, 36.94316
117.9057, 38.43935
118.3878, 39.94363
118.8699, 41.95115
119.3521, 43.65700
119.8342, 44.31644
120.3163, 43.75957
120.7984, 43.54917
121.2805, 45.02015
121.7626, 47.45863
122.2448, 49.64408
122.7269, 50.99928
123.2090, 51.82755
123.6911, 52.32594
124.1732, 52.44050
124.6553, 52.53802
125.1375, 52.98952
125.6196, 53.71433
126.1017, 54.45708
126.5838, 54.74580
127.0659, 55.00234
127.5480, 56.17289
128.0302, 58.74703
128.5123, 61.53905
128.9944, 62.65093
129.4765, 62.24430
129.9586, 61.83013
130.4407, 62.49741
130.9229, 64.07034
131.4050, 65.89977
131.8871, 67.95122
132.3692, 70.05906
132.8513, 71.69122
133.3334, 72.68887
133.8156, 73.39194
134.2977, 74.43155
134.7798, 76.03743
135.2619, 77.60271
135.7440, 79.06551
136.2261, 80.37785
136.7083, 81.20027
137.1904, 81.29378
137.6725, 81.65130
138.1546, 83.66888
138.6367, 87.78961
139.1188, 91.12453
139.6010, 92.85661
140.0831, 92.98768
140.5652, 93.02631
141.0473, 92.85869
141.5294, 92.75011
142.0115, 93.00854
142.4937, 93.58988
142.9758, 94.61442
143.4579, 96.15303
143.9400, 98.24562
144.4221, 100.6019
144.9042, 103.2907
145.3864, 106.1985
145.8685, 109.0399
146.3506, 111.5535
146.8327, 114.3770
147.3148, 117.7812
147.7969, 121.9835
148.2791, 126.2122
148.7612, 130.2615
149.2433, 134.3335
149.7254, 138.9750
150.2075, 143.8709
150.6896, 149.5699
151.1718, 156.1668
151.6539, 162.8711
152.1360, 171.5786
152.6181, 183.0911
153.1002, 196.7319
153.5823, 210.4330
154.0645, 224.0020
154.5466, 237.7809
155.0287, 251.9252
155.5108, 267.9249
155.9929, 282.7980
156.4750, 294.9661
156.9572, 305.2602
157.4393, 316.8072
157.9214, 332.2808
158.4035, 348.1152
158.8856, 362.1326
159.3677, 371.8454
159.8499, 381.7731
160.3320, 392.9012
160.8141, 405.1492
161.2962, 418.2152
161.7783, 432.3711
162.2604, 447.0186
162.7426, 461.6649
163.2247, 474.2265
163.7068, 488.4465
164.1889, 506.7451
164.6710, 528.7404
165.1531, 551.1620
165.6353, 570.7819
166.1174, 590.4926
166.5995, 613.4079
167.0816, 641.7014
167.5637, 672.7370
168.0458, 704.2352
168.5280, 735.9063
169.0101, 771.4899
169.4922, 814.4951
169.9743, 862.2860
170.4564, 910.9573
170.9385, 961.2670
171.4207, 1010.375
171.9028, 1057.526
172.3849, 1102.675
172.8670, 1140.997
173.3491, 1173.973
173.8312, 1197.754
174.3134, 1204.913
174.7955, 1191.981
175.2776, 1160.794
175.7597, 1109.989
176.2418, 1037.590
176.7239, 957.6930
177.2061, 877.9612
177.6882, 798.8363
178.1703, 723.0920
178.6524, 648.8310
179.1345, 578.5602
179.6166, 518.0616
180.0988, 467.5501
180.5809, 423.9555
181.0630, 384.1158
181.5451, 347.8737
182.0272, 316.3373
182.5093, 290.6890
182.9915, 269.7387
183.4736, 251.2351
183.9557, 234.9411
184.4378, 220.6871
184.9199, 208.2265
185.4020, 197.6568
185.8842, 188.0492
186.3663, 179.1683
186.8484, 170.9258
187.3305, 163.2959
187.8126, 156.1405
188.2947, 149.7310
188.7769, 144.6839
189.2590, 140.9508
189.7411, 137.5596
190.2232, 134.0604
190.7053, 130.4538
191.1874, 126.5229
191.6696, 122.0066
192.1517, 117.5401
192.6338, 114.4771
193.1159, 112.8637
193.5980, 111.3825
194.0801, 109.1674
194.5623, 106.2924
195.0444, 103.6061
195.5265, 101.1273
196.0086, 98.97916
196.4907, 97.61334
196.9728, 97.12702
197.4550, 96.60017
197.9371, 95.37514
198.4192, 93.43800
198.9013, 91.72299
199.3834, 90.37037
199.8655, 89.22824
200.3477, 87.78719
200.8298, 85.92178
201.3119, 84.34871
201.7940, 83.64447
202.2761, 83.90839
202.7582, 83.93117
203.2404, 83.61361
203.7225, 82.98894
204.2046, 82.06078
204.6867, 80.72771
205.1688, 79.43642
205.6509, 78.52611
206.1331, 78.06402
206.6152, 77.51527
207.0973, 76.84602
207.5794, 76.05617
208.0615, 75.06157
208.5436, 73.71640
209.0258, 72.54585
209.5079, 71.93867
209.9900, 72.01459
210.4721, 72.08853
210.9542, 72.08830
211.4363, 72.05447
211.9185, 72.12193
212.4006, 72.29527
212.8827, 72.56060
213.3648, 73.03797
213.8469, 73.98315
214.3290, 74.13362
214.8112, 72.97313
215.2933, 71.04267
215.7754, 70.41798
216.2575, 71.77776
216.7396, 73.16204
217.2217, 73.26311
217.7038, 71.49298
218.1860, 70.25999
218.6681, 69.85564
219.1502, 70.08629
219.6323, 70.26276
220.1144, 70.32752
220.5965, 70.43526
221.0787, 70.74680
221.5608, 71.50707
222.0429, 71.77456
222.5250, 71.29552
223.0071, 70.30440
223.4892, 69.64159
223.9714, 69.24760
224.4535, 69.26398
224.9356, 69.89608
225.4177, 71.64754
225.8998, 72.77431
226.3819, 73.05819
226.8641, 72.67908
227.3462, 72.21456
227.8283, 71.58562
228.3104, 70.99129
228.7925, 70.52754
229.2746, 70.16393
229.7568, 69.98219
230.2389, 69.95384
230.7210, 70.11046
231.2031, 70.65437
231.6852, 72.09410
232.1673, 73.16841
232.6495, 73.03831
233.1316, 70.50203
233.6137, 69.53353
234.0958, 70.90123
234.5779, 73.76001
235.0600, 75.74403
235.5422, 76.66711
236.0243, 77.01525
236.5064, 76.93119
236.9885, 76.11230
237.4706, 75.50060
237.9527, 74.94416
238.4349, 74.64510
238.9170, 75.21426
239.3991, 77.24253
239.8812, 79.25597
240.3633, 80.62890
240.8454, 81.13068
241.3276, 81.57256
241.8097, 82.04932
242.2918, 82.42513
242.7739, 82.27750
243.2560, 80.92432
243.7381, 80.10577
244.2203, 80.61090
244.7024, 83.05609
245.1845, 85.09356
245.6666, 86.65446
246.1487, 87.83716
246.6308, 88.78697
247.1130, 89.16844
247.5951, 89.87720
248.0772, 91.33519
248.5593, 93.88594
249.0414, 95.96458
249.5235, 97.53847
250.0057, 98.65657
250.4878, 99.37044
250.9699, 99.44465
251.4520, 99.51930
251.9341, 99.64514
252.4162, 99.62896
252.8984, 100.7214
253.3805, 103.5708
253.8626, 107.0486
254.3447, 109.3189
254.8268, 109.7149
255.3089, 110.3349
255.7911, 111.7956
256.2732, 114.1916
256.7553, 116.6653
257.2374, 119.2014
257.7195, 121.8421
258.2017, 124.6353
258.6838, 127.6036
259.1659, 130.7363
259.6480, 134.1299
260.1301, 137.7715
260.6122, 141.1989
261.0944, 144.2633
261.5765, 147.3168
262.0586, 150.7810
262.5407, 154.7862
263.0228, 158.7956
263.5049, 162.5330
263.9871, 166.0654
264.4692, 170.2561
264.9513, 175.2870
265.4334, 180.7423
265.9155, 186.3720
266.3976, 192.0735
266.8798, 197.9091
267.3619, 203.6357
267.8440, 209.4329
268.3261, 216.5194
268.8082, 225.3409
269.2903, 234.4785
269.7725, 242.2955
270.2546, 247.9681
270.7367, 255.7580
271.2188, 266.7660
271.7009, 280.1503
272.1830, 292.4377
272.6652, 302.9827
273.1473, 313.9522
273.6294, 327.2004
274.1115, 343.1165
274.5936, 358.7520
275.0757, 373.4976
275.5579, 388.1359
276.0400, 404.6640
276.5221, 423.3911
277.0042, 442.7352
277.4863, 461.4715
277.9684, 479.4369
278.4506, 499.0869
278.9327, 520.8433
279.4148, 544.0321
279.8969, 567.3735
280.3790, 590.8773
280.8611, 614.4703
281.3433, 638.1732
281.8254, 662.0862
282.3075, 685.4296
282.7896, 707.8190
283.2717, 730.7747
283.7538, 758.0116
284.2360, 789.7795
284.7181, 819.4896
285.2002, 842.2742
285.6823, 859.2991
286.1644, 882.0685
286.6465, 911.3955
287.1287, 942.6882
287.6108, 969.2460
288.0929, 991.3802
288.5750, 1014.971
289.0571, 1042.975
289.5392, 1074.310
290.0214, 1104.420
290.5035, 1133.203
290.9856, 1160.645
291.4677, 1186.795
291.9498, 1211.670
292.4319, 1234.590
292.9141, 1255.849
293.3962, 1275.010
293.8783, 1291.208
294.3604, 1304.370
294.8425, 1314.473
295.3246, 1323.642
295.8068, 1330.232
296.2889, 1328.228
296.7710, 1314.615
297.2531, 1293.647
297.7352, 1274.036
298.2173, 1255.044
298.6995, 1229.116
299.1816, 1188.538
299.6637, 1137.304
300.1458, 1084.607
300.6279, 1031.579
301.1100, 977.6006
301.5922, 921.4380
302.0743, 863.7577
302.5564, 807.5277
303.0385, 752.7660
303.5206, 700.7921
304.0027, 652.3921
304.4849, 608.1710
304.9670, 567.4152
305.4491, 530.8249
305.9312, 497.7313
306.4133, 466.5203
306.8954, 436.1182
307.3776, 407.2993
307.8597, 381.3188
308.3418, 358.0451
308.8239, 337.2626
309.3060, 319.6405
309.7881, 304.0705
310.2703, 289.3658
310.7524, 274.7206
311.2345, 260.7640
311.7166, 248.1290
312.1987, 236.8087
312.6808, 226.4362
313.1630, 217.0164
313.6451, 208.2506
314.1272, 199.7284
314.6093, 190.6661
315.0914, 182.5341
315.5735, 176.8034
316.0557, 173.0184
316.5378, 168.7668
317.0199, 162.1674
317.5020, 155.2280
317.9841, 149.3347
318.4662, 145.3109
318.9484, 141.7957
319.4305, 138.0779
319.9126, 134.5088
320.3947, 132.0113
320.8768, 132.1643
321.3589, 132.4635
321.8411, 131.5204
322.3232, 128.4789
322.8053, 125.8977
323.2874, 124.4749
323.7695, 123.7682
324.2516, 123.0777
324.7338, 122.3077
325.2159, 121.5266
325.6980, 120.7425
326.1801, 119.9394
326.6622, 119.1961
327.1443, 118.2363
327.6265, 117.4535
328.1086, 117.2540
328.5907, 118.8220
329.0728, 119.6478
329.5549, 119.0972
330.0370, 117.1499
330.5192, 115.4932
331.0013, 113.8074
331.4834, 112.6674
331.9655, 112.5020
332.4476, 113.8568
332.9297, 115.2646
333.4119, 116.6222
333.8940, 117.9369
334.3761, 119.3027
334.8582, 121.0355
335.3403, 122.2756
335.8224, 122.3172
336.3046, 120.3077
336.7867, 119.8286
337.2688, 121.7422
337.7509, 124.6119
338.2330, 125.4408
338.7151, 123.7438
339.1973, 121.5011
339.6794, 119.4165
340.1615, 117.5260
340.6436, 115.4620
341.1257, 113.2954
341.6078, 110.8571
342.0899, 107.7143
342.5721, 103.8458
343.0542, 100.3237
343.5363, 97.62630
344.0184, 95.55195
344.5005, 93.10991
344.9826, 90.27594
345.4648, 87.40105
345.9469, 84.94851
346.4290, 82.81120
346.9111, 80.34215
347.3932, 77.17945
347.8753, 73.91012
348.3575, 71.89290
348.8396, 71.04314
349.3217, 70.31638
349.8038, 68.89464
350.2859, 67.08743
350.7680, 65.64116
351.2502, 64.65532
351.7323, 63.98864
352.2144, 63.65534
352.6965, 63.54077
353.1786, 63.30801
353.6607, 62.61039
354.1429, 61.78441
354.6250, 61.31486
355.1071, 61.23417
355.5892, 61.13024
356.0713, 60.47739
356.5534, 59.64145
357.0356, 59.17165
357.5177, 59.86936
357.9998, 60.49773
358.4819, 60.01788
358.9640, 58.59429
359.4461, 57.14438
359.9283, 55.98209
360.4104, 55.08759
360.8925, 54.46426
361.3746, 54.21786
361.8567, 54.05812
362.3388, 53.94127
362.8210, 53.82579
363.3031, 53.61580
363.7852, 53.14662
364.2673, 52.68361
364.7494, 52.34200
365.2315, 52.13838
365.7137, 52.03935
366.1958, 52.13892
366.6779, 52.30601
367.1600, 52.38735
367.6421, 52.33017
368.1242, 52.22317
368.6064, 52.07409
369.0885, 51.88096
369.5706, 51.67458
370.0527, 51.30099
370.5348, 51.03197
371.0169, 51.08174
371.4991, 51.90616
371.9812, 52.26527
372.4633, 51.92598
372.9454, 51.06797
373.4275, 50.28454
373.9096, 49.43485
374.3918, 48.89507
374.8739, 49.02562
375.3560, 50.16409
375.8381, 50.34206
376.3202, 49.16689
376.8023, 47.53971
377.2845, 46.88277
377.7666, 47.34580
378.2487, 48.01095
378.7308, 48.69238
379.2129, 49.34709
379.6950, 49.61948
380.1772, 49.50031
380.6593, 49.05730
381.1414, 48.10879
381.6235, 46.75335
382.1056, 45.88210
382.5877, 45.81437
383.0699, 46.14812
383.5520, 46.09536
384.0341, 45.69630
384.5162, 45.36479
384.9983, 45.50848
385.4804, 45.88828
385.9626, 45.89453
386.4447, 45.38767
386.9268, 44.93569
387.4089, 45.32488
387.8910, 46.21919
388.3731, 46.85397
388.8553, 46.60229
389.3374, 46.11570
389.8195, 46.10700
390.3016, 46.54787
390.7837, 46.84884
391.2658, 46.31684
391.7480, 45.59060
392.2301, 45.39153
392.7122, 46.54367
393.1943, 47.39405
393.6764, 46.96396
394.1585, 45.58433
394.6407, 44.20864
395.1228, 42.57440
395.6049, 41.48275
396.0870, 41.51325
396.5691, 43.17889
397.0512, 44.50655
397.5334, 45.03188
398.0155, 45.04828
398.4976, 44.91876
398.9797, 44.60186
399.4618, 44.22365
399.9439, 43.70050
400.4261, 43.03413
400.9082, 42.73648
401.3903, 43.20436
401.8724, 43.66275
402.3545, 43.56631
402.8366, 42.50857
403.3188, 41.78339
403.8009, 41.49869
404.2830, 41.57235
404.7651, 41.85217
405.2472, 42.42781
405.7293, 42.95064
406.2115, 43.33923
406.6936, 43.59807
407.1757, 43.40144
407.6578, 42.63438
408.1399, 41.72149
408.6220, 41.06282
409.1042, 40.65969
409.5863, 40.60484
410.0684, 41.01470
410.5505, 41.71700
411.0326, 42.39668
411.5147, 43.05180
411.9969, 43.55241
412.4790, 43.80901
412.9611, 43.84814
413.4432, 43.69373
413.9253, 43.31071
414.4074, 42.88155
414.8896, 42.59151
415.3717, 42.40577
415.8538, 42.24529
416.3359, 42.16822
416.8180, 42.03910
417.3001, 41.58141
417.7823, 40.80984
418.2644, 40.35883
418.7465, 40.82217
419.2286, 41.66646
419.7107, 42.37972
420.1928, 42.86983
420.6750, 43.16317
421.1571, 43.31190
421.6392, 43.27684
422.1213, 42.95028
422.6034, 41.66713
423.0855, 40.63383
423.5677, 40.46594
424.0498, 41.53801
424.5319, 42.29818
425.0140, 42.34228
425.4961, 42.16268
425.9782, 42.26959
426.4604, 43.02515
426.9425, 43.53990
427.4246, 43.66875
427.9067, 43.44593
428.3888, 43.08062
428.8709, 42.50546
429.3531, 41.90898
429.8352, 41.34148
430.3173, 40.76202
430.7994, 40.47841
431.2815, 40.54031
431.7636, 40.83089
432.2458, 41.29440
432.7279, 41.96073
433.2100, 42.27116
433.6921, 41.87720
434.1742, 40.99601
434.6563, 40.39881
435.1385, 40.07894
435.6206, 39.97093
436.1027, 40.05022
436.5848, 40.29679
437.0669, 40.71888
437.5490, 41.42693
438.0312, 42.03889
438.5133, 41.97469
438.9954, 41.44555
439.4775, 41.03715
439.9596, 41.33610
440.4417, 41.71052
440.9239, 41.45216
441.4060, 40.52040
441.8881, 39.75595
442.3702, 39.64886
442.8523, 39.94423
443.3344, 40.40866
443.8166, 41.36485
444.2987, 42.02850
444.7808, 41.97022
445.2629, 41.41064
445.7450, 40.99387
446.2271, 41.13316
446.7093, 41.19947
447.1914, 40.83200
447.6735, 39.69008
448.1556, 39.23764
448.6377, 39.97031
449.1198, 41.06177
449.6020, 41.64492
450.0841, 41.33855
450.5662, 41.34658
451.0483, 42.12303
451.5304, 43.34098
452.0125, 43.36109
452.4947, 41.80191
452.9768, 40.22280
453.4589, 39.49286
453.9410, 39.62781
454.4231, 39.97464
454.9052, 40.60386
455.3874, 41.16959
455.8695, 41.15376
456.3516, 40.62603
456.8337, 40.10391
457.3158, 39.74845
457.7979, 39.49509
458.2801, 39.11233
458.7622, 38.65467
459.2443, 38.50383
459.7264, 39.10265
460.2085, 40.09812
460.6906, 41.10117
461.1728, 42.11178
461.6549, 42.85959
462.1370, 43.12257
462.6191, 42.99298
463.1012, 42.59442
463.5833, 41.36337
464.0655, 40.44122
464.5476, 40.45484
465.0297, 41.32344
465.5118, 42.30468
465.9939, 43.87510
466.4760, 44.99758
466.9582, 44.98890
467.4403, 42.61580
467.9224, 41.24792
468.4045, 41.56107
468.8866, 42.65030
469.3687, 43.25199
469.8509, 43.21769
470.3330, 42.92787
470.8151, 42.34863
471.2972, 41.53442
471.7793, 41.04102
472.2614, 40.86680
472.7436, 41.00708
473.2257, 41.71280
473.7078, 43.00637
474.1899, 43.48134
474.6720, 42.93402
475.1541, 41.83235
475.6363, 40.45607
476.1184, 38.95560
476.6005, 38.33864
477.0826, 39.63406
477.5647, 41.68092
478.0468, 42.37153
478.5290, 41.85163
479.0111, 41.44484
479.4932, 42.59771
479.9753, 44.16698
480.4574, 44.70644
480.9395, 43.71503
481.4217, 42.48976
481.9038, 41.60593
482.3859, 41.05604
482.8680, 40.84703
483.3501, 41.36493
483.8322, 41.85038
484.3144, 41.99207
484.7965, 41.80527
485.2786, 41.65353
485.7607, 41.66031
486.2428, 41.65909
486.7249, 41.54838
487.2071, 41.18394
487.6892, 41.03440
488.1713, 41.23265
488.6534, 41.55349
489.1355, 41.60043
489.6176, 41.15781
490.0998, 41.12037
490.5819, 41.88290
491.0640, 43.21226
491.5461, 43.88420
492.0282, 43.85585
492.5103, 43.53587
492.9925, 43.12169
493.4746, 42.63079
493.9567, 42.11345
494.4388, 41.51699
494.9209, 41.15122
495.4030, 41.68541
495.8852, 42.73600
496.3673, 43.32253
496.8494, 42.59994
497.3315, 41.70884
497.8136, 41.87109
498.2957, 42.86129
498.7779, 43.74731
499.2600, 44.02790
499.7421, 44.04641
500.2242, 44.07343
500.7063, 44.20165
501.1884, 44.07020
501.6706, 43.02723
502.1527, 41.91375
502.6348, 41.59950
503.1169, 43.40793
503.5990, 44.56381
504.0811, 44.45356
504.5633, 43.44222
505.0454, 42.86333
505.5275, 42.82569
506.0096, 43.06381
506.4917, 43.64828
506.9738, 44.67646
507.4560, 44.76720
507.9381, 43.65550
508.4202, 42.32032
508.9023, 41.77171
509.3844, 41.97390
509.8665, 42.30888
510.3487, 42.65290
510.8308, 43.09594
511.3129, 44.00024
511.7950, 45.22095
512.2772, 46.08041
512.7593, 46.10891
513.2414, 45.63838
513.7235, 44.92643
514.2056, 44.00217
514.6877, 43.21648
515.1699, 42.70560
515.6520, 42.48129
516.1341, 42.60965
516.6162, 43.37313
517.0983, 43.96111
517.5804, 43.87415
518.0626, 43.49105
518.5447, 43.43340
519.0268, 44.45193
519.5089, 45.09760
519.9910, 44.80484
520.4731, 43.66523
520.9553, 43.16647
521.4374, 43.60695
521.9195, 44.24864
522.4016, 44.71418
522.8837, 44.98743
523.3658, 45.15897
523.8480, 45.24268
524.3301, 45.19849
524.8122, 44.81247
525.2943, 44.12701
525.7764, 43.86651
526.2585, 44.41391
526.7407, 45.28141
527.2228, 45.42640
527.7049, 44.99646
528.1870, 44.84536
528.6691, 46.09667
529.1512, 47.59638
529.6334, 47.82157
530.1155, 46.63165
530.5976, 45.37888
531.0797, 44.64638
531.5618, 44.34640
532.0439, 44.44606
532.5261, 45.60783
533.0082, 46.20209
533.4903, 45.06776
533.9724, 43.15221
534.4545, 42.47517
534.9366, 44.77248
535.4188, 46.53112
535.9009, 46.72424
536.3830, 45.39988
536.8651, 44.69240
537.3472, 44.83758
537.8293, 45.13702
538.3115, 45.14386
538.7936, 44.84168
539.2757, 44.44704
539.7578, 43.90470
540.2399, 43.46522
540.7220, 43.54044
541.2042, 44.05399
541.6863, 44.58314
542.1684, 45.05719
542.6505, 45.41678
543.1326, 45.45624
543.6147, 45.27171
544.0969, 45.23499
544.5790, 45.75521
545.0611, 46.38574
545.5432, 46.83721
546.0253, 47.09142
546.5074, 46.98425
546.9896, 46.01409
547.4717, 44.89558
547.9538, 44.20253
548.4359, 44.08204
548.9180, 44.33368
549.4001, 45.33061
549.8823, 46.56905
550.3644, 47.16378
550.8465, 46.79939
551.3286, 46.38760
551.8107, 46.12115
552.2928, 45.99206
552.7750, 46.03424
553.2571, 46.32970
553.7392, 46.40053
554.2213, 45.71201
554.7034, 44.45098
555.1855, 43.70275
555.6677, 43.55074
556.1498, 43.66954
556.6319, 43.73095
557.1140, 43.80676
557.5961, 44.06907
558.0782, 44.67730
558.5604, 45.30107
559.0425, 45.72846
559.5246, 45.96534
560.0067, 46.01818
560.4888, 45.86771
560.9709, 45.55179
561.4531, 44.95630
561.9352, 44.08371
562.4173, 43.51938
562.8994, 43.31232
563.3815, 43.46814
563.8636, 44.11255
564.3458, 45.74432
564.8279, 46.43118
565.3100, 45.80755
565.7921, 44.71045
566.2742, 44.33771
566.7563, 44.80808
567.2385, 44.71538
567.7206, 43.46183
568.2027, 41.85254
568.6848, 41.90004
569.1669, 43.40194
569.6490, 44.85160
570.1312, 45.53547
570.6133, 45.65072
571.0954, 45.30558
571.5775, 44.53405
572.0596, 43.84504
572.5417, 43.50690
573.0239, 43.42048
573.5060, 43.56871
573.9881, 44.11102
574.4702, 44.43610
574.9523, 44.20573
575.4344, 43.71758
575.9166, 43.35071
576.3987, 43.21357
576.8808, 43.07719
577.3629, 42.81823
577.8450, 42.55263
578.3271, 42.74987
578.8093, 43.63595
579.2914, 44.30393
579.7735, 44.27816
580.2556, 43.66592
580.7377, 43.32963
581.2198, 43.29646
581.7020, 43.25556
582.1841, 42.75391
582.6662, 42.06694
583.1483, 41.94134
583.6304, 42.56310
584.1125, 43.27562
584.5947, 43.51780
585.0768, 43.47410
585.5589, 43.41175
586.0410, 43.34143
586.5231, 43.36272
587.0052, 43.61652
