##NAMES=Dolomite
##RRUFFID=R050272
##IDEAL CHEMISTRY=CaMg(CO_3_)_2_
##LOCALITY=Eagle mine, Gillman, Colorado, USA
##OWNER=RRUFF
##SOURCE=University of Arizona Mineral Museum
##DESCRIPTION=Gray-white rhombohedral crystals
##STATUS=The identification of this mineral has been confirmed by X-ray diffraction and chemical analysis
##URL=rruff.info/R050272
##MEASURED CHEMISTRY=(Ca_0.96_Fe^2+^_0.04_)_Σ=1_(Mg_0.63_Mn^2+^_0.21_Fe^2+^_0.16_)_Σ=1_(CO_3_)_2_ ; CO_3_ estimated by difference and stoichiometry
93.02344, 8.033664
93.50555, 8.182576
93.98767, 8.237143
94.46979, 8.029509
94.95190, 7.737546
95.43402, 7.829898
95.91614, 8.351446
96.39825, 9.051748
96.88037, 9.702078
97.36249, 10.29720
97.84460, 10.66178
98.32672, 10.49976
98.80884, 9.868260
99.29095, 9.718356
99.77307, 10.20213
100.2552, 11.06645
100.7373, 11.75118
101.2194, 12.20590
101.7015, 12.65317
102.1837, 13.29108
102.6658, 14.21013
103.1479, 14.86370
103.6300, 15.08689
104.1121, 14.98089
104.5942, 15.10409
105.0764, 15.41722
105.5585, 16.01196
106.0406, 17.05062
106.5227, 19.01300
107.0048, 20.55762
107.4869, 21.34694
107.9690, 21.30999
108.4512, 21.44733
108.9333, 21.70967
109.4154, 22.17364
109.8975, 22.91346
110.3796, 24.36390
110.8617, 25.68328
111.3439, 26.65713
111.8260, 27.14116
112.3081, 27.77668
112.7902, 28.62952
113.2723, 29.65437
113.7544, 30.77546
114.2366, 31.99937
114.7187, 33.30389
115.2008, 34.69275
115.6829, 36.23768
116.1650, 37.70801
116.6471, 39.07422
117.1293, 40.33876
117.6114, 41.52246
118.0935, 42.24902
118.5756, 43.12003
119.0577, 44.63117
119.5398, 47.50457
120.0220, 50.12868
120.5041, 51.58200
120.9862, 52.05416
121.4683, 52.31544
121.9504, 52.25673
122.4325, 52.39227
122.9147, 53.34423
123.3968, 56.21246
123.8789, 59.18477
124.3610, 60.38704
124.8431, 59.95793
125.3252, 59.33819
125.8074, 59.42993
126.2895, 60.11828
126.7716, 61.18643
127.2537, 62.80075
127.7358, 64.66953
128.2179, 66.34499
128.7001, 67.81801
129.1822, 69.14037
129.6643, 70.10038
130.1464, 70.85280
130.6285, 72.04028
131.1106, 74.43789
131.5928, 77.55644
132.0749, 79.67412
132.5570, 80.55222
133.0391, 80.97678
133.5212, 81.91332
134.0033, 83.22855
134.4855, 84.53628
134.9676, 85.85600
135.4497, 87.47337
135.9318, 89.48763
136.4139, 92.12670
136.8960, 94.84282
137.3782, 96.43729
137.8603, 96.70317
138.3424, 97.06941
138.8245, 98.61517
139.3066, 101.6078
139.7887, 103.7049
140.2709, 104.5213
140.7530, 104.3994
141.2351, 104.3904
141.7172, 104.4010
142.1993, 104.7059
142.6814, 105.3551
143.1636, 106.0539
143.6457, 107.9739
144.1278, 111.8008
144.6099, 117.2057
145.0920, 121.2024
145.5741, 123.1953
146.0563, 124.4929
146.5384, 125.9879
147.0205, 127.3566
147.5026, 129.4513
147.9847, 132.5400
148.4668, 136.6436
148.9490, 140.8404
149.4311, 144.5287
149.9132, 148.6669
150.3953, 154.1072
150.8774, 162.2734
151.3595, 170.1804
151.8417, 176.9876
152.3238, 182.3360
152.8059, 188.7064
153.2880, 196.7859
153.7701, 205.6349
154.2522, 214.3522
154.7344, 222.2843
155.2165, 230.5453
155.6986, 239.7206
156.1807, 250.4684
156.6628, 260.0699
157.1449, 266.4225
157.6271, 271.6840
158.1092, 278.8300
158.5913, 290.1815
159.0734, 302.0961
159.5555, 312.9313
160.0376, 321.8743
160.5198, 331.6481
161.0019, 342.5630
161.4840, 354.8354
161.9661, 368.5862
162.4482, 385.4716
162.9303, 402.7499
163.4125, 418.5455
163.8946, 431.4061
164.3767, 445.4323
164.8588, 462.7618
165.3409, 482.5673
165.8230, 503.2966
166.3052, 522.6036
166.7873, 543.4250
167.2694, 568.1603
167.7515, 598.1415
168.2336, 630.5695
168.7157, 665.6229
169.1978, 702.0066
169.6800, 736.6563
170.1621, 768.9109
170.6442, 798.0024
171.1263, 823.9635
171.6084, 848.5361
172.0905, 867.5131
172.5727, 878.5498
173.0548, 881.3680
173.5369, 875.0276
174.0190, 858.5497
174.5011, 832.7336
174.9832, 797.9984
175.4654, 750.6169
175.9475, 698.6900
176.4296, 649.3622
176.9117, 602.3094
177.3938, 556.7449
177.8759, 510.0828
178.3581, 464.4757
178.8402, 424.3895
179.3223, 392.6502
179.8044, 366.3500
180.2865, 342.1136
180.7686, 320.0308
181.2508, 299.6639
181.7329, 280.5995
182.2150, 262.9172
182.6971, 247.0528
183.1792, 233.4807
183.6613, 221.7323
184.1435, 211.4892
184.6256, 202.6799
185.1077, 194.7398
185.5898, 186.8991
186.0719, 179.4008
186.5540, 172.6524
187.0362, 167.0285
187.5183, 162.2398
188.0004, 157.7737
188.4825, 153.6081
188.9646, 149.6016
189.4467, 145.4376
189.9289, 141.1846
190.4110, 137.4395
190.8931, 134.5135
191.3752, 132.2422
191.8573, 129.8763
192.3394, 127.3468
192.8216, 124.9520
193.3037, 123.2401
193.7858, 122.1848
194.2679, 120.7719
194.7500, 118.3738
195.2321, 115.2301
195.7143, 112.8095
196.1964, 111.1875
196.6785, 110.0943
197.1606, 109.4418
197.6427, 109.2765
198.1248, 108.6672
198.6070, 107.0481
199.0891, 104.5134
199.5712, 102.4953
200.0533, 101.0277
200.5354, 99.99538
201.0175, 99.41845
201.4997, 99.38406
201.9818, 99.18372
202.4639, 98.53941
202.9460, 97.45116
203.4281, 96.20958
203.9102, 94.67117
204.3924, 93.24160
204.8745, 92.56710
205.3566, 92.76380
205.8387, 93.18725
206.3208, 93.81088
206.8029, 94.69417
207.2851, 94.59102
207.7672, 93.14455
208.2493, 91.22584
208.7314, 90.20310
209.2135, 90.28841
209.6956, 90.54831
210.1778, 90.72812
210.6599, 90.85143
211.1420, 90.65013
211.6241, 89.99657
212.1062, 89.17192
212.5883, 88.59856
213.0705, 88.29430
213.5526, 88.20067
214.0347, 88.44713
214.5168, 89.17982
214.9989, 89.13652
215.4810, 87.88686
215.9632, 86.27567
216.4453, 85.77442
216.9274, 86.82088
217.4095, 87.91948
217.8916, 88.53625
218.3737, 88.56973
218.8559, 88.73064
219.3380, 89.10502
219.8201, 89.52840
220.3022, 89.73260
220.7843, 89.65070
221.2664, 89.48898
221.7486, 89.28684
222.2307, 89.02454
222.7128, 88.84312
223.1949, 88.71431
223.6770, 88.69234
224.1591, 88.94547
224.6413, 89.81649
225.1234, 90.29146
225.6055, 89.87077
226.0876, 88.21735
226.5697, 87.40950
227.0518, 87.77714
227.5340, 88.73347
228.0161, 89.41634
228.4982, 89.78865
228.9803, 89.95824
229.4624, 89.88248
229.9445, 89.45760
230.4267, 89.33896
230.9088, 89.68349
231.3909, 90.21149
231.8730, 90.47527
232.3551, 90.13488
232.8372, 90.14926
233.3194, 90.98974
233.8015, 92.97960
234.2836, 93.95220
234.7657, 93.36570
235.2478, 92.20564
235.7299, 91.72743
236.2121, 92.06835
236.6942, 92.88097
237.1763, 94.22254
237.6584, 96.21651
238.1405, 97.82109
238.6226, 98.82553
239.1048, 99.58227
239.5869, 100.5206
240.0690, 101.8027
240.5511, 102.9702
241.0332, 103.8920
241.5153, 104.5273
241.9975, 105.2190
242.4796, 105.8603
242.9617, 106.6425
243.4438, 107.8573
243.9259, 109.9686
244.4080, 111.6415
244.8902, 112.3349
245.3723, 111.9278
245.8544, 112.5060
246.3365, 114.5849
246.8186, 117.1551
247.3007, 119.2342
247.7829, 120.5695
248.2650, 121.8893
248.7471, 123.2842
249.2292, 124.7583
249.7113, 126.4189
250.1934, 128.2770
250.6756, 130.3224
251.1577, 132.5734
251.6398, 135.0533
252.1219, 137.6963
252.6040, 140.5563
253.0861, 143.5964
253.5683, 146.5558
254.0504, 149.4506
254.5325, 152.2580
255.0146, 154.8835
255.4967, 157.0624
255.9788, 159.7277
256.4609, 163.1521
256.9431, 167.2128
257.4252, 171.0609
257.9073, 174.3382
258.3894, 177.9392
258.8715, 182.6849
259.3536, 189.3595
259.8358, 195.1963
260.3179, 199.6335
260.8000, 203.0026
261.2821, 206.9835
261.7642, 211.7670
262.2463, 216.9139
262.7285, 221.9499
263.2106, 226.3096
263.6927, 232.3831
264.1748, 241.0054
264.6569, 251.3213
265.1390, 260.4986
265.6212, 267.9885
266.1033, 275.3239
266.5854, 283.3714
267.0675, 291.9521
267.5496, 301.3559
268.0317, 311.4733
268.5139, 322.4472
268.9960, 334.4509
269.4781, 347.5790
269.9602, 361.3842
270.4423, 375.7082
270.9244, 390.7318
271.4066, 405.1724
271.8887, 418.4763
272.3708, 431.7142
272.8529, 446.7290
273.3350, 463.6729
273.8171, 481.7603
274.2993, 500.8556
274.7814, 520.6508
275.2635, 542.1588
275.7456, 565.7031
276.2277, 590.3815
276.7098, 614.1602
277.1920, 636.7488
277.6741, 659.9761
278.1562, 684.3023
278.6383, 710.0424
279.1204, 737.3566
279.6025, 767.0783
280.0847, 796.7692
280.5668, 822.0161
281.0489, 842.1756
281.5310, 865.2177
282.0131, 895.0573
282.4952, 930.6532
282.9774, 962.1829
283.4595, 989.1326
283.9416, 1014.850
284.4237, 1042.851
284.9058, 1073.130
285.3879, 1103.830
285.8701, 1134.394
286.3522, 1165.039
286.8343, 1196.696
287.3164, 1229.116
287.7985, 1262.222
288.2806, 1297.148
288.7628, 1333.421
289.2449, 1366.266
289.7270, 1394.449
290.2091, 1418.775
290.6912, 1441.304
291.1733, 1461.669
291.6555, 1479.680
292.1376, 1496.245
292.6197, 1510.609
293.1018, 1519.507
293.5839, 1522.761
294.0660, 1519.635
294.5482, 1508.301
295.0303, 1488.955
295.5124, 1463.612
295.9945, 1432.902
296.4766, 1396.890
296.9587, 1356.132
297.4409, 1310.167
297.9230, 1260.260
298.4051, 1207.392
298.8872, 1152.271
299.3693, 1096.541
299.8514, 1041.397
300.3336, 986.7028
300.8157, 931.8546
301.2978, 876.9840
301.7799, 823.9103
302.2620, 775.1776
302.7441, 730.3483
303.2263, 688.4713
303.7084, 649.1954
304.1905, 612.3287
304.6726, 576.6439
305.1547, 542.4056
305.6368, 510.4394
306.1190, 481.7970
306.6011, 456.0071
307.0832, 433.2539
307.5653, 415.3657
308.0474, 398.8728
308.5295, 380.4683
309.0117, 360.3128
309.4938, 341.2182
309.9759, 324.9956
310.4580, 310.7399
310.9401, 297.8618
311.4222, 286.4248
311.9044, 275.7979
312.3865, 265.8740
312.8686, 256.6028
313.3507, 247.5808
313.8328, 238.4978
314.3149, 229.6873
314.7971, 221.4792
315.2792, 213.5646
315.7613, 206.6909
316.2434, 202.0903
316.7255, 198.8053
317.2076, 194.7562
317.6898, 187.9698
318.1719, 181.0139
318.6540, 175.5007
319.1361, 172.0083
319.6182, 168.7110
320.1003, 164.6936
320.5825, 160.5819
321.0646, 157.2360
321.5467, 155.4279
322.0288, 153.9418
322.5109, 152.4268
322.9930, 150.8875
323.4752, 149.1552
323.9573, 147.2754
324.4394, 145.1525
324.9215, 142.7000
325.4036, 138.9452
325.8857, 135.8715
326.3679, 134.2262
326.8500, 133.9255
327.3321, 133.1668
327.8142, 131.6738
328.2963, 129.7784
328.7784, 127.6718
329.2606, 124.0434
329.7427, 121.8357
330.2248, 122.0093
330.7069, 123.8392
331.1890, 124.4589
331.6711, 122.7890
332.1533, 121.0755
332.6354, 120.2928
333.1175, 121.0285
333.5996, 121.4020
334.0817, 121.3738
334.5638, 120.9968
335.0460, 120.3304
335.5281, 119.1732
336.0102, 118.0831
336.4923, 117.2270
336.9744, 116.6192
337.4565, 116.1908
337.9387, 116.1854
338.4208, 116.0305
338.9029, 114.8993
339.3850, 112.4848
339.8671, 110.2775
340.3492, 108.6244
340.8313, 107.4676
341.3134, 106.4734
341.7956, 105.7188
342.2777, 104.8641
342.7598, 103.6030
343.2419, 101.9520
343.7240, 100.0532
344.2061, 97.85966
344.6883, 95.52241
345.1704, 93.41516
345.6525, 91.51428
346.1346, 89.93520
346.6167, 88.93138
347.0988, 88.37374
347.5810, 87.62491
348.0631, 86.66262
348.5452, 85.36668
349.0273, 83.10408
349.5094, 80.09364
349.9915, 77.83720
350.4737, 77.66932
350.9558, 78.66846
351.4379, 78.84615
351.9200, 78.15869
352.4021, 76.95652
352.8842, 75.07009
353.3664, 72.90695
353.8485, 71.41862
354.3306, 71.41339
354.8127, 71.84549
355.2948, 71.47464
355.7769, 70.39543
356.2591, 69.24122
356.7412, 68.19782
357.2233, 67.41366
357.7054, 67.14158
358.1875, 67.76656
358.6696, 68.31012
359.1518, 67.96096
359.6339, 66.98236
360.1160, 66.01790
360.5981, 65.22359
361.0802, 64.64715
361.5623, 64.37370
362.0445, 64.47382
362.5266, 64.58981
363.0087, 64.64313
363.4908, 64.60431
363.9729, 64.43480
364.4550, 64.17345
364.9372, 63.73209
365.4193, 62.91532
365.9014, 61.71198
366.3835, 60.86897
366.8656, 60.71376
367.3477, 60.87492
367.8299, 61.07568
368.3120, 61.66056
368.7941, 61.85302
369.2762, 61.30903
369.7583, 60.22786
370.2404, 59.50846
370.7226, 59.37538
371.2047, 59.39678
371.6868, 59.43850
372.1689, 59.64060
372.6510, 59.50773
373.1331, 58.74458
373.6153, 57.80992
374.0974, 57.52372
374.5795, 58.27087
375.0616, 58.89080
375.5437, 59.02222
376.0258, 58.65691
376.5080, 58.32468
376.9901, 58.09673
377.4722, 57.76603
377.9543, 56.95871
378.4364, 55.53518
378.9185, 54.68304
379.4007, 54.75482
379.8828, 55.46419
380.3649, 55.99339
380.8470, 56.32883
381.3291, 56.56458
381.8112, 56.76510
382.2934, 56.92299
382.7755, 56.97560
383.2576, 56.92125
383.7397, 56.74984
384.2218, 56.35903
384.7039, 55.79549
385.1861, 55.33588
385.6682, 55.07711
386.1503, 55.01270
386.6324, 55.26606
387.1145, 55.84267
387.5966, 56.24929
388.0788, 55.91262
388.5609, 55.13716
389.0430, 54.45098
389.5251, 53.93793
390.0072, 53.65139
390.4893, 53.77959
390.9715, 54.21535
391.4536, 54.56860
391.9357, 54.75972
392.4178, 54.69219
392.8999, 54.15383
393.3820, 52.86738
393.8642, 51.89694
394.3463, 52.09768
394.8284, 52.87775
395.3105, 53.31939
395.7926, 52.80143
396.2747, 52.20589
396.7569, 51.85455
397.2390, 51.77055
397.7211, 51.77820
398.2032, 51.92258
398.6853, 52.09985
399.1674, 52.23204
399.6496, 52.44072
400.1317, 52.44858
400.6138, 52.10386
401.0959, 51.52452
401.5780, 51.11816
402.0602, 50.92966
402.5423, 50.86201
403.0244, 50.92095
403.5065, 51.20775
403.9886, 51.24392
404.4707, 50.89915
404.9529, 50.42925
405.4350, 50.15375
405.9171, 50.05882
406.3992, 50.24760
406.8813, 50.96428
407.3634, 52.03187
407.8456, 52.07313
408.3277, 50.86395
408.8098, 49.55759
409.2919, 49.19566
409.7740, 49.71394
410.2561, 50.08189
410.7383, 50.15910
411.2204, 50.04235
411.7025, 49.73832
412.1846, 49.29895
412.6667, 49.15998
413.1488, 49.85731
413.6310, 50.95786
414.1131, 51.53850
414.5952, 51.55041
415.0773, 51.34205
415.5594, 51.17889
416.0415, 51.02158
416.5237, 50.78087
417.0058, 50.28127
417.4879, 49.85262
417.9700, 49.83492
418.4521, 50.15289
418.9342, 50.49774
419.4164, 50.96999
419.8985, 51.23996
420.3806, 50.93300
420.8627, 49.74338
421.3448, 48.78720
421.8269, 48.54636
422.3091, 48.77911
422.7912, 49.14217
423.2733, 49.98930
423.7554, 50.51975
424.2375, 50.27505
424.7196, 49.23352
425.2018, 48.65060
425.6839, 49.10745
426.1660, 49.72723
426.6481, 50.00081
427.1302, 49.65078
427.6123, 49.39946
428.0945, 49.31712
428.5766, 49.32658
429.0587, 49.25470
429.5408, 49.10565
430.0229, 48.86109
430.5050, 48.43917
430.9872, 47.82562
431.4693, 47.56780
431.9514, 47.74739
432.4335, 48.07778
432.9156, 48.23291
433.3977, 48.20554
433.8799, 48.33781
434.3620, 48.77166
434.8441, 49.32171
435.3262, 49.57497
435.8083, 49.53845
436.2904, 49.35535
436.7726, 49.06233
437.2547, 48.69427
437.7368, 48.21737
438.2189, 47.57514
438.7010, 47.24726
439.1831, 48.16344
439.6652, 49.68776
440.1473, 50.57769
440.6295, 49.71340
441.1116, 48.58286
441.5937, 48.52236
442.0758, 49.33541
442.5579, 50.02251
443.0400, 50.04334
443.5222, 49.76529
444.0043, 49.42097
444.4864, 48.98941
444.9685, 48.66178
445.4506, 48.63692
445.9327, 48.71725
446.4149, 48.61864
446.8970, 47.81584
447.3791, 47.30820
447.8612, 47.49572
448.3433, 48.40024
448.8254, 49.03184
449.3076, 49.28731
449.7897, 49.36047
450.2718, 49.36636
450.7539, 49.35270
451.2360, 49.13802
451.7181, 48.59551
452.2003, 47.93388
452.6824, 47.58899
453.1645, 47.61157
453.6466, 47.74327
454.1287, 47.90525
454.6108, 48.10074
455.0930, 48.41489
455.5751, 48.89848
456.0572, 49.20507
456.5393, 48.80396
457.0214, 47.86335
457.5035, 47.31556
457.9857, 47.38968
458.4678, 47.76842
458.9499, 48.14826
459.4320, 48.47810
459.9141, 48.57393
460.3962, 48.07984
460.8784, 47.43292
461.3605, 47.18905
461.8426, 47.36866
462.3247, 47.57790
462.8068, 47.54096
463.2889, 47.40824
463.7711, 47.34080
464.2532, 47.43888
464.7353, 47.53022
465.2174, 47.47193
465.6995, 47.35384
466.1816, 47.38996
466.6638, 47.90471
467.1459, 48.33761
467.6280, 48.46557
468.1101, 48.21488
468.5922, 47.93069
469.0743, 47.36024
469.5565, 46.94733
470.0386, 47.12817
470.5207, 48.38396
471.0028, 49.21664
471.4849, 49.32941
471.9670, 48.98952
472.4492, 49.00381
472.9313, 49.49700
473.4134, 49.91781
473.8955, 50.01633
474.3776, 49.80294
474.8597, 49.46008
475.3419, 48.95263
475.8240, 48.49266
476.3061, 48.32181
476.7882, 48.39672
477.2703, 48.52626
477.7524, 48.68147
478.2346, 48.84546
478.7167, 49.00124
479.1988, 49.14878
479.6809, 49.28804
480.1630, 49.52717
480.6451, 49.69563
481.1273, 49.58564
481.6094, 49.17550
482.0915, 48.70377
482.5736, 48.14410
483.0557, 47.66381
483.5378, 47.42133
484.0200, 47.56915
484.5021, 47.82328
484.9842, 48.18104
485.4663, 48.59315
485.9484, 48.92245
486.4305, 49.21301
486.9127, 49.35052
487.3948, 49.23724
487.8769, 48.81053
488.3590, 48.57709
488.8411, 48.56626
489.3232, 48.71813
489.8054, 49.01485
490.2875, 49.51660
490.7696, 49.98403
491.2517, 50.49024
491.7338, 50.85007
492.2159, 50.44794
492.6981, 49.21337
493.1802, 48.18921
493.6623, 47.87114
494.1444, 48.15222
494.6265, 48.79709
495.1086, 49.82754
495.5908, 50.66189
496.0729, 50.65777
496.5550, 50.11663
497.0371, 49.61150
497.5192, 49.19938
498.0013, 49.00919
498.4835, 49.49207
498.9656, 50.27094
499.4477, 50.55716
499.9298, 49.37059
500.4119, 48.13035
500.8940, 47.72975
501.3762, 48.16039
501.8583, 48.50685
502.3404, 48.34117
502.8225, 48.11656
503.3046, 48.11697
503.7867, 48.48152
504.2689, 48.90720
504.7510, 49.69222
505.2331, 50.40287
505.7152, 50.28236
506.1973, 48.67841
506.6794, 47.58438
507.1616, 47.58732
507.6437, 48.52206
508.1258, 49.23415
508.6079, 49.70632
509.0900, 50.02389
509.5721, 50.30301
510.0543, 50.51613
510.5364, 50.26122
511.0185, 49.42255
511.5006, 48.52886
511.9827, 48.16743
512.4648, 48.27475
512.9470, 48.70177
513.4291, 49.74751
513.9112, 50.69513
514.3933, 50.47880
514.8754, 49.41280
515.3575, 48.64895
515.8397, 49.27515
516.3218, 50.11631
516.8039, 50.21353
517.2860, 49.33765
517.7681, 48.63341
518.2502, 48.54994
518.7324, 48.77522
519.2145, 49.03012
519.6966, 49.47214
520.1787, 49.69781
520.6608, 49.65221
521.1429, 49.37275
521.6251, 48.89054
522.1072, 47.88314
522.5893, 47.26201
523.0714, 47.38738
523.5535, 48.25353
524.0356, 49.27439
524.5178, 50.59727
524.9999, 51.60131
525.4820, 51.48362
525.9641, 50.39209
526.4462, 49.88340
526.9283, 50.29074
527.4105, 50.88552
527.8926, 50.32312
528.3747, 49.04891
528.8568, 48.55638
529.3389, 50.51408
529.8210, 52.79266
530.3032, 52.84017
530.7853, 51.06571
531.2674, 49.48791
531.7495, 49.27143
532.2316, 49.63457
532.7137, 50.09679
533.1959, 50.65229
533.6780, 51.07304
534.1601, 51.31953
534.6422, 51.40065
535.1243, 51.32692
535.6064, 51.02805
536.0886, 50.65426
536.5707, 50.06779
537.0528, 49.43003
537.5349, 49.31823
538.0170, 49.96303
538.4991, 50.54848
538.9813, 50.68931
539.4634, 50.42172
539.9455, 50.49782
540.4276, 50.98901
540.9097, 51.42358
541.3918, 51.15829
541.8740, 50.42754
542.3561, 50.25285
542.8382, 50.91647
543.3203, 51.74467
543.8024, 51.94808
544.2845, 51.71415
544.7667, 51.46025
545.2488, 51.39539
545.7309, 51.35551
546.2130, 51.12835
546.6951, 50.78833
547.1772, 50.69296
547.6594, 51.44895
548.1415, 52.12435
548.6236, 52.13223
549.1057, 51.17691
549.5878, 50.43242
550.0699, 49.93138
550.5521, 49.70839
551.0342, 49.82830
551.5163, 50.49375
551.9984, 51.05695
552.4805, 51.41858
552.9626, 51.67419
553.4448, 52.12068
553.9269, 52.82629
554.4090, 53.22550
554.8911, 53.05146
555.3732, 52.41006
555.8553, 51.45759
556.3375, 50.21267
556.8196, 49.36389
557.3017, 49.82212
557.7838, 50.92363
558.2659, 51.54866
558.7480, 51.49593
559.2302, 51.31310
559.7123, 51.48026
560.1944, 51.74121
560.6765, 51.76474
561.1586, 51.12024
561.6407, 50.57507
562.1229, 50.43351
562.6050, 50.58532
563.0871, 50.70232
563.5692, 50.38696
564.0513, 50.41595
564.5334, 51.27185
565.0156, 53.01461
565.4977, 53.67393
565.9798, 52.82082
566.4619, 51.66666
566.9440, 51.06911
567.4261, 51.07349
567.9083, 51.00089
568.3904, 50.76259
568.8725, 50.57870
569.3546, 50.87936
569.8367, 51.53439
570.3188, 51.97120
570.8010, 51.99006
571.2831, 51.72590
571.7652, 51.07117
572.2473, 50.20864
572.7294, 49.79025
573.2115, 50.64922
573.6937, 51.67274
574.1758, 52.10008
574.6579, 51.86787
575.1400, 51.52741
575.6221, 51.01803
576.1042, 50.60999
576.5864, 50.52824
577.0685, 51.30109
577.5506, 51.41691
578.0327, 50.41398
578.5148, 49.08928
578.9969, 48.54514
579.4791, 48.99662
579.9612, 49.47219
580.4433, 49.84259
580.9254, 50.05966
581.4075, 49.80923
581.8896, 49.10051
582.3718, 48.70546
582.8539, 49.37547
583.3360, 50.55957
583.8181, 51.01237
584.3002, 50.74800
584.7823, 50.40416
585.2645, 50.55309
585.7466, 50.80765
586.2287, 50.70121
586.7108, 50.00264
587.1929, 49.45302
