##NAMES=Dolomite
##RRUFFID=R050241
##IDEAL CHEMISTRY=CaMg(CO_3_)_2_
##LOCALITY=Eugui quarries, Navarre, Spain
##OWNER=RRUFF
##SOURCE=Marcus Origlieri
##DESCRIPTION=Light gray colored tabular crystals
##STATUS=The identification of this mineral has been confirmed by X-ray diffraction and chemical analysis
##URL=rruff.info/R050241
##MEASURED CHEMISTRY=(Ca_0.96_Mg_0.04_)_Σ=1_(Mg_0.98_Fe^2+^_0.02_)_Σ=1_(CO_3_)_2_ ; CO_2_ estimated by difference
92.29974, 0.0000000E+00
92.78186, 0.0000000E+00
93.26398, 0.0000000E+00
93.74609, 18.03473
94.22821, 17.48284
94.71033, 17.71749
95.19244, 18.62369
95.67456, 19.73706
96.15668, 20.86091
96.63879, 22.02871
97.12091, 23.47955
97.60303, 25.33125
98.08514, 27.16072
98.56726, 27.95579
99.04938, 27.65418
99.53149, 27.85233
100.0136, 29.74518
100.4957, 33.37152
100.9778, 36.41604
101.4600, 38.49377
101.9421, 40.03199
102.4242, 42.27204
102.9063, 45.47535
103.3884, 48.75565
103.8705, 51.39628
104.3527, 53.09771
104.8348, 55.12397
105.3169, 57.60125
105.7990, 60.51250
106.2811, 64.02798
106.7632, 68.58783
107.2454, 73.29453
107.7275, 77.32282
108.2096, 80.44321
108.6917, 83.26133
109.1738, 85.79840
109.6559, 88.01935
110.1381, 90.33035
110.6202, 92.29591
111.1023, 94.53510
111.5844, 97.69508
112.0665, 102.7143
112.5486, 107.8341
113.0308, 112.3820
113.5129, 115.7812
113.9950, 120.5607
114.4771, 128.4986
114.9592, 137.7651
115.4413, 145.6904
115.9235, 150.3535
116.4056, 154.4400
116.8877, 159.0460
117.3698, 164.3864
117.8519, 170.3196
118.3340, 177.5830
118.8162, 185.4994
119.2983, 192.3775
119.7804, 196.4223
120.2625, 199.8075
120.7446, 204.2850
121.2267, 211.0745
121.7089, 217.9384
122.1910, 223.7667
122.6731, 228.5821
123.1552, 232.4877
123.6373, 235.0647
124.1194, 236.8908
124.6016, 238.7175
125.0837, 240.7859
125.5658, 242.9029
126.0479, 244.6040
126.5300, 245.9408
127.0121, 247.7751
127.4943, 251.3855
127.9764, 256.0529
128.4585, 260.2064
128.9406, 262.1213
129.4227, 263.4492
129.9048, 267.5768
130.3869, 274.7167
130.8691, 282.5504
131.3512, 288.4021
131.8333, 292.5734
132.3154, 296.8788
132.7975, 302.3000
133.2796, 308.5820
133.7618, 314.2409
134.2439, 318.4581
134.7260, 320.9294
135.2081, 323.4017
135.6902, 326.6502
136.1723, 329.8188
136.6545, 332.4988
137.1366, 334.6926
137.6187, 336.8558
138.1008, 339.1529
138.5829, 341.2883
139.0650, 342.5215
139.5472, 342.6348
140.0293, 342.7536
140.5114, 343.7177
140.9935, 345.9000
141.4756, 346.9899
141.9577, 346.4413
142.4399, 344.8473
142.9220, 344.3977
143.4041, 345.3712
143.8862, 346.9252
144.3683, 348.5056
144.8504, 349.7911
145.3326, 351.8395
145.8147, 354.8947
146.2968, 358.8651
146.7789, 362.6169
147.2610, 365.6263
147.7431, 368.9536
148.2253, 373.4508
148.7074, 379.9026
149.1895, 386.3311
149.6716, 392.2492
150.1537, 397.6312
150.6358, 403.6110
151.1180, 410.0585
151.6001, 417.1389
152.0822, 424.9077
152.5643, 431.2138
153.0464, 440.3915
153.5285, 453.1881
154.0107, 469.6251
154.4928, 488.4161
154.9749, 508.8686
155.4570, 531.9935
155.9391, 558.7399
156.4212, 591.4781
156.9034, 626.0427
157.3855, 662.5165
157.8676, 701.4066
158.3497, 737.3461
158.8318, 770.6149
159.3139, 800.3214
159.7961, 825.5443
160.2782, 842.2114
160.7603, 857.5221
161.2424, 874.4531
161.7245, 893.7374
162.2066, 912.9642
162.6888, 929.9438
163.1709, 946.4790
163.6530, 965.5046
164.1351, 988.6815
164.6172, 1014.214
165.0993, 1041.174
165.5815, 1069.637
166.0636, 1099.078
166.5457, 1127.125
167.0278, 1156.070
167.5099, 1190.709
167.9920, 1235.707
168.4742, 1285.901
168.9563, 1336.036
169.4384, 1382.399
169.9205, 1435.769
170.4026, 1500.094
170.8847, 1576.575
171.3669, 1668.101
171.8490, 1772.274
172.3311, 1893.839
172.8132, 2037.153
173.2953, 2202.344
173.7774, 2392.276
174.2596, 2617.254
174.7417, 2872.332
175.2238, 3136.757
175.7059, 3435.183
176.1880, 3723.208
176.6701, 3942.667
177.1523, 4099.933
177.6344, 4155.497
178.1165, 4043.034
178.5986, 3775.816
179.0807, 3439.913
179.5628, 3046.909
180.0450, 2628.247
180.5271, 2252.276
181.0092, 1930.930
181.4913, 1658.238
181.9734, 1433.967
182.4555, 1256.957
182.9377, 1114.180
183.4198, 1001.832
183.9019, 915.0253
184.3840, 841.8341
184.8661, 779.8617
185.3482, 728.2461
185.8304, 685.2435
186.3125, 651.0726
186.7946, 622.3065
187.2767, 596.8346
187.7588, 574.3235
188.2409, 554.5609
188.7231, 537.6458
189.2052, 523.1143
189.6873, 509.8695
190.1694, 497.8255
190.6515, 486.5905
191.1336, 475.4478
191.6158, 464.5304
192.0979, 455.1584
192.5800, 447.8732
193.0621, 442.2969
193.5442, 437.0880
194.0263, 432.2140
194.5085, 427.6083
194.9906, 423.3564
195.4727, 419.4462
195.9548, 415.4118
196.4369, 411.0361
196.9190, 406.4521
197.4012, 402.2278
197.8833, 398.3292
198.3654, 394.9571
198.8475, 392.6601
199.3296, 391.4845
199.8117, 390.1725
200.2939, 388.2563
200.7760, 385.8684
201.2581, 383.9757
201.7402, 382.6730
202.2223, 381.6386
202.7044, 380.5780
203.1866, 379.5209
203.6687, 378.2698
204.1508, 376.6913
204.6329, 374.8179
205.1150, 373.0899
205.5971, 371.4247
206.0793, 370.0793
206.5614, 369.4086
207.0435, 369.5041
207.5256, 369.8483
208.0077, 370.4195
208.4898, 371.2040
208.9720, 371.6281
209.4541, 371.6897
209.9362, 371.3879
210.4183, 370.4741
210.9004, 368.5758
211.3825, 367.4585
211.8647, 367.8041
212.3468, 369.6427
212.8289, 371.0240
213.3110, 371.9024
213.7931, 372.3972
214.2752, 372.5788
214.7574, 372.3308
215.2395, 372.1392
215.7216, 372.1840
216.2037, 372.4838
216.6858, 372.4607
217.1679, 371.7953
217.6500, 371.2151
218.1322, 371.6685
218.6143, 373.5345
219.0964, 375.4855
219.5785, 377.1737
220.0606, 378.6018
220.5427, 379.9977
221.0249, 381.3301
221.5070, 382.6437
221.9891, 384.0042
222.4712, 385.5477
222.9533, 386.8019
223.4354, 387.2649
223.9176, 386.7978
224.3997, 388.2452
224.8818, 392.5426
225.3639, 397.7484
225.8460, 401.9219
226.3281, 404.9899
226.8103, 407.1280
227.2924, 408.3602
227.7745, 408.7154
228.2566, 407.8215
228.7387, 404.7546
229.2208, 401.4127
229.7030, 400.1154
230.1851, 402.4940
230.6672, 403.5886
231.1493, 401.7813
231.6314, 396.8993
232.1135, 394.1376
232.5957, 394.5377
233.0778, 395.9569
233.5599, 396.2658
234.0420, 394.8653
234.5241, 393.5074
235.0062, 392.3142
235.4884, 391.2899
235.9705, 391.4868
236.4526, 393.9583
236.9347, 396.5563
237.4168, 397.0985
237.8989, 394.0718
238.3811, 391.9453
238.8632, 391.6093
239.3453, 393.0491
239.8274, 394.7666
240.3095, 397.2996
240.7916, 399.5237
241.2738, 400.3568
241.7559, 398.9033
242.2380, 397.8326
242.7201, 397.4667
243.2022, 397.8086
243.6843, 398.8602
244.1665, 400.8684
244.6486, 403.3132
245.1307, 405.8624
245.6128, 408.7401
246.0949, 411.3249
246.5770, 413.8006
247.0592, 416.0506
247.5413, 416.7208
248.0234, 414.7491
248.5055, 412.5314
248.9876, 411.7347
249.4697, 412.7096
249.9519, 414.3545
250.4340, 416.9418
250.9161, 420.1996
251.3982, 422.4242
251.8803, 423.0345
252.3624, 423.3813
252.8446, 424.2586
253.3267, 425.7264
253.8088, 427.6045
254.2909, 430.0660
254.7730, 432.9386
255.2551, 435.5072
255.7373, 437.9106
256.2194, 439.7920
256.7015, 440.7223
257.1836, 439.9844
257.6657, 440.2506
258.1478, 441.7570
258.6299, 444.3253
259.1121, 447.7270
259.5942, 452.8960
260.0763, 457.2545
260.5584, 459.2841
261.0405, 457.7768
261.5226, 457.6943
262.0048, 459.5103
262.4869, 462.6082
262.9690, 465.4522
263.4511, 467.5222
263.9332, 470.4288
264.4153, 475.1817
264.8975, 482.5937
265.3796, 488.6952
265.8617, 493.0883
266.3438, 496.5622
266.8259, 500.6276
267.3080, 505.2791
267.7902, 510.4730
268.2723, 516.2203
268.7544, 522.7216
269.2365, 528.7165
269.7186, 533.6791
270.2007, 538.8005
270.6829, 546.0880
271.1650, 556.1111
271.6471, 566.1475
272.1292, 574.5712
272.6113, 581.2751
273.0934, 590.9254
273.5756, 604.0781
274.0577, 619.0292
274.5398, 633.3549
275.0219, 646.2858
275.5040, 662.1399
275.9861, 682.6320
276.4683, 707.4551
276.9504, 732.1308
277.4325, 755.8503
277.9146, 781.5165
278.3967, 812.6117
278.8788, 849.3597
279.3610, 887.8430
279.8431, 926.2800
280.3252, 965.2936
280.8073, 1010.560
281.2894, 1062.766
281.7715, 1118.366
282.2537, 1175.099
282.7358, 1233.009
283.2179, 1290.194
283.7000, 1346.883
284.1821, 1402.467
284.6642, 1453.093
285.1464, 1498.558
285.6285, 1543.060
286.1106, 1589.376
286.5927, 1637.450
287.0748, 1686.778
287.5569, 1737.666
288.0391, 1789.487
288.5212, 1838.074
289.0033, 1883.525
289.4854, 1933.558
289.9675, 1993.619
290.4496, 2063.134
290.9318, 2136.287
291.4139, 2212.561
291.8960, 2293.729
292.3781, 2380.520
292.8602, 2473.825
293.3423, 2574.520
293.8245, 2681.606
294.3066, 2796.940
294.7887, 2928.337
295.2708, 3076.114
295.7529, 3234.565
296.2350, 3398.158
296.7172, 3566.153
297.1993, 3737.509
297.6814, 3920.473
298.1635, 4106.858
298.6456, 4282.485
299.1277, 4449.374
299.6099, 4590.519
300.0920, 4696.312
300.5741, 4762.375
301.0562, 4772.134
301.5383, 4716.125
302.0204, 4602.552
302.5026, 4437.030
302.9847, 4219.118
303.4668, 3971.732
303.9489, 3689.052
304.4310, 3392.752
304.9131, 3108.741
305.3953, 2846.085
305.8774, 2601.740
306.3595, 2374.425
306.8416, 2165.872
307.3237, 1979.078
307.8058, 1822.706
308.2880, 1689.174
308.7701, 1570.279
309.2522, 1464.039
309.7343, 1369.632
310.2164, 1287.732
310.6985, 1216.665
311.1807, 1154.073
311.6628, 1101.562
312.1449, 1054.845
312.6270, 1011.430
313.1091, 970.4220
313.5912, 933.3422
314.0734, 901.5594
314.5555, 874.0143
315.0376, 848.5128
315.5197, 823.9604
316.0018, 801.1367
316.4839, 781.4802
316.9661, 765.2759
317.4482, 749.6437
317.9303, 732.3304
318.4124, 715.2996
318.8945, 700.6364
319.3766, 691.0019
319.8588, 682.2108
320.3409, 672.5413
320.8230, 661.9364
321.3051, 652.2960
321.7872, 644.1218
322.2693, 637.1718
322.7515, 631.2555
323.2336, 627.0303
323.7157, 623.1007
324.1978, 619.5738
324.6799, 616.2900
325.1620, 612.1735
325.6442, 604.7291
326.1263, 598.0659
326.6084, 594.3473
327.0905, 596.2607
327.5726, 597.6515
328.0547, 597.9039
328.5369, 597.3538
329.0190, 596.8815
329.5011, 595.1930
329.9832, 594.8234
330.4653, 596.8945
330.9474, 602.7198
331.4296, 607.5527
331.9117, 609.9979
332.3938, 612.0949
332.8759, 616.8929
333.3580, 626.3629
333.8401, 635.5892
334.3223, 642.6256
334.8044, 647.0264
335.2865, 654.8139
335.7686, 666.6531
336.2507, 681.0615
336.7328, 696.6403
337.2150, 713.9807
337.6971, 731.4928
338.1792, 750.2375
338.6613, 769.1556
339.1434, 782.9698
339.6255, 792.0005
340.1076, 795.1563
340.5898, 791.4135
341.0719, 780.5832
341.5540, 764.2352
342.0361, 741.2620
342.5182, 714.3671
343.0003, 689.6437
343.4825, 667.3953
343.9646, 646.6086
344.4467, 626.3146
344.9288, 606.9454
345.4109, 591.3934
345.8930, 580.4156
346.3752, 571.6561
346.8573, 561.5944
347.3394, 550.4012
347.8215, 541.3451
348.3036, 536.6140
348.7857, 534.8643
349.2679, 532.4945
349.7500, 529.5248
350.2321, 525.9073
350.7142, 520.5231
351.1963, 514.3710
351.6784, 510.4799
352.1606, 510.8785
352.6427, 512.7436
353.1248, 511.8583
353.6069, 508.6090
354.0890, 505.4888
354.5711, 504.6237
355.0533, 504.8333
355.5354, 504.3834
356.0175, 502.7831
356.4996, 500.9196
356.9817, 499.1932
357.4638, 497.7628
357.9460, 497.0055
358.4281, 497.9821
358.9102, 499.1599
359.3923, 498.8494
359.8744, 496.6553
360.3565, 495.3298
360.8387, 497.5378
361.3208, 501.1915
361.8029, 503.7000
362.2850, 503.4603
362.7671, 502.5111
363.2492, 501.5690
363.7314, 500.6517
364.2135, 499.7324
364.6956, 498.0549
365.1777, 496.8183
365.6598, 496.8943
366.1419, 499.9930
366.6241, 502.5242
367.1062, 503.8267
367.5883, 504.0891
368.0704, 503.8255
368.5525, 502.4435
369.0346, 501.1107
369.5168, 500.3625
369.9989, 500.7582
370.4810, 500.4361
370.9631, 498.3788
371.4452, 496.0316
371.9273, 495.4136
372.4095, 497.6834
372.8916, 500.0260
373.3737, 502.1795
373.8558, 504.1894
374.3379, 504.3625
374.8200, 501.6976
375.3022, 498.5452
375.7843, 497.0772
376.2664, 497.9995
376.7485, 498.0936
377.2306, 496.5407
377.7127, 494.0560
378.1949, 493.2053
378.6770, 494.3272
379.1591, 495.7283
379.6412, 496.3420
380.1233, 496.1619
380.6054, 496.5868
381.0876, 497.9180
381.5697, 499.2279
382.0518, 498.9920
382.5339, 497.2877
383.0160, 495.3602
383.4981, 493.0109
383.9803, 490.9152
384.4624, 491.9595
384.9445, 496.2573
385.4266, 500.2699
385.9087, 500.0902
386.3908, 497.1544
386.8730, 495.1808
387.3551, 495.2787
387.8372, 496.4471
388.3193, 497.7365
388.8014, 499.1119
389.2835, 500.4152
389.7657, 501.7537
390.2478, 502.8813
390.7299, 503.4729
391.2120, 503.4340
391.6941, 503.0985
392.1762, 502.6301
392.6584, 502.0213
393.1405, 501.2542
393.6226, 499.0478
394.1047, 497.7471
394.5868, 499.3687
395.0689, 503.8285
395.5511, 507.3517
396.0332, 508.3972
396.5153, 508.0618
396.9974, 507.1747
397.4795, 505.2926
397.9616, 503.5833
398.4438, 501.8403
398.9259, 500.3602
399.4080, 500.0673
399.8901, 501.9933
400.3722, 504.3169
400.8543, 506.4507
401.3365, 508.5097
401.8186, 510.0800
402.3007, 511.1883
402.7828, 511.7881
403.2649, 511.7248
403.7470, 510.4551
404.2292, 509.5659
404.7113, 509.5474
405.1934, 510.2936
405.6755, 510.3953
406.1576, 509.3730
406.6397, 508.7777
407.1219, 510.2634
407.6040, 514.2745
408.0861, 516.4552
408.5682, 515.9249
409.0503, 514.0643
409.5324, 513.5827
410.0146, 514.5168
410.4967, 515.5445
410.9788, 515.9230
411.4609, 515.8429
411.9430, 516.2094
412.4251, 517.0695
412.9073, 517.9535
413.3894, 518.3041
413.8715, 518.2894
414.3536, 518.4225
414.8357, 518.9100
415.3178, 519.5284
415.8000, 520.0326
416.2821, 520.4237
416.7642, 520.7091
417.2463, 521.0204
417.7284, 521.1678
418.2105, 520.6707
418.6927, 519.1174
419.1748, 518.3686
419.6569, 520.4319
420.1390, 523.8883
420.6211, 526.4885
421.1032, 527.2820
421.5854, 527.2664
422.0675, 526.8334
422.5496, 525.9988
423.0317, 524.6819
423.5138, 521.4747
423.9959, 518.6612
424.4781, 517.7181
424.9602, 520.6808
425.4423, 523.1473
425.9244, 524.5189
426.4065, 525.2338
426.8886, 526.3134
427.3708, 528.5634
427.8529, 530.1664
428.3350, 530.2046
428.8171, 528.2405
429.2992, 528.0356
429.7813, 530.7411
430.2635, 533.6838
430.7456, 533.7766
431.2277, 530.0121
431.7098, 527.4658
432.1919, 526.5758
432.6740, 527.7043
433.1562, 533.5817
433.6383, 545.0068
434.1204, 554.3009
434.6025, 555.4501
435.0846, 549.8516
435.5667, 545.6614
436.0489, 543.1479
436.5310, 542.3731
437.0131, 545.0491
437.4952, 549.8726
437.9773, 552.2798
438.4594, 549.4752
438.9415, 544.2684
439.4236, 538.4216
439.9058, 532.5636
440.3879, 531.1066
440.8700, 540.9586
441.3521, 554.7791
441.8342, 565.2941
442.3163, 571.5619
442.7985, 573.3038
443.2806, 566.8560
443.7627, 556.3973
444.2448, 548.4809
444.7269, 546.8859
445.2090, 546.9596
445.6912, 547.4035
446.1733, 548.1296
446.6554, 548.2755
447.1375, 546.1378
447.6196, 544.3663
448.1017, 544.6577
448.5839, 550.8719
449.0660, 554.0635
449.5481, 552.4613
450.0302, 548.2412
450.5123, 546.0935
450.9944, 547.0023
451.4766, 548.2858
451.9587, 549.2286
452.4408, 549.8353
452.9229, 549.9824
453.4050, 549.4102
453.8871, 548.9947
454.3693, 549.8350
454.8514, 552.0253
455.3335, 553.3350
455.8156, 553.0575
456.2977, 552.2645
456.7798, 553.6493
457.2620, 557.0160
457.7441, 559.6015
458.2262, 559.2612
458.7083, 557.2214
459.1904, 556.1836
459.6725, 556.2672
460.1547, 556.6097
460.6368, 556.1080
461.1189, 555.4341
461.6010, 555.7711
462.0831, 558.1381
462.5652, 560.6666
463.0474, 562.1845
463.5295, 562.7909
464.0116, 562.7134
464.4937, 561.1441
464.9758, 559.6315
465.4579, 559.0254
465.9401, 559.4570
466.4222, 560.5268
466.9043, 563.0036
467.3864, 565.6617
467.8685, 567.3466
468.3506, 567.0989
468.8328, 566.8436
469.3149, 566.3717
469.7970, 565.9760
470.2791, 566.9818
470.7612, 570.7914
471.2433, 573.8661
471.7255, 574.4984
472.2076, 572.2157
472.6897, 570.3396
473.1718, 568.6476
473.6539, 567.7206
474.1360, 568.5714
474.6182, 571.2856
475.1003, 573.7327
475.5824, 575.4799
476.0645, 576.6279
476.5466, 577.4701
477.0287, 577.9825
477.5109, 577.8227
477.9930, 575.6885
478.4751, 572.9736
478.9572, 572.6651
479.4393, 575.0939
479.9214, 578.2766
480.4036, 581.1630
480.8857, 583.4941
481.3678, 584.8289
481.8499, 584.5328
482.3320, 583.7773
482.8141, 583.1855
483.2963, 582.7047
483.7784, 582.1635
484.2605, 581.1053
484.7426, 580.3087
485.2247, 580.3488
485.7068, 581.5988
486.1890, 582.3345
486.6711, 581.7318
487.1532, 580.8438
487.6353, 580.6641
488.1174, 581.7858
488.5995, 582.6676
489.0817, 582.9979
489.5638, 582.9943
490.0459, 583.4830
490.5280, 584.7379
491.0101, 585.7610
491.4922, 585.8041
491.9744, 584.8289
492.4565, 585.3271
492.9386, 587.5051
493.4207, 590.2495
493.9028, 592.6229
494.3849, 594.5957
494.8671, 595.9088
495.3492, 596.5755
495.8313, 596.4587
496.3134, 594.3141
496.7955, 590.9191
497.2776, 589.1674
497.7598, 592.2159
498.2419, 596.8661
498.7240, 600.1569
499.2061, 601.9678
499.6882, 602.2001
500.1703, 598.7401
500.6525, 594.7291
501.1346, 593.2521
501.6167, 597.0829
502.0988, 600.3741
502.5809, 601.1175
503.0630, 600.2302
503.5452, 599.5891
504.0273, 598.7137
504.5094, 598.8903
504.9915, 601.2462
505.4736, 605.9310
505.9557, 607.6430
506.4379, 604.8637
506.9200, 601.1174
507.4021, 598.8219
507.8842, 598.2137
508.3663, 597.7536
508.8484, 597.0630
509.3306, 596.9648
509.8127, 599.6041
510.2948, 604.8998
510.7769, 609.0058
511.2590, 610.1403
511.7411, 609.2907
512.2233, 608.4880
512.7054, 607.7485
513.1875, 607.2310
513.6696, 607.2557
514.1517, 607.4957
514.6339, 607.4264
515.1160, 606.8880
515.5981, 606.4280
516.0802, 606.1642
516.5623, 606.2613
517.0444, 606.9425
517.5266, 609.0526
518.0087, 610.9518
518.4908, 612.0101
518.9729, 612.3408
519.4550, 612.5132
519.9371, 612.0673
520.4193, 611.9813
520.9014, 612.9067
521.3835, 615.4391
521.8656, 616.2312
522.3477, 613.8534
522.8298, 611.3179
523.3120, 612.0566
523.7941, 617.1039
524.2762, 620.4553
524.7583, 620.7243
525.2404, 619.4621
525.7225, 620.5660
526.2047, 624.0190
526.6868, 626.9670
527.1689, 627.9791
527.6510, 627.4984
528.1331, 626.1684
528.6152, 624.0224
529.0974, 622.5897
529.5795, 624.1876
530.0616, 626.8516
530.5437, 627.5342
531.0258, 624.9270
531.5079, 622.3981
531.9901, 621.6671
532.4722, 622.4130
532.9543, 624.1330
533.4364, 628.2822
533.9185, 631.7418
534.4006, 633.1647
534.8828, 632.7391
535.3649, 632.6381
535.8470, 634.1943
536.3291, 634.9615
536.8112, 633.3961
537.2933, 628.1060
537.7755, 626.2533
538.2576, 629.3181
538.7397, 633.7591
539.2218, 635.5358
539.7039, 634.3868
540.1860, 632.8902
540.6682, 631.1000
541.1503, 629.7971
541.6324, 631.3018
542.1145, 635.2968
542.5966, 638.6658
543.0787, 639.3363
543.5609, 638.5370
544.0430, 637.8956
544.5251, 637.4757
545.0072, 637.8654
545.4893, 640.5560
545.9714, 643.7527
546.4536, 645.5519
546.9357, 645.2504
547.4178, 644.3956
547.8999, 643.1234
548.3820, 641.8204
548.8641, 641.0198
549.3463, 640.8936
549.8284, 641.2049
550.3105, 642.3719
550.7926, 644.0809
551.2747, 644.4615
551.7568, 642.1276
552.2390, 640.7545
552.7211, 642.4927
553.2032, 647.7627
553.6853, 650.9691
554.1674, 651.8520
554.6495, 651.4845
555.1317, 650.5099
555.6138, 649.0814
556.0959, 648.1794
556.5780, 648.0021
557.0601, 648.3721
557.5422, 649.2743
558.0244, 650.5619
558.5065, 651.7987
558.9886, 652.8458
559.4707, 653.7012
559.9528, 654.0526
560.4349, 654.0551
560.9171, 654.6329
561.3992, 656.7665
561.8813, 659.1915
562.3634, 661.2314
562.8455, 662.9902
563.3276, 663.7639
563.8098, 662.0236
564.2919, 660.0639
564.7740, 660.1454
565.2561, 664.3863
565.7382, 666.1986
566.2203, 663.9027
566.7025, 659.4191
567.1846, 657.8292
567.6667, 659.4820
568.1488, 661.3832
568.6309, 662.4961
569.1130, 662.9263
569.5952, 662.8656
570.0773, 662.3290
570.5594, 661.6914
571.0415, 660.9125
571.5236, 660.3168
572.0057, 660.5143
572.4879, 661.6561
572.9700, 663.1155
573.4521, 664.8754
573.9342, 666.5377
574.4163, 667.5872
574.8984, 666.9066
575.3806, 666.6818
575.8627, 668.1490
576.3448, 670.5485
576.8269, 671.7679
577.3090, 669.9554
577.7911, 668.9288
578.2733, 670.0715
578.7554, 673.3053
579.2375, 675.2987
579.7196, 675.9073
580.2017, 675.6170
580.6838, 674.2613
581.1660, 671.8738
581.6481, 670.6679
582.1302, 670.7493
582.6123, 672.0908
583.0944, 675.6810
583.5765, 680.5591
584.0587, 683.9111
584.5408, 684.5104
585.0229, 683.9999
585.5050, 683.4740
585.9871, 683.1056
586.4692, 683.3126
586.9513, 685.4018
587.4334, 687.1171
