##NAMES=Dolomite
##RRUFFID=R100168
##IDEAL CHEMISTRY=CaMg(CO_3_)_2_
##LOCALITY=Oberdorf An Der Laming Moine near Bruck An Der Mur, Styria, Austria
##OWNER=RRUFF
##SOURCE=Mineralogical Museum, Harvard University
##DESCRIPTION=Colorless transparent cleavage rhomb
##STATUS=The identification of this mineral has been confirmed only by single crystal X-ray diffraction.
##URL=rruff.info/R100168
90.60547, 397.5521
91.08759, 415.0218
91.56970, 427.6211
92.05182, 425.1471
92.53394, 414.3580
93.01605, 400.2430
93.49817, 384.5397
93.98029, 368.2098
94.46240, 353.6139
94.94452, 342.2605
95.42664, 331.4131
95.90874, 319.3659
96.39086, 306.2445
96.87298, 293.5761
97.35509, 283.0458
97.83721, 274.9828
98.31933, 266.6282
98.80145, 257.6420
99.28356, 248.3796
99.76568, 238.6719
100.2478, 228.4981
100.7299, 218.5988
101.2120, 210.9401
101.6941, 205.8587
102.1763, 202.8299
102.6584, 204.0641
103.1405, 206.8896
103.6226, 207.4404
104.1047, 203.3362
104.5868, 195.3130
105.0690, 188.7136
105.5511, 184.1443
106.0332, 180.0217
106.5153, 175.6328
106.9974, 170.9951
107.4795, 166.3355
107.9617, 161.2594
108.4438, 156.3365
108.9259, 153.3761
109.4080, 154.0152
109.8901, 156.2303
110.3722, 157.1934
110.8544, 156.5426
111.3365, 155.3258
111.8186, 154.3953
112.3007, 153.4958
112.7828, 152.0473
113.2649, 148.9765
113.7471, 144.5159
114.2292, 141.9829
114.7113, 142.6884
115.1934, 144.3152
115.6755, 146.7779
116.1576, 149.5785
116.6397, 151.5678
117.1219, 151.3305
117.6040, 147.9351
118.0861, 145.0747
118.5682, 142.7585
119.0503, 140.8400
119.5324, 139.3513
120.0146, 138.2544
120.4967, 137.3437
120.9788, 136.2615
121.4609, 134.2412
121.9430, 133.3233
122.4251, 134.6274
122.9073, 136.6687
123.3894, 137.4809
123.8715, 136.1589
124.3536, 133.7897
124.8357, 133.3455
125.3178, 135.5569
125.8000, 137.5686
126.2821, 138.4885
126.7642, 138.3856
127.2463, 137.4082
127.7284, 135.2050
128.2105, 132.3832
128.6927, 130.0341
129.1748, 128.1932
129.6569, 126.8277
130.1390, 125.9560
130.6211, 125.6139
131.1032, 125.5612
131.5854, 125.7132
132.0675, 126.0914
132.5496, 126.9329
133.0317, 128.6233
133.5138, 130.4220
133.9959, 130.3318
134.4781, 126.6070
134.9602, 123.7677
135.4423, 123.5413
135.9244, 124.7280
136.4065, 125.7340
136.8886, 125.5388
137.3708, 124.2519
137.8529, 123.4255
138.3350, 123.6296
138.8171, 123.7526
139.2992, 123.4958
139.7813, 122.9391
140.2635, 122.2860
140.7456, 121.6719
141.2277, 121.0583
141.7098, 120.9515
142.1919, 121.6533
142.6740, 122.4946
143.1561, 122.9945
143.6383, 123.1716
144.1204, 123.5557
144.6025, 124.8162
145.0846, 127.1551
145.5667, 128.9012
146.0488, 129.5151
146.5310, 129.7194
147.0131, 130.1715
147.4952, 130.9492
147.9773, 132.1643
148.4594, 134.1941
148.9415, 136.8889
149.4237, 139.6707
149.9058, 142.1767
150.3879, 144.5981
150.8700, 147.3777
151.3521, 150.4872
151.8342, 154.2464
152.3164, 158.4350
152.7985, 163.1325
153.2806, 169.1555
153.7627, 177.3611
154.2448, 187.7959
154.7269, 198.7024
155.2091, 209.8582
155.6912, 221.4673
156.1733, 234.1967
156.6554, 247.9178
157.1375, 261.1902
157.6196, 272.2410
158.1018, 280.5165
158.5839, 288.0247
159.0660, 294.5957
159.5481, 300.7602
160.0302, 306.4520
160.5123, 311.7921
160.9945, 317.3958
161.4766, 324.1881
161.9587, 331.6120
162.4408, 341.6035
162.9229, 355.3577
163.4050, 370.8471
163.8871, 385.8447
164.3693, 399.5873
164.8514, 413.2617
165.3335, 429.8534
165.8156, 449.7553
166.2977, 471.9322
166.7798, 495.4793
167.2620, 521.4933
167.7441, 551.0824
168.2262, 584.3492
168.7083, 622.3859
169.1904, 667.6193
169.6725, 716.1109
170.1547, 775.3041
170.6368, 846.3519
171.1189, 929.8740
171.6010, 1027.790
172.0831, 1140.498
172.5652, 1270.817
173.0474, 1421.097
173.5295, 1598.006
174.0116, 1781.178
174.4937, 1969.825
174.9758, 2164.327
175.4579, 2317.448
175.9401, 2418.198
176.4222, 2455.847
176.9043, 2412.496
177.3864, 2274.841
177.8685, 2078.301
178.3506, 1853.957
178.8328, 1588.738
179.3149, 1341.693
179.7970, 1126.578
180.2791, 939.7104
180.7612, 783.9744
181.2433, 660.5387
181.7255, 564.2528
182.2076, 484.9178
182.6897, 427.3906
183.1718, 380.1298
183.6539, 341.5625
184.1360, 309.2957
184.6181, 281.4639
185.1003, 257.1842
185.5824, 236.3328
186.0645, 218.7598
186.5466, 206.5313
187.0287, 195.4114
187.5108, 185.1059
187.9930, 175.5471
188.4751, 166.6277
188.9572, 158.3026
189.4393, 150.7039
189.9214, 144.7600
190.4035, 142.0827
190.8857, 139.2813
191.3678, 135.6394
191.8499, 131.4781
192.3320, 127.3901
192.8141, 123.7290
193.2962, 120.4455
193.7784, 117.1179
194.2605, 113.1989
194.7426, 109.8024
195.2247, 107.4073
195.7068, 105.8561
196.1889, 104.7230
196.6711, 103.8687
197.1532, 103.1842
197.6353, 102.1470
198.1174, 100.4172
198.5995, 98.67825
199.0816, 97.24194
199.5638, 96.09756
200.0459, 95.16895
200.5280, 94.35091
201.0101, 93.77602
201.4922, 93.74019
201.9743, 95.04169
202.4565, 96.09219
202.9386, 95.18679
203.4207, 92.26575
203.9028, 89.50693
204.3849, 88.22829
204.8670, 87.81531
205.3492, 87.39658
205.8313, 86.69959
206.3134, 86.09986
206.7955, 86.34380
207.2776, 87.74809
207.7597, 88.51270
208.2419, 86.95722
208.7240, 84.65455
209.2061, 83.13387
209.6882, 82.99614
210.1703, 83.60801
210.6524, 83.88529
211.1346, 83.66719
211.6167, 83.52262
212.0988, 83.56818
212.5809, 83.78852
213.0630, 84.28415
213.5451, 85.15221
214.0273, 86.07335
214.5094, 86.24517
214.9915, 85.11109
215.4736, 84.21416
215.9557, 83.82452
216.4378, 83.78799
216.9200, 84.00478
217.4021, 84.43871
217.8842, 85.00022
218.3663, 85.42082
218.8484, 85.48653
219.3305, 85.72658
219.8127, 86.25288
220.2948, 86.94800
220.7769, 87.73351
221.2590, 88.57409
221.7411, 89.40591
222.2232, 90.02818
222.7054, 89.77537
223.1875, 90.14563
223.6696, 92.09225
224.1517, 94.40285
224.6338, 95.59978
225.1159, 95.02600
225.5980, 93.22702
226.0802, 91.76768
226.5623, 91.16140
227.0444, 90.29407
227.5265, 88.88249
228.0086, 87.22275
228.4907, 85.64021
228.9729, 84.25724
229.4550, 83.13768
229.9371, 82.50736
230.4192, 82.59236
230.9013, 82.76970
231.3834, 83.08974
231.8656, 83.41622
232.3477, 83.45650
232.8298, 83.04550
233.3119, 82.51571
233.7940, 82.72948
234.2761, 84.12951
234.7583, 85.03590
235.2404, 84.53621
235.7225, 83.34273
236.2046, 82.77402
236.6867, 83.37230
237.1688, 84.46897
237.6510, 84.89781
238.1331, 84.63063
238.6152, 84.22393
239.0973, 83.66000
239.5794, 83.09695
240.0615, 82.90610
240.5437, 83.24739
241.0258, 83.86922
241.5079, 84.53127
241.9900, 85.25071
242.4721, 85.76324
242.9542, 85.72669
243.4364, 85.39339
243.9185, 85.46547
244.4006, 86.22994
244.8827, 87.15073
245.3648, 87.76991
245.8469, 88.10806
246.3290, 88.15611
246.8112, 87.81851
247.2933, 87.18021
247.7754, 86.42180
248.2575, 85.37070
248.7396, 84.55473
249.2217, 84.50291
249.7039, 85.02727
250.1860, 85.50834
250.6681, 85.50292
251.1502, 85.16879
251.6323, 85.13408
252.1144, 85.62754
252.5966, 86.08964
253.0787, 86.13212
253.5608, 85.89698
254.0429, 85.70245
254.5250, 85.75016
255.0071, 85.97988
255.4893, 86.09224
255.9714, 85.74957
256.4535, 85.88120
256.9356, 87.13941
257.4177, 89.02622
257.8998, 90.76051
258.3820, 91.94539
258.8641, 92.65004
259.3462, 93.03638
259.8283, 92.70408
260.3104, 92.73621
260.7925, 93.63952
261.2747, 95.00893
261.7568, 96.30502
262.2389, 97.25125
262.7210, 97.98843
263.2031, 98.93113
263.6852, 100.1059
264.1674, 101.4744
264.6495, 103.1449
265.1316, 104.9177
265.6137, 106.5493
266.0958, 107.9260
266.5779, 109.1796
267.0601, 110.6258
267.5422, 112.3693
268.0243, 114.1220
268.5064, 115.7506
268.9885, 117.4126
269.4706, 119.1394
269.9528, 120.9581
270.4349, 123.0695
270.9170, 126.0052
271.3991, 130.6154
271.8812, 134.3054
272.3633, 135.8280
272.8455, 137.1906
273.3276, 139.8489
273.8097, 144.1775
274.2918, 149.6360
274.7739, 155.4682
275.2560, 161.7780
275.7382, 168.2934
276.2202, 174.6758
276.7024, 181.4663
277.1845, 188.8062
277.6666, 196.8532
278.1487, 205.9291
278.6308, 216.4889
279.1129, 228.7612
279.5951, 241.7635
280.0772, 255.5952
280.5593, 269.9444
281.0414, 284.9262
281.5235, 300.3696
282.0056, 315.8374
282.4878, 330.9385
282.9699, 345.8118
283.4520, 359.8463
283.9341, 372.0069
284.4162, 384.5165
284.8983, 398.4814
285.3805, 413.6040
285.8626, 428.8331
286.3447, 443.3031
286.8268, 456.9922
287.3089, 472.0766
287.7910, 488.2879
288.2732, 505.9796
288.7553, 524.5277
289.2374, 544.6401
289.7195, 567.4872
290.2016, 593.8560
290.6837, 623.2979
291.1659, 654.3093
291.6480, 685.2723
292.1301, 719.4476
292.6122, 756.2120
293.0943, 796.8284
293.5764, 843.1173
294.0586, 896.1840
294.5407, 954.9320
295.0228, 1016.708
295.5049, 1081.153
295.9870, 1149.551
296.4691, 1225.642
296.9513, 1304.137
297.4334, 1382.403
297.9155, 1458.802
298.3976, 1528.318
298.8797, 1582.709
299.3618, 1622.006
299.8440, 1641.269
300.3261, 1641.511
300.8082, 1621.700
301.2903, 1577.900
301.7724, 1510.591
302.2545, 1427.179
302.7367, 1334.514
303.2188, 1229.772
303.7009, 1126.839
304.1830, 1020.107
304.6651, 918.9442
305.1472, 828.5563
305.6294, 749.2667
306.1115, 679.1833
306.5936, 617.0990
307.0757, 563.0892
307.5578, 515.7192
308.0399, 475.2634
308.5221, 439.6714
309.0042, 409.0099
309.4863, 382.5838
309.9684, 359.6721
310.4505, 340.1236
310.9326, 323.5260
311.4148, 307.7518
311.8969, 291.6039
312.3790, 277.3963
312.8611, 266.5290
313.3432, 257.8415
313.8253, 249.3056
314.3075, 240.0094
314.7896, 230.5840
315.2717, 222.6390
315.7538, 217.1024
316.2359, 211.6957
316.7180, 205.8616
317.2001, 200.2408
317.6823, 195.6687
318.1644, 192.3468
318.6465, 189.6598
319.1286, 186.6251
319.6107, 182.7285
320.0928, 179.8951
320.5750, 179.0305
321.0571, 178.5577
321.5392, 177.0599
322.0213, 174.4983
322.5034, 172.0305
322.9855, 170.8785
323.4677, 171.2707
323.9498, 171.3614
324.4319, 170.6827
324.9140, 170.1787
325.3961, 170.5149
325.8782, 171.4744
326.3604, 172.2198
326.8425, 172.0384
327.3246, 171.1246
327.8067, 171.7474
328.2888, 174.1466
328.7709, 177.5510
329.2531, 181.8719
329.7352, 187.0556
330.2173, 192.9934
330.6994, 199.6226
331.1815, 207.0501
331.6636, 215.6571
332.1458, 224.5820
332.6279, 235.9604
333.1100, 249.7472
333.5921, 265.9964
334.0742, 285.1599
334.5563, 307.1489
335.0385, 331.3436
335.5206, 356.8148
336.0027, 384.5760
336.4848, 411.1882
336.9669, 439.8154
337.4490, 465.2626
337.9312, 485.9740
338.4133, 500.8836
338.8954, 507.5800
339.3775, 503.6890
339.8596, 488.8546
340.3417, 467.1895
340.8239, 435.5909
341.3060, 401.5236
341.7881, 365.0155
342.2702, 328.0721
342.7523, 294.0895
343.2344, 265.2606
343.7166, 241.1402
344.1987, 219.9008
344.6808, 202.1904
345.1629, 187.0068
345.6450, 174.9878
346.1271, 165.3014
346.6093, 157.2823
347.0914, 150.6907
347.5735, 145.2276
348.0556, 140.4959
348.5377, 136.6739
349.0198, 133.3158
349.5020, 130.6062
349.9841, 128.1447
350.4662, 125.6750
350.9483, 123.1829
351.4304, 120.8338
351.9125, 118.8575
352.3947, 117.3347
352.8768, 115.6668
353.3589, 113.1329
353.8410, 111.1698
354.3231, 110.5458
354.8052, 110.8944
355.2874, 111.4669
355.7695, 111.8259
356.2516, 111.9238
356.7337, 111.4427
357.2158, 109.5712
357.6979, 108.2320
358.1800, 108.1871
358.6621, 108.6370
359.1443, 108.6437
359.6264, 107.8492
360.1085, 106.7405
360.5906, 106.3198
361.0727, 107.1476
361.5548, 107.1738
362.0370, 105.3496
362.5191, 103.3560
363.0012, 102.3223
363.4833, 102.2791
363.9654, 102.4198
364.4475, 101.8880
364.9297, 100.6316
365.4118, 99.58117
365.8939, 98.91299
366.3760, 98.27000
366.8581, 97.31601
367.3402, 96.28800
367.8224, 95.72169
368.3045, 96.10835
368.7866, 97.02856
369.2687, 97.20278
369.7508, 96.35896
370.2329, 95.34478
370.7151, 94.19655
371.1972, 93.15058
371.6793, 92.47942
372.1614, 92.29233
372.6435, 92.30692
373.1256, 92.24189
373.6078, 92.10394
374.0899, 91.81266
374.5720, 91.45946
375.0541, 90.81564
375.5362, 89.39719
376.0183, 87.33510
376.5005, 85.78340
376.9826, 85.81633
377.4647, 87.01012
377.9468, 87.89675
378.4289, 88.53855
378.9110, 88.52120
379.3932, 87.21188
379.8753, 85.10048
380.3574, 83.03433
380.8395, 81.04358
381.3216, 79.42549
381.8037, 78.72177
382.2859, 78.94859
382.7680, 79.21683
383.2501, 79.24039
383.7322, 79.00425
384.2143, 78.45441
384.6964, 77.45188
385.1786, 76.63730
385.6607, 76.60171
386.1428, 77.04544
386.6249, 77.11385
387.1070, 76.52041
387.5891, 75.76830
388.0713, 75.49471
388.5534, 75.64996
389.0355, 75.70210
389.5176, 75.50426
389.9997, 75.17961
390.4818, 74.85938
390.9640, 74.54517
391.4461, 74.11525
391.9282, 73.37105
392.4103, 72.46213
392.8924, 72.12537
393.3745, 73.15211
393.8567, 73.83591
394.3388, 73.24557
394.8209, 71.86919
395.3030, 70.61543
395.7851, 69.79998
396.2672, 69.30917
396.7494, 68.93126
397.2315, 68.60230
397.7136, 68.57685
398.1957, 69.28973
398.6778, 70.02634
399.1599, 70.11732
399.6420, 69.55375
400.1241, 68.81726
400.6063, 68.29572
401.0884, 67.98447
401.5705, 68.02874
402.0526, 69.14475
402.5347, 69.78044
403.0168, 69.03742
403.4990, 67.58517
403.9811, 66.56554
404.4632, 66.53510
404.9453, 67.06934
405.4274, 67.12867
405.9095, 66.32204
406.3917, 65.68565
406.8738, 65.08208
407.3559, 64.76057
407.8380, 65.14155
408.3201, 66.11671
408.8022, 66.96439
409.2844, 66.84871
409.7665, 65.67385
410.2486, 65.08839
410.7307, 65.80360
411.2128, 66.35671
411.6949, 66.05094
412.1771, 65.35298
412.6592, 65.10496
413.1413, 65.79691
413.6234, 66.90476
414.1055, 67.22367
414.5876, 66.43915
415.0698, 65.82681
415.5519, 65.99924
416.0340, 66.24021
416.5161, 65.88809
416.9982, 64.91991
417.4803, 64.16391
417.9625, 64.60645
418.4446, 66.01224
418.9267, 66.70039
419.4088, 66.24703
419.8909, 65.61955
420.3730, 65.53663
420.8552, 65.73922
421.3373, 65.68076
421.8194, 65.00068
422.3015, 64.16593
422.7836, 63.70029
423.2657, 63.60332
423.7479, 63.74972
424.2300, 64.19685
424.7121, 64.77543
425.1942, 65.34480
425.6763, 66.02412
426.1584, 66.12302
426.6406, 64.78268
427.1227, 62.82784
427.6048, 61.70834
428.0869, 61.68746
428.5690, 62.08565
429.0511, 62.32861
429.5333, 62.42054
430.0154, 62.63807
430.4975, 63.44276
430.9796, 63.93950
431.4617, 63.16758
431.9438, 61.66231
432.4260, 60.99622
432.9081, 62.04168
433.3902, 63.83255
433.8723, 64.02357
434.3544, 60.90920
434.8365, 59.00622
435.3187, 59.26951
435.8008, 60.25905
436.2829, 60.96965
436.7650, 61.19607
437.2471, 61.04876
437.7292, 60.57472
438.2114, 59.75654
438.6935, 59.23958
439.1756, 59.38166
439.6577, 59.43031
440.1398, 59.16459
440.6219, 58.72178
441.1040, 58.34167
441.5862, 58.12574
442.0683, 57.87960
442.5504, 57.10053
443.0325, 55.34444
443.5146, 54.42354
443.9967, 55.42016
444.4789, 56.51558
444.9610, 56.64392
445.4431, 55.96355
445.9252, 55.37781
446.4073, 55.67285
446.8894, 56.55531
447.3716, 56.82722
447.8537, 56.22573
448.3358, 55.66816
448.8179, 55.76228
449.3000, 56.02295
449.7821, 55.83052
450.2643, 54.94614
450.7464, 54.13878
451.2285, 54.19436
451.7106, 54.94614
452.1927, 55.60530
452.6748, 56.08751
453.1570, 56.29119
453.6391, 55.89878
454.1212, 55.05546
454.6033, 54.43782
455.0854, 54.31716
455.5675, 54.40443
456.0497, 54.48448
456.5318, 54.54813
457.0139, 54.61880
457.4960, 54.74879
457.9781, 54.84283
458.4602, 54.57081
458.9424, 53.56519
459.4245, 53.00993
459.9066, 53.52366
460.3887, 54.35786
460.8708, 54.77443
461.3529, 54.65845
461.8351, 54.25779
462.3172, 53.75042
462.7993, 53.12597
463.2814, 52.82813
463.7635, 53.18134
464.2456, 53.46442
464.7278, 53.43737
465.2099, 53.25209
465.6920, 53.11859
466.1741, 53.11924
466.6562, 53.21004
467.1383, 53.31439
467.6205, 53.41601
468.1026, 53.58608
468.5847, 54.22289
469.0668, 54.56757
469.5489, 53.96610
470.0310, 52.74962
470.5132, 51.83667
470.9953, 51.86032
471.4774, 52.49501
471.9595, 52.93789
472.4416, 53.16962
472.9237, 53.28413
473.4059, 53.39234
473.8880, 53.33590
474.3701, 52.71354
474.8522, 51.44423
475.3343, 50.70858
475.8164, 51.76234
476.2986, 53.87444
476.7807, 55.28794
477.2628, 55.78412
477.7449, 55.67844
478.2270, 55.00584
478.7091, 53.88067
479.1913, 52.84197
479.6734, 51.52135
480.1555, 50.73164
480.6376, 51.48425
481.1197, 53.01151
481.6018, 53.53896
482.0839, 52.44005
482.5660, 50.82421
483.0482, 50.28058
483.5303, 51.27006
484.0124, 51.68513
484.4945, 50.76701
484.9766, 50.02109
485.4587, 50.55701
485.9409, 51.92571
486.4230, 52.93808
486.9051, 52.91792
487.3872, 52.17981
487.8693, 51.61366
488.3514, 51.21910
488.8336, 51.00718
489.3157, 50.97747
489.7978, 51.09892
490.2799, 51.48066
490.7620, 52.03572
491.2441, 52.44432
491.7263, 52.40938
492.2084, 52.01732
492.6905, 51.71033
493.1726, 51.59327
493.6547, 51.31032
494.1368, 50.31389
494.6190, 49.27570
495.1011, 48.95603
495.5832, 49.54407
496.0653, 50.38488
496.5474, 51.16819
497.0295, 51.81717
497.5117, 52.06233
497.9938, 51.82704
498.4759, 51.32513
498.9580, 50.52508
499.4401, 49.55787
499.9222, 49.08908
500.4044, 49.52874
500.8865, 50.09096
501.3686, 50.42195
501.8507, 50.57673
502.3328, 50.70957
502.8149, 50.87715
503.2971, 50.91359
503.7792, 50.50473
504.2613, 49.31493
504.7434, 48.94626
505.2255, 50.15442
505.7076, 51.34481
506.1898, 51.68970
506.6719, 51.43953
507.1540, 51.18011
507.6361, 51.21339
508.1182, 51.46703
508.6003, 51.82137
509.0825, 52.41543
509.5646, 52.73617
510.0467, 52.48407
510.5288, 52.15967
511.0109, 51.99838
511.4930, 52.00422
511.9752, 52.11674
512.4573, 52.46140
512.9394, 52.78381
513.4215, 52.37751
513.9036, 51.10944
514.3857, 49.91352
514.8679, 48.87754
515.3500, 48.31916
515.8321, 48.76654
516.3142, 50.36214
516.7963, 51.73608
517.2784, 52.38790
517.7606, 52.43565
518.2427, 51.71912
518.7248, 50.30365
519.2069, 49.33573
519.6890, 49.69144
520.1711, 51.07232
520.6533, 51.98082
521.1354, 52.53698
521.6175, 52.56160
522.0996, 51.48870
522.5817, 50.17664
523.0638, 49.48918
523.5460, 49.55886
524.0281, 50.03177
524.5102, 50.65511
524.9923, 51.41040
525.4744, 51.62054
525.9565, 50.79559
526.4387, 50.04126
526.9208, 49.49009
527.4029, 49.16106
527.8850, 49.09565
528.3671, 49.29673
528.8492, 49.65901
529.3314, 50.23198
529.8135, 50.95435
530.2956, 51.18221
530.7777, 50.73635
531.2598, 50.09029
531.7419, 49.30373
532.2241, 48.56300
532.7062, 48.22638
533.1883, 48.52662
533.6704, 48.90165
534.1525, 48.92124
534.6346, 48.73346
535.1168, 48.69588
535.5989, 48.89487
536.0810, 49.18567
536.5631, 49.42184
537.0452, 49.60064
537.5273, 49.85216
538.0095, 50.36213
538.4916, 50.73240
538.9737, 50.82160
539.4558, 50.67799
539.9379, 50.28780
540.4200, 49.67570
540.9022, 49.10064
541.3843, 48.95477
541.8664, 49.32661
542.3485, 49.62896
542.8306, 49.82514
543.3127, 49.98520
543.7948, 50.12736
544.2769, 50.24789
544.7590, 50.32611
545.2411, 50.34778
545.7233, 50.37489
546.2054, 50.46450
546.6875, 50.61927
547.1696, 50.93209
547.6517, 51.58355
548.1339, 52.07742
548.6160, 51.89241
549.0981, 51.20652
549.5802, 50.44860
550.0623, 49.30492
550.5444, 48.53018
551.0266, 48.99280
551.5087, 50.15909
551.9908, 50.71766
552.4729, 50.25410
552.9550, 49.48653
553.4371, 49.31152
553.9193, 49.85109
554.4014, 50.26143
554.8835, 50.50786
555.3656, 50.68471
555.8477, 50.84641
556.3298, 50.95561
556.8120, 50.95026
557.2941, 50.80884
557.7762, 50.56556
558.2583, 50.11886
558.7404, 49.36150
559.2225, 49.39326
559.7047, 51.18829
560.1868, 52.51757
560.6689, 51.90667
561.1510, 50.29591
561.6331, 49.30759
562.1152, 49.55570
562.5974, 50.17870
563.0795, 50.42707
563.5616, 50.39352
564.0437, 50.45224
564.5258, 50.71571
565.0079, 50.90244
565.4901, 50.76805
565.9722, 50.30048
566.4543, 49.67373
566.9364, 48.19527
567.4185, 47.34557
567.9006, 48.33078
568.3828, 50.04302
568.8649, 50.84597
569.3470, 50.35044
569.8291, 49.40446
570.3112, 48.94372
570.7933, 48.98050
571.2755, 49.26776
571.7576, 50.11138
572.2397, 50.82522
572.7218, 51.40726
573.2039, 51.70191
573.6860, 51.36305
574.1682, 50.33018
574.6503, 49.38083
575.1324, 49.36892
575.6145, 50.08825
576.0966, 50.68297
576.5787, 51.14984
577.0609, 51.27196
577.5430, 50.60283
578.0251, 49.59140
578.5072, 49.33894
578.9893, 50.21624
579.4714, 51.06444
579.9536, 51.36450
580.4357, 51.43407
580.9178, 51.81644
581.3999, 52.48567
581.8820, 52.72991
582.3641, 51.90038
582.8463, 50.27431
583.3284, 49.46478
583.8105, 49.97144
584.2926, 50.61796
584.7747, 51.80606
585.2568, 52.72756
585.7390, 52.51032
586.2211, 51.33189
586.7032, 50.23619
587.1853, 49.92379
587.6674, 50.25645
