##NAMES=Donnayite-(Y)
##RRUFFID=R110164
##IDEAL CHEMISTRY=NaSr_3_CaY(CO_3_)_6_&#183;3H_2_O
##LOCALITY=Mont St. Hilaire, Quebec, Canada
##OWNER=RRUFF
##SOURCE=Donald M Doell
##DESCRIPTION=Aggregate of greenish-grey platy crystals in a prismatic hexagonal stacking, associated with siderite, rhodochrosite and albite
##STATUS=The identification of this mineral has been confirmed by single-crystal X-ray diffraction.
##URL=rruff.info/R110164
179.2017, 501.6323
179.6838, 500.9960
180.1659, 500.6382
180.6480, 500.5956
181.1301, 500.7802
181.6122, 501.1075
182.0944, 501.5991
182.5765, 502.2981
183.0586, 503.7656
183.5407, 505.3843
184.0228, 505.5719
184.5049, 504.1019
184.9871, 502.4149
185.4692, 502.3963
185.9513, 503.7708
186.4334, 505.1127
186.9155, 505.8975
187.3976, 506.1367
187.8798, 505.7257
188.3619, 504.5299
188.8440, 503.1786
189.3261, 502.7368
189.8082, 503.1183
190.2903, 503.2928
190.7725, 502.0989
191.2546, 499.9752
191.7367, 499.9327
192.2188, 502.5602
192.7009, 506.0736
193.1830, 507.2720
193.6652, 506.1488
194.1473, 504.9901
194.6294, 505.4341
195.1115, 507.2796
195.5936, 507.7449
196.0757, 506.3248
196.5579, 504.0740
197.0400, 503.1818
197.5221, 503.7846
198.0042, 504.2634
198.4863, 503.5767
198.9684, 501.7146
199.4506, 500.0327
199.9327, 498.5873
200.4148, 497.4337
200.8969, 496.8537
201.3790, 496.9606
201.8611, 497.0190
202.3433, 496.5128
202.8254, 495.3790
203.3075, 494.4794
203.7896, 493.9296
204.2717, 493.6079
204.7538, 493.3603
205.2360, 493.3291
205.7181, 492.8251
206.2002, 491.1457
206.6823, 487.9880
207.1644, 485.5869
207.6465, 484.1979
208.1287, 483.6184
208.6108, 483.3228
209.0929, 483.4305
209.5750, 483.4789
210.0571, 483.0943
210.5392, 482.1151
211.0214, 481.4822
211.5035, 481.3756
211.9856, 481.6456
212.4677, 481.6956
212.9498, 481.3470
213.4319, 481.2067
213.9140, 481.7376
214.3962, 483.1872
214.8783, 484.4243
215.3604, 485.1867
215.8425, 485.6929
216.3246, 486.9211
216.8067, 489.3524
217.2889, 491.5940
217.7710, 492.6596
218.2531, 491.9941
218.7352, 491.7886
219.2173, 492.2941
219.6994, 493.3925
220.1816, 494.4945
220.6637, 495.5114
221.1458, 496.6850
221.6279, 498.2891
222.1100, 500.7953
222.5921, 502.4772
223.0743, 502.9995
223.5564, 502.5919
224.0385, 502.2645
224.5206, 501.8530
225.0027, 501.8031
225.4848, 502.5332
225.9670, 504.6095
226.4491, 506.0706
226.9312, 506.4860
227.4133, 506.1555
227.8954, 506.6152
228.3775, 508.3483
228.8597, 510.1594
229.3418, 511.2987
229.8239, 511.5294
230.3060, 511.6216
230.7881, 511.5953
231.2702, 511.4563
231.7524, 511.2674
232.2345, 511.0763
232.7166, 510.7462
233.1987, 510.1515
233.6808, 509.0614
234.1629, 508.1735
234.6451, 507.4319
235.1272, 506.9047
235.6093, 506.9922
236.0914, 508.2767
236.5735, 509.3793
237.0556, 509.4420
237.5378, 507.7939
238.0199, 506.6211
238.5020, 506.3012
238.9841, 506.5602
239.4662, 506.2612
239.9483, 505.1597
240.4305, 503.8665
240.9126, 502.6805
241.3947, 501.6202
241.8768, 500.6675
242.3589, 499.9208
242.8410, 499.2858
243.3232, 498.3994
243.8053, 497.2226
244.2874, 495.8428
244.7695, 494.2629
245.2516, 492.2368
245.7337, 490.5248
246.2159, 489.2849
246.6980, 488.3342
247.1801, 487.1799
247.6622, 485.9661
248.1443, 484.2964
248.6264, 481.8883
249.1086, 478.1959
249.5907, 475.0435
250.0728, 472.5801
250.5549, 470.6440
251.0370, 468.8808
251.5191, 467.5977
252.0013, 466.0146
252.4834, 463.6225
252.9655, 459.8188
253.4476, 456.9013
253.9297, 455.1574
254.4118, 454.1823
254.8940, 453.0734
255.3761, 451.8859
255.8582, 450.4532
256.3403, 448.5731
256.8224, 445.8824
257.3046, 443.9801
257.7867, 443.1561
258.2688, 442.9359
258.7509, 442.4456
259.2330, 441.6673
259.7151, 440.6439
260.1973, 439.2177
260.6794, 437.1439
261.1615, 435.9659
261.6436, 436.1427
262.1257, 436.8352
262.6078, 436.4809
263.0900, 434.5051
263.5721, 432.8946
264.0542, 432.4507
264.5363, 433.3784
265.0184, 434.1526
265.5005, 434.7704
265.9827, 435.2748
266.4648, 435.7556
266.9469, 436.2596
267.4290, 436.5952
267.9111, 436.6433
268.3932, 436.3732
268.8754, 436.2150
269.3575, 436.0714
269.8396, 436.1682
270.3217, 436.8101
270.8038, 438.0427
271.2859, 439.6139
271.7681, 441.6241
272.2502, 444.0270
272.7323, 445.6581
273.2144, 446.1542
273.6965, 446.5525
274.1786, 448.0525
274.6608, 450.8710
275.1429, 453.7152
275.6250, 456.3234
276.1071, 458.6954
276.5892, 460.8782
277.0714, 462.7894
277.5535, 464.6508
278.0356, 466.5631
278.5177, 468.4888
278.9998, 470.8994
279.4819, 474.1729
279.9641, 477.9549
280.4462, 480.3649
280.9283, 481.1356
281.4104, 481.7021
281.8925, 483.3440
282.3746, 486.0799
282.8568, 488.6336
283.3389, 490.7238
283.8210, 492.5763
284.3031, 494.8360
284.7852, 497.5590
285.2673, 500.4040
285.7495, 503.3318
286.2316, 506.3122
286.7137, 508.7227
287.1958, 510.2946
287.6779, 511.5594
288.1600, 513.7218
288.6422, 516.7950
289.1243, 519.8954
289.6064, 522.3854
290.0885, 524.3702
290.5706, 526.2942
291.0527, 528.1964
291.5349, 530.0148
292.0170, 531.6703
292.4991, 533.1418
292.9812, 534.4518
293.4633, 535.6795
293.9454, 536.7486
294.4276, 537.3715
294.9097, 537.4985
295.3918, 537.3167
295.8739, 536.9978
296.3560, 536.5558
296.8381, 536.0284
297.3203, 535.0848
297.8024, 534.1395
298.2845, 534.2910
298.7666, 535.6653
299.2487, 537.0944
299.7308, 537.3650
300.2130, 536.7407
300.6951, 535.9664
301.1772, 534.9833
301.6593, 534.1951
302.1414, 534.4205
302.6235, 535.6317
303.1057, 536.8239
303.5878, 536.9034
304.0699, 536.3918
304.5520, 536.2590
305.0341, 536.9954
305.5162, 538.0848
305.9984, 539.0395
306.4805, 539.8708
306.9626, 540.7162
307.4447, 541.5221
307.9268, 542.4365
308.4089, 543.6612
308.8911, 545.3619
309.3732, 547.2126
309.8553, 548.7576
310.3374, 550.1727
310.8195, 552.0959
311.3016, 555.5440
311.7838, 559.2928
312.2659, 562.2308
312.7480, 563.9006
313.2301, 565.2723
313.7122, 566.7484
314.1943, 568.3651
314.6765, 570.1696
315.1586, 572.3041
315.6407, 574.5439
316.1228, 576.9241
316.6049, 579.6015
317.0870, 581.7042
317.5692, 582.2957
318.0513, 582.1907
318.5334, 582.5222
319.0155, 584.3378
319.4976, 586.0859
319.9797, 586.9965
320.4619, 586.9528
320.9440, 586.9081
321.4261, 587.4556
321.9082, 587.9925
322.3903, 587.9440
322.8724, 587.1123
323.3546, 585.7469
323.8367, 583.5560
324.3188, 580.5936
324.8009, 578.1949
325.2830, 577.0605
325.7651, 576.2869
326.2473, 575.2975
326.7294, 574.2772
327.2115, 572.7916
327.6936, 570.5195
328.1757, 567.6744
328.6578, 565.1801
329.1400, 563.6451
329.6221, 561.9828
330.1042, 559.6517
330.5863, 555.5751
331.0684, 552.6324
331.5505, 551.4835
332.0327, 551.3490
332.5148, 550.5147
332.9969, 548.5516
333.4790, 546.4005
333.9611, 544.1501
334.4432, 541.4645
334.9254, 540.1087
335.4075, 540.9880
335.8896, 542.4187
336.3717, 541.9252
336.8538, 538.6998
337.3359, 535.4862
337.8180, 533.0518
338.3001, 531.3946
338.7823, 529.6023
339.2644, 527.5647
339.7465, 525.6722
340.2286, 524.5554
340.7107, 524.4941
341.1928, 523.6256
341.6750, 521.4626
342.1571, 518.3001
342.6392, 515.3822
343.1213, 512.7406
343.6034, 510.0723
344.0855, 507.0510
344.5677, 503.7216
345.0498, 500.4521
345.5319, 497.2010
346.0140, 494.2136
346.4961, 492.3724
346.9782, 491.6213
347.4604, 490.2875
347.9425, 486.8239
348.4246, 481.9126
348.9067, 478.3070
349.3888, 476.3153
349.8709, 474.8048
350.3531, 472.4555
350.8352, 469.4298
351.3173, 466.3466
351.7994, 463.4075
352.2815, 460.5667
352.7636, 457.6097
353.2458, 454.5329
353.7279, 451.7686
354.2100, 450.0141
354.6921, 448.7671
355.1742, 447.1620
355.6563, 444.7785
356.1385, 442.0589
356.6206, 439.3083
357.1027, 436.5311
357.5848, 433.8336
358.0669, 431.0886
358.5490, 428.5189
359.0312, 426.4096
359.5133, 424.9930
359.9954, 423.5943
360.4775, 421.9503
360.9596, 420.0367
361.4417, 417.8304
361.9239, 414.7566
362.4060, 411.8090
362.8881, 409.5504
363.3702, 408.1078
363.8523, 406.9956
364.3344, 406.6660
364.8166, 406.3727
365.2987, 405.2537
365.7808, 402.0298
366.2629, 399.0699
366.7450, 397.1500
367.2271, 396.2769
367.7093, 395.2619
368.1914, 393.9456
368.6735, 392.4534
369.1556, 390.8528
369.6377, 389.2843
370.1198, 387.4549
370.6020, 384.8929
371.0841, 381.9905
371.5662, 380.2622
372.0483, 380.8875
372.5304, 381.2643
373.0125, 380.1227
373.4947, 376.5189
373.9768, 374.2245
374.4589, 373.8978
374.9410, 374.3267
375.4231, 373.4466
375.9052, 370.6913
376.3874, 368.2145
376.8695, 366.6903
377.3516, 366.0931
377.8337, 365.8960
378.3158, 366.3223
378.7979, 366.5567
379.2801, 365.5895
379.7622, 363.3476
380.2443, 361.3939
380.7264, 360.0084
381.2085, 359.0983
381.6906, 358.4425
382.1728, 358.0409
382.6549, 357.8019
383.1370, 357.8170
383.6191, 357.9695
384.1012, 357.7836
384.5833, 357.1587
385.0655, 356.3250
385.5476, 355.5226
386.0297, 354.7496
386.5118, 354.0558
386.9939, 353.2998
387.4760, 352.6974
387.9582, 352.7223
388.4403, 353.3912
388.9224, 353.9978
389.4045, 353.9863
389.8866, 353.5555
390.3687, 352.9710
390.8509, 352.2642
391.3330, 351.5109
391.8151, 350.6177
392.2972, 349.6767
392.7793, 349.0347
393.2614, 349.2651
393.7436, 349.6059
394.2257, 349.3936
394.7078, 348.0957
395.1899, 347.2697
395.6720, 347.8023
396.1541, 349.0918
396.6363, 350.1732
397.1184, 350.8907
397.6005, 351.2859
398.0826, 351.2447
398.5647, 350.6904
399.0468, 350.3377
399.5290, 350.6846
400.0111, 351.0179
400.4932, 350.7365
400.9753, 348.5936
401.4574, 347.5411
401.9395, 348.3690
402.4217, 350.6027
402.9038, 351.9786
403.3859, 352.1767
403.8680, 351.9903
404.3501, 351.7523
404.8322, 351.4324
405.3144, 351.1593
405.7965, 350.8955
406.2786, 350.7249
406.7607, 350.8256
407.2428, 351.2453
407.7249, 351.6718
408.2071, 352.0009
408.6892, 352.2460
409.1713, 352.4570
409.6534, 352.6174
410.1355, 352.8357
410.6176, 353.2539
411.0998, 353.8352
411.5819, 354.3443
412.0640, 354.6883
412.5461, 355.0176
413.0282, 355.8229
413.5103, 356.9629
413.9925, 357.6345
414.4746, 357.0126
414.9567, 355.7444
415.4388, 354.7089
415.9209, 353.9320
416.4030, 353.6974
416.8852, 354.8715
417.3673, 356.6396
417.8494, 357.6793
418.3315, 356.6788
418.8136, 355.4655
419.2957, 355.2354
419.7779, 355.8816
420.2600, 356.6260
420.7421, 357.2346
421.2242, 357.7421
421.7063, 358.1680
422.1884, 358.5717
422.6706, 358.8164
423.1527, 358.6526
423.6348, 358.3353
424.1169, 358.3402
424.5990, 359.0207
425.0811, 359.7557
425.5633, 360.2610
426.0454, 360.4299
426.5275, 361.0970
427.0096, 362.7999
427.4917, 364.5711
427.9738, 365.6313
428.4560, 365.8334
428.9381, 365.5434
429.4202, 364.4050
429.9023, 362.8817
430.3844, 362.7049
430.8665, 364.3259
431.3487, 366.0165
431.8308, 366.8608
432.3129, 366.8130
432.7950, 366.8365
433.2771, 366.9141
433.7592, 367.1460
434.2414, 367.9455
434.7235, 369.2231
435.2056, 369.7701
435.6877, 368.6615
436.1698, 366.9680
436.6519, 367.2740
437.1341, 369.4828
437.6162, 371.7263
438.0983, 372.5430
438.5804, 372.5025
439.0625, 372.4996
439.5446, 372.6045
440.0268, 373.0304
440.5089, 374.1592
440.9910, 375.7481
441.4731, 377.2806
441.9552, 378.7125
442.4373, 379.8749
442.9195, 380.5601
443.4016, 380.7752
443.8837, 381.0093
444.3658, 381.4872
444.8479, 382.0447
445.3300, 382.5333
445.8122, 382.5038
446.2943, 382.9487
446.7764, 384.4738
447.2585, 386.6075
447.7406, 388.1427
448.2227, 387.8368
448.7049, 388.0979
449.1870, 389.9889
449.6691, 394.0118
450.1512, 396.5108
450.6333, 396.8403
451.1154, 396.3336
451.5976, 396.1776
452.0797, 396.4158
452.5618, 396.9183
453.0439, 397.7894
453.5260, 398.8558
454.0081, 399.5036
454.4903, 399.6372
454.9724, 400.0116
455.4545, 401.2123
455.9366, 403.0973
456.4187, 404.7197
456.9008, 406.0041
457.3830, 407.1910
457.8651, 408.4347
458.3472, 409.7700
458.8293, 411.2821
459.3114, 413.1646
459.7935, 415.0705
460.2757, 416.6305
460.7578, 417.8514
461.2399, 418.8290
461.7220, 419.3406
462.2041, 419.7921
462.6862, 420.6039
463.1684, 421.9062
463.6505, 423.2552
464.1326, 424.3988
464.6147, 425.4557
465.0968, 426.5996
465.5789, 427.8076
466.0611, 429.1653
466.5432, 430.9408
467.0253, 433.0514
467.5074, 434.6379
467.9895, 434.9023
468.4716, 435.1940
468.9538, 436.1966
469.4359, 438.4122
469.9180, 440.1806
470.4001, 441.2552
470.8822, 442.0609
471.3643, 443.2689
471.8465, 445.0195
472.3286, 446.7690
472.8107, 448.4900
473.2928, 450.0872
473.7749, 451.0228
474.2570, 451.1830
474.7392, 451.2343
475.2213, 451.5788
475.7034, 452.2193
476.1855, 453.2720
476.6676, 454.8542
477.1497, 456.5074
477.6319, 457.4245
478.1140, 457.8526
478.5961, 458.5803
479.0782, 460.3109
479.5603, 462.3013
480.0424, 463.8110
480.5246, 464.8434
481.0067, 465.3900
481.4888, 464.7441
481.9709, 463.9976
482.4530, 464.2081
482.9352, 465.9364
483.4173, 467.7201
483.8994, 469.0103
484.3815, 469.9860
484.8636, 470.9089
485.3457, 472.3428
485.8279, 473.2080
486.3100, 472.8091
486.7921, 471.1500
487.2742, 470.4557
487.7563, 471.3741
488.2384, 472.6088
488.7206, 473.4288
489.2027, 473.6129
489.6848, 474.0248
490.1669, 474.8076
490.6490, 475.6880
491.1311, 476.1655
491.6133, 476.1529
492.0954, 476.3299
492.5775, 477.0083
493.0596, 478.0033
493.5417, 478.6247
494.0238, 478.8615
494.5060, 478.9618
494.9881, 479.0069
495.4702, 479.0492
495.9523, 479.3098
496.4344, 479.8822
496.9165, 480.3288
497.3987, 479.9657
497.8808, 479.1851
498.3629, 478.7365
498.8450, 479.4156
499.3271, 480.1233
499.8092, 480.0957
500.2914, 479.4394
500.7735, 478.7496
501.2556, 478.0167
501.7377, 477.5009
502.2198, 477.3961
502.7019, 477.8863
503.1841, 478.3783
503.6662, 478.9488
504.1483, 479.4290
504.6304, 479.5937
505.1125, 479.1209
505.5946, 478.8723
506.0768, 479.1454
506.5589, 479.7578
507.0410, 479.7622
507.5231, 479.0070
508.0052, 478.0580
508.4873, 477.1041
508.9695, 476.1523
509.4516, 475.5164
509.9337, 475.2533
510.4158, 475.0561
510.8979, 474.4164
511.3800, 473.4812
511.8622, 472.9965
512.3443, 473.3588
512.8264, 473.9658
513.3085, 473.9915
513.7906, 473.5645
514.2728, 473.1424
514.7549, 473.1935
515.2370, 473.2310
515.7191, 472.7663
516.2012, 471.7410
516.6833, 470.7225
517.1655, 469.8851
517.6476, 469.2172
518.1297, 468.7126
518.6118, 468.6153
519.0939, 468.3814
519.5760, 467.7520
520.0582, 466.9416
520.5403, 466.4391
521.0224, 466.3690
521.5045, 466.4517
521.9866, 466.7539
522.4688, 467.2708
522.9509, 467.0609
523.4330, 465.8231
523.9151, 464.5406
524.3972, 464.0371
524.8793, 464.3301
525.3615, 464.4897
525.8436, 464.3905
526.3257, 464.2426
526.8078, 464.5278
527.2899, 465.1046
527.7720, 465.2663
528.2542, 464.2736
528.7363, 463.0741
529.2184, 463.1325
529.7005, 464.2384
530.1826, 465.2480
530.6647, 465.6619
531.1469, 465.5540
531.6290, 464.7624
532.1111, 463.0306
532.5932, 461.8403
533.0753, 462.2794
533.5574, 463.3427
534.0396, 463.9797
534.5217, 463.6182
535.0038, 463.2950
535.4859, 463.0808
535.9680, 463.0085
536.4501, 463.2023
536.9323, 463.8162
537.4144, 464.4279
537.8965, 464.7946
538.3786, 464.8952
538.8607, 465.5668
539.3428, 466.9729
539.8250, 468.4098
540.3071, 469.1697
540.7892, 469.3034
541.2713, 469.3600
541.7534, 469.3612
542.2355, 469.4594
542.7177, 469.9284
543.1998, 470.6864
543.6819, 471.4634
544.1640, 472.2344
544.6461, 472.8898
545.1282, 473.1162
545.6104, 473.0308
546.0925, 473.3513
546.5746, 474.4782
547.0567, 476.1158
547.5388, 478.3014
548.0209, 481.4380
548.5031, 483.7245
548.9852, 484.3426
549.4673, 484.1548
549.9494, 484.0603
550.4315, 484.0192
550.9136, 484.1446
551.3958, 484.3677
551.8779, 484.7805
552.3600, 485.7896
552.8421, 487.6528
553.3242, 489.2068
553.8063, 489.7842
554.2885, 489.5543
554.7706, 489.9569
555.2527, 491.0496
555.7348, 492.1812
556.2169, 492.8222
556.6990, 493.0622
557.1812, 493.0817
557.6633, 492.8469
558.1454, 492.6579
558.6275, 492.9459
559.1096, 493.4660
559.5917, 493.7896
560.0739, 493.7987
560.5560, 493.5189
561.0381, 492.7322
561.5202, 491.5966
562.0023, 490.7691
562.4844, 490.4712
562.9666, 490.4619
563.4487, 490.7630
563.9308, 491.5186
564.4129, 491.7900
564.8950, 491.3001
565.3771, 490.6197
565.8593, 490.1826
566.3414, 489.9926
566.8235, 490.0594
567.3056, 490.4855
567.7877, 491.0109
568.2698, 491.1186
568.7520, 490.8357
569.2341, 490.5780
569.7162, 490.5737
570.1983, 490.6555
570.6804, 490.4335
571.1625, 489.9676
571.6447, 489.6304
572.1268, 489.6963
572.6089, 489.9988
573.0910, 490.3745
573.5731, 490.8031
574.0552, 491.3675
574.5374, 492.5003
575.0195, 493.5947
575.5016, 494.0866
575.9837, 493.3988
576.4658, 492.6627
576.9479, 491.7963
577.4301, 490.9660
577.9122, 490.5035
578.3943, 490.4491
578.8764, 490.6623
579.3585, 491.2242
579.8406, 492.0366
580.3228, 492.3591
580.8049, 492.1143
581.2870, 491.8711
581.7691, 492.2428
582.2512, 492.9793
582.7333, 493.0244
583.2155, 492.2945
583.6975, 491.1818
584.1796, 489.2899
584.6617, 487.4386
585.1439, 487.1402
585.6260, 489.7190
586.1081, 492.2976
586.5902, 493.2382
587.0723, 492.9253
587.5544, 492.0967
588.0366, 489.4568
588.5187, 487.8433
589.0008, 488.8892
589.4829, 492.3988
589.9650, 494.3366
590.4471, 494.0185
590.9293, 492.9772
591.4114, 491.8474
591.8935, 490.6046
592.3756, 489.2810
592.8577, 487.7412
593.3398, 486.4720
593.8220, 486.2165
594.3041, 486.8169
594.7862, 487.0034
595.2683, 486.4984
595.7504, 485.6505
596.2325, 484.6477
596.7147, 483.6466
597.1968, 483.0582
597.6789, 483.1310
598.1610, 483.6241
598.6431, 484.5543
599.1252, 485.8203
599.6074, 486.9660
600.0895, 488.4564
600.5716, 489.2677
601.0537, 488.5721
601.5358, 485.7921
602.0179, 484.0953
602.5001, 484.1697
602.9822, 484.6824
603.4643, 484.6659
603.9464, 483.9995
604.4285, 483.1773
604.9106, 482.0184
605.3928, 481.0838
605.8749, 481.6660
606.3570, 483.5968
606.8391, 484.5642
607.3212, 483.3680
607.8033, 481.4765
608.2855, 481.0972
608.7676, 481.9629
609.2497, 483.0859
609.7318, 484.2338
610.2139, 485.1794
610.6960, 485.5111
611.1782, 485.2491
611.6603, 485.3968
612.1424, 486.8269
612.6245, 488.4012
613.1066, 489.4168
613.5887, 489.6612
614.0709, 489.7231
614.5530, 489.4289
615.0351, 489.1233
615.5172, 489.2188
615.9993, 489.8461
616.4814, 490.3087
616.9636, 490.5043
617.4457, 490.4953
617.9278, 490.1760
618.4099, 489.6201
618.8920, 489.6080
619.3741, 490.9307
619.8563, 492.6289
620.3384, 493.1936
620.8205, 492.7934
621.3026, 492.2900
621.7847, 491.8443
622.2668, 491.7229
622.7490, 492.1727
623.2311, 493.2411
623.7132, 494.5670
624.1953, 496.7260
624.6774, 498.6620
625.1595, 499.5748
625.6417, 498.4980
626.1238, 498.3797
626.6059, 499.6714
627.0880, 501.4460
627.5701, 502.4496
628.0522, 502.6124
628.5344, 502.6364
629.0165, 502.4652
629.4986, 502.5360
629.9807, 504.0436
630.4628, 506.7227
630.9449, 509.1057
631.4271, 510.3153
631.9092, 510.9689
632.3913, 511.4670
632.8734, 511.8973
633.3555, 512.7767
633.8376, 514.9910
634.3198, 517.2358
634.8019, 518.5908
635.2840, 518.7110
635.7661, 519.3163
636.2482, 521.0047
636.7303, 522.8900
637.2125, 524.3471
637.6946, 525.1570
638.1767, 526.2281
638.6588, 527.6653
639.1409, 529.2569
639.6230, 530.6588
640.1052, 531.8956
640.5873, 533.2060
641.0694, 534.6471
641.5515, 536.1849
642.0336, 537.8766
642.5157, 539.6125
642.9979, 541.1003
643.4800, 542.0436
643.9621, 542.7906
644.4442, 543.3273
644.9263, 543.7709
645.4084, 544.7595
645.8906, 547.1970
646.3727, 549.6105
646.8548, 551.1967
647.3369, 551.7938
647.8190, 552.8456
648.3011, 554.7852
648.7833, 556.5192
649.2654, 556.7584
649.7475, 555.2426
650.2296, 555.9278
650.7117, 559.4352
651.1938, 563.5807
651.6760, 565.2565
652.1581, 565.2816
652.6402, 566.2426
653.1223, 569.2095
653.6044, 572.4700
654.0865, 574.6702
654.5687, 576.0700
655.0508, 577.1924
655.5329, 577.9852
656.0150, 578.8054
656.4971, 579.6833
656.9792, 580.6707
657.4614, 582.0413
657.9435, 584.2834
658.4256, 586.2127
658.9077, 587.2758
659.3898, 587.5289
659.8719, 588.5673
660.3541, 590.6019
660.8362, 592.4226
661.3183, 592.8043
661.8004, 592.2200
662.2825, 592.6791
662.7646, 594.3339
663.2468, 596.2844
663.7289, 598.0059
664.2110, 599.4457
664.6931, 600.5020
665.1752, 601.0640
665.6573, 601.5012
666.1395, 601.7355
666.6216, 602.0413
667.1037, 602.7554
667.5858, 604.3121
668.0679, 605.7980
668.5500, 607.0487
669.0322, 608.2265
669.5143, 609.7731
669.9964, 611.8669
670.4785, 613.4397
670.9606, 613.9506
671.4427, 613.8664
671.9249, 614.5778
672.4070, 615.9816
672.8891, 617.2523
673.3712, 617.3837
673.8533, 617.4163
674.3354, 618.7559
674.8176, 621.3148
