##NAMES=Donpeacorite
##RRUFFID=R060646
##IDEAL CHEMISTRY=Mn^2+^MgSi_2_O_6_
##LOCALITY=Balmat, Balmat-Edwards Zinc District, St. Lawrence County, New York, USA
##OWNER=RRUFF
##SOURCE=Michael Scott
##DESCRIPTION=Orangish-brown fine grained massive
##STATUS=The identification of this mineral is confirmed by single-crystal X-ray diffraction and chemical analysis.
##URL=rruff.info/R060646
##MEASURED CHEMISTRY=(Mn^2+^_0.58_Mg_0.40_Ca_0.03_)_Î£=1_Mg_1.00_(Si_1.00_O_3_)_2_
182.7401, 6211.382
183.2222, 6243.988
183.7043, 6282.999
184.1864, 6325.034
184.6686, 6378.858
185.1507, 6418.692
185.6328, 6431.101
186.1149, 6430.558
186.5970, 6432.412
187.0791, 6443.140
187.5613, 6462.149
188.0434, 6490.020
188.5255, 6536.076
189.0076, 6574.206
189.4897, 6595.671
189.9718, 6608.857
190.4540, 6620.889
190.9361, 6634.234
191.4182, 6651.310
191.9003, 6680.384
192.3824, 6736.984
192.8645, 6777.229
193.3467, 6785.250
193.8288, 6780.475
194.3109, 6783.116
194.7930, 6801.357
195.2751, 6824.930
195.7572, 6829.877
196.2394, 6801.230
196.7215, 6781.882
197.2036, 6783.724
197.6857, 6792.151
198.1678, 6792.863
198.6499, 6781.287
199.1321, 6766.441
199.6142, 6767.601
200.0963, 6801.475
200.5784, 6817.218
201.0605, 6793.979
201.5426, 6764.431
202.0248, 6758.919
202.5069, 6784.149
202.9890, 6816.690
203.4711, 6816.720
203.9532, 6765.954
204.4353, 6722.980
204.9175, 6688.770
205.3996, 6662.940
205.8817, 6646.966
206.3638, 6640.382
206.8459, 6639.294
207.3280, 6639.292
207.8102, 6642.324
208.2923, 6641.224
208.7744, 6634.619
209.2565, 6625.514
209.7386, 6615.904
210.2207, 6605.858
210.7029, 6593.487
211.1850, 6573.883
211.6671, 6540.333
212.1492, 6525.417
212.6313, 6548.219
213.1134, 6572.064
213.5956, 6576.201
214.0777, 6562.627
214.5598, 6548.296
215.0419, 6550.741
215.5240, 6573.007
216.0061, 6591.971
216.4883, 6610.891
216.9704, 6623.678
217.4525, 6625.125
217.9346, 6617.769
218.4167, 6608.140
218.8988, 6600.456
219.3810, 6594.519
219.8631, 6597.949
220.3452, 6622.000
220.8273, 6644.961
221.3094, 6663.233
221.7915, 6675.861
222.2737, 6682.022
222.7558, 6680.545
223.2379, 6672.061
223.7200, 6663.420
224.2021, 6650.059
224.6842, 6641.899
225.1664, 6644.941
225.6485, 6653.660
226.1306, 6660.662
226.6127, 6662.033
227.0948, 6657.658
227.5770, 6646.150
228.0591, 6614.534
228.5412, 6593.711
229.0233, 6594.473
229.5054, 6606.027
229.9875, 6617.739
230.4697, 6625.061
230.9518, 6626.979
231.4339, 6619.655
231.9160, 6566.737
232.3981, 6599.678
232.8802, 6617.278
233.3624, 6620.363
233.8445, 6565.455
234.3266, 6585.433
234.8087, 6575.400
235.2908, 6564.136
235.7729, 6594.654
236.2551, 6548.181
236.7372, 6578.036
237.2193, 6577.422
237.7014, 6590.753
238.1835, 6573.888
238.6656, 6566.350
239.1478, 6589.017
239.6299, 6594.959
240.1120, 6574.618
240.5941, 6563.290
241.0762, 6571.461
241.5583, 6528.775
242.0405, 6563.241
242.5226, 6582.367
243.0047, 6586.976
243.4868, 6533.593
243.9689, 6555.096
244.4510, 6546.587
244.9332, 6536.848
245.4153, 6568.890
245.8974, 6523.942
246.3795, 6555.321
246.8616, 6556.232
247.3437, 6571.087
247.8259, 6554.736
248.3080, 6542.841
248.7901, 6536.064
249.2722, 6543.971
249.7543, 6560.660
250.2364, 6577.295
250.7186, 6590.701
251.2007, 6599.411
251.6828, 6598.049
252.1649, 6581.300
252.6470, 6565.047
253.1291, 6555.292
253.6113, 6548.292
254.0934, 6539.305
254.5755, 6525.901
255.0576, 6512.717
255.5397, 6508.637
256.0219, 6516.819
256.5040, 6522.142
256.9861, 6515.487
257.4682, 6507.083
257.9503, 6505.057
258.4324, 6511.274
258.9146, 6519.453
259.3967, 6523.050
259.8788, 6521.876
260.3609, 6520.298
260.8430, 6516.004
261.3251, 6514.598
261.8073, 6523.315
262.2894, 6541.294
262.7715, 6555.150
263.2536, 6551.144
263.7357, 6533.027
264.2178, 6523.354
264.7000, 6527.884
265.1821, 6536.067
265.6642, 6542.665
266.1463, 6546.969
266.6284, 6545.952
267.1105, 6530.309
267.5927, 6509.793
268.0748, 6507.945
268.5569, 6530.591
269.0390, 6554.588
269.5211, 6561.909
270.0032, 6530.717
270.4854, 6569.946
270.9675, 6593.833
271.4496, 6603.204
271.9317, 6554.583
272.4138, 6580.847
272.8959, 6577.101
273.3781, 6572.125
273.8602, 6608.928
274.3423, 6568.742
274.8244, 6604.883
275.3065, 6610.556
275.7886, 6630.173
276.2708, 6619.595
276.7529, 6618.343
277.2350, 6647.296
277.7171, 6659.525
278.1992, 6645.470
278.6813, 6665.974
279.1635, 6624.733
279.6456, 6637.674
280.1277, 6673.992
280.6098, 6683.046
281.0919, 6699.579
281.5740, 6703.668
282.0562, 6697.812
282.5383, 6680.368
283.0204, 6674.455
283.5025, 6692.829
283.9846, 6717.414
284.4667, 6731.531
284.9489, 6734.170
285.4310, 6734.338
285.9131, 6738.452
286.3952, 6746.757
286.8773, 6758.633
287.3594, 6778.456
287.8416, 6797.287
288.3237, 6813.051
288.8058, 6824.576
289.2879, 6827.403
289.7700, 6817.372
290.2521, 6799.600
290.7343, 6796.187
291.2164, 6823.008
291.6985, 6843.539
292.1806, 6847.476
292.6627, 6843.892
293.1448, 6844.158
293.6270, 6852.252
294.1091, 6864.452
294.5912, 6874.631
295.0733, 6886.001
295.5554, 6888.192
296.0375, 6866.350
296.5197, 6846.646
297.0018, 6854.176
297.4839, 6887.472
297.9660, 6920.253
298.4481, 6922.274
298.9302, 6885.591
299.4124, 6873.995
299.8945, 6913.882
300.3766, 6951.685
300.8587, 6971.596
301.3408, 6974.947
301.8229, 6965.827
302.3050, 6943.883
302.7871, 6914.948
303.2693, 6910.768
303.7514, 6955.081
304.2335, 6989.679
304.7156, 7002.446
305.1977, 7000.603
305.6798, 6987.952
306.1620, 6965.335
306.6441, 6943.580
307.1262, 6941.929
307.6083, 6965.189
308.0904, 6990.731
308.5725, 7022.126
309.0547, 7049.274
309.5368, 7064.328
310.0189, 7067.164
310.5010, 7064.981
310.9831, 7060.751
311.4652, 7055.240
311.9474, 7058.432
312.4295, 7077.955
312.9116, 7096.201
313.3937, 7095.131
313.8758, 7083.633
314.3579, 7085.677
314.8401, 7125.443
315.3222, 7179.480
315.8043, 7203.610
316.2864, 7193.314
316.7685, 7179.186
317.2506, 7173.271
317.7328, 7175.574
318.2149, 7187.394
318.6970, 7214.855
319.1791, 7241.284
319.6612, 7253.742
320.1433, 7254.224
320.6255, 7249.586
321.1076, 7237.455
321.5897, 7228.616
322.0718, 7244.007
322.5539, 7286.615
323.0360, 7326.613
323.5182, 7357.417
324.0003, 7380.311
324.4824, 7395.483
324.9645, 7403.070
325.4466, 7407.097
325.9287, 7409.291
326.4109, 7409.224
326.8930, 7421.538
327.3751, 7457.600
327.8572, 7495.154
328.3393, 7522.905
328.8214, 7541.773
329.3036, 7556.938
329.7857, 7571.705
330.2678, 7584.886
330.7499, 7590.598
331.2320, 7582.516
331.7141, 7574.755
332.1963, 7563.839
332.6784, 7556.164
333.1605, 7562.987
333.6426, 7586.327
334.1247, 7611.445
334.6068, 7614.911
335.0890, 7585.643
335.5711, 7564.466
336.0532, 7553.613
336.5353, 7547.804
337.0174, 7546.688
337.4995, 7548.666
337.9817, 7550.556
338.4638, 7549.961
338.9459, 7547.041
339.4280, 7542.702
339.9101, 7532.872
340.3922, 7528.048
340.8744, 7533.542
341.3565, 7544.314
341.8386, 7554.287
342.3207, 7561.297
342.8028, 7566.372
343.2849, 7571.886
343.7671, 7578.571
344.2492, 7579.823
344.7313, 7563.071
345.2134, 7549.501
345.6955, 7559.985
346.1776, 7594.766
346.6598, 7627.999
347.1419, 7636.818
347.6240, 7631.715
348.1061, 7645.958
348.5882, 7689.766
349.0703, 7731.135
349.5525, 7737.420
350.0346, 7720.084
350.5167, 7712.750
350.9988, 7727.275
351.4809, 7749.159
351.9630, 7767.729
352.4452, 7783.510
352.9273, 7800.258
353.4094, 7820.898
353.8915, 7842.253
354.3736, 7854.284
354.8557, 7849.317
355.3379, 7852.785
355.8200, 7885.957
356.3021, 7923.486
356.7842, 7927.609
357.2663, 7892.442
357.7484, 7853.467
358.2306, 7853.179
358.7127, 7903.246
359.1948, 7926.437
359.6769, 7906.411
360.1590, 7880.079
360.6411, 7854.190
361.1233, 7835.324
361.6054, 7837.270
362.0875, 7870.675
362.5696, 7922.228
363.0517, 7940.919
363.5338, 7891.537
364.0160, 7865.993
364.4981, 7890.107
364.9802, 7930.275
365.4623, 7960.133
365.9444, 7973.419
366.4265, 7978.718
366.9087, 7986.378
367.3908, 7997.124
367.8729, 7998.211
368.3550, 7981.247
368.8371, 7963.734
369.3192, 7953.530
369.8014, 7949.587
370.2835, 7949.016
370.7656, 7950.137
371.2477, 7954.103
371.7298, 7967.693
372.2119, 7993.279
372.6941, 8004.414
373.1762, 7977.733
373.6583, 7937.397
374.1404, 7922.771
374.6225, 7943.037
375.1046, 7960.062
375.5868, 7945.801
376.0689, 7915.714
376.5510, 7903.729
377.0331, 7918.565
377.5152, 7937.132
377.9973, 7934.090
378.4795, 7906.521
378.9616, 7889.670
379.4437, 7899.854
379.9258, 7906.575
380.4079, 7881.402
380.8900, 7836.681
381.3722, 7811.094
381.8543, 7827.752
382.3364, 7870.013
382.8185, 7887.383
383.3006, 7850.312
383.7827, 7825.838
384.2649, 7828.042
384.7470, 7835.057
385.2291, 7825.908
385.7112, 7799.278
386.1933, 7771.975
386.6754, 7762.502
387.1576, 7771.967
387.6397, 7778.379
388.1218, 7775.735
388.6039, 7777.214
389.0860, 7791.765
389.5681, 7811.982
390.0503, 7825.801
390.5324, 7827.465
391.0145, 7822.766
391.4966, 7821.646
391.9787, 7824.968
392.4608, 7823.495
392.9430, 7812.468
393.4251, 7797.563
393.9072, 7783.264
394.3893, 7769.677
394.8714, 7758.978
395.3535, 7757.599
395.8357, 7757.974
396.3178, 7746.964
396.7999, 7723.181
397.2820, 7691.976
397.7641, 7650.989
398.2462, 7605.846
398.7284, 7581.978
399.2105, 7600.985
399.6926, 7616.795
400.1747, 7607.392
400.6568, 7584.079
401.1389, 7565.858
401.6211, 7558.908
402.1032, 7556.402
402.5853, 7547.249
403.0674, 7525.275
403.5495, 7516.426
404.0316, 7535.294
404.5138, 7551.804
404.9959, 7542.521
405.4780, 7517.602
405.9601, 7506.193
406.4422, 7529.165
406.9243, 7573.688
407.4065, 7592.100
407.8886, 7568.744
408.3707, 7551.174
408.8528, 7551.472
409.3349, 7558.654
409.8170, 7564.844
410.2992, 7568.692
410.7813, 7572.773
411.2634, 7581.568
411.7455, 7593.205
412.2276, 7595.896
412.7097, 7584.367
413.1919, 7574.750
413.6740, 7582.652
414.1561, 7600.177
414.6382, 7611.938
415.1203, 7615.687
415.6024, 7612.268
416.0846, 7592.289
416.5667, 7564.392
417.0488, 7560.570
417.5309, 7596.232
418.0130, 7642.946
418.4951, 7656.137
418.9773, 7621.340
419.4594, 7601.566
419.9415, 7614.482
420.4236, 7630.286
420.9057, 7628.987
421.3878, 7612.343
421.8700, 7591.428
422.3521, 7572.870
422.8342, 7556.493
423.3163, 7541.321
423.7984, 7524.590
424.2805, 7513.791
424.7627, 7513.112
425.2448, 7515.743
425.7269, 7517.963
426.2090, 7518.353
426.6911, 7514.750
427.1732, 7499.566
427.6554, 7474.938
428.1375, 7471.215
428.6196, 7502.338
429.1017, 7527.514
429.5838, 7519.577
430.0659, 7494.183
430.5481, 7472.874
431.0302, 7459.258
431.5123, 7453.819
431.9944, 7463.373
432.4765, 7482.548
432.9586, 7489.917
433.4408, 7477.360
433.9229, 7460.890
434.4050, 7461.839
434.8871, 7482.893
435.3692, 7491.507
435.8513, 7478.392
436.3335, 7459.154
436.8156, 7437.186
437.2977, 7416.901
437.7798, 7408.243
438.2619, 7416.943
438.7440, 7436.231
439.2262, 7449.120
439.7083, 7453.771
440.1904, 7454.735
440.6725, 7450.226
441.1546, 7444.170
441.6367, 7438.524
442.1189, 7433.652
442.6010, 7429.471
443.0831, 7426.312
443.5652, 7423.672
444.0473, 7418.787
444.5294, 7409.623
445.0116, 7403.905
445.4937, 7404.701
445.9758, 7410.527
446.4579, 7423.414
446.9400, 7445.340
447.4221, 7460.113
447.9043, 7451.947
448.3864, 7430.716
448.8685, 7417.744
449.3506, 7416.261
449.8327, 7416.223
450.3148, 7409.501
450.7970, 7396.902
451.2791, 7387.458
451.7612, 7379.576
452.2433, 7376.378
452.7254, 7384.513
453.2076, 7395.954
453.6897, 7397.400
454.1718, 7385.722
454.6539, 7372.022
455.1360, 7371.867
455.6181, 7389.116
456.1003, 7398.016
456.5824, 7388.447
457.0645, 7380.551
457.5466, 7383.036
458.0287, 7390.581
458.5108, 7394.541
458.9930, 7391.322
459.4751, 7383.031
459.9572, 7369.785
460.4393, 7351.453
460.9214, 7340.624
461.4035, 7341.006
461.8857, 7348.042
462.3678, 7360.780
462.8499, 7377.602
463.3320, 7389.512
463.8141, 7393.756
464.2962, 7392.383
464.7784, 7381.553
465.2605, 7365.313
465.7426, 7360.880
466.2247, 7377.488
466.7068, 7403.627
467.1889, 7417.288
467.6711, 7416.478
468.1532, 7405.354
468.6353, 7367.912
469.1174, 7334.164
469.5995, 7327.092
470.0816, 7340.744
470.5638, 7354.606
471.0459, 7355.827
471.5280, 7348.346
472.0101, 7342.925
472.4922, 7338.821
472.9743, 7338.952
473.4565, 7352.262
473.9386, 7363.987
474.4207, 7360.888
474.9028, 7344.278
475.3849, 7331.461
475.8670, 7336.057
476.3492, 7349.271
476.8313, 7355.802
477.3134, 7355.232
477.7955, 7355.234
478.2776, 7361.545
478.7597, 7369.261
479.2419, 7363.459
479.7240, 7331.994
480.2061, 7318.759
480.6882, 7352.330
481.1703, 7394.114
481.6524, 7406.488
482.1346, 7389.695
482.6167, 7367.056
483.0988, 7354.446
483.5809, 7352.250
484.0630, 7363.783
484.5451, 7403.531
485.0273, 7433.135
485.5094, 7448.671
485.9915, 7452.329
486.4736, 7438.716
486.9557, 7410.888
487.4378, 7389.470
487.9200, 7396.012
488.4021, 7421.079
488.8842, 7434.792
489.3663, 7434.819
489.8484, 7435.366
490.3305, 7441.883
490.8127, 7454.539
491.2948, 7474.559
491.7769, 7508.040
492.2590, 7531.437
492.7411, 7531.758
493.2232, 7520.501
493.7054, 7506.153
494.1875, 7491.864
494.6696, 7485.425
495.1517, 7493.869
495.6338, 7514.557
496.1159, 7530.709
496.5981, 7542.081
497.0802, 7548.608
497.5623, 7547.436
498.0444, 7543.685
498.5265, 7540.057
499.0086, 7537.708
499.4908, 7538.794
499.9729, 7548.058
500.4550, 7562.080
500.9371, 7565.143
501.4192, 7553.136
501.9013, 7548.146
502.3835, 7566.425
502.8656, 7593.458
503.3477, 7607.154
503.8298, 7606.057
504.3119, 7595.848
504.7940, 7568.489
505.2762, 7538.918
505.7583, 7525.589
506.2404, 7528.802
506.7225, 7539.854
507.2046, 7555.441
507.6867, 7570.725
508.1689, 7563.499
508.6510, 7498.766
509.1331, 7463.258
509.6152, 7484.858
510.0973, 7517.853
510.5794, 7530.023
511.0616, 7520.245
511.5437, 7504.796
512.0258, 7493.380
512.5079, 7485.954
512.9901, 7483.184
513.4722, 7485.835
513.9543, 7489.049
514.4364, 7494.075
514.9185, 7496.139
515.4006, 7486.952
515.8828, 7465.182
516.3649, 7449.455
516.8470, 7452.678
517.3291, 7459.001
517.8112, 7449.562
518.2933, 7428.476
518.7755, 7417.024
519.2576, 7427.806
519.7397, 7449.158
520.2218, 7451.536
520.7039, 7412.317
521.1860, 7397.855
521.6682, 7432.819
522.1503, 7466.486
522.6324, 7469.252
523.1145, 7448.052
523.5966, 7424.647
524.0787, 7408.608
524.5609, 7400.019
525.0430, 7402.083
525.5251, 7414.711
526.0072, 7421.479
526.4893, 7412.829
526.9714, 7406.498
527.4536, 7432.950
527.9357, 7486.508
528.4178, 7509.499
528.8999, 7459.782
529.3820, 7411.055
529.8641, 7413.777
530.3463, 7447.653
530.8284, 7471.045
531.3105, 7469.901
531.7926, 7460.504
532.2747, 7467.502
532.7568, 7496.701
533.2390, 7505.900
533.7211, 7473.590
534.2032, 7445.460
534.6853, 7436.911
535.1674, 7440.096
535.6495, 7445.820
536.1317, 7452.223
536.6138, 7453.697
537.0959, 7434.507
537.5780, 7405.800
538.0601, 7410.820
538.5422, 7459.167
539.0244, 7506.167
539.5065, 7521.487
539.9886, 7508.918
540.4707, 7488.654
540.9528, 7449.396
541.4349, 7418.487
541.9171, 7399.807
542.3992, 7392.938
542.8813, 7403.429
543.3634, 7427.523
543.8455, 7448.903
544.3276, 7453.963
544.8098, 7446.451
545.2919, 7444.075
545.7740, 7451.942
546.2561, 7450.798
546.7382, 7424.095
547.2203, 7395.276
547.7025, 7381.903
548.1846, 7384.062
548.6666, 7392.299
549.1487, 7408.858
549.6309, 7425.022
550.1130, 7427.606
550.5951, 7420.174
551.0772, 7419.109
551.5593, 7431.474
552.0414, 7450.735
552.5236, 7467.365
553.0057, 7483.719
553.4878, 7489.020
553.9699, 7474.333
554.4520, 7459.833
554.9341, 7429.701
555.4163, 7466.200
555.8984, 7487.359
556.3805, 7494.003
556.8626, 7442.654
557.3447, 7466.190
557.8268, 7459.715
558.3090, 7452.011
558.7911, 7486.086
559.2732, 7443.172
559.7553, 7476.585
560.2374, 7479.530
560.7195, 7496.419
561.2017, 7483.113
561.6838, 7479.133
562.1659, 7505.358
562.6480, 7514.859
563.1301, 7498.077
563.6122, 7515.852
564.0944, 7471.883
564.5765, 7482.096
565.0586, 7515.686
565.5407, 7500.421
566.0228, 7518.750
566.5049, 7524.283
566.9871, 7502.138
567.4692, 7517.495
567.9513, 7514.753
568.4334, 7497.217
568.9155, 7483.948
569.3976, 7485.303
569.8798, 7492.268
570.3619, 7495.389
570.8440, 7496.333
571.3261, 7503.417
571.8082, 7520.182
572.2903, 7533.141
572.7725, 7523.984
573.2546, 7489.032
573.7367, 7466.556
574.2188, 7461.022
574.7009, 7461.667
575.1830, 7466.658
575.6652, 7476.015
576.1473, 7492.021
576.6294, 7514.395
577.1115, 7535.994
577.5936, 7550.586
578.0757, 7559.245
578.5579, 7565.847
579.0400, 7570.678
579.5221, 7570.742
580.0042, 7561.976
580.4863, 7549.988
580.9684, 7546.506
581.4506, 7553.502
581.9327, 7558.772
582.4148, 7561.339
582.8969, 7561.058
583.3790, 7556.914
583.8611, 7549.963
584.3433, 7542.152
584.8254, 7534.411
585.3075, 7526.390
585.7896, 7514.800
586.2717, 7498.249
586.7538, 7495.871
587.2360, 7514.258
587.7181, 7537.618
588.2002, 7570.357
588.6823, 7598.676
589.1644, 7594.257
589.6465, 7539.038
590.1287, 7489.131
590.6108, 7471.341
591.0929, 7474.098
591.5750, 7486.315
592.0571, 7505.109
592.5392, 7528.254
593.0214, 7555.543
593.5035, 7582.228
593.9856, 7592.413
594.4677, 7576.842
594.9498, 7566.688
595.4319, 7568.998
595.9141, 7573.262
596.3962, 7572.926
596.8783, 7570.454
597.3604, 7573.443
597.8425, 7588.327
598.3246, 7602.383
598.8068, 7598.148
599.2889, 7584.640
599.7710, 7589.465
600.2531, 7618.037
600.7352, 7643.417
601.2173, 7639.963
601.6995, 7613.148
602.1816, 7607.904
602.6637, 7648.218
603.1458, 7677.775
603.6279, 7684.382
604.1100, 7685.224
604.5922, 7694.355
605.0743, 7710.445
605.5564, 7722.086
606.0385, 7721.142
606.5206, 7714.470
607.0027, 7712.161
607.4849, 7713.695
607.9670, 7715.964
608.4491, 7719.290
608.9312, 7718.372
609.4133, 7704.665
609.8954, 7678.126
610.3776, 7668.551
610.8597, 7687.295
611.3418, 7706.872
611.8239, 7727.310
612.3060, 7741.609
612.7881, 7737.635
613.2703, 7717.935
613.7524, 7701.853
614.2345, 7705.699
614.7166, 7722.097
615.1987, 7734.519
615.6808, 7743.039
616.1630, 7745.151
616.6451, 7738.207
617.1272, 7727.870
617.6093, 7717.820
618.0914, 7708.060
618.5735, 7709.816
619.0557, 7734.648
619.5378, 7758.188
620.0199, 7775.942
620.5020, 7784.664
620.9841, 7773.403
621.4662, 7744.709
621.9484, 7724.483
622.4305, 7741.462
622.9126, 7783.217
623.3947, 7797.265
623.8768, 7777.729
624.3589, 7765.321
624.8411, 7776.268
625.3232, 7794.958
625.8053, 7801.313
626.2874, 7796.192
626.7695, 7796.902
627.2516, 7812.127
627.7338, 7826.867
628.2159, 7830.212
628.6980, 7829.588
629.1801, 7836.891
629.6622, 7854.267
630.1443, 7874.269
630.6265, 7890.636
631.1086, 7903.168
631.5907, 7910.556
632.0728, 7912.093
632.5549, 7910.397
633.0370, 7898.090
633.5192, 7890.939
634.0013, 7913.306
634.4834, 7963.054
634.9655, 7996.814
635.4476, 7983.323
635.9297, 7975.339
636.4119, 8015.423
636.8940, 8075.626
637.3761, 8111.007
637.8582, 8111.530
638.3403, 8098.217
638.8224, 8090.979
639.3046, 8088.268
639.7867, 8080.174
640.2688, 8064.848
640.7509, 8050.602
641.2330, 8040.017
641.7151, 8031.368
642.1973, 8021.593
642.6794, 8011.083
643.1615, 8005.735
643.6436, 8013.224
644.1257, 8019.267
644.6078, 8011.102
645.0900, 7998.365
645.5721, 7996.791
646.0542, 8009.040
646.5363, 8025.646
647.0184, 8038.574
647.5005, 8048.008
647.9827, 7981.558
648.4648, 8033.267
648.9469, 8069.639
649.4290, 8091.494
649.9111, 8055.355
650.3932, 8094.104
650.8754, 8102.846
651.3575, 8110.351
651.8396, 8159.639
652.3217, 8131.938
652.8038, 8180.561
653.2859, 8198.718
653.7681, 8230.824
654.2502, 8232.728
654.7323, 8314.987
655.2144, 8349.604
655.6965, 8373.466
656.1786, 8394.864
656.6608, 8410.309
657.1429, 8447.731
657.6250, 8527.226
658.1071, 8609.375
658.5892, 8653.714
659.0714, 8668.709
659.5535, 8690.547
660.0356, 8719.600
660.5177, 8759.628
660.9998, 8823.893
661.4819, 8892.120
661.9641, 8941.949
662.4462, 8973.367
662.9283, 9001.094
663.4104, 9034.579
663.8925, 9071.268
664.3746, 9101.244
664.8568, 9123.669
665.3389, 9171.159
665.8210, 9260.210
666.3031, 9347.910
666.7852, 9397.617
667.2673, 9419.311
667.7495, 9459.634
668.2316, 9543.510
668.7137, 9605.260
669.1958, 9591.759
669.6779, 9584.636
670.1600, 9685.870
670.6422, 9850.094
671.1243, 9939.466
671.6064, 9881.674
672.0885, 9755.489
672.5706, 9665.020
673.0527, 9604.938
673.5349, 9539.273
674.0170, 9464.412
674.4991, 9382.720
674.9812, 9292.988
675.4633, 9199.176
675.9454, 9112.162
676.4276, 9029.082
676.9097, 8958.624
677.3918, 8907.924
