##NAMES=Dozyite
##RRUFFID=R100040
##IDEAL CHEMISTRY=Mg_7_Al_2_(Si_4_Al_2_)O_15_(OH)_12_
##LOCALITY=Wood's Chrome mine, Lancaster County, Pennsylvania, USA
##OWNER=RRUFF
##SOURCE=Jeff Weissman
##DESCRIPTION=Mauve fibers intimately mixed with serpentine and chlorite
##STATUS=The identification of this mineral has been confirmed by single-crystal X-ray diffraction.
##URL=rruff.info/R100040
90.49219, 57.53009
90.97430, 57.72753
91.45642, 57.79967
91.93854, 57.63998
92.42065, 57.38580
92.90277, 57.21854
93.38489, 57.14171
93.86700, 57.17785
94.34912, 57.43433
94.83124, 57.87199
95.31335, 58.25865
95.79547, 58.35693
96.27759, 58.25798
96.75970, 58.37587
97.24182, 58.84010
97.72394, 59.45517
98.20605, 59.89312
98.68817, 60.17398
99.17029, 60.10942
99.65240, 59.22999
100.1345, 57.43015
100.6166, 56.43586
101.0988, 56.90617
101.5809, 58.58306
102.0630, 59.16264
102.5451, 58.26524
103.0272, 56.95543
103.5093, 56.40812
103.9915, 56.84057
104.4736, 57.49984
104.9557, 58.29212
105.4378, 59.31766
105.9199, 59.89193
106.4020, 59.84641
106.8842, 59.43604
107.3663, 59.09266
107.8484, 58.82877
108.3305, 58.62088
108.8126, 58.45563
109.2947, 58.26178
109.7769, 58.23083
110.2590, 58.58541
110.7411, 59.14245
111.2232, 59.32375
111.7053, 58.73967
112.1874, 58.04546
112.6696, 57.53914
113.1517, 57.11595
113.6338, 57.02464
114.1159, 57.57016
114.5980, 58.62736
115.0801, 59.31716
115.5623, 59.21832
116.0444, 58.77150
116.5265, 58.31934
117.0086, 57.90515
117.4907, 57.53515
117.9728, 57.09677
118.4550, 56.57850
118.9371, 56.41688
119.4192, 57.31004
119.9013, 58.56229
120.3834, 59.27190
120.8655, 58.34709
121.3477, 57.20779
121.8298, 56.95045
122.3119, 57.78112
122.7940, 58.81293
123.2761, 59.55505
123.7582, 60.03937
124.2404, 60.33702
124.7225, 60.39591
125.2046, 60.32008
125.6867, 60.16771
126.1688, 59.84136
126.6509, 59.69820
127.1331, 60.26794
127.6152, 61.43736
128.0973, 62.64368
128.5794, 63.37244
129.0615, 63.84830
129.5436, 64.61927
130.0258, 65.86822
130.5079, 67.39705
130.9900, 68.90421
131.4721, 70.37680
131.9542, 71.88386
132.4363, 73.31485
132.9185, 74.74070
133.4006, 76.64701
133.8827, 79.18246
134.3648, 82.27736
134.8469, 85.87218
135.3290, 89.97166
135.8112, 94.57174
136.2933, 99.62319
136.7754, 105.1495
137.2575, 111.0905
137.7396, 117.5715
138.2217, 124.4690
138.7039, 131.3241
139.1860, 138.0323
139.6681, 144.8818
140.1502, 152.6303
140.6323, 161.5164
141.1144, 170.2516
141.5966, 178.3214
142.0787, 185.5334
142.5608, 192.8211
143.0429, 200.4737
143.5250, 208.0268
144.0071, 214.1600
144.4893, 217.8342
144.9714, 221.6908
145.4535, 226.8427
145.9356, 233.7108
146.4177, 241.1682
146.8998, 249.3693
147.3820, 258.1822
147.8641, 267.4318
148.3462, 276.9977
148.8283, 286.9956
149.3104, 297.5927
149.7925, 308.5814
150.2747, 320.3845
150.7568, 333.2121
151.2389, 346.9592
151.7210, 360.3775
152.2031, 373.7496
152.6852, 386.4911
153.1674, 398.3849
153.6495, 408.9474
154.1316, 419.0370
154.6137, 428.9276
155.0958, 438.6336
155.5779, 447.3693
156.0601, 454.5482
156.5422, 460.9610
157.0243, 467.1954
157.5064, 472.8087
157.9885, 478.7668
158.4706, 485.6955
158.9528, 493.8174
159.4349, 501.1082
159.9170, 506.1111
160.3991, 510.2855
160.8812, 515.3182
161.3633, 522.3109
161.8455, 529.7706
162.3276, 536.9809
162.8097, 543.6210
163.2918, 550.8049
163.7739, 558.9211
164.2560, 567.2002
164.7382, 571.8412
165.2203, 576.2467
165.7024, 580.8021
166.1845, 584.9842
166.6666, 588.7240
167.1487, 592.1999
167.6309, 595.4048
168.1130, 598.4645
168.5951, 601.5839
169.0772, 605.2086
169.5593, 608.7844
170.0414, 611.7491
170.5236, 613.7731
171.0057, 615.7499
171.4878, 618.8537
171.9699, 622.5964
172.4520, 625.4252
172.9341, 625.8679
173.4163, 625.1769
173.8984, 624.8115
174.3805, 625.1629
174.8626, 625.7715
175.3447, 626.1118
175.8268, 626.2726
176.3090, 626.7024
176.7911, 627.9964
177.2732, 629.6943
177.7553, 630.9734
178.2374, 631.2506
178.7195, 631.4376
179.2017, 633.0464
179.6838, 635.9280
180.1659, 638.5433
180.6480, 639.4018
181.1301, 639.1049
181.6122, 639.0908
182.0944, 639.9120
182.5765, 641.1268
183.0586, 641.7846
183.5407, 641.8841
184.0228, 642.3943
184.5049, 644.6307
184.9871, 648.1255
185.4692, 651.1002
185.9513, 652.8678
186.4334, 653.8222
186.9155, 654.8060
187.3976, 655.7995
187.8798, 656.9948
188.3619, 658.9569
188.8440, 661.5058
189.3261, 663.3080
189.8082, 663.4894
190.2903, 662.6002
190.7725, 662.7405
191.2546, 664.0452
191.7367, 665.6735
192.2188, 666.4926
192.7009, 666.5701
193.1830, 667.1101
193.6652, 669.0070
194.1473, 671.9138
194.6294, 673.1805
195.1115, 672.3907
195.5936, 671.3466
196.0757, 672.6945
196.5579, 676.5118
197.0400, 680.3698
197.5221, 683.6788
198.0042, 686.3863
198.4863, 687.5667
198.9684, 687.0511
199.4506, 685.3751
199.9327, 683.0849
200.4148, 680.0872
200.8969, 677.2357
201.3790, 674.6315
201.8611, 672.2548
202.3433, 671.1284
202.8254, 671.5586
203.3075, 672.7242
203.7896, 673.3224
204.2717, 673.3257
204.7538, 672.8838
205.2360, 671.8282
205.7181, 670.0168
206.2002, 668.8716
206.6823, 668.5131
207.1644, 668.6646
207.6465, 669.0208
208.1287, 669.8137
208.6108, 670.0196
209.0929, 668.8764
209.5750, 665.9502
210.0571, 664.1591
210.5392, 663.8707
211.0214, 664.4042
211.5035, 664.1806
211.9856, 662.7664
212.4677, 661.8338
212.9498, 662.3624
213.4319, 664.8406
213.9141, 666.7062
214.3962, 667.8509
214.8783, 668.4254
215.3604, 668.6474
215.8425, 668.2493
216.3246, 668.0743
216.8067, 668.5966
217.2889, 670.0878
217.7710, 671.2607
218.2531, 671.9931
218.7352, 672.4271
219.2173, 672.8801
219.6994, 673.2271
220.1816, 673.8167
220.6637, 674.9189
221.1458, 676.8837
221.6279, 678.3294
222.1100, 679.0325
222.5921, 679.3074
223.0743, 680.0584
223.5564, 681.6442
224.0385, 683.1047
224.5206, 683.8566
225.0027, 683.3948
225.4848, 683.6940
225.9670, 685.0880
226.4491, 687.1653
226.9312, 688.9013
227.4133, 690.2646
227.8954, 691.3162
228.3775, 691.9021
228.8597, 691.4143
229.3418, 691.9991
229.8239, 694.1113
230.3060, 697.1677
230.7881, 699.4666
231.2702, 700.5718
231.7524, 701.5763
232.2345, 702.9314
232.7166, 704.7093
233.1987, 706.6800
233.6808, 708.8245
234.1629, 711.1523
234.6451, 713.8651
235.1272, 717.5978
235.6093, 720.7722
236.0914, 722.5538
236.5735, 722.0331
237.0556, 722.3151
237.5378, 723.8671
238.0199, 726.1176
238.5020, 727.6362
238.9841, 728.4421
239.4662, 728.5437
239.9483, 727.7979
240.4305, 725.5712
240.9126, 724.0648
241.3947, 723.7913
241.8768, 724.0627
242.3589, 723.1641
242.8410, 720.6609
243.3232, 717.6269
243.8053, 714.3518
244.2874, 710.2284
244.7695, 707.3624
245.2516, 706.2493
245.7337, 706.1746
246.2159, 705.5521
246.6980, 704.1602
247.1801, 702.5770
247.6622, 700.9548
248.1443, 699.1384
248.6264, 697.7479
249.1086, 696.8994
249.5907, 696.4189
250.0728, 695.9850
250.5549, 695.7319
251.0370, 695.2952
251.5191, 694.4695
252.0013, 693.0709
252.4834, 691.8649
252.9655, 690.7635
253.4476, 689.8983
253.9297, 689.6041
254.4118, 690.2072
254.8940, 690.7516
255.3761, 690.8360
255.8582, 690.2665
256.3403, 690.0702
256.8224, 690.5477
257.3046, 691.1765
257.7867, 690.9205
258.2688, 689.1160
258.7509, 687.8663
259.2330, 688.1485
259.7151, 690.4124
260.1973, 691.5193
260.6794, 690.9495
261.1615, 689.7302
261.6436, 689.5145
262.1257, 690.9398
262.6078, 691.7835
263.0900, 691.0423
263.5721, 688.4150
264.0542, 687.1574
264.5363, 687.7004
265.0184, 689.0611
265.5005, 690.0305
265.9827, 690.4973
266.4648, 690.8348
266.9469, 691.0775
267.4290, 691.2122
267.9111, 691.5794
268.3932, 692.3036
268.8754, 693.0539
269.3575, 693.5130
269.8396, 693.7291
270.3217, 693.4476
270.8038, 692.3082
271.2859, 690.4019
271.7681, 689.7786
272.2502, 690.7687
272.7323, 692.3631
273.2144, 693.5984
273.6965, 694.4729
274.1786, 695.0479
274.6608, 695.3096
275.1429, 695.2804
275.6250, 695.0797
276.1071, 694.6537
276.5892, 694.2181
277.0714, 693.9756
277.5535, 693.9390
278.0356, 694.0048
278.5177, 694.2073
278.9998, 694.4920
279.4819, 694.5587
279.9641, 694.3428
280.4462, 694.2131
280.9283, 694.5897
281.4104, 695.4988
281.8925, 696.0952
282.3746, 696.1343
282.8568, 695.8690
283.3389, 695.9609
283.8210, 696.4071
284.3031, 697.1936
284.7852, 698.6306
285.2673, 700.6255
285.7495, 701.7487
286.2316, 701.5742
286.7137, 700.7722
287.1958, 700.8327
287.6779, 701.7754
288.1600, 702.6886
288.6422, 702.8820
289.1243, 702.4699
289.6064, 702.3119
290.0885, 702.5094
290.5706, 702.9001
291.0527, 703.2482
291.5349, 703.5631
292.0170, 703.9014
292.4991, 704.6846
292.9812, 705.5903
293.4633, 705.0367
293.9454, 702.6285
294.4276, 700.1143
294.9097, 700.2479
295.3918, 702.5550
295.8739, 704.5421
296.3560, 704.5121
296.8381, 703.3376
297.3203, 703.1859
297.8024, 704.1833
298.2845, 705.3721
298.7666, 705.6003
299.2487, 705.1568
299.7308, 704.9461
300.2130, 705.5598
300.6951, 706.5510
301.1772, 707.1013
301.6593, 707.2148
302.1414, 707.4604
302.6235, 708.7303
303.1057, 710.4855
303.5878, 711.5762
304.0699, 711.1786
304.5520, 710.3105
305.0341, 710.2743
305.5162, 710.9682
305.9984, 711.5109
306.4805, 711.0389
306.9626, 710.0745
307.4447, 709.3237
307.9268, 708.8674
308.4089, 708.7991
308.8911, 709.3417
309.3732, 710.3848
309.8553, 711.4970
310.3374, 712.4476
310.8195, 713.3253
311.3016, 714.2569
311.7838, 715.4158
312.2659, 716.3216
312.7480, 716.3583
313.2301, 715.8718
313.7122, 715.7128
314.1943, 716.3329
314.6765, 717.4037
315.1586, 718.8301
315.6407, 720.7772
316.1228, 722.4501
316.6049, 723.5524
317.0870, 724.1106
317.5692, 724.1570
318.0513, 722.9345
318.5334, 721.8173
319.0155, 721.5399
319.4976, 722.2491
319.9797, 723.0521
320.4619, 723.9006
320.9440, 724.5865
321.4261, 724.8722
321.9082, 724.0428
322.3903, 723.4308
322.8724, 723.5070
323.3546, 724.2991
323.8367, 725.1891
324.3188, 726.7089
324.8009, 727.9557
325.2830, 728.2313
325.7651, 726.1683
326.2473, 724.5989
326.7294, 724.0515
327.2115, 724.4391
327.6936, 724.9767
328.1757, 725.6172
328.6578, 726.4104
329.1400, 727.4014
329.6221, 729.3849
330.1042, 730.4586
330.5863, 730.0986
331.0684, 728.7928
331.5505, 727.9946
332.0327, 727.9499
332.5148, 728.0870
332.9969, 728.1635
333.4790, 728.0463
333.9611, 728.1768
334.4432, 728.4615
334.9254, 729.0423
335.4075, 730.3177
335.8896, 732.9794
336.3717, 734.9360
336.8538, 735.1873
337.3359, 733.4639
337.8180, 733.1869
338.3001, 734.8804
338.7823, 737.2307
339.2644, 738.6834
339.7465, 739.0388
340.2286, 739.4496
340.7107, 740.2851
341.1928, 741.4296
341.6750, 741.9305
342.1571, 741.6671
342.6392, 741.2164
343.1213, 740.8477
343.6034, 740.5475
344.0855, 741.0740
344.5677, 742.7949
345.0498, 745.1451
345.5319, 746.7443
346.0140, 747.5794
346.4961, 748.0554
346.9782, 748.0686
347.4604, 747.8422
347.9425, 748.5740
348.4246, 750.5660
348.9067, 753.0181
349.3888, 754.8294
349.8709, 756.0923
350.3531, 757.2762
350.8352, 758.5937
351.3173, 760.0032
351.7994, 761.3828
352.2815, 762.7076
352.7636, 764.2182
353.2458, 766.4317
353.7279, 769.0001
354.2100, 771.1769
354.6921, 772.7288
355.1742, 773.7012
355.6563, 774.2516
356.1385, 774.3357
356.6206, 773.6219
357.1027, 771.0712
357.5848, 767.8875
358.0669, 765.4791
358.5490, 764.4973
359.0312, 763.9548
359.5133, 763.2615
359.9954, 762.4952
360.4775, 761.8962
360.9596, 761.7040
361.4417, 761.6308
361.9239, 761.4153
362.4060, 760.8641
362.8881, 760.6155
363.3702, 761.4207
363.8523, 762.5811
364.3344, 763.0273
364.8166, 761.0271
365.2987, 759.5403
365.7808, 760.0281
366.2629, 762.8293
366.7450, 765.2237
367.2271, 766.6270
367.7093, 767.5355
368.1914, 768.3868
368.6735, 769.0146
369.1556, 769.8380
369.6377, 770.8275
370.1198, 772.0128
370.6020, 773.6476
371.0841, 776.1686
371.5662, 778.7429
372.0483, 780.8917
372.5304, 782.3881
373.0125, 783.9066
373.4947, 785.4158
373.9768, 786.9509
374.4589, 788.5829
374.9410, 790.2082
375.4231, 792.1611
375.9052, 794.7601
376.3874, 798.1858
376.8695, 800.7336
377.3516, 801.9871
377.8337, 803.1129
378.3158, 805.9014
378.7979, 810.6504
379.2801, 814.9128
379.7622, 817.9744
380.2443, 820.0466
380.7264, 822.4349
381.2085, 825.2672
381.6906, 827.3754
382.1728, 827.2355
382.6549, 825.2366
383.1370, 823.9156
383.6191, 823.8051
384.1012, 824.3438
384.5833, 824.8200
385.0655, 825.1953
385.5476, 825.2105
386.0297, 824.6191
386.5118, 823.5975
386.9939, 822.4135
387.4760, 821.0831
387.9582, 819.6851
388.4403, 818.2280
388.9224, 816.7449
389.4045, 815.3146
389.8866, 814.3713
390.3687, 813.2017
390.8509, 810.8978
391.3330, 807.5838
391.8151, 804.5510
392.2972, 803.0177
392.7793, 801.9509
393.2614, 800.3279
393.7436, 797.5552
394.2257, 794.6895
394.7078, 792.2045
395.1899, 789.9882
395.6720, 787.7423
396.1541, 784.9308
396.6363, 782.4329
397.1184, 780.8646
397.6005, 780.7975
398.0826, 780.0689
398.5647, 777.2418
399.0468, 773.9648
399.5290, 772.2359
400.0111, 774.0344
400.4932, 775.4074
400.9753, 775.6210
401.4574, 774.6743
401.9395, 773.5675
402.4217, 771.9269
402.9038, 770.4958
403.3859, 769.8154
403.8680, 770.2086
404.3501, 770.6315
404.8322, 771.2595
405.3144, 771.7479
405.7965, 770.8345
406.2786, 767.8787
406.7607, 765.6295
407.2428, 765.6765
407.7249, 768.1143
408.2071, 769.6367
408.6892, 770.0413
409.1713, 770.1461
409.6534, 771.4763
410.1355, 773.8981
410.6176, 774.7040
411.0998, 772.2031
411.5819, 768.1635
412.0640, 767.1512
412.5461, 769.0753
413.0282, 771.3998
413.5103, 772.0671
413.9925, 771.7352
414.4746, 771.9083
414.9567, 773.0706
415.4388, 774.0693
415.9209, 773.1668
416.4030, 771.1214
416.8852, 769.7922
417.3673, 771.0172
417.8494, 772.7703
418.3315, 773.2694
418.8136, 772.3937
419.2957, 771.4098
419.7779, 770.6879
420.2600, 770.3546
420.7421, 770.5486
421.2242, 771.4449
421.7063, 772.7382
422.1884, 774.8887
422.6706, 777.5048
423.1527, 779.1779
423.6348, 779.2263
424.1169, 778.5411
424.5990, 777.3697
425.0811, 775.1785
425.5633, 773.8181
426.0454, 773.7272
426.5275, 774.3348
427.0096, 774.9226
427.4917, 775.2727
427.9738, 775.9562
428.4560, 777.2961
428.9381, 779.2438
429.4202, 780.3931
429.9023, 780.3990
430.3844, 780.2076
430.8665, 780.7072
431.3487, 782.1734
431.8308, 782.3785
432.3129, 780.5992
432.7950, 778.1477
433.2771, 778.1495
433.7592, 780.7059
434.2414, 782.9734
434.7235, 783.4188
435.2056, 782.4665
435.6877, 781.8400
436.1698, 781.5619
436.6519, 781.2985
437.1341, 780.5648
437.6162, 779.5848
438.0983, 778.9301
438.5804, 778.7988
439.0625, 779.0063
439.5446, 779.4600
440.0268, 780.1110
440.5089, 780.7662
440.9910, 781.6180
441.4731, 782.2571
441.9552, 782.2770
442.4373, 781.5682
442.9195, 780.6290
443.4016, 779.3619
443.8837, 778.1257
444.3658, 777.3552
444.8479, 777.2960
445.3300, 777.6066
445.8122, 778.4613
446.2943, 779.7432
446.7764, 780.5448
447.2585, 780.4722
447.7406, 780.0828
448.2227, 779.6418
448.7049, 779.1984
449.1870, 778.6066
449.6691, 777.6179
450.1512, 776.6070
450.6333, 776.1780
451.1154, 776.4127
451.5976, 777.0575
452.0797, 778.1475
452.5618, 779.6456
453.0439, 780.9612
453.5260, 782.0188
454.0081, 783.0480
454.4903, 784.4641
454.9724, 786.2391
455.4545, 786.9575
455.9366, 786.1114
456.4187, 784.8350
456.9008, 785.0650
457.3830, 786.6884
457.8651, 788.7596
458.3472, 791.6226
458.8293, 794.4118
459.3114, 795.3141
459.7935, 794.3290
460.2757, 793.0024
460.7578, 792.3582
461.2399, 792.2111
461.7220, 792.2967
462.2041, 792.5009
462.6862, 792.9932
463.1684, 794.0439
463.6505, 795.4706
464.1326, 796.8301
464.6147, 798.0807
465.0968, 799.1053
465.5789, 799.8240
466.0611, 800.2284
466.5432, 800.3450
467.0253, 800.2917
467.5074, 799.8764
467.9895, 798.9274
468.4716, 795.9156
468.9538, 794.3378
469.4359, 795.2174
469.9180, 797.6712
470.4001, 798.8448
470.8822, 798.2335
471.3643, 797.2330
471.8465, 796.2097
472.3286, 795.0855
472.8107, 795.1014
473.2928, 796.6836
473.7749, 798.4000
474.2570, 798.4242
474.7392, 796.7772
475.2213, 795.4280
475.7034, 794.9777
476.1855, 794.8585
476.6676, 793.5692
477.1497, 791.2644
477.6319, 789.4856
478.1140, 789.3135
478.5961, 790.1865
479.0782, 791.4722
479.5603, 793.1868
480.0424, 794.3656
480.5246, 793.6799
481.0067, 792.1036
481.4888, 791.0435
481.9709, 791.5927
482.4530, 792.0113
482.9352, 790.9363
483.4173, 788.9186
483.8994, 787.7037
484.3815, 788.4037
484.8636, 789.6116
485.3457, 790.8115
485.8279, 792.1357
486.3100, 792.7887
486.7921, 792.1426
487.2742, 791.1039
487.7563, 790.4704
488.2384, 790.5844
488.7206, 790.5009
489.2027, 789.9700
489.6848, 789.1937
490.1669, 789.1057
490.6490, 790.1514
491.1311, 790.5442
491.6133, 788.8790
492.0954, 785.2103
492.5775, 783.4255
493.0596, 783.7434
493.5417, 785.0980
494.0238, 786.8224
494.5060, 788.7272
494.9881, 789.8050
495.4702, 789.5519
495.9523, 788.7419
496.4344, 788.2978
496.9165, 788.2004
497.3987, 788.3808
497.8808, 788.9979
498.3629, 789.7512
498.8450, 790.3849
499.3271, 790.8809
499.8092, 791.2188
500.2914, 791.0647
500.7735, 790.8951
501.2556, 791.1686
501.7377, 792.6830
502.2198, 793.8060
502.7019, 794.2141
503.1841, 793.9747
503.6662, 793.2801
504.1483, 790.6453
504.6304, 789.1758
505.1125, 790.3157
505.5946, 794.4164
506.0768, 796.5546
506.5589, 796.0076
507.0410, 794.5626
507.5231, 793.5688
508.0052, 793.0645
508.4873, 792.8275
508.9695, 792.8680
509.4516, 793.1329
509.9337, 793.5560
510.4158, 794.1321
510.8979, 794.7665
511.3800, 795.2910
511.8622, 795.8818
512.3443, 797.2825
512.8264, 799.4088
513.3085, 801.0026
513.7906, 800.3683
514.2728, 798.8994
514.7549, 798.5377
515.2370, 799.9834
515.7191, 801.5508
516.2012, 802.0511
516.6833, 802.0206
517.1655, 802.2916
517.6476, 803.2533
518.1297, 804.4510
518.6118, 806.0387
519.0939, 807.9207
519.5760, 809.0802
520.0582, 808.2018
520.5403, 807.6015
521.0224, 808.3486
521.5045, 811.0220
521.9866, 813.3483
522.4688, 815.2448
522.9509, 816.8727
523.4330, 818.5724
523.9151, 820.4819
524.3972, 821.6017
524.8793, 821.4479
525.3615, 820.5818
525.8436, 820.3302
526.3257, 820.6953
526.8078, 821.7021
527.2899, 823.8058
527.7720, 826.5046
528.2542, 828.7047
528.7363, 830.3588
529.2184, 831.5331
529.7005, 831.8121
530.1826, 831.7811
530.6647, 832.2416
531.1469, 833.5380
531.6290, 835.1631
532.1111, 837.3765
532.5932, 839.6717
533.0753, 841.0117
533.5574, 839.8510
534.0396, 838.8884
534.5217, 839.1107
535.0038, 840.6096
535.4859, 842.2717
535.9680, 844.8192
536.4501, 846.7542
536.9323, 846.8597
537.4144, 843.5983
537.8965, 843.1207
538.3786, 846.6214
538.8607, 851.4653
539.3428, 853.4089
539.8250, 852.2510
540.3071, 851.2966
540.7892, 851.7352
541.2713, 852.8058
541.7534, 852.6284
542.2355, 851.2746
542.7177, 849.4584
543.1998, 847.4611
543.6819, 845.3312
544.1640, 843.1036
544.6461, 840.7692
545.1282, 838.5281
545.6104, 836.3572
546.0925, 834.4443
546.5746, 833.0471
547.0567, 832.9033
547.5388, 832.3422
548.0209, 830.3884
548.5031, 827.6450
548.9852, 825.4005
549.4673, 824.3572
549.9494, 823.2924
550.4315, 821.8575
550.9136, 820.0552
551.3958, 818.4688
551.8779, 817.1995
552.3600, 815.9764
552.8421, 814.5765
553.3242, 812.9636
553.8063, 811.4728
554.2885, 810.0484
554.7706, 808.9415
555.2527, 808.7703
555.7348, 809.3528
556.2169, 809.5424
556.6990, 808.9355
557.1812, 807.8463
557.6633, 806.1876
558.1454, 804.2807
558.6275, 803.3350
559.1096, 805.2751
559.5917, 807.6257
560.0739, 808.1938
560.5560, 806.8119
561.0381, 805.3519
561.5202, 804.7004
562.0023, 804.2039
562.4844, 803.3342
562.9666, 800.9871
563.4487, 799.8547
563.9308, 800.8314
564.4129, 802.7375
564.8950, 803.7909
565.3771, 803.7139
565.8593, 803.3574
566.3414, 802.8538
566.8235, 802.2130
567.3056, 801.2471
567.7877, 799.8242
568.2698, 799.0504
568.7520, 800.1600
569.2341, 802.5217
569.7162, 803.7235
570.1983, 803.6535
570.6804, 802.9735
571.1625, 802.0677
571.6447, 801.0281
572.1268, 800.0065
572.6089, 799.0554
573.0910, 798.0948
573.5731, 796.9058
574.0552, 795.7005
574.5374, 794.8204
575.0195, 794.5170
575.5016, 794.4421
575.9837, 794.5848
576.4658, 794.9215
576.9479, 795.1764
577.4301, 795.5880
577.9122, 795.6366
578.3943, 794.9925
578.8764, 793.4789
579.3585, 792.1730
579.8406, 790.8834
580.3228, 790.2208
580.8049, 791.1481
581.2870, 793.5538
581.7691, 795.6759
582.2512, 797.2552
582.7333, 798.2732
583.2155, 798.5206
583.6976, 798.1396
584.1797, 797.6066
584.6617, 797.0075
585.1439, 796.4316
585.6260, 795.7153
586.1081, 794.9908
586.5902, 794.9422
587.0723, 797.0865
587.5544, 799.0576
