##NAMES=Dravite
##RRUFFID=R060534
##IDEAL CHEMISTRY=NaMg_3_Al_6_(Si_6_O_18_)(BO_3_)_3_(OH)_3_OH
##LOCALITY=Sri Lanka
##OWNER=RRUFF
##SOURCE=Gemological Institute of America
##DESCRIPTION=Black trigonal prism
##STATUS=The identification of this mineral has been confirmed by X-ray diffraction and chemical analysis
##URL=rruff.info/R060534
##MEASURED CHEMISTRY=(Na_0.79_Ca_0.21_)(Mg_0.68_Fe^2+^_0.29_Ti_0.02_Al_0.01_)_3_Al_6.00_(BO_3_)_3_(Si_0.95_Al_005_)_6.00_O_18_(OH)_4_
92.20605, 195.0152
92.68817, 196.8850
93.17029, 199.0483
93.65240, 199.1977
94.13452, 198.4017
94.61664, 196.3604
95.09875, 193.1510
95.58087, 189.1681
96.06299, 184.9100
96.54510, 180.1103
97.02722, 175.4221
97.50933, 170.9350
97.99145, 166.7400
98.47356, 162.9890
98.95568, 159.7271
99.43780, 156.7182
99.91991, 153.4148
100.4020, 149.0195
100.8841, 145.1403
101.3663, 142.5801
101.8484, 141.1926
102.3305, 140.1884
102.8126, 138.7796
103.2947, 136.7938
103.7768, 135.1633
104.2590, 133.9976
104.7411, 133.1023
105.2232, 132.3928
105.7053, 131.9111
106.1874, 131.3165
106.6695, 129.9046
107.1517, 127.7189
107.6338, 125.8497
108.1159, 125.0691
108.5980, 125.1310
109.0801, 124.7235
109.5622, 123.0661
110.0444, 121.2305
110.5265, 120.1197
111.0086, 119.8128
111.4907, 119.7954
111.9728, 119.4515
112.4549, 118.6206
112.9371, 118.0270
113.4192, 117.8646
113.9013, 117.9255
114.3834, 118.1731
114.8655, 118.5905
115.3476, 119.0110
115.8298, 118.9756
116.3119, 118.0312
116.7940, 117.1391
117.2761, 116.2009
117.7582, 115.4093
118.2403, 115.0582
118.7225, 115.3555
119.2046, 116.2208
119.6867, 116.7079
120.1688, 116.5901
120.6509, 116.4090
121.1330, 116.3388
121.6152, 116.3700
122.0973, 116.4272
122.5794, 116.4777
123.0615, 116.5023
123.5436, 116.3958
124.0257, 116.0551
124.5079, 115.6400
124.9900, 115.2760
125.4721, 114.9652
125.9542, 114.7413
126.4363, 114.8357
126.9184, 115.0842
127.4006, 115.0238
127.8827, 114.0758
128.3648, 112.6369
128.8469, 112.0006
129.3290, 112.7007
129.8111, 113.6609
130.2932, 114.3426
130.7754, 114.7359
131.2575, 114.8431
131.7396, 114.5610
132.2217, 113.8308
132.7038, 113.2504
133.1859, 112.6363
133.6681, 112.3430
134.1502, 112.7396
134.6323, 113.7642
135.1144, 114.9292
135.5965, 115.5911
136.0786, 115.5238
136.5608, 115.3573
137.0429, 114.9807
137.5250, 114.5887
138.0071, 114.3644
138.4892, 114.3531
138.9713, 114.4222
139.4535, 114.2927
139.9356, 113.6341
140.4177, 113.2338
140.8998, 113.2478
141.3819, 113.5172
141.8640, 113.8591
142.3462, 114.2140
142.8283, 114.5450
143.3104, 114.7462
143.7925, 114.8504
144.2746, 114.8219
144.7567, 114.5053
145.2388, 113.9900
145.7210, 113.6693
146.2031, 113.8153
146.6852, 114.2384
147.1673, 114.5496
147.6494, 114.7625
148.1315, 114.8193
148.6137, 114.6625
149.0958, 114.2853
149.5779, 113.7375
150.0600, 112.7171
150.5421, 111.6410
151.0242, 110.9477
151.5064, 110.8594
151.9885, 111.1295
152.4706, 111.2854
152.9527, 111.3364
153.4348, 111.2337
153.9169, 111.0574
154.3991, 110.7323
154.8812, 110.0881
155.3633, 108.9450
155.8454, 107.4594
156.3275, 106.6159
156.8096, 107.2771
157.2918, 107.7298
157.7739, 107.3799
158.2560, 106.5818
158.7381, 106.0270
159.2202, 106.2871
159.7023, 107.4007
160.1845, 107.8379
160.6666, 107.2178
161.1487, 106.3991
161.6308, 105.5269
162.1129, 104.6940
162.5950, 104.0359
163.0772, 103.6624
163.5593, 103.6006
164.0414, 103.8740
164.5235, 104.9774
165.0056, 106.0227
165.4877, 106.3044
165.9698, 105.7817
166.4520, 105.0526
166.9341, 104.6957
167.4162, 104.7178
167.8983, 104.7321
168.3804, 104.6057
168.8625, 104.4882
169.3447, 104.6464
169.8268, 105.1947
170.3089, 105.7009
170.7910, 105.5966
171.2731, 105.0406
171.7552, 104.5777
172.2374, 104.3767
172.7195, 104.4255
173.2016, 104.7675
173.6837, 105.6858
174.1658, 106.4583
174.6479, 106.4753
175.1301, 105.8967
175.6122, 105.3350
176.0943, 105.2106
176.5764, 105.5083
177.0585, 105.8889
177.5406, 106.3480
178.0228, 106.8881
178.5049, 107.6167
178.9870, 108.4694
179.4691, 109.2028
179.9512, 109.4969
180.4333, 109.1966
180.9155, 109.1799
181.3976, 109.5478
181.8797, 110.1110
182.3618, 110.8499
182.8439, 111.7329
183.3260, 112.6796
183.8082, 113.5794
184.2903, 114.3496
184.7724, 115.3064
185.2545, 116.8072
185.7366, 118.2045
186.2187, 118.9216
186.7009, 118.9254
187.1830, 118.7671
187.6651, 119.2418
188.1472, 120.7274
188.6293, 122.1375
189.1114, 123.2689
189.5936, 124.4270
190.0757, 125.9711
190.5578, 127.9788
191.0399, 130.1056
191.5220, 131.7798
192.0041, 132.8089
192.4863, 133.8985
192.9684, 135.2547
193.4505, 136.6605
193.9326, 137.7763
194.4147, 138.4566
194.8968, 139.0270
195.3790, 139.9843
195.8611, 141.2506
196.3432, 142.9374
196.8253, 145.5324
197.3074, 148.5614
197.7895, 150.9082
198.2717, 152.0459
198.7538, 152.8066
199.2359, 154.2435
199.7180, 156.3506
200.2001, 158.6501
200.6822, 161.0936
201.1644, 163.5979
201.6465, 165.6615
202.1286, 166.7951
202.6107, 167.8925
203.0928, 169.8225
203.5749, 172.5851
204.0571, 175.4100
204.5392, 177.6200
205.0213, 179.2314
205.5034, 181.0792
205.9855, 183.6748
206.4676, 186.2243
206.9497, 188.2571
207.4319, 189.7441
207.9140, 190.9073
208.3961, 191.9476
208.8782, 192.8801
209.3603, 193.5916
209.8424, 193.9731
210.3246, 194.1919
210.8067, 194.3481
211.2888, 194.4346
211.7709, 194.3383
212.2530, 193.8741
212.7351, 192.9057
213.2173, 192.0005
213.6994, 191.3275
214.1815, 190.5960
214.6636, 189.6007
215.1457, 188.3404
215.6278, 186.9803
216.1100, 185.7388
216.5921, 184.6785
217.0742, 183.5845
217.5563, 182.2094
218.0384, 180.9810
218.5205, 180.1772
219.0027, 179.8370
219.4848, 179.7980
219.9669, 179.8661
220.4490, 180.1138
220.9311, 180.2914
221.4132, 180.2232
221.8954, 180.2093
222.3775, 180.4741
222.8596, 181.0547
223.3417, 181.8437
223.8238, 182.7378
224.3059, 183.8614
224.7881, 184.6949
225.2702, 184.8999
225.7523, 185.0213
226.2344, 185.5467
226.7165, 186.5623
227.1986, 187.7868
227.6807, 188.8921
228.1629, 189.8361
228.6450, 190.8585
229.1271, 191.8461
229.6092, 192.9813
230.0913, 194.5139
230.5734, 196.4957
231.0556, 198.6078
231.5377, 200.4673
232.0198, 202.0755
232.5019, 203.7809
232.9840, 205.7654
233.4661, 207.8156
233.9483, 209.6338
234.4304, 211.1524
234.9125, 212.6180
235.3946, 214.3510
235.8767, 216.2728
236.3588, 218.0261
236.8410, 219.5883
237.3231, 220.9051
237.8052, 221.9176
238.2873, 222.6326
238.7694, 223.0119
239.2515, 223.0611
239.7337, 222.7754
240.2158, 222.0004
240.6979, 220.5910
241.1800, 218.6770
241.6621, 216.5527
242.1442, 214.3026
242.6264, 211.5702
243.1085, 207.9285
243.5906, 203.7053
244.0727, 199.3637
244.5548, 195.0157
245.0369, 190.7136
245.5191, 186.6038
246.0012, 182.7883
246.4833, 178.9360
246.9654, 174.7385
247.4475, 170.4544
247.9296, 166.4608
248.4117, 162.9946
248.8939, 159.8444
249.3760, 156.4302
249.8581, 152.5650
250.3402, 148.8544
250.8223, 145.3811
251.3044, 142.2056
251.7866, 139.4459
252.2687, 137.1769
252.7508, 135.2828
253.2329, 133.5151
253.7150, 131.9935
254.1971, 130.3684
254.6793, 128.5182
255.1614, 126.5605
255.6435, 124.4890
256.1256, 122.2840
256.6077, 120.2122
257.0898, 118.9487
257.5720, 119.2123
258.0541, 118.8653
258.5362, 116.9857
259.0183, 114.7933
259.5004, 113.3598
259.9825, 113.0514
260.4647, 113.3685
260.9468, 113.4182
261.4289, 113.2000
261.9110, 112.6697
262.3931, 111.5299
262.8752, 110.3184
263.3574, 109.5246
263.8395, 109.2467
264.3216, 109.1429
264.8037, 108.6243
265.2858, 107.3032
265.7679, 106.3523
266.2501, 106.2456
266.7322, 106.1301
267.2143, 105.2139
267.6964, 103.4700
268.1785, 101.6645
268.6606, 100.8842
269.1428, 101.6990
269.6249, 102.0851
270.1070, 101.9449
270.5891, 101.5470
271.0712, 100.9768
271.5533, 100.2849
272.0355, 99.53646
272.5176, 98.76789
272.9997, 97.89033
273.4818, 97.43452
273.9639, 97.75536
274.4460, 98.10116
274.9282, 98.03307
275.4103, 97.59124
275.8924, 97.11134
276.3745, 96.90971
276.8566, 97.03291
277.3387, 96.98566
277.8208, 96.80712
278.3029, 96.47008
278.7851, 95.82590
279.2672, 94.98708
279.7493, 94.25304
280.2314, 93.84863
280.7135, 93.76482
281.1956, 93.73061
281.6778, 93.89966
282.1599, 93.95017
282.6420, 93.76424
283.1241, 93.37491
283.6062, 92.83266
284.0883, 92.14170
284.5705, 91.35192
285.0526, 90.79310
285.5347, 90.50656
286.0168, 90.35477
286.4989, 90.27779
286.9810, 90.31844
287.4632, 90.61922
287.9453, 91.28296
288.4274, 92.10912
288.9095, 92.51582
289.3916, 92.24848
289.8737, 91.97558
290.3559, 91.72176
290.8380, 91.54141
291.3201, 91.53874
291.8022, 91.75591
292.2843, 92.08647
292.7664, 92.36112
293.2486, 92.63017
293.7307, 92.71496
294.2128, 92.25541
294.6949, 91.76159
295.1770, 91.93822
295.6591, 92.94304
296.1413, 94.07700
296.6234, 94.39036
297.1055, 93.56917
297.5876, 93.18874
298.0697, 93.57491
298.5518, 94.25173
299.0340, 94.96620
299.5161, 95.64301
299.9982, 95.99531
300.4803, 95.58222
300.9624, 94.31078
301.4445, 93.95601
301.9267, 95.36103
302.4088, 96.97694
302.8909, 97.83781
303.3730, 97.94608
303.8551, 97.73776
304.3372, 97.38604
304.8194, 96.98056
305.3015, 97.14629
305.7836, 98.15736
306.2657, 99.39812
306.7478, 100.7901
307.2299, 102.2113
307.7121, 103.3048
308.1942, 103.8456
308.6763, 103.9691
309.1584, 104.1152
309.6405, 104.1080
310.1227, 104.3676
310.6048, 105.2330
311.0869, 106.4354
311.5690, 107.5188
312.0511, 108.3456
312.5332, 108.8603
313.0154, 108.8295
313.4975, 108.0428
313.9796, 107.4537
314.4617, 107.5599
314.9438, 107.8505
315.4259, 107.5923
315.9081, 106.5924
316.3902, 105.3431
316.8723, 104.4442
317.3544, 103.9577
317.8365, 103.4359
318.3186, 102.6482
318.8007, 101.9330
319.2828, 101.7384
319.7650, 102.0701
320.2471, 102.3118
320.7292, 101.8006
321.2113, 100.5476
321.6934, 100.0311
322.1755, 100.9973
322.6577, 102.0270
323.1398, 102.0850
323.6219, 101.3509
324.1040, 100.7817
324.5861, 101.0038
325.0682, 101.8558
325.5504, 102.4615
326.0325, 102.8155
326.5146, 102.9799
326.9967, 102.6786
327.4788, 102.2155
327.9609, 102.2757
328.4431, 103.2064
328.9252, 104.6666
329.4073, 105.9118
329.8894, 107.0418
330.3715, 107.8025
330.8536, 107.8537
331.3358, 107.6142
331.8179, 107.6012
332.3000, 107.9511
332.7821, 108.5047
333.2642, 109.0523
333.7463, 109.5538
334.2285, 110.2388
334.7106, 111.3421
335.1927, 112.4737
335.6748, 113.3020
336.1569, 113.8059
336.6390, 114.1902
337.1212, 114.5665
337.6033, 114.9394
338.0854, 115.7590
338.5675, 117.1586
339.0496, 118.8228
339.5317, 120.8017
340.0139, 122.9488
340.4960, 124.8690
340.9781, 126.3092
341.4602, 127.3612
341.9423, 128.4582
342.4244, 129.3141
342.9066, 130.5397
343.3887, 132.5026
343.8708, 134.8490
344.3529, 137.0629
344.8350, 138.9374
345.3171, 140.6309
345.7993, 142.4196
346.2814, 144.1836
346.7635, 146.3092
347.2456, 149.1600
347.7277, 152.1394
348.2098, 154.6070
348.6920, 156.5071
349.1741, 158.4592
349.6562, 161.1756
350.1383, 164.9078
350.6204, 168.1995
351.1025, 170.8874
351.5847, 173.3665
352.0668, 175.5718
352.5489, 177.6806
353.0310, 180.1386
353.5131, 183.2938
353.9952, 187.0573
354.4774, 190.5888
354.9595, 193.8083
355.4416, 196.8799
355.9237, 199.6180
356.4058, 202.2807
356.8879, 205.2497
357.3701, 208.6934
357.8522, 212.4296
358.3343, 216.0815
358.8164, 219.6299
359.2985, 223.1109
359.7806, 226.6589
360.2627, 230.0670
360.7448, 233.0578
361.2270, 235.6519
361.7091, 238.1706
362.1912, 241.0565
362.6733, 244.4767
363.1554, 247.5182
363.6375, 250.5440
364.1197, 252.8769
364.6018, 253.9537
365.0839, 254.0800
365.5660, 253.9897
366.0481, 254.2461
366.5302, 254.7419
367.0124, 254.6721
367.4945, 254.2904
367.9766, 252.8866
368.4587, 249.9532
368.9408, 246.1357
369.4229, 242.1558
369.9051, 238.3277
370.3872, 234.4478
370.8693, 230.0388
371.3514, 224.7962
371.8335, 219.8304
372.3156, 215.6488
372.7978, 211.4780
373.2799, 206.6417
373.7620, 201.1748
374.2441, 195.6885
374.7262, 190.8682
375.2083, 186.7535
375.6905, 182.5437
376.1726, 177.7879
376.6547, 173.4755
377.1368, 170.1687
377.6189, 167.5819
378.1010, 165.1541
378.5832, 162.5784
379.0653, 159.9290
379.5474, 157.3950
380.0295, 155.0058
380.5116, 152.6567
380.9937, 150.1873
381.4759, 147.7918
381.9580, 145.6532
382.4401, 143.8132
382.9222, 142.2500
383.4043, 141.0566
383.8864, 140.2265
384.3686, 139.2679
384.8507, 137.8701
385.3328, 136.5421
385.8149, 135.8209
386.2970, 135.6355
386.7791, 135.2961
387.2613, 134.2753
387.7434, 132.8516
388.2255, 131.6406
388.7076, 130.6715
389.1897, 129.9671
389.6718, 129.9115
390.1540, 130.1099
390.6361, 129.7028
391.1182, 128.1216
391.6003, 126.2953
392.0824, 124.9576
392.5645, 124.0921
393.0467, 123.6736
393.5288, 123.9391
394.0109, 124.4001
394.4930, 124.0676
394.9751, 122.6917
395.4572, 121.5716
395.9394, 121.4840
396.4215, 121.9101
396.9036, 121.9519
397.3857, 121.4006
397.8678, 120.7021
398.3499, 120.3649
398.8321, 120.4170
399.3142, 120.1668
399.7963, 119.3401
400.2784, 118.3971
400.7605, 117.5677
401.2426, 116.8877
401.7247, 116.4364
402.2068, 116.2989
402.6890, 116.3893
403.1711, 116.3267
403.6532, 116.1659
404.1353, 115.8115
404.6174, 115.0754
405.0995, 114.2027
405.5817, 113.5472
406.0638, 113.2042
406.5459, 112.9135
407.0280, 112.2841
407.5101, 111.1289
407.9922, 110.2475
408.4744, 109.9110
408.9565, 109.5752
409.4386, 108.9159
409.9207, 107.9836
410.4028, 106.9877
410.8849, 106.0418
411.3671, 105.1779
411.8492, 104.6178
412.3313, 104.8383
412.8134, 104.7708
413.2955, 104.1793
413.7776, 103.2788
414.2598, 102.2174
414.7419, 101.0642
415.2240, 99.97458
415.7061, 99.25508
416.1882, 99.08770
416.6703, 98.63930
417.1525, 97.47399
417.6346, 96.36563
418.1167, 95.64871
418.5988, 95.30032
419.0809, 95.15390
419.5630, 95.10429
420.0452, 95.15783
420.5273, 95.39572
421.0094, 96.00999
421.4915, 96.39474
421.9736, 96.17671
422.4557, 95.68531
422.9379, 95.28762
423.4200, 95.10537
423.9021, 94.89579
424.3842, 94.24745
424.8663, 93.19405
425.3484, 92.60742
425.8306, 92.97094
426.3127, 93.46970
426.7948, 93.30016
427.2769, 92.56121
427.7590, 91.89094
428.2411, 91.65625
428.7233, 91.60820
429.2054, 91.32819
429.6875, 90.77913
430.1696, 90.28653
430.6517, 90.04826
431.1339, 90.02351
431.6160, 90.03825
432.0981, 90.11767
432.5802, 90.19637
433.0623, 90.26149
433.5444, 90.30068
434.0266, 90.24368
434.5087, 90.04836
434.9908, 89.90293
435.4729, 90.14578
435.9550, 90.96327
436.4371, 91.26436
436.9193, 90.47081
437.4014, 89.58872
437.8835, 89.40778
438.3656, 89.81507
438.8477, 90.14165
439.3298, 89.90922
439.8120, 89.28575
440.2941, 89.18605
440.7762, 90.32729
441.2583, 91.10583
441.7404, 91.21986
442.2225, 90.96680
442.7046, 90.51091
443.1867, 89.95511
443.6689, 89.55062
444.1510, 89.70255
444.6331, 90.61528
445.1152, 91.05796
445.5973, 90.58594
446.0794, 90.07777
446.5616, 89.76173
447.0437, 89.64262
447.5258, 89.69906
448.0079, 89.94816
448.4900, 90.29125
448.9721, 90.45534
449.4543, 90.34004
449.9364, 90.33599
450.4185, 90.81006
450.9006, 91.24155
451.3827, 91.12796
451.8648, 90.46347
452.3470, 89.88783
452.8291, 90.08822
453.3112, 90.84126
453.7933, 91.08557
454.2754, 90.54963
454.7575, 90.01870
455.2397, 90.03074
455.7218, 90.39989
456.2039, 90.87688
456.6860, 91.52511
457.1681, 92.09492
457.6502, 92.36024
458.1324, 92.35986
458.6145, 92.23971
459.0966, 91.98674
459.5787, 91.75224
460.0608, 91.75683
460.5429, 91.98467
461.0251, 92.40808
461.5072, 93.27670
461.9893, 94.16410
462.4714, 94.70925
462.9535, 94.89902
463.4356, 94.84816
463.9178, 94.59513
464.3999, 94.18803
464.8820, 93.88526
465.3641, 93.81110
465.8462, 93.67445
466.3283, 93.20279
466.8105, 92.76413
467.2926, 92.89013
467.7747, 93.63728
468.2568, 94.43589
468.7389, 94.53864
469.2210, 93.75455
469.7032, 93.55202
470.1853, 94.71032
470.6674, 95.64521
471.1495, 95.61911
471.6316, 95.10973
472.1137, 94.92213
472.5959, 95.44682
473.0780, 96.38937
473.5601, 97.29356
474.0422, 98.24541
474.5243, 98.77991
475.0064, 98.30019
475.4886, 97.78904
475.9707, 97.90632
476.4528, 98.58723
476.9349, 99.29839
477.4170, 99.58884
477.8991, 99.70523
478.3813, 100.3658
478.8634, 101.7121
479.3455, 102.7291
479.8276, 102.7376
480.3097, 102.1455
480.7918, 101.6747
481.2740, 101.3256
481.7561, 101.1834
482.2382, 101.4314
482.7203, 101.8852
483.2024, 102.1344
483.6845, 102.0844
484.1666, 102.1387
484.6487, 102.7582
485.1309, 103.9642
485.6130, 104.7974
486.0951, 105.0523
486.5772, 105.1774
487.0593, 105.2371
487.5414, 105.3240
488.0236, 105.6369
488.5057, 106.2542
488.9878, 106.9584
489.4699, 107.3482
489.9520, 107.2568
490.4341, 107.2593
490.9163, 107.5219
491.3984, 107.7078
491.8805, 107.5511
492.3626, 107.1731
492.8447, 106.8819
493.3268, 106.8728
493.8090, 107.0800
494.2911, 107.3794
494.7732, 107.9375
495.2553, 108.1341
495.7374, 107.3802
496.2195, 106.5214
496.7017, 106.2345
497.1838, 106.5281
497.6659, 106.7794
498.1480, 106.4131
498.6301, 105.6818
499.1122, 105.3422
499.5944, 105.5062
500.0765, 105.6456
500.5586, 105.3909
501.0407, 104.9284
501.5228, 104.6966
502.0049, 104.9343
502.4871, 104.9256
502.9692, 103.9668
503.4513, 102.6053
503.9334, 101.9161
504.4155, 102.1418
504.8976, 102.5473
505.3798, 102.3693
505.8619, 101.5569
506.3440, 101.1570
506.8261, 101.7656
507.3082, 102.0826
507.7903, 101.2719
508.2725, 99.96349
508.7546, 99.18629
509.2367, 99.31467
509.7188, 99.88634
510.2009, 100.2119
510.6830, 100.3128
511.1652, 100.0950
511.6473, 99.18534
512.1294, 98.32681
512.6115, 97.80542
513.0936, 97.55104
513.5757, 97.40623
514.0579, 97.31760
514.5400, 97.22018
515.0221, 96.99020
515.5042, 96.61547
515.9863, 96.17612
516.4684, 95.53263
516.9506, 94.99244
517.4327, 94.81247
517.9148, 94.96801
518.3969, 95.25660
518.8790, 95.82179
519.3611, 96.34457
519.8433, 96.33344
520.3254, 95.81682
520.8075, 95.28723
521.2896, 94.98950
521.7717, 94.80910
522.2538, 94.42448
522.7360, 93.60189
523.2181, 93.24458
523.7002, 93.87906
524.1823, 94.78080
524.6644, 95.38132
525.1465, 95.61881
525.6287, 95.59464
526.1108, 95.33101
526.5929, 94.93201
527.0750, 94.97048
527.5571, 96.01118
528.0392, 96.68253
528.5214, 96.66810
529.0035, 96.39536
529.4856, 96.17010
529.9677, 96.05031
530.4498, 95.97016
530.9319, 95.91337
531.4141, 95.85284
531.8962, 95.56145
532.3783, 94.85496
532.8604, 94.34780
533.3425, 94.49902
533.8246, 94.89381
534.3068, 95.13339
534.7889, 95.15370
535.2710, 95.05649
535.7531, 94.83911
536.2352, 94.56523
536.7173, 94.47216
537.1995, 94.62244
537.6816, 94.47129
538.1637, 93.41364
538.6458, 91.69231
539.1279, 90.78400
539.6100, 91.17413
540.0922, 91.69753
540.5743, 92.37234
541.0564, 92.84428
541.5385, 92.36620
542.0206, 90.93569
542.5027, 89.71420
542.9849, 90.06915
543.4670, 92.06176
543.9491, 92.90316
544.4312, 91.34706
544.9133, 90.08331
545.3954, 89.96741
545.8775, 90.24765
546.3596, 89.98470
546.8417, 88.96144
547.3239, 87.85958
547.8060, 87.51462
548.2881, 87.84675
548.7702, 87.89272
549.2523, 87.43916
549.7344, 87.06139
550.2166, 87.26241
550.6987, 87.73219
551.1808, 88.02572
551.6629, 88.11304
552.1450, 87.91846
552.6271, 87.14092
553.1093, 86.09408
553.5914, 85.47741
554.0735, 85.43777
554.5556, 85.53838
555.0377, 85.39185
555.5198, 85.00096
556.0020, 84.63865
556.4841, 84.06631
556.9662, 83.80171
557.4483, 84.31982
557.9304, 85.06042
558.4125, 85.29479
558.8947, 84.87681
559.3768, 84.26467
559.8589, 83.97836
560.3410, 84.02851
560.8231, 83.96236
561.3052, 83.71574
561.7874, 83.44048
562.2695, 83.03177
562.7516, 82.69473
563.2337, 82.73716
563.7158, 83.25459
564.1979, 83.79797
564.6801, 84.01590
565.1622, 83.95100
565.6443, 83.71960
566.1264, 83.31494
566.6085, 82.82317
567.0906, 82.19785
567.5728, 81.54905
568.0549, 81.24927
568.5370, 81.45686
569.0191, 81.75937
569.5012, 82.21806
569.9833, 82.59602
570.4655, 82.49082
570.9476, 81.90232
571.4297, 81.31099
571.9118, 81.18050
572.3939, 81.45461
572.8760, 81.40587
573.3582, 80.50901
573.8403, 80.01331
574.3224, 80.39947
574.8045, 81.03399
575.2866, 81.39621
575.7687, 81.40127
576.2509, 81.22612
576.7330, 80.96704
577.2151, 80.64980
577.6972, 80.36948
578.1793, 80.12607
578.6614, 79.91165
579.1436, 79.61750
579.6257, 79.43208
580.1078, 79.74422
580.5899, 80.71219
581.0720, 81.26454
581.5541, 80.47132
582.0363, 79.38158
582.5184, 79.34966
583.0005, 80.28594
583.4826, 81.04789
583.9647, 80.92961
584.4468, 80.24454
584.9290, 79.91308
585.4111, 80.24825
585.8932, 80.45829
586.3753, 80.42458
586.8574, 80.37781
