##NAMES=Dravite
##RRUFFID=R040088
##IDEAL CHEMISTRY=NaMg_3_Al_6_(Si_6_O_18_)(BO_3_)_3_(OH)_3_OH
##LOCALITY=Yinnietharra Station, Pilbara, Western Australia, Australia
##OWNER=RRUFF
##SOURCE=University of Arizona Mineral Museum
##DESCRIPTION=Brown short prismatic crystal
##STATUS=The identification of this mineral has been confirmed by X-ray diffraction and chemical analysis
##URL=rruff.info/R040088
##MEASURED CHEMISTRY=(Na_0.88_Ca_0.06_[box]_0.06_)(Mg_0.88_Al_0.10_Ti_0.04_Fe_0.02_)_3_Al_6.00_(B_1_O_3_)_3_Si_6.00_O_18_((OH)_0.98_F_0.02_)_4_
154.8954, 1117.065
155.3775, 1138.472
155.8597, 1139.538
156.3418, 1113.547
156.8239, 1089.276
157.3060, 1083.585
157.7881, 1092.190
158.2702, 1097.986
158.7524, 1093.179
159.2345, 1084.174
159.7166, 1081.924
160.1987, 1088.614
160.6808, 1095.516
161.1629, 1097.272
161.6451, 1094.519
162.1272, 1090.425
162.6093, 1084.486
163.0914, 1079.478
163.5735, 1079.504
164.0556, 1086.686
164.5378, 1093.645
165.0199, 1094.534
165.5020, 1089.838
165.9841, 1084.386
166.4662, 1078.125
166.9483, 1073.475
167.4305, 1073.912
167.9126, 1081.585
168.3947, 1089.153
168.8768, 1089.156
169.3589, 1081.557
169.8410, 1074.689
170.3232, 1071.414
170.8053, 1070.435
171.2874, 1071.165
171.7695, 1074.629
172.2516, 1076.467
172.7337, 1071.206
173.2159, 1058.222
173.6980, 1045.286
174.1801, 1030.662
174.6622, 1019.807
175.1443, 1020.361
175.6264, 1036.575
176.1086, 1054.729
176.5907, 1057.868
177.0728, 1043.731
177.5549, 1032.118
178.0370, 1032.352
178.5191, 1037.105
179.0013, 1040.673
179.4834, 1041.828
179.9655, 1041.846
180.4476, 1042.429
180.9297, 1043.850
181.4118, 1044.146
181.8940, 1039.959
182.3761, 1035.721
182.8582, 1035.200
183.3403, 1039.572
183.8224, 1046.398
184.3046, 1052.753
184.7867, 1058.376
185.2688, 1064.917
185.7509, 1075.704
186.2330, 1086.124
186.7151, 1091.701
187.1973, 1090.767
187.6794, 1088.720
188.1615, 1094.242
188.6436, 1110.030
189.1257, 1119.934
189.6078, 1108.707
190.0900, 1095.673
190.5721, 1095.226
191.0542, 1111.397
191.5363, 1135.375
192.0184, 1159.556
192.5005, 1186.029
192.9827, 1202.167
193.4648, 1193.922
193.9469, 1180.233
194.4290, 1173.446
194.9111, 1176.445
195.3932, 1184.540
195.8754, 1191.812
196.3575, 1197.438
196.8396, 1206.726
197.3217, 1223.237
197.8038, 1242.622
198.2859, 1262.883
198.7681, 1283.738
199.2502, 1304.516
199.7323, 1323.280
200.2144, 1338.730
200.6965, 1359.540
201.1786, 1392.268
201.6608, 1428.209
202.1429, 1462.389
202.6250, 1494.064
203.1071, 1524.633
203.5892, 1553.115
204.0713, 1578.018
204.5535, 1612.515
205.0356, 1665.398
205.5177, 1724.723
205.9998, 1784.586
206.4819, 1844.301
206.9640, 1904.492
207.4462, 1965.915
207.9283, 2028.600
208.4104, 2091.986
208.8925, 2158.814
209.3746, 2224.060
209.8567, 2285.940
210.3388, 2343.890
210.8210, 2394.685
211.3031, 2433.040
211.7852, 2458.647
212.2673, 2484.574
212.7494, 2521.825
213.2315, 2549.875
213.7137, 2554.405
214.1958, 2536.968
214.6779, 2511.881
215.1600, 2490.836
215.6421, 2473.620
216.1242, 2451.852
216.6064, 2427.080
217.0885, 2394.630
217.5706, 2349.101
218.0527, 2292.924
218.5348, 2236.384
219.0169, 2188.141
219.4991, 2146.984
219.9812, 2101.244
220.4633, 2043.099
220.9454, 1989.832
221.4275, 1952.184
221.9096, 1927.021
222.3918, 1904.583
222.8739, 1876.299
223.3560, 1844.739
223.8381, 1823.550
224.3202, 1818.086
224.8023, 1814.882
225.2845, 1806.595
225.7666, 1794.539
226.2487, 1781.542
226.7308, 1767.582
227.2129, 1753.899
227.6950, 1743.407
228.1772, 1735.062
228.6593, 1732.533
229.1414, 1741.847
229.6235, 1757.463
230.1056, 1769.628
230.5877, 1771.295
231.0699, 1768.706
231.5520, 1774.335
232.0341, 1790.292
232.5162, 1808.014
232.9983, 1820.809
233.4804, 1833.047
233.9626, 1851.493
234.4447, 1881.039
234.9268, 1914.722
235.4089, 1942.097
235.8910, 1961.776
236.3731, 1984.305
236.8553, 2018.266
237.3374, 2057.046
237.8195, 2093.342
238.3016, 2126.969
238.7837, 2155.577
239.2658, 2172.897
239.7480, 2178.832
240.2301, 2190.534
240.7122, 2222.301
241.1943, 2259.232
241.6764, 2280.870
242.1585, 2283.538
242.6407, 2277.191
243.1228, 2267.963
243.6049, 2255.802
244.0870, 2240.581
244.5691, 2223.413
245.0512, 2201.454
245.5334, 2170.988
246.0155, 2130.647
246.4976, 2089.052
246.9797, 2050.416
247.4618, 2014.226
247.9439, 1978.047
248.4261, 1941.106
248.9082, 1904.477
249.3903, 1870.484
249.8724, 1839.896
250.3545, 1805.342
250.8366, 1759.917
251.3188, 1710.049
251.8009, 1666.476
252.2830, 1631.667
252.7651, 1602.433
253.2472, 1576.866
253.7293, 1554.978
254.2115, 1531.468
254.6936, 1502.359
255.1757, 1472.523
255.6578, 1447.366
256.1399, 1427.679
256.6220, 1411.650
257.1042, 1398.508
257.5863, 1388.444
258.0684, 1377.736
258.5505, 1363.728
259.0326, 1351.008
259.5147, 1345.346
259.9969, 1345.659
260.4790, 1342.734
260.9611, 1328.261
261.4432, 1303.628
261.9253, 1288.397
262.4074, 1288.893
262.8896, 1291.451
263.3717, 1291.293
263.8538, 1288.337
264.3359, 1282.411
264.8180, 1272.611
265.3001, 1260.650
265.7823, 1255.471
266.2644, 1264.493
266.7465, 1270.481
267.2286, 1268.031
267.7107, 1260.584
268.1928, 1252.829
268.6750, 1246.676
269.1571, 1242.166
269.6392, 1239.518
270.1213, 1243.627
270.6034, 1243.350
271.0855, 1235.466
271.5677, 1224.756
272.0498, 1215.127
272.5319, 1207.877
273.0140, 1202.859
273.4961, 1200.618
273.9782, 1205.638
274.4604, 1202.704
274.9425, 1183.379
275.4246, 1163.761
275.9067, 1153.992
276.3888, 1154.803
276.8709, 1161.175
277.3531, 1169.019
277.8352, 1179.451
278.3173, 1184.042
278.7994, 1179.737
279.2815, 1172.679
279.7636, 1163.232
280.2458, 1152.695
280.7279, 1143.299
281.2100, 1136.863
281.6921, 1133.069
282.1742, 1128.765
282.6563, 1122.346
283.1385, 1117.520
283.6206, 1117.564
284.1027, 1119.165
284.5848, 1117.066
285.0669, 1107.947
285.5490, 1095.422
286.0312, 1089.013
286.5133, 1091.392
286.9954, 1093.725
287.4775, 1092.827
287.9596, 1091.214
288.4417, 1090.933
288.9239, 1092.547
289.4060, 1095.793
289.8881, 1102.469
290.3702, 1113.595
290.8523, 1117.626
291.3344, 1105.271
291.8166, 1089.845
292.2987, 1080.916
292.7808, 1079.181
293.2629, 1081.193
293.7450, 1086.859
294.2271, 1094.918
294.7093, 1098.376
295.1914, 1093.484
295.6735, 1088.470
296.1556, 1090.325
296.6377, 1098.011
297.1198, 1107.385
297.6020, 1118.698
298.0841, 1130.102
298.5662, 1140.155
299.0483, 1149.546
299.5304, 1152.303
300.0125, 1139.203
300.4947, 1115.383
300.9768, 1099.914
301.4589, 1100.508
301.9410, 1105.593
302.4231, 1106.119
302.9052, 1103.103
303.3874, 1102.646
303.8695, 1108.298
304.3516, 1118.511
304.8337, 1128.210
305.3158, 1138.742
305.7979, 1147.026
306.2801, 1150.779
306.7622, 1151.960
307.2443, 1153.389
307.7264, 1155.901
308.2085, 1160.211
308.6906, 1167.810
309.1728, 1181.855
309.6549, 1193.002
310.1370, 1197.491
310.6191, 1201.239
311.1012, 1212.049
311.5833, 1229.582
312.0655, 1243.837
312.5476, 1242.949
313.0297, 1223.018
313.5118, 1210.676
313.9939, 1211.974
314.4760, 1213.600
314.9582, 1209.407
315.4403, 1200.840
315.9224, 1192.887
316.4045, 1189.257
316.8866, 1188.755
317.3687, 1183.504
317.8509, 1168.905
318.3330, 1155.237
318.8151, 1141.471
319.2972, 1130.733
319.7793, 1128.414
320.2614, 1136.952
320.7436, 1148.812
321.2257, 1148.783
321.7078, 1131.430
322.1899, 1120.228
322.6720, 1124.391
323.1541, 1132.337
323.6363, 1136.982
324.1184, 1137.550
324.6005, 1138.041
325.0826, 1141.581
325.5647, 1148.103
326.0468, 1157.062
326.5290, 1171.232
327.0111, 1183.665
327.4932, 1187.359
327.9753, 1185.293
328.4574, 1186.825
328.9395, 1200.431
329.4217, 1218.370
329.9038, 1226.408
330.3859, 1223.072
330.8680, 1221.342
331.3501, 1230.866
331.8322, 1247.008
332.3144, 1258.179
332.7965, 1260.153
333.2786, 1261.450
333.7607, 1268.435
334.2428, 1279.257
334.7249, 1287.240
335.2070, 1288.994
335.6891, 1288.559
336.1713, 1294.938
336.6534, 1312.208
337.1355, 1323.917
337.6176, 1323.306
338.0997, 1317.783
338.5818, 1313.201
339.0640, 1311.181
339.5461, 1314.282
340.0282, 1326.243
340.5103, 1349.387
340.9924, 1366.885
341.4745, 1377.313
341.9567, 1384.473
342.4388, 1389.161
342.9209, 1391.950
343.4030, 1393.588
343.8851, 1394.475
344.3672, 1394.705
344.8494, 1394.486
345.3315, 1390.093
345.8136, 1390.814
346.2957, 1402.795
346.7778, 1417.647
347.2599, 1426.422
347.7421, 1426.546
348.2242, 1423.526
348.7063, 1424.863
349.1884, 1431.126
349.6705, 1438.943
350.1526, 1447.388
350.6348, 1458.093
351.1169, 1472.363
351.5990, 1489.921
352.0811, 1509.021
352.5632, 1528.192
353.0453, 1548.015
353.5275, 1571.430
354.0096, 1600.786
354.4917, 1627.616
354.9738, 1638.891
355.4559, 1645.136
355.9380, 1664.513
356.4202, 1707.078
356.9023, 1756.277
357.3844, 1795.770
357.8665, 1827.778
358.3486, 1866.589
358.8307, 1918.247
359.3129, 1979.029
359.7950, 2043.305
360.2771, 2110.691
360.7592, 2180.542
361.2413, 2251.310
361.7234, 2324.804
362.2056, 2406.121
362.6877, 2495.763
363.1698, 2582.816
363.6519, 2654.635
364.1340, 2708.565
364.6161, 2771.131
365.0983, 2852.162
365.5804, 2931.110
366.0625, 3005.289
366.5446, 3070.135
367.0267, 3116.938
367.5089, 3140.700
367.9910, 3145.232
368.4731, 3143.084
368.9552, 3136.935
369.4373, 3118.534
369.9194, 3089.542
370.4016, 3048.302
370.8837, 2988.959
371.3658, 2912.227
371.8479, 2831.399
372.3300, 2764.615
372.8121, 2713.392
373.2943, 2646.500
373.7764, 2552.231
374.2585, 2454.416
374.7406, 2361.216
375.2227, 2274.536
375.7048, 2198.074
376.1870, 2137.310
376.6691, 2085.542
377.1512, 2033.050
377.6333, 1979.704
378.1154, 1925.394
378.5975, 1866.177
379.0797, 1808.405
379.5618, 1763.370
380.0439, 1734.402
380.5260, 1709.537
381.0081, 1682.411
381.4902, 1655.369
381.9724, 1633.457
382.4545, 1618.039
382.9366, 1605.013
383.4187, 1590.228
383.9008, 1573.607
384.3829, 1553.741
384.8651, 1527.960
385.3472, 1501.383
385.8293, 1473.810
386.3114, 1447.610
386.7935, 1429.377
387.2756, 1423.929
387.7578, 1427.570
388.2399, 1424.701
388.7220, 1408.368
389.2041, 1395.225
389.6862, 1387.470
390.1683, 1383.054
390.6505, 1381.745
391.1326, 1382.829
391.6147, 1382.469
392.0968, 1374.744
392.5789, 1358.789
393.0610, 1347.133
393.5432, 1341.125
394.0253, 1338.603
394.5074, 1340.470
394.9895, 1344.689
395.4716, 1346.926
395.9537, 1346.556
396.4359, 1342.040
396.9180, 1326.929
397.4001, 1300.598
397.8822, 1283.277
398.3643, 1286.225
398.8464, 1300.751
399.3286, 1312.433
399.8107, 1322.281
400.2928, 1326.039
400.7749, 1317.623
401.2570, 1303.810
401.7391, 1294.871
402.2213, 1292.482
402.7034, 1291.200
403.1855, 1285.380
403.6676, 1274.421
404.1497, 1267.744
404.6318, 1266.146
405.1140, 1267.262
405.5961, 1273.559
406.0782, 1281.312
406.5603, 1284.049
407.0424, 1278.728
407.5245, 1268.298
408.0067, 1259.415
408.4888, 1253.393
408.9709, 1245.983
409.4530, 1235.648
409.9351, 1224.958
410.4172, 1214.698
410.8994, 1205.395
411.3815, 1198.377
411.8636, 1195.908
412.3457, 1196.675
412.8278, 1194.958
413.3099, 1190.340
413.7921, 1184.313
414.2742, 1175.507
414.7563, 1166.402
415.2384, 1161.026
415.7205, 1162.476
416.2026, 1162.564
416.6848, 1152.468
417.1669, 1136.156
417.6490, 1125.719
418.1311, 1124.827
418.6132, 1128.106
419.0953, 1129.875
419.5775, 1130.226
420.0596, 1127.504
420.5417, 1119.339
421.0238, 1110.090
421.5059, 1101.226
421.9880, 1093.530
422.4702, 1088.582
422.9523, 1087.475
423.4344, 1089.218
423.9165, 1090.478
424.3986, 1090.149
424.8807, 1091.135
425.3629, 1095.261
425.8450, 1099.513
426.3271, 1101.314
426.8092, 1100.507
427.2913, 1099.132
427.7734, 1101.188
428.2556, 1105.562
428.7377, 1098.530
429.2198, 1070.329
429.7019, 1049.303
430.1840, 1057.616
430.6661, 1079.949
431.1483, 1093.798
431.6304, 1091.384
432.1125, 1084.255
432.5946, 1082.163
433.0767, 1083.399
433.5588, 1080.733
434.0410, 1070.958
434.5231, 1060.689
435.0052, 1058.866
435.4873, 1067.003
435.9694, 1073.708
436.4515, 1078.416
436.9337, 1081.502
437.4158, 1084.004
437.8979, 1085.156
438.3800, 1082.048
438.8621, 1072.505
439.3442, 1059.478
439.8264, 1052.325
440.3085, 1054.203
440.7906, 1056.889
441.2727, 1058.876
441.7548, 1062.016
442.2369, 1069.753
442.7191, 1081.038
443.2012, 1089.384
443.6833, 1088.188
444.1654, 1079.200
444.6475, 1071.774
445.1296, 1066.711
445.6118, 1061.166
446.0939, 1052.343
446.5760, 1042.623
447.0581, 1034.655
447.5402, 1027.469
448.0223, 1025.480
448.5045, 1035.266
448.9866, 1051.829
449.4687, 1064.779
449.9508, 1071.772
450.4329, 1074.097
450.9150, 1072.403
451.3972, 1066.174
451.8793, 1060.463
452.3614, 1052.673
452.8435, 1048.069
453.3256, 1052.962
453.8077, 1061.785
454.2899, 1064.089
454.7720, 1055.206
455.2541, 1041.313
455.7362, 1033.969
456.2183, 1034.845
456.7004, 1037.250
457.1826, 1045.040
457.6647, 1050.601
458.1468, 1047.288
458.6289, 1038.115
459.1110, 1032.764
459.5931, 1038.787
460.0753, 1050.064
460.5574, 1055.747
461.0395, 1055.677
461.5216, 1053.213
462.0037, 1046.849
462.4858, 1041.388
462.9680, 1046.066
463.4501, 1063.542
463.9322, 1077.277
464.4143, 1082.188
464.8964, 1081.426
465.3785, 1075.579
465.8607, 1066.136
466.3428, 1059.197
466.8249, 1059.420
467.3070, 1065.732
467.7891, 1071.409
468.2712, 1075.319
468.7534, 1080.030
469.2355, 1087.276
469.7176, 1094.479
470.1997, 1099.805
470.6818, 1102.694
471.1639, 1103.086
471.6461, 1098.874
472.1282, 1090.959
472.6103, 1089.062
473.0924, 1095.146
473.5745, 1103.009
474.0566, 1110.816
474.5388, 1117.946
475.0209, 1123.259
475.5030, 1126.341
475.9851, 1128.163
476.4672, 1130.152
476.9493, 1131.184
477.4315, 1126.868
477.9136, 1115.996
478.3957, 1107.375
478.8778, 1110.562
479.3599, 1126.475
479.8420, 1140.261
480.3242, 1152.119
480.8063, 1162.006
481.2884, 1169.154
481.7705, 1174.513
482.2526, 1179.340
482.7347, 1184.062
483.2169, 1188.221
483.6990, 1190.536
484.1811, 1190.475
484.6632, 1193.049
485.1453, 1200.691
485.6274, 1208.204
486.1096, 1213.191
486.5917, 1216.048
487.0738, 1217.342
487.5559, 1215.778
488.0380, 1214.972
488.5201, 1219.961
489.0023, 1229.096
489.4844, 1235.496
489.9665, 1237.001
490.4486, 1235.925
490.9307, 1234.955
491.4128, 1234.220
491.8950, 1232.685
492.3771, 1228.633
492.8592, 1225.486
493.3413, 1226.992
493.8234, 1230.286
494.3055, 1228.872
494.7877, 1219.685
495.2698, 1208.154
495.7519, 1204.826
496.2340, 1212.078
496.7161, 1218.288
497.1982, 1227.062
497.6804, 1229.814
498.1625, 1215.683
498.6446, 1191.695
499.1267, 1177.651
499.6088, 1188.684
500.0909, 1205.422
500.5730, 1204.150
501.0551, 1187.609
501.5373, 1171.126
502.0194, 1158.591
502.5015, 1151.032
502.9836, 1151.749
503.4657, 1164.338
503.9478, 1168.298
504.4300, 1156.588
504.9121, 1142.365
505.3942, 1130.981
505.8763, 1123.029
506.3584, 1118.612
506.8405, 1117.924
507.3227, 1119.425
507.8048, 1120.576
508.2869, 1121.894
508.7690, 1120.818
509.2511, 1115.205
509.7332, 1108.993
510.2154, 1103.798
510.6975, 1099.708
511.1796, 1096.801
511.6617, 1095.710
512.1439, 1095.114
512.6260, 1093.878
513.1081, 1091.943
513.5902, 1088.216
514.0723, 1081.510
514.5544, 1075.966
515.0366, 1078.510
515.5187, 1092.854
516.0008, 1098.124
516.4829, 1086.123
516.9650, 1073.443
517.4471, 1067.922
517.9293, 1067.629
518.4114, 1068.793
518.8935, 1069.799
519.3756, 1069.756
519.8577, 1066.811
520.3398, 1060.508
520.8220, 1054.027
521.3041, 1043.407
521.7862, 1038.284
522.2683, 1048.825
522.7504, 1068.473
523.2325, 1080.913
523.7147, 1078.083
524.1968, 1071.153
524.6789, 1070.220
525.1610, 1072.372
525.6431, 1067.542
526.1252, 1052.406
526.6074, 1037.867
527.0895, 1037.409
527.5716, 1053.485
528.0537, 1063.031
528.5358, 1059.063
529.0179, 1057.423
529.5001, 1068.115
529.9822, 1081.878
530.4643, 1085.068
530.9464, 1073.670
531.4285, 1058.259
531.9106, 1051.725
532.3928, 1053.417
532.8749, 1050.975
533.3570, 1039.726
533.8391, 1033.862
534.3212, 1049.652
534.8033, 1075.345
535.2855, 1086.245
535.7676, 1072.403
536.2497, 1057.967
536.7318, 1056.349
537.2139, 1059.880
537.6960, 1056.833
538.1782, 1045.940
538.6603, 1035.507
539.1424, 1032.963
539.6245, 1037.361
540.1066, 1038.887
540.5887, 1034.340
541.0709, 1031.587
541.5530, 1033.447
542.0351, 1036.374
542.5172, 1037.946
542.9993, 1037.612
543.4814, 1035.195
543.9636, 1029.567
544.4457, 1022.022
544.9278, 1014.256
545.4099, 1006.135
545.8920, 1002.690
546.3741, 1008.029
546.8563, 1017.518
547.3384, 1021.629
547.8205, 1019.613
548.3026, 1015.271
548.7847, 1005.042
549.2668, 995.9911
549.7490, 994.7782
550.2311, 999.1096
550.7132, 1002.321
551.1953, 1000.785
551.6774, 995.4186
552.1595, 986.2864
552.6417, 971.0872
553.1238, 964.6472
553.6059, 976.2845
554.0880, 988.9555
554.5701, 989.7259
555.0522, 981.8956
555.5344, 976.5433
556.0165, 978.9610
556.4986, 982.7239
556.9807, 982.4850
557.4628, 979.9351
557.9449, 979.7731
558.4271, 983.3166
558.9092, 986.1620
559.3913, 982.9231
559.8734, 972.9590
560.3555, 965.3812
560.8376, 958.8618
561.3198, 956.4884
561.8019, 963.4756
562.2840, 972.6376
562.7661, 975.9714
563.2482, 971.7591
563.7303, 964.3621
564.2125, 956.3422
564.6946, 948.1718
565.1767, 940.7757
565.6588, 933.9929
566.1409, 930.8428
566.6230, 935.0019
567.1052, 942.5460
567.5873, 942.0704
568.0694, 927.2594
568.5515, 920.0272
569.0336, 930.0436
569.5157, 943.1461
569.9979, 948.8330
570.4800, 948.0759
570.9621, 947.1230
571.4442, 949.7628
571.9263, 953.7375
572.4084, 953.7222
572.8906, 948.9861
573.3727, 945.1312
573.8548, 942.7081
574.3369, 941.8524
574.8190, 943.3519
575.3011, 946.5423
575.7833, 949.1777
576.2654, 951.0086
576.7475, 951.8795
577.2296, 951.5843
577.7117, 950.3109
578.1938, 947.8943
578.6760, 944.4462
579.1581, 941.6561
579.6402, 941.6820
580.1223, 944.3804
580.6044, 943.6523
581.0865, 935.7504
581.5686, 930.2081
582.0507, 930.3620
582.5328, 932.7733
583.0150, 934.6674
583.4971, 935.6006
583.9792, 935.7612
584.4613, 933.4494
584.9434, 931.3568
585.4255, 935.7333
585.9077, 945.4491
586.3898, 950.0982
586.8719, 944.1609
587.3540, 933.4029
587.8361, 928.3661
588.3182, 931.1992
588.8004, 933.8669
589.2825, 936.6488
589.7646, 938.9797
590.2467, 941.4761
590.7288, 943.1061
591.2109, 941.5345
591.6931, 935.6202
592.1752, 929.6122
592.6573, 928.6243
593.1394, 931.7744
593.6215, 934.8815
594.1036, 937.4365
594.5858, 940.6852
595.0679, 946.2600
595.5500, 952.9813
596.0321, 956.1830
596.5142, 952.9254
596.9963, 951.4186
597.4785, 955.6851
597.9606, 959.9700
598.4427, 958.6613
598.9248, 952.8606
599.4069, 947.8339
599.8890, 946.9138
600.3712, 948.4731
600.8533, 949.2222
601.3354, 949.1017
601.8175, 948.9327
602.2996, 948.1706
602.7817, 948.5405
603.2639, 952.2776
603.7460, 958.6743
604.2281, 964.4941
604.7102, 969.6287
605.1923, 973.8957
605.6744, 977.4459
606.1566, 979.9602
606.6387, 980.8782
607.1208, 980.1893
607.6029, 978.3423
608.0850, 975.2939
608.5671, 971.6397
609.0493, 970.6703
609.5314, 973.0370
610.0135, 976.1063
610.4956, 980.3572
610.9777, 983.9879
611.4598, 984.5501
611.9420, 982.3294
612.4241, 981.8057
612.9062, 985.5408
613.3883, 990.2020
613.8704, 994.9767
614.3525, 998.6058
614.8347, 997.7451
615.3168, 991.6207
615.7989, 984.1970
616.2810, 979.9493
616.7631, 978.8676
617.2452, 980.0538
617.7274, 983.2491
618.2095, 989.2357
618.6916, 1001.768
619.1737, 1015.066
619.6558, 1023.991
620.1379, 1027.980
620.6201, 1027.938
621.1022, 1019.566
621.5843, 1010.831
622.0664, 1011.517
622.5485, 1019.322
623.0306, 1024.999
623.5128, 1024.656
623.9949, 1023.410
624.4770, 1029.678
624.9591, 1045.050
625.4412, 1057.937
625.9233, 1068.014
626.4055, 1075.898
626.8876, 1078.672
627.3697, 1081.063
627.8518, 1089.379
628.3339, 1105.038
628.8160, 1122.404
629.2982, 1140.437
629.7803, 1157.180
630.2624, 1170.407
630.7445, 1179.913
631.2266, 1184.936
631.7087, 1184.789
632.1909, 1182.361
632.6730, 1183.654
633.1551, 1191.086
633.6372, 1193.594
634.1193, 1189.587
634.6014, 1182.171
635.0836, 1169.368
635.5657, 1155.112
636.0478, 1145.272
636.5299, 1141.561
637.0120, 1139.530
637.4941, 1136.835
637.9763, 1133.838
638.4584, 1130.746
638.9405, 1127.760
639.4226, 1126.138
639.9047, 1126.791
640.3868, 1128.096
640.8690, 1126.270
641.3511, 1119.495
641.8332, 1114.832
642.3153, 1112.959
642.7974, 1112.599
643.2795, 1113.012
643.7617, 1114.682
644.2438, 1119.433
644.7259, 1128.924
645.2080, 1135.472
645.6901, 1128.783
646.1722, 1118.743
646.6544, 1121.260
647.1365, 1135.921
647.6186, 1152.169
