##NAMES=Dravite
##RRUFFID=R050077
##IDEAL CHEMISTRY=NaMg_3_Al_6_(Si_6_O_18_)(BO_3_)_3_(OH)_3_OH
##LOCALITY=Yinnietharra Station, Western Australia, Australia
##OWNER=RRUFF
##SOURCE=Rock Currier
##DESCRIPTION=Dark brown euhedral prismatic single crystal
##STATUS=The identification of this mineral has been confirmed by X-ray diffraction and chemical analysis
##URL=rruff.info/R050077
##MEASURED CHEMISTRY=(Na_0.783_Ca_0.217_)(Mg_0.771_Fe^2+^_0.221_Ti^4+^_0.008_)_3_(Al_0.956_Mg_0.044_)_6_(BO_3_)_3_[Si_6_O_18_]((OH)_0.914_F_0.086_)_4_
174.5344, 1335.526
175.0165, 1324.608
175.4986, 1328.750
175.9807, 1343.651
176.4628, 1358.343
176.9449, 1374.477
177.4271, 1387.006
177.9092, 1393.008
178.3913, 1395.085
178.8734, 1396.046
179.3555, 1396.017
179.8376, 1396.936
180.3197, 1405.588
180.8019, 1428.035
181.2840, 1447.519
181.7661, 1458.887
182.2482, 1464.801
182.7303, 1467.893
183.2124, 1468.850
183.6946, 1468.752
184.1767, 1470.680
184.6588, 1475.084
185.1409, 1480.946
185.6230, 1486.880
186.1051, 1494.143
186.5873, 1505.153
187.0694, 1521.796
187.5515, 1540.650
188.0336, 1552.203
188.5157, 1550.457
188.9978, 1551.486
189.4800, 1559.203
189.9621, 1570.734
190.4442, 1583.632
190.9263, 1596.876
191.4084, 1610.128
191.8905, 1622.169
192.3727, 1630.712
192.8548, 1642.450
193.3369, 1658.794
193.8190, 1678.147
194.3011, 1699.066
194.7832, 1720.979
195.2654, 1744.247
195.7475, 1769.454
196.2296, 1797.242
196.7117, 1826.375
197.1938, 1858.028
197.6759, 1890.029
198.1581, 1920.221
198.6402, 1947.997
199.1223, 1974.370
199.6044, 2000.412
200.0865, 2022.554
200.5686, 2052.302
201.0508, 2097.376
201.5329, 2144.916
202.0150, 2181.425
202.4971, 2204.375
202.9792, 2225.808
203.4613, 2268.365
203.9435, 2350.055
204.4256, 2411.519
204.9077, 2437.160
205.3898, 2454.135
205.8719, 2478.515
206.3540, 2514.426
206.8362, 2558.368
207.3183, 2607.118
207.8004, 2663.315
208.2825, 2716.646
208.7646, 2766.769
209.2467, 2814.737
209.7289, 2862.328
210.2110, 2908.801
210.6931, 2951.155
211.1752, 2987.385
211.6573, 3020.354
212.1395, 3034.828
212.6216, 3016.730
213.1037, 2993.578
213.5858, 2978.093
214.0679, 2970.564
214.5500, 2964.174
215.0322, 2952.105
215.5143, 2933.471
215.9964, 2915.154
216.4785, 2902.825
216.9606, 2885.508
217.4427, 2856.200
217.9249, 2817.555
218.4070, 2777.411
218.8891, 2742.221
219.3712, 2712.126
219.8533, 2681.904
220.3354, 2643.429
220.8176, 2613.007
221.2997, 2598.313
221.7818, 2595.251
222.2639, 2596.024
222.7460, 2596.084
223.2281, 2595.024
223.7103, 2588.333
224.1924, 2564.693
224.6745, 2547.820
225.1566, 2541.890
225.6387, 2545.843
226.1208, 2559.176
226.6030, 2582.631
227.0851, 2612.826
227.5672, 2635.503
228.0493, 2647.061
228.5314, 2655.153
229.0135, 2652.519
229.4957, 2650.426
229.9778, 2663.551
230.4599, 2698.927
230.9420, 2747.203
231.4241, 2784.635
231.9062, 2799.399
232.3884, 2823.691
232.8705, 2868.069
233.3526, 2918.592
233.8347, 2963.634
234.3168, 2999.214
234.7989, 3029.779
235.2811, 3063.522
235.7632, 3105.081
236.2453, 3138.616
236.7274, 3150.373
237.2095, 3163.463
237.6916, 3198.372
238.1738, 3256.766
238.6559, 3318.847
239.1380, 3360.458
239.6201, 3377.853
240.1022, 3388.228
240.5843, 3386.629
241.0665, 3382.660
241.5486, 3382.406
242.0307, 3385.007
242.5128, 3384.266
242.9949, 3375.178
243.4770, 3357.772
243.9592, 3330.935
244.4413, 3284.793
244.9234, 3237.641
245.4055, 3202.520
245.8876, 3172.681
246.3697, 3130.351
246.8519, 3058.632
247.3340, 2961.142
247.8161, 2874.714
248.2982, 2803.593
248.7803, 2738.630
249.2624, 2676.602
249.7446, 2617.534
250.2267, 2562.049
250.7088, 2510.171
251.1909, 2461.881
251.6730, 2417.223
252.1551, 2377.327
252.6373, 2338.628
253.1194, 2297.639
253.6015, 2258.054
254.0836, 2224.530
254.5657, 2199.314
255.0478, 2178.590
255.5300, 2156.048
256.0121, 2130.908
256.4942, 2107.158
256.9763, 2085.989
257.4584, 2066.701
257.9406, 2048.670
258.4227, 2031.789
258.9048, 2016.563
259.3869, 2004.841
259.8690, 1996.896
260.3511, 1985.110
260.8333, 1961.824
261.3154, 1939.806
261.7975, 1930.121
262.2796, 1932.346
262.7617, 1934.184
263.2438, 1925.876
263.7260, 1909.121
264.2081, 1893.866
264.6902, 1881.150
265.1723, 1870.111
265.6544, 1859.021
266.1365, 1848.561
266.6187, 1841.487
267.1008, 1843.031
267.5829, 1848.130
268.0650, 1845.316
268.5471, 1832.600
269.0292, 1817.653
269.5114, 1802.528
269.9935, 1789.057
270.4756, 1781.352
270.9577, 1783.350
271.4398, 1789.198
271.9219, 1794.161
272.4041, 1798.349
272.8862, 1797.211
273.3683, 1785.152
273.8504, 1767.675
274.3325, 1756.019
274.8146, 1753.821
275.2968, 1751.733
275.7789, 1742.833
276.2610, 1728.575
276.7431, 1714.283
277.2252, 1700.648
277.7073, 1689.538
278.1895, 1684.638
278.6716, 1686.902
279.1537, 1689.212
279.6358, 1691.004
280.1179, 1690.740
280.6000, 1684.854
281.0822, 1672.022
281.5643, 1656.702
282.0464, 1642.428
282.5285, 1628.770
283.0106, 1622.625
283.4927, 1632.945
283.9749, 1645.966
284.4570, 1647.370
284.9391, 1636.793
285.4212, 1626.475
285.9033, 1627.537
286.3854, 1639.599
286.8676, 1642.801
287.3497, 1629.022
287.8318, 1615.123
288.3139, 1608.752
288.7960, 1608.837
289.2781, 1612.311
289.7603, 1618.065
290.2424, 1624.937
290.7245, 1627.812
291.2066, 1624.954
291.6887, 1620.590
292.1708, 1610.096
292.6530, 1600.286
293.1351, 1602.969
293.6172, 1621.928
294.0993, 1645.164
294.5814, 1650.659
295.0635, 1623.553
295.5457, 1606.284
296.0278, 1602.900
296.5099, 1605.673
296.9920, 1610.070
297.4741, 1615.147
297.9562, 1621.832
298.4384, 1631.769
298.9205, 1646.111
299.4026, 1655.624
299.8847, 1654.994
300.3668, 1654.990
300.8489, 1661.245
301.3311, 1671.033
301.8131, 1677.342
302.2953, 1674.513
302.7774, 1665.616
303.2595, 1667.334
303.7416, 1691.783
304.2237, 1708.922
304.7058, 1705.252
305.1880, 1695.092
305.6701, 1695.425
306.1522, 1712.839
306.6343, 1736.345
307.1164, 1746.470
307.5985, 1738.354
308.0807, 1734.849
308.5628, 1741.157
309.0449, 1752.657
309.5270, 1769.316
310.0091, 1790.271
310.4912, 1809.805
310.9734, 1822.849
311.4555, 1829.827
311.9376, 1834.497
312.4197, 1834.499
312.9018, 1836.029
313.3839, 1845.672
313.8661, 1859.967
314.3482, 1869.728
314.8303, 1871.391
315.3124, 1865.759
315.7945, 1851.855
316.2766, 1827.982
316.7588, 1805.886
317.2409, 1792.840
317.7230, 1785.579
318.2051, 1778.746
318.6872, 1771.565
319.1693, 1765.108
319.6515, 1761.396
320.1336, 1759.537
320.6157, 1754.631
321.0978, 1743.313
321.5799, 1731.012
322.0620, 1727.849
322.5442, 1735.442
323.0263, 1739.977
323.5084, 1732.574
323.9905, 1722.063
324.4726, 1720.290
324.9547, 1729.224
325.4369, 1743.329
325.9190, 1759.582
326.4011, 1778.431
326.8832, 1785.447
327.3653, 1767.675
327.8474, 1750.439
328.3296, 1748.884
328.8117, 1760.063
329.2938, 1773.332
329.7759, 1782.711
330.2580, 1789.012
330.7401, 1795.591
331.2223, 1803.191
331.7044, 1810.185
332.1865, 1814.795
332.6686, 1819.473
333.1507, 1826.814
333.6328, 1837.594
334.1150, 1850.995
334.5971, 1867.211
335.0792, 1891.486
335.5613, 1903.550
336.0434, 1888.444
336.5255, 1875.769
337.0077, 1883.863
337.4898, 1908.961
337.9719, 1934.715
338.4540, 1947.735
338.9361, 1949.694
339.4182, 1956.065
339.9004, 1971.737
340.3825, 1984.466
340.8646, 1984.911
341.3467, 1982.764
341.8288, 1992.043
342.3109, 2019.612
342.7931, 2052.704
343.2752, 2071.112
343.7573, 2072.590
344.2394, 2075.455
344.7215, 2084.360
345.2036, 2096.097
345.6858, 2107.597
346.1679, 2118.827
346.6500, 2132.740
347.1321, 2152.788
347.6142, 2176.893
348.0963, 2199.414
348.5785, 2219.564
349.0606, 2238.855
349.5427, 2253.091
350.0248, 2266.775
350.5069, 2295.011
350.9890, 2355.278
351.4712, 2419.483
351.9533, 2462.424
352.4354, 2487.880
352.9175, 2516.004
353.3996, 2556.237
353.8817, 2605.001
354.3639, 2653.658
354.8460, 2701.642
355.3281, 2750.271
355.8102, 2797.822
356.2923, 2847.003
356.7744, 2899.572
357.2566, 2956.347
357.7387, 3018.520
358.2208, 3088.122
358.7029, 3167.083
359.1850, 3243.870
359.6671, 3316.723
360.1493, 3389.183
360.6314, 3460.889
361.1135, 3533.516
361.5956, 3610.992
362.0777, 3696.653
362.5598, 3786.872
363.0420, 3868.600
363.5241, 3935.400
364.0062, 4003.685
364.4883, 4078.104
364.9704, 4152.951
365.4525, 4225.619
365.9347, 4294.458
366.4168, 4356.137
366.8989, 4406.763
367.3810, 4446.666
367.8631, 4475.889
368.3452, 4491.356
368.8274, 4498.927
369.3095, 4510.525
369.7916, 4517.662
370.2737, 4499.372
370.7558, 4438.206
371.2379, 4352.329
371.7201, 4273.020
372.2022, 4201.837
372.6843, 4123.177
373.1664, 4026.298
373.6485, 3920.784
374.1306, 3821.565
374.6128, 3730.283
375.0949, 3641.219
375.5770, 3551.811
376.0591, 3463.145
376.5412, 3376.676
377.0233, 3292.262
377.5055, 3213.772
377.9876, 3147.449
378.4697, 3095.189
378.9518, 3035.001
379.4339, 2958.135
379.9160, 2881.130
380.3982, 2811.216
380.8803, 2749.483
381.3624, 2699.005
381.8445, 2662.193
382.3266, 2634.949
382.8087, 2604.195
383.2909, 2565.305
383.7730, 2529.176
384.2551, 2497.781
384.7372, 2468.144
385.2193, 2435.925
385.7014, 2401.563
386.1836, 2370.875
386.6657, 2350.719
387.1478, 2341.744
387.6299, 2332.443
388.1120, 2324.567
388.5941, 2314.023
389.0763, 2297.942
389.5584, 2278.816
390.0405, 2259.827
390.5226, 2241.176
391.0047, 2226.097
391.4868, 2222.604
391.9690, 2232.609
392.4511, 2235.654
392.9332, 2221.472
393.4153, 2202.487
393.8974, 2188.912
394.3795, 2180.961
394.8617, 2179.446
395.3438, 2190.570
395.8259, 2206.393
396.3080, 2213.217
396.7901, 2209.554
397.2722, 2202.339
397.7544, 2196.133
398.2365, 2190.250
398.7186, 2181.489
399.2007, 2163.804
399.6828, 2150.116
400.1649, 2147.430
400.6471, 2151.582
401.1292, 2156.715
401.6113, 2160.944
402.0934, 2162.972
402.5755, 2160.946
403.0576, 2154.487
403.5398, 2144.547
404.0219, 2124.168
404.5040, 2107.120
404.9861, 2104.308
405.4682, 2110.869
405.9503, 2114.094
406.4325, 2105.734
406.9146, 2088.605
407.3967, 2072.220
407.8788, 2055.221
408.3609, 2041.981
408.8430, 2038.862
409.3252, 2035.831
409.8073, 2023.822
410.2894, 2001.853
410.7715, 1977.865
411.2536, 1957.832
411.7357, 1941.387
412.2179, 1927.328
412.7000, 1915.652
413.1821, 1906.325
413.6642, 1900.845
414.1463, 1897.638
414.6284, 1893.911
415.1106, 1889.424
415.5927, 1883.909
416.0748, 1877.829
416.5569, 1870.647
417.0390, 1860.262
417.5211, 1845.599
418.0033, 1828.822
418.4854, 1812.428
418.9675, 1795.133
419.4496, 1783.542
419.9317, 1782.240
420.4138, 1783.261
420.8960, 1781.740
421.3781, 1777.723
421.8602, 1772.695
422.3423, 1767.251
422.8244, 1762.303
423.3065, 1762.454
423.7887, 1777.551
424.2708, 1781.889
424.7529, 1765.501
425.2350, 1743.292
425.7171, 1724.443
426.1992, 1711.660
426.6814, 1706.999
427.1635, 1717.928
427.6456, 1742.287
428.1277, 1751.983
428.6098, 1740.850
429.0919, 1726.731
429.5741, 1717.564
430.0562, 1711.659
430.5383, 1707.059
431.0204, 1703.961
431.5025, 1700.649
431.9846, 1694.426
432.4668, 1686.591
432.9489, 1681.963
433.4310, 1682.025
433.9131, 1684.820
434.3952, 1688.967
434.8773, 1694.778
435.3595, 1697.762
435.8416, 1695.187
436.3237, 1691.942
436.8058, 1693.264
437.2879, 1696.440
437.7701, 1692.500
438.2522, 1676.084
438.7343, 1654.873
439.2164, 1649.176
439.6985, 1671.619
440.1806, 1687.367
440.6628, 1696.121
441.1449, 1698.663
441.6270, 1693.626
442.1091, 1682.475
442.5912, 1668.897
443.0733, 1653.125
443.5555, 1638.129
444.0376, 1636.626
444.5197, 1652.337
445.0018, 1671.207
445.4839, 1694.174
445.9660, 1714.483
446.4482, 1724.329
446.9303, 1721.898
447.4124, 1715.493
447.8945, 1709.758
448.3766, 1703.698
448.8587, 1693.856
449.3409, 1679.302
449.8230, 1667.104
450.3051, 1663.239
450.7872, 1667.081
451.2693, 1670.292
451.7514, 1671.889
452.2336, 1674.043
452.7157, 1678.188
453.1978, 1683.052
453.6799, 1686.712
454.1620, 1688.658
454.6441, 1690.077
455.1263, 1693.101
455.6084, 1699.006
456.0905, 1699.274
456.5726, 1682.216
457.0547, 1671.530
457.5368, 1680.433
458.0190, 1699.086
458.5011, 1711.033
458.9832, 1708.709
459.4653, 1700.440
459.9474, 1697.261
460.4295, 1699.224
460.9117, 1704.053
461.3938, 1713.378
461.8759, 1722.667
462.3580, 1728.927
462.8401, 1732.129
463.3222, 1731.262
463.8044, 1720.516
464.2865, 1709.925
464.7686, 1708.156
465.2507, 1714.356
465.7328, 1725.610
466.2149, 1741.583
466.6971, 1758.674
467.1792, 1769.754
467.6613, 1773.210
468.1434, 1773.256
468.6255, 1764.641
469.1076, 1757.215
469.5898, 1759.025
470.0719, 1767.630
470.5540, 1774.749
471.0361, 1774.906
471.5182, 1770.808
472.0003, 1771.221
472.4825, 1779.422
472.9646, 1783.162
473.4467, 1771.259
473.9288, 1760.284
474.4109, 1761.892
474.8930, 1775.963
475.3752, 1793.415
475.8573, 1813.576
476.3394, 1832.011
476.8215, 1839.685
477.3036, 1836.308
477.7857, 1831.046
478.2679, 1827.666
478.7500, 1825.939
479.2321, 1825.132
479.7142, 1824.144
480.1963, 1826.408
480.6784, 1834.432
481.1606, 1844.747
481.6427, 1854.686
482.1248, 1863.834
482.6069, 1872.939
483.0890, 1883.156
483.5711, 1893.239
484.0533, 1896.068
484.5354, 1886.652
485.0175, 1877.942
485.4996, 1865.483
485.9817, 1858.687
486.4638, 1869.052
486.9460, 1895.660
487.4281, 1922.158
487.9102, 1935.481
488.3923, 1938.912
488.8744, 1942.284
489.3565, 1945.928
489.8387, 1947.815
490.3208, 1945.189
490.8029, 1941.067
491.2850, 1941.585
491.7671, 1947.786
492.2492, 1955.455
492.7314, 1964.905
493.2135, 1974.072
493.6956, 1982.715
494.1777, 1989.640
494.6598, 1988.629
495.1419, 1973.376
495.6241, 1947.155
496.1062, 1930.906
496.5883, 1931.275
497.0704, 1933.004
497.5525, 1934.418
498.0346, 1936.606
498.5168, 1941.791
498.9989, 1949.424
499.4810, 1955.306
499.9631, 1956.229
500.4452, 1952.629
500.9273, 1944.821
501.4095, 1931.171
501.8916, 1920.451
502.3737, 1919.531
502.8558, 1921.910
503.3379, 1916.019
503.8200, 1898.620
504.3022, 1885.989
504.7843, 1888.829
505.2664, 1897.021
505.7485, 1899.632
506.2306, 1895.768
506.7127, 1889.052
507.1949, 1882.247
507.6770, 1873.990
508.1591, 1857.943
508.6412, 1817.909
509.1233, 1794.262
509.6054, 1801.819
510.0876, 1815.884
510.5697, 1817.677
511.0518, 1807.583
511.5339, 1798.476
512.0161, 1800.747
512.4982, 1809.906
512.9803, 1814.147
513.4624, 1813.223
513.9445, 1808.561
514.4266, 1799.887
514.9088, 1788.153
515.3909, 1772.985
515.8730, 1753.605
516.3551, 1740.191
516.8372, 1739.035
517.3193, 1742.753
517.8015, 1746.113
518.2836, 1748.284
518.7657, 1748.435
519.2478, 1746.117
519.7299, 1741.504
520.2120, 1734.070
520.6942, 1715.121
521.1763, 1710.479
521.6584, 1735.850
522.1405, 1759.121
522.6226, 1759.833
523.1047, 1744.111
523.5869, 1730.422
524.0690, 1728.782
524.5511, 1733.178
525.0332, 1734.436
525.5153, 1732.569
525.9974, 1729.050
526.4796, 1722.040
526.9617, 1717.034
527.4438, 1721.283
527.9259, 1733.685
528.4080, 1746.157
528.8901, 1761.940
529.3723, 1773.208
529.8544, 1771.704
530.3365, 1763.051
530.8186, 1759.343
531.3007, 1764.510
531.7828, 1770.436
532.2650, 1764.379
532.7471, 1742.650
533.2292, 1731.994
533.7113, 1744.479
534.1934, 1754.414
534.6755, 1750.646
535.1577, 1741.039
535.6398, 1737.152
536.1219, 1742.757
536.6040, 1749.666
537.0861, 1750.069
537.5682, 1745.640
538.0504, 1742.027
538.5325, 1740.147
539.0146, 1737.223
539.4967, 1731.403
539.9788, 1722.896
540.4609, 1713.026
540.9431, 1698.806
541.4252, 1687.321
541.9073, 1677.210
542.3894, 1672.248
542.8715, 1680.186
543.3536, 1698.703
543.8358, 1714.343
544.3179, 1715.788
544.8000, 1706.322
545.2821, 1700.946
545.7642, 1702.692
546.2463, 1700.196
546.7285, 1686.684
547.2106, 1670.709
547.6927, 1657.057
548.1748, 1646.352
548.6569, 1640.957
549.1390, 1647.066
549.6211, 1655.448
550.1032, 1655.484
550.5853, 1648.526
551.0674, 1641.250
551.5496, 1636.256
552.0317, 1632.077
552.5138, 1626.004
552.9959, 1616.314
553.4780, 1610.633
553.9601, 1610.725
554.4423, 1612.293
554.9244, 1614.416
555.4065, 1616.626
555.8886, 1618.361
556.3707, 1619.408
556.8528, 1620.346
557.3350, 1623.688
557.8171, 1628.452
558.2992, 1625.741
558.7813, 1613.070
559.2634, 1598.004
559.7455, 1583.176
560.2277, 1570.157
560.7098, 1562.946
561.1919, 1561.602
561.6740, 1565.936
562.1561, 1584.372
562.6382, 1603.303
563.1204, 1607.056
563.6025, 1595.484
564.0846, 1578.086
564.5667, 1560.207
565.0488, 1544.475
565.5309, 1543.362
566.0131, 1567.041
566.4952, 1579.599
566.9773, 1564.903
567.4594, 1545.012
567.9415, 1532.027
568.4236, 1525.899
568.9058, 1522.670
569.3879, 1519.560
569.8700, 1519.609
570.3521, 1528.657
570.8342, 1543.787
571.3163, 1555.619
571.7985, 1561.395
572.2806, 1561.949
572.7627, 1557.823
573.2448, 1548.547
573.7269, 1538.801
574.2090, 1523.572
574.6912, 1513.736
575.1733, 1515.127
575.6554, 1521.696
576.1375, 1527.746
576.6196, 1531.638
577.1017, 1532.917
577.5839, 1530.217
578.0660, 1524.591
578.5481, 1519.469
579.0302, 1514.936
579.5123, 1510.557
579.9944, 1505.728
580.4766, 1501.318
580.9587, 1499.243
581.4408, 1499.780
581.9229, 1500.822
582.4050, 1498.268
582.8871, 1499.584
583.3693, 1517.781
583.8514, 1542.790
584.3335, 1551.361
584.8156, 1532.636
585.2977, 1502.043
585.7798, 1482.190
586.2620, 1473.398
586.7441, 1473.061
587.2262, 1484.613
587.7083, 1498.827
588.1904, 1514.764
588.6725, 1528.789
589.1547, 1533.572
589.6368, 1525.011
590.1189, 1515.597
590.6010, 1508.562
591.0831, 1505.548
591.5652, 1511.777
592.0474, 1525.503
592.5295, 1535.963
593.0116, 1535.612
593.4937, 1528.055
593.9758, 1524.835
594.4579, 1529.378
594.9401, 1530.143
595.4222, 1521.552
595.9043, 1513.191
596.3864, 1509.704
596.8685, 1510.293
597.3506, 1512.318
597.8328, 1514.645
598.3149, 1518.430
598.7970, 1528.007
599.2791, 1539.601
599.7612, 1541.179
600.2433, 1530.388
600.7255, 1520.458
601.2076, 1523.425
601.6897, 1537.194
602.1718, 1544.614
602.6539, 1540.322
603.1360, 1536.753
603.6182, 1534.635
604.1003, 1533.709
604.5824, 1533.672
605.0645, 1534.601
605.5466, 1537.208
606.0287, 1543.509
606.5109, 1549.538
606.9930, 1547.172
607.4751, 1537.852
607.9572, 1533.906
608.4393, 1539.457
608.9214, 1546.619
609.4036, 1546.166
609.8857, 1538.081
610.3678, 1539.456
610.8499, 1562.985
611.3320, 1578.977
611.8141, 1573.224
612.2963, 1561.294
612.7784, 1559.724
613.2605, 1569.489
613.7426, 1579.463
614.2247, 1579.825
614.7068, 1575.627
615.1890, 1582.023
615.6711, 1599.827
616.1532, 1608.380
616.6353, 1597.286
617.1174, 1582.768
617.5995, 1583.372
618.0817, 1599.490
618.5638, 1615.961
619.0459, 1631.750
619.5280, 1648.307
620.0101, 1671.403
620.4922, 1692.987
620.9744, 1699.661
621.4565, 1691.150
621.9386, 1683.327
622.4207, 1691.533
622.9028, 1711.387
623.3849, 1725.168
623.8671, 1731.632
624.3492, 1739.473
624.8313, 1752.529
625.3134, 1766.679
625.7955, 1776.464
626.2776, 1782.189
626.7598, 1788.537
627.2419, 1796.677
627.7240, 1804.978
628.2061, 1811.662
628.6882, 1818.319
629.1703, 1827.463
629.6525, 1839.504
630.1346, 1853.119
630.6167, 1869.073
631.0988, 1885.128
631.5809, 1886.163
632.0630, 1866.616
632.5452, 1854.647
633.0273, 1867.286
633.5094, 1882.753
633.9915, 1871.387
634.4736, 1835.111
634.9557, 1813.418
635.4379, 1822.279
635.9200, 1839.190
636.4021, 1859.337
636.8842, 1876.390
637.3663, 1877.671
637.8484, 1862.150
638.3306, 1846.120
638.8127, 1846.979
639.2948, 1861.268
639.7769, 1866.405
640.2590, 1858.333
640.7411, 1855.973
641.2233, 1869.569
641.7054, 1886.401
642.1875, 1891.605
642.6696, 1886.382
643.1517, 1885.798
643.6339, 1892.872
644.1160, 1905.428
644.5981, 1927.522
645.0802, 1952.271
645.5623, 1969.014
646.0444, 1975.765
646.5266, 1977.997
647.0087, 1980.264
647.4908, 1982.529
647.9729, 1983.534
648.4550, 1981.388
648.9371, 1986.360
649.4193, 2007.927
649.9014, 2030.028
650.3835, 2036.049
650.8656, 2028.089
651.3477, 2020.500
651.8298, 2015.314
652.3120, 2011.388
652.7941, 2009.844
653.2762, 2008.403
653.7583, 2002.443
654.2404, 1992.379
654.7225, 1984.744
655.2047, 1985.121
655.6868, 1991.531
656.1689, 1998.996
656.6510, 2008.777
657.1331, 2010.820
657.6152, 1997.801
658.0974, 1983.988
658.5795, 1982.600
659.0616, 1991.569
659.5437, 2002.533
660.0258, 2019.394
660.5079, 2032.392
660.9901, 2032.931
661.4722, 2031.331
661.9543, 2039.931
662.4364, 2058.096
662.9185, 2076.131
663.4006, 2087.448
663.8828, 2095.161
664.3649, 2108.312
664.8470, 2127.379
665.3291, 2134.157
665.8112, 2120.713
666.2933, 2106.701
666.7755, 2105.305
667.2576, 2115.557
667.7397, 2131.897
