##NAMES=Dravite
##RRUFFID=R060286
##IDEAL CHEMISTRY=NaMg_3_Al_6_(Si_6_O_18_)(BO_3_)_3_(OH)_3_OH
##LOCALITY=Badakshan Province, Afghanistan
##OWNER=RRUFF
##SOURCE=Herb Obodda
##DESCRIPTION=Brown prismatic tourmaline crystal
##STATUS=The identification of this mineral has been confirmed by X-ray diffraction and chemical analysis
##URL=rruff.info/R060286
##MEASURED CHEMISTRY=(Na_0.48_Ca_0.38_[box]_0.14_)_Σ=1_(Mg_2.90_Ti_0.10_)_Σ=3_Al_6.00_(B_1.00_O_3_)_3_(Si_5.56_B_0.44_)_Σ=6_O_18_(OH)_4_; (OH) assumed from stoichiometry; B estimated by difference and charge balance
92.10938, 21.11886
92.59149, 21.44238
93.07361, 21.41991
93.55573, 21.06530
94.03784, 20.53440
94.51996, 19.70156
95.00208, 18.73518
95.48419, 18.22703
95.96631, 18.52878
96.44843, 19.38279
96.93054, 20.10639
97.41266, 20.69637
97.89478, 21.13750
98.37689, 21.35510
98.85901, 21.34288
99.34113, 21.32035
99.82324, 21.35804
100.3054, 21.45554
100.7875, 21.60807
101.2696, 21.81761
101.7517, 22.08020
102.2338, 22.41781
102.7159, 22.86692
103.1981, 23.28053
103.6802, 23.51670
104.1623, 23.40347
104.6444, 23.69487
105.1265, 24.52996
105.6086, 25.77746
106.0908, 26.97660
106.5729, 28.05667
107.0550, 29.16030
107.5371, 30.36132
108.0192, 31.68365
108.5013, 33.08072
108.9835, 34.51088
109.4656, 35.97527
109.9477, 37.69426
110.4298, 39.52776
110.9119, 41.69890
111.3940, 44.40834
111.8762, 48.02253
112.3583, 51.77682
112.8404, 55.52327
113.3225, 59.20872
113.8046, 63.21691
114.2867, 67.77811
114.7689, 72.68370
115.2510, 77.66273
115.7331, 82.56979
116.2152, 87.65956
116.6973, 93.12999
117.1794, 99.16446
117.6616, 104.8500
118.1437, 109.8567
118.6258, 114.3393
119.1079, 118.3852
119.5900, 121.7370
120.0721, 124.9029
120.5543, 128.1237
121.0364, 131.2775
121.5185, 134.8791
122.0006, 139.3075
122.4827, 144.4690
122.9648, 150.1625
123.4470, 156.4528
123.9291, 163.0950
124.4112, 169.7548
124.8933, 176.2274
125.3754, 182.8896
125.8575, 190.1890
126.3397, 198.0660
126.8218, 206.1881
127.3039, 214.4575
127.7860, 222.7364
128.2681, 230.6805
128.7502, 238.2311
129.2324, 245.3968
129.7145, 252.0267
130.1966, 258.1512
130.6787, 263.9505
131.1608, 269.5479
131.6429, 274.9155
132.1251, 280.1776
132.6072, 285.4236
133.0893, 290.5657
133.5714, 295.4737
134.0535, 300.1390
134.5356, 304.6095
135.0178, 308.9722
135.4999, 313.2088
135.9820, 317.2212
136.4641, 320.7288
136.9462, 323.7851
137.4283, 327.8018
137.9105, 333.0208
138.3926, 338.8364
138.8747, 344.1230
139.3568, 348.7847
139.8389, 353.5232
140.3210, 358.4703
140.8032, 363.5079
141.2853, 369.6793
141.7674, 377.4554
142.2495, 386.0519
142.7316, 393.0618
143.2137, 396.7040
143.6959, 397.6631
144.1780, 398.4904
144.6601, 398.7884
145.1422, 400.0619
145.6243, 402.8878
146.1064, 406.7083
146.5886, 409.5005
147.0707, 410.9926
147.5528, 411.8127
148.0349, 412.2230
148.5170, 411.6818
148.9991, 411.6008
149.4813, 412.4559
149.9634, 414.0682
150.4455, 414.7201
150.9276, 413.4244
151.4097, 411.8413
151.8918, 411.0106
152.3740, 411.6936
152.8561, 412.1956
153.3382, 412.2370
153.8203, 411.8279
154.3024, 411.6202
154.7845, 412.3776
155.2667, 412.9745
155.7488, 412.5712
156.2309, 409.4228
156.7130, 406.9084
157.1951, 405.9083
157.6772, 406.4914
158.1594, 407.3359
158.6415, 408.7392
159.1236, 410.0508
159.6057, 410.6368
160.0878, 409.3546
160.5699, 408.2037
161.0521, 408.0367
161.5342, 409.0332
162.0163, 409.8681
162.4984, 410.0086
162.9805, 409.7458
163.4626, 409.4469
163.9448, 408.9111
164.4269, 408.6237
164.9090, 408.9429
165.3911, 410.0055
165.8732, 411.0811
166.3553, 411.7715
166.8375, 412.2412
167.3196, 412.7597
167.8017, 413.7464
168.2838, 414.6389
168.7659, 414.9100
169.2480, 414.3260
169.7302, 413.7969
170.2123, 413.9826
170.6944, 414.6786
171.1765, 415.4248
171.6586, 415.9196
172.1407, 416.3740
172.6229, 417.1368
173.1050, 418.4651
173.5871, 419.4842
174.0692, 419.0221
174.5513, 417.5243
175.0334, 416.3188
175.5156, 416.4105
175.9977, 417.2077
176.4798, 417.8091
176.9619, 417.9266
177.4440, 418.1520
177.9261, 419.3960
178.4083, 421.4358
178.8904, 423.2838
179.3725, 424.0799
179.8546, 424.2502
180.3367, 424.6080
180.8188, 425.3849
181.3010, 426.2614
181.7831, 426.6600
182.2652, 426.6515
182.7473, 426.8284
183.2294, 427.5389
183.7115, 428.7593
184.1937, 430.3621
184.6758, 432.2299
185.1579, 434.5910
185.6400, 438.4348
186.1221, 443.6568
186.6042, 448.5462
187.0864, 451.8576
187.5685, 453.7106
188.0506, 454.2842
188.5327, 453.0625
189.0148, 451.0969
189.4969, 450.6148
189.9791, 451.6488
190.4612, 453.6045
190.9433, 456.2532
191.4254, 459.5133
191.9075, 462.8972
192.3896, 466.3160
192.8718, 469.7474
193.3539, 473.2336
193.8360, 476.8197
194.3181, 480.3669
194.8002, 484.0006
195.2823, 487.7277
195.7645, 490.5384
196.2466, 492.0320
196.7287, 492.4617
197.2108, 492.6791
197.6929, 492.5757
198.1750, 492.7050
198.6572, 493.5561
199.1393, 495.1223
199.6214, 497.2412
200.1035, 500.0223
200.5856, 503.3363
201.0677, 506.3277
201.5499, 508.9452
202.0320, 511.4592
202.5141, 513.9372
202.9962, 516.2792
203.4783, 519.4612
203.9604, 523.9615
204.4426, 529.5957
204.9247, 534.6902
205.4068, 539.0095
205.8889, 543.2861
206.3710, 548.2040
206.8531, 553.8167
207.3353, 559.8270
207.8174, 566.1203
208.2995, 572.7256
208.7816, 580.1952
209.2637, 588.8030
209.7458, 597.5871
210.2280, 605.4279
210.7101, 612.0341
211.1922, 618.8193
211.6743, 626.5312
212.1564, 635.0123
212.6385, 641.4232
213.1207, 645.2684
213.6028, 647.7350
214.0849, 650.2244
214.5670, 653.2899
215.0491, 654.6154
215.5313, 653.6276
216.0134, 650.3175
216.4955, 645.5487
216.9776, 638.8923
217.4597, 631.3180
217.9418, 623.5500
218.4239, 615.4047
218.9061, 607.7501
219.3882, 600.8209
219.8703, 594.6775
220.3524, 588.5774
220.8345, 582.3972
221.3166, 576.4905
221.7988, 571.0999
222.2809, 566.2001
222.7630, 561.9799
223.2451, 558.5319
223.7272, 555.8311
224.2093, 553.8441
224.6915, 552.8817
225.1736, 552.2565
225.6557, 551.2323
226.1378, 549.3611
226.6199, 548.0225
227.1020, 547.5410
227.5842, 547.9167
228.0663, 548.5930
228.5484, 550.0856
229.0305, 551.3250
229.5126, 551.0482
229.9947, 547.8491
230.4769, 546.0614
230.9590, 547.0573
231.4411, 550.8232
231.9232, 552.6324
232.4053, 551.0900
232.8874, 549.0984
233.3696, 549.3668
233.8517, 553.2653
234.3338, 556.7369
234.8159, 559.0452
235.2980, 560.2357
235.7801, 561.4433
236.2623, 562.3690
236.7444, 563.6467
237.2265, 565.8679
237.7086, 569.5157
238.1907, 573.1945
238.6728, 576.7991
239.1550, 580.3152
239.6371, 583.4479
240.1192, 586.0307
240.6013, 588.4137
241.0834, 590.9114
241.5655, 593.8747
242.0477, 596.1830
242.5298, 597.5954
243.0119, 598.1660
243.4940, 598.5363
243.9761, 598.9296
244.4582, 598.8463
244.9404, 597.9559
245.4225, 596.2825
245.9046, 593.7136
246.3867, 590.0807
246.8688, 585.4850
247.3509, 580.5540
247.8331, 575.0239
248.3152, 569.5040
248.7973, 564.3913
249.2794, 559.7979
249.7615, 555.3730
250.2436, 551.2717
250.7258, 547.3407
251.2079, 542.8282
251.6900, 537.2128
252.1721, 531.7635
252.6542, 527.2209
253.1363, 523.9111
253.6185, 520.8419
254.1006, 518.0123
254.5827, 515.3950
255.0648, 512.8936
255.5469, 510.3804
256.0291, 508.2356
256.5112, 506.7409
256.9933, 506.2265
257.4754, 505.4799
257.9575, 504.2169
258.4396, 502.7739
258.9218, 502.2000
259.4039, 502.8338
259.8860, 503.7113
260.3681, 504.4097
260.8502, 504.8845
261.3323, 505.3219
261.8145, 505.7465
262.2966, 506.1133
262.7787, 506.2562
263.2608, 505.9440
263.7429, 505.8735
264.2250, 506.4168
264.7072, 507.7721
265.1893, 508.8259
265.6714, 509.4041
266.1535, 509.7971
266.6356, 510.6383
267.1177, 512.2367
267.5999, 513.4480
268.0820, 513.5788
268.5641, 512.3392
269.0462, 512.3290
269.5283, 513.9662
270.0104, 516.3373
270.4926, 518.1517
270.9747, 519.3408
271.4568, 520.3481
271.9389, 521.4626
272.4210, 522.7313
272.9031, 522.9539
273.3853, 521.7996
273.8674, 520.2123
274.3495, 519.4571
274.8316, 519.6895
275.3137, 519.9020
275.7958, 519.8309
276.2780, 519.4838
276.7601, 518.9678
277.2422, 518.1821
277.7243, 517.4582
278.2064, 517.1945
278.6885, 517.4370
279.1707, 517.7260
279.6528, 518.1040
280.1349, 518.4432
280.6170, 517.8018
281.0991, 515.9022
281.5812, 514.1641
282.0634, 514.2579
282.5455, 516.2552
283.0276, 517.3602
283.5097, 516.8101
283.9918, 515.1688
284.4739, 514.1847
284.9561, 513.9160
285.4382, 513.8790
285.9203, 513.7408
286.4024, 513.5056
286.8845, 513.2542
287.3666, 512.9545
287.8488, 512.6891
288.3309, 512.5422
288.8130, 512.5012
289.2951, 512.8658
289.7772, 514.1185
290.2593, 516.0563
290.7415, 517.5970
291.2236, 518.6308
291.7057, 519.2151
292.1878, 519.1977
292.6699, 518.6408
293.1520, 518.2683
293.6342, 518.8693
294.1163, 520.0297
294.5984, 520.0598
295.0805, 518.6265
295.5626, 517.1683
296.0447, 517.7095
296.5269, 519.9174
297.0090, 522.1817
297.4911, 524.2651
297.9732, 525.7817
298.4553, 525.3057
298.9374, 522.6475
299.4196, 519.9919
299.9017, 519.7689
300.3838, 521.3644
300.8659, 523.1390
301.3480, 524.4229
301.8301, 525.5109
302.3123, 527.0573
302.7944, 529.0417
303.2765, 530.5682
303.7586, 530.5828
304.2407, 529.6852
304.7228, 528.9470
305.2050, 528.6654
305.6871, 528.7356
306.1692, 529.2582
306.6513, 530.1497
307.1334, 530.8674
307.6155, 530.8482
308.0977, 530.5225
308.5798, 530.4113
309.0619, 530.5853
309.5440, 531.0906
310.0261, 532.1016
310.5082, 533.5017
310.9904, 534.9332
311.4725, 536.3524
311.9546, 537.6483
312.4367, 538.6050
312.9188, 538.9783
313.4009, 539.6681
313.8831, 541.5928
314.3652, 544.1882
314.8473, 546.4167
315.3294, 547.9574
315.8115, 548.9348
316.2936, 549.3273
316.7758, 549.0723
317.2579, 548.6968
317.7400, 548.0990
318.2221, 547.6122
318.7042, 547.6418
319.1863, 548.8969
319.6685, 550.1803
320.1506, 550.9326
320.6327, 551.1221
321.1148, 551.4259
321.5969, 551.8069
322.0790, 552.4974
322.5612, 553.7009
323.0433, 555.6345
323.5254, 557.8876
324.0075, 560.6105
324.4896, 563.7096
324.9717, 566.4117
325.4539, 568.3344
325.9360, 570.0321
326.4181, 571.7830
326.9002, 573.1106
327.3823, 575.1467
327.8644, 578.5778
328.3466, 582.8566
328.8287, 586.3015
329.3108, 587.8969
329.7929, 589.5405
330.2750, 591.8804
330.7571, 595.2795
331.2393, 598.6115
331.7214, 601.9436
332.2035, 605.1917
332.6856, 608.1556
333.1677, 610.6442
333.6498, 613.1443
334.1320, 615.8035
334.6141, 618.5881
335.0962, 621.4159
335.5783, 624.3983
336.0604, 627.3088
336.5425, 629.9000
337.0247, 631.9983
337.5068, 634.2842
337.9889, 637.1274
338.4710, 640.3699
338.9531, 642.7352
339.4352, 644.2123
339.9173, 644.9033
340.3994, 644.6120
340.8816, 643.1026
341.3637, 642.1568
341.8458, 642.0831
342.3279, 642.6235
342.8100, 643.2916
343.2921, 644.1776
343.7743, 644.5648
344.2564, 643.8281
344.7385, 642.0214
345.2206, 640.2393
345.7027, 638.3640
346.1848, 636.9180
346.6670, 636.9852
347.1491, 638.4701
347.6312, 639.9362
348.1133, 640.6937
348.5954, 640.9337
349.0775, 641.1775
349.5597, 641.3898
350.0418, 641.9528
350.5239, 643.3931
351.0060, 645.5282
351.4881, 647.7018
351.9702, 649.4111
352.4524, 651.2999
352.9345, 654.5612
353.4166, 659.0695
353.8987, 663.7004
354.3808, 667.4333
354.8629, 670.7869
355.3451, 674.3972
355.8272, 678.3205
356.3093, 682.7160
356.7914, 687.7675
357.2735, 693.4365
357.7556, 699.5068
358.2378, 705.6749
358.7199, 712.2414
359.2020, 719.3582
359.6841, 726.9911
360.1662, 735.4570
360.6483, 746.0486
361.1305, 757.3248
361.6126, 767.2662
362.0947, 773.5703
362.5768, 779.7301
363.0589, 787.7835
363.5410, 797.7578
364.0232, 807.0797
364.5053, 814.4489
364.9874, 821.0823
365.4695, 827.9269
365.9516, 836.0938
366.4337, 843.4891
366.9159, 849.6953
367.3980, 854.8409
367.8801, 859.4576
368.3622, 864.7812
368.8443, 868.5947
369.3264, 869.8379
369.8086, 867.3375
370.2907, 864.2303
370.7728, 860.7477
371.2549, 856.5862
371.7370, 851.2705
372.2191, 844.6400
372.7013, 837.0331
373.1834, 828.6321
373.6655, 819.4304
374.1476, 809.0211
374.6297, 797.1644
375.1118, 784.7248
375.5940, 772.3786
376.0761, 759.9698
376.5582, 748.5870
377.0403, 738.5220
377.5224, 729.6606
378.0045, 721.0925
378.4867, 713.0228
378.9688, 705.0953
379.4509, 696.9606
379.9330, 688.6702
380.4151, 680.8928
380.8972, 673.6621
381.3794, 667.1280
381.8615, 662.0231
382.3436, 658.2443
382.8257, 654.4692
383.3078, 649.5399
383.7899, 644.0572
384.2721, 640.2269
384.7542, 638.1979
385.2363, 636.3851
385.7184, 632.8683
386.2005, 628.2992
386.6826, 624.2893
387.1648, 621.5326
387.6469, 619.4396
388.1290, 617.3188
388.6111, 615.2014
389.0932, 613.1924
389.5753, 611.2476
390.0575, 609.4913
390.5396, 608.1542
391.0217, 607.4703
391.5038, 606.5792
391.9859, 604.2994
392.4680, 601.4385
392.9502, 599.4394
393.4323, 599.9553
393.9144, 600.7262
394.3965, 600.3255
394.8786, 598.6104
395.3607, 596.9266
395.8429, 595.8172
396.3250, 594.9083
396.8071, 593.8613
397.2892, 591.2903
397.7713, 587.6052
398.2534, 590.2877
398.7356, 591.9239
399.2177, 592.5611
399.6998, 589.6878
400.1819, 590.9803
400.6640, 590.3790
401.1461, 589.5462
401.6283, 590.9668
402.1104, 587.7794
402.5925, 590.7068
403.0746, 591.0194
403.5567, 591.0325
404.0388, 590.9315
404.5210, 590.7800
405.0031, 590.5752
405.4852, 590.1739
405.9673, 589.6335
406.4494, 588.7760
406.9315, 587.1500
407.4137, 584.5195
407.8958, 583.0685
408.3779, 583.5375
408.8600, 584.9503
409.3421, 584.7836
409.8242, 582.9649
410.3064, 580.7542
410.7885, 578.6462
411.2706, 576.6741
411.7527, 574.9905
412.2348, 573.5605
412.7169, 572.5743
413.1991, 572.7033
413.6812, 573.5541
414.1633, 573.7892
414.6454, 572.3085
415.1275, 570.4128
415.6096, 570.1839
416.0918, 571.3782
416.5739, 572.2228
417.0560, 571.0691
417.5381, 569.0674
418.0202, 567.5922
418.5023, 567.0628
418.9845, 566.7224
419.4666, 566.0397
419.9487, 565.2224
420.4308, 564.6744
420.9129, 564.9099
421.3951, 562.9242
421.8772, 565.1833
422.3593, 566.3196
422.8414, 566.3942
423.3235, 562.1779
423.8056, 563.5403
424.2878, 562.6901
424.7699, 561.7651
425.2520, 563.9600
425.7341, 560.4529
426.2162, 562.6317
426.6983, 562.5639
427.1805, 563.5483
427.6626, 562.3066
428.1447, 561.7740
428.6268, 563.5016
429.1089, 564.0035
429.5910, 562.5697
430.0732, 563.7193
430.5553, 560.2993
431.0374, 560.9202
431.5195, 563.2940
432.0016, 562.0557
432.4837, 563.3290
432.9659, 563.6685
433.4480, 559.7061
433.9301, 563.2706
434.4122, 563.6036
434.8943, 560.6182
435.3764, 563.9749
435.8586, 561.4824
436.3407, 561.1001
436.8228, 562.3101
437.3049, 561.8940
437.7870, 564.0842
438.2691, 563.7960
438.7513, 563.3015
439.2334, 563.7116
439.7155, 564.9670
440.1976, 566.2411
440.6797, 567.2185
441.1618, 567.8227
441.6440, 567.8683
442.1261, 566.9370
442.6082, 566.1467
443.0903, 566.3197
443.5724, 567.1047
444.0545, 567.7447
444.5367, 567.4972
445.0188, 567.4093
445.5009, 568.1963
445.9830, 570.0677
446.4651, 571.3590
446.9472, 571.0751
447.4294, 570.4267
447.9115, 570.4330
448.3936, 571.9176
448.8757, 573.1066
449.3578, 573.8244
449.8399, 574.1568
450.3221, 574.4371
450.8042, 574.7113
451.2863, 574.8747
451.7684, 574.8779
452.2505, 574.7075
452.7326, 574.5084
453.2148, 574.2592
453.6969, 574.0495
454.1790, 574.0363
454.6611, 574.2394
455.1432, 574.3096
455.6253, 574.0123
456.1075, 573.6478
456.5896, 574.3373
457.0717, 576.0480
457.5538, 577.3187
458.0359, 576.6661
458.5180, 574.9133
459.0002, 573.9310
459.4823, 573.9059
459.9644, 574.4821
460.4465, 575.7540
460.9286, 577.3414
461.4107, 578.4904
461.8929, 578.4271
462.3750, 578.2471
462.8571, 578.9733
463.3392, 580.3936
463.8213, 581.4633
464.3034, 581.1996
464.7856, 580.7717
465.2677, 580.9891
465.7498, 582.1395
466.2319, 583.4803
466.7140, 585.2301
467.1961, 586.9365
467.6783, 588.0389
468.1604, 587.6909
468.6425, 587.5673
469.1246, 588.0782
469.6067, 589.1464
470.0888, 589.8318
470.5710, 589.5792
471.0531, 589.6891
471.5352, 591.0464
472.0173, 594.2175
472.4994, 596.5253
472.9815, 597.6199
473.4637, 598.2908
473.9458, 599.8694
474.4279, 602.4369
474.9100, 604.7900
475.3921, 606.5645
475.8742, 607.8541
476.3564, 608.8234
476.8385, 609.4783
477.3206, 610.1322
477.8027, 611.0391
478.2848, 612.1061
478.7669, 613.0858
479.2491, 613.8903
479.7312, 614.8210
480.2133, 616.3522
480.6954, 618.1893
481.1775, 619.7942
481.6596, 620.5694
482.1418, 621.3152
482.6239, 622.6339
483.1060, 624.4379
483.5881, 626.0621
484.0702, 627.5786
484.5523, 628.6131
485.0345, 628.7960
485.5166, 627.4312
485.9987, 626.6744
486.4808, 627.6949
486.9629, 629.2078
487.4450, 629.4070
487.9272, 626.7117
488.4093, 625.0042
488.8914, 625.5134
489.3735, 627.8621
489.8556, 628.3974
490.3377, 626.3467
490.8199, 624.2667
491.3020, 624.0276
491.7841, 625.8691
492.2662, 626.2147
492.7483, 624.5709
493.2304, 622.4315
493.7126, 622.0131
494.1947, 623.0990
494.6768, 624.1732
495.1589, 624.9478
495.6410, 625.2281
496.1231, 624.3577
496.6053, 622.4794
497.0874, 620.6713
497.5695, 619.5148
498.0516, 618.8183
498.5337, 618.4295
499.0158, 618.3779
499.4980, 618.2967
499.9801, 617.8884
500.4622, 617.3486
500.9443, 616.9012
501.4264, 616.8340
501.9085, 616.6605
502.3907, 616.2590
502.8728, 615.6475
503.3549, 614.8898
503.8370, 614.0676
504.3191, 613.0342
504.8012, 611.6619
505.2834, 609.8025
505.7655, 608.2698
506.2476, 607.0134
506.7297, 606.1442
507.2118, 605.9351
507.6939, 606.6837
508.1761, 606.7803
508.6582, 605.7581
509.1403, 604.1717
509.6224, 603.5657
510.1045, 603.9716
510.5866, 603.9933
511.0688, 602.3679
511.5509, 599.8276
512.0330, 598.8058
512.5151, 599.3369
512.9973, 599.9978
513.4794, 599.5052
513.9615, 598.3621
514.4436, 597.3314
514.9257, 596.5555
515.4078, 596.0148
515.8900, 595.9573
516.3721, 596.1146
516.8542, 595.9703
517.3363, 595.1119
517.8184, 594.1190
518.3005, 592.9222
518.7827, 591.5632
519.2648, 591.1844
519.7469, 593.0408
520.2290, 595.1273
520.7111, 596.3480
521.1932, 596.3485
521.6754, 596.1152
522.1575, 595.2565
522.6396, 594.4702
523.1217, 595.0062
523.6038, 597.4081
524.0859, 598.9991
524.5681, 598.7216
525.0502, 597.3203
525.5323, 597.6800
526.0144, 599.9025
526.4965, 602.0895
526.9786, 603.0269
527.4608, 603.0032
527.9429, 602.6003
528.4250, 601.7802
528.9071, 601.4417
529.3892, 603.2398
529.8713, 605.9184
530.3535, 607.2885
530.8356, 605.8292
531.3177, 604.2157
531.7998, 604.5016
532.2819, 605.9875
532.7640, 606.9795
533.2462, 606.1678
533.7283, 605.4059
534.2104, 605.6335
534.6925, 607.0182
535.1746, 607.9500
535.6567, 608.3358
536.1389, 608.1795
536.6210, 607.4000
537.1031, 605.4953
537.5852, 604.1263
538.0673, 603.5892
538.5494, 603.3365
539.0316, 602.2948
539.5137, 600.2684
539.9958, 598.8223
540.4779, 598.7454
540.9600, 599.4031
541.4421, 598.6868
541.9243, 596.6584
542.4064, 594.5890
542.8885, 593.2343
543.3706, 592.4682
543.8527, 592.2122
544.3348, 592.5010
544.8170, 592.7375
545.2991, 592.2815
545.7812, 591.5551
546.2633, 591.0885
546.7454, 591.2482
547.2275, 591.4174
547.7097, 591.4147
548.1918, 591.2325
548.6739, 590.8578
549.1560, 589.8431
549.6381, 589.0840
550.1202, 589.2214
550.6024, 590.3254
551.0845, 590.0121
551.5666, 587.1377
552.0487, 584.3800
552.5308, 583.7359
553.0129, 585.7364
553.4951, 586.8527
553.9772, 586.7999
554.4593, 586.1439
554.9414, 585.5565
555.4235, 585.0411
555.9056, 584.6400
556.3878, 584.3367
556.8699, 584.1940
557.3520, 584.4672
557.8341, 585.0527
558.3162, 585.4950
558.7983, 585.4625
559.2805, 585.2050
559.7626, 584.9053
560.2447, 584.5804
560.7268, 584.3473
561.2089, 584.3614
561.6910, 584.4339
562.1732, 584.4218
562.6553, 584.3591
563.1374, 584.1174
563.6195, 583.6999
564.1016, 583.0817
564.5837, 582.1464
565.0659, 580.3380
565.5480, 579.2762
566.0301, 579.6357
566.5122, 581.0189
566.9943, 581.1943
567.4764, 579.8450
567.9586, 578.8074
568.4407, 579.5733
568.9228, 581.7199
569.4049, 582.7845
569.8870, 582.6495
570.3691, 582.1426
570.8513, 581.9911
571.3334, 582.0507
571.8155, 582.0697
572.2976, 582.0284
572.7797, 581.8323
573.2618, 581.0840
573.7440, 580.1729
574.2261, 579.7865
574.7082, 580.6981
575.1903, 581.6808
575.6724, 582.3233
576.1545, 582.6298
576.6367, 582.7253
577.1188, 583.0997
577.6009, 582.7799
578.0830, 581.0841
578.5651, 577.5199
579.0472, 575.2679
579.5294, 574.5416
580.0115, 574.7195
580.4936, 575.3212
580.9757, 576.3607
581.4578, 577.5621
581.9399, 579.0190
582.4221, 580.3088
582.9042, 580.6178
583.3863, 580.1387
583.8684, 579.6760
584.3505, 579.4995
