##NAMES=Dravite
##RRUFFID=R060534
##IDEAL CHEMISTRY=NaMg_3_Al_6_(Si_6_O_18_)(BO_3_)_3_(OH)_3_OH
##LOCALITY=Sri Lanka
##OWNER=RRUFF
##SOURCE=Gemological Institute of America
##DESCRIPTION=Black trigonal prism
##STATUS=The identification of this mineral has been confirmed by X-ray diffraction and chemical analysis
##URL=rruff.info/R060534
##MEASURED CHEMISTRY=(Na_0.79_Ca_0.21_)(Mg_0.68_Fe^2+^_0.29_Ti_0.02_Al_0.01_)_3_Al_6.00_(BO_3_)_3_(Si_0.95_Al_005_)_6.00_O_18_(OH)_4_
92.10938, 6.087705
92.59149, 5.954844
93.07361, 5.981397
93.55573, 6.158088
94.03784, 6.373353
94.51996, 6.614628
95.00208, 6.837156
95.48419, 6.880458
95.96631, 6.603689
96.44843, 6.130274
96.93054, 5.801875
97.41266, 5.627919
97.89478, 5.564373
98.37689, 5.606469
98.85901, 5.755294
99.34113, 5.865969
99.82324, 5.880167
100.3054, 5.797879
100.7875, 5.660254
101.2696, 5.432868
101.7517, 5.194617
102.2338, 5.100403
102.7159, 5.187926
103.1981, 5.314366
103.6802, 5.374664
104.1623, 5.271245
104.6444, 5.452804
105.1265, 6.108754
105.6086, 7.048704
106.0908, 7.528572
106.5729, 7.173172
107.0550, 6.792613
107.5371, 6.870907
108.0192, 7.856590
108.5013, 8.627165
108.9835, 8.958117
109.4656, 8.869104
109.9477, 9.091859
110.4298, 9.961605
110.9119, 10.95929
111.3940, 11.74927
111.8762, 11.84332
112.3583, 12.20552
112.8404, 13.04819
113.3225, 14.41037
113.8046, 15.87667
114.2867, 17.66360
114.7689, 19.45066
115.2510, 20.87632
115.7331, 21.29279
116.2152, 21.82409
116.6973, 22.95442
117.1794, 24.85572
117.6616, 26.80037
118.1437, 28.50678
118.6258, 30.10049
119.1079, 31.73062
119.5900, 33.59341
120.0721, 35.44858
120.5543, 37.13070
121.0364, 38.58274
121.5185, 39.92994
122.0006, 41.06051
122.4827, 42.11390
122.9648, 43.50599
123.4470, 45.86334
123.9291, 48.53430
124.4112, 50.70968
124.8933, 51.92302
125.3754, 53.01348
125.8575, 54.83301
126.3397, 57.31139
126.8218, 60.02861
127.3039, 62.58886
127.7860, 65.14864
128.2681, 68.04645
128.7502, 71.63345
129.2324, 75.43632
129.7145, 78.60540
130.1966, 81.15620
130.6787, 83.35278
131.1608, 85.32354
131.6429, 87.09594
132.1251, 88.88929
132.6072, 90.70953
133.0893, 92.59863
133.5714, 94.86947
134.0535, 97.59953
134.5356, 100.3553
135.0178, 102.5789
135.4999, 104.2499
135.9820, 105.7930
136.4641, 107.2360
136.9462, 108.6019
137.4283, 110.5111
137.9105, 113.1213
138.3926, 116.0264
138.8747, 118.4976
139.3568, 120.4728
139.8389, 122.3673
140.3210, 124.3895
140.8032, 126.6154
141.2853, 128.5380
141.7674, 129.8327
142.2495, 131.0117
142.7316, 133.3463
143.2137, 137.0785
143.6959, 139.9265
144.1780, 141.5066
144.6601, 141.3190
145.1422, 141.2778
145.6243, 141.3749
146.1064, 141.6504
146.5886, 142.3375
147.0707, 143.8995
147.5528, 145.3470
148.0349, 146.1095
148.5170, 145.7399
148.9991, 145.4178
149.4813, 145.0479
149.9634, 144.6819
150.4455, 144.9009
150.9276, 146.7537
151.4097, 148.4717
151.8918, 148.9438
152.3740, 146.4669
152.8561, 144.7093
153.3382, 144.3134
153.8203, 145.2370
154.3024, 145.8281
154.7845, 145.8223
155.2667, 145.5223
155.7488, 145.1521
156.2309, 144.6633
156.7130, 144.1912
157.1951, 143.7962
157.6772, 143.4875
158.1594, 143.0979
158.6415, 142.4721
159.1236, 141.7994
159.6057, 141.2627
160.0878, 140.8044
160.5699, 140.5826
161.0521, 140.8566
161.5342, 141.7411
162.0163, 142.1764
162.4984, 141.1458
162.9805, 139.6211
163.4626, 138.8311
163.9448, 139.9868
164.4269, 141.3926
164.9090, 142.2167
165.3911, 142.3582
165.8732, 142.0711
166.3553, 140.8681
166.8375, 139.3815
167.3196, 138.6572
167.8017, 140.1156
168.2838, 141.9082
168.7659, 142.6240
169.2480, 141.9132
169.7302, 140.8570
170.2123, 139.9156
170.6944, 139.1465
171.1765, 138.6947
171.6586, 138.8490
172.1407, 139.2420
172.6229, 139.5073
173.1050, 139.5616
173.5871, 139.5656
174.0692, 139.6432
174.5513, 139.7802
175.0334, 139.9360
175.5156, 140.2057
175.9977, 140.4478
176.4798, 140.4111
176.9619, 139.9583
177.4440, 139.4428
177.9261, 139.2198
178.4083, 139.2649
178.8904, 139.4836
179.3725, 139.9929
179.8546, 140.6139
180.3367, 140.9682
180.8188, 140.9133
181.3010, 140.6977
181.7831, 140.6196
182.2652, 140.6741
182.7473, 140.8198
183.2294, 141.0367
183.7115, 141.3220
184.1937, 141.7022
184.6758, 142.2997
185.1579, 142.8541
185.6400, 142.8238
186.1221, 142.2307
186.6042, 141.5908
187.0864, 141.2650
187.5685, 141.2265
188.0506, 141.3950
188.5327, 141.8219
189.0148, 142.3861
189.4969, 142.9221
189.9791, 143.4373
190.4612, 143.7289
190.9433, 143.3874
191.4254, 142.5267
191.9075, 142.0967
192.3896, 142.3574
192.8718, 143.1722
193.3539, 144.3735
193.8360, 146.0567
194.3181, 147.4668
194.8002, 147.6457
195.2823, 146.6313
195.7645, 146.0222
196.2466, 146.2319
196.7287, 147.1089
197.2108, 148.1120
197.6929, 149.2625
198.1750, 150.4259
198.6572, 151.4608
199.1393, 152.3538
199.6214, 153.2257
200.1035, 153.9490
200.5856, 154.6535
201.0677, 156.3101
201.5499, 159.2200
202.0320, 162.1258
202.5141, 163.6577
202.9962, 163.6506
203.4783, 163.5795
203.9604, 163.6359
204.4426, 163.8759
204.9247, 164.9399
205.4068, 167.0925
205.8889, 169.3948
206.3710, 170.8345
206.8531, 171.2429
207.3353, 171.6920
207.8174, 172.5254
208.2995, 173.6842
208.7816, 174.2706
209.2637, 174.0841
209.7458, 173.7057
210.2280, 173.8099
210.7101, 174.6005
211.1922, 175.1087
211.6743, 175.0565
212.1564, 174.4630
212.6385, 173.9040
213.1207, 173.3968
213.6028, 172.9030
214.0849, 172.4715
214.5670, 172.2818
215.0491, 171.5940
215.5313, 170.0799
216.0134, 167.7410
216.4955, 165.8412
216.9776, 164.5167
217.4597, 163.4202
217.9418, 162.1615
218.4239, 160.6668
218.9061, 159.2255
219.3882, 157.8404
219.8703, 156.5203
220.3524, 155.5505
220.8345, 155.0381
221.3166, 154.7546
221.7988, 154.5133
222.2809, 154.4230
222.7630, 154.1158
223.2451, 153.4409
223.7272, 152.3852
224.2093, 151.5466
224.6915, 150.9542
225.1736, 150.5343
225.6557, 150.2311
226.1378, 150.0558
226.6199, 149.9747
227.1020, 150.0615
227.5842, 150.3191
228.0663, 150.2097
228.5484, 149.4236
229.0305, 148.6037
229.5126, 148.3520
229.9947, 148.8236
230.4769, 149.5632
230.9590, 150.6626
231.4411, 152.1142
231.9232, 152.9908
232.4053, 152.9785
232.8874, 152.7360
233.3696, 152.8649
233.8517, 153.6055
234.3338, 154.2419
234.8159, 154.6039
235.2980, 154.7041
235.7801, 154.9830
236.2623, 155.4595
236.7444, 156.0969
237.2265, 156.9002
237.7086, 158.0405
238.1907, 159.0279
238.6728, 159.8622
239.1550, 160.5276
239.6371, 160.6833
240.1192, 160.0044
240.6013, 159.1803
241.0834, 158.8474
241.5655, 159.6134
242.0477, 159.6390
242.5298, 158.4330
243.0119, 156.1406
243.4940, 154.2942
243.9761, 153.1396
244.4582, 152.1374
244.9404, 150.9612
245.4225, 149.7911
245.9046, 148.0175
246.3867, 145.1807
246.8688, 141.5471
247.3509, 139.0406
247.8331, 138.2637
248.3152, 137.8423
248.7973, 136.9102
249.2794, 135.2857
249.7615, 133.5048
250.2436, 131.5173
250.7258, 129.3969
251.2079, 127.5462
251.6900, 126.0923
252.1721, 124.7287
252.6542, 123.1791
253.1363, 121.0390
253.6185, 119.7603
254.1006, 119.8344
254.5827, 120.7966
255.0648, 120.9243
255.5469, 119.7853
256.0291, 118.5104
256.5112, 117.7352
256.9933, 117.7834
257.4754, 117.4877
257.9575, 116.6925
258.4396, 115.5649
258.9218, 114.5645
259.4039, 113.6064
259.8860, 112.9154
260.3681, 112.6026
260.8502, 112.7333
261.3323, 113.1064
261.8145, 113.9128
262.2966, 114.8420
262.7787, 115.1244
263.2608, 114.3786
263.7429, 113.7926
264.2250, 114.0285
264.7072, 115.4904
265.1893, 116.0621
265.6714, 115.4798
266.1535, 114.2181
266.6356, 113.0222
267.1177, 111.7410
267.5999, 110.9091
268.0820, 110.9294
268.5641, 112.0116
269.0462, 112.2981
269.5283, 111.5098
270.0104, 110.2785
270.4926, 109.5531
270.9747, 109.4780
271.4568, 109.3868
271.9389, 109.0253
272.4210, 108.3794
272.9031, 107.9415
273.3853, 107.7245
273.8674, 107.6950
274.3495, 107.9528
274.8316, 108.6348
275.3137, 108.8700
275.7958, 108.2117
276.2780, 106.7645
276.7601, 106.0078
277.2422, 106.0907
277.7243, 106.4755
278.2064, 106.6749
278.6885, 106.6939
279.1707, 106.4550
279.6528, 105.8495
280.1349, 104.9715
280.6170, 104.3060
281.0991, 103.8704
281.5812, 103.5807
282.0634, 103.4775
282.5455, 103.5723
283.0276, 103.3513
283.5097, 102.5809
283.9918, 101.5120
284.4739, 100.9519
284.9561, 100.9391
285.4382, 101.1494
285.9203, 101.4215
286.4024, 101.7424
286.8845, 101.9353
287.3666, 101.9529
287.8488, 101.8524
288.3309, 101.7411
288.8130, 101.6177
289.2951, 101.4884
289.7772, 101.3223
290.2593, 101.1398
290.7415, 101.0920
291.2236, 101.2447
291.7057, 101.4157
292.1878, 101.2589
292.6699, 100.8007
293.1520, 100.3576
293.6342, 99.99920
294.1163, 99.78576
294.5984, 100.0744
295.0805, 101.0046
295.5626, 101.9190
296.0447, 101.7395
296.5269, 100.7083
297.0090, 99.99932
297.4911, 100.5038
297.9732, 101.6753
298.4553, 102.2309
298.9374, 102.1049
299.4196, 101.8959
299.9017, 102.2898
300.3838, 103.0969
300.8659, 103.7996
301.3480, 104.1277
301.8301, 104.2609
302.3123, 104.4937
302.7944, 104.8209
303.2765, 105.0488
303.7586, 104.8271
304.2407, 104.4212
304.7228, 104.2933
305.2050, 104.5078
305.6871, 105.1486
306.1692, 106.8159
306.6513, 109.2699
307.1334, 110.9771
307.6155, 110.0493
308.0977, 108.0870
308.5798, 107.1958
309.0619, 108.2400
309.5440, 109.7783
310.0261, 110.8751
310.5082, 111.5542
310.9904, 111.8857
311.4725, 111.5370
311.9546, 111.0609
312.4367, 110.9793
312.9188, 111.4609
313.4009, 112.0625
313.8831, 112.8954
314.3652, 113.6326
314.8473, 113.6758
315.3294, 111.5932
315.8115, 109.5905
316.2936, 109.3518
316.7758, 111.3406
317.2579, 112.9772
317.7400, 112.8475
318.2221, 111.8132
318.7042, 110.9736
319.1863, 110.7087
319.6685, 110.6788
320.1506, 110.7812
320.6327, 111.0105
321.1148, 111.3208
321.5969, 111.8490
322.0790, 112.3741
322.5612, 112.7227
323.0433, 112.5357
323.5254, 112.4984
324.0075, 112.8969
324.4896, 113.6590
324.9717, 114.2102
325.4539, 114.1621
325.9360, 114.0845
326.4181, 114.2981
326.9002, 115.1014
327.3823, 115.8531
327.8644, 116.5393
328.3466, 117.1504
328.8287, 117.6546
329.3108, 117.9004
329.7929, 118.1774
330.2750, 118.6095
330.7571, 119.3773
331.2393, 119.8936
331.7214, 119.9751
332.2035, 119.8727
332.6856, 119.9926
333.1677, 120.4491
333.6498, 120.9616
334.1320, 121.4747
334.6141, 121.9839
335.0962, 122.4551
335.5783, 122.8949
336.0604, 123.2898
336.5425, 123.6302
337.0247, 123.9115
337.5068, 124.1305
337.9889, 124.1662
338.4710, 124.0965
338.9531, 124.6873
339.4352, 126.1882
339.9173, 127.7945
340.3994, 128.8506
340.8816, 129.2876
341.3637, 129.6767
341.8458, 130.0977
342.3279, 130.5084
342.8100, 130.7568
343.2921, 130.7985
343.7743, 130.9611
344.2564, 131.5198
344.7385, 132.4519
345.2206, 133.1880
345.7027, 133.6612
346.1848, 134.0434
346.6670, 134.5866
347.1491, 135.2855
347.6312, 136.0611
348.1133, 136.9769
348.5954, 137.9494
349.0775, 138.6476
349.5597, 139.0506
350.0418, 139.4539
350.5239, 140.1198
351.0060, 141.0286
351.4881, 142.1064
351.9702, 143.3933
352.4524, 144.7847
352.9345, 146.1071
353.4166, 147.3670
353.8987, 148.6237
354.3808, 149.8796
354.8629, 151.1641
355.3451, 152.4605
355.8272, 153.6903
356.3093, 155.0956
356.7914, 157.0871
357.2735, 159.4688
357.7556, 161.6608
358.2378, 162.8719
358.7199, 164.0237
359.2020, 166.0217
359.6841, 169.1147
360.1662, 172.1846
360.6483, 174.5826
361.1305, 176.5694
361.6126, 178.5108
362.0947, 180.4507
362.5768, 182.4550
363.0589, 184.6101
363.5410, 186.9157
364.0232, 189.1868
364.5053, 191.6474
364.9874, 193.8988
365.4695, 195.6314
365.9516, 196.4684
366.4337, 197.1301
366.9159, 197.8176
367.3980, 198.4623
367.8801, 198.7889
368.3622, 198.8451
368.8443, 198.5037
369.3264, 197.6646
369.8086, 195.9447
370.2907, 194.3991
370.7728, 193.2626
371.2549, 192.2272
371.7370, 190.7912
372.2191, 188.7384
372.7013, 186.5832
373.1834, 184.6257
373.6655, 182.9703
374.1476, 180.2399
374.6297, 175.7534
375.1118, 171.1137
375.5940, 168.0020
376.0761, 166.9817
376.5582, 165.7748
377.0403, 163.9376
377.5224, 161.6475
378.0045, 159.5630
378.4867, 157.7174
378.9688, 156.0971
379.4509, 154.8564
379.9330, 154.0195
380.4151, 152.6809
380.8972, 150.6274
381.3794, 148.3625
381.8615, 146.8062
382.3436, 145.9274
382.8257, 145.2467
383.3078, 144.6307
383.7899, 144.0345
384.2721, 143.2704
384.7542, 142.3332
385.2363, 141.3137
385.7184, 140.2166
386.2005, 139.1048
386.6826, 138.0983
387.1648, 137.3113
387.6469, 136.5873
388.1290, 135.6540
388.6111, 134.5640
389.0932, 133.5894
389.5753, 132.8412
390.0575, 132.3302
390.5396, 132.1378
391.0217, 132.4177
391.5038, 132.5802
391.9859, 132.0820
392.4680, 131.1890
392.9502, 130.3769
393.4323, 129.8888
393.9144, 129.5163
394.3965, 129.1836
394.8786, 128.8864
395.3607, 128.5172
395.8429, 127.8125
396.3250, 127.1216
396.8071, 126.7531
397.2892, 127.3237
397.7713, 127.6292
398.2534, 127.1957
398.7356, 126.2004
399.2177, 125.5165
399.6998, 125.4674
400.1819, 125.5575
400.6640, 125.5867
401.1461, 125.5654
401.6283, 125.4618
402.1104, 125.2738
402.5925, 125.0048
403.0746, 124.6300
403.5567, 124.0071
404.0388, 123.5414
404.5210, 123.4039
405.0031, 123.5950
405.4852, 123.5702
405.9673, 123.2958
406.4494, 122.8644
406.9315, 122.2629
407.4137, 121.4268
407.8958, 120.9577
408.3779, 121.0937
408.8600, 121.4979
409.3421, 121.2000
409.8242, 120.1515
410.3064, 119.2074
410.7885, 118.9255
411.2706, 119.1735
411.7527, 119.3391
412.2348, 119.4010
412.7169, 119.3659
413.1991, 119.3120
413.6812, 119.1806
414.1633, 118.7603
414.6454, 117.7131
415.1275, 116.5354
415.6096, 115.9513
416.0918, 115.9017
416.5739, 115.9190
417.0560, 115.7718
417.5381, 115.4794
418.0202, 115.0355
418.5023, 114.3765
418.9845, 113.7350
419.4666, 113.1825
419.9487, 112.7605
420.4308, 112.5592
420.9129, 112.9608
421.3951, 113.2974
421.8772, 113.2202
422.3593, 112.6865
422.8414, 112.0365
423.3235, 111.1060
423.8056, 110.2358
424.2878, 109.7100
424.7699, 109.9534
425.2520, 110.0966
425.7341, 110.0067
426.2162, 109.7362
426.6983, 109.4679
427.1805, 109.2599
427.6626, 108.9880
428.1447, 108.5380
428.6268, 107.7527
429.1089, 107.4301
429.5910, 107.8528
430.0732, 108.4368
430.5553, 108.4079
431.0374, 107.6083
431.5195, 106.7951
432.0016, 106.0414
432.4837, 105.4161
432.9659, 105.3390
433.4480, 105.8922
433.9301, 106.4740
434.4122, 106.6742
434.8943, 106.5226
435.3764, 106.1544
435.8586, 105.5007
436.3407, 104.8978
436.8228, 104.9635
437.3049, 105.5432
437.7870, 105.9691
438.2691, 105.7531
438.7513, 105.2979
439.2334, 105.2631
439.7155, 105.6202
440.1976, 105.8633
440.6797, 105.3988
441.1618, 104.6982
441.6440, 104.3598
442.1261, 104.7076
442.6082, 105.1182
443.0903, 105.2648
443.5724, 105.2089
444.0545, 105.0840
444.5367, 104.6504
445.0188, 104.4010
445.5009, 104.7346
445.9830, 105.7938
446.4651, 106.4347
446.9472, 106.0023
447.4294, 105.2921
447.9115, 104.9771
448.3936, 105.7538
448.8757, 106.1001
449.3578, 105.6181
449.8399, 104.6213
450.3221, 104.1888
450.8042, 104.6666
451.2863, 105.1584
451.7684, 105.2604
452.2505, 104.8734
452.7326, 104.7983
453.2148, 105.1915
453.6969, 105.6175
454.1790, 105.4853
454.6611, 104.7624
455.1432, 104.0469
455.6253, 103.3705
456.1075, 102.8794
456.5896, 103.1880
457.0717, 104.2769
457.5538, 105.2329
458.0359, 105.3026
458.5180, 104.8106
459.0002, 104.4922
459.4823, 104.4190
459.9644, 104.4689
460.4465, 104.4104
460.9286, 104.3991
461.4107, 104.7422
461.8929, 106.0596
462.3750, 107.3422
462.8571, 107.7595
463.3392, 107.4544
463.8213, 107.0664
464.3034, 106.8180
464.7856, 106.6463
465.2677, 106.5118
465.7498, 106.4124
466.2319, 106.3413
466.7140, 106.2399
467.1961, 106.1839
467.6783, 106.2700
468.1604, 106.7372
468.6425, 107.0939
469.1246, 107.2417
469.6067, 107.1921
470.0888, 107.0613
470.5710, 106.6459
471.0531, 106.4246
471.5352, 106.7341
472.0173, 107.8046
472.4994, 108.5722
472.9815, 108.9735
473.4637, 109.1363
473.9458, 109.2338
474.4279, 109.2663
474.9100, 109.2274
475.3921, 109.0014
475.8742, 108.7523
476.3564, 109.1135
476.8385, 110.0785
477.3206, 111.0073
477.8027, 111.2587
478.2848, 111.1388
478.7669, 111.3525
479.2491, 112.0771
479.7312, 112.7649
480.2133, 112.7917
480.6954, 112.4164
481.1775, 112.1221
481.6596, 112.3041
482.1418, 112.4742
482.6239, 112.1957
483.1060, 111.5524
483.5881, 111.1538
484.0702, 111.1824
484.5523, 111.5651
485.0345, 112.3691
485.5166, 114.0445
485.9987, 115.1348
486.4808, 115.0932
486.9629, 114.4638
487.4450, 113.9869
487.9272, 113.7047
488.4093, 113.5199
488.8914, 113.4120
489.3735, 113.3861
489.8556, 113.4822
490.3377, 113.7214
490.8199, 114.0397
491.3020, 114.4952
491.7841, 115.1336
492.2662, 115.2691
492.7483, 114.7416
493.2304, 114.0772
493.7126, 114.0882
494.1947, 114.6849
494.6768, 115.2066
495.1589, 115.4669
495.6410, 115.5006
496.1231, 115.2504
496.6053, 114.7609
497.0874, 114.3594
497.5695, 114.3879
498.0516, 114.5462
498.5337, 114.4194
499.0158, 113.8976
499.4980, 113.4963
499.9801, 113.6767
500.4622, 114.0995
500.9443, 114.3668
501.4264, 114.3315
501.9085, 114.1432
502.3907, 113.7223
502.8728, 113.1519
503.3549, 112.7625
503.8370, 112.9806
504.3191, 113.0283
504.8012, 112.5323
505.2834, 111.2731
505.7655, 110.4597
506.2476, 110.2308
506.7297, 110.2910
507.2118, 110.3952
507.6939, 110.5778
508.1761, 110.6570
508.6582, 110.6012
509.1403, 110.4308
509.6224, 110.1059
510.1045, 109.6168
510.5866, 109.3226
511.0688, 109.6312
511.5509, 110.2681
512.0330, 110.3269
512.5151, 109.7933
512.9973, 109.1903
513.4794, 108.9386
513.9615, 108.9146
514.4436, 108.9273
514.9257, 108.9341
515.4078, 108.9678
515.8900, 109.1736
516.3721, 109.4133
516.8542, 109.4249
517.3363, 108.7634
517.8184, 108.1769
518.3005, 108.0402
518.7827, 108.3548
519.2648, 108.6382
519.7469, 108.8542
520.2290, 108.9830
520.7111, 108.9932
521.1932, 108.7135
521.6754, 108.6998
522.1575, 109.1666
522.6396, 109.7226
523.1217, 109.6800
523.6038, 108.7518
524.0859, 108.3277
524.5681, 108.9260
525.0502, 110.1929
525.5323, 110.8747
526.0144, 110.9473
526.4965, 110.8855
526.9786, 110.9095
527.4608, 111.0379
527.9429, 111.3595
528.4250, 111.8949
528.9071, 112.4759
529.3892, 113.0342
529.8713, 113.5177
530.3535, 113.8125
530.8356, 113.7674
531.3177, 113.7077
531.7998, 113.8873
532.2819, 114.2174
532.7640, 114.4765
533.2462, 114.4628
533.7283, 114.4795
534.2104, 114.7225
534.6925, 115.2358
535.1746, 115.5276
535.6567, 115.3027
536.1389, 115.0423
536.6210, 115.0588
537.1031, 115.5826
537.5852, 115.8435
538.0673, 115.7199
538.5494, 115.4316
539.0316, 115.3744
539.5137, 115.5973
539.9958, 115.7063
540.4779, 115.5315
540.9600, 115.1911
541.4421, 115.0463
541.9243, 115.0912
542.4064, 115.1889
542.8885, 115.2161
543.3706, 115.2401
543.8527, 115.4289
544.3348, 115.8125
544.8170, 116.1511
545.2991, 116.1551
545.7812, 116.0380
546.2633, 116.0921
546.7454, 116.7651
547.2275, 117.1341
547.7097, 116.5516
548.1918, 115.3834
548.6739, 114.4929
549.1560, 114.1970
549.6381, 114.0552
550.1202, 113.9379
550.6024, 113.8390
551.0845, 113.8854
551.5666, 114.1421
552.0487, 114.4586
552.5308, 114.7755
553.0129, 115.1351
553.4951, 115.2004
553.9772, 114.8254
554.4593, 114.4397
554.9414, 114.8968
555.4235, 116.0879
555.9056, 116.6862
556.3878, 116.0894
556.8699, 114.9323
557.3520, 114.1184
557.8341, 113.6375
558.3162, 113.4680
558.7983, 113.9631
559.2805, 114.5366
559.7626, 114.5648
560.2447, 113.9958
560.7268, 113.4078
561.2089, 112.8826
561.6910, 112.5609
562.1732, 112.5868
562.6553, 113.4253
563.1374, 113.9226
563.6195, 113.5777
564.1016, 112.9219
564.5837, 112.7805
565.0659, 113.5932
565.5480, 114.1027
566.0301, 113.9804
566.5122, 113.3459
566.9943, 112.7115
567.4764, 112.0295
567.9586, 111.6021
568.4407, 111.6885
568.9228, 112.2113
569.4049, 112.8489
569.8870, 113.6186
570.3691, 114.1769
570.8513, 114.0244
571.3334, 113.4381
571.8155, 112.9585
572.2976, 112.7110
572.7797, 112.5712
573.2618, 112.4857
573.7440, 112.4336
574.2261, 112.3755
574.7082, 112.2867
575.1903, 112.2000
575.6724, 112.1097
576.1545, 112.0237
576.6367, 112.0084
577.1188, 112.1482
577.6009, 112.2821
578.0830, 112.3402
578.5651, 112.2995
579.0472, 112.3089
579.5294, 112.3815
580.0115, 112.4834
580.4936, 112.6306
580.9757, 112.8292
581.4578, 112.7709
581.9399, 112.2922
582.4221, 111.8238
582.9042, 112.2013
583.3863, 113.2224
583.8684, 114.0835
584.3505, 114.4220
584.8326, 114.4447
585.3148, 114.2778
585.7969, 113.9562
586.2789, 113.6485
586.7610, 113.3388
