##NAMES=Dravite
##RRUFFID=R050077
##IDEAL CHEMISTRY=NaMg_3_Al_6_(Si_6_O_18_)(BO_3_)_3_(OH)_3_OH
##LOCALITY=Yinnietharra Station, Western Australia, Australia
##OWNER=RRUFF
##SOURCE=Rock Currier
##DESCRIPTION=Dark brown euhedral prismatic single crystal
##STATUS=The identification of this mineral has been confirmed by X-ray diffraction and chemical analysis
##URL=rruff.info/R050077
##MEASURED CHEMISTRY=(Na_0.783_Ca_0.217_)(Mg_0.771_Fe^2+^_0.221_Ti^4+^_0.008_)_3_(Al_0.956_Mg_0.044_)_6_(BO_3_)_3_[Si_6_O_18_]((OH)_0.914_F_0.086_)_4_
168.9465, 5199.659
169.4286, 5238.067
169.9107, 5257.452
170.3929, 5263.528
170.8750, 5268.828
171.3571, 5282.423
171.8392, 5297.237
172.3213, 5302.608
172.8034, 5293.082
173.2856, 5287.555
173.7677, 5309.410
174.2498, 5351.973
174.7319, 5391.890
175.2140, 5418.151
175.6961, 5432.265
176.1783, 5433.649
176.6604, 5416.438
177.1425, 5396.814
177.6246, 5396.084
178.1067, 5412.159
178.5888, 5431.503
179.0710, 5447.399
179.5531, 5459.174
180.0352, 5463.285
180.5173, 5452.875
180.9994, 5440.568
181.4815, 5452.127
181.9637, 5486.884
182.4458, 5520.683
182.9279, 5526.417
183.4100, 5512.301
183.8921, 5510.136
184.3742, 5535.185
184.8564, 5575.302
185.3385, 5601.004
185.8206, 5611.729
186.3027, 5617.544
186.7848, 5624.939
187.2669, 5634.741
187.7491, 5653.556
188.2312, 5689.665
188.7133, 5736.691
189.1954, 5771.790
189.6775, 5793.949
190.1596, 5807.566
190.6418, 5811.016
191.1239, 5804.891
191.6060, 5812.125
192.0881, 5850.904
192.5702, 5916.288
193.0524, 5963.620
193.5345, 5989.988
194.0166, 6005.680
194.4987, 6020.979
194.9808, 6035.110
195.4629, 6060.729
195.9451, 6111.045
196.4272, 6185.932
196.9093, 6241.602
197.3914, 6272.028
197.8735, 6290.564
198.3556, 6320.855
198.8378, 6363.270
199.3199, 6414.022
199.8020, 6473.508
200.2841, 6541.960
200.7662, 6608.146
201.2483, 6671.806
201.7305, 6732.484
202.2126, 6786.124
202.6947, 6829.321
203.1768, 6878.184
203.6589, 6947.316
204.1410, 7040.590
204.6232, 7120.725
205.1053, 7179.428
205.5874, 7225.047
206.0695, 7286.348
206.5516, 7367.164
207.0337, 7453.593
207.5159, 7539.081
207.9980, 7623.665
208.4801, 7699.738
208.9622, 7766.274
209.4443, 7823.521
209.9264, 7873.991
210.4086, 7920.626
210.8907, 7954.646
211.3728, 7965.836
211.8549, 7947.227
212.3370, 7930.369
212.8191, 7922.174
213.3013, 7920.576
213.7834, 7907.157
214.2655, 7880.032
214.7476, 7843.943
215.2297, 7803.096
215.7118, 7757.069
216.1940, 7705.398
216.6761, 7643.678
217.1582, 7572.799
217.6403, 7521.392
218.1224, 7498.896
218.6045, 7484.025
219.0867, 7456.649
219.5688, 7413.855
220.0509, 7364.580
220.5330, 7304.055
221.0151, 7230.525
221.4972, 7194.813
221.9794, 7215.858
222.4615, 7253.190
222.9436, 7261.224
223.4257, 7221.604
223.9078, 7190.676
224.3899, 7184.936
224.8721, 7207.095
225.3542, 7215.739
225.8363, 7199.279
226.3184, 7180.342
226.8005, 7187.983
227.2827, 7237.319
227.7648, 7284.375
228.2469, 7317.412
228.7290, 7334.221
229.2111, 7352.575
229.6932, 7369.019
230.1754, 7389.570
230.6575, 7423.426
231.1396, 7476.446
231.6217, 7532.302
232.1038, 7588.550
232.5859, 7647.092
233.0681, 7694.146
233.5502, 7719.883
234.0323, 7740.996
234.5144, 7783.181
234.9965, 7855.910
235.4786, 7933.779
235.9608, 8014.238
236.4429, 8102.453
236.9250, 8163.083
237.4071, 8181.522
237.8892, 8180.956
238.3713, 8200.921
238.8535, 8262.743
239.3356, 8309.189
239.8177, 8318.019
240.2998, 8276.540
240.7819, 8247.497
241.2640, 8241.652
241.7462, 8241.519
242.2283, 8215.385
242.7104, 8149.687
243.1925, 8080.289
243.6746, 8019.577
244.1567, 7971.649
244.6389, 7918.254
245.1210, 7862.619
245.6031, 7799.845
246.0852, 7719.438
246.5673, 7610.024
247.0494, 7502.267
247.5316, 7405.868
248.0137, 7320.868
248.4958, 7248.439
248.9779, 7197.574
249.4600, 7154.576
249.9421, 7092.578
250.4243, 6995.797
250.9064, 6907.614
251.3885, 6847.052
251.8706, 6825.729
252.3527, 6791.724
252.8348, 6738.956
253.3170, 6677.419
253.7991, 6626.504
254.2812, 6590.385
254.7633, 6557.861
255.2454, 6523.882
255.7275, 6486.100
256.2097, 6456.997
256.6918, 6438.806
257.1739, 6428.078
257.6560, 6418.100
258.1381, 6407.442
258.6202, 6400.565
259.1024, 6401.360
259.5845, 6414.222
260.0666, 6415.728
260.5487, 6401.703
261.0308, 6379.470
261.5129, 6360.868
261.9951, 6345.272
262.4772, 6335.237
262.9593, 6333.126
263.4414, 6340.987
263.9235, 6347.702
264.4056, 6355.350
264.8878, 6359.944
265.3699, 6353.221
265.8520, 6331.418
266.3341, 6308.764
266.8162, 6288.125
267.2983, 6267.929
267.7805, 6264.059
268.2626, 6285.294
268.7447, 6313.111
269.2268, 6310.554
269.7089, 6267.161
270.1910, 6231.052
270.6732, 6224.344
271.1553, 6251.048
271.6374, 6269.902
272.1195, 6282.565
272.6016, 6284.937
273.0837, 6264.646
273.5659, 6215.813
274.0480, 6173.960
274.5301, 6154.647
275.0122, 6158.837
275.4943, 6162.381
275.9764, 6166.234
276.4586, 6167.647
276.9407, 6159.725
277.4228, 6140.948
277.9049, 6126.875
278.3870, 6126.169
278.8691, 6138.036
279.3513, 6143.934
279.8334, 6143.001
280.3155, 6138.312
280.7976, 6133.088
281.2798, 6127.310
281.7619, 6122.599
282.2440, 6120.283
282.7261, 6119.881
283.2082, 6118.058
283.6903, 6114.992
284.1725, 6109.833
284.6546, 6099.203
285.1367, 6083.538
285.6188, 6071.741
286.1009, 6064.872
286.5830, 6064.231
287.0652, 6081.274
287.5473, 6119.209
288.0294, 6154.751
288.5115, 6157.757
288.9936, 6131.768
289.4757, 6105.811
289.9579, 6085.381
290.4400, 6072.849
290.9221, 6079.604
291.4042, 6107.195
291.8863, 6134.758
292.3684, 6133.736
292.8506, 6112.064
293.3327, 6105.137
293.8148, 6134.449
294.2969, 6179.350
294.7790, 6197.824
295.2611, 6189.851
295.7433, 6175.952
296.2254, 6172.075
296.7075, 6176.230
297.1896, 6183.334
297.6717, 6195.091
298.1538, 6206.412
298.6360, 6203.178
299.1181, 6187.273
299.6002, 6181.260
300.0823, 6213.460
300.5644, 6266.594
301.0465, 6307.819
301.5287, 6324.866
302.0108, 6331.145
302.4929, 6336.845
302.9750, 6342.945
303.4571, 6354.702
303.9392, 6385.342
304.4214, 6420.953
304.9035, 6441.718
305.3856, 6435.075
305.8677, 6424.306
306.3498, 6428.829
306.8319, 6446.070
307.3141, 6467.207
307.7962, 6491.122
308.2783, 6514.261
308.7604, 6533.402
309.2425, 6547.108
309.7246, 6557.553
310.2068, 6563.044
310.6889, 6565.997
311.1710, 6572.717
311.6531, 6589.488
312.1352, 6609.223
312.6173, 6627.348
313.0995, 6643.822
313.5816, 6656.042
314.0637, 6657.941
314.5458, 6655.063
315.0279, 6657.854
315.5100, 6687.455
315.9922, 6710.865
316.4743, 6705.469
316.9564, 6660.091
317.4385, 6621.554
317.9206, 6608.329
318.4027, 6610.493
318.8849, 6614.179
319.3670, 6615.315
319.8491, 6617.659
320.3312, 6622.317
320.8133, 6629.326
321.2954, 6639.150
321.7776, 6657.149
322.2597, 6676.053
322.7418, 6688.111
323.2239, 6683.255
323.7060, 6680.392
324.1881, 6683.371
324.6703, 6692.440
325.1524, 6706.042
325.6345, 6733.667
326.1166, 6760.562
326.5987, 6774.989
327.0808, 6761.907
327.5630, 6753.924
328.0451, 6753.810
328.5272, 6761.566
329.0093, 6777.786
329.4914, 6807.192
329.9735, 6840.342
330.4557, 6871.265
330.9378, 6900.052
331.4199, 6926.503
331.9020, 6950.597
332.3841, 6972.452
332.8662, 6991.772
333.3484, 7004.189
333.8305, 7020.414
334.3126, 7049.118
334.7947, 7097.957
335.2768, 7134.674
335.7589, 7156.319
336.2411, 7165.642
336.7232, 7166.451
337.2053, 7153.015
337.6874, 7147.848
338.1695, 7164.691
338.6516, 7206.358
339.1338, 7245.190
339.6159, 7281.639
340.0980, 7313.175
340.5801, 7334.100
341.0622, 7344.060
341.5443, 7348.413
342.0265, 7344.118
342.5086, 7333.510
342.9907, 7340.954
343.4728, 7369.168
343.9549, 7404.543
344.4370, 7427.474
344.9192, 7439.748
345.4013, 7460.187
345.8834, 7498.216
346.3655, 7548.084
346.8476, 7593.719
347.3297, 7634.835
347.8119, 7674.881
348.2940, 7718.901
348.7761, 7764.472
349.2582, 7802.216
349.7403, 7823.618
350.2225, 7843.021
350.7046, 7883.421
351.1867, 7943.012
351.6688, 8005.066
352.1509, 8047.950
352.6331, 8088.159
353.1152, 8153.625
353.5973, 8261.354
354.0794, 8375.386
354.5615, 8458.711
355.0436, 8520.874
355.5258, 8590.916
356.0079, 8689.725
356.4900, 8800.661
356.9721, 8909.452
357.4542, 9013.047
357.9363, 9117.437
358.4185, 9219.783
358.9006, 9325.844
359.3827, 9445.573
359.8648, 9596.154
360.3469, 9750.864
360.8290, 9899.169
361.3112, 10041.77
361.7933, 10169.00
362.2754, 10265.20
362.7575, 10350.30
363.2396, 10446.38
363.7217, 10576.89
364.2039, 10699.06
364.6860, 10801.51
365.1681, 10884.19
365.6502, 10957.26
366.1323, 11026.61
366.6144, 11084.58
367.0966, 11125.75
367.5787, 11125.63
368.0608, 11138.91
368.5429, 11193.74
369.0250, 11272.55
369.5071, 11284.20
369.9893, 11204.68
370.4714, 11086.61
370.9535, 10951.70
371.4356, 10794.35
371.9177, 10635.12
372.3998, 10469.95
372.8820, 10304.59
373.3641, 10154.74
373.8462, 10024.40
374.3283, 9900.068
374.8104, 9777.729
375.2925, 9655.907
375.7747, 9542.114
376.2568, 9437.213
376.7389, 9336.713
377.2210, 9234.630
377.7031, 9130.474
378.1852, 9032.213
378.6674, 8941.276
379.1495, 8858.049
379.6316, 8781.357
380.1137, 8712.235
380.5958, 8646.083
381.0779, 8578.690
381.5601, 8510.379
382.0422, 8447.418
382.5243, 8388.862
383.0064, 8337.341
383.4885, 8299.663
383.9706, 8274.168
384.4528, 8251.230
384.9349, 8226.163
385.4170, 8198.672
385.8991, 8165.621
386.3812, 8123.298
386.8633, 8084.988
387.3455, 8065.194
387.8276, 8058.954
388.3097, 8054.657
388.7918, 8044.989
389.2739, 8035.982
389.7560, 8036.590
390.2382, 8049.081
390.7203, 8051.816
391.2024, 8018.105
391.6845, 7973.367
392.1666, 7946.524
392.6487, 7962.129
393.1309, 7983.703
393.6130, 8004.413
394.0951, 8022.551
394.5772, 8021.763
395.0593, 7974.079
395.5414, 7921.215
396.0236, 7889.756
396.5057, 7914.455
396.9878, 7923.691
397.4699, 7901.219
397.9520, 7857.223
398.4341, 7823.618
398.9163, 7796.556
399.3984, 7784.096
399.8805, 7793.255
400.3626, 7837.761
400.8447, 7862.204
401.3268, 7857.699
401.8090, 7839.653
402.2911, 7829.682
402.7732, 7830.823
403.2553, 7832.244
403.7374, 7830.357
404.2195, 7825.561
404.7017, 7828.013
405.1838, 7842.456
405.6659, 7851.219
406.1480, 7833.834
406.6301, 7789.796
407.1122, 7749.611
407.5944, 7716.053
408.0765, 7692.220
408.5586, 7690.923
409.0407, 7711.720
409.5228, 7733.356
410.0049, 7748.861
410.4871, 7754.404
410.9692, 7732.315
411.4513, 7674.064
411.9334, 7615.153
412.4155, 7605.139
412.8976, 7628.442
413.3798, 7640.458
413.8619, 7605.688
414.3440, 7558.281
414.8261, 7537.381
415.3082, 7543.630
415.7903, 7547.259
416.2725, 7520.587
416.7546, 7483.548
417.2367, 7458.292
417.7188, 7460.580
418.2009, 7467.019
418.6830, 7472.730
419.1652, 7475.439
419.6473, 7466.561
420.1294, 7425.566
420.6115, 7385.224
421.0937, 7364.463
421.5758, 7377.259
422.0579, 7385.781
422.5400, 7377.737
423.0221, 7364.036
423.5042, 7362.751
423.9864, 7396.341
424.4685, 7417.625
424.9506, 7410.699
425.4327, 7372.338
425.9148, 7348.491
426.3969, 7342.058
426.8791, 7346.795
427.3612, 7362.051
427.8433, 7398.043
428.3254, 7410.514
428.8075, 7385.166
429.2896, 7335.113
429.7718, 7304.609
430.2539, 7294.995
430.7360, 7296.728
431.2181, 7308.577
431.7002, 7329.551
432.1823, 7345.265
432.6645, 7354.869
433.1466, 7359.685
433.6287, 7361.269
434.1108, 7359.588
434.5929, 7354.041
435.0750, 7338.732
435.5572, 7321.879
436.0393, 7320.429
436.5214, 7333.741
437.0035, 7348.237
437.4856, 7354.005
437.9677, 7354.057
438.4499, 7352.287
438.9320, 7349.049
439.4141, 7345.301
439.8962, 7340.456
440.3783, 7335.527
440.8604, 7332.982
441.3426, 7331.324
441.8247, 7334.363
442.3068, 7347.576
442.7889, 7375.517
443.2710, 7394.335
443.7531, 7391.111
444.2353, 7378.054
444.7174, 7368.606
445.1995, 7360.963
445.6816, 7361.225
446.1637, 7374.259
446.6458, 7398.424
447.1280, 7417.830
447.6101, 7431.419
448.0922, 7441.447
448.5743, 7450.497
449.0564, 7464.297
449.5385, 7458.833
450.0207, 7421.958
450.5028, 7376.128
450.9849, 7369.548
451.4670, 7410.928
451.9491, 7447.506
452.4312, 7456.475
452.9134, 7441.785
453.3955, 7434.926
453.8776, 7436.600
454.3597, 7441.120
454.8418, 7441.408
455.3239, 7439.377
455.8061, 7443.462
456.2882, 7457.385
456.7703, 7475.502
457.2524, 7492.003
457.7345, 7506.361
458.2166, 7516.735
458.6988, 7516.804
459.1809, 7514.809
459.6630, 7522.002
460.1451, 7541.359
460.6272, 7556.672
461.1093, 7557.369
461.5915, 7548.144
462.0736, 7534.723
462.5557, 7504.267
463.0378, 7484.372
463.5199, 7488.806
464.0020, 7515.067
464.4842, 7543.967
464.9663, 7578.934
465.4484, 7609.869
465.9305, 7630.865
466.4126, 7632.406
466.8947, 7641.426
467.3769, 7667.688
467.8590, 7697.134
468.3411, 7703.932
468.8232, 7670.395
469.3053, 7650.013
469.7874, 7661.860
470.2696, 7703.519
470.7517, 7728.499
471.2338, 7732.583
471.7159, 7732.833
472.1980, 7745.961
472.6801, 7771.565
473.1623, 7788.123
473.6444, 7789.511
474.1265, 7786.884
474.6086, 7804.099
475.0907, 7837.492
475.5728, 7863.364
476.0550, 7861.134
476.5371, 7846.192
477.0192, 7842.252
477.5013, 7850.085
477.9834, 7865.669
478.4655, 7894.603
478.9477, 7926.810
479.4298, 7948.340
479.9119, 7948.006
480.3940, 7945.348
480.8761, 7950.659
481.3582, 7961.669
481.8404, 7971.835
482.3225, 7977.314
482.8046, 7982.870
483.2867, 7990.651
483.7688, 8001.079
484.2509, 8012.905
484.7331, 8027.596
485.2152, 8042.785
485.6973, 8056.252
486.1794, 8064.614
486.6615, 8077.795
487.1436, 8101.954
487.6258, 8132.305
488.1079, 8142.270
488.5900, 8122.667
489.0721, 8107.949
489.5542, 8125.937
490.0363, 8177.233
490.5185, 8193.533
491.0006, 8165.882
491.4827, 8126.849
491.9648, 8119.810
492.4470, 8139.875
492.9291, 8161.199
493.4112, 8175.787
493.8933, 8185.795
494.3754, 8193.805
494.8575, 8199.827
495.3397, 8203.458
495.8218, 8201.867
496.3039, 8199.052
496.7860, 8200.645
497.2681, 8209.520
497.7502, 8214.764
498.2324, 8206.953
498.7145, 8193.078
499.1966, 8182.488
499.6787, 8182.988
500.1608, 8182.182
500.6429, 8173.075
501.1251, 8156.635
501.6072, 8149.275
502.0893, 8166.118
502.5714, 8179.797
503.0535, 8176.327
503.5356, 8145.607
504.0178, 8121.957
504.4999, 8106.988
504.9820, 8097.876
505.4641, 8090.086
505.9462, 8083.288
506.4283, 8080.111
506.9105, 8083.882
507.3926, 8091.307
507.8747, 8086.141
508.3568, 8067.529
508.8389, 8051.822
509.3210, 8054.070
509.8032, 8068.437
510.2853, 8080.216
510.7674, 8088.536
511.2495, 8090.094
511.7316, 8074.915
512.2137, 8050.742
512.6959, 8033.558
513.1780, 8041.660
513.6601, 8049.103
514.1422, 8035.545
514.6243, 8003.970
515.1064, 7975.817
515.5886, 7956.498
516.0707, 7945.232
516.5528, 7942.448
517.0349, 7951.958
517.5170, 7961.944
517.9991, 7975.062
518.4813, 7986.542
518.9634, 7988.953
519.4455, 7971.389
519.9276, 7963.981
520.4097, 7976.771
520.8918, 8005.624
521.3740, 8024.579
521.8561, 8032.120
522.3382, 8034.777
522.8203, 8033.058
523.3024, 8027.767
523.7845, 8035.000
524.2667, 8058.227
524.7488, 8084.387
525.2309, 8097.349
525.7130, 8100.098
526.1951, 8102.681
526.6772, 8107.980
527.1594, 8115.489
527.6415, 8124.281
528.1236, 8134.558
528.6057, 8147.503
529.0878, 8168.597
529.5699, 8189.346
530.0521, 8202.084
530.5342, 8204.070
531.0163, 8206.683
531.4984, 8221.040
531.9805, 8234.714
532.4626, 8234.595
532.9448, 8196.125
533.4269, 8171.296
533.9090, 8170.626
534.3911, 8188.319
534.8732, 8201.958
535.3553, 8210.075
535.8375, 8217.198
536.3196, 8225.898
536.8017, 8236.579
537.2838, 8241.192
537.7659, 8237.807
538.2480, 8234.882
538.7302, 8247.587
539.2123, 8272.067
539.6944, 8278.104
540.1765, 8251.670
540.6586, 8217.746
541.1407, 8216.717
541.6229, 8239.528
542.1050, 8253.606
542.5871, 8218.762
543.0692, 8182.198
543.5513, 8198.953
544.0334, 8271.038
544.5156, 8325.274
544.9977, 8312.318
545.4798, 8276.076
545.9619, 8251.116
546.4440, 8252.162
546.9261, 8252.444
547.4083, 8247.175
547.8904, 8239.116
548.3725, 8233.391
548.8546, 8231.331
549.3367, 8229.388
549.8188, 8226.983
550.3010, 8224.056
550.7831, 8218.685
551.2652, 8209.142
551.7473, 8202.918
552.2294, 8207.603
552.7115, 8221.900
553.1937, 8233.423
553.6758, 8241.589
554.1579, 8245.317
554.6400, 8237.046
555.1221, 8222.582
555.6042, 8219.335
556.0864, 8244.088
556.5685, 8271.949
557.0506, 8277.532
557.5327, 8265.351
558.0148, 8251.956
558.4969, 8248.282
558.9791, 8243.673
559.4612, 8227.178
559.9433, 8192.134
560.4254, 8174.691
560.9075, 8195.524
561.3896, 8229.052
561.8718, 8253.251
562.3539, 8267.918
562.8360, 8272.858
563.3181, 8264.014
563.8002, 8247.321
564.2823, 8238.134
564.7645, 8238.963
565.2466, 8235.635
565.7287, 8215.618
566.2108, 8186.340
566.6929, 8194.516
567.1750, 8241.994
567.6572, 8283.504
568.1393, 8267.248
568.6214, 8219.571
569.1035, 8194.952
569.5856, 8205.128
570.0677, 8224.700
570.5499, 8242.285
571.0320, 8253.406
571.5141, 8251.211
571.9962, 8209.639
572.4783, 8177.703
572.9604, 8183.774
573.4426, 8219.946
573.9247, 8244.569
574.4068, 8235.818
574.8889, 8228.097
575.3710, 8236.586
575.8531, 8266.367
576.3353, 8284.559
576.8174, 8287.129
577.2995, 8283.827
577.7816, 8283.651
578.2637, 8286.950
578.7458, 8290.321
579.2280, 8294.437
579.7101, 8296.284
580.1922, 8284.179
580.6743, 8262.044
581.1564, 8252.031
581.6385, 8274.512
582.1207, 8309.497
582.6028, 8333.447
583.0849, 8346.469
583.5670, 8351.143
584.0491, 8340.962
584.5313, 8328.112
585.0134, 8322.478
585.4955, 8327.568
585.9776, 8333.256
586.4597, 8340.449
586.9418, 8345.435
587.4240, 8343.138
587.9061, 8318.406
588.3882, 8310.806
588.8703, 8333.634
589.3524, 8373.834
589.8345, 8391.436
590.3167, 8381.513
590.7988, 8367.631
591.2809, 8357.835
591.7630, 8352.298
592.2451, 8356.693
592.7272, 8371.665
593.2094, 8380.836
593.6915, 8358.523
594.1736, 8323.154
594.6557, 8312.379
595.1378, 8336.475
595.6199, 8368.091
596.1021, 8392.114
596.5842, 8409.341
597.0663, 8420.950
597.5485, 8419.639
598.0306, 8420.732
598.5127, 8434.196
598.9948, 8455.472
599.4769, 8464.517
599.9590, 8448.760
600.4412, 8434.596
600.9233, 8430.076
601.4054, 8435.442
601.8875, 8448.446
602.3696, 8473.817
602.8517, 8494.950
603.3339, 8490.010
603.8160, 8462.109
604.2981, 8455.974
604.7802, 8480.246
605.2623, 8514.296
605.7444, 8534.677
606.2266, 8543.615
606.7087, 8545.663
607.1908, 8531.862
607.6729, 8523.122
608.1550, 8542.598
608.6371, 8582.008
609.1193, 8615.107
609.6014, 8631.513
610.0835, 8638.761
610.5656, 8637.802
611.0477, 8627.428
611.5298, 8619.125
612.0120, 8605.572
612.4941, 8601.808
612.9762, 8622.363
613.4583, 8679.651
613.9404, 8713.914
614.4225, 8716.286
614.9047, 8706.223
615.3868, 8713.355
615.8689, 8736.155
616.3510, 8752.367
616.8331, 8750.206
617.3152, 8745.040
617.7974, 8763.229
618.2795, 8799.930
618.7616, 8837.085
619.2437, 8867.744
619.7258, 8892.685
620.2079, 8907.119
620.6901, 8911.180
621.1722, 8928.433
621.6543, 8989.226
622.1364, 9050.479
622.6185, 9081.611
623.1006, 9062.978
623.5828, 9054.985
624.0649, 9059.484
624.5470, 9072.933
625.0291, 9094.718
625.5112, 9128.685
625.9933, 9148.424
626.4755, 9143.883
626.9576, 9129.493
627.4397, 9138.447
627.9218, 9167.577
628.4039, 9192.708
628.8860, 9197.796
629.3682, 9194.223
629.8503, 9197.481
630.3324, 9206.722
630.8145, 9214.911
631.2966, 9212.328
631.7787, 9211.058
632.2609, 9224.301
632.7430, 9262.291
633.2251, 9280.627
633.7072, 9257.343
634.1893, 9218.773
634.6714, 9184.657
635.1536, 9148.834
635.6357, 9132.131
636.1178, 9140.456
636.5999, 9164.068
637.0820, 9191.030
637.5641, 9221.946
638.0463, 9234.761
638.5284, 9210.098
639.0105, 9173.750
639.4926, 9183.925
639.9747, 9233.371
640.4568, 9279.493
640.9390, 9296.320
641.4211, 9298.475
641.9032, 9293.318
642.3853, 9281.487
642.8674, 9283.359
643.3495, 9318.506
643.8317, 9362.577
644.3138, 9398.802
644.7959, 9417.775
645.2780, 9443.909
645.7601, 9484.902
646.2422, 9526.208
646.7244, 9548.578
647.2065, 9547.147
647.6886, 9551.436
648.1707, 9567.957
648.6528, 9590.649
649.1349, 9610.104
649.6171, 9625.823
650.0992, 9635.029
650.5813, 9622.828
651.0634, 9611.845
651.5455, 9642.651
652.0276, 9705.783
652.5098, 9748.851
652.9919, 9720.023
653.4740, 9681.048
653.9561, 9671.444
654.4382, 9699.853
654.9203, 9728.612
655.4025, 9758.067
655.8846, 9782.464
656.3667, 9796.010
656.8488, 9792.498
657.3309, 9798.075
657.8130, 9816.881
658.2952, 9839.118
658.7773, 9846.890
659.2594, 9842.257
659.7415, 9850.624
660.2236, 9883.721
660.7057, 9924.431
661.1879, 9949.999
661.6700, 9963.077
662.1521, 9970.646
