##NAMES=Dravite
##RRUFFID=R050059
##IDEAL CHEMISTRY=NaMg_3_Al_6_(Si_6_O_18_)(BO_3_)_3_(OH)_3_OH
##LOCALITY=Nepal
##OWNER=RRUFF
##SOURCE=Rock Currier
##DESCRIPTION=Dark brown single crystal
##STATUS=The identification of this mineral has been confirmed by X-ray diffraction and chemical analysis
##URL=rruff.info/R050059
##MEASURED CHEMISTRY=(Na_0.79_[box]_0.16_Ca_0.05_)_Σ=1_(Mg_2.44_Al_0.29_[box]_0.14_Fe^2+^_0.08_Ti_0.05_)_Σ=3_Al_6.00_(BO_3_)_3_Si_6.00_O_18_(OH)_4_ ; H_2_O assumed ideal from stoichiometry; B_2_O_3_ estimated by difference
155.9293, 8548.350
156.4115, 8565.844
156.8936, 8629.924
157.3757, 8725.836
157.8578, 8803.358
158.3399, 8841.883
158.8221, 8860.792
159.3042, 8873.014
159.7863, 8861.549
160.2684, 8863.420
160.7505, 8898.722
161.2326, 8963.439
161.7148, 9024.146
162.1969, 9064.604
162.6790, 9095.338
163.1611, 9126.047
163.6432, 9159.896
164.1253, 9194.919
164.6075, 9225.296
165.0896, 9250.650
165.5717, 9289.557
166.0538, 9371.732
166.5359, 9470.688
167.0180, 9548.802
167.5002, 9572.345
167.9823, 9581.266
168.4644, 9606.128
168.9465, 9650.812
169.4286, 9699.963
169.9107, 9745.797
170.3929, 9787.781
170.8750, 9825.996
171.3571, 9858.654
171.8392, 9887.879
172.3213, 9915.203
172.8034, 9939.857
173.2856, 9964.837
173.7677, 9990.424
174.2498, 10017.99
174.7319, 10051.64
175.2140, 10103.17
175.6961, 10160.27
176.1783, 10202.13
176.6604, 10219.45
177.1425, 10229.50
177.6246, 10253.93
178.1067, 10290.72
178.5888, 10328.37
179.0710, 10359.29
179.5531, 10384.49
180.0352, 10403.78
180.5173, 10410.80
180.9994, 10418.24
181.4815, 10454.19
181.9637, 10517.94
182.4458, 10576.92
182.9279, 10592.17
183.4100, 10576.61
183.8921, 10580.15
184.3742, 10625.12
184.8564, 10694.81
185.3385, 10749.12
185.8206, 10787.64
186.3027, 10821.47
186.7848, 10861.09
187.2669, 10906.05
187.7491, 10954.51
188.2312, 11012.52
188.7133, 11073.63
189.1954, 11110.80
189.6775, 11120.08
190.1596, 11121.99
190.6418, 11141.27
191.1239, 11177.57
191.6060, 11218.04
192.0881, 11264.73
192.5702, 11314.85
193.0524, 11337.26
193.5345, 11323.52
194.0166, 11303.84
194.4987, 11334.64
194.9808, 11420.03
195.4629, 11494.02
195.9451, 11516.29
196.4272, 11488.42
196.9093, 11477.46
197.3914, 11487.06
197.8735, 11511.14
198.3556, 11542.83
198.8378, 11584.22
199.3199, 11619.35
199.8020, 11633.04
200.2841, 11622.59
200.7662, 11629.60
201.2483, 11657.74
201.7305, 11703.43
202.2126, 11764.03
202.6947, 11845.86
203.1768, 11918.92
203.6589, 11958.76
204.1410, 11958.33
204.6232, 11972.07
205.1053, 12005.13
205.5874, 12055.25
206.0695, 12117.93
206.5516, 12197.69
207.0337, 12278.14
207.5159, 12349.31
207.9980, 12409.38
208.4801, 12461.29
208.9622, 12499.89
209.4443, 12530.65
209.9264, 12584.67
210.4086, 12673.22
210.8907, 12762.64
211.3728, 12824.43
211.8549, 12851.67
212.3370, 12876.85
212.8191, 12905.93
213.3013, 12937.44
213.7834, 12959.89
214.2655, 12969.44
214.7476, 12976.15
215.2297, 12989.66
215.7118, 13014.44
216.1940, 13033.62
216.6761, 13042.00
217.1582, 13040.34
217.6403, 13047.24
218.1224, 13071.92
218.6045, 13092.78
219.0867, 13084.71
219.5688, 13030.65
220.0509, 12988.25
220.5330, 12972.23
221.0151, 12982.94
221.4972, 12992.82
221.9794, 13002.28
222.4615, 13010.57
222.9436, 13017.58
223.4257, 13025.24
223.9078, 13027.17
224.3899, 13018.37
224.8721, 12996.79
225.3542, 12989.94
225.8363, 13000.92
226.3184, 13023.57
226.8005, 13052.67
227.2827, 13094.18
227.7648, 13130.32
228.2469, 13156.00
228.7290, 13169.99
229.2111, 13181.30
229.6932, 13183.93
230.1754, 13188.59
230.6575, 13213.47
231.1396, 13279.86
231.6217, 13327.67
232.1038, 13331.80
232.5859, 13277.63
233.0681, 13259.18
233.5502, 13286.19
234.0323, 13341.72
234.5144, 13405.76
234.9965, 13491.86
235.4786, 13562.41
235.9608, 13601.91
236.4429, 13600.71
236.9250, 13612.37
237.4071, 13646.27
237.8892, 13687.10
238.3713, 13709.17
238.8535, 13700.57
239.3356, 13693.02
239.8177, 13695.42
240.2998, 13707.79
240.7819, 13731.36
241.2640, 13773.12
241.7462, 13822.37
242.2283, 13862.69
242.7104, 13899.52
243.1925, 13918.19
243.6746, 13909.01
244.1567, 13858.92
244.6389, 13825.66
245.1210, 13813.34
245.6031, 13815.34
246.0852, 13822.14
246.5673, 13840.64
247.0494, 13852.00
247.5316, 13846.50
248.0137, 13814.91
248.4958, 13798.07
248.9779, 13800.17
249.4600, 13814.82
249.9421, 13832.67
250.4243, 13862.49
250.9064, 13879.87
251.3885, 13870.15
251.8706, 13816.80
252.3527, 13794.00
252.8348, 13816.26
253.3170, 13860.01
253.7991, 13880.00
254.2812, 13867.27
254.7633, 13847.46
255.2454, 13827.59
255.7275, 13804.80
256.2097, 13792.87
256.6918, 13791.03
257.1739, 13800.69
257.6560, 13829.78
258.1381, 13894.77
258.6202, 13945.03
259.1024, 13954.99
259.5845, 13908.57
260.0666, 13890.55
260.5487, 13913.78
261.0308, 13955.70
261.5129, 13971.46
261.9951, 13945.30
262.4772, 13930.54
262.9593, 13955.48
263.4414, 14035.23
263.9235, 14080.21
264.4056, 14076.50
264.8878, 14051.45
265.3699, 14055.82
265.8520, 14100.46
266.3341, 14143.65
266.8162, 14167.34
267.2983, 14166.88
267.7805, 14176.20
268.2626, 14198.79
268.7447, 14227.21
269.2268, 14250.69
269.7089, 14270.71
270.1910, 14280.03
270.6732, 14267.09
271.1553, 14226.32
271.6374, 14224.53
272.1195, 14274.59
272.6016, 14344.82
273.0837, 14381.23
273.5659, 14378.62
274.0480, 14369.90
274.5301, 14364.45
275.0122, 14362.10
275.4943, 14372.98
275.9764, 14401.88
276.4586, 14435.02
276.9407, 14446.50
277.4228, 14432.39
277.9049, 14429.74
278.3870, 14460.58
278.8691, 14522.65
279.3513, 14563.01
279.8334, 14578.66
280.3155, 14580.32
280.7976, 14580.57
281.2798, 14579.38
281.7619, 14576.91
282.2440, 14571.10
282.7261, 14563.17
283.2082, 14564.05
283.6903, 14575.66
284.1725, 14589.02
284.6546, 14585.33
285.1367, 14565.94
285.6188, 14566.69
286.1009, 14610.47
286.5830, 14685.64
287.0652, 14741.40
287.5473, 14775.36
288.0294, 14801.16
288.5115, 14838.00
288.9936, 14883.16
289.4757, 14912.65
289.9579, 14912.94
290.4400, 14893.38
290.9221, 14872.92
291.4042, 14850.22
291.8863, 14843.48
292.3684, 14888.15
292.8506, 14970.28
293.3327, 15029.35
293.8148, 15036.56
294.2969, 15015.02
294.7790, 15005.72
295.2611, 15008.71
295.7433, 15023.67
296.2254, 15060.47
296.7075, 15110.49
297.1896, 15147.79
297.6717, 15161.48
298.1538, 15162.62
298.6360, 15163.82
299.1181, 15165.50
299.6002, 15172.64
300.0823, 15192.40
300.5644, 15220.00
301.0465, 15247.16
301.5287, 15274.16
302.0108, 15296.73
302.4929, 15299.89
302.9750, 15288.83
303.4571, 15293.04
303.9392, 15353.06
304.4214, 15434.17
304.9035, 15489.48
305.3856, 15498.63
305.8677, 15492.00
306.3498, 15491.18
306.8319, 15495.27
307.3141, 15501.13
307.7962, 15502.23
308.2783, 15506.32
308.7604, 15520.44
309.2425, 15544.54
309.7246, 15581.62
310.2068, 15650.86
310.6889, 15736.91
311.1710, 15800.79
311.6531, 15808.69
312.1352, 15796.47
312.6173, 15789.07
313.0995, 15791.00
313.5816, 15796.68
314.0637, 15802.30
314.5458, 15809.97
315.0279, 15823.65
315.5100, 15853.50
315.9922, 15883.25
316.4743, 15902.80
316.9564, 15908.15
317.4385, 15915.11
317.9206, 15927.38
318.4027, 15944.70
318.8849, 15966.70
319.3670, 16008.03
319.8491, 16041.04
320.3312, 16047.84
320.8133, 16019.70
321.2954, 16011.68
321.7776, 16055.17
322.2597, 16115.97
322.7418, 16157.61
323.2239, 16144.04
323.7060, 16141.60
324.1881, 16173.44
324.6703, 16244.11
325.1524, 16298.31
325.6345, 16325.93
326.1166, 16338.37
326.5987, 16344.98
327.0808, 16342.89
327.5630, 16338.19
328.0451, 16322.21
328.5272, 16296.80
329.0093, 16303.99
329.4914, 16365.86
329.9735, 16439.93
330.4557, 16500.47
330.9378, 16554.10
331.4199, 16580.40
331.9020, 16559.68
332.3841, 16507.50
332.8662, 16504.60
333.3484, 16579.54
333.8305, 16660.49
334.3126, 16705.12
334.7947, 16695.47
335.2768, 16704.64
335.7589, 16742.30
336.2411, 16797.38
336.7232, 16843.67
337.2053, 16879.72
337.6874, 16910.26
338.1695, 16937.23
338.6516, 16960.22
339.1338, 16979.49
339.6159, 16991.40
340.0980, 17005.15
340.5801, 17043.46
341.0622, 17111.09
341.5443, 17162.88
342.0265, 17172.25
342.5086, 17144.89
342.9907, 17135.00
343.4728, 17143.74
343.9549, 17165.68
344.4370, 17200.31
344.9192, 17245.65
345.4013, 17284.20
345.8834, 17304.99
346.3655, 17315.44
346.8476, 17333.83
347.3297, 17360.20
347.8119, 17390.67
348.2940, 17420.70
348.7761, 17451.72
349.2582, 17488.51
349.7403, 17540.16
350.2225, 17591.19
350.7046, 17609.74
351.1867, 17601.01
351.6688, 17603.71
352.1509, 17656.43
352.6331, 17735.67
353.1152, 17806.98
353.5973, 17863.16
354.0794, 17908.83
354.5615, 17943.00
355.0436, 17968.96
355.5258, 17996.73
356.0079, 18020.97
356.4900, 18055.45
356.9721, 18116.87
357.4542, 18216.12
357.9363, 18314.14
358.4185, 18388.33
358.9006, 18446.54
359.3827, 18502.32
359.8648, 18559.82
360.3469, 18617.17
360.8290, 18667.26
361.3112, 18705.82
361.7933, 18766.76
362.2754, 18889.30
362.7575, 19029.52
363.2396, 19140.13
363.7217, 19180.25
364.2039, 19218.47
364.6860, 19269.14
365.1681, 19333.12
365.6502, 19408.33
366.1323, 19521.37
366.6144, 19629.94
367.0966, 19705.01
367.5787, 19727.64
368.0608, 19737.81
368.5429, 19734.31
369.0250, 19719.03
369.5071, 19701.18
369.9893, 19674.28
370.4714, 19652.37
370.9535, 19645.15
371.4356, 19669.04
371.9177, 19669.76
372.3998, 19640.95
372.8820, 19591.33
373.3641, 19538.65
373.8462, 19480.30
374.3283, 19426.11
374.8104, 19383.41
375.2925, 19353.70
375.7747, 19312.75
376.2568, 19258.08
376.7389, 19196.50
377.2210, 19135.47
377.7031, 19074.62
378.1852, 19019.79
378.6674, 18970.74
379.1495, 18929.11
379.6316, 18899.52
380.1137, 18882.23
380.5958, 18877.07
381.0779, 18889.69
381.5601, 18916.67
382.0422, 18939.73
382.5243, 18954.08
383.0064, 18964.11
383.4885, 18983.96
383.9706, 19010.63
384.4528, 19020.95
384.9349, 18981.24
385.4170, 18919.44
385.8991, 18880.15
386.3812, 18870.50
386.8633, 18881.09
387.3455, 18920.90
387.8276, 18974.92
388.3097, 19009.21
388.7918, 18979.60
389.2739, 18940.30
389.7560, 18938.34
390.2382, 18980.01
390.7203, 19026.21
391.2024, 19062.31
391.6845, 19089.03
392.1666, 19107.53
392.6487, 19107.21
393.1309, 19108.76
393.6130, 19121.51
394.0951, 19144.70
394.5772, 19167.75
395.0593, 19186.84
395.5414, 19205.67
396.0236, 19226.36
396.5057, 19259.23
396.9878, 19282.16
397.4699, 19286.16
397.9520, 19277.69
398.4341, 19277.33
398.9163, 19299.91
399.3984, 19315.06
399.8805, 19307.64
400.3626, 19261.31
400.8447, 19241.86
401.3268, 19258.96
401.8090, 19295.85
402.2911, 19331.90
402.7732, 19370.50
403.2553, 19397.55
403.7374, 19402.99
404.2195, 19389.09
404.7017, 19400.54
405.1838, 19444.43
405.6659, 19494.80
406.1480, 19530.27
406.6301, 19550.99
407.1122, 19557.94
407.5944, 19543.79
408.0765, 19523.75
408.5586, 19543.05
409.0407, 19600.88
409.5228, 19651.04
410.0049, 19648.78
410.4871, 19614.60
410.9692, 19612.70
411.4513, 19657.07
411.9334, 19703.34
412.4155, 19683.01
412.8976, 19620.60
413.3798, 19587.23
413.8619, 19650.04
414.3440, 19737.43
414.8261, 19767.33
415.3082, 19738.30
415.7903, 19712.59
416.2725, 19734.70
416.7546, 19781.17
417.2367, 19826.70
417.7188, 19872.69
418.2009, 19904.72
418.6830, 19902.38
419.1652, 19876.63
419.6473, 19867.71
420.1294, 19906.63
420.6115, 19952.90
421.0937, 19984.37
421.5758, 19989.72
422.0579, 19997.09
422.5400, 20014.49
423.0221, 20035.19
423.5042, 20048.25
423.9864, 20034.02
424.4685, 20033.84
424.9506, 20063.87
425.4327, 20127.52
425.9148, 20171.12
426.3969, 20184.29
426.8791, 20189.24
427.3612, 20203.64
427.8433, 20227.42
428.3254, 20261.56
428.8075, 20309.96
429.2896, 20367.37
429.7718, 20419.44
430.2539, 20469.11
430.7360, 20499.40
431.2181, 20484.54
431.7002, 20429.65
432.1823, 20413.46
432.6645, 20444.90
433.1466, 20498.37
433.6287, 20548.20
434.1108, 20592.35
434.5929, 20619.52
435.0750, 20607.97
435.5572, 20583.57
436.0393, 20595.99
436.5214, 20643.78
437.0035, 20696.54
437.4856, 20742.55
437.9677, 20774.83
438.4499, 20779.75
438.9320, 20737.96
439.4141, 20695.13
439.8962, 20679.46
440.3783, 20687.75
440.8604, 20711.33
441.3426, 20762.52
441.8247, 20815.44
442.3068, 20855.34
442.7889, 20879.02
443.2710, 20897.35
443.7531, 20913.90
444.2353, 20926.25
444.7174, 20932.05
445.1995, 20918.67
445.6816, 20912.02
446.1637, 20913.18
446.6458, 20922.82
447.1280, 20951.77
447.6101, 21019.16
448.0922, 21084.93
448.5743, 21124.96
449.0564, 21127.80
449.5385, 21136.81
450.0207, 21156.04
450.5028, 21179.22
450.9849, 21193.42
451.4670, 21196.72
451.9491, 21200.08
452.4312, 21206.37
452.9134, 21215.91
453.3955, 21230.60
453.8776, 21249.98
454.3597, 21276.99
454.8418, 21323.28
455.3239, 21382.10
455.8061, 21422.42
456.2882, 21433.19
456.7703, 21429.50
457.2524, 21423.96
457.7345, 21419.88
458.2166, 21431.07
458.6988, 21484.05
459.1809, 21547.45
459.6630, 21583.55
460.1451, 21585.65
460.6272, 21584.69
461.1093, 21598.62
461.5915, 21621.36
462.0736, 21645.14
462.5557, 21675.54
463.0378, 21698.61
463.5199, 21705.95
464.0020, 21699.40
464.4842, 21693.23
464.9663, 21672.90
465.4484, 21666.72
465.9305, 21691.93
466.4126, 21780.23
466.8947, 21845.15
467.3769, 21875.30
467.8590, 21886.93
468.3411, 21908.73
468.8232, 21953.46
469.3053, 21981.44
469.7874, 21974.06
470.2696, 21934.60
470.7517, 21925.19
471.2338, 21950.21
471.7159, 21991.64
472.1980, 22034.72
472.6801, 22079.80
473.1623, 22136.11
473.6444, 22210.78
474.1265, 22286.55
474.6086, 22334.11
475.0907, 22355.51
475.5728, 22364.09
476.0550, 22355.83
476.5371, 22343.08
477.0192, 22351.18
477.5013, 22381.33
477.9834, 22406.26
478.4655, 22392.73
478.9477, 22365.12
479.4298, 22354.88
479.9119, 22368.46
480.3940, 22404.99
480.8761, 22485.74
481.3582, 22592.06
481.8404, 22669.20
482.3225, 22665.88
482.8046, 22656.85
483.2867, 22681.90
483.7688, 22761.52
484.2509, 22815.66
484.7331, 22804.93
485.2152, 22782.52
485.6973, 22801.45
486.1794, 22905.38
486.6615, 22974.95
487.1436, 22983.73
487.6258, 22945.28
488.1079, 22921.06
488.5900, 22910.28
489.0721, 22916.63
489.5542, 22947.11
490.0363, 23002.03
490.5185, 23055.57
491.0006, 23109.11
491.4827, 23153.01
491.9648, 23165.78
492.4470, 23153.60
492.9291, 23150.43
493.4112, 23172.95
493.8933, 23206.31
494.3754, 23226.48
494.8575, 23235.55
495.3397, 23245.51
495.8218, 23258.73
496.3039, 23279.91
496.7860, 23320.77
497.2681, 23393.34
497.7502, 23446.70
498.2324, 23436.87
498.7145, 23396.71
499.1966, 23370.68
499.6787, 23372.92
500.1608, 23390.42
500.6429, 23426.57
501.1251, 23479.54
501.6072, 23523.26
502.0893, 23543.49
502.5714, 23565.70
503.0535, 23603.79
503.5356, 23671.09
504.0178, 23722.78
504.4999, 23759.07
504.9820, 23778.93
505.4641, 23774.35
505.9462, 23737.80
506.4283, 23717.40
506.9105, 23734.91
507.3926, 23777.43
507.8747, 23790.42
508.3568, 23772.49
508.8389, 23751.13
509.3210, 23740.82
509.8032, 23742.72
510.2853, 23763.31
510.7674, 23806.93
511.2495, 23854.15
511.7316, 23881.31
512.2137, 23897.69
512.6959, 23921.72
513.1780, 23984.78
513.6601, 24038.68
514.1422, 24040.95
514.6243, 23999.38
515.1064, 23968.90
515.5886, 23967.08
516.0707, 23985.76
516.5528, 24023.15
517.0349, 24095.07
517.5170, 24152.67
517.9991, 24194.03
518.4813, 24217.16
518.9634, 24213.87
519.4455, 24147.08
519.9276, 24120.02
520.4097, 24172.31
520.8918, 24285.78
521.3740, 24338.21
521.8561, 24312.11
522.3382, 24282.92
522.8203, 24308.94
523.3024, 24385.36
523.7845, 24423.76
524.2667, 24409.29
524.7488, 24395.98
525.2309, 24478.80
525.7130, 24625.00
526.1951, 24717.05
526.6772, 24684.60
527.1594, 24607.68
527.6415, 24567.69
528.1236, 24561.96
528.6057, 24578.45
529.0878, 24632.14
529.5699, 24691.20
530.0521, 24728.58
530.5342, 24735.80
531.0163, 24745.94
531.4984, 24774.63
531.9805, 24809.58
532.4626, 24837.82
532.9448, 24854.26
533.4269, 24867.62
533.9090, 24875.16
534.3911, 24879.91
534.8732, 24892.53
535.3553, 24911.43
535.8375, 24942.01
536.3196, 24991.85
536.8017, 25063.42
537.2838, 25114.76
537.7659, 25144.60
538.2480, 25159.93
538.7302, 25164.52
539.2123, 25159.81
539.6944, 25154.81
540.1765, 25150.58
540.6586, 25148.57
541.1407, 25149.17
541.6229, 25153.28
542.1050, 25163.96
542.5871, 25199.28
543.0692, 25231.23
543.5513, 25222.73
544.0334, 25172.61
544.5156, 25141.57
544.9977, 25157.98
545.4798, 25205.26
545.9619, 25272.58
546.4440, 25388.65
546.9261, 25478.92
547.4083, 25524.86
547.8904, 25540.13
548.3725, 25548.79
548.8546, 25552.06
549.3367, 25545.52
549.8188, 25518.53
550.3010, 25475.78
550.7831, 25479.95
551.2652, 25544.48
551.7473, 25611.28
552.2294, 25635.49
552.7115, 25621.40
553.1937, 25604.81
553.6758, 25584.17
554.1579, 25579.27
554.6400, 25632.01
555.1221, 25722.45
555.6042, 25792.19
556.0864, 25811.77
556.5685, 25811.44
557.0506, 25812.22
557.5327, 25815.56
558.0148, 25826.96
558.4969, 25852.10
558.9791, 25883.99
559.4612, 25918.50
559.9433, 25954.89
560.4254, 25994.66
560.9075, 26051.96
561.3896, 26104.62
561.8718, 26133.03
562.3539, 26114.74
562.8360, 26111.46
563.3181, 26135.88
563.8002, 26174.13
564.2823, 26192.53
564.7645, 26187.94
565.2466, 26176.02
565.7287, 26154.29
566.2108, 26129.60
566.6929, 26142.61
567.1750, 26194.50
567.6572, 26254.68
568.1393, 26305.05
568.6214, 26343.35
569.1035, 26357.91
569.5856, 26340.77
570.0677, 26326.03
570.5499, 26340.19
571.0320, 26375.78
571.5141, 26420.93
571.9962, 26495.13
572.4783, 26554.37
572.9604, 26571.54
573.4426, 26554.53
573.9247, 26545.15
574.4068, 26551.96
574.8889, 26566.18
575.3710, 26587.00
575.8531, 26617.45
576.3353, 26634.46
576.8174, 26625.19
577.2995, 26621.31
577.7816, 26663.13
578.2637, 26757.21
578.7458, 26822.43
579.2280, 26841.71
579.7101, 26837.06
580.1922, 26843.01
580.6743, 26858.79
581.1564, 26880.11
581.6385, 26910.43
582.1207, 26942.28
582.6028, 26959.90
583.0849, 26966.03
583.5670, 26983.05
584.0491, 27037.43
584.5313, 27099.49
585.0134, 27149.37
585.4955, 27187.71
585.9776, 27201.52
586.4597, 27157.54
586.9418, 27099.63
587.4240, 27078.57
587.9061, 27117.46
588.3882, 27158.38
588.8703, 27193.57
589.3524, 27227.27
589.8345, 27275.77
590.3167, 27345.43
590.7988, 27405.89
591.2809, 27443.93
591.7630, 27461.50
592.2451, 27459.77
592.7272, 27437.79
593.2094, 27419.21
593.6915, 27430.65
594.1736, 27458.07
594.6557, 27469.39
595.1378, 27452.48
595.6199, 27448.53
596.1021, 27500.25
596.5842, 27581.31
597.0663, 27654.44
597.5485, 27709.75
598.0306, 27751.42
598.5127, 27778.01
598.9948, 27791.12
599.4769, 27797.36
599.9590, 27784.48
600.4412, 27780.29
600.9233, 27793.98
601.4054, 27826.20
601.8875, 27870.57
602.3696, 27935.30
602.8517, 27991.18
603.3339, 28001.69
603.8160, 27971.73
604.2981, 27969.42
604.7802, 28008.10
605.2623, 28055.21
605.7444, 28057.73
606.2266, 28033.98
606.7087, 28033.89
607.1908, 28101.79
607.6729, 28173.36
608.1550, 28185.46
608.6371, 28156.85
609.1193, 28148.93
609.6014, 28208.87
610.0835, 28276.02
610.5656, 28317.10
611.0477, 28324.71
611.5298, 28350.19
612.0120, 28416.37
612.4941, 28479.48
612.9762, 28505.44
613.4583, 28477.86
613.9404, 28475.38
614.4225, 28509.79
614.9047, 28554.63
615.3868, 28569.52
615.8689, 28556.88
616.3510, 28545.88
616.8331, 28540.81
617.3152, 28547.21
617.7974, 28577.46
618.2795, 28627.73
618.7616, 28684.24
619.2437, 28750.01
619.7258, 28810.94
620.2079, 28854.51
620.6901, 28880.01
621.1722, 28904.80
621.6543, 28934.54
622.1364, 28965.89
622.6185, 28999.09
623.1006, 29050.40
623.5828, 29064.56
624.0649, 29012.84
624.5470, 28950.34
625.0291, 28945.71
625.5112, 29008.12
625.9933, 29083.77
626.4755, 29172.05
626.9576, 29255.10
627.4397, 29286.08
627.9218, 29271.09
628.4039, 29256.67
628.8860, 29257.10
629.3682, 29275.89
629.8503, 29331.15
630.3324, 29416.81
630.8145, 29486.92
631.2966, 29510.82
631.7787, 29511.51
632.2609, 29494.58
632.7430, 29445.78
633.2251, 29439.74
633.7072, 29537.64
634.1893, 29655.63
634.6714, 29723.61
635.1536, 29716.46
635.6357, 29713.59
636.1178, 29718.86
636.5999, 29732.77
637.0820, 29763.10
637.5641, 29810.95
638.0463, 29841.41
638.5284, 29832.55
639.0105, 29808.85
639.4926, 29826.64
639.9747, 29878.61
640.4568, 29921.87
640.9390, 29923.51
641.4211, 29909.42
641.9032, 29893.07
642.3853, 29875.56
642.8674, 29890.60
643.3495, 30000.95
643.8317, 30115.52
644.3138, 30166.98
644.7959, 30083.91
645.2780, 30063.26
645.7601, 30140.17
646.2422, 30248.48
646.7244, 30311.93
647.2065, 30323.73
647.6886, 30317.73
648.1707, 30286.99
648.6528, 30259.25
649.1349, 30305.73
