##NAMES=Duftite
##RRUFFID=R050507
##IDEAL CHEMISTRY=Pb^2+^Cu^2+^As^5+^O_4_(OH)
##LOCALITY=Mt. Bonney, Northern Territory, Australia
##OWNER=RRUFF
##SOURCE=University of Arizona Mineral Museum
##DESCRIPTION=Green aggregate of acicular crystals forming round wheel-like shapes, intimately mixed with mimetite
##STATUS=The identification of this mineral has been confirmed by X-ray diffraction and chemical analysis
##URL=rruff.info/R050507
##MEASURED CHEMISTRY=Pb_1.00_Cu_1.00_As_1.00_O_4_(OH) ; = dark phase. The lght phase is mimetite: (Pb_4.95_Cu_0.05_)_Î£=5_(As_1.00_O_4_)_3_Cl_1.00_; OH estimated by charge balance
94.722, 150.529
95.204, 163.151
95.686, 175.724
96.168, 188.373
96.650, 202.514
97.132, 218.414
97.614, 235.363
98.097, 252.931
98.579, 271.251
99.061, 289.062
99.543, 305.209
100.025, 319.518
100.507, 335.415
100.989, 352.644
101.471, 372.167
101.953, 397.844
102.436, 432.646
102.918, 466.604
103.400, 492.261
103.882, 505.358
104.364, 523.172
104.846, 550.192
105.328, 585.048
105.810, 611.688
106.293, 629.337
106.775, 639.826
107.257, 644.637
107.739, 642.537
108.221, 636.394
108.703, 626.522
109.185, 612.976
109.667, 595.774
110.149, 571.915
110.632, 545.675
111.114, 521.488
111.596, 500.046
112.078, 480.076
112.560, 461.217
113.042, 443.375
113.524, 427.227
114.006, 413.084
114.489, 400.755
114.971, 390.031
115.453, 379.068
115.935, 370.932
116.417, 367.588
116.899, 370.623
117.381, 374.385
117.863, 377.536
118.345, 380.049
118.828, 381.872
119.310, 381.629
119.792, 381.472
120.274, 383.024
120.756, 387.125
121.238, 391.996
121.720, 397.626
122.202, 403.434
122.685, 407.489
123.167, 407.888
123.649, 406.174
124.131, 403.983
124.613, 401.170
125.095, 398.747
125.577, 398.320
126.059, 399.593
126.541, 400.434
127.024, 399.907
127.506, 397.778
127.988, 393.441
128.470, 385.941
128.952, 376.672
129.434, 367.427
129.916, 358.190
130.398, 349.900
130.880, 342.966
131.363, 337.613
131.845, 334.771
132.327, 336.613
132.809, 341.213
133.291, 341.114
133.773, 335.706
134.255, 328.722
134.737, 323.983
135.219, 321.488
135.702, 321.527
136.184, 325.149
136.666, 332.176
137.148, 338.054
137.630, 342.697
138.112, 346.336
138.594, 348.982
139.077, 350.325
139.559, 351.990
140.041, 354.869
140.523, 359.239
141.005, 363.085
141.487, 366.499
141.969, 369.273
142.451, 370.960
142.933, 371.371
143.415, 371.046
143.898, 369.906
144.380, 366.874
144.862, 365.977
145.344, 368.921
145.826, 373.818
146.308, 374.451
146.790, 367.422
147.273, 360.119
147.755, 356.067
148.237, 356.786
148.719, 358.413
149.201, 361.899
149.683, 366.544
150.165, 368.891
150.647, 367.627
151.129, 365.061
151.611, 362.353
152.094, 357.911
152.576, 355.172
153.058, 355.075
153.540, 357.291
154.022, 358.961
154.504, 359.151
154.986, 359.197
155.469, 359.905
155.951, 362.955
156.433, 365.012
156.915, 364.695
157.397, 362.213
157.879, 361.068
158.361, 362.623
158.843, 365.450
159.325, 368.487
159.807, 372.446
160.290, 375.662
160.772, 377.566
161.254, 378.156
161.736, 378.025
162.218, 376.351
162.700, 374.460
163.182, 373.639
163.664, 375.809
164.147, 377.880
164.629, 378.656
165.111, 378.081
165.593, 376.092
166.075, 370.514
166.557, 364.046
167.039, 360.041
167.521, 361.766
168.003, 365.013
168.486, 367.248
168.968, 368.307
169.450, 368.826
169.932, 370.532
170.414, 371.799
170.896, 370.074
171.378, 360.524
171.860, 349.531
172.342, 343.201
172.825, 342.134
173.307, 342.845
173.789, 343.316
174.271, 343.527
174.753, 343.427
175.235, 343.379
175.717, 342.849
176.199, 340.677
176.682, 336.494
177.164, 332.616
177.646, 331.185
178.128, 331.884
178.610, 333.720
179.092, 337.505
179.574, 341.772
180.056, 343.840
180.538, 343.162
181.021, 341.861
181.503, 342.422
181.985, 344.513
182.467, 346.702
182.949, 347.630
183.431, 348.139
183.913, 350.667
184.395, 355.863
184.878, 361.438
185.360, 364.176
185.842, 364.334
186.324, 363.623
186.806, 363.346
187.288, 363.030
187.770, 360.614
188.252, 355.428
188.734, 349.467
189.217, 346.243
189.699, 345.622
190.181, 345.128
190.663, 344.286
191.145, 342.717
191.627, 337.139
192.109, 325.809
192.591, 313.506
193.074, 310.720
193.556, 317.676
194.038, 324.134
194.520, 323.444
195.002, 316.171
195.484, 308.848
195.966, 301.567
196.448, 294.970
196.930, 290.635
197.413, 288.749
197.895, 287.309
198.377, 284.949
198.859, 281.685
199.341, 279.562
199.823, 279.283
200.305, 279.523
200.787, 276.411
201.270, 269.124
201.752, 263.168
202.234, 262.580
202.716, 267.853
203.198, 272.055
203.680, 274.654
204.162, 276.024
204.644, 276.820
205.126, 276.841
205.609, 277.055
206.091, 278.393
206.573, 281.257
207.055, 282.500
207.537, 281.626
208.019, 279.297
208.501, 277.384
208.983, 276.341
209.465, 274.369
209.948, 269.600
210.430, 260.708
210.912, 255.702
211.394, 256.108
211.876, 259.780
212.358, 261.000
212.840, 258.823
213.322, 256.538
213.805, 256.073
214.287, 258.220
214.769, 259.060
215.251, 257.842
215.733, 255.596
216.215, 255.110
216.697, 257.185
217.179, 259.330
217.661, 260.391
218.144, 260.151
218.626, 259.358
219.108, 257.483
219.590, 255.329
220.072, 254.967
220.554, 256.775
221.036, 259.628
221.518, 263.696
222.001, 270.858
222.483, 273.467
222.965, 269.088
223.447, 261.328
223.929, 258.966
224.411, 264.939
224.893, 271.018
225.375, 273.634
225.857, 271.641
226.340, 269.220
226.822, 265.127
227.304, 261.206
227.786, 261.982
228.268, 271.119
228.750, 278.573
229.232, 279.732
229.714, 271.896
230.197, 266.386
230.679, 264.054
231.161, 263.663
231.643, 262.799
232.125, 261.147
232.607, 259.560
233.089, 258.230
233.571, 257.007
234.053, 256.649
234.536, 257.511
235.018, 259.043
235.500, 260.312
235.982, 261.382
236.464, 262.101
236.946, 262.463
237.428, 262.542
237.910, 261.708
238.393, 258.580
238.875, 255.441
239.357, 256.359
239.839, 264.372
240.321, 271.069
240.803, 273.013
241.285, 268.417
241.767, 269.008
242.249, 277.886
242.732, 289.587
243.214, 296.583
243.696, 296.558
244.178, 295.893
244.660, 295.781
245.142, 296.011
245.624, 298.485
246.106, 303.917
246.589, 310.911
247.071, 318.099
247.553, 326.141
248.035, 332.918
248.517, 337.660
248.999, 340.220
249.481, 343.018
249.963, 345.907
250.445, 349.187
250.928, 353.087
251.410, 357.164
251.892, 362.728
252.374, 370.806
252.856, 381.345
253.338, 389.433
253.820, 394.488
254.302, 397.703
254.785, 399.723
255.267, 399.378
255.749, 400.643
256.231, 405.022
256.713, 412.058
257.195, 416.171
257.677, 416.475
258.159, 415.089
258.641, 413.430
259.124, 411.322
259.606, 409.519
260.088, 408.527
260.570, 407.979
261.052, 405.283
261.534, 398.910
262.016, 393.115
262.498, 391.379
262.980, 395.703
263.463, 397.473
263.945, 394.587
264.427, 388.887
264.909, 387.819
265.391, 393.576
265.873, 399.246
266.355, 400.635
266.837, 396.502
267.319, 392.749
267.802, 389.566
268.284, 387.016
268.766, 385.185
269.248, 384.050
269.730, 383.744
270.212, 384.885
270.694, 388.129
271.177, 388.996
271.659, 386.621
272.141, 382.689
272.623, 380.128
273.105, 378.920
273.587, 379.090
274.069, 381.014
274.551, 384.907
275.033, 388.418
275.516, 391.749
275.998, 394.372
276.480, 394.697
276.962, 391.998
277.444, 391.518
277.926, 396.583
278.408, 406.772
278.890, 411.484
279.372, 409.205
279.855, 405.428
280.337, 407.938
280.819, 417.316
281.301, 424.647
281.783, 426.216
282.265, 423.377
282.747, 423.800
283.229, 427.635
283.711, 434.109
284.194, 443.146
284.676, 454.716
285.158, 466.009
285.640, 476.142
286.122, 485.637
286.604, 496.296
287.086, 508.216
287.569, 520.409
288.051, 531.901
288.533, 542.859
289.015, 553.482
289.497, 563.184
289.979, 573.453
290.461, 588.375
290.943, 607.904
291.425, 627.591
291.908, 642.589
292.390, 654.539
292.872, 671.869
293.354, 696.487
293.836, 724.899
294.318, 750.907
294.800, 775.093
295.282, 801.017
295.764, 832.482
296.247, 866.935
296.729, 899.850
297.211, 931.128
297.693, 960.141
298.175, 985.975
298.657, 1009.214
299.139, 1031.501
299.621, 1052.504
300.103, 1073.468
300.586, 1098.694
301.068, 1128.812
301.550, 1157.496
302.032, 1178.998
302.514, 1194.704
302.996, 1208.359
303.478, 1223.003
303.960, 1235.323
304.443, 1241.180
304.925, 1240.755
305.407, 1235.989
305.889, 1225.033
306.371, 1211.420
306.853, 1200.378
307.335, 1195.085
307.817, 1191.321
308.299, 1184.978
308.782, 1176.692
309.264, 1169.231
309.746, 1160.385
310.228, 1155.031
310.710, 1158.497
311.192, 1173.533
311.674, 1194.740
312.156, 1219.230
312.638, 1247.161
313.121, 1278.931
313.603, 1313.957
314.085, 1353.423
314.567, 1398.760
315.049, 1451.603
315.531, 1505.466
316.013, 1550.429
316.496, 1595.185
316.978, 1652.224
317.460, 1733.733
317.942, 1822.536
318.424, 1910.193
318.906, 1995.207
319.388, 2084.156
319.870, 2177.714
320.352, 2276.014
320.835, 2380.384
321.317, 2500.855
321.799, 2617.851
322.281, 2724.307
322.763, 2820.420
323.245, 2915.801
323.727, 3017.095
324.209, 3115.376
324.691, 3205.594
325.174, 3292.838
325.656, 3365.401
326.138, 3419.592
326.620, 3457.165
327.102, 3486.324
327.584, 3514.760
328.066, 3528.973
328.548, 3523.379
329.030, 3501.665
329.513, 3454.267
329.995, 3371.491
330.477, 3264.113
330.959, 3155.278
331.441, 3043.367
331.923, 2930.566
332.405, 2819.821
332.887, 2712.517
333.370, 2596.167
333.852, 2460.680
334.334, 2322.517
334.816, 2203.841
335.298, 2107.274
335.780, 2023.571
336.262, 1953.857
336.744, 1898.733
337.227, 1836.215
337.709, 1761.188
338.191, 1687.311
338.673, 1625.694
339.155, 1579.171
339.637, 1534.805
340.119, 1490.104
340.601, 1446.801
341.083, 1409.238
341.565, 1379.371
342.048, 1348.253
342.530, 1309.292
343.012, 1261.975
343.494, 1218.127
343.976, 1178.695
344.458, 1141.945
344.940, 1103.792
345.422, 1064.235
345.905, 1027.574
346.387, 997.146
346.869, 971.676
347.351, 943.388
347.833, 912.035
348.315, 879.775
348.797, 847.946
349.279, 816.976
349.762, 788.726
350.244, 762.710
350.726, 740.179
351.208, 725.138
351.690, 717.045
352.172, 709.214
352.654, 695.148
353.136, 677.768
353.618, 662.269
354.101, 650.591
354.583, 640.181
355.065, 627.744
355.547, 614.208
356.029, 602.328
356.511, 595.454
356.993, 590.422
357.475, 583.755
357.957, 574.480
358.440, 566.018
358.922, 561.527
359.404, 559.217
359.886, 556.180
360.368, 551.032
360.850, 545.031
361.332, 538.956
361.814, 532.847
362.297, 525.999
362.779, 516.647
363.261, 507.125
363.743, 499.497
364.225, 496.877
364.707, 493.490
365.189, 486.989
365.671, 478.150
366.154, 470.555
366.636, 465.511
367.118, 461.403
367.600, 457.467
368.082, 453.562
368.564, 449.934
369.046, 447.447
369.528, 445.105
370.010, 441.163
370.492, 434.539
370.975, 427.474
371.457, 419.924
371.939, 411.183
372.421, 406.255
372.903, 407.141
373.385, 410.042
373.867, 410.943
374.349, 407.960
374.832, 407.701
375.314, 412.877
375.796, 421.912
376.278, 424.493
376.760, 418.575
377.242, 411.531
377.724, 407.658
378.206, 406.939
378.689, 410.060
379.171, 418.560
379.653, 428.695
380.135, 431.555
380.617, 426.629
381.099, 424.423
381.581, 431.750
382.063, 446.362
382.545, 456.103
383.028, 460.216
383.510, 464.116
383.992, 474.872
384.474, 490.725
384.956, 504.419
385.438, 511.582
385.920, 517.501
386.402, 531.167
386.884, 551.697
387.367, 573.541
387.849, 593.346
388.331, 611.508
388.813, 628.761
389.295, 644.506
389.777, 661.063
390.259, 681.455
390.741, 704.207
391.224, 726.342
391.706, 743.390
392.188, 761.621
392.670, 785.951
393.152, 817.024
393.634, 848.422
394.116, 879.170
394.598, 908.016
395.081, 933.360
395.563, 951.137
396.045, 969.229
396.527, 991.691
397.009, 1016.996
397.491, 1037.633
397.973, 1047.653
398.455, 1056.210
398.937, 1067.608
399.419, 1084.159
399.902, 1099.858
400.384, 1118.242
400.866, 1134.538
401.348, 1141.236
401.830, 1130.286
402.312, 1121.000
402.794, 1119.058
403.276, 1124.994
403.759, 1127.798
404.241, 1129.889
404.723, 1125.378
405.205, 1108.071
405.687, 1075.237
406.169, 1040.536
406.651, 1005.273
407.133, 969.541
407.616, 933.477
408.098, 897.409
408.580, 860.838
409.062, 822.378
409.544, 782.357
410.026, 748.885
410.508, 722.961
410.990, 699.418
411.472, 670.823
411.955, 638.591
412.437, 608.560
412.919, 583.499
413.401, 561.677
413.883, 540.075
414.365, 518.793
414.847, 500.772
415.329, 490.979
415.811, 484.668
416.294, 474.634
416.776, 458.277
417.258, 441.045
417.740, 425.847
418.222, 413.049
418.704, 403.787
419.186, 402.196
419.668, 401.366
420.151, 396.538
420.633, 387.332
421.115, 378.290
421.597, 370.877
422.079, 364.585
422.561, 359.069
423.043, 354.976
423.525, 350.836
424.008, 347.036
424.490, 343.154
424.972, 337.595
425.454, 328.522
425.936, 319.261
426.418, 310.521
426.900, 301.098
427.382, 296.064
427.864, 297.691
428.346, 302.079
428.829, 304.476
429.311, 304.347
429.793, 303.531
430.275, 302.299
430.757, 300.678
431.239, 298.522
431.721, 295.322
432.203, 293.335
432.686, 295.183
433.168, 300.768
433.650, 303.488
434.132, 302.024
434.614, 299.405
435.096, 301.179
435.578, 306.703
436.060, 310.902
436.543, 309.859
437.025, 306.569
437.507, 307.566
437.989, 312.743
438.471, 317.890
438.953, 318.608
439.435, 317.323
439.917, 317.763
440.399, 320.928
440.882, 325.832
441.364, 333.883
441.846, 343.151
442.328, 349.355
442.810, 346.225
443.292, 342.801
443.774, 345.082
444.256, 354.171
444.738, 362.768
445.221, 368.985
445.703, 373.513
446.185, 377.034
446.667, 379.173
447.149, 380.856
447.631, 380.334
448.113, 379.052
448.595, 382.696
449.078, 395.928
449.560, 408.699
450.042, 416.936
450.524, 419.649
451.006, 422.477
451.488, 426.184
451.970, 429.088
452.452, 428.921
452.935, 425.082
453.417, 421.138
453.899, 417.996
454.381, 415.184
454.863, 410.434
455.345, 403.487
455.827, 397.373
456.309, 395.501
456.791, 396.384
457.273, 393.302
457.756, 385.368
458.238, 375.682
458.720, 366.741
459.202, 358.836
459.684, 353.085
460.166, 352.204
460.648, 351.784
461.130, 347.261
461.613, 339.044
462.095, 329.435
462.577, 315.943
463.059, 303.810
463.541, 298.243
464.023, 302.728
464.505, 306.142
464.987, 301.283
465.470, 293.587
465.952, 290.587
466.434, 301.538
466.916, 309.563
467.398, 308.311
467.880, 297.985
468.362, 291.142
468.844, 288.777
469.327, 289.178
469.809, 291.872
470.291, 298.751
470.773, 303.440
471.255, 305.275
471.737, 305.447
472.219, 305.603
472.701, 305.531
473.183, 306.481
473.665, 309.300
474.148, 313.431
474.630, 315.732
475.112, 316.038
475.594, 316.126
476.076, 316.995
476.558, 318.734
477.040, 322.227
477.522, 328.116
478.005, 333.762
478.487, 334.493
478.969, 332.352
479.451, 332.625
479.933, 341.584
480.415, 351.333
480.897, 354.252
481.379, 350.944
481.862, 346.866
482.344, 345.565
482.826, 344.251
483.308, 340.652
483.790, 333.580
484.272, 325.946
484.754, 318.067
485.236, 310.248
485.718, 302.989
486.201, 294.643
486.683, 288.805
487.165, 287.945
487.647, 291.568
488.129, 289.993
488.611, 279.874
489.093, 269.232
489.575, 262.882
490.057, 262.135
490.540, 260.660
491.022, 258.282
491.504, 255.147
491.986, 251.625
492.468, 247.762
492.950, 242.277
493.432, 233.434
493.914, 223.432
494.397, 218.229
494.879, 217.680
495.361, 218.355
495.843, 218.011
496.325, 217.177
496.807, 217.069
497.289, 218.103
497.771, 218.375
498.254, 214.833
498.736, 209.839
499.218, 206.928
499.700, 208.619
500.182, 211.683
500.664, 216.345
501.146, 221.626
501.628, 223.348
502.110, 215.427
502.592, 207.563
503.075, 204.740
503.557, 209.833
504.039, 213.245
504.521, 213.830
505.003, 213.326
505.485, 213.650
505.967, 215.889
506.449, 216.371
506.932, 213.545
507.414, 208.909
507.896, 208.220
508.378, 212.303
508.860, 216.255
509.342, 216.947
509.824, 214.930
510.306, 215.289
510.789, 218.371
511.271, 221.170
511.753, 218.867
512.235, 213.838
512.717, 213.031
513.199, 220.109
513.681, 228.285
514.163, 229.501
514.645, 226.107
515.128, 224.112
515.610, 228.702
516.092, 233.939
516.574, 235.808
517.056, 234.074
517.538, 232.104
518.020, 232.199
518.502, 231.736
518.984, 228.752
519.467, 219.063
519.949, 212.596
520.431, 211.035
520.913, 212.342
521.395, 213.076
521.877, 212.615
522.359, 212.915
522.841, 215.220
523.323, 218.978
523.806, 218.826
524.288, 213.893
524.770, 208.646
525.252, 206.452
525.734, 206.899
526.216, 206.400
526.698, 204.570
527.180, 202.435
527.663, 201.189
528.145, 200.647
528.627, 200.262
529.109, 199.527
529.591, 199.232
530.073, 200.979
530.555, 204.025
531.037, 205.829
531.519, 203.356
532.002, 200.495
532.484, 200.176
532.966, 203.158
533.448, 204.970
533.930, 203.542
534.412, 200.947
534.894, 198.915
535.377, 198.374
535.859, 197.239
536.341, 194.967
536.823, 192.201
537.305, 190.335
537.787, 189.577
538.269, 189.264
538.751, 189.404
539.233, 189.874
539.716, 189.566
540.198, 188.428
540.680, 186.874
541.162, 184.186
541.644, 181.167
542.126, 181.622
542.608, 186.515
543.090, 192.165
543.572, 194.169
544.055, 193.900
544.537, 194.098
545.019, 197.577
545.501, 200.130
545.983, 197.415
546.465, 191.013
546.947, 186.411
547.429, 187.130
547.911, 189.048
548.394, 190.390
548.876, 191.008
549.358, 190.990
549.840, 189.823
550.322, 188.409
550.804, 187.479
551.286, 187.552
551.768, 186.898
552.250, 185.259
552.733, 182.953
553.215, 180.329
553.697, 177.246
554.179, 174.990
554.661, 173.759
555.143, 173.785
555.625, 176.616
556.107, 182.125
556.590, 187.221
557.072, 189.596
557.554, 190.097
558.036, 190.070
558.518, 189.689
559.000, 188.626
559.482, 185.683
559.964, 182.257
560.446, 180.062
560.929, 180.430
561.411, 181.214
561.893, 182.239
562.375, 183.211
562.857, 183.320
563.339, 182.520
563.821, 180.658
564.304, 176.286
564.786, 169.244
565.268, 168.737
565.750, 177.855
566.232, 187.891
566.714, 192.619
567.196, 191.685
567.678, 190.607
568.160, 189.711
568.643, 188.769
569.125, 186.910
569.607, 184.541
570.089, 183.700
570.571, 185.872
571.053, 188.783
571.535, 190.258
572.017, 190.265
572.500, 188.744
572.982, 182.828
573.464, 177.522
573.946, 176.725
574.428, 180.817
574.910, 185.460
575.392, 191.914
575.874, 196.784
576.356, 197.457
576.839, 190.133
577.321, 184.860
577.803, 181.486
578.285, 180.308
578.767, 182.507
579.249, 189.374
579.731, 194.707
580.213, 197.130
580.695, 197.174
581.178, 196.294
581.660, 194.501
582.142, 192.042
582.624, 187.412
583.106, 182.653
583.588, 183.081
584.070, 188.661
584.552, 193.770
585.034, 193.565
585.517, 190.805
585.999, 188.273
586.481, 186.162
586.963, 185.419
587.445, 188.270
587.927, 192.132
588.409, 193.583
588.891, 188.793
589.373, 185.410
589.856, 185.359
590.338, 187.651
590.820, 188.384
591.302, 186.804
591.784, 185.362
592.266, 185.191
592.748, 186.180
593.231, 186.536
593.713, 186.160
594.195, 185.814
594.677, 186.456
595.159, 187.661
595.641, 188.129
596.123, 187.636
596.605, 186.656
597.087, 185.217
597.570, 183.685
598.052, 182.651
598.534, 182.560
599.016, 182.768
599.498, 184.281
599.980, 185.949
600.462, 184.707
600.944, 173.040
601.427, 165.380
601.909, 168.220
602.391, 181.643
602.873, 189.210
603.355, 188.423
603.837, 186.257
604.319, 187.485
604.801, 192.532
605.283, 194.766
605.766, 193.479
606.248, 191.457
606.730, 192.627
607.212, 195.982
607.694, 197.857
608.176, 197.117
608.658, 195.160
609.140, 192.785
609.622, 190.337
610.105, 188.559
610.587, 188.476
611.069, 188.496
611.551, 187.826
612.033, 186.516
612.515, 185.139
612.997, 182.147
613.479, 180.686
613.961, 182.441
614.444, 188.096
614.926, 192.896
615.408, 197.041
615.890, 199.910
616.372, 200.616
616.854, 199.063
617.336, 197.623
617.818, 196.468
618.300, 195.659
618.783, 195.760
619.265, 196.336
619.747, 195.882
620.229, 193.073
620.711, 190.003
621.193, 188.561
621.675, 188.507
622.157, 189.110
622.640, 191.722
623.122, 193.436
623.604, 191.872
624.086, 186.874
624.568, 184.305
625.050, 186.407
625.532, 189.446
626.014, 191.713
626.497, 193.133
626.979, 194.101
627.461, 194.495
627.943, 194.693
628.425, 195.326
628.907, 196.310
629.389, 196.150
629.871, 194.092
630.354, 192.164
630.836, 193.786
631.318, 197.772
631.800, 201.089
632.282, 201.665
632.764, 201.816
633.246, 203.106
633.728, 205.316
634.210, 207.745
634.693, 211.922
635.175, 214.658
635.657, 214.051
636.139, 209.841
636.621, 206.026
637.103, 202.038
637.585, 199.223
638.067, 198.745
638.549, 201.044
639.032, 202.015
639.514, 201.220
639.996, 200.401
640.478, 201.803
