##NAMES=Duftite
##RRUFFID=R040160
##IDEAL CHEMISTRY=Pb^2+^Cu^2+^As^5+^O_4_(OH)
##LOCALITY=Tsumeb mine, Tsumeb, Otavi District, Oshikoto, Namibia
##OWNER=RRUFF
##SOURCE=University of Arizona Mineral Museum
##DESCRIPTION=Green crystalline coating
##STATUS=The identification of this mineral has been confirmed by X-ray diffraction and chemical analysis
##URL=rruff.info/R040160
##MEASURED CHEMISTRY=(Pb_0.96_Zn_0.04_)_Î£=1_Cu_1.00_As_1.00_O_4_(OH); OH estimated by charge balance
165.3741, 2141.058
165.8563, 2162.162
166.3384, 2196.660
166.8205, 2240.119
167.3026, 2286.909
167.7847, 2346.720
168.2668, 2404.830
168.7490, 2422.964
169.2311, 2382.127
169.7132, 2344.285
170.1953, 2344.780
170.6774, 2368.966
171.1595, 2395.994
171.6417, 2419.784
172.1238, 2438.910
172.6059, 2448.693
173.0880, 2445.280
173.5701, 2439.865
174.0522, 2436.014
174.5344, 2433.835
175.0165, 2433.872
175.4986, 2437.121
175.9807, 2442.295
176.4628, 2445.619
176.9449, 2445.613
177.4271, 2446.518
177.9092, 2450.761
178.3913, 2456.564
178.8734, 2461.315
179.3555, 2463.270
179.8376, 2463.849
180.3197, 2467.611
180.8019, 2476.807
181.2840, 2485.266
181.7661, 2491.589
182.2482, 2496.055
182.7303, 2498.757
183.2124, 2499.506
183.6946, 2498.908
184.1767, 2499.050
184.6588, 2502.071
185.1409, 2501.803
185.6230, 2494.124
186.1051, 2483.741
186.5873, 2475.863
187.0694, 2472.913
187.5515, 2473.843
188.0336, 2476.612
188.5157, 2484.964
188.9978, 2488.219
189.4800, 2479.239
189.9621, 2466.865
190.4442, 2461.402
190.9263, 2468.000
191.4084, 2480.380
191.8905, 2482.345
192.3727, 2464.863
192.8548, 2452.988
193.3369, 2454.051
193.8190, 2460.267
194.3011, 2463.830
194.7832, 2461.600
195.2654, 2456.908
195.7475, 2457.435
196.2296, 2467.647
196.7117, 2474.718
197.1938, 2475.024
197.6759, 2473.115
198.1581, 2474.675
198.6402, 2481.378
199.1223, 2487.273
199.6044, 2479.348
200.0865, 2445.031
200.5686, 2422.237
201.0508, 2417.525
201.5329, 2421.169
202.0150, 2427.575
202.4971, 2434.695
202.9792, 2441.408
203.4613, 2445.991
203.9435, 2448.246
204.4256, 2448.548
204.9077, 2444.644
205.3898, 2440.687
205.8719, 2440.644
206.3540, 2444.776
206.8362, 2449.015
207.3183, 2447.010
207.8004, 2434.791
208.2825, 2426.521
208.7646, 2423.742
209.2467, 2423.228
209.7289, 2422.155
210.2110, 2420.802
210.6931, 2422.641
211.1752, 2433.841
211.6573, 2460.083
212.1395, 2474.178
212.6216, 2470.517
213.1037, 2460.508
213.5858, 2444.795
214.0679, 2426.417
214.5500, 2412.462
215.0322, 2411.661
215.5143, 2427.163
215.9964, 2434.808
216.4785, 2421.275
216.9606, 2412.350
217.4427, 2422.195
217.9249, 2446.163
218.4070, 2469.511
218.8891, 2480.029
219.3712, 2477.429
219.8533, 2472.287
220.3354, 2457.698
220.8176, 2447.300
221.2997, 2448.168
221.7818, 2456.141
222.2639, 2462.208
222.7460, 2459.266
223.2281, 2448.702
223.7103, 2445.833
224.1924, 2462.572
224.6745, 2474.231
225.1566, 2472.292
225.6387, 2462.756
226.1208, 2454.142
226.6030, 2451.054
227.0851, 2453.303
227.5672, 2460.672
228.0493, 2481.156
228.5314, 2495.862
229.0135, 2501.609
229.4957, 2500.296
229.9778, 2492.630
230.4599, 2478.662
230.9420, 2461.982
231.4241, 2451.099
231.9062, 2446.340
232.3884, 2447.904
232.8705, 2460.365
233.3526, 2475.602
233.8347, 2486.515
234.3168, 2490.766
234.7989, 2491.491
235.2811, 2494.406
235.7632, 2501.958
236.2453, 2505.733
236.7274, 2501.301
237.2095, 2495.955
237.6916, 2494.567
238.1738, 2498.034
238.6559, 2503.911
239.1380, 2509.845
239.6201, 2516.545
240.1022, 2520.592
240.5843, 2522.014
241.0665, 2520.646
241.5486, 2513.969
242.0307, 2503.309
242.5128, 2494.121
242.9949, 2492.299
243.4770, 2498.540
243.9592, 2503.714
244.4413, 2502.996
244.9234, 2506.072
245.4055, 2524.458
245.8876, 2550.589
246.3697, 2564.739
246.8519, 2547.378
247.3340, 2503.500
247.8161, 2479.467
248.2982, 2485.611
248.7803, 2499.526
249.2624, 2517.887
249.7446, 2537.206
250.2267, 2552.529
250.7088, 2561.661
251.1909, 2564.725
251.6730, 2560.590
252.1551, 2543.405
252.6373, 2531.052
253.1194, 2531.290
253.6015, 2537.863
254.0836, 2544.863
254.5657, 2550.538
255.0478, 2554.467
255.5300, 2555.374
256.0121, 2552.257
256.4942, 2549.907
256.9763, 2548.273
257.4584, 2548.797
257.9406, 2554.038
258.4227, 2564.714
258.9048, 2575.446
259.3869, 2579.809
259.8690, 2577.472
260.3511, 2576.375
260.8333, 2576.579
261.3154, 2580.058
261.7975, 2590.571
262.2796, 2607.448
262.7617, 2621.623
263.2438, 2624.257
263.7260, 2617.629
264.2081, 2615.388
264.6902, 2621.106
265.1723, 2628.085
265.6544, 2630.359
266.1365, 2629.504
266.6187, 2630.822
267.1008, 2637.300
267.5829, 2647.552
268.0650, 2660.132
268.5471, 2676.784
269.0292, 2689.895
269.5114, 2691.291
269.9935, 2685.685
270.4756, 2680.116
270.9577, 2672.204
271.4398, 2668.493
271.9219, 2680.177
272.4041, 2707.826
272.8862, 2732.119
273.3683, 2743.808
273.8504, 2745.377
274.3325, 2742.176
274.8146, 2730.437
275.2968, 2721.196
275.7789, 2721.443
276.2610, 2730.278
276.7431, 2745.217
277.2252, 2768.016
277.7073, 2793.061
278.1895, 2811.441
278.6716, 2823.144
279.1537, 2830.816
279.6358, 2831.823
280.1179, 2830.164
280.6000, 2832.501
281.0822, 2840.331
281.5643, 2852.063
282.0464, 2866.894
282.5285, 2885.031
283.0106, 2902.631
283.4927, 2916.059
283.9749, 2930.800
284.4570, 2955.343
284.9391, 2989.153
285.4212, 3018.841
285.9033, 3031.400
286.3854, 3027.251
286.8676, 3034.442
287.3497, 3062.380
287.8318, 3091.421
288.3139, 3112.373
288.7960, 3126.770
289.2781, 3138.996
289.7603, 3150.987
290.2424, 3163.478
290.7245, 3179.513
291.2066, 3201.319
291.6887, 3223.648
292.1708, 3246.562
292.6530, 3269.288
293.1351, 3291.231
293.6172, 3312.148
294.0993, 3331.441
294.5814, 3347.636
295.0635, 3357.308
295.5457, 3370.541
296.0278, 3388.767
296.5099, 3409.126
296.9920, 3432.039
297.4741, 3456.129
297.9562, 3475.939
298.4384, 3484.746
298.9205, 3480.045
299.4026, 3481.926
299.8847, 3493.744
300.3668, 3508.538
300.8489, 3525.961
301.3311, 3544.569
301.8131, 3562.510
302.2953, 3579.089
302.7774, 3593.502
303.2595, 3600.928
303.7416, 3593.716
304.2237, 3590.788
304.7058, 3600.430
305.1880, 3613.970
305.6701, 3620.688
306.1522, 3616.371
306.6343, 3609.080
307.1164, 3614.526
307.5985, 3638.577
308.0807, 3653.341
308.5628, 3641.426
309.0449, 3627.312
309.5270, 3627.685
310.0091, 3643.112
310.4912, 3658.922
310.9734, 3660.444
311.4555, 3649.301
311.9376, 3643.682
312.4197, 3647.512
312.9018, 3653.307
313.3839, 3657.024
313.8661, 3658.916
314.3482, 3659.375
314.8303, 3654.705
315.3124, 3650.404
315.7945, 3658.778
316.2766, 3682.333
316.7588, 3703.773
317.2409, 3712.154
317.7230, 3712.760
318.2051, 3714.178
318.6872, 3717.376
319.1693, 3721.502
319.6515, 3728.100
320.1336, 3735.783
320.6157, 3737.349
321.0978, 3727.990
321.5799, 3715.182
322.0620, 3712.075
322.5442, 3720.265
323.0263, 3725.775
323.5084, 3719.879
323.9905, 3711.148
324.4726, 3712.552
324.9547, 3726.215
325.4369, 3741.228
325.9190, 3747.187
326.4011, 3743.001
326.8832, 3738.966
327.3653, 3731.929
327.8474, 3727.859
328.3296, 3733.942
328.8117, 3746.382
329.2938, 3753.633
329.7759, 3748.475
330.2580, 3733.776
330.7401, 3722.682
331.2223, 3724.276
331.7044, 3718.108
332.1865, 3693.489
332.6686, 3663.957
333.1507, 3646.051
333.6328, 3644.168
334.1150, 3647.280
334.5971, 3638.936
335.0792, 3615.805
335.5613, 3589.765
336.0434, 3556.286
336.5255, 3524.280
337.0077, 3499.499
337.4898, 3480.766
337.9719, 3463.241
338.4540, 3444.371
338.9361, 3423.557
339.4182, 3394.210
339.9004, 3346.398
340.3825, 3305.226
340.8646, 3280.304
341.3467, 3264.398
341.8288, 3249.146
342.3109, 3231.682
342.7931, 3212.198
343.2752, 3190.593
343.7573, 3166.564
344.2394, 3142.328
344.7215, 3118.997
345.2036, 3094.983
345.6858, 3066.598
346.1679, 3034.006
346.6500, 3006.726
347.1321, 2996.359
347.6142, 2995.824
348.0963, 2983.446
348.5785, 2953.502
349.0606, 2922.834
349.5427, 2904.729
350.0248, 2896.522
350.5069, 2891.482
350.9890, 2894.541
351.4712, 2895.492
351.9533, 2883.055
352.4354, 2859.783
352.9175, 2839.413
353.3996, 2829.085
353.8817, 2824.862
354.3639, 2816.585
354.8460, 2804.087
355.3281, 2789.216
355.8102, 2768.747
356.2923, 2747.757
356.7744, 2732.430
357.2566, 2724.006
357.7387, 2720.502
358.2208, 2720.354
358.7029, 2724.724
359.1850, 2725.789
359.6671, 2723.423
360.1493, 2718.469
360.6314, 2710.582
361.1135, 2700.426
361.5956, 2688.366
362.0777, 2674.085
362.5598, 2659.656
363.0420, 2653.553
363.5241, 2667.364
364.0062, 2670.468
364.4883, 2648.331
364.9704, 2622.058
365.4525, 2610.701
365.9347, 2617.682
366.4168, 2630.409
366.8989, 2636.395
367.3810, 2635.609
367.8631, 2628.301
368.3452, 2605.866
368.8274, 2587.317
369.3095, 2584.747
369.7916, 2593.103
370.2737, 2599.954
370.7558, 2598.003
371.2379, 2592.450
371.7201, 2592.527
372.2022, 2598.815
372.6843, 2605.145
373.1664, 2609.140
373.6485, 2611.521
374.1306, 2613.652
374.6128, 2615.773
375.0949, 2616.910
375.5770, 2615.074
376.0591, 2612.133
376.5412, 2612.439
377.0233, 2617.203
377.5055, 2622.577
377.9876, 2623.946
378.4697, 2620.721
378.9518, 2621.701
379.4339, 2632.175
379.9160, 2642.208
380.3982, 2645.309
380.8803, 2642.949
381.3624, 2640.274
381.8445, 2640.277
382.3266, 2641.174
382.8087, 2637.415
383.2909, 2622.493
383.7730, 2611.389
384.2551, 2603.245
384.7372, 2599.734
385.2193, 2603.063
385.7014, 2613.063
386.1836, 2627.150
386.6657, 2644.480
387.1478, 2665.651
387.6299, 2677.263
388.1120, 2676.058
388.5941, 2668.090
389.0763, 2646.908
389.5584, 2622.511
390.0405, 2611.347
390.5226, 2622.214
391.0047, 2643.599
391.4868, 2657.329
391.9690, 2662.404
392.4511, 2668.772
392.9332, 2678.455
393.4153, 2691.080
393.8974, 2710.493
394.3795, 2736.393
394.8617, 2750.369
395.3438, 2731.297
395.8259, 2698.711
396.3080, 2687.492
396.7901, 2701.628
397.2722, 2719.186
397.7544, 2725.158
398.2365, 2721.689
398.7186, 2721.958
399.2007, 2725.801
399.6828, 2733.394
400.1649, 2749.585
400.6471, 2768.469
401.1292, 2780.088
401.6113, 2781.187
402.0934, 2775.549
402.5755, 2768.051
403.0576, 2756.506
403.5398, 2750.250
404.0219, 2750.910
404.5040, 2754.487
404.9861, 2762.191
405.4682, 2771.146
405.9503, 2775.238
406.4325, 2770.258
406.9146, 2758.385
407.3967, 2746.498
407.8788, 2731.400
408.3609, 2723.203
408.8430, 2729.043
409.3252, 2738.481
409.8073, 2744.034
410.2894, 2744.395
410.7715, 2741.760
411.2536, 2737.027
411.7357, 2730.618
412.2179, 2724.965
412.7000, 2720.645
413.1821, 2716.109
413.6642, 2708.899
414.1463, 2700.801
414.6284, 2695.842
415.1106, 2696.091
415.5927, 2698.018
416.0748, 2699.526
416.5569, 2700.660
417.0390, 2701.873
417.5211, 2703.593
418.0033, 2704.262
418.4854, 2700.275
418.9675, 2687.711
419.4496, 2684.861
419.9317, 2705.258
420.4138, 2724.977
420.8960, 2725.164
421.3781, 2709.652
421.8602, 2694.304
422.3423, 2689.226
422.8244, 2692.481
423.3065, 2695.501
423.7887, 2695.463
424.2708, 2699.915
424.7529, 2714.217
425.2350, 2729.816
425.7171, 2739.427
426.1992, 2742.262
426.6814, 2742.846
427.1635, 2745.389
427.6456, 2749.671
428.1277, 2752.497
428.6098, 2752.365
429.0919, 2753.686
429.5741, 2760.540
430.0562, 2769.793
430.5383, 2775.982
431.0204, 2775.179
431.5025, 2776.812
431.9846, 2793.236
432.4668, 2819.369
432.9489, 2835.667
433.4310, 2835.420
433.9131, 2830.029
434.3952, 2833.609
434.8773, 2847.464
435.3595, 2855.870
435.8416, 2854.849
436.3237, 2850.963
436.8058, 2848.246
437.2879, 2846.004
437.7701, 2841.606
438.2522, 2833.619
438.7343, 2823.213
439.2164, 2812.989
439.6985, 2799.606
440.1806, 2792.814
440.6628, 2800.867
441.1449, 2808.049
441.6270, 2801.364
442.1091, 2783.342
442.5912, 2767.495
443.0733, 2765.670
443.5555, 2773.336
444.0376, 2772.192
444.5197, 2759.096
445.0018, 2745.992
445.4839, 2739.698
445.9660, 2734.306
446.4482, 2721.069
446.9303, 2697.052
447.4124, 2680.617
447.8945, 2691.816
448.3766, 2716.865
448.8587, 2724.025
449.3409, 2707.917
449.8230, 2691.397
450.3051, 2693.330
450.7872, 2711.683
451.2693, 2723.166
451.7514, 2723.635
452.2336, 2722.644
452.7157, 2721.430
453.1978, 2721.294
453.6799, 2725.107
454.1620, 2733.331
454.6441, 2741.689
455.1263, 2744.190
455.6084, 2739.344
456.0905, 2737.078
456.5726, 2744.250
457.0547, 2746.916
457.5368, 2735.545
458.0190, 2718.090
458.5011, 2708.959
458.9832, 2715.715
459.4653, 2725.516
459.9474, 2717.063
460.4295, 2690.020
460.9117, 2669.886
461.3938, 2662.706
461.8759, 2662.349
462.3580, 2665.206
462.8401, 2670.512
463.3222, 2674.137
463.8044, 2679.677
464.2865, 2679.387
464.7686, 2659.883
465.2507, 2626.886
465.7328, 2605.612
466.2149, 2609.478
466.6971, 2621.768
467.1792, 2608.319
467.6613, 2543.729
468.1434, 2507.657
468.6255, 2522.490
469.1076, 2545.758
469.5898, 2554.132
470.0719, 2547.682
470.5540, 2534.311
471.0361, 2518.004
471.5182, 2500.787
472.0003, 2489.277
472.4825, 2487.114
472.9646, 2480.915
473.4467, 2459.090
473.9288, 2438.748
474.4109, 2434.800
474.8930, 2445.910
475.3752, 2453.362
475.8573, 2441.329
476.3394, 2420.861
476.8215, 2412.419
477.3036, 2416.586
477.7857, 2418.588
478.2679, 2409.256
478.7500, 2394.599
479.2321, 2390.629
479.7142, 2404.256
480.1963, 2409.872
480.6784, 2394.152
481.1606, 2374.029
481.6427, 2366.304
482.1248, 2370.676
482.6069, 2375.423
483.0890, 2371.615
483.5711, 2361.010
484.0533, 2353.260
484.5354, 2349.261
485.0175, 2346.840
485.4996, 2346.730
485.9817, 2347.114
486.4638, 2345.642
486.9460, 2342.554
487.4281, 2341.452
487.9102, 2348.096
488.3923, 2358.759
488.8744, 2361.630
489.3565, 2355.798
489.8387, 2346.465
490.3208, 2332.423
490.8029, 2318.617
491.2850, 2315.188
491.7671, 2325.459
492.2492, 2336.206
492.7314, 2345.370
493.2135, 2351.311
493.6956, 2350.253
494.1777, 2342.927
494.6598, 2336.354
495.1419, 2336.677
495.6241, 2341.810
496.1062, 2337.846
496.5883, 2314.076
497.0704, 2296.164
497.5525, 2288.600
498.0346, 2286.155
498.5168, 2283.857
498.9989, 2281.597
499.4810, 2283.801
499.9631, 2298.216
500.4452, 2319.881
500.9273, 2327.639
501.4095, 2317.686
501.8916, 2310.186
502.3737, 2317.333
502.8558, 2329.956
503.3379, 2331.964
503.8200, 2319.348
504.3022, 2311.980
504.7843, 2324.664
505.2664, 2342.292
505.7485, 2345.859
506.2306, 2335.311
506.7127, 2323.021
507.1949, 2316.908
507.6770, 2316.074
508.1591, 2316.659
508.6412, 2319.094
509.1233, 2322.458
509.6054, 2327.349
510.0876, 2332.595
510.5697, 2337.479
511.0518, 2341.883
511.5339, 2345.863
512.0161, 2349.174
512.4982, 2352.259
512.9803, 2356.948
513.4624, 2363.791
513.9445, 2368.503
514.4266, 2367.798
514.9088, 2365.775
515.3909, 2368.437
515.8730, 2376.277
516.3551, 2382.313
516.8372, 2384.271
517.3193, 2383.647
517.8015, 2381.044
518.2836, 2376.990
518.7657, 2372.561
519.2478, 2368.142
519.7299, 2364.607
520.2120, 2364.647
520.6942, 2374.359
521.1763, 2375.725
521.6584, 2362.264
522.1405, 2347.572
522.6226, 2337.796
523.1047, 2332.854
523.5869, 2330.876
524.0690, 2330.959
524.5511, 2333.228
525.0332, 2340.157
525.5153, 2351.680
525.9974, 2356.643
526.4796, 2351.473
526.9617, 2340.424
527.4438, 2324.623
527.9259, 2305.008
528.4080, 2292.272
528.8901, 2290.307
529.3723, 2293.250
529.8544, 2301.387
530.3365, 2311.214
530.8186, 2314.487
531.3007, 2308.684
531.7828, 2302.706
532.2650, 2311.765
532.7471, 2341.936
533.2292, 2348.898
533.7113, 2303.033
534.1934, 2267.693
534.6755, 2270.075
535.1577, 2291.119
535.6398, 2304.711
536.1219, 2303.147
536.6040, 2296.355
537.0861, 2293.176
537.5682, 2292.197
538.0504, 2287.844
538.5325, 2278.830
539.0146, 2271.606
539.4967, 2271.266
539.9788, 2276.537
540.4609, 2280.843
540.9431, 2282.385
541.4252, 2285.573
541.9073, 2295.231
542.3894, 2304.394
542.8715, 2302.934
543.3536, 2292.536
543.8358, 2287.075
544.3179, 2299.451
544.8000, 2323.864
545.2821, 2334.193
545.7642, 2326.265
546.2463, 2315.631
546.7285, 2303.267
547.2106, 2291.781
547.6927, 2282.752
548.1748, 2276.330
548.6569, 2272.697
549.1390, 2272.439
549.6211, 2274.723
550.1032, 2280.378
550.5853, 2288.225
551.0674, 2292.781
551.5496, 2291.474
552.0317, 2288.227
552.5138, 2290.189
552.9959, 2301.760
553.4780, 2303.327
553.9601, 2282.858
554.4423, 2266.719
554.9244, 2270.258
555.4065, 2283.628
555.8886, 2289.914
556.3707, 2282.750
556.8528, 2272.536
557.3350, 2272.506
557.8171, 2281.316
558.2992, 2288.267
558.7813, 2292.589
559.2634, 2294.520
559.7455, 2295.251
560.2277, 2293.288
560.7098, 2284.298
561.1919, 2260.242
561.6740, 2243.152
562.1561, 2243.727
562.6382, 2252.349
563.1204, 2260.651
563.6025, 2266.783
564.0846, 2270.591
564.5667, 2271.949
565.0488, 2270.983
565.5309, 2267.639
566.0131, 2259.746
566.4952, 2254.957
566.9773, 2254.854
567.4594, 2258.218
567.9415, 2266.769
568.4236, 2278.885
568.9058, 2287.826
569.3879, 2290.044
569.8700, 2288.524
570.3521, 2285.455
570.8342, 2281.129
571.3163, 2276.671
571.7985, 2272.479
572.2806, 2267.394
572.7627, 2259.069
573.2448, 2246.250
573.7269, 2242.018
574.2090, 2252.468
574.6912, 2263.721
575.1733, 2276.649
575.6554, 2286.327
576.1375, 2284.857
576.6196, 2271.625
577.1017, 2258.732
577.5839, 2257.746
578.0660, 2265.863
578.5481, 2275.814
579.0302, 2288.460
579.5123, 2293.528
579.9944, 2282.769
580.4766, 2264.790
580.9587, 2257.488
581.4408, 2264.189
581.9229, 2265.524
582.4050, 2254.044
582.8871, 2240.787
583.3693, 2229.153
583.8514, 2222.102
584.3335, 2226.819
584.8156, 2246.760
585.2977, 2269.979
585.7798, 2276.198
586.2620, 2263.751
586.7441, 2253.072
587.2262, 2243.425
587.7083, 2238.339
588.1904, 2242.429
588.6725, 2251.663
589.1547, 2260.244
589.6368, 2268.556
590.1189, 2273.194
590.6010, 2266.807
591.0831, 2258.925
591.5652, 2266.596
592.0474, 2287.519
592.5295, 2299.631
593.0116, 2286.880
593.4937, 2259.046
593.9758, 2247.237
594.4579, 2260.437
594.9401, 2268.414
595.4222, 2266.780
595.9043, 2260.999
596.3864, 2247.829
596.8685, 2232.753
597.3506, 2229.561
597.8328, 2247.796
598.3149, 2270.763
598.7970, 2286.766
599.2791, 2295.494
599.7612, 2293.688
600.2433, 2280.675
600.7255, 2267.511
601.2076, 2264.009
601.6897, 2268.679
602.1718, 2269.259
602.6539, 2257.321
603.1360, 2253.000
603.6182, 2265.988
604.1003, 2280.547
604.5824, 2284.417
605.0645, 2278.391
605.5466, 2271.171
606.0287, 2268.376
606.5109, 2266.215
606.9930, 2255.906
607.4751, 2239.290
607.9572, 2232.140
608.4393, 2239.676
608.9214, 2252.649
609.4036, 2263.399
609.8857, 2271.892
610.3678, 2273.472
610.8499, 2262.155
611.3320, 2252.207
611.8141, 2246.146
612.2963, 2243.490
612.7784, 2245.544
613.2605, 2251.140
613.7426, 2254.700
614.2247, 2249.479
614.7068, 2241.337
615.1890, 2249.283
615.6711, 2274.583
616.1532, 2285.657
616.6353, 2268.063
617.1174, 2242.650
617.5995, 2233.584
618.0817, 2241.258
618.5638, 2243.918
619.0459, 2233.274
619.5280, 2226.116
620.0101, 2232.604
620.4922, 2244.402
620.9744, 2250.065
621.4565, 2248.063
621.9386, 2246.542
622.4207, 2254.663
622.9028, 2268.347
623.3849, 2268.811
623.8671, 2252.576
624.3492, 2244.091
624.8313, 2254.918
625.3134, 2271.822
625.7955, 2278.928
626.2776, 2276.888
626.7598, 2274.675
627.2419, 2274.628
627.7240, 2273.464
628.2061, 2268.762
628.6882, 2262.215
629.1703, 2256.036
629.6525, 2250.897
630.1346, 2246.668
630.6167, 2243.175
631.0988, 2240.506
631.5809, 2238.511
632.0630, 2236.181
632.5452, 2238.965
633.0273, 2253.252
633.5094, 2268.815
633.9915, 2273.431
634.4736, 2267.711
634.9557, 2262.573
635.4379, 2261.789
635.9200, 2260.414
636.4021, 2252.868
636.8842, 2243.951
637.3663, 2241.842
637.8484, 2248.073
638.3306, 2257.450
638.8127, 2265.966
639.2948, 2272.918
639.7769, 2272.418
640.2590, 2261.407
640.7411, 2254.191
641.2233, 2259.322
641.7054, 2265.581
642.1875, 2258.547
642.6696, 2239.708
643.1517, 2228.272
643.6339, 2234.093
644.1160, 2241.982
644.5981, 2241.278
645.0802, 2238.168
645.5623, 2245.350
646.0444, 2263.712
646.5266, 2278.437
647.0087, 2273.879
647.4908, 2255.259
647.9729, 2248.509
648.4550, 2257.395
648.9371, 2263.054
649.4193, 2258.500
649.9014, 2251.466
650.3835, 2250.276
650.8656, 2253.857
651.3477, 2254.427
651.8298, 2246.664
652.3120, 2240.190
652.7941, 2240.006
653.2762, 2243.543
653.7583, 2248.558
654.2404, 2253.916
654.7225, 2257.046
655.2047, 2254.937
655.6868, 2250.277
656.1689, 2253.137
656.6510, 2265.201
657.1331, 2274.316
657.6152, 2277.081
658.0974, 2277.452
658.5795, 2279.927
659.0616, 2283.322
659.5437, 2281.819
660.0258, 2271.334
