##NAMES=Duftite
##RRUFFID=R070474
##IDEAL CHEMISTRY=Pb^2+^Cu^2+^As^5+^O_4_(OH)
##LOCALITY=Black Pine mine, Phillipsburg, Montana, USA
##OWNER=RRUFF
##SOURCE=Bob Jenkins
##DESCRIPTION=Light green to blackish-green psuedo-octahedral crystals associated with acicular malachite and quartz. The cell parameters are small for duftite.
##STATUS=The identification of this mineral has been confirmed only by single crystal X-ray diffraction.
##URL=rruff.info/R070474
144.3699, 9173.201
144.8521, 9405.535
145.3342, 9621.807
145.8163, 9837.530
146.2984, 10065.06
146.7805, 10282.60
147.2626, 10475.75
147.7448, 10624.96
148.2269, 10774.71
148.7090, 10929.85
149.1911, 11091.20
149.6732, 11261.75
150.1554, 11451.14
150.6375, 11647.93
151.1196, 11830.59
151.6017, 11981.40
152.0838, 12137.39
152.5659, 12308.12
153.0481, 12503.40
153.5302, 12697.05
154.0123, 12883.80
154.4944, 13068.10
154.9765, 13259.56
155.4586, 13449.93
155.9408, 13654.52
156.4229, 13879.15
156.9050, 14074.69
157.3871, 14216.71
157.8692, 14379.75
158.3513, 14558.68
158.8335, 14701.11
159.3156, 14765.19
159.7977, 14808.79
160.2798, 14870.23
160.7619, 14997.07
161.2440, 15106.56
161.7262, 15172.54
162.2083, 15197.13
162.6904, 15203.01
163.1725, 15191.92
163.6546, 15169.21
164.1367, 15140.11
164.6189, 15114.71
165.1010, 15075.91
165.5831, 15013.12
166.0652, 14924.59
166.5473, 14821.27
167.0294, 14703.50
167.5116, 14576.26
167.9937, 14448.52
168.4758, 14324.74
168.9579, 14200.70
169.4400, 14073.31
169.9221, 13941.87
170.4043, 13806.96
170.8864, 13658.94
171.3685, 13506.94
171.8506, 13369.19
172.3327, 13268.99
172.8148, 13184.09
173.2970, 13090.06
173.7791, 12978.07
174.2612, 12864.72
174.7433, 12770.84
175.2254, 12692.43
175.7076, 12610.37
176.1897, 12491.48
176.6718, 12365.62
177.1539, 12282.33
177.6360, 12280.54
178.1181, 12298.08
178.6003, 12250.09
179.0824, 12140.54
179.5645, 12028.92
180.0466, 11964.46
180.5287, 11931.94
181.0108, 11895.20
181.4930, 11835.21
181.9751, 11766.63
182.4572, 11719.83
182.9393, 11695.22
183.4214, 11673.20
183.9035, 11635.51
184.3857, 11584.06
184.8678, 11525.26
185.3499, 11460.68
185.8320, 11390.45
186.3141, 11313.12
186.7962, 11225.22
187.2784, 11142.69
187.7605, 11091.60
188.2426, 11068.24
188.7247, 11041.62
189.2068, 10989.77
189.6889, 10920.46
190.1711, 10869.25
190.6532, 10841.90
191.1353, 10823.61
191.6174, 10787.77
192.0995, 10735.10
192.5816, 10686.87
193.0638, 10661.30
193.5459, 10655.32
194.0280, 10637.90
194.5101, 10603.02
194.9922, 10560.11
195.4743, 10531.17
195.9565, 10518.04
196.4386, 10504.16
196.9207, 10473.49
197.4028, 10426.46
197.8849, 10397.61
198.3671, 10400.75
198.8492, 10419.49
199.3313, 10391.37
199.8134, 10304.41
200.2955, 10222.54
200.7776, 10205.04
201.2598, 10257.67
201.7419, 10295.52
202.2240, 10297.32
202.7061, 10271.73
203.1882, 10270.58
203.6703, 10300.69
204.1525, 10335.77
204.6346, 10347.94
205.1167, 10331.73
205.5988, 10324.75
206.0809, 10339.02
206.5630, 10372.39
207.0452, 10394.39
207.5273, 10402.45
208.0094, 10404.29
208.4915, 10408.02
208.9736, 10413.86
209.4557, 10421.34
209.9379, 10431.00
210.4200, 10443.05
210.9021, 10452.89
211.3842, 10458.16
211.8663, 10464.80
212.3484, 10484.99
212.8306, 10527.33
213.3127, 10557.05
213.7948, 10556.60
214.2769, 10518.59
214.7590, 10506.06
215.2411, 10528.72
215.7233, 10567.73
216.2054, 10591.81
216.6875, 10598.02
217.1696, 10596.06
217.6517, 10585.80
218.1338, 10560.93
218.6160, 10553.94
219.0981, 10574.23
219.5802, 10606.10
220.0623, 10614.94
220.5444, 10589.94
221.0265, 10563.17
221.5087, 10549.91
221.9908, 10560.24
222.4729, 10554.35
222.9550, 10523.83
223.4371, 10480.37
223.9192, 10454.69
224.4014, 10455.78
224.8835, 10460.40
225.3656, 10460.52
225.8477, 10463.98
226.3298, 10440.25
226.8119, 10370.16
227.2941, 10274.39
227.7762, 10225.98
228.2583, 10254.42
228.7404, 10286.16
229.2225, 10278.83
229.7046, 10210.74
230.1868, 10153.39
230.6689, 10112.64
231.1510, 10085.97
231.6331, 10064.12
232.1152, 10055.85
232.5974, 10041.06
233.0795, 10003.27
233.5616, 9920.316
234.0437, 9865.010
234.5258, 9854.769
235.0079, 9881.111
235.4901, 9884.803
235.9722, 9856.188
236.4543, 9818.192
236.9364, 9784.445
237.4185, 9751.049
237.9006, 9730.922
238.3828, 9730.025
238.8649, 9745.588
239.3470, 9752.737
239.8291, 9742.225
240.3112, 9733.143
240.7933, 9741.224
241.2755, 9778.662
241.7576, 9807.336
242.2397, 9818.483
242.7218, 9813.410
243.2039, 9817.323
243.6860, 9837.430
244.1682, 9858.218
244.6503, 9864.847
245.1324, 9844.521
245.6145, 9836.624
246.0966, 9850.155
246.5787, 9884.479
247.0609, 9917.193
247.5430, 9952.406
248.0251, 9981.722
248.5072, 9993.864
248.9893, 9969.337
249.4714, 9968.729
249.9536, 10013.72
250.4357, 10103.58
250.9178, 10156.16
251.3999, 10155.00
251.8820, 10134.52
252.3641, 10125.82
252.8463, 10133.47
253.3284, 10143.66
253.8105, 10154.43
254.2926, 10165.88
254.7747, 10176.56
255.2568, 10184.37
255.7390, 10194.04
256.2211, 10210.81
256.7032, 10237.06
257.1853, 10265.07
257.6674, 10293.73
258.1495, 10323.21
258.6317, 10353.09
259.1138, 10389.67
259.5959, 10418.34
260.0780, 10418.84
260.5601, 10373.29
261.0422, 10343.92
261.5244, 10348.15
262.0065, 10385.98
262.4886, 10415.13
262.9707, 10433.71
263.4528, 10446.61
263.9349, 10458.16
264.4171, 10467.00
264.8992, 10479.35
265.3813, 10502.02
265.8634, 10534.36
266.3455, 10537.72
266.8276, 10497.92
267.3098, 10451.40
267.7919, 10438.17
268.2740, 10467.74
268.7561, 10499.66
269.2382, 10528.13
269.7203, 10552.60
270.2025, 10555.37
270.6846, 10529.46
271.1667, 10494.41
271.6488, 10469.96
272.1309, 10458.00
272.6130, 10448.73
273.0952, 10438.23
273.5773, 10427.42
274.0594, 10429.52
274.5415, 10447.75
275.0236, 10471.55
275.5057, 10491.99
275.9879, 10510.13
276.4700, 10518.01
276.9521, 10507.78
277.4342, 10483.70
277.9163, 10481.83
278.3984, 10505.71
278.8806, 10541.37
279.3627, 10574.29
279.8448, 10603.49
280.3269, 10640.89
280.8090, 10693.01
281.2911, 10755.48
281.7733, 10805.71
282.2554, 10840.98
282.7375, 10873.95
283.2196, 10915.15
283.7017, 10964.38
284.1838, 11022.64
284.6660, 11093.52
285.1481, 11172.45
285.6302, 11242.61
286.1123, 11302.25
286.5944, 11364.72
287.0765, 11445.92
287.5587, 11544.46
288.0408, 11639.40
288.5229, 11724.32
289.0050, 11803.44
289.4871, 11887.58
289.9692, 11977.05
290.4514, 12073.95
290.9335, 12181.31
291.4156, 12298.85
291.8977, 12419.71
292.3798, 12539.98
292.8619, 12666.26
293.3441, 12816.65
293.8262, 12992.19
294.3083, 13166.52
294.7904, 13319.14
295.2726, 13454.37
295.7547, 13586.37
296.2368, 13712.86
296.7189, 13842.58
297.2010, 13991.52
297.6831, 14157.59
298.1653, 14325.58
298.6474, 14494.22
299.1295, 14655.21
299.6116, 14792.38
300.0937, 14896.40
300.5758, 14982.45
301.0580, 15074.37
301.5401, 15167.64
302.0222, 15239.50
302.5043, 15269.70
302.9864, 15268.66
303.4685, 15251.01
303.9507, 15216.15
304.4328, 15172.13
304.9149, 15127.19
305.3970, 15080.54
305.8791, 15028.09
306.3612, 14972.40
306.8434, 14907.99
307.3255, 14826.03
307.8076, 14719.45
308.2897, 14609.86
308.7718, 14508.18
309.2539, 14417.28
309.7361, 14345.08
310.2182, 14301.47
310.7003, 14274.93
311.1824, 14254.73
311.6645, 14236.88
312.1466, 14232.59
312.6288, 14256.08
313.1109, 14298.00
313.5930, 14339.73
314.0751, 14366.40
314.5572, 14395.18
315.0393, 14434.82
315.5215, 14484.43
316.0036, 14554.28
316.4857, 14659.85
316.9678, 14787.36
317.4499, 14917.67
317.9320, 15044.00
318.4142, 15171.70
318.8963, 15302.23
319.3784, 15434.60
319.8605, 15574.24
320.3426, 15738.17
320.8247, 15905.00
321.3069, 16047.09
321.7890, 16143.82
322.2711, 16228.69
322.7532, 16315.38
323.2353, 16406.18
323.7174, 16476.07
324.1996, 16510.02
324.6817, 16525.38
325.1638, 16537.95
325.6459, 16581.21
326.1280, 16589.30
326.6101, 16540.61
327.0923, 16433.61
327.5744, 16324.47
328.0565, 16215.92
328.5386, 16106.26
329.0207, 15994.20
329.5028, 15896.79
329.9850, 15778.32
330.4671, 15620.93
330.9492, 15433.07
331.4313, 15275.69
331.9134, 15160.63
332.3955, 15064.87
332.8777, 14974.77
333.3598, 14892.63
333.8419, 14814.45
334.3240, 14737.26
334.8061, 14663.73
335.2882, 14603.89
335.7704, 14565.48
336.2525, 14527.02
336.7346, 14470.34
337.2167, 14378.77
337.6988, 14329.58
338.1809, 14343.73
338.6631, 14388.07
339.1452, 14379.78
339.6273, 14302.45
340.1094, 14225.29
340.5915, 14182.37
341.0736, 14177.86
341.5558, 14170.19
342.0379, 14162.72
342.5200, 14145.88
343.0021, 14100.82
343.4842, 14026.54
343.9663, 13944.29
344.4485, 13856.52
344.9306, 13765.26
345.4127, 13702.93
345.8948, 13675.22
346.3769, 13650.85
346.8590, 13588.47
347.3412, 13492.05
347.8233, 13397.87
348.3054, 13318.36
348.7875, 13249.72
349.2696, 13185.94
349.7517, 13127.78
350.2339, 13070.01
350.7160, 13007.74
351.1981, 12942.61
351.6802, 12877.20
352.1623, 12806.16
352.6444, 12740.84
353.1266, 12702.92
353.6087, 12688.55
354.0908, 12676.20
354.5729, 12655.73
355.0550, 12625.94
355.5371, 12583.12
356.0193, 12517.91
356.5014, 12453.63
356.9835, 12414.85
357.4656, 12395.33
357.9477, 12375.63
358.4298, 12349.56
358.9120, 12317.11
359.3941, 12276.16
359.8762, 12222.65
360.3583, 12173.18
360.8404, 12148.58
361.3225, 12133.80
361.8047, 12100.69
362.2868, 12014.85
362.7689, 11926.57
363.2510, 11863.17
363.7331, 11831.44
364.2152, 11799.69
364.6974, 11761.21
365.1795, 11716.67
365.6616, 11666.60
366.1437, 11606.37
366.6258, 11545.21
367.1079, 11485.23
367.5901, 11426.65
368.0722, 11369.36
368.5543, 11301.81
369.0364, 11242.54
369.5185, 11205.90
370.0006, 11211.65
370.4828, 11215.05
370.9649, 11211.07
371.4470, 11201.20
371.9291, 11195.41
372.4112, 11200.79
372.8933, 11202.03
373.3755, 11187.43
373.8576, 11141.76
374.3397, 11116.51
374.8218, 11119.08
375.3039, 11140.34
375.7861, 11160.07
376.2682, 11180.34
376.7503, 11191.87
377.2324, 11185.13
377.7145, 11156.45
378.1967, 11145.27
378.6788, 11156.13
379.1609, 11176.46
379.6430, 11185.17
380.1251, 11181.28
380.6072, 11186.42
381.0894, 11212.54
381.5715, 11255.49
382.0536, 11297.41
382.5357, 11340.18
383.0178, 11373.31
383.4999, 11369.69
383.9821, 11341.83
384.4642, 11349.27
384.9463, 11425.94
385.4284, 11530.80
385.9105, 11600.37
386.3926, 11635.91
386.8748, 11657.16
387.3569, 11671.49
387.8390, 11682.34
388.3211, 11694.42
388.8032, 11706.25
389.2853, 11724.71
389.7675, 11757.58
390.2496, 11802.59
390.7317, 11852.75
391.2138, 11921.81
391.6959, 11983.91
392.1780, 12013.63
392.6602, 12001.24
393.1423, 11990.67
393.6244, 12003.33
394.1065, 12031.46
394.5886, 12064.76
395.0707, 12110.41
395.5529, 12150.88
396.0350, 12176.72
396.5171, 12186.95
396.9992, 12198.07
397.4813, 12214.71
397.9634, 12232.65
398.4456, 12248.81
398.9277, 12276.56
399.4098, 12286.41
399.8919, 12259.28
400.3740, 12204.98
400.8561, 12178.67
401.3383, 12205.81
401.8204, 12235.45
402.3025, 12244.13
402.7846, 12224.88
403.2667, 12199.78
403.7488, 12169.97
404.2310, 12134.30
404.7131, 12087.98
405.1952, 12025.72
405.6773, 11968.99
406.1594, 11928.94
406.6415, 11906.33
407.1237, 11872.35
407.6058, 11826.86
408.0879, 11770.82
408.5700, 11698.51
409.0521, 11608.98
409.5342, 11533.88
410.0164, 11487.03
410.4985, 11457.08
410.9806, 11409.88
411.4627, 11344.81
411.9448, 11284.83
412.4269, 11253.28
412.9091, 11240.58
413.3912, 11220.17
413.8733, 11186.38
414.3554, 11145.70
414.8375, 11103.99
415.3196, 11061.84
415.8018, 11021.53
416.2839, 10984.76
416.7660, 10950.55
417.2481, 10918.17
417.7302, 10886.92
418.2123, 10860.51
418.6945, 10836.36
419.1766, 10820.06
419.6587, 10819.53
420.1408, 10860.68
420.6229, 10897.44
421.1050, 10905.32
421.5872, 10886.40
422.0693, 10867.69
422.5514, 10856.72
423.0335, 10849.28
423.5156, 10842.33
423.9977, 10830.58
424.4799, 10825.30
424.9620, 10828.04
425.4441, 10837.94
425.9262, 10852.84
426.4083, 10870.87
426.8904, 10895.45
427.3726, 10931.84
427.8547, 10988.18
428.3368, 11022.63
428.8189, 11029.78
429.3010, 11020.65
429.7831, 11005.83
430.2653, 10980.88
430.7474, 10967.17
431.2295, 10975.22
431.7116, 11000.07
432.1937, 11006.39
432.6758, 10990.86
433.1580, 10973.03
433.6401, 10972.96
434.1222, 10988.05
434.6043, 10984.95
435.0864, 10951.33
435.5685, 10912.93
436.0507, 10918.77
436.5328, 10962.52
437.0149, 11003.22
437.4970, 11017.07
437.9791, 11013.83
438.4612, 11004.63
438.9434, 10988.86
439.4255, 10982.59
439.9076, 11006.48
440.3897, 11048.35
440.8718, 11087.50
441.3539, 11120.79
441.8361, 11146.79
442.3182, 11156.47
442.8003, 11154.93
443.2824, 11167.51
443.7645, 11221.61
444.2466, 11283.86
444.7288, 11329.64
445.2109, 11343.23
445.6930, 11363.63
446.1751, 11406.73
446.6572, 11460.78
447.1393, 11504.56
447.6215, 11519.37
448.1036, 11539.66
448.5857, 11578.32
449.0678, 11638.65
449.5499, 11684.87
450.0320, 11710.65
450.5142, 11728.42
450.9963, 11750.79
451.4784, 11786.08
451.9605, 11802.03
452.4426, 11787.39
452.9247, 11753.93
453.4069, 11741.89
453.8890, 11756.72
454.3711, 11766.13
454.8532, 11750.80
455.3353, 11711.79
455.8174, 11666.80
456.2996, 11615.65
456.7817, 11558.62
457.2638, 11494.09
457.7459, 11423.25
458.2281, 11350.10
458.7102, 11275.01
459.1923, 11199.61
459.6744, 11127.47
460.1565, 11057.87
460.6386, 10992.28
461.1208, 10937.91
461.6029, 10884.49
462.0850, 10818.01
462.5671, 10727.80
463.0492, 10641.75
463.5313, 10571.49
464.0135, 10516.50
464.4956, 10475.86
464.9777, 10447.04
465.4598, 10433.36
465.9419, 10447.06
466.4240, 10494.72
466.9062, 10513.14
467.3883, 10475.13
467.8704, 10413.22
468.3525, 10351.28
468.8346, 10267.37
469.3167, 10216.82
469.7989, 10216.26
470.2810, 10251.48
470.7631, 10272.84
471.2452, 10276.08
471.7273, 10273.26
472.2094, 10269.66
472.6916, 10265.76
473.1737, 10259.54
473.6558, 10251.56
474.1379, 10241.43
474.6200, 10225.35
475.1021, 10204.19
475.5843, 10191.80
476.0664, 10194.88
476.5485, 10207.75
477.0306, 10219.67
477.5127, 10230.53
477.9948, 10237.83
478.4770, 10234.24
478.9591, 10227.19
479.4412, 10231.47
479.9233, 10252.85
480.4054, 10269.92
480.8875, 10250.20
481.3697, 10216.05
481.8518, 10205.78
482.3339, 10266.55
482.8160, 10327.39
483.2981, 10348.62
483.7802, 10330.74
484.2624, 10312.43
484.7445, 10310.09
485.2266, 10307.31
485.7087, 10293.63
486.1908, 10258.43
486.6729, 10225.39
487.1551, 10188.15
487.6372, 10155.19
488.1193, 10146.39
488.6014, 10184.82
489.0835, 10206.74
489.5656, 10184.60
490.0478, 10118.26
490.5299, 10091.11
491.0120, 10116.35
491.4941, 10148.33
491.9762, 10142.02
492.4583, 10097.71
492.9405, 10063.11
493.4226, 10045.68
493.9047, 10040.21
494.3868, 10041.52
494.8689, 10048.11
495.3510, 10050.44
495.8332, 10036.64
496.3153, 10017.57
496.7974, 10012.15
497.2795, 10020.94
497.7616, 10029.90
498.2437, 10028.12
498.7259, 10020.50
499.2080, 10012.71
499.6901, 10003.91
500.1722, 9998.587
500.6543, 10002.94
501.1364, 10012.85
501.6186, 10017.48
502.1007, 10005.91
502.5828, 9995.801
503.0649, 9996.386
503.5470, 10013.25
504.0291, 10021.18
504.5113, 10009.25
504.9934, 9996.464
505.4755, 10001.73
505.9576, 10038.21
506.4397, 10061.92
506.9218, 10062.25
507.4040, 10048.01
507.8861, 10047.86
508.3682, 10064.05
508.8503, 10082.31
509.3324, 10095.27
509.8145, 10103.33
510.2967, 10111.06
510.7788, 10118.12
511.2609, 10125.52
511.7430, 10133.95
512.2252, 10143.44
512.7073, 10154.83
513.1894, 10171.25
513.6715, 10185.48
514.1536, 10185.14
514.6357, 10175.11
515.1179, 10171.29
515.6000, 10193.32
516.0821, 10216.88
516.5642, 10225.00
517.0463, 10214.85
517.5284, 10198.47
518.0106, 10171.05
518.4927, 10143.58
518.9748, 10126.65
519.4569, 10123.11
519.9390, 10128.79
520.4211, 10149.62
520.9033, 10179.36
521.3854, 10197.08
521.8675, 10195.66
522.3496, 10194.49
522.8317, 10202.24
523.3138, 10220.01
523.7960, 10233.91
524.2781, 10246.09
524.7602, 10249.18
525.2423, 10222.59
525.7244, 10170.89
526.2065, 10157.08
526.6887, 10207.80
527.1708, 10279.42
527.6529, 10294.86
528.1350, 10264.75
528.6171, 10235.34
529.0992, 10229.63
529.5814, 10239.31
530.0635, 10258.66
530.5456, 10287.10
531.0277, 10314.26
531.5098, 10337.22
531.9919, 10353.47
532.4741, 10360.61
532.9562, 10353.58
533.4383, 10342.69
533.9204, 10325.64
534.4025, 10306.38
534.8846, 10294.89
535.3668, 10300.63
535.8489, 10304.79
536.3310, 10304.13
536.8131, 10299.04
537.2952, 10284.21
537.7773, 10253.94
538.2595, 10225.09
538.7416, 10214.02
539.2237, 10223.50
539.7058, 10222.42
540.1879, 10205.27
540.6700, 10182.16
541.1522, 10169.74
541.6343, 10166.71
542.1164, 10164.83
542.5985, 10156.08
543.0806, 10148.18
543.5627, 10159.25
544.0449, 10186.44
544.5270, 10205.67
545.0091, 10196.63
545.4912, 10173.98
545.9733, 10150.13
546.4554, 10124.47
546.9376, 10106.08
547.4197, 10111.28
547.9018, 10122.32
548.3839, 10115.60
548.8660, 10057.50
549.3481, 10013.90
549.8303, 10005.34
550.3124, 10025.73
550.7945, 10034.96
551.2766, 10027.48
551.7587, 10018.18
552.2408, 10013.66
552.7230, 10014.21
553.2051, 10020.53
553.6872, 10036.46
554.1693, 10047.96
554.6514, 10031.33
555.1335, 9990.241
555.6157, 9960.854
556.0978, 9951.298
556.5799, 9957.720
557.0620, 9983.858
557.5441, 10023.70
558.0262, 10053.90
558.5084, 10063.74
558.9905, 10056.03
559.4726, 10022.05
559.9547, 9961.043
560.4368, 9919.638
560.9189, 9940.536
561.4011, 9979.124
561.8832, 9999.406
562.3653, 9980.760
562.8474, 9963.895
563.3295, 9955.156
563.8116, 9951.180
564.2938, 9946.080
564.7759, 9934.891
565.2580, 9932.367
565.7401, 9947.739
566.2222, 9977.023
566.7043, 9983.792
567.1865, 9964.272
567.6686, 9937.319
568.1507, 9911.903
568.6328, 9888.978
569.1149, 9872.461
569.5970, 9861.855
570.0792, 9861.105
570.5613, 9882.296
571.0434, 9916.051
571.5255, 9942.273
572.0076, 9950.269
572.4897, 9952.141
572.9719, 9961.324
573.4540, 9972.646
573.9361, 9970.117
574.4182, 9927.783
574.9003, 9886.606
575.3824, 9867.868
575.8646, 9875.959
576.3467, 9885.180
576.8288, 9902.225
577.3109, 9912.806
577.7930, 9903.860
578.2751, 9859.813
578.7573, 9837.460
579.2394, 9847.529
579.7215, 9872.600
580.2036, 9880.457
580.6857, 9869.953
581.1678, 9860.189
581.6500, 9859.936
582.1321, 9863.983
582.6142, 9855.611
583.0963, 9836.441
583.5784, 9821.829
584.0605, 9831.949
584.5427, 9848.444
585.0248, 9845.474
585.5069, 9817.910
585.9890, 9788.890
586.4711, 9764.475
586.9532, 9749.289
587.4354, 9748.341
587.9175, 9777.142
588.3996, 9803.513
588.8817, 9824.877
589.3638, 9839.407
589.8459, 9841.729
590.3281, 9817.092
590.8102, 9802.956
591.2923, 9814.499
591.7744, 9849.459
592.2565, 9870.435
592.7386, 9875.585
593.2208, 9873.201
593.7029, 9867.680
594.1850, 9859.422
594.6671, 9848.940
595.1492, 9834.477
595.6313, 9827.229
596.1135, 9849.311
596.5956, 9887.283
597.0777, 9913.398
597.5598, 9912.985
598.0419, 9904.576
598.5240, 9899.163
599.0062, 9895.938
599.4883, 9892.165
599.9704, 9888.089
600.4525, 9882.238
600.9346, 9869.610
601.4167, 9847.527
601.8989, 9844.378
602.3810, 9872.393
602.8631, 9905.368
603.3452, 9927.782
603.8273, 9938.602
604.3094, 9939.608
604.7916, 9927.517
605.2737, 9911.523
605.7558, 9907.589
606.2379, 9914.097
606.7200, 9912.501
607.2021, 9893.444
607.6843, 9868.622
608.1664, 9855.439
608.6485, 9852.132
609.1306, 9850.998
609.6127, 9847.970
610.0948, 9845.494
610.5770, 9848.014
611.0591, 9855.732
611.5412, 9856.555
612.0233, 9834.503
612.5054, 9812.002
612.9875, 9805.086
613.4697, 9829.733
613.9518, 9842.994
614.4339, 9838.017
614.9160, 9827.148
615.3981, 9828.125
615.8802, 9844.603
616.3624, 9856.096
616.8445, 9855.764
617.3266, 9850.309
617.8087, 9860.189
618.2908, 9883.998
618.7729, 9901.917
619.2551, 9894.665
619.7372, 9878.504
620.2193, 9885.864
620.7014, 9915.049
621.1835, 9930.444
621.6656, 9889.946
622.1478, 9836.941
622.6299, 9809.323
623.1120, 9820.313
623.5941, 9835.142
624.0762, 9854.215
624.5583, 9868.615
625.0405, 9866.787
625.5226, 9829.789
626.0047, 9810.684
626.4868, 9822.761
626.9689, 9851.910
627.4510, 9861.046
627.9332, 9846.948
628.4153, 9832.076
628.8974, 9822.995
629.3795, 9820.254
629.8616, 9827.784
630.3438, 9844.957
630.8259, 9863.542
631.3080, 9883.729
631.7901, 9898.983
632.2722, 9898.914
632.7543, 9880.907
633.2365, 9860.112
633.7186, 9835.740
634.2007, 9817.204
634.6828, 9813.627
635.1649, 9848.267
635.6470, 9870.713
636.1292, 9870.397
636.6113, 9857.730
637.0934, 9849.384
637.5755, 9845.707
638.0576, 9846.093
638.5397, 9852.121
639.0219, 9861.525
639.5040, 9862.462
