##NAMES=Dumortierite
##RRUFFID=R050628
##IDEAL CHEMISTRY=AlAl_6_BSi_3_O_18_
##LOCALITY=Minas Gerais, Brazil
##OWNER=RRUFF
##SOURCE=Gemological Center
##DESCRIPTION=Blue cut gemstone
##STATUS=The identification of this mineral is confirmed by single-crystal X-ray diffraction and chemical analysis.
##URL=rruff.info/R050628
##MEASURED CHEMISTRY=Al_7.00_(B_1.00_O_3_)(Si_1.00_O_4_)_3_O_3_
92.06543, 1398.366
92.54755, 1395.889
93.02966, 1402.024
93.51178, 1408.077
93.99390, 1405.411
94.47601, 1396.740
94.95813, 1383.541
95.44025, 1365.984
95.92236, 1343.938
96.40448, 1316.674
96.88660, 1289.811
97.36871, 1262.475
97.85082, 1237.054
98.33294, 1215.942
98.81506, 1198.658
99.29717, 1180.100
99.77929, 1160.033
100.2614, 1139.016
100.7435, 1117.459
101.2256, 1093.800
101.7078, 1069.337
102.1899, 1047.515
102.6720, 1029.176
103.1541, 1013.320
103.6362, 998.2415
104.1183, 983.8828
104.6005, 970.8936
105.0826, 960.7458
105.5647, 953.9270
106.0468, 945.3774
106.5289, 932.1918
107.0110, 917.7646
107.4931, 904.1028
107.9753, 891.6939
108.4574, 879.6789
108.9395, 866.0731
109.4216, 848.2184
109.9037, 832.9879
110.3858, 822.2281
110.8680, 813.6729
111.3501, 804.9911
111.8322, 794.8542
112.3143, 783.6727
112.7964, 773.9147
113.2785, 766.8741
113.7607, 759.7098
114.2428, 751.6272
114.7249, 742.8292
115.2070, 733.8873
115.6891, 725.3474
116.1712, 717.0816
116.6534, 708.1833
117.1355, 697.7365
117.6176, 687.2746
118.0997, 678.0746
118.5818, 670.2592
119.0639, 662.8682
119.5461, 654.7987
120.0282, 646.3895
120.5103, 638.9047
120.9924, 632.9547
121.4745, 628.1890
121.9566, 624.0425
122.4388, 621.4328
122.9209, 617.8587
123.4030, 611.1917
123.8851, 602.1468
124.3672, 593.1202
124.8493, 586.1510
125.3315, 581.3653
125.8136, 576.4848
126.2957, 571.7131
126.7778, 566.5700
127.2599, 560.4343
127.7420, 553.4561
128.2242, 546.4641
128.7063, 540.7105
129.1884, 536.9542
129.6705, 532.8952
130.1526, 528.3112
130.6347, 523.5714
131.1169, 519.0507
131.5990, 514.8504
132.0811, 510.6982
132.5632, 505.9922
133.0453, 499.3115
133.5274, 493.7982
134.0096, 490.2936
134.4917, 487.9296
134.9738, 485.5732
135.4559, 482.7280
135.9380, 479.4765
136.4201, 476.1312
136.9023, 472.7323
137.3844, 469.2273
137.8665, 465.6371
138.3486, 461.9536
138.8307, 458.0717
139.3128, 453.8098
139.7950, 449.3976
140.2771, 445.3498
140.7592, 441.5158
141.2413, 438.2159
141.7234, 436.0535
142.2055, 435.2881
142.6877, 434.3579
143.1698, 432.0509
143.6519, 429.1787
144.1340, 426.6075
144.6161, 424.6245
145.0982, 423.1759
145.5803, 422.3109
146.0625, 422.9944
146.5446, 422.6122
147.0267, 419.1997
147.5088, 414.4053
147.9909, 410.7990
148.4730, 410.3102
148.9552, 412.7518
149.4373, 414.2873
149.9194, 414.2089
150.4015, 413.7920
150.8836, 413.0269
151.3657, 412.1375
151.8479, 411.5387
152.3300, 411.6956
152.8121, 412.8745
153.2942, 413.0982
153.7763, 411.9374
154.2584, 410.4346
154.7406, 409.1183
155.2227, 408.0179
155.7048, 406.7820
156.1869, 404.9492
156.6690, 402.2013
157.1511, 400.1226
157.6333, 398.3954
158.1154, 397.4770
158.5975, 398.1850
159.0796, 400.7365
159.5617, 403.7504
160.0438, 405.3661
160.5260, 405.5673
161.0081, 405.6163
161.4902, 405.1687
161.9723, 404.8325
162.4544, 405.8032
162.9365, 408.5440
163.4187, 412.3183
163.9008, 416.6878
164.3829, 421.6234
164.8650, 425.7120
165.3471, 427.9016
165.8292, 428.4089
166.3113, 428.6301
166.7935, 429.0011
167.2756, 428.9349
167.7577, 428.2975
168.2398, 427.0435
168.7219, 424.7021
169.2040, 420.5466
169.6862, 414.3350
170.1683, 408.0018
170.6504, 401.3830
171.1325, 395.0687
171.6146, 389.2465
172.0967, 384.0097
172.5789, 379.4992
173.0610, 376.0882
173.5431, 374.4501
174.0252, 372.3959
174.5073, 369.0173
174.9894, 365.6720
175.4716, 363.4379
175.9537, 362.6397
176.4358, 362.7039
176.9179, 362.4847
177.4000, 361.6991
177.8821, 361.0023
178.3643, 360.1168
178.8464, 359.4470
179.3285, 359.4501
179.8106, 360.3124
180.2927, 361.8127
180.7748, 363.3593
181.2570, 364.9612
181.7391, 366.6032
182.2212, 368.1350
182.7033, 369.7301
183.1854, 371.5563
183.6675, 373.6348
184.1497, 376.1236
184.6318, 379.6873
185.1139, 384.9431
185.5960, 390.0375
186.0781, 394.2142
186.5602, 397.6966
187.0423, 400.9748
187.5245, 403.8897
188.0066, 407.1256
188.4887, 412.0862
188.9708, 419.1640
189.4529, 427.0695
189.9350, 434.9909
190.4172, 442.9457
190.8993, 451.6216
191.3814, 462.3145
191.8635, 473.3052
192.3456, 482.4825
192.8277, 489.7035
193.3099, 494.8455
193.7920, 497.2848
194.2741, 496.7159
194.7562, 495.7362
195.2383, 494.8532
195.7204, 494.3071
196.2026, 494.1834
196.6847, 494.3460
197.1668, 495.4373
197.6489, 498.6209
198.1310, 504.4560
198.6131, 510.8790
199.0953, 516.7126
199.5774, 523.0806
200.0595, 530.7345
200.5416, 539.9111
201.0237, 550.9665
201.5058, 565.0038
201.9880, 584.4218
202.4701, 602.6473
202.9522, 619.4391
203.4343, 634.2137
203.9164, 646.6848
204.3985, 656.7723
204.8807, 663.8423
205.3628, 665.8171
205.8449, 660.4088
206.3270, 652.0370
206.8091, 640.1443
207.2912, 626.1534
207.7733, 611.0929
208.2555, 595.4822
208.7376, 579.7991
209.2197, 565.8492
209.7018, 554.9467
210.1839, 544.4262
210.6660, 533.7314
211.1482, 523.3656
211.6303, 514.1594
212.1124, 506.5747
212.5945, 500.2841
213.0766, 493.7668
213.5587, 487.6956
214.0409, 480.6871
214.5230, 471.9791
215.0051, 462.1774
215.4872, 452.1288
215.9693, 442.1450
216.4514, 432.3986
216.9336, 423.7105
217.4157, 416.1295
217.8978, 409.1800
218.3799, 402.5634
218.8620, 396.4386
219.3441, 391.1133
219.8263, 386.7580
220.3084, 383.3830
220.7905, 381.0082
221.2726, 380.5437
221.7547, 379.4250
222.2368, 375.6929
222.7190, 370.0056
223.2011, 365.0754
223.6832, 362.2129
224.1653, 360.7173
224.6474, 358.9980
225.1295, 356.9356
225.6117, 354.9336
226.0938, 353.5063
226.5759, 352.5384
227.0580, 350.9593
227.5401, 347.6130
228.0222, 344.0771
228.5043, 342.4361
228.9865, 343.1829
229.4686, 344.2804
229.9507, 343.9987
230.4328, 342.3509
230.9149, 340.6420
231.3970, 339.0443
231.8792, 337.7283
232.3613, 337.0784
232.8434, 337.2116
233.3255, 337.0771
233.8076, 335.1658
234.2897, 331.2294
234.7719, 328.4462
235.2540, 328.3400
235.7361, 329.1545
236.2182, 330.0456
236.7003, 330.8631
237.1824, 331.5060
237.6646, 331.8893
238.1467, 332.0195
238.6288, 331.8493
239.1109, 331.1501
239.5930, 330.2869
240.0751, 329.3466
240.5573, 328.3755
241.0394, 327.4969
241.5215, 326.9122
242.0036, 326.7252
242.4857, 326.3897
242.9678, 325.5938
243.4500, 324.8640
243.9321, 324.5570
244.4142, 324.6522
244.8963, 324.8014
245.3784, 324.5390
245.8605, 323.6433
246.3427, 323.1673
246.8248, 323.5490
247.3069, 323.9586
247.7890, 323.8791
248.2711, 323.3668
248.7532, 322.9263
249.2354, 323.1998
249.7175, 324.5537
250.1996, 325.0121
250.6817, 323.1715
251.1638, 321.7754
251.6459, 322.6129
252.1281, 325.3343
252.6102, 328.1102
253.0923, 329.1229
253.5744, 328.0302
254.0565, 327.2111
254.5386, 326.6733
255.0208, 326.3356
255.5029, 326.5124
255.9850, 326.9454
256.4671, 326.7775
256.9492, 325.0468
257.4313, 321.4426
257.9135, 320.1060
258.3956, 322.8776
258.8777, 325.5972
259.3598, 326.4190
259.8419, 325.6201
260.3240, 324.4488
260.8062, 323.7802
261.2883, 323.6169
261.7704, 323.8772
262.2525, 325.5593
262.7346, 326.5856
263.2167, 325.2833
263.6989, 322.5205
264.1810, 320.7320
264.6631, 321.6177
265.1452, 324.8182
265.6273, 327.0898
266.1094, 328.3465
266.5916, 329.0011
267.0737, 328.7417
267.5558, 327.9589
268.0379, 327.6031
268.5200, 328.2906
269.0021, 329.6854
269.4843, 330.3531
269.9664, 329.5887
270.4485, 329.1126
270.9306, 329.7973
271.4127, 331.1549
271.8948, 332.0647
272.3770, 331.9216
272.8591, 331.2455
273.3412, 331.5294
273.8233, 333.4169
274.3054, 334.7321
274.7875, 334.3434
275.2697, 332.9767
275.7518, 332.0060
276.2339, 331.9435
276.7160, 332.3777
277.1981, 332.5529
277.6802, 332.4209
278.1623, 332.3553
278.6444, 332.5425
279.1266, 332.8485
279.6087, 333.1378
280.0908, 333.4450
280.5729, 333.4760
281.0550, 332.5400
281.5371, 330.6230
282.0193, 329.1129
282.5014, 328.6082
282.9835, 328.6328
283.4656, 328.5587
283.9477, 328.2965
284.4298, 327.8538
284.9120, 327.1108
285.3941, 326.1193
285.8762, 325.3308
286.3583, 324.7015
286.8404, 324.3848
287.3225, 324.5302
287.8047, 325.1436
288.2868, 326.3452
288.7689, 329.0357
289.2510, 332.5115
289.7331, 334.2586
290.2152, 332.6877
290.6974, 329.9025
291.1795, 327.7939
291.6616, 326.3972
292.1437, 325.7232
292.6258, 326.2960
293.1079, 327.5100
293.5901, 327.9039
294.0722, 326.8586
294.5543, 325.4875
295.0364, 324.5466
295.5185, 324.0375
296.0006, 324.1523
296.4828, 325.5797
296.9649, 327.3096
297.4470, 327.5007
297.9291, 325.4750
298.4112, 323.3681
298.8933, 322.9789
299.3755, 323.9876
299.8576, 324.3919
300.3397, 323.3513
300.8218, 321.5716
301.3039, 319.9725
301.7860, 318.5324
302.2682, 317.4243
302.7503, 317.1161
303.2324, 317.2806
303.7145, 316.6632
304.1966, 314.6617
304.6787, 312.3622
305.1609, 311.1719
305.6430, 310.9300
306.1251, 310.1183
306.6072, 307.4484
307.0893, 303.8251
307.5714, 301.4120
308.0536, 300.8570
308.5357, 300.3670
309.0178, 297.9995
309.4999, 294.4209
309.9820, 291.4115
310.4641, 289.8144
310.9463, 289.0158
311.4284, 288.2461
311.9105, 287.5255
312.3926, 286.6436
312.8747, 285.2419
313.3568, 283.6248
313.8390, 282.3820
314.3211, 281.9374
314.8032, 281.5825
315.2853, 280.4165
315.7674, 278.4220
316.2495, 276.6389
316.7317, 275.3957
317.2138, 274.7601
317.6959, 274.9348
318.1780, 276.3363
318.6601, 277.4984
319.1422, 276.9909
319.6243, 275.0766
320.1064, 273.5721
320.5886, 272.9749
321.0707, 273.1373
321.5528, 274.0161
322.0349, 275.6982
322.5170, 276.9568
322.9991, 276.9249
323.4813, 275.9573
323.9634, 274.9453
324.4455, 273.8671
324.9276, 273.1844
325.4097, 273.5750
325.8918, 274.8400
326.3740, 276.0963
326.8561, 277.1795
327.3382, 278.0239
327.8203, 278.4005
328.3024, 278.1880
328.7845, 278.0522
329.2667, 278.5023
329.7488, 279.4189
330.2309, 280.5576
330.7130, 282.1411
331.1951, 283.7343
331.6772, 284.7844
332.1594, 285.3017
332.6415, 285.9654
333.1236, 287.2100
333.6057, 288.8133
334.0878, 290.2402
334.5699, 291.3225
335.0521, 292.4899
335.5342, 294.1907
336.0163, 296.2622
336.4984, 298.0934
336.9805, 299.5482
337.4626, 300.5291
337.9448, 300.6783
338.4269, 299.8195
338.9090, 299.4443
339.3911, 300.2975
339.8732, 302.0082
340.3553, 304.0773
340.8375, 306.5565
341.3196, 308.7444
341.8017, 309.4424
342.2838, 308.8244
342.7659, 308.9198
343.2480, 310.7544
343.7302, 313.1245
344.2123, 314.8393
344.6944, 315.7982
345.1765, 316.2168
345.6586, 315.9884
346.1407, 315.2965
346.6229, 315.2553
347.1050, 316.9577
347.5871, 318.3380
348.0692, 317.3856
348.5513, 314.8241
349.0334, 313.5565
349.5156, 315.3073
349.9977, 318.9536
350.4798, 321.4467
350.9619, 322.6332
351.4440, 323.2785
351.9261, 323.1619
352.4083, 322.7493
352.8904, 323.2381
353.3725, 325.1669
353.8546, 326.7522
354.3367, 325.0220
354.8188, 318.9745
355.3010, 313.9111
355.7831, 310.9498
356.2652, 308.7678
356.7473, 306.2275
357.2294, 303.1884
357.7115, 300.0207
358.1937, 296.9373
358.6758, 293.9504
359.1579, 291.6581
359.6400, 290.2575
360.1221, 289.2715
360.6042, 289.0615
361.0863, 289.1339
361.5685, 288.0229
362.0506, 284.6504
362.5327, 279.9204
363.0148, 277.6299
363.4969, 280.1280
363.9790, 281.9492
364.4612, 281.9525
364.9433, 281.0179
365.4254, 280.1692
365.9075, 279.7480
366.3896, 279.5015
366.8717, 279.0016
367.3539, 277.9564
367.8360, 277.3541
368.3181, 277.4794
368.8002, 277.7950
369.2823, 277.8989
369.7644, 277.8015
370.2466, 277.8306
370.7287, 278.3412
371.2108, 279.3872
371.6929, 279.9318
372.1750, 279.1326
372.6571, 278.7656
373.1393, 279.9546
373.6214, 281.8502
374.1035, 282.9546
374.5856, 282.4126
375.0677, 280.6772
375.5498, 279.1665
376.0320, 277.5992
376.5141, 276.7556
376.9962, 277.4295
377.4783, 278.3640
377.9604, 278.2743
378.4425, 276.9274
378.9247, 275.3150
379.4068, 274.8664
379.8889, 276.0028
380.3710, 276.8376
380.8531, 277.1485
381.3352, 277.3582
381.8174, 277.4253
382.2995, 277.5185
382.7816, 278.0426
383.2637, 279.4215
383.7458, 281.4950
384.2279, 283.1210
384.7101, 284.0107
385.1922, 284.8720
385.6743, 285.8078
386.1564, 286.8819
386.6385, 288.1981
387.1206, 289.8004
387.6028, 291.5940
388.0849, 293.5177
388.5670, 295.6436
389.0491, 297.5241
389.5312, 298.7536
390.0133, 299.9222
390.4955, 301.5284
390.9776, 303.5667
391.4597, 305.4641
391.9418, 306.5272
392.4239, 306.9673
392.9060, 308.1143
393.3882, 310.5009
393.8703, 312.8142
394.3524, 314.2220
394.8345, 314.9438
395.3166, 315.3846
395.7987, 315.5546
396.2809, 315.6253
396.7630, 315.9292
397.2451, 316.5029
397.7272, 316.7791
398.2093, 316.4787
398.6914, 315.7151
399.1736, 314.7272
399.6557, 313.5001
400.1378, 312.0957
400.6199, 310.5387
401.1020, 308.8307
401.5841, 306.8929
402.0662, 304.6125
402.5483, 302.3971
403.0305, 300.9564
403.5126, 300.2293
403.9947, 299.0146
404.4768, 296.3700
404.9589, 293.6278
405.4410, 292.3484
405.9232, 292.4496
406.4053, 292.3022
406.8874, 290.6946
407.3695, 288.0125
407.8516, 286.2393
408.3337, 285.5695
408.8159, 285.4395
409.2980, 286.0167
409.7801, 286.9401
410.2622, 287.6914
410.7443, 288.1040
411.2264, 288.1571
411.7086, 287.7699
412.1907, 286.5939
412.6728, 285.8609
413.1549, 285.8078
413.6370, 285.9912
414.1191, 286.3708
414.6013, 286.7690
415.0834, 286.6265
415.5655, 285.3599
416.0476, 283.0939
416.5297, 282.1002
417.0118, 283.9756
417.4940, 285.3314
417.9761, 285.5161
418.4582, 284.9018
418.9403, 283.8247
419.4224, 282.4355
419.9045, 281.0322
420.3867, 280.2921
420.8688, 280.8789
421.3509, 280.3424
421.8330, 277.6667
422.3151, 274.6973
422.7972, 272.3282
423.2794, 270.5770
423.7615, 269.0424
424.2436, 267.4533
424.7257, 265.8170
425.2078, 264.1893
425.6899, 262.7091
426.1721, 260.9806
426.6542, 258.5705
427.1363, 255.9713
427.6184, 253.7712
428.1005, 252.1749
428.5826, 250.9053
429.0648, 249.9353
429.5469, 249.2766
430.0290, 247.6108
430.5111, 243.8495
430.9932, 239.8898
431.4753, 237.3527
431.9575, 236.1354
432.4396, 235.3795
432.9217, 234.9329
433.4038, 234.6100
433.8859, 233.9831
434.3680, 232.9801
434.8502, 232.2188
435.3323, 232.1938
435.8144, 232.6935
436.2965, 233.0795
436.7786, 233.4419
437.2607, 233.5221
437.7429, 232.8807
438.2250, 231.8665
438.7071, 231.5573
439.1892, 232.4555
439.6713, 233.1989
440.1534, 231.5086
440.6356, 226.4497
441.1177, 223.3258
441.5998, 223.7531
442.0819, 225.1504
442.5640, 225.8833
443.0461, 225.8882
443.5282, 225.6765
444.0103, 225.5721
444.4925, 225.5544
444.9746, 225.5075
445.4567, 225.4411
445.9388, 225.3328
446.4209, 225.0694
446.9030, 224.8206
447.3852, 224.7596
447.8673, 224.9285
448.3494, 225.2473
448.8315, 225.6719
449.3136, 226.2979
449.7957, 226.5404
450.2779, 226.0660
450.7600, 225.5257
451.2421, 225.1459
451.7242, 224.8599
452.2063, 224.4858
452.6884, 223.9016
453.1706, 223.2412
453.6527, 222.7093
454.1348, 222.0984
454.6169, 222.2828
455.0990, 225.2519
455.5811, 227.9120
456.0633, 227.5021
456.5454, 223.9611
457.0275, 220.5147
457.5096, 219.8927
457.9917, 221.3062
458.4738, 221.9179
458.9560, 221.4308
459.4381, 220.4986
459.9202, 219.2112
460.4023, 217.8292
460.8844, 216.8723
461.3665, 216.5846
461.8487, 216.5242
462.3308, 216.2490
462.8129, 215.9036
463.2950, 216.1301
463.7771, 217.3067
464.2592, 218.6626
464.7414, 219.0468
465.2235, 218.3480
465.7056, 217.5811
466.1877, 216.2900
466.6698, 215.3950
467.1519, 215.8889
467.6341, 217.5648
468.1162, 219.3082
468.5983, 220.3782
469.0804, 220.9923
469.5625, 222.1082
470.0446, 224.6024
470.5268, 226.4886
471.0089, 226.8546
471.4910, 226.9877
471.9731, 228.3153
472.4552, 230.9729
472.9373, 233.7902
473.4195, 235.4613
473.9016, 235.8956
474.3837, 236.3653
474.8658, 236.1904
475.3479, 236.8614
475.8300, 239.7764
476.3122, 243.4784
476.7943, 245.7090
477.2764, 245.3796
477.7585, 244.2581
478.2406, 245.1976
478.7227, 248.4349
479.2049, 251.5690
479.6870, 254.2711
480.1691, 256.6445
480.6512, 258.7089
481.1333, 260.5054
481.6154, 262.2287
482.0976, 263.9869
482.5797, 265.7220
483.0618, 267.2130
483.5439, 268.4440
484.0260, 270.0327
484.5081, 272.3129
484.9902, 275.1519
485.4724, 278.2810
485.9545, 281.8543
486.4366, 285.2388
486.9187, 288.0906
487.4008, 290.7033
487.8829, 293.3562
488.3651, 296.1244
488.8472, 299.1758
489.3293, 302.6263
489.8114, 306.4935
490.2935, 310.7511
490.7756, 316.4377
491.2578, 321.2254
491.7399, 323.4695
492.2220, 324.7831
492.7041, 327.5209
493.1862, 332.4019
493.6683, 337.9907
494.1505, 342.2508
494.6326, 344.9981
495.1147, 347.1075
495.5968, 348.1792
496.0789, 348.9698
496.5610, 350.4166
497.0432, 351.6910
497.5253, 351.0171
498.0074, 347.1785
498.4895, 341.8466
498.9716, 338.0651
499.4537, 335.9928
499.9359, 334.3953
500.4180, 332.3266
500.9001, 331.3232
501.3822, 333.0303
501.8643, 337.2109
502.3464, 341.4023
502.8286, 344.0512
503.3107, 346.2167
503.7928, 349.9316
504.2749, 355.2458
504.7570, 359.8270
505.2391, 362.1563
505.7213, 363.1249
506.2034, 365.1921
506.6855, 369.2445
507.1676, 372.2220
507.6497, 373.7474
508.1318, 373.5528
508.6140, 370.7036
509.0961, 365.3743
509.5782, 359.6382
510.0603, 355.5150
510.5424, 352.8264
511.0245, 347.7234
511.5067, 338.1205
511.9888, 328.6218
512.4709, 320.0370
512.9530, 311.8771
513.4351, 303.4813
513.9172, 294.7014
514.3994, 286.0578
514.8815, 278.1257
515.3636, 270.8867
515.8457, 264.2629
516.3278, 258.6840
516.8099, 253.1303
517.2921, 246.6029
517.7742, 240.0061
518.2563, 234.7983
518.7384, 231.5715
519.2205, 229.3844
519.7026, 227.5753
520.1848, 226.0403
520.6669, 223.8621
521.1490, 220.5875
521.6311, 217.1545
522.1132, 214.6545
522.5953, 212.9058
523.0775, 211.0336
523.5596, 208.2154
524.0417, 205.8404
524.5238, 205.5621
525.0059, 206.5817
525.4880, 206.4378
525.9702, 204.0266
526.4523, 200.7062
526.9344, 198.7668
527.4165, 198.7550
527.8986, 198.8601
528.3807, 199.8402
528.8629, 200.2318
529.3450, 198.5143
529.8271, 195.5827
530.3092, 193.6041
530.7913, 193.8617
531.2734, 195.4454
531.7556, 196.0795
532.2377, 195.3302
532.7198, 194.8563
533.2019, 195.0974
533.6840, 195.5085
534.1661, 195.6512
534.6483, 195.6533
535.1304, 196.1173
535.6125, 197.7464
536.0946, 199.8236
536.5767, 201.0712
537.0588, 201.4669
537.5410, 201.4253
538.0231, 200.8010
538.5052, 200.1186
538.9873, 200.3111
539.4694, 201.5043
539.9515, 202.4585
540.4337, 202.6604
540.9158, 202.5804
541.3979, 202.6446
541.8800, 202.8758
542.3621, 203.1767
542.8442, 203.5055
543.3264, 203.8245
543.8085, 203.9965
544.2906, 203.5471
544.7726, 203.6341
545.2548, 204.8758
545.7369, 206.1865
546.2190, 206.6839
546.7011, 206.4409
547.1832, 206.0757
547.6653, 205.9780
548.1475, 206.1948
548.6296, 207.0769
549.1117, 209.1012
549.5938, 210.5284
550.0759, 210.3370
550.5580, 209.6819
551.0402, 209.3794
551.5223, 209.4927
552.0044, 209.6517
552.4865, 209.5661
552.9686, 209.4145
553.4507, 209.6693
553.9329, 210.3520
554.4150, 210.6160
554.8971, 209.8142
555.3792, 208.4641
555.8613, 207.8885
556.3434, 208.1543
556.8256, 208.8274
557.3077, 210.5049
557.7898, 212.0878
558.2719, 212.4736
558.7540, 211.7153
559.2361, 210.5024
559.7183, 209.2374
560.2004, 208.0488
560.6825, 207.5256
561.1646, 208.4956
561.6467, 208.7029
562.1288, 207.0249
562.6110, 205.3201
563.0931, 205.2644
563.5752, 206.6145
564.0573, 207.5241
564.5394, 206.2196
565.0215, 203.8242
565.5037, 203.5620
565.9858, 205.8372
566.4679, 207.6004
566.9500, 207.6518
567.4321, 206.6699
567.9142, 205.4940
568.3964, 204.0936
568.8785, 202.9288
569.3606, 202.2991
569.8427, 201.8784
570.3248, 201.4999
570.8069, 201.0643
571.2891, 200.1084
571.7712, 198.2829
572.2533, 196.1025
572.7354, 194.8943
573.2175, 195.4978
573.6996, 195.6087
574.1818, 195.1311
574.6639, 194.2796
575.1460, 192.9312
575.6281, 191.3183
576.1102, 189.9541
576.5923, 189.1524
577.0745, 188.7264
577.5566, 188.2951
578.0387, 187.8627
578.5208, 187.4171
579.0029, 187.0726
579.4850, 186.5869
579.9672, 185.6795
580.4493, 184.4579
580.9314, 183.3840
581.4135, 182.6201
581.8956, 182.0812
582.3777, 181.5628
582.8599, 181.1700
583.3420, 181.5142
583.8241, 182.9667
584.3062, 184.4382
584.7883, 184.3647
585.2704, 182.3121
585.7526, 180.7834
586.2347, 179.7555
586.7168, 179.2256
587.1989, 179.5151
587.6810, 180.2036
588.1631, 180.7847
588.6453, 181.0470
589.1274, 180.8258
