##NAMES=Dumortierite
##RRUFFID=R060069
##IDEAL CHEMISTRY=AlAl_6_BSi_3_O_18_
##LOCALITY=Dehesa, San Diego County, California, USA
##OWNER=RRUFF
##SOURCE=University of Arizona Mineral Museum
##DESCRIPTION=Radial aggregate of purple acicular crystals
##STATUS=The identification of this mineral has been confirmed by X-ray diffraction and chemical analysis
##URL=rruff.info/R060069
##MEASURED CHEMISTRY=(Al_6.89_Ti_0.11_)_Σ=7_(BO_3_)(Si_2.89_Al_0.11_)_Σ=1_O_4_)_3_O_3_ ; B not measured but estimated by difference and charge balance
93.88477, 114.5493
94.36688, 110.5139
94.84900, 111.7657
95.33112, 117.7192
95.81323, 125.6056
96.29535, 134.1862
96.77747, 143.5758
97.25958, 154.2513
97.74170, 166.2632
98.22382, 179.7213
98.70593, 194.4742
99.18805, 210.5468
99.67017, 228.4438
100.1523, 248.9836
100.6344, 272.1814
101.1165, 295.1400
101.5986, 317.1585
102.0807, 338.6501
102.5629, 360.6400
103.0450, 383.7326
103.5271, 406.4216
104.0092, 426.9920
104.4913, 445.1142
104.9734, 462.6205
105.4556, 480.0329
105.9377, 497.1895
106.4198, 514.4637
106.9019, 531.5096
107.3840, 548.8170
107.8661, 566.5363
108.3483, 583.7928
108.8304, 602.8759
109.3125, 624.4867
109.7946, 649.3695
110.2767, 675.2953
110.7588, 702.7161
111.2410, 731.2645
111.7231, 760.4369
112.2052, 791.4650
112.6873, 822.4186
113.1694, 852.8451
113.6515, 883.4247
114.1337, 912.8934
114.6158, 940.5338
115.0979, 966.7284
115.5800, 993.2155
116.0621, 1021.987
116.5442, 1050.095
117.0264, 1075.336
117.5085, 1096.203
117.9906, 1115.899
118.4727, 1135.674
118.9548, 1155.351
119.4369, 1173.669
119.9191, 1188.883
120.4012, 1203.121
120.8833, 1218.408
121.3654, 1236.161
121.8475, 1254.803
122.3296, 1273.811
122.8118, 1293.176
123.2939, 1311.786
123.7760, 1327.462
124.2581, 1341.932
124.7402, 1358.363
125.2223, 1378.892
125.7045, 1401.495
126.1866, 1423.625
126.6687, 1444.913
127.1508, 1467.045
127.6329, 1492.429
128.1150, 1520.136
128.5972, 1548.031
129.0793, 1574.717
129.5614, 1600.555
130.0435, 1626.143
130.5256, 1651.695
131.0077, 1676.640
131.4899, 1700.098
131.9720, 1722.106
132.4541, 1742.540
132.9362, 1755.068
133.4183, 1758.233
133.9004, 1760.796
134.3826, 1762.783
134.8647, 1764.288
135.3468, 1765.013
135.8289, 1764.826
136.3110, 1765.308
136.7931, 1768.194
137.2753, 1773.541
137.7574, 1778.179
138.2395, 1781.009
138.7216, 1782.580
139.2037, 1786.553
139.6858, 1793.579
140.1680, 1801.193
140.6501, 1806.815
141.1322, 1809.844
141.6143, 1813.252
142.0964, 1818.132
142.5785, 1824.586
143.0607, 1829.250
143.5428, 1831.864
144.0249, 1833.086
144.5070, 1833.666
144.9891, 1833.275
145.4712, 1832.941
145.9534, 1833.019
146.4355, 1833.687
146.9176, 1834.156
147.3997, 1834.556
147.8818, 1834.737
148.3639, 1834.333
148.8461, 1832.119
149.3282, 1830.734
149.8103, 1831.199
150.2924, 1834.824
150.7745, 1837.609
151.2566, 1838.872
151.7388, 1839.223
152.2209, 1840.265
152.7030, 1843.556
153.1851, 1846.255
153.6672, 1847.203
154.1493, 1844.122
154.6315, 1842.287
155.1136, 1842.405
155.5957, 1844.078
156.0778, 1845.827
156.5599, 1848.419
157.0420, 1850.448
157.5242, 1851.178
158.0063, 1848.375
158.4884, 1846.548
158.9705, 1846.865
159.4526, 1849.020
159.9347, 1851.124
160.4169, 1852.585
160.8990, 1853.841
161.3811, 1855.202
161.8632, 1857.132
162.3453, 1858.785
162.8274, 1859.573
163.3096, 1859.577
163.7917, 1859.986
164.2738, 1861.272
164.7559, 1863.194
165.2380, 1865.518
165.7201, 1869.949
166.2023, 1873.334
166.6844, 1873.057
167.1665, 1869.063
167.6486, 1866.161
168.1307, 1867.787
168.6128, 1871.868
169.0949, 1875.697
169.5771, 1878.009
170.0592, 1879.804
170.5413, 1882.002
171.0234, 1884.735
171.5055, 1886.922
171.9876, 1887.480
172.4698, 1886.992
172.9519, 1886.498
173.4340, 1886.080
173.9161, 1886.088
174.3982, 1887.052
174.8803, 1889.128
175.3625, 1891.402
175.8446, 1892.578
176.3267, 1893.248
176.8088, 1894.838
177.2909, 1898.753
177.7730, 1903.819
178.2552, 1908.584
178.7373, 1913.066
179.2194, 1916.744
179.7015, 1918.600
180.1836, 1919.044
180.6657, 1919.629
181.1479, 1920.993
181.6300, 1923.154
182.1121, 1926.312
182.5942, 1930.723
183.0763, 1935.470
183.5584, 1939.461
184.0406, 1942.773
184.5227, 1945.792
185.0048, 1948.422
185.4869, 1950.929
185.9690, 1954.127
186.4511, 1958.041
186.9333, 1962.818
187.4154, 1969.216
187.8975, 1977.186
188.3796, 1984.834
188.8617, 1990.725
189.3438, 1995.155
189.8260, 1999.686
190.3081, 2004.702
190.7902, 2009.869
191.2723, 2014.302
191.7544, 2017.983
192.2365, 2021.970
192.7187, 2027.721
193.2008, 2034.958
193.6829, 2040.755
194.1650, 2044.200
194.6471, 2046.332
195.1292, 2050.439
195.6114, 2056.776
196.0935, 2062.730
196.5756, 2066.000
197.0577, 2066.601
197.5398, 2066.187
198.0219, 2064.187
198.5041, 2061.647
198.9862, 2063.053
199.4683, 2068.920
199.9504, 2075.959
200.4325, 2081.717
200.9146, 2086.146
201.3968, 2089.322
201.8789, 2091.024
202.3610, 2091.462
202.8431, 2091.413
203.3252, 2090.647
203.8073, 2090.234
204.2895, 2091.549
204.7716, 2094.987
205.2537, 2097.592
205.7358, 2098.625
206.2179, 2098.359
206.7000, 2098.507
207.1822, 2099.257
207.6643, 2100.110
208.1464, 2100.721
208.6285, 2101.195
209.1106, 2101.030
209.5927, 2100.064
210.0749, 2098.325
210.5570, 2095.978
211.0391, 2092.497
211.5212, 2089.338
212.0033, 2088.174
212.4854, 2089.659
212.9676, 2090.600
213.4497, 2090.121
213.9318, 2088.272
214.4139, 2086.833
214.8960, 2085.791
215.3781, 2085.114
215.8603, 2084.949
216.3424, 2085.702
216.8245, 2085.706
217.3066, 2084.382
217.7887, 2081.745
218.2708, 2079.467
218.7529, 2077.221
219.2351, 2075.764
219.7172, 2076.190
220.1993, 2079.445
220.6814, 2082.229
221.1635, 2084.002
221.6456, 2084.784
222.1278, 2083.897
222.6099, 2080.114
223.0920, 2076.099
223.5741, 2074.907
224.0562, 2077.927
224.5383, 2080.486
225.0205, 2081.316
225.5026, 2080.344
225.9847, 2080.831
226.4668, 2083.625
226.9489, 2086.958
227.4310, 2088.823
227.9132, 2088.418
228.3953, 2088.354
228.8774, 2089.404
229.3595, 2091.654
229.8416, 2092.783
230.3237, 2091.995
230.8059, 2090.966
231.2880, 2091.592
231.7701, 2095.275
232.2522, 2097.773
232.7343, 2097.656
233.2164, 2094.761
233.6986, 2094.323
234.1807, 2098.218
234.6628, 2102.625
235.1449, 2103.255
235.6270, 2097.004
236.1091, 2093.125
236.5913, 2094.263
237.0734, 2100.571
237.5555, 2104.009
238.0376, 2102.944
238.5197, 2100.659
239.0018, 2100.298
239.4840, 2102.830
239.9661, 2105.440
240.4482, 2107.581
240.9303, 2109.265
241.4124, 2111.630
241.8945, 2115.400
242.3767, 2119.103
242.8588, 2121.326
243.3409, 2121.378
243.8230, 2121.256
244.3051, 2121.032
244.7872, 2120.731
245.2694, 2121.430
245.7515, 2123.725
246.2336, 2126.348
246.7157, 2128.230
247.1978, 2128.973
247.6799, 2129.768
248.1621, 2130.594
248.6442, 2131.535
249.1263, 2133.588
249.6084, 2137.654
250.0905, 2141.790
250.5726, 2144.479
251.0548, 2145.244
251.5369, 2145.529
252.0190, 2144.990
252.5011, 2143.898
252.9832, 2144.742
253.4653, 2148.065
253.9475, 2152.546
254.4296, 2157.445
254.9117, 2163.292
255.3938, 2168.175
255.8759, 2171.319
256.3580, 2173.177
256.8401, 2176.375
257.3223, 2181.119
257.8044, 2186.834
258.2865, 2193.335
258.7686, 2200.961
259.2507, 2208.340
259.7328, 2215.509
260.2150, 2222.313
260.6971, 2228.724
261.1792, 2235.016
261.6613, 2240.423
262.1434, 2244.783
262.6255, 2248.690
263.1077, 2249.531
263.5898, 2246.110
264.0719, 2239.851
264.5540, 2235.144
265.0361, 2232.138
265.5182, 2230.279
266.0004, 2228.941
266.4825, 2227.513
266.9646, 2229.077
267.4467, 2234.645
267.9288, 2242.730
268.4109, 2249.352
268.8931, 2254.358
269.3752, 2258.441
269.8573, 2261.629
270.3394, 2263.590
270.8215, 2266.444
271.3036, 2270.694
271.7858, 2275.403
272.2679, 2278.189
272.7500, 2278.478
273.2321, 2279.033
273.7142, 2281.479
274.1964, 2286.214
274.6785, 2289.319
275.1606, 2290.126
275.6427, 2290.292
276.1248, 2293.047
276.6069, 2299.103
277.0891, 2304.290
277.5712, 2306.581
278.0533, 2305.938
278.5354, 2306.129
279.0175, 2307.250
279.4996, 2308.967
279.9818, 2310.797
280.4639, 2312.682
280.9460, 2314.973
281.4281, 2318.342
281.9102, 2322.494
282.3923, 2323.940
282.8745, 2322.020
283.3566, 2319.522
283.8387, 2320.243
284.3208, 2324.290
284.8029, 2327.250
285.2850, 2327.662
285.7672, 2325.990
286.2493, 2324.093
286.7314, 2321.932
287.2135, 2319.875
287.6956, 2318.140
288.1777, 2316.756
288.6599, 2316.156
289.1420, 2316.795
289.6241, 2318.106
290.1062, 2318.487
290.5883, 2317.913
291.0704, 2316.829
291.5526, 2315.323
292.0347, 2313.500
292.5168, 2312.131
292.9989, 2311.625
293.4810, 2311.272
293.9631, 2309.360
294.4453, 2305.935
294.9274, 2302.608
295.4095, 2300.406
295.8916, 2299.190
296.3737, 2298.756
296.8558, 2299.247
297.3380, 2300.081
297.8201, 2300.864
298.3022, 2301.461
298.7843, 2301.042
299.2664, 2298.121
299.7485, 2293.944
300.2307, 2291.532
300.7128, 2291.565
301.1949, 2292.091
301.6770, 2290.854
302.1591, 2288.270
302.6412, 2285.654
303.1234, 2283.366
303.6055, 2281.623
304.0876, 2280.995
304.5697, 2281.695
305.0518, 2282.291
305.5339, 2280.982
306.0161, 2278.574
306.4982, 2276.780
306.9803, 2276.467
307.4624, 2277.018
307.9445, 2277.930
308.4266, 2279.159
308.9088, 2280.485
309.3909, 2282.073
309.8730, 2283.558
310.3551, 2284.445
310.8372, 2284.376
311.3193, 2283.755
311.8015, 2282.604
312.2836, 2280.994
312.7657, 2279.689
313.2478, 2279.560
313.7299, 2279.775
314.2120, 2279.455
314.6942, 2277.514
315.1763, 2276.014
315.6584, 2276.216
316.1405, 2277.840
316.6226, 2279.790
317.1047, 2281.884
317.5869, 2283.951
318.0690, 2285.874
318.5511, 2287.632
319.0332, 2289.213
319.5153, 2290.507
319.9974, 2291.591
320.4796, 2292.632
320.9617, 2294.206
321.4438, 2295.327
321.9259, 2295.231
322.4080, 2293.115
322.8901, 2291.940
323.3723, 2293.654
323.8544, 2296.420
324.3365, 2297.621
324.8186, 2294.358
325.3007, 2291.766
325.7828, 2291.658
326.2650, 2294.585
326.7471, 2297.413
327.2292, 2299.890
327.7113, 2302.164
328.1934, 2304.381
328.6755, 2305.417
329.1577, 2307.627
329.6398, 2312.020
330.1219, 2318.579
330.6040, 2323.579
331.0861, 2325.878
331.5682, 2327.434
332.0504, 2329.516
332.5325, 2332.500
333.0146, 2335.235
333.4967, 2337.286
333.9788, 2338.940
334.4609, 2341.630
334.9431, 2346.061
335.4252, 2350.565
335.9073, 2354.352
336.3894, 2357.575
336.8715, 2359.765
337.3536, 2360.579
337.8358, 2360.670
338.3179, 2361.433
338.8000, 2363.110
339.2821, 2364.952
339.7642, 2366.620
340.2463, 2368.057
340.7285, 2369.917
341.2105, 2371.826
341.6927, 2374.818
342.1748, 2381.184
342.6569, 2391.575
343.1390, 2399.861
343.6211, 2403.290
344.1032, 2402.762
344.5854, 2403.822
345.0675, 2406.528
345.5496, 2410.007
346.0317, 2413.801
346.5138, 2417.807
346.9959, 2420.747
347.4781, 2421.896
347.9602, 2422.256
348.4423, 2424.376
348.9244, 2428.211
349.4065, 2432.029
349.8886, 2434.481
350.3708, 2436.023
350.8529, 2437.891
351.3350, 2440.401
351.8171, 2443.042
352.2992, 2444.974
352.7813, 2446.406
353.2635, 2448.090
353.7456, 2450.513
354.2277, 2453.425
354.7098, 2456.391
355.1919, 2459.322
355.6740, 2462.636
356.1562, 2467.055
356.6383, 2471.972
357.1204, 2476.431
357.6025, 2479.591
358.0846, 2482.370
358.5667, 2485.477
359.0489, 2488.890
359.5310, 2492.187
360.0131, 2495.125
360.4952, 2497.832
360.9773, 2500.456
361.4594, 2503.677
361.9416, 2506.084
362.4237, 2506.301
362.9058, 2505.059
363.3879, 2504.629
363.8700, 2506.545
364.3521, 2509.074
364.8343, 2511.126
365.3164, 2512.131
365.7985, 2513.763
366.2806, 2517.736
366.7627, 2522.376
367.2448, 2524.948
367.7270, 2522.601
368.2091, 2520.510
368.6912, 2520.402
369.1733, 2522.786
369.6554, 2524.781
370.1375, 2526.732
370.6197, 2528.011
371.1018, 2528.012
371.5839, 2525.085
372.0660, 2523.118
372.5481, 2522.808
373.0302, 2523.925
373.5124, 2524.981
373.9945, 2526.022
374.4766, 2526.840
374.9587, 2527.157
375.4408, 2526.463
375.9229, 2526.838
376.4051, 2529.001
376.8872, 2531.854
377.3693, 2532.719
377.8514, 2531.038
378.3335, 2529.620
378.8156, 2529.866
379.2978, 2531.843
379.7799, 2533.304
380.2620, 2534.134
380.7441, 2534.940
381.2262, 2536.592
381.7083, 2539.054
382.1905, 2541.366
382.6726, 2543.024
383.1547, 2544.386
383.6368, 2546.650
384.1189, 2549.813
384.6010, 2552.737
385.0832, 2554.261
385.5653, 2554.758
386.0474, 2555.332
386.5295, 2556.130
387.0116, 2557.114
387.4937, 2558.101
387.9759, 2559.206
388.4580, 2560.847
388.9401, 2564.176
389.4222, 2567.761
389.9043, 2569.549
390.3864, 2569.226
390.8686, 2569.083
391.3507, 2571.584
391.8328, 2575.213
392.3149, 2577.731
392.7970, 2576.937
393.2791, 2575.917
393.7613, 2576.165
394.2434, 2577.667
394.7255, 2580.137
395.2076, 2585.165
395.6897, 2590.086
396.1718, 2592.833
396.6540, 2591.361
397.1361, 2590.221
397.6182, 2590.281
398.1003, 2591.418
398.5824, 2593.371
399.0645, 2596.540
399.5467, 2600.084
400.0288, 2603.893
400.5109, 2608.289
400.9930, 2611.799
401.4751, 2614.491
401.9572, 2616.281
402.4394, 2617.021
402.9215, 2616.065
403.4036, 2615.141
403.8857, 2614.321
404.3678, 2613.716
404.8499, 2614.386
405.3321, 2617.206
405.8142, 2619.786
406.2963, 2619.987
406.7784, 2616.924
407.2605, 2616.784
407.7426, 2620.873
408.2248, 2626.822
408.7069, 2629.884
409.1890, 2629.770
409.6711, 2629.445
410.1532, 2630.477
410.6353, 2632.408
411.1175, 2632.672
411.5996, 2631.123
412.0817, 2628.755
412.5638, 2625.913
413.0459, 2622.990
413.5280, 2621.311
414.0102, 2621.525
414.4923, 2622.817
414.9744, 2624.912
415.4565, 2627.467
415.9386, 2628.517
416.4207, 2625.498
416.9029, 2620.880
417.3850, 2617.919
417.8671, 2617.380
418.3492, 2616.946
418.8313, 2614.642
419.3134, 2611.402
419.7956, 2608.670
420.2777, 2607.028
420.7598, 2606.030
421.2419, 2605.304
421.7240, 2604.844
422.2061, 2605.101
422.6883, 2607.539
423.1704, 2609.863
423.6525, 2610.435
424.1346, 2607.318
424.6167, 2604.502
425.0988, 2602.057
425.5810, 2600.278
426.0631, 2600.011
426.5452, 2603.532
427.0273, 2606.218
427.5094, 2606.576
427.9915, 2604.158
428.4737, 2601.681
428.9558, 2598.574
429.4379, 2596.106
429.9200, 2595.870
430.4021, 2598.845
430.8842, 2601.265
431.3664, 2602.475
431.8485, 2602.710
432.3306, 2602.736
432.8127, 2602.521
433.2948, 2602.267
433.7769, 2602.177
434.2591, 2602.195
434.7412, 2601.524
435.2233, 2599.808
435.7054, 2598.276
436.1875, 2598.735
436.6696, 2600.921
437.1518, 2603.435
437.6339, 2605.895
438.1160, 2608.231
438.5981, 2610.457
439.0802, 2612.538
439.5623, 2614.156
440.0444, 2614.613
440.5266, 2614.657
441.0087, 2615.289
441.4908, 2616.794
441.9729, 2618.832
442.4550, 2621.525
442.9371, 2624.594
443.4193, 2627.475
443.9014, 2629.494
444.3835, 2631.622
444.8656, 2634.802
445.3477, 2639.189
445.8298, 2642.208
446.3120, 2642.025
446.7941, 2640.807
447.2762, 2640.240
447.7583, 2640.162
448.2404, 2641.153
448.7225, 2643.831
449.2047, 2647.633
449.6868, 2650.909
450.1689, 2653.765
450.6510, 2655.980
451.1331, 2657.158
451.6152, 2656.924
452.0974, 2658.333
452.5795, 2662.398
453.0616, 2666.686
453.5437, 2668.087
454.0258, 2665.926
454.5079, 2665.570
454.9901, 2668.611
455.4722, 2673.744
455.9543, 2677.313
456.4364, 2679.235
456.9185, 2680.766
457.4006, 2682.663
457.8828, 2684.765
458.3649, 2686.729
458.8470, 2688.529
459.3291, 2689.964
459.8112, 2690.251
460.2933, 2690.003
460.7755, 2690.628
461.2576, 2693.387
461.7397, 2696.648
462.2218, 2699.096
462.7039, 2700.833
463.1860, 2702.091
463.6682, 2702.617
464.1503, 2703.036
464.6324, 2703.750
465.1145, 2704.734
465.5966, 2706.378
466.0787, 2709.387
466.5609, 2712.963
467.0430, 2716.032
467.5251, 2717.984
468.0072, 2719.807
468.4893, 2721.681
468.9714, 2723.584
469.4536, 2725.400
469.9357, 2727.033
470.4178, 2728.630
470.8999, 2730.257
471.3820, 2731.950
471.8641, 2733.471
472.3463, 2734.504
472.8284, 2735.695
473.3105, 2738.449
473.7926, 2743.160
474.2747, 2747.046
474.7568, 2748.960
475.2390, 2749.434
475.7211, 2750.717
476.2032, 2752.850
476.6853, 2755.160
477.1674, 2757.552
477.6495, 2759.742
478.1317, 2760.611
478.6138, 2759.715
479.0959, 2758.634
479.5780, 2759.450
480.0601, 2761.452
480.5422, 2762.961
481.0244, 2761.984
481.5065, 2761.201
481.9886, 2763.269
482.4707, 2767.899
482.9528, 2772.292
483.4349, 2775.167
483.9171, 2777.320
484.3992, 2779.404
484.8813, 2782.059
485.3634, 2783.552
485.8455, 2781.817
486.3276, 2779.073
486.8098, 2778.661
487.2919, 2783.605
487.7740, 2787.891
488.2561, 2789.986
488.7382, 2790.068
489.2203, 2791.329
489.7025, 2794.494
490.1846, 2797.640
490.6667, 2799.325
491.1488, 2799.014
491.6309, 2800.191
492.1130, 2803.570
492.5952, 2807.467
493.0773, 2809.427
493.5594, 2809.477
494.0415, 2808.890
494.5236, 2807.621
495.0057, 2806.307
495.4879, 2806.763
495.9700, 2808.879
496.4521, 2811.022
496.9342, 2810.947
497.4163, 2810.503
497.8984, 2813.331
498.3806, 2820.794
498.8627, 2827.183
499.3448, 2826.904
499.8269, 2823.097
500.3090, 2820.475
500.7911, 2820.895
501.2733, 2822.711
501.7554, 2826.148
502.2375, 2830.732
502.7196, 2834.041
503.2017, 2833.860
503.6838, 2833.600
504.1660, 2835.055
504.6481, 2839.176
505.1302, 2842.646
505.6123, 2846.098
506.0944, 2848.412
506.5765, 2847.842
507.0587, 2842.608
507.5408, 2839.229
508.0229, 2839.315
508.5050, 2841.843
508.9871, 2843.606
509.4692, 2844.753
509.9514, 2844.316
510.4335, 2840.740
510.9156, 2834.800
511.3977, 2831.063
511.8798, 2829.752
512.3619, 2829.589
512.8441, 2829.621
513.3262, 2829.803
513.8083, 2830.100
514.2904, 2830.801
514.7725, 2831.076
515.2546, 2829.620
515.7368, 2827.053
516.2189, 2824.963
516.7010, 2822.964
517.1831, 2822.513
517.6652, 2825.798
518.1473, 2833.116
518.6295, 2837.543
519.1116, 2835.328
519.5937, 2830.596
520.0758, 2826.307
520.5579, 2821.622
521.0400, 2818.948
521.5222, 2819.648
522.0043, 2821.850
522.4864, 2822.032
522.9685, 2819.406
523.4506, 2816.685
523.9327, 2814.747
524.4149, 2813.460
524.8970, 2811.511
525.3791, 2808.642
525.8612, 2806.562
526.3433, 2807.333
526.8254, 2810.269
527.3076, 2811.209
527.7897, 2809.415
528.2718, 2807.065
528.7539, 2807.024
529.2360, 2808.347
529.7181, 2808.787
530.2003, 2807.011
530.6824, 2804.467
531.1645, 2802.048
531.6466, 2799.843
532.1287, 2798.039
532.6108, 2797.253
533.0930, 2796.523
533.5751, 2795.080
534.0572, 2792.622
534.5393, 2790.917
535.0214, 2790.735
535.5035, 2791.318
535.9857, 2792.073
536.4678, 2794.010
536.9499, 2794.504
537.4320, 2792.843
537.9141, 2789.856
538.3962, 2787.494
538.8784, 2785.731
539.3605, 2784.498
539.8426, 2783.630
540.3247, 2783.208
540.8068, 2784.616
541.2889, 2788.089
541.7711, 2790.763
542.2532, 2789.190
542.7353, 2784.886
543.2174, 2782.333
543.6995, 2782.229
544.1816, 2783.491
544.6638, 2786.035
545.1459, 2789.069
545.6280, 2791.083
546.1101, 2790.422
546.5922, 2789.526
547.0743, 2789.803
547.5565, 2791.014
548.0386, 2792.303
548.5207, 2793.346
549.0028, 2794.369
549.4849, 2795.397
549.9670, 2796.330
550.4492, 2797.639
550.9313, 2799.638
551.4134, 2801.732
551.8955, 2803.510
552.3776, 2804.937
552.8597, 2806.314
553.3419, 2808.094
553.8240, 2809.473
554.3061, 2808.132
554.7882, 2803.852
555.2703, 2800.650
555.7524, 2800.359
556.2346, 2802.164
556.7167, 2804.579
557.1988, 2807.509
557.6809, 2809.613
558.1630, 2809.596
558.6451, 2808.249
559.1273, 2806.229
559.6094, 2803.309
560.0915, 2801.570
560.5736, 2803.251
561.0557, 2806.456
561.5378, 2808.999
562.0200, 2810.320
562.5021, 2810.787
562.9842, 2810.441
563.4663, 2809.310
563.9484, 2807.425
564.4305, 2804.095
564.9127, 2800.917
565.3948, 2798.188
565.8769, 2795.933
566.3590, 2794.796
566.8411, 2795.325
567.3232, 2795.790
567.8054, 2794.914
568.2875, 2792.710
568.7696, 2790.144
569.2517, 2787.107
569.7338, 2784.381
570.2159, 2783.379
570.6981, 2783.589
571.1802, 2783.115
571.6623, 2780.661
572.1444, 2778.168
572.6265, 2778.364
573.1086, 2780.352
573.5908, 2781.289
574.0729, 2777.943
574.5550, 2774.610
575.0371, 2774.146
575.5192, 2776.817
576.0013, 2779.418
576.4835, 2782.172
576.9656, 2783.868
577.4477, 2783.543
577.9298, 2778.997
578.4119, 2776.594
578.8940, 2776.646
579.3762, 2778.568
579.8583, 2782.122
580.3404, 2787.907
580.8225, 2792.236
581.3046, 2794.213
581.7867, 2794.257
582.2689, 2793.304
582.7510, 2791.340
583.2331, 2788.432
583.7152, 2783.718
584.1973, 2778.393
584.6794, 2774.625
585.1616, 2772.427
585.6437, 2770.732
586.1258, 2768.727
586.6079, 2766.931
587.0900, 2765.950
