##NAMES=Dundasite
##RRUFFID=R090038
##IDEAL CHEMISTRY=Pb^2+^Al_2_(CO_3_)_2_(OH)_4_&#183;H_2_O
##LOCALITY=Tsumeb, Namibia
##OWNER=RRUFF
##SOURCE=William W. Pinch
##DESCRIPTION=Colorless acicular crystals in spherical aggregates on matrix.
##STATUS=The identification of this mineral has been confirmed by single-crystal X-ray diffraction.
##URL=rruff.info/R090038
91.11523, 35.56335
91.59735, 36.80208
92.07947, 35.79513
92.56158, 33.19884
93.04370, 31.07718
93.52582, 30.92450
94.00793, 32.05002
94.49006, 33.02920
94.97218, 33.73669
95.45429, 34.22272
95.93641, 34.76722
96.41853, 35.35447
96.90064, 35.33974
97.38276, 33.57493
97.86488, 30.32156
98.34699, 28.60959
98.82911, 29.40829
99.31123, 31.82236
99.79334, 32.80725
100.2755, 32.09663
100.7576, 30.84931
101.2397, 29.89097
101.7218, 29.11208
102.2039, 29.19186
102.6861, 30.68565
103.1682, 33.57821
103.6503, 34.91697
104.1324, 34.03840
104.6145, 32.35428
105.0966, 31.63204
105.5788, 32.64468
106.0609, 33.28025
106.5430, 32.83506
107.0251, 30.80661
107.5072, 29.45990
107.9893, 28.67557
108.4715, 28.59789
108.9536, 29.49107
109.4357, 32.92168
109.9178, 35.93044
110.3999, 37.53804
110.8820, 36.53146
111.3642, 36.10074
111.8463, 36.50871
112.3284, 37.58766
112.8105, 38.86242
113.2926, 39.61918
113.7747, 41.02062
114.2569, 43.63044
114.7390, 47.60038
115.2211, 52.71552
115.7032, 60.16526
116.1853, 69.25844
116.6674, 76.45732
117.1496, 77.59995
117.6317, 77.80724
118.1138, 81.28493
118.5959, 92.64450
119.0780, 104.7245
119.5602, 113.3511
120.0423, 118.8114
120.5244, 125.6789
121.0065, 137.7913
121.4886, 152.5936
121.9707, 166.7754
122.4529, 178.1175
122.9350, 188.6386
123.4171, 199.7377
123.8992, 211.4558
124.3813, 224.0030
124.8634, 238.7368
125.3456, 254.5382
125.8277, 268.9248
126.3098, 278.5883
126.7919, 286.5615
127.2740, 297.4598
127.7561, 312.0011
128.2383, 328.0569
128.7204, 343.3179
129.2025, 357.9279
129.6846, 372.6423
130.1667, 387.9597
130.6488, 403.5960
131.1310, 419.7111
131.6131, 436.4594
132.0952, 453.4144
132.5773, 469.7685
133.0594, 485.5821
133.5415, 501.2045
134.0237, 517.1840
134.5058, 533.5383
134.9879, 549.3730
135.4700, 564.7385
135.9521, 579.4916
136.4343, 593.4705
136.9164, 606.5639
137.3985, 619.5226
137.8806, 633.3194
138.3627, 648.2731
138.8448, 662.6234
139.3270, 676.4679
139.8091, 689.7391
140.2912, 700.7205
140.7733, 708.3186
141.2554, 715.7312
141.7375, 726.2704
142.2197, 740.9718
142.7018, 756.3690
143.1839, 771.8914
143.6660, 787.5023
144.1481, 802.7473
144.6302, 816.8945
145.1124, 831.1854
145.5945, 846.8425
146.0766, 864.1465
146.5587, 882.7296
147.0408, 903.2186
147.5230, 926.8817
148.0051, 947.0274
148.4872, 957.7496
148.9693, 959.8024
149.4514, 962.3633
149.9335, 965.8535
150.4157, 969.4949
150.8978, 973.2955
151.3799, 978.6357
151.8620, 981.5390
152.3441, 981.1481
152.8262, 978.5505
153.3084, 975.7332
153.7905, 973.0272
154.2726, 969.9671
154.7547, 966.2742
155.2368, 961.4235
155.7189, 956.8744
156.2011, 952.5568
156.6832, 948.5753
157.1653, 945.3508
157.6474, 942.0441
158.1295, 940.0740
158.6116, 940.1490
159.0938, 942.7092
159.5759, 946.7470
160.0580, 952.4424
160.5401, 959.4849
161.0222, 966.8639
161.5044, 973.2640
161.9865, 980.4152
162.4686, 989.5273
162.9507, 1002.079
163.4328, 1015.263
163.9149, 1028.221
164.3971, 1041.086
164.8792, 1053.879
165.3613, 1066.016
165.8434, 1078.375
166.3255, 1091.838
166.8076, 1108.224
167.2898, 1124.269
167.7719, 1138.533
168.2540, 1151.063
168.7361, 1162.049
169.2182, 1172.913
169.7003, 1181.969
170.1825, 1187.191
170.6646, 1186.862
171.1467, 1183.126
171.6288, 1177.030
172.1109, 1168.676
172.5931, 1159.352
173.0752, 1149.552
173.5573, 1139.441
174.0394, 1129.253
174.5215, 1119.111
175.0036, 1108.960
175.4858, 1098.964
175.9679, 1089.036
176.4500, 1079.103
176.9321, 1068.507
177.4142, 1057.683
177.8963, 1047.818
178.3785, 1039.323
178.8606, 1031.958
179.3427, 1025.587
179.8248, 1020.132
180.3069, 1015.616
180.7890, 1012.060
181.2712, 1009.473
181.7533, 1007.963
182.2354, 1008.151
182.7175, 1009.384
183.1996, 1010.358
183.6818, 1011.059
184.1639, 1011.410
184.6460, 1010.486
185.1281, 1008.745
185.6102, 1008.591
186.0923, 1012.727
186.5745, 1019.548
187.0566, 1023.556
187.5387, 1024.230
188.0208, 1023.406
188.5029, 1023.135
188.9850, 1023.448
189.4672, 1024.598
189.9493, 1026.980
190.4314, 1030.401
190.9135, 1034.198
191.3956, 1038.610
191.8777, 1042.690
192.3599, 1045.341
192.8420, 1046.548
193.3241, 1046.063
193.8062, 1043.262
194.2883, 1038.297
194.7704, 1033.434
195.2526, 1029.017
195.7347, 1024.252
196.2168, 1017.582
196.6989, 1008.905
197.1810, 999.3727
197.6632, 989.0754
198.1453, 977.9210
198.6274, 968.2841
199.1095, 960.6186
199.5916, 954.0217
200.0737, 946.9030
200.5559, 939.2349
201.0380, 931.1074
201.5201, 922.5775
202.0022, 913.5760
202.4843, 904.1758
202.9664, 894.0591
203.4486, 883.9108
203.9307, 875.4714
204.4128, 869.1627
204.8949, 863.2111
205.3770, 856.8358
205.8591, 850.0710
206.3413, 842.6014
206.8234, 834.3422
207.3055, 825.3956
207.7876, 815.7122
208.2697, 804.9017
208.7519, 794.6681
209.2340, 785.9496
209.7161, 778.9850
210.1982, 772.2892
210.6803, 765.8231
211.1624, 759.5515
211.6446, 753.1130
212.1267, 746.0392
212.6088, 740.0958
213.0909, 736.4606
213.5730, 735.8086
214.0551, 734.8139
214.5373, 732.9118
215.0194, 730.7592
215.5015, 730.2727
215.9836, 731.9186
216.4657, 734.3108
216.9478, 736.7728
217.4300, 739.1870
217.9121, 742.0886
218.3942, 745.6600
218.8763, 749.6326
219.3584, 752.9049
219.8405, 754.3737
220.3227, 757.0944
220.8048, 763.0793
221.2869, 774.1834
221.7690, 783.1602
222.2511, 788.7805
222.7333, 792.3800
223.2154, 797.7910
223.6975, 806.0157
224.1796, 814.4837
224.6617, 821.8242
225.1438, 827.2092
225.6260, 833.5846
226.1081, 840.6801
226.5902, 848.9162
227.0723, 859.3620
227.5544, 872.9703
228.0365, 887.5066
228.5187, 902.0872
229.0008, 916.9439
229.4829, 931.2288
229.9650, 945.0937
230.4471, 958.4034
230.9292, 971.0308
231.4114, 983.5192
231.8935, 994.6790
232.3756, 1004.197
232.8577, 1013.467
233.3398, 1018.107
233.8220, 1017.907
234.3041, 1013.142
234.7862, 1004.723
235.2683, 993.7274
235.7504, 977.5369
236.2325, 953.8331
236.7147, 919.0927
237.1968, 887.0831
237.6789, 858.9308
238.1610, 833.1047
238.6431, 806.2418
239.1252, 777.0694
239.6074, 748.3770
240.0895, 720.8103
240.5716, 694.0422
241.0537, 670.0732
241.5358, 648.9563
242.0179, 630.5861
242.5001, 615.0085
242.9822, 603.3978
243.4643, 592.6209
243.9464, 581.3785
244.4285, 568.8539
244.9106, 558.4743
245.3928, 550.7632
245.8749, 544.7778
246.3570, 538.9698
246.8391, 533.4455
247.3212, 527.8862
247.8034, 522.0438
248.2855, 515.6075
248.7676, 510.1637
249.2497, 505.8993
249.7318, 502.4578
250.2139, 499.2833
250.6961, 496.2079
251.1782, 493.7458
251.6603, 492.2627
252.1424, 492.0615
252.6245, 490.9865
253.1066, 488.6102
253.5888, 485.7506
254.0709, 483.4032
254.5530, 481.6216
255.0351, 480.2313
255.5172, 479.1700
255.9993, 478.4083
256.4815, 478.2685
256.9636, 479.1147
257.4457, 480.1872
257.9278, 480.6266
258.4099, 480.2804
258.8921, 479.6073
259.3742, 478.4816
259.8563, 476.8922
260.3384, 476.2372
260.8205, 476.8733
261.3026, 477.9796
261.7848, 478.7365
262.2669, 478.9662
262.7490, 479.2755
263.2311, 479.5356
263.7132, 479.8241
264.1953, 481.6555
264.6775, 485.7246
265.1596, 490.1904
265.6417, 493.5600
266.1238, 495.8006
266.6059, 496.8874
267.0880, 496.1269
267.5702, 494.0436
268.0523, 494.7325
268.5344, 499.5316
269.0165, 504.3708
269.4986, 505.6535
269.9807, 502.2318
270.4629, 500.4796
270.9450, 501.5738
271.4271, 504.8523
271.9092, 507.7481
272.3913, 510.2777
272.8734, 512.3733
273.3556, 513.9732
273.8377, 515.0582
274.3198, 515.6069
274.8019, 515.2173
275.2840, 514.5807
275.7661, 515.8958
276.2483, 519.5880
276.7304, 523.4323
277.2125, 526.0583
277.6946, 527.4116
278.1768, 528.5182
278.6589, 529.2729
279.1410, 530.0396
279.6231, 531.8409
280.1052, 534.9167
280.5873, 537.5457
281.0695, 538.4537
281.5516, 537.6804
282.0337, 537.8560
282.5158, 539.1823
282.9979, 541.1789
283.4800, 543.4553
283.9622, 546.0620
284.4443, 547.7784
284.9264, 547.2405
285.4085, 544.8804
285.8906, 544.7853
286.3727, 547.2508
286.8549, 550.8893
287.3370, 554.2316
287.8191, 557.2667
288.3012, 559.7913
288.7833, 561.1984
289.2654, 562.0251
289.7476, 564.5731
290.2297, 569.0192
290.7118, 573.8359
291.1939, 577.5692
291.6760, 580.2822
292.1581, 582.4684
292.6403, 583.9476
293.1224, 585.1833
293.6045, 587.9021
294.0866, 592.1036
294.5687, 595.3846
295.0508, 595.1843
295.5330, 592.2411
296.0151, 589.0760
296.4972, 586.1528
296.9793, 583.3931
297.4614, 581.0437
297.9435, 578.9879
298.4257, 576.3841
298.9078, 572.3259
299.3899, 567.2983
299.8720, 562.3599
300.3541, 557.5177
300.8362, 553.0927
301.3184, 549.7018
301.8005, 547.1233
302.2826, 544.5883
302.7647, 541.2603
303.2469, 537.7849
303.7290, 535.1122
304.2111, 533.4838
304.6932, 532.2393
305.1753, 530.6373
305.6574, 528.9294
306.1396, 527.7802
306.6217, 527.4465
307.1038, 527.8573
307.5859, 529.1463
308.0680, 531.4041
308.5501, 533.7201
309.0323, 535.4756
309.5144, 536.8284
309.9965, 538.0253
310.4786, 539.2781
310.9607, 540.3517
311.4428, 541.1687
311.9250, 541.7173
312.4071, 541.7741
312.8892, 540.7487
313.3713, 539.3370
313.8534, 538.2665
314.3355, 538.6372
314.8177, 538.6342
315.2998, 536.8929
315.7819, 533.7705
316.2640, 531.1248
316.7461, 530.6003
317.2282, 530.4371
317.7104, 529.3041
318.1925, 526.7730
318.6746, 523.4327
319.1567, 519.3829
319.6388, 514.6447
320.1209, 509.3786
320.6031, 503.8357
321.0852, 497.6290
321.5673, 490.3129
322.0494, 481.0905
322.5315, 472.5146
323.0136, 465.7583
323.4958, 459.8737
323.9779, 453.3186
324.4600, 443.6696
324.9421, 435.2518
325.4242, 430.2241
325.9064, 429.7689
326.3885, 427.6505
326.8706, 421.1319
327.3527, 413.6454
327.8348, 408.7218
328.3170, 408.8969
328.7991, 409.0453
329.2812, 408.3829
329.7633, 406.8819
330.2454, 405.4583
330.7275, 404.0698
331.2097, 402.7909
331.6918, 401.6753
332.1739, 400.7265
332.6560, 399.8855
333.1381, 398.9671
333.6202, 398.1134
334.1024, 398.1972
334.5845, 399.8649
335.0666, 401.4963
335.5487, 402.1865
336.0308, 401.5612
336.5129, 401.0703
336.9951, 400.7647
337.4772, 400.6149
337.9593, 400.5053
338.4414, 400.3665
338.9235, 400.5196
339.4056, 401.2782
339.8878, 402.7304
340.3699, 403.4672
340.8520, 403.2207
341.3341, 402.7863
341.8162, 403.3120
342.2983, 404.8881
342.7805, 406.3841
343.2626, 407.4229
343.7447, 408.0840
344.2268, 408.6812
344.7089, 409.1800
345.1910, 409.7979
345.6732, 410.7388
346.1553, 411.9865
346.6374, 413.3699
347.1195, 414.9094
347.6016, 416.5182
348.0837, 418.0947
348.5659, 419.6467
349.0480, 421.0260
349.5301, 422.1280
350.0122, 422.9923
350.4944, 423.6764
350.9765, 424.2070
351.4586, 424.5276
351.9407, 424.2245
352.4228, 423.5663
352.9049, 423.4340
353.3871, 425.1584
353.8692, 427.2897
354.3513, 427.7726
354.8334, 426.4513
355.3155, 424.6290
355.7976, 422.8432
356.2798, 421.3070
356.7619, 420.3469
357.2440, 420.1465
357.7261, 420.5195
358.2082, 421.6736
358.6903, 423.4637
359.1725, 424.9179
359.6546, 425.2261
360.1367, 425.0976
360.6188, 425.1523
361.1009, 425.6384
361.5830, 426.1729
362.0652, 426.7749
362.5473, 427.3182
363.0294, 427.4898
363.5115, 426.9782
363.9936, 426.2345
364.4757, 425.3122
364.9579, 423.8902
365.4400, 423.3660
365.9221, 424.7203
366.4042, 426.9093
366.8863, 428.6085
367.3684, 429.5391
367.8506, 430.0789
368.3327, 430.1255
368.8148, 429.6157
369.2969, 429.5081
369.7790, 430.0523
370.2611, 430.8279
370.7433, 431.5634
371.2254, 432.3590
371.7075, 432.9459
372.1896, 433.3573
372.6717, 433.5436
373.1538, 433.2720
373.6360, 432.3473
374.1181, 431.2719
374.6002, 430.2387
375.0823, 429.1654
375.5645, 428.4034
376.0466, 428.0080
376.5287, 427.8701
377.0108, 427.9665
377.4929, 428.4480
377.9750, 428.4073
378.4572, 427.1985
378.9393, 425.0418
379.4214, 424.3050
379.9035, 425.2764
380.3856, 426.4977
380.8677, 426.3975
381.3499, 425.0773
381.8320, 423.8588
382.3141, 422.9833
382.7962, 422.3963
383.2783, 421.9529
383.7604, 421.6573
384.2426, 421.5938
384.7247, 421.8166
385.2068, 422.3043
385.6889, 423.0944
386.1710, 424.2455
386.6531, 425.4301
387.1353, 426.2088
387.6174, 426.7408
388.0995, 427.4444
388.5816, 428.8420
389.0637, 430.3294
389.5458, 431.1833
390.0280, 431.4218
390.5101, 431.7539
390.9922, 433.1680
391.4743, 434.7353
391.9564, 435.3467
392.4385, 433.3905
392.9207, 431.9785
393.4028, 433.2901
393.8849, 436.5269
394.3670, 439.3223
394.8491, 440.7729
395.3312, 441.5040
395.8134, 441.7047
396.2955, 441.0613
396.7776, 440.8507
397.2597, 441.6412
397.7418, 442.9283
398.2239, 444.0630
398.7061, 444.8070
399.1882, 445.5453
399.6703, 446.5307
400.1524, 447.8050
400.6346, 448.4418
401.1167, 448.4235
401.5988, 447.7849
402.0809, 446.4492
402.5630, 443.7716
403.0451, 441.6543
403.5273, 440.3638
404.0094, 439.6779
404.4915, 438.9109
404.9736, 437.7938
405.4557, 437.2386
405.9378, 437.9038
406.4200, 439.9612
406.9021, 441.1589
407.3842, 441.3527
407.8663, 441.0055
408.3484, 440.5904
408.8305, 440.1078
409.3127, 439.7393
409.7948, 439.6152
410.2769, 439.6093
410.7590, 439.2069
411.2411, 438.4105
411.7232, 437.9067
412.2054, 438.4357
412.6875, 439.6747
413.1696, 440.5023
413.6517, 440.5101
414.1338, 440.9171
414.6159, 444.0837
415.0981, 448.9200
415.5802, 452.4339
416.0623, 451.2821
416.5444, 449.0944
417.0265, 449.9581
417.5086, 453.9596
417.9908, 457.8242
418.4729, 458.7456
418.9550, 458.7094
419.4371, 459.8622
419.9192, 464.1331
420.4013, 468.1138
420.8835, 469.7644
421.3656, 469.8961
421.8477, 470.9802
422.3298, 474.8105
422.8119, 478.8915
423.2940, 482.0656
423.7762, 483.8744
424.2583, 485.7793
424.7404, 487.6173
425.2225, 489.7407
425.7047, 492.6234
426.1868, 497.1605
426.6689, 501.2481
427.1510, 504.6420
427.6331, 507.3362
428.1152, 509.3658
428.5974, 510.4131
429.0795, 511.3052
429.5616, 512.7074
430.0437, 514.9616
430.5258, 516.0804
431.0079, 515.4975
431.4901, 514.3268
431.9722, 514.8552
432.4543, 517.2906
432.9364, 519.2372
433.4185, 519.5508
433.9006, 518.5896
434.3828, 518.0307
434.8649, 517.9186
435.3470, 517.6757
435.8291, 517.0373
436.3112, 515.8737
436.7933, 513.6354
437.2755, 509.8940
437.7576, 505.7411
438.2397, 502.6581
438.7218, 500.3960
439.2039, 498.1101
439.6860, 495.1600
440.1682, 492.0342
440.6503, 489.3701
441.1324, 487.1934
441.6145, 484.9787
442.0966, 482.0689
442.5787, 479.0749
443.0609, 476.6631
443.5430, 476.0322
444.0251, 474.9358
444.5072, 472.3003
444.9893, 468.4877
445.4714, 464.8056
445.9536, 460.9125
446.4357, 457.7129
446.9178, 455.8159
447.3999, 456.0183
447.8820, 455.4356
448.3641, 453.0825
448.8463, 450.4605
449.3284, 449.2447
449.8105, 450.4732
450.2926, 451.2487
450.7747, 450.9625
451.2569, 449.7968
451.7390, 448.8756
452.2211, 448.2175
452.7032, 447.7125
453.1853, 447.4189
453.6674, 447.3633
454.1496, 446.6008
454.6317, 444.7460
455.1138, 443.0313
455.5959, 443.8961
456.0780, 447.0497
456.5602, 449.1083
457.0423, 448.1808
457.5244, 445.8702
458.0065, 445.5851
458.4886, 447.1708
458.9707, 448.8201
459.4529, 449.0839
459.9350, 448.6090
460.4171, 448.4718
460.8992, 449.0395
461.3813, 449.2557
461.8634, 447.2803
462.3456, 444.5415
462.8277, 443.4880
463.3098, 446.9732
463.7919, 450.7377
464.2740, 452.5009
464.7561, 452.3188
465.2383, 452.0233
465.7204, 452.2104
466.2025, 452.4071
466.6846, 452.2627
467.1667, 450.9903
467.6488, 450.5757
468.1310, 451.5175
468.6131, 453.2601
469.0952, 454.9869
469.5773, 456.8560
470.0594, 458.4612
470.5415, 459.8077
471.0237, 460.8750
471.5058, 461.0852
471.9879, 460.0691
472.4700, 459.0292
472.9521, 458.9333
473.4342, 459.8266
473.9164, 460.7092
474.3985, 461.4468
474.8806, 462.2550
475.3627, 463.8755
475.8448, 466.1644
476.3270, 467.6106
476.8091, 467.0495
477.2912, 465.4153
477.7733, 464.7414
478.2554, 464.9435
478.7375, 464.7420
479.2197, 462.6070
479.7018, 459.6597
480.1839, 457.5259
480.6660, 456.7585
481.1481, 456.1953
481.6302, 454.7672
482.1124, 453.0780
482.5945, 452.1503
483.0766, 453.6664
483.5587, 454.8240
484.0408, 453.9918
484.5229, 451.2175
485.0051, 449.1353
485.4872, 449.1618
485.9693, 449.3492
486.4514, 448.4960
486.9335, 445.4404
487.4156, 443.3439
487.8978, 442.5377
488.3799, 442.5253
488.8620, 442.6123
489.3441, 443.0536
489.8262, 442.9220
490.3083, 441.7212
490.7905, 439.6780
491.2726, 438.6455
491.7547, 438.8040
492.2368, 439.0576
492.7189, 438.4199
493.2010, 437.0591
493.6832, 436.1743
494.1653, 435.8600
494.6474, 436.0455
495.1295, 436.9013
495.6116, 438.2173
496.0938, 439.3633
496.5759, 440.0890
497.0580, 440.5244
497.5401, 440.5141
498.0222, 440.2068
498.5044, 440.3647
498.9865, 441.9355
499.4686, 443.8312
499.9507, 445.2279
500.4328, 445.9799
500.9149, 446.3302
501.3971, 446.0577
501.8792, 445.5493
502.3613, 445.2525
502.8434, 445.8733
503.3255, 445.9792
503.8076, 444.6411
504.2898, 442.4034
504.7719, 441.9730
505.2540, 444.7463
505.7361, 447.2499
506.2182, 447.7912
506.7003, 445.8975
507.1825, 445.2153
507.6646, 446.1171
508.1467, 447.4365
508.6288, 447.8729
509.1109, 447.4336
509.5930, 446.9192
510.0752, 446.4471
510.5573, 446.0602
511.0394, 445.7698
511.5215, 445.6064
512.0037, 445.7435
512.4858, 446.4383
512.9679, 447.4239
513.4500, 448.4362
513.9321, 449.4575
514.4142, 450.1998
514.8964, 450.1765
515.3785, 449.8895
515.8606, 449.8681
516.3427, 450.2672
516.8248, 450.8818
517.3069, 451.8902
517.7891, 453.0252
518.2712, 453.7966
518.7533, 453.7924
519.2354, 453.7119
519.7175, 453.7695
520.1996, 453.9641
520.6818, 453.9755
521.1639, 453.3789
521.6460, 453.1267
522.1281, 453.9118
522.6102, 456.1345
523.0923, 457.8344
523.5745, 458.8828
524.0566, 459.5531
524.5387, 460.3143
525.0208, 461.1701
525.5029, 461.4607
525.9850, 460.3831
526.4672, 459.1591
526.9493, 461.1572
527.4314, 466.0119
527.9135, 470.2845
528.3956, 471.2826
528.8777, 470.7263
529.3599, 470.9642
529.8420, 472.2425
530.3241, 473.5705
530.8062, 474.2809
531.2883, 474.7032
531.7704, 475.1518
532.2526, 475.0350
532.7347, 475.8569
533.2168, 478.9932
533.6989, 483.3833
534.1810, 486.6258
534.6631, 487.3739
535.1453, 487.9145
535.6274, 488.6422
536.1095, 489.5530
536.5916, 491.3256
537.0737, 494.5807
537.5558, 497.7701
538.0380, 499.5695
538.5201, 499.6341
539.0022, 500.8815
539.4843, 503.6540
539.9664, 507.1765
540.4485, 510.3534
540.9307, 513.2004
541.4128, 516.0496
541.8949, 519.2375
542.3770, 522.1996
542.8591, 523.5535
543.3412, 523.6298
543.8234, 524.2892
544.3055, 527.6124
544.7876, 531.4921
545.2697, 533.6099
545.7518, 533.6043
546.2339, 533.7888
546.7161, 535.4734
547.1982, 537.7617
547.6803, 539.8924
548.1624, 541.0622
548.6445, 542.8798
549.1266, 546.1698
549.6088, 550.1820
550.0909, 553.4342
550.5730, 555.9874
551.0551, 557.6715
551.5372, 558.0089
552.0193, 557.2511
552.5015, 557.9806
552.9836, 560.4812
553.4657, 563.4749
553.9478, 566.2751
554.4299, 568.8644
554.9120, 571.0731
555.3942, 572.8398
555.8763, 574.3459
556.3584, 575.5847
556.8405, 576.7035
557.3226, 578.0512
557.8047, 579.5541
558.2869, 581.5908
558.7690, 585.1961
559.2511, 589.6633
559.7332, 593.1674
560.2154, 594.2380
560.6975, 594.6959
561.1796, 595.3607
561.6617, 596.2926
562.1439, 597.4590
562.6260, 600.0626
563.1081, 601.9788
563.5902, 601.7613
564.0723, 596.8760
564.5544, 595.5277
565.0366, 599.5397
565.5187, 605.2874
566.0008, 607.5281
566.4829, 605.5576
566.9650, 604.0758
567.4471, 604.1868
567.9293, 605.3024
568.4114, 606.2827
568.8935, 607.0850
569.3756, 607.0856
569.8577, 605.5806
570.3398, 603.1424
570.8220, 600.7230
571.3041, 598.3210
571.7862, 596.0375
572.2683, 594.2722
572.7504, 592.4735
573.2325, 590.0358
573.7147, 586.7333
574.1968, 583.1284
574.6789, 579.0425
575.1610, 574.9277
575.6431, 571.3143
576.1252, 568.9551
576.6074, 566.3810
577.0895, 563.4670
577.5716, 560.1949
578.0537, 556.3289
578.5358, 551.5033
579.0179, 546.9504
579.5001, 543.3415
579.9822, 540.5582
580.4643, 537.0618
580.9464, 532.7388
581.4285, 528.4758
581.9106, 524.9670
582.3928, 522.0936
582.8749, 519.6780
583.3570, 517.8475
583.8391, 515.6510
584.3212, 511.6922
584.8033, 506.7795
585.2855, 502.2725
585.7676, 498.9834
586.2497, 495.8771
586.7318, 492.1944
587.2139, 488.2401
587.6960, 484.8860
588.1782, 482.6338
588.6603, 480.7401
