##NAMES=Dundasite
##RRUFFID=R060760
##IDEAL CHEMISTRY=Pb^2+^Al_2_(CO_3_)_2_(OH)_4_&#183;H_2_O
##LOCALITY=Daoping mine, Guangxi, China
##OWNER=RRUFF
##SOURCE=Michael Scott
##DESCRIPTION=Spherical aggregates of pale green acicular crystals, associated with colorless cerussite, anglesite, and blue linarite R120094.
##STATUS=The identification of this mineral has been made only by X-ray diffraction.
##URL=rruff.info/R060760
156.6832, 3921.989
157.1653, 3915.878
157.6474, 3918.142
158.1295, 3923.876
158.6116, 3930.789
159.0938, 3940.316
159.5759, 3948.282
160.0580, 3952.339
160.5401, 3953.617
161.0222, 3956.097
161.5044, 3961.812
161.9865, 3968.651
162.4686, 3975.130
162.9507, 3979.637
163.4328, 3985.094
163.9149, 3993.233
164.3971, 4003.637
164.8792, 4013.878
165.3613, 4022.088
165.8434, 4029.985
166.3255, 4039.197
166.8076, 4051.663
167.2898, 4064.250
167.7719, 4075.488
168.2540, 4085.460
168.7361, 4094.583
169.2182, 4102.716
169.7003, 4110.295
170.1825, 4117.830
170.6646, 4126.271
171.1467, 4134.198
171.6288, 4140.437
172.1109, 4144.939
172.5931, 4148.678
173.0752, 4153.851
173.5573, 4158.473
174.0394, 4159.346
174.5215, 4152.434
175.0036, 4142.451
175.4858, 4133.735
175.9679, 4126.199
176.4500, 4121.254
176.9321, 4122.021
177.4142, 4126.344
177.8963, 4129.283
178.3785, 4128.342
178.8606, 4124.898
179.3427, 4121.053
179.8248, 4116.861
180.3069, 4112.036
180.7890, 4104.454
181.2712, 4095.550
181.7533, 4090.055
182.2354, 4092.786
182.7175, 4100.154
183.1996, 4104.033
183.6818, 4103.780
184.1639, 4102.468
184.6460, 4104.448
185.1281, 4108.947
185.6102, 4112.008
186.0923, 4110.299
186.5745, 4105.491
187.0566, 4103.272
187.5387, 4104.315
188.0208, 4106.363
188.5029, 4106.448
188.9850, 4104.712
189.4672, 4102.493
189.9493, 4099.374
190.4314, 4096.017
190.9135, 4096.307
191.3956, 4101.355
191.8777, 4107.851
192.3599, 4110.610
192.8420, 4109.599
193.3241, 4107.901
193.8062, 4107.617
194.2883, 4108.420
194.7704, 4106.857
195.2526, 4102.438
195.7347, 4095.948
196.2168, 4087.561
196.6989, 4076.841
197.1810, 4068.468
197.6632, 4066.595
198.1453, 4071.135
198.6274, 4071.737
199.1095, 4066.809
199.5916, 4059.137
200.0737, 4054.948
200.5559, 4054.813
201.0380, 4054.604
201.5201, 4051.064
202.0022, 4043.717
202.4843, 4041.030
202.9664, 4045.116
203.4486, 4052.599
203.9307, 4055.472
204.4128, 4053.000
204.8949, 4049.091
205.3770, 4045.244
205.8591, 4041.173
206.3413, 4039.414
206.8234, 4040.921
207.3055, 4044.083
207.7876, 4044.290
208.2697, 4040.308
208.7519, 4036.777
209.2340, 4036.731
209.7161, 4041.214
210.1982, 4043.453
210.6803, 4042.414
211.1624, 4039.277
211.6446, 4037.365
212.1267, 4037.179
212.6088, 4037.169
213.0909, 4036.157
213.5730, 4033.365
214.0551, 4033.017
214.5373, 4035.974
215.0194, 4041.340
215.5015, 4046.527
215.9836, 4051.324
216.4657, 4056.554
216.9478, 4062.876
217.4300, 4070.745
217.9121, 4078.102
218.3942, 4084.453
218.8763, 4090.204
219.3584, 4096.870
219.8405, 4105.349
220.3227, 4112.727
220.8048, 4116.957
221.2869, 4116.135
221.7690, 4117.604
222.2511, 4122.243
222.7333, 4129.114
223.2154, 4135.421
223.6975, 4141.261
224.1796, 4146.631
224.6617, 4151.537
225.1438, 4155.890
225.6260, 4160.118
226.1081, 4163.420
226.5902, 4166.964
227.0723, 4174.116
227.5544, 4186.859
228.0365, 4200.351
228.5187, 4212.211
229.0008, 4221.230
229.4829, 4231.365
229.9650, 4242.387
230.4471, 4254.577
230.9292, 4269.548
231.4114, 4291.065
231.8935, 4309.610
232.3756, 4320.345
232.8577, 4320.019
233.3398, 4319.769
233.8220, 4320.308
234.3041, 4320.616
234.7862, 4318.497
235.2683, 4314.925
235.7504, 4307.558
236.2325, 4294.785
236.7147, 4274.589
237.1968, 4254.992
237.6789, 4236.019
238.1610, 4217.863
238.6431, 4200.860
239.1252, 4184.747
239.6074, 4170.154
240.0895, 4157.033
240.5716, 4144.814
241.0537, 4136.297
241.5358, 4132.424
242.0179, 4131.767
242.5001, 4131.869
242.9822, 4133.887
243.4643, 4134.525
243.9464, 4131.786
244.4285, 4123.264
244.9106, 4119.113
245.3928, 4121.374
245.8749, 4126.539
246.3570, 4128.240
246.8391, 4123.851
247.3212, 4120.358
247.8034, 4120.418
248.2855, 4125.230
248.7676, 4128.525
249.2497, 4129.713
249.7318, 4129.939
250.2139, 4130.967
250.6961, 4133.353
251.1782, 4135.749
251.6603, 4137.908
252.1424, 4139.938
252.6245, 4141.544
253.1066, 4142.740
253.5888, 4143.618
254.0709, 4144.269
254.5530, 4144.641
255.0351, 4144.846
255.5172, 4144.502
255.9993, 4143.338
256.4815, 4144.485
256.9636, 4149.091
257.4457, 4154.707
257.9278, 4158.730
258.4099, 4161.128
258.8921, 4161.849
259.3742, 4160.122
259.8563, 4155.890
260.3384, 4154.382
260.8205, 4157.171
261.3026, 4160.623
261.7848, 4160.541
262.2669, 4154.817
262.7490, 4151.558
263.2311, 4153.297
263.7132, 4159.606
264.1953, 4163.368
264.6775, 4163.627
265.1596, 4162.800
265.6417, 4162.791
266.1238, 4163.532
266.6059, 4165.292
267.0880, 4168.229
267.5702, 4172.259
268.0523, 4177.154
268.5344, 4184.143
269.0165, 4189.576
269.4986, 4189.638
269.9807, 4182.427
270.4629, 4178.510
270.9450, 4180.115
271.4271, 4185.802
271.9092, 4189.507
272.3913, 4190.422
272.8734, 4191.600
273.3556, 4195.480
273.8377, 4202.581
274.3198, 4208.695
274.8019, 4213.525
275.2840, 4217.083
275.7661, 4219.107
276.2483, 4219.194
276.7304, 4219.388
277.2125, 4220.877
277.6946, 4223.735
278.1768, 4227.109
278.6589, 4231.072
279.1410, 4235.435
279.6231, 4239.993
280.1052, 4244.925
280.5873, 4249.347
281.0695, 4253.135
281.5516, 4256.311
282.0337, 4257.150
282.5158, 4254.955
282.9979, 4251.843
283.4800, 4250.856
283.9622, 4251.978
284.4443, 4254.881
284.9264, 4260.796
285.4085, 4269.005
285.8906, 4273.147
286.3727, 4272.375
286.8549, 4270.370
287.3370, 4271.915
287.8191, 4276.853
288.3012, 4282.510
288.7833, 4289.111
289.2654, 4295.606
289.7476, 4297.229
290.2297, 4293.495
290.7118, 4288.950
291.1939, 4288.965
291.6760, 4292.810
292.1581, 4295.808
292.6403, 4296.372
293.1224, 4295.375
293.6045, 4295.119
294.0866, 4295.645
294.5687, 4295.231
295.0508, 4289.715
295.5330, 4281.476
296.0151, 4279.602
296.4972, 4289.104
296.9793, 4302.525
297.4614, 4305.481
297.9435, 4299.202
298.4257, 4293.495
298.9078, 4297.372
299.3899, 4306.872
299.8720, 4313.597
300.3541, 4316.163
300.8362, 4315.411
301.3184, 4310.735
301.8005, 4303.046
302.2826, 4296.270
302.7647, 4291.421
303.2469, 4289.303
303.7290, 4292.224
304.2111, 4301.624
304.6932, 4311.123
305.1753, 4313.730
305.6574, 4311.450
306.1396, 4308.930
306.6217, 4308.615
307.1038, 4309.107
307.5859, 4308.167
308.0680, 4305.321
308.5501, 4304.490
309.0323, 4310.766
309.5144, 4320.687
309.9965, 4328.729
310.4786, 4331.802
310.9607, 4332.844
311.4428, 4333.929
311.9250, 4335.103
312.4071, 4335.693
312.8892, 4333.444
313.3713, 4331.129
313.8534, 4331.688
314.3355, 4339.710
314.8177, 4347.569
315.2998, 4350.956
315.7819, 4350.557
316.2640, 4350.105
316.7461, 4350.938
317.2282, 4352.485
317.7104, 4354.352
318.1925, 4356.753
318.6746, 4358.947
319.1567, 4361.663
319.6388, 4364.080
320.1209, 4363.944
320.6031, 4358.406
321.0852, 4351.736
321.5673, 4346.133
322.0494, 4342.483
322.5315, 4338.584
323.0136, 4332.863
323.4958, 4326.863
323.9779, 4323.070
324.4600, 4323.611
324.9421, 4324.986
325.4242, 4326.196
325.9064, 4327.204
326.3885, 4328.240
326.8706, 4330.670
327.3527, 4332.641
327.8348, 4332.213
328.3170, 4324.054
328.7991, 4319.125
329.2812, 4319.920
329.7633, 4326.541
330.2454, 4332.948
330.7275, 4340.015
331.2097, 4345.921
331.6918, 4349.153
332.1739, 4347.296
332.6560, 4346.483
333.1381, 4347.729
333.6202, 4350.435
334.1024, 4351.888
334.5845, 4351.537
335.0666, 4350.650
335.5487, 4349.626
336.0308, 4347.826
336.5129, 4348.093
336.9951, 4351.460
337.4772, 4356.437
337.9593, 4360.156
338.4414, 4362.686
338.9235, 4364.226
339.4056, 4364.941
339.8878, 4364.917
340.3699, 4363.770
340.8520, 4360.980
341.3341, 4358.183
341.8162, 4357.583
342.2983, 4359.338
342.7805, 4361.342
343.2626, 4362.635
343.7447, 4363.522
344.2268, 4366.179
344.7089, 4370.828
345.1910, 4375.409
345.6732, 4377.225
346.1553, 4376.701
346.6374, 4378.014
347.1195, 4383.197
347.6016, 4389.240
348.0837, 4388.911
348.5659, 4382.623
349.0480, 4376.755
349.5301, 4375.804
350.0122, 4378.718
350.4944, 4383.556
350.9765, 4390.882
351.4586, 4397.644
351.9407, 4399.437
352.4228, 4397.326
352.9049, 4394.720
353.3871, 4392.126
353.8692, 4390.579
354.3513, 4391.962
354.8334, 4396.445
355.3155, 4401.338
355.7976, 4404.171
356.2798, 4405.965
356.7619, 4408.432
357.2440, 4413.015
357.7261, 4417.705
358.2082, 4420.812
358.6903, 4422.483
359.1725, 4424.073
359.6546, 4426.475
360.1367, 4428.993
360.6188, 4431.042
361.1009, 4432.624
361.5830, 4433.449
362.0652, 4432.627
362.5473, 4430.934
363.0294, 4430.264
363.5115, 4432.752
363.9936, 4435.362
364.4757, 4436.364
364.9579, 4434.958
365.4400, 4434.217
365.9221, 4436.399
366.4042, 4439.177
366.8863, 4439.583
367.3684, 4433.217
367.8506, 4428.596
368.3327, 4428.124
368.8148, 4432.202
369.2969, 4436.670
369.7790, 4442.137
370.2611, 4447.540
370.7433, 4452.188
371.2254, 4456.247
371.7075, 4459.073
372.1896, 4459.744
372.6717, 4459.003
373.1538, 4460.359
373.6360, 4465.682
374.1181, 4469.925
374.6002, 4469.942
375.0823, 4463.633
375.5645, 4460.638
376.0466, 4461.712
376.5287, 4465.277
377.0108, 4469.132
377.4929, 4473.403
377.9750, 4477.202
378.4572, 4480.286
378.9393, 4482.697
379.4214, 4484.166
379.9035, 4484.530
380.3856, 4484.731
380.8677, 4485.508
381.3499, 4486.868
381.8320, 4489.023
382.3141, 4492.313
382.7962, 4496.045
383.2783, 4498.380
383.7604, 4499.392
384.2426, 4501.155
384.7247, 4506.646
385.2068, 4513.685
385.6889, 4517.200
386.1710, 4516.152
386.6531, 4513.302
387.1353, 4509.494
387.6174, 4506.033
388.0995, 4506.216
388.5816, 4516.041
389.0637, 4527.729
389.5458, 4532.750
390.0280, 4531.183
390.5101, 4528.995
390.9922, 4530.278
391.4743, 4533.094
391.9564, 4535.365
392.4385, 4536.836
392.9207, 4537.165
393.4028, 4534.924
393.8849, 4531.151
394.3670, 4529.006
394.8491, 4531.042
395.3312, 4533.999
395.8134, 4535.874
396.2955, 4535.669
396.7776, 4536.386
397.2597, 4538.447
397.7418, 4541.824
398.2239, 4546.521
398.7061, 4555.942
399.1882, 4563.226
399.6703, 4566.615
400.1524, 4566.043
400.6346, 4563.862
401.1167, 4556.798
401.5988, 4551.002
402.0809, 4551.135
402.5630, 4562.077
403.0451, 4569.221
403.5273, 4570.312
404.0094, 4567.255
404.4915, 4565.572
404.9736, 4565.966
405.4557, 4565.794
405.9378, 4562.945
406.4200, 4556.815
406.9021, 4555.150
407.3842, 4558.678
407.8663, 4565.037
408.3484, 4572.964
408.8305, 4582.635
409.3127, 4587.893
409.7948, 4586.235
410.2769, 4579.678
410.7590, 4572.578
411.2411, 4564.970
411.7232, 4558.942
412.2054, 4555.862
412.6875, 4555.562
413.1696, 4558.454
413.6517, 4565.728
414.1338, 4572.502
414.6159, 4571.403
415.0981, 4564.873
415.5802, 4559.625
416.0623, 4557.673
416.5444, 4559.358
417.0265, 4566.827
417.5086, 4579.991
417.9908, 4591.829
418.4729, 4597.782
418.9550, 4599.975
419.4371, 4600.445
419.9192, 4597.838
420.4013, 4596.014
420.8835, 4597.294
421.3656, 4600.773
421.8477, 4603.726
422.3298, 4605.415
422.8119, 4606.396
423.2940, 4606.643
423.7762, 4605.503
424.2583, 4605.799
424.7404, 4609.001
425.2225, 4613.385
425.7047, 4617.080
426.1868, 4620.274
426.6689, 4622.483
427.1510, 4623.022
427.6331, 4622.161
428.1152, 4623.169
428.5974, 4627.481
429.0795, 4631.532
429.5616, 4632.845
430.0437, 4630.426
430.5258, 4629.504
431.0079, 4630.735
431.4901, 4632.921
431.9722, 4633.466
432.4543, 4632.034
432.9364, 4632.061
433.4185, 4635.757
433.9006, 4642.017
434.3828, 4645.840
434.8649, 4647.162
435.3470, 4646.996
435.8291, 4646.108
436.3112, 4644.516
436.7933, 4641.978
437.2755, 4637.979
437.7576, 4634.191
438.2397, 4632.968
438.7218, 4633.885
439.2039, 4635.405
439.6860, 4637.217
440.1682, 4638.952
440.6503, 4640.089
441.1324, 4640.552
441.6145, 4640.817
442.0966, 4642.224
442.5787, 4643.023
443.0609, 4641.292
443.5430, 4632.309
444.0251, 4624.883
444.5072, 4622.911
444.9893, 4625.116
445.4714, 4626.957
445.9536, 4627.283
446.4357, 4627.184
446.9178, 4627.208
447.3999, 4627.689
447.8820, 4627.795
448.3641, 4628.542
448.8463, 4628.552
449.3284, 4625.936
449.8105, 4617.862
450.2926, 4612.775
450.7747, 4613.231
451.2569, 4618.106
451.7390, 4620.170
452.2211, 4618.415
452.7032, 4616.219
453.1853, 4615.599
453.6674, 4616.569
454.1496, 4616.992
454.6317, 4616.498
455.1138, 4615.856
455.5959, 4616.503
456.0780, 4618.264
456.5602, 4619.455
457.0423, 4619.209
457.5244, 4618.256
458.0065, 4618.097
458.4886, 4618.736
458.9707, 4619.593
459.4529, 4621.396
459.9350, 4622.930
460.4171, 4621.653
460.8992, 4616.302
461.3813, 4611.641
461.8634, 4612.694
462.3456, 4616.761
462.8277, 4619.239
463.3098, 4614.969
463.7919, 4611.516
464.2740, 4613.901
464.7561, 4621.698
465.2383, 4627.890
465.7204, 4629.139
466.2025, 4628.833
466.6846, 4628.969
467.1667, 4629.788
467.6488, 4630.858
468.1310, 4631.992
468.6131, 4633.337
469.0952, 4635.248
469.5773, 4638.224
470.0594, 4640.957
470.5415, 4643.362
471.0237, 4645.414
471.5058, 4645.927
471.9879, 4644.085
472.4700, 4642.622
472.9521, 4644.384
473.4342, 4649.680
473.9164, 4652.208
474.3985, 4650.673
474.8806, 4647.763
475.3627, 4648.574
475.8448, 4652.689
476.3270, 4655.675
476.8091, 4653.586
477.2912, 4649.906
477.7733, 4653.298
478.2554, 4663.221
478.7375, 4671.431
479.2197, 4669.829
479.7018, 4663.327
480.1839, 4658.573
480.6660, 4657.085
481.1481, 4656.970
481.6302, 4657.795
482.1124, 4659.053
482.5945, 4659.887
483.0766, 4659.962
483.5587, 4659.562
484.0408, 4658.753
484.5229, 4657.552
485.0051, 4656.072
485.4872, 4653.759
485.9693, 4651.571
486.4514, 4650.067
486.9335, 4649.054
487.4156, 4649.174
487.8978, 4651.769
488.3799, 4654.830
488.8620, 4654.522
489.3441, 4648.200
489.8262, 4645.553
490.3083, 4651.011
490.7905, 4662.797
491.2726, 4666.286
491.7547, 4659.975
492.2368, 4652.942
492.7189, 4652.141
493.2010, 4656.800
493.6832, 4662.460
494.1653, 4669.251
494.6474, 4674.889
495.1295, 4674.503
495.6116, 4670.259
496.0938, 4669.044
496.5759, 4675.740
497.0580, 4684.872
497.5401, 4691.231
498.0222, 4694.992
498.5044, 4696.754
498.9865, 4694.569
499.4686, 4692.046
499.9507, 4692.578
500.4328, 4697.718
500.9149, 4701.843
501.3971, 4701.080
501.8792, 4699.104
502.3613, 4700.142
502.8434, 4708.781
503.3255, 4716.084
503.8076, 4720.934
504.2898, 4723.343
504.7719, 4722.976
505.2540, 4717.246
505.7361, 4712.418
506.2182, 4711.492
506.7003, 4715.259
507.1825, 4717.585
507.6646, 4718.193
508.1467, 4717.995
508.6288, 4717.726
509.1109, 4717.431
509.5930, 4718.014
510.0752, 4720.062
510.5573, 4722.632
511.0394, 4724.071
511.5215, 4724.463
512.0037, 4724.115
512.4858, 4722.766
512.9679, 4721.001
513.4500, 4719.148
513.9321, 4717.239
514.4142, 4716.746
514.8964, 4721.337
515.3785, 4726.650
515.8606, 4727.526
516.3427, 4719.440
516.8248, 4712.564
517.3069, 4710.792
517.7891, 4712.883
518.2712, 4716.561
518.7533, 4725.539
519.2354, 4731.765
519.7175, 4731.520
520.1996, 4724.997
520.6818, 4720.834
521.1639, 4720.104
521.6460, 4720.432
522.1281, 4720.357
522.6102, 4719.456
523.0923, 4719.878
523.5745, 4721.924
524.0566, 4724.875
524.5387, 4727.804
525.0208, 4730.716
525.5029, 4733.673
525.9850, 4737.163
526.4672, 4740.280
526.9493, 4740.725
527.4314, 4738.724
527.9135, 4736.396
528.3956, 4735.119
528.8777, 4734.259
529.3599, 4732.703
529.8420, 4730.264
530.3241, 4728.546
530.8062, 4729.280
531.2883, 4731.069
531.7704, 4732.321
532.2526, 4732.214
532.7347, 4732.127
533.2168, 4732.408
533.6989, 4733.046
534.1810, 4734.010
534.6631, 4735.508
535.1453, 4737.154
535.6274, 4738.543
536.1095, 4739.663
536.5916, 4742.745
537.0737, 4749.784
537.5558, 4755.769
538.0380, 4756.107
538.5201, 4749.326
539.0022, 4747.271
539.4843, 4751.376
539.9664, 4758.485
540.4485, 4764.603
540.9307, 4769.669
541.4128, 4773.480
541.8949, 4775.201
542.3770, 4776.197
542.8591, 4778.962
543.3412, 4783.103
543.8234, 4786.984
544.3055, 4790.127
544.7876, 4792.128
545.2697, 4792.122
545.7518, 4789.858
546.2339, 4787.685
546.7161, 4786.142
547.1982, 4785.573
547.6803, 4786.305
548.1624, 4790.446
548.6445, 4793.477
549.1266, 4794.052
549.6088, 4793.398
550.0909, 4794.105
550.5730, 4798.613
551.0551, 4800.806
551.5372, 4798.267
552.0193, 4791.716
552.5015, 4787.935
552.9836, 4787.245
553.4657, 4788.249
553.9478, 4790.823
554.4299, 4794.642
554.9120, 4796.571
555.3942, 4796.219
555.8763, 4794.623
556.3584, 4791.526
556.8405, 4788.002
557.3226, 4787.112
557.8047, 4790.916
558.2869, 4795.851
558.7690, 4799.119
559.2511, 4800.939
559.7332, 4801.856
560.2154, 4800.263
560.6975, 4799.503
561.1796, 4802.408
561.6617, 4809.240
562.1439, 4813.792
562.6260, 4814.725
563.1081, 4813.157
563.5902, 4809.306
564.0723, 4799.204
564.5544, 4795.701
565.0366, 4801.359
565.5187, 4811.027
566.0008, 4817.807
566.4829, 4821.320
566.9650, 4824.003
567.4471, 4826.165
567.9293, 4827.914
568.4114, 4829.603
568.8935, 4831.167
569.3756, 4832.202
569.8577, 4831.380
570.3398, 4830.188
570.8220, 4832.584
571.3041, 4838.404
571.7862, 4841.981
572.2683, 4836.750
572.7504, 4828.737
573.2325, 4824.252
573.7147, 4826.157
574.1968, 4827.557
574.6789, 4824.266
575.1610, 4819.648
575.6431, 4818.024
576.1252, 4824.675
576.6074, 4828.964
577.0895, 4828.905
577.5716, 4825.474
578.0537, 4821.993
578.5358, 4817.723
579.0179, 4815.228
579.5001, 4816.419
579.9822, 4820.908
580.4643, 4822.148
580.9464, 4819.790
581.4285, 4816.388
581.9106, 4813.563
582.3928, 4811.385
582.8749, 4810.189
583.3570, 4810.067
583.8391, 4810.552
584.3212, 4811.140
584.8033, 4812.028
585.2855, 4813.560
585.7676, 4815.776
586.2497, 4818.753
586.7318, 4824.374
587.2139, 4830.984
587.6960, 4833.847
588.1782, 4827.546
588.6603, 4821.365
589.1424, 4818.713
589.6245, 4819.702
590.1066, 4820.154
590.5887, 4819.525
591.0709, 4818.992
591.5530, 4819.417
592.0351, 4820.972
592.5172, 4822.007
592.9993, 4822.483
593.4814, 4822.419
593.9636, 4821.361
594.4457, 4819.665
594.9278, 4819.130
595.4099, 4820.700
595.8920, 4822.956
596.3741, 4824.751
596.8563, 4825.896
597.3384, 4825.738
597.8205, 4822.950
598.3026, 4819.727
598.7847, 4816.874
599.2668, 4814.582
599.7490, 4814.150
600.2311, 4817.283
600.7132, 4821.214
601.1953, 4824.693
601.6774, 4827.841
602.1595, 4829.377
602.6417, 4828.034
603.1238, 4826.320
603.6059, 4826.938
604.0880, 4830.527
604.5701, 4832.297
605.0522, 4831.419
605.5344, 4828.999
606.0165, 4826.212
606.4986, 4823.319
606.9807, 4822.256
607.4628, 4825.360
607.9449, 4829.275
608.4271, 4828.436
608.9092, 4824.091
609.3913, 4820.937
609.8735, 4822.648
610.3556, 4825.736
610.8377, 4827.985
611.3198, 4829.207
611.8019, 4830.370
612.2841, 4831.764
612.7662, 4833.108
613.2483, 4834.142
613.7304, 4834.315
614.2125, 4835.296
614.6946, 4837.705
615.1768, 4840.107
615.6589, 4840.025
616.1410, 4836.650
616.6231, 4836.750
617.1052, 4842.607
617.5873, 4850.797
618.0695, 4855.106
618.5516, 4855.760
619.0337, 4853.678
619.5158, 4846.644
619.9979, 4838.916
620.4800, 4836.330
620.9622, 4838.145
621.4443, 4840.393
621.9264, 4840.718
622.4085, 4841.000
622.8906, 4842.351
623.3727, 4844.910
623.8549, 4848.092
624.3370, 4852.583
624.8191, 4856.950
625.3012, 4860.175
625.7833, 4861.786
626.2654, 4863.313
626.7476, 4865.416
627.2297, 4866.422
627.7118, 4862.370
628.1939, 4853.025
628.6760, 4848.950
629.1581, 4854.573
629.6403, 4863.400
630.1224, 4863.033
630.6045, 4855.936
631.0866, 4851.155
631.5687, 4856.719
632.0508, 4864.157
632.5330, 4865.493
633.0151, 4861.634
633.4972, 4857.572
633.9793, 4854.143
634.4614, 4852.100
634.9435, 4852.213
635.4257, 4855.047
635.9078, 4857.172
636.3899, 4857.955
636.8720, 4858.438
637.3541, 4858.955
637.8362, 4858.951
638.3184, 4861.789
638.8005, 4868.581
639.2826, 4875.650
639.7647, 4876.939
640.2468, 4873.487
640.7289, 4872.919
641.2111, 4878.131
641.6932, 4884.712
642.1753, 4887.222
642.6574, 4886.873
643.1395, 4886.571
643.6216, 4886.671
644.1038, 4888.065
644.5859, 4892.536
645.0680, 4899.127
645.5501, 4903.575
646.0322, 4903.679
646.5143, 4902.575
646.9965, 4901.268
647.4786, 4899.755
647.9607, 4898.062
648.4428, 4896.063
648.9249, 4894.132
649.4070, 4891.986
649.8892, 4889.702
650.3713, 4890.322
650.8534, 4894.435
651.3355, 4898.726
651.8176, 4898.911
652.2997, 4896.719
652.7819, 4896.089
