##NAMES=Dundasite
##RRUFFID=R060760
##IDEAL CHEMISTRY=Pb^2+^Al_2_(CO_3_)_2_(OH)_4_&#183;H_2_O
##LOCALITY=Daoping mine, Guangxi, China
##OWNER=RRUFF
##SOURCE=Michael Scott
##DESCRIPTION=Spherical aggregates of pale green acicular crystals, associated with colorless cerussite, anglesite, and blue linarite R120094.
##STATUS=The identification of this mineral has been made only by X-ray diffraction.
##URL=rruff.info/R060760
122.9209, 1447.874
123.4030, 1445.884
123.8851, 1438.771
124.3672, 1431.671
124.8493, 1428.658
125.3315, 1429.970
125.8136, 1431.623
126.2957, 1433.970
126.7778, 1436.167
127.2599, 1437.766
127.7420, 1438.753
128.2242, 1439.515
128.7063, 1440.649
129.1884, 1442.723
129.6705, 1443.916
130.1526, 1444.119
130.6347, 1443.686
131.1169, 1442.637
131.5990, 1441.040
132.0811, 1439.290
132.5632, 1438.274
133.0453, 1438.693
133.5274, 1439.044
134.0096, 1439.699
134.4917, 1440.171
134.9738, 1439.547
135.4559, 1437.237
135.9380, 1433.941
136.4201, 1432.100
136.9023, 1432.314
137.3844, 1432.845
137.8665, 1432.801
138.3486, 1432.382
138.8307, 1432.588
139.3128, 1434.473
139.7950, 1437.164
140.2771, 1438.604
140.7592, 1438.077
141.2413, 1436.893
141.7234, 1436.423
142.2055, 1436.824
142.6877, 1437.117
143.1698, 1436.006
143.6519, 1434.648
144.1340, 1434.581
144.6161, 1436.998
145.0982, 1440.728
145.5803, 1442.613
146.0625, 1441.527
146.5446, 1440.237
147.0267, 1439.349
147.5088, 1438.985
147.9909, 1439.414
148.4730, 1441.039
148.9552, 1443.758
149.4373, 1445.415
149.9194, 1445.230
150.4015, 1444.599
150.8836, 1443.453
151.3657, 1442.086
151.8479, 1440.981
152.3300, 1440.578
152.8121, 1440.941
153.2942, 1441.655
153.7763, 1443.170
154.2584, 1444.571
154.7406, 1445.486
155.2227, 1445.846
155.7048, 1445.655
156.1869, 1444.720
156.6690, 1442.503
157.1511, 1441.917
157.6333, 1444.554
158.1154, 1447.894
158.5975, 1449.608
159.0796, 1449.180
159.5617, 1447.839
160.0438, 1447.132
160.5260, 1447.099
161.0081, 1446.895
161.4902, 1445.725
161.9723, 1444.355
162.4544, 1444.404
162.9365, 1446.715
163.4187, 1449.600
163.9008, 1451.009
164.3829, 1451.021
164.8650, 1450.996
165.3471, 1452.027
165.8292, 1453.867
166.3113, 1454.732
166.7935, 1453.206
167.2756, 1451.583
167.7577, 1451.717
168.2398, 1453.644
168.7219, 1456.055
169.2040, 1457.617
169.6862, 1458.138
170.1683, 1459.050
170.6504, 1461.909
171.1325, 1464.297
171.6146, 1464.311
172.0967, 1461.745
172.5789, 1458.558
173.0610, 1457.969
173.5431, 1462.152
174.0252, 1463.875
174.5073, 1460.958
174.9894, 1456.926
175.4716, 1454.511
175.9537, 1454.542
176.4358, 1455.693
176.9179, 1455.173
177.4000, 1450.130
177.8821, 1447.430
178.3643, 1449.139
178.8464, 1452.359
179.3285, 1454.099
179.8106, 1453.142
180.2927, 1450.512
180.7748, 1448.988
181.2570, 1449.376
181.7391, 1449.870
182.2212, 1450.296
182.7033, 1450.715
183.1854, 1451.267
183.6675, 1452.047
184.1497, 1452.917
184.6318, 1453.396
185.1139, 1453.279
185.5960, 1453.177
186.0781, 1453.496
186.5602, 1454.022
187.0423, 1453.953
187.5245, 1452.422
188.0066, 1450.550
188.4887, 1450.979
188.9708, 1454.957
189.4529, 1458.955
189.9350, 1460.714
190.4172, 1460.362
190.8993, 1459.353
191.3814, 1457.683
191.8635, 1456.077
192.3456, 1455.695
192.8277, 1457.220
193.3099, 1458.843
193.7920, 1458.463
194.2741, 1455.770
194.7562, 1453.385
195.2383, 1452.475
195.7204, 1452.383
196.2026, 1452.834
196.6847, 1453.920
197.1668, 1455.049
197.6489, 1455.220
198.1310, 1454.088
198.6131, 1453.002
199.0953, 1452.766
199.5774, 1452.572
200.0595, 1451.512
200.5416, 1449.154
201.0237, 1446.292
201.5058, 1444.697
201.9880, 1444.826
202.4701, 1445.531
202.9522, 1447.204
203.4343, 1448.980
203.9164, 1449.848
204.3985, 1449.325
204.8807, 1447.976
205.3628, 1447.514
205.8449, 1448.584
206.3270, 1449.797
206.8091, 1451.841
207.2912, 1453.656
207.7733, 1453.538
208.2555, 1450.561
208.7376, 1446.020
209.2197, 1444.759
209.7018, 1451.832
210.1839, 1456.631
210.6660, 1456.637
211.1482, 1454.032
211.6303, 1451.795
212.1124, 1451.442
212.5945, 1452.578
213.0766, 1453.626
213.5587, 1455.061
214.0409, 1455.886
214.5230, 1455.346
215.0051, 1454.103
215.4872, 1453.422
215.9693, 1454.042
216.4514, 1455.496
216.9336, 1455.934
217.4157, 1454.199
217.8978, 1453.157
218.3799, 1454.315
218.8620, 1456.933
219.3441, 1459.166
219.8263, 1460.091
220.3084, 1460.091
220.7905, 1460.228
221.2726, 1460.324
221.7547, 1460.811
222.2368, 1462.357
222.7190, 1464.630
223.2011, 1466.186
223.6832, 1466.074
224.1653, 1465.154
224.6474, 1465.160
225.1295, 1466.373
225.6117, 1467.805
226.0938, 1468.649
226.5759, 1469.014
227.0580, 1469.795
227.5401, 1471.255
228.0222, 1473.428
228.5043, 1476.748
228.9865, 1481.758
229.4686, 1485.739
229.9507, 1485.814
230.4328, 1482.017
230.9149, 1478.179
231.3970, 1474.784
231.8792, 1472.388
232.3613, 1471.683
232.8434, 1472.850
233.3255, 1474.561
233.8076, 1476.021
234.2897, 1477.355
234.7719, 1476.978
235.2540, 1471.886
235.7361, 1466.724
236.2182, 1465.007
236.7003, 1467.109
237.1824, 1469.770
237.6646, 1468.967
238.1467, 1463.803
238.6288, 1460.204
239.1109, 1460.735
239.5930, 1461.831
240.0751, 1461.641
240.5573, 1459.956
241.0394, 1457.761
241.5215, 1456.020
242.0036, 1454.622
242.4857, 1454.111
242.9678, 1455.207
243.4500, 1456.620
243.9321, 1458.240
244.4142, 1459.767
244.8963, 1460.382
245.3784, 1458.764
245.8605, 1453.915
246.3427, 1450.543
246.8248, 1449.366
247.3069, 1448.961
247.7890, 1448.852
248.2711, 1448.916
248.7532, 1449.171
249.2354, 1449.701
249.7175, 1450.668
250.1996, 1451.222
250.6817, 1451.396
251.1638, 1451.204
251.6459, 1450.558
252.1281, 1449.513
252.6102, 1448.189
253.0923, 1446.578
253.5744, 1444.446
254.0565, 1443.556
254.5386, 1445.323
255.0208, 1446.785
255.5029, 1445.906
255.9850, 1443.276
256.4671, 1441.329
256.9492, 1442.427
257.4313, 1447.040
257.9135, 1448.987
258.3956, 1446.598
258.8777, 1443.810
259.3598, 1442.054
259.8419, 1441.322
260.3240, 1441.057
260.8062, 1440.844
261.2883, 1440.693
261.7704, 1441.037
262.2525, 1442.579
262.7346, 1443.815
263.2167, 1444.065
263.6989, 1443.509
264.1810, 1442.668
264.6631, 1441.841
265.1452, 1441.034
265.6273, 1440.267
266.1094, 1438.879
266.5916, 1438.211
267.0737, 1439.048
267.5558, 1440.997
268.0379, 1443.138
268.5200, 1444.992
269.0021, 1446.652
269.4843, 1448.575
269.9664, 1452.524
270.4485, 1454.623
270.9306, 1452.284
271.4127, 1447.212
271.8948, 1442.899
272.3770, 1440.793
272.8591, 1440.495
273.3412, 1441.239
273.8233, 1443.549
274.3054, 1445.541
274.7875, 1446.639
275.2697, 1447.019
275.7518, 1446.993
276.2339, 1446.659
276.7160, 1445.984
277.1981, 1444.471
277.6802, 1441.548
278.1623, 1440.196
278.6444, 1442.289
279.1266, 1446.281
279.6087, 1449.794
280.0908, 1452.363
280.5729, 1453.861
281.0550, 1453.683
281.5371, 1451.891
282.0193, 1449.997
282.5014, 1448.245
282.9835, 1446.660
283.4656, 1445.274
283.9477, 1444.094
284.4298, 1443.117
284.9120, 1442.435
285.3941, 1442.002
285.8762, 1441.582
286.3583, 1441.274
286.8404, 1440.873
287.3225, 1439.885
287.8047, 1438.160
288.2868, 1436.799
288.7689, 1436.934
289.2510, 1438.214
289.7331, 1439.390
290.2152, 1440.497
290.6974, 1441.271
291.1795, 1441.203
291.6616, 1440.257
292.1437, 1439.488
292.6258, 1439.852
293.1079, 1440.794
293.5901, 1440.993
294.0722, 1440.018
294.5543, 1438.603
295.0364, 1437.029
295.5185, 1435.336
296.0006, 1434.381
296.4828, 1434.725
296.9649, 1436.032
297.4470, 1437.740
297.9291, 1440.287
298.4112, 1442.158
298.8933, 1441.886
299.3755, 1439.796
299.8576, 1437.803
300.3397, 1436.276
300.8218, 1435.448
301.3039, 1435.683
301.7860, 1437.136
302.2682, 1438.459
302.7503, 1439.042
303.2324, 1438.922
303.7145, 1438.076
304.1966, 1436.072
304.6787, 1434.063
305.1609, 1433.412
305.6430, 1433.957
306.1251, 1434.483
306.6072, 1434.531
307.0893, 1434.185
307.5714, 1433.529
308.0536, 1432.451
308.5357, 1431.410
309.0178, 1430.869
309.4999, 1430.684
309.9820, 1430.515
310.4641, 1430.072
310.9463, 1429.653
311.4284, 1429.935
311.9105, 1431.124
312.3926, 1431.909
312.8747, 1430.732
313.3568, 1428.682
313.8390, 1427.799
314.3211, 1429.299
314.8032, 1431.245
315.2853, 1431.293
315.7674, 1429.395
316.2495, 1428.075
316.7317, 1428.772
317.2138, 1430.597
317.6959, 1432.240
318.1780, 1433.748
318.6601, 1434.701
319.1422, 1434.576
319.6243, 1433.497
320.1064, 1432.302
320.5886, 1431.008
321.0707, 1429.979
321.5528, 1430.027
322.0349, 1431.314
322.5170, 1431.557
322.9991, 1428.535
323.4813, 1423.484
323.9634, 1419.886
324.4455, 1418.498
324.9276, 1418.451
325.4097, 1419.386
325.8918, 1421.094
326.3740, 1422.468
326.8561, 1423.657
327.3382, 1424.118
327.8203, 1422.324
328.3024, 1417.617
328.7845, 1413.498
329.2667, 1413.197
329.7488, 1415.538
330.2309, 1417.727
330.7130, 1419.609
331.1951, 1420.861
331.6772, 1420.922
332.1594, 1419.805
332.6415, 1418.563
333.1236, 1417.697
333.6057, 1417.070
334.0878, 1416.312
334.5699, 1415.205
335.0521, 1414.343
335.5342, 1414.082
336.0163, 1414.380
336.4984, 1415.219
336.9805, 1417.010
337.4626, 1418.737
337.9448, 1418.558
338.4269, 1416.197
338.9090, 1414.285
339.3911, 1414.207
339.8732, 1415.228
340.3553, 1416.023
340.8375, 1416.343
341.3196, 1416.363
341.8017, 1416.182
342.2838, 1415.821
342.7659, 1415.462
343.2480, 1415.017
343.7302, 1414.654
344.2123, 1414.695
344.6944, 1415.152
345.1765, 1415.386
345.6586, 1414.634
346.1407, 1413.213
346.6229, 1412.967
347.1050, 1415.268
347.5871, 1417.526
348.0692, 1418.306
348.5513, 1417.742
349.0334, 1416.210
349.5156, 1413.560
349.9977, 1410.443
350.4798, 1408.712
350.9619, 1408.758
351.4440, 1409.081
351.9261, 1409.448
352.4083, 1409.744
352.8904, 1409.777
353.3725, 1409.486
353.8546, 1408.936
354.3367, 1408.112
354.8188, 1406.856
355.3010, 1406.039
355.7831, 1405.913
356.2652, 1406.151
356.7473, 1406.515
357.2294, 1406.961
357.7115, 1407.484
358.1937, 1408.156
358.6758, 1408.976
359.1579, 1409.279
359.6400, 1408.555
360.1221, 1407.857
360.6042, 1407.933
361.0863, 1408.479
361.5685, 1408.520
362.0506, 1407.388
362.5327, 1405.551
363.0148, 1403.592
363.4969, 1405.191
363.9790, 1406.036
364.4612, 1406.168
364.9433, 1403.450
365.4254, 1404.411
365.9075, 1403.898
366.3896, 1403.325
366.8717, 1404.805
367.3539, 1402.501
367.8360, 1403.948
368.3181, 1403.898
368.8002, 1404.533
369.2823, 1403.685
369.7644, 1403.294
370.2466, 1404.388
370.7287, 1404.660
371.2108, 1403.641
371.6929, 1404.320
372.1750, 1401.964
372.6571, 1402.271
373.1393, 1403.727
373.6214, 1402.782
374.1035, 1403.488
374.5856, 1403.565
375.0677, 1400.785
375.5498, 1401.883
376.0320, 1398.281
376.5141, 1396.316
376.9962, 1397.668
377.4783, 1399.983
377.9604, 1401.246
378.4425, 1400.956
378.9247, 1399.926
379.4068, 1399.176
379.8889, 1398.709
380.3710, 1398.518
380.8531, 1398.707
381.3352, 1399.078
381.8174, 1399.811
382.2995, 1400.695
382.7816, 1401.198
383.2637, 1400.858
383.7458, 1399.791
384.2279, 1398.779
384.7101, 1397.750
385.1922, 1396.899
385.6743, 1395.928
386.1564, 1395.265
386.6385, 1395.719
387.1206, 1397.797
387.6028, 1400.087
388.0849, 1400.156
388.5670, 1397.542
389.0491, 1394.890
389.5312, 1392.166
390.0133, 1390.062
390.4955, 1389.282
390.9776, 1389.800
391.4597, 1390.644
391.9418, 1391.193
392.4239, 1391.461
392.9060, 1391.478
393.3882, 1391.082
393.8703, 1390.727
394.3524, 1391.055
394.8345, 1391.642
395.3166, 1391.498
395.7987, 1389.834
396.2809, 1387.597
396.7630, 1385.889
397.2451, 1384.677
397.7272, 1384.400
398.2093, 1386.050
398.6914, 1388.295
399.1736, 1388.968
399.6557, 1387.606
400.1378, 1385.984
400.6199, 1385.123
401.1020, 1384.807
401.5841, 1384.404
402.0662, 1383.694
402.5483, 1383.088
403.0305, 1383.064
403.5126, 1383.578
403.9947, 1384.496
404.4768, 1386.951
404.9589, 1389.029
405.4410, 1388.298
405.9232, 1384.954
406.4053, 1381.794
406.8874, 1380.521
407.3695, 1380.986
407.8516, 1382.188
408.3337, 1385.890
408.8159, 1388.195
409.2980, 1387.001
409.7801, 1383.852
410.2622, 1381.020
410.7443, 1379.248
411.2264, 1378.445
411.7086, 1378.545
412.1907, 1380.141
412.6728, 1381.198
413.1549, 1381.288
413.6370, 1381.201
414.1191, 1381.771
414.6013, 1382.780
415.0834, 1383.022
415.5655, 1381.332
416.0476, 1377.913
416.5297, 1376.464
417.0118, 1379.589
417.4940, 1381.755
417.9761, 1381.191
418.4582, 1379.471
418.9403, 1378.523
419.4224, 1379.087
419.9045, 1380.645
420.3867, 1382.562
420.8688, 1385.565
421.3509, 1386.924
421.8330, 1384.832
422.3151, 1382.613
422.7972, 1382.461
423.2794, 1383.964
423.7615, 1384.958
424.2436, 1383.306
424.7257, 1379.611
425.2078, 1378.173
425.6899, 1380.639
426.1721, 1382.486
426.6542, 1381.421
427.1363, 1379.179
427.6184, 1377.971
428.1005, 1378.658
428.5826, 1379.647
429.0648, 1378.463
429.5469, 1375.046
430.0290, 1373.391
430.5111, 1375.549
430.9932, 1378.457
431.4753, 1379.272
431.9575, 1378.224
432.4396, 1377.216
432.9217, 1376.952
433.4038, 1377.371
433.8859, 1378.868
434.3680, 1381.665
434.8502, 1383.414
435.3323, 1381.588
435.8144, 1377.857
436.2965, 1376.970
436.7786, 1380.796
437.2607, 1384.879
437.7429, 1387.204
438.2250, 1387.987
438.7071, 1387.438
439.1892, 1385.460
439.6713, 1383.012
440.1534, 1381.375
440.6356, 1380.650
441.1177, 1380.425
441.5998, 1381.077
442.0819, 1381.915
442.5640, 1382.813
443.0461, 1383.529
443.5282, 1383.413
444.0103, 1382.018
444.4925, 1379.451
444.9746, 1376.266
445.4567, 1369.292
445.9388, 1365.701
446.4209, 1369.880
446.9030, 1375.941
447.3852, 1377.493
447.8673, 1373.118
448.3494, 1366.703
448.8315, 1363.248
449.3136, 1363.469
449.7957, 1363.019
450.2779, 1360.487
450.7600, 1358.661
451.2421, 1358.715
451.7242, 1360.159
452.2063, 1362.165
452.6884, 1364.476
453.1706, 1366.540
453.6527, 1367.024
454.1348, 1365.776
454.6169, 1363.431
455.0990, 1357.911
455.5811, 1352.847
456.0633, 1351.154
456.5454, 1352.988
457.0275, 1355.678
457.5096, 1357.931
457.9917, 1359.542
458.4738, 1359.419
458.9560, 1356.803
459.4381, 1354.427
459.9202, 1354.543
460.4023, 1356.123
460.8844, 1357.362
461.3665, 1357.981
461.8487, 1358.130
462.3308, 1357.906
462.8129, 1357.295
463.2950, 1356.087
463.7771, 1353.969
464.2592, 1351.859
464.7414, 1351.303
465.2235, 1352.590
465.7056, 1353.195
466.1877, 1351.715
466.6698, 1350.302
467.1519, 1351.357
467.6341, 1354.347
468.1162, 1356.419
468.5983, 1355.661
469.0804, 1352.689
469.5625, 1350.343
470.0446, 1348.811
470.5268, 1347.719
471.0089, 1346.956
471.4910, 1346.687
471.9731, 1347.289
472.4552, 1348.711
472.9373, 1350.338
473.4195, 1351.660
473.9016, 1352.747
474.3837, 1352.474
474.8658, 1348.551
475.3479, 1345.785
475.8300, 1346.281
476.3122, 1348.503
476.7943, 1350.308
477.2764, 1350.821
477.7585, 1350.499
478.2406, 1350.095
478.7227, 1349.682
479.2049, 1348.477
479.6870, 1345.446
480.1691, 1342.512
480.6512, 1341.244
481.1333, 1341.376
481.6154, 1341.510
482.0976, 1340.957
482.5797, 1340.029
483.0618, 1338.951
483.5439, 1337.707
484.0260, 1337.362
484.5081, 1339.083
484.9902, 1341.583
485.4724, 1342.060
485.9545, 1339.906
486.4366, 1337.693
486.9187, 1336.007
487.4008, 1334.880
487.8829, 1334.713
488.3651, 1335.465
488.8472, 1335.915
489.3293, 1334.908
489.8114, 1332.447
490.2935, 1330.385
490.7756, 1328.295
491.2578, 1327.011
491.7399, 1327.012
492.2220, 1327.870
492.7041, 1329.303
493.1862, 1331.135
493.6683, 1332.772
494.1505, 1333.360
494.6326, 1332.818
495.1147, 1331.561
495.5968, 1328.257
496.0789, 1325.552
496.5610, 1324.656
497.0432, 1325.050
497.5253, 1325.753
498.0074, 1326.376
498.4895, 1326.727
498.9716, 1326.176
499.4537, 1324.456
499.9359, 1323.564
500.4180, 1324.783
500.9001, 1326.254
501.3822, 1326.469
501.8643, 1325.471
502.3464, 1324.069
502.8286, 1321.765
503.3107, 1319.674
503.7928, 1320.267
504.2749, 1323.603
504.7570, 1325.598
505.2391, 1323.615
505.7213, 1319.169
506.2034, 1316.358
506.6855, 1315.747
507.1676, 1315.196
507.6497, 1313.555
508.1318, 1311.988
508.6140, 1312.123
509.0961, 1314.017
509.5782, 1316.137
510.0603, 1317.135
510.5424, 1317.077
511.0245, 1317.295
511.5067, 1318.455
511.9888, 1319.083
512.4709, 1318.935
512.9530, 1318.135
513.4351, 1316.600
513.9172, 1314.403
514.3994, 1312.144
514.8815, 1310.466
515.3636, 1309.369
515.8457, 1308.869
516.3278, 1309.335
516.8099, 1309.944
517.2921, 1310.693
517.7742, 1311.264
518.2563, 1311.071
518.7384, 1309.751
519.2205, 1308.179
519.7026, 1307.602
520.1848, 1307.801
520.6669, 1306.811
521.1490, 1303.560
521.6311, 1300.349
522.1132, 1299.863
522.5953, 1301.620
523.0775, 1303.380
523.5596, 1305.864
524.0417, 1307.237
524.5238, 1305.208
525.0059, 1300.939
525.4880, 1297.595
525.9702, 1296.462
526.4523, 1296.979
526.9344, 1298.406
527.4165, 1301.730
527.8986, 1303.257
528.3807, 1301.557
528.8629, 1299.566
529.3450, 1299.226
529.8271, 1299.910
530.3092, 1299.717
530.7913, 1297.482
531.2734, 1294.283
531.7556, 1292.936
532.2377, 1294.353
532.7198, 1295.052
533.2019, 1293.818
533.6840, 1292.316
534.1661, 1291.486
534.6483, 1291.229
535.1304, 1290.846
535.6125, 1289.593
536.0946, 1288.172
536.5767, 1288.164
537.0588, 1289.656
537.5410, 1289.661
538.0231, 1291.055
538.5052, 1291.696
538.9873, 1291.623
539.4694, 1288.701
539.9515, 1289.458
540.4337, 1288.741
540.9158, 1287.963
541.3979, 1289.239
541.8800, 1286.730
542.3621, 1287.973
542.8442, 1287.719
543.3264, 1288.150
543.8085, 1287.097
544.2906, 1286.502
544.7726, 1287.392
545.2548, 1287.459
545.7369, 1286.236
546.2190, 1286.710
546.7011, 1284.150
547.1832, 1284.253
547.6653, 1285.505
548.1475, 1284.355
548.6296, 1284.857
549.1117, 1284.730
549.5938, 1281.745
550.0759, 1283.730
550.5580, 1283.566
551.0402, 1281.195
551.5223, 1283.010
552.0044, 1280.943
552.4865, 1279.333
552.9686, 1278.193
553.4507, 1277.882
553.9329, 1278.423
554.4150, 1278.909
554.8971, 1278.839
555.3792, 1278.417
555.8613, 1278.200
556.3434, 1278.437
556.8256, 1278.228
557.3077, 1276.811
557.7898, 1275.279
558.2719, 1274.689
558.7540, 1275.015
559.2361, 1275.642
559.7183, 1276.185
560.2004, 1276.611
560.6825, 1276.780
561.1646, 1276.496
561.6467, 1276.287
562.1288, 1276.802
562.6110, 1276.945
563.0931, 1275.403
563.5752, 1272.543
564.0573, 1270.373
564.5394, 1270.986
565.0215, 1272.913
565.5037, 1271.721
565.9858, 1266.705
566.4679, 1263.267
566.9500, 1264.297
567.4321, 1267.177
567.9142, 1268.389
568.3964, 1267.843
568.8785, 1267.049
569.3606, 1266.283
569.8427, 1265.657
570.3248, 1265.570
570.8069, 1265.823
571.2891, 1265.298
571.7712, 1263.219
572.2533, 1260.505
572.7354, 1259.498
573.2175, 1261.452
573.6996, 1262.960
574.1818, 1263.779
574.6639, 1264.400
575.1460, 1265.648
575.6281, 1266.963
576.1102, 1266.700
576.5923, 1263.643
577.0745, 1259.309
577.5566, 1257.293
578.0387, 1258.138
578.5208, 1258.324
579.0029, 1256.509
579.4850, 1254.557
579.9672, 1254.213
580.4493, 1255.050
580.9314, 1255.185
581.4135, 1253.333
581.8956, 1250.987
582.3777, 1249.300
582.8599, 1248.307
583.3420, 1248.297
583.8241, 1249.513
584.3062, 1251.073
584.7883, 1251.766
585.2704, 1251.374
585.7526, 1251.152
586.2347, 1251.862
586.7168, 1251.927
587.1989, 1249.845
587.6810, 1246.919
588.1631, 1245.404
588.6453, 1246.082
589.1274, 1247.497
589.6095, 1247.432
590.0916, 1245.648
590.5737, 1244.656
591.0558, 1245.151
591.5380, 1245.460
592.0201, 1244.938
592.5022, 1243.722
592.9843, 1241.780
593.4664, 1238.804
593.9485, 1236.276
594.4307, 1235.876
594.9128, 1236.719
595.3949, 1236.474
595.8770, 1234.724
596.3591, 1233.293
596.8412, 1233.676
597.3234, 1235.607
597.8055, 1237.156
598.2876, 1238.751
598.7697, 1239.479
599.2518, 1238.602
599.7339, 1237.177
600.2161, 1236.117
600.6982, 1235.551
601.1803, 1235.085
601.6624, 1234.218
602.1445, 1233.334
602.6266, 1234.799
603.1088, 1240.489
603.5909, 1243.568
604.0730, 1239.631
604.5551, 1234.296
605.0372, 1231.569
605.5193, 1231.470
606.0015, 1231.894
606.4836, 1232.066
606.9657, 1232.071
607.4478, 1232.226
607.9299, 1232.404
608.4120, 1231.648
608.8942, 1229.368
609.3763, 1226.711
609.8584, 1225.473
610.3405, 1226.158
610.8226, 1226.564
611.3047, 1227.070
611.7869, 1226.951
612.2690, 1225.244
612.7511, 1222.881
613.2332, 1221.463
613.7153, 1221.578
614.1974, 1222.243
614.6796, 1222.000
615.1617, 1220.776
615.6438, 1220.204
616.1259, 1220.733
616.6080, 1221.201
617.0901, 1220.963
617.5723, 1220.302
618.0544, 1219.480
618.5365, 1218.353
619.0186, 1217.727
