##NAMES=Durangite
##RRUFFID=R060889
##IDEAL CHEMISTRY=NaAlAs^5+^O_4_F
##LOCALITY=northern end Thomas Range, Juab County, Utah, USA
##OWNER=RRUFF
##SOURCE=Bob Jenkins
##DESCRIPTION=Equant red crystals with a dusting of white powder
##STATUS=The identification of this mineral is confirmed by single-crystal X-ray diffraction and chemical analysis.
##URL=rruff.info/R060889
##MEASURED CHEMISTRY=(Na_0.80_Li_0.18_Ca_0.02_)_Σ=1_(Al_0.78_Fe^3+^_0.20_Mn_0.02_)_Σ=1_As_1.00_O_4_(F_0.60_(OH)_0.40_)_Σ=1_ ; Li estimated by difference; OH estimated by charge balance
142.2540, 3946.946
142.7361, 3958.107
143.2183, 3960.686
143.7004, 3974.572
144.1825, 4007.077
144.6646, 4043.508
145.1467, 4067.919
145.6288, 4070.844
146.1110, 4076.374
146.5931, 4090.026
147.0752, 4113.733
147.5573, 4136.289
148.0394, 4158.079
148.5215, 4178.260
149.0037, 4195.781
149.4858, 4203.522
149.9679, 4215.213
150.4500, 4236.522
150.9321, 4278.908
151.4142, 4309.159
151.8964, 4317.557
152.3785, 4313.737
152.8606, 4319.693
153.3427, 4351.970
153.8248, 4383.397
154.3069, 4402.107
154.7890, 4390.022
155.2712, 4387.363
155.7533, 4405.729
156.2354, 4440.347
156.7175, 4469.283
157.1996, 4480.766
157.6817, 4489.672
158.1639, 4505.663
158.6460, 4534.885
159.1281, 4567.173
159.6102, 4603.605
160.0923, 4643.252
160.5744, 4673.847
161.0566, 4684.536
161.5387, 4686.089
162.0208, 4689.078
162.5029, 4702.855
162.9850, 4713.634
163.4671, 4714.740
163.9493, 4705.326
164.4314, 4690.347
164.9135, 4668.199
165.3956, 4642.656
165.8777, 4619.177
166.3598, 4602.495
166.8420, 4587.393
167.3241, 4569.666
167.8062, 4547.901
168.2883, 4527.972
168.7704, 4513.734
169.2525, 4504.197
169.7346, 4496.969
170.2168, 4489.200
170.6989, 4484.073
171.1810, 4487.125
171.6631, 4504.725
172.1452, 4518.887
172.6273, 4505.816
173.1095, 4473.348
173.5916, 4450.117
174.0737, 4468.937
174.5558, 4504.737
175.0379, 4518.768
175.5201, 4490.849
176.0022, 4452.046
176.4843, 4436.770
176.9664, 4443.506
177.4485, 4460.554
177.9306, 4485.347
178.4128, 4513.853
178.8949, 4538.095
179.3770, 4554.870
179.8591, 4566.487
180.3412, 4574.480
180.8233, 4578.863
181.3055, 4585.522
181.7876, 4605.326
182.2697, 4633.223
182.7518, 4652.888
183.2339, 4650.554
183.7160, 4636.732
184.1982, 4636.095
184.6803, 4649.277
185.1624, 4670.704
185.6445, 4702.442
186.1266, 4740.968
186.6087, 4766.466
187.0908, 4759.967
187.5730, 4730.960
188.0551, 4716.938
188.5372, 4719.876
189.0193, 4733.532
189.5014, 4750.724
189.9835, 4771.544
190.4657, 4794.267
190.9478, 4821.664
191.4299, 4852.267
191.9120, 4872.512
192.3941, 4880.532
192.8762, 4880.131
193.3584, 4874.185
193.8405, 4862.115
194.3226, 4856.182
194.8047, 4869.021
195.2868, 4899.723
195.7689, 4919.841
196.2511, 4924.807
196.7332, 4919.886
197.2153, 4917.010
197.6974, 4915.992
198.1795, 4918.366
198.6616, 4926.467
199.1438, 4940.789
199.6259, 4954.336
200.1080, 4966.980
200.5901, 4977.951
201.0722, 4982.446
201.5543, 4978.368
202.0364, 4975.207
202.5186, 4982.905
203.0007, 5003.602
203.4828, 5018.500
203.9649, 5024.012
204.4470, 5020.668
204.9291, 5008.822
205.4113, 4982.351
205.8934, 4961.592
206.3755, 4972.800
206.8576, 5026.666
207.3397, 5062.300
207.8218, 5063.097
208.3040, 5031.254
208.7861, 4999.515
209.2682, 4966.108
209.7503, 4936.874
210.2324, 4918.750
210.7145, 4913.873
211.1967, 4914.290
211.6788, 4919.099
212.1609, 4928.567
212.6430, 4939.026
213.1251, 4951.159
213.6072, 4963.573
214.0894, 4975.754
214.5715, 4990.163
215.0536, 4997.579
215.5357, 4992.256
216.0178, 4971.331
216.4999, 4960.395
216.9820, 4960.721
217.4642, 4969.517
217.9463, 4986.055
218.4284, 5018.453
218.9105, 5039.371
219.3926, 5034.675
219.8747, 4994.724
220.3569, 4975.811
220.8390, 4987.234
221.3211, 5013.328
221.8032, 5026.106
222.2853, 5016.181
222.7674, 5011.063
223.2496, 5022.278
223.7317, 5056.559
224.2138, 5086.593
224.6959, 5116.246
225.1780, 5140.018
225.6601, 5144.968
226.1423, 5117.839
226.6244, 5094.368
227.1065, 5090.710
227.5886, 5118.145
228.0707, 5135.410
228.5528, 5136.019
229.0350, 5128.347
229.5171, 5134.511
229.9992, 5162.732
230.4813, 5192.076
230.9634, 5212.799
231.4455, 5219.476
231.9276, 5230.122
232.4098, 5246.248
232.8919, 5266.336
233.3740, 5284.586
233.8561, 5298.280
234.3382, 5314.273
234.8203, 5338.247
235.3025, 5382.278
235.7846, 5406.770
236.2667, 5399.116
236.7488, 5371.781
237.2309, 5370.156
237.7130, 5407.516
238.1952, 5452.500
238.6773, 5490.225
239.1594, 5521.796
239.6415, 5542.802
240.1236, 5545.456
240.6057, 5536.928
241.0879, 5549.117
241.5700, 5594.420
242.0521, 5643.817
242.5342, 5681.332
243.0163, 5701.923
243.4984, 5720.845
243.9806, 5738.850
244.4627, 5755.659
244.9448, 5770.013
245.4269, 5779.890
245.9090, 5789.434
246.3911, 5800.270
246.8732, 5809.164
247.3554, 5825.721
247.8375, 5851.618
248.3196, 5885.736
248.8017, 5923.921
249.2838, 5970.699
249.7659, 6014.925
250.2481, 6049.895
250.7302, 6072.776
251.2123, 6092.580
251.6944, 6106.187
252.1765, 6116.760
252.6586, 6142.752
253.1408, 6191.578
253.6229, 6246.255
254.1050, 6294.737
254.5871, 6326.998
255.0692, 6377.308
255.5513, 6455.000
256.0334, 6554.250
256.5156, 6646.019
256.9977, 6728.417
257.4798, 6806.594
257.9619, 6882.247
258.4440, 6951.788
258.9261, 7030.393
259.4083, 7125.648
259.8904, 7232.574
260.3725, 7318.685
260.8546, 7373.572
261.3367, 7425.547
261.8188, 7497.428
262.3010, 7603.494
262.7831, 7689.988
263.2652, 7755.977
263.7473, 7798.265
264.2294, 7800.427
264.7115, 7751.546
265.1937, 7682.565
265.6758, 7612.828
266.1579, 7543.062
266.6400, 7475.286
267.1221, 7417.719
267.6042, 7362.051
268.0864, 7267.932
268.5685, 7119.115
269.0506, 6965.737
269.5327, 6841.528
270.0148, 6750.786
270.4969, 6671.018
270.9791, 6601.817
271.4612, 6541.169
271.9433, 6485.277
272.4254, 6436.810
272.9075, 6386.335
273.3896, 6320.598
273.8718, 6233.548
274.3539, 6177.159
274.8360, 6165.046
275.3181, 6183.453
275.8002, 6187.794
276.2823, 6177.389
276.7645, 6155.144
277.2466, 6115.724
277.7287, 6055.664
278.2108, 6014.747
278.6929, 6001.525
279.1750, 6006.127
279.6572, 6001.138
280.1393, 5984.727
280.6214, 5968.047
281.1035, 5959.127
281.5856, 5958.016
282.0677, 5957.215
282.5499, 5958.522
283.0320, 5956.706
283.5141, 5932.780
283.9962, 5883.614
284.4783, 5842.976
284.9604, 5839.221
285.4425, 5869.770
285.9247, 5891.204
286.4068, 5899.675
286.8889, 5896.864
287.3710, 5878.902
287.8531, 5845.532
288.3352, 5820.564
288.8174, 5824.075
289.2995, 5851.151
289.7816, 5871.688
290.2637, 5881.860
290.7458, 5885.957
291.2279, 5890.007
291.7101, 5893.891
292.1922, 5896.523
292.6743, 5897.438
293.1564, 5896.600
293.6385, 5892.667
294.1206, 5884.294
294.6028, 5876.895
295.0849, 5878.686
295.5670, 5888.703
296.0491, 5900.802
296.5312, 5913.720
297.0133, 5926.300
297.4955, 5932.821
297.9776, 5930.818
298.4597, 5932.982
298.9418, 5958.612
299.4239, 6002.133
299.9060, 6044.035
300.3882, 6071.728
300.8703, 6091.948
301.3524, 6114.327
301.8345, 6139.119
302.3166, 6166.305
302.7987, 6194.441
303.2809, 6224.624
303.7630, 6260.583
304.2451, 6311.001
304.7272, 6364.264
305.2093, 6401.172
305.6914, 6419.922
306.1736, 6443.637
306.6557, 6495.768
307.1378, 6565.780
307.6199, 6635.240
308.1020, 6694.514
308.5841, 6752.294
309.0663, 6815.119
309.5484, 6884.134
310.0305, 6958.611
310.5126, 7033.570
310.9947, 7116.116
311.4768, 7214.092
311.9590, 7346.801
312.4411, 7483.044
312.9232, 7600.965
313.4053, 7702.050
313.8874, 7800.847
314.3695, 7906.416
314.8517, 8014.659
315.3337, 8122.048
315.8159, 8218.377
316.2980, 8321.714
316.7801, 8447.574
317.2622, 8591.471
317.7443, 8728.002
318.2264, 8851.616
318.7086, 8960.508
319.1907, 9053.106
319.6728, 9132.720
320.1549, 9191.979
320.6370, 9226.635
321.1191, 9238.687
321.6013, 9235.744
322.0834, 9226.093
322.5655, 9197.185
323.0476, 9141.655
323.5297, 9049.350
324.0118, 8943.321
324.4940, 8830.419
324.9761, 8706.253
325.4582, 8559.150
325.9403, 8349.827
326.4224, 8148.170
326.9045, 7982.363
327.3867, 7880.667
327.8688, 7765.657
328.3509, 7617.210
328.8330, 7457.692
329.3151, 7325.009
329.7972, 7234.585
330.2794, 7154.705
330.7615, 7076.024
331.2436, 6996.975
331.7257, 6923.754
332.2078, 6855.504
332.6899, 6793.173
333.1721, 6738.698
333.6542, 6697.399
334.1363, 6655.667
334.6184, 6606.784
335.1005, 6549.160
335.5826, 6509.221
336.0648, 6496.031
336.5469, 6489.656
337.0290, 6466.276
337.5111, 6418.208
337.9932, 6375.347
338.4753, 6343.487
338.9575, 6322.302
339.4396, 6310.935
339.9217, 6312.667
340.4038, 6315.715
340.8859, 6308.130
341.3680, 6288.642
341.8502, 6271.348
342.3323, 6258.707
342.8144, 6250.469
343.2965, 6248.045
343.7786, 6252.376
344.2607, 6256.398
344.7429, 6254.966
345.2250, 6248.584
345.7071, 6239.735
346.1892, 6226.041
346.6713, 6214.642
347.1534, 6220.382
347.6355, 6242.499
348.1176, 6267.872
348.5998, 6291.109
349.0819, 6311.346
349.5640, 6325.580
350.0461, 6332.385
350.5282, 6336.713
351.0103, 6342.030
351.4925, 6349.248
351.9746, 6362.218
352.4567, 6391.922
352.9388, 6425.070
353.4209, 6439.694
353.9030, 6433.212
354.3852, 6424.044
354.8673, 6429.070
355.3494, 6442.646
355.8315, 6454.475
356.3136, 6451.574
356.7957, 6451.394
357.2779, 6471.825
357.7600, 6512.783
358.2421, 6554.742
358.7242, 6590.840
359.2063, 6620.392
359.6884, 6642.494
360.1706, 6644.538
360.6527, 6650.850
361.1348, 6676.809
361.6169, 6718.865
362.0990, 6757.017
362.5811, 6779.961
363.0633, 6798.875
363.5454, 6821.437
364.0275, 6854.377
364.5096, 6883.132
364.9917, 6900.356
365.4738, 6910.548
365.9560, 6925.608
366.4381, 6950.546
366.9202, 6978.406
367.4023, 7008.713
367.8844, 7050.108
368.3665, 7075.287
368.8487, 7072.291
369.3308, 7055.142
369.8129, 7045.055
370.2950, 7047.464
370.7771, 7050.578
371.2592, 7055.323
371.7414, 7064.838
372.2235, 7051.066
372.7056, 6995.363
373.1877, 6932.961
373.6698, 6906.964
374.1519, 6941.426
374.6341, 6949.810
375.1162, 6901.934
375.5983, 6808.297
376.0804, 6768.251
376.5625, 6801.809
377.0446, 6840.811
377.5267, 6832.108
378.0089, 6772.046
378.4910, 6695.734
378.9731, 6600.000
379.4552, 6498.640
379.9373, 6432.069
380.4194, 6401.828
380.9016, 6377.696
381.3837, 6335.221
381.8658, 6280.628
382.3479, 6252.724
382.8300, 6259.779
383.3121, 6275.270
383.7943, 6257.559
384.2764, 6213.769
384.7585, 6177.097
385.2406, 6170.203
385.7227, 6179.070
386.2048, 6178.856
386.6870, 6168.717
387.1691, 6155.545
387.6512, 6140.052
388.1333, 6126.294
388.6154, 6121.729
389.0975, 6139.292
389.5797, 6158.329
390.0618, 6159.054
390.5439, 6143.959
391.0260, 6127.995
391.5081, 6114.954
391.9902, 6107.635
392.4724, 6110.070
392.9545, 6133.081
393.4366, 6150.216
393.9187, 6144.038
394.4008, 6123.404
394.8829, 6109.029
395.3651, 6118.016
395.8472, 6126.796
396.3293, 6121.164
396.8114, 6090.942
397.2935, 6073.263
397.7756, 6085.899
398.2578, 6110.626
398.7399, 6123.401
399.2220, 6108.225
399.7041, 6095.717
400.1862, 6092.485
400.6683, 6099.120
401.1505, 6104.398
401.6326, 6109.638
402.1147, 6112.333
402.5968, 6110.001
403.0789, 6099.748
403.5610, 6090.582
404.0432, 6080.449
404.5253, 6072.578
405.0074, 6083.563
405.4895, 6121.723
405.9716, 6156.908
406.4537, 6169.722
406.9359, 6158.518
407.4180, 6148.844
407.9001, 6140.166
408.3822, 6136.500
408.8643, 6147.954
409.3464, 6174.329
409.8285, 6197.966
410.3106, 6207.384
410.7928, 6207.884
411.2749, 6220.525
411.7570, 6246.666
412.2391, 6269.923
412.7212, 6268.621
413.2033, 6251.548
413.6855, 6242.256
414.1676, 6247.952
414.6497, 6264.483
415.1318, 6293.810
415.6139, 6332.780
416.0960, 6363.524
416.5782, 6365.370
417.0603, 6357.769
417.5424, 6361.785
418.0245, 6384.300
418.5066, 6410.396
418.9887, 6434.402
419.4709, 6455.827
419.9530, 6474.364
420.4351, 6493.026
420.9172, 6506.065
421.3993, 6509.100
421.8814, 6500.823
422.3636, 6492.370
422.8457, 6481.154
423.3278, 6473.544
423.8099, 6475.382
424.2920, 6503.887
424.7741, 6523.266
425.2563, 6521.772
425.7384, 6503.786
426.2205, 6501.390
426.7026, 6529.795
427.1847, 6556.352
427.6668, 6561.594
428.1490, 6530.447
428.6311, 6516.056
429.1132, 6522.134
429.5953, 6542.626
430.0774, 6569.413
430.5595, 6606.301
431.0417, 6633.394
431.5238, 6638.962
432.0059, 6625.065
432.4880, 6618.889
432.9701, 6620.258
433.4522, 6630.146
433.9344, 6651.417
434.4165, 6683.064
434.8986, 6720.873
435.3807, 6769.664
435.8628, 6817.363
436.3449, 6837.884
436.8271, 6834.382
437.3092, 6829.804
437.7913, 6835.104
438.2734, 6850.322
438.7555, 6876.500
439.2376, 6914.678
439.7197, 6959.652
440.2018, 7016.138
440.6840, 7075.475
441.1661, 7122.384
441.6482, 7137.528
442.1303, 7147.876
442.6124, 7167.252
443.0945, 7196.292
443.5767, 7231.412
444.0588, 7271.844
444.5409, 7317.727
445.0230, 7369.203
445.5051, 7433.409
445.9872, 7495.385
446.4694, 7555.399
446.9515, 7612.182
447.4336, 7660.241
447.9157, 7683.826
448.3978, 7715.563
448.8799, 7769.903
449.3621, 7857.634
449.8442, 7928.943
450.3263, 7980.896
450.8084, 8019.347
451.2905, 8044.754
451.7726, 8046.513
452.2548, 8074.734
452.7369, 8151.576
453.2190, 8262.451
453.7011, 8337.925
454.1832, 8373.112
454.6653, 8399.580
455.1475, 8444.188
455.6296, 8502.085
456.1117, 8544.150
456.5938, 8564.290
457.0759, 8575.117
457.5580, 8593.389
458.0402, 8617.191
458.5223, 8638.950
459.0044, 8661.805
459.4865, 8677.541
459.9686, 8673.256
460.4507, 8649.072
460.9329, 8619.502
461.4150, 8592.826
461.8971, 8567.704
462.3792, 8542.731
462.8613, 8520.595
463.3434, 8494.729
463.8256, 8458.711
464.3077, 8416.555
464.7898, 8378.536
465.2719, 8357.627
465.7540, 8333.652
466.2361, 8292.816
466.7183, 8221.903
467.2004, 8174.354
467.6825, 8167.513
468.1646, 8178.318
468.6467, 8184.539
469.1288, 8182.919
469.6110, 8181.437
470.0930, 8179.986
470.5752, 8179.185
471.0573, 8181.657
471.5394, 8183.844
472.0215, 8197.524
472.5036, 8232.945
472.9857, 8291.400
473.4679, 8350.298
473.9500, 8409.469
474.4321, 8465.335
474.9142, 8510.384
475.3963, 8545.799
475.8784, 8581.318
476.3606, 8620.592
476.8427, 8663.055
477.3248, 8706.845
477.8069, 8752.396
478.2890, 8800.207
478.7711, 8847.008
479.2533, 8897.814
479.7354, 8960.096
480.2175, 9037.670
480.6996, 9122.054
481.1817, 9213.097
481.6638, 9305.698
482.1460, 9389.773
482.6281, 9444.062
483.1102, 9502.239
483.5923, 9583.294
484.0744, 9689.626
484.5565, 9789.896
485.0387, 9872.899
485.5208, 9948.616
486.0029, 10025.24
486.4850, 10115.51
486.9671, 10189.00
487.4492, 10240.79
487.9314, 10275.44
488.4135, 10300.33
488.8956, 10303.84
489.3777, 10324.02
489.8598, 10389.58
490.3419, 10502.89
490.8241, 10555.16
491.3062, 10535.94
491.7883, 10488.86
492.2704, 10458.07
492.7525, 10441.99
493.2346, 10419.67
493.7168, 10388.88
494.1989, 10346.83
494.6810, 10286.69
495.1631, 10210.26
495.6452, 10125.00
496.1273, 10037.95
496.6095, 9943.435
497.0916, 9834.468
497.5737, 9709.640
498.0558, 9580.875
498.5379, 9455.017
499.0201, 9331.235
499.5022, 9210.815
499.9843, 9098.497
500.4664, 8983.022
500.9485, 8851.349
501.4306, 8710.688
501.9127, 8594.567
502.3948, 8522.587
502.8770, 8464.963
503.3591, 8413.716
503.8412, 8374.990
504.3233, 8319.999
504.8054, 8235.241
505.2875, 8145.503
505.7697, 8077.560
506.2518, 8036.867
506.7339, 7998.620
507.2160, 7957.036
507.6981, 7915.130
508.1802, 7884.678
508.6624, 7866.615
509.1445, 7852.080
509.6266, 7837.051
510.1087, 7821.463
510.5908, 7804.419
511.0729, 7785.785
511.5551, 7767.142
512.0372, 7750.759
512.5193, 7735.666
513.0014, 7719.378
513.4835, 7695.867
513.9656, 7676.562
514.4478, 7676.196
514.9299, 7689.589
515.4120, 7697.724
515.8941, 7680.343
516.3762, 7662.667
516.8583, 7662.866
517.3405, 7688.161
517.8226, 7708.793
518.3047, 7714.758
518.7868, 7714.487
519.2689, 7716.604
519.7510, 7716.778
520.2332, 7726.702
520.7153, 7757.069
521.1974, 7798.366
521.6795, 7807.218
522.1616, 7766.538
522.6437, 7732.795
523.1259, 7737.906
523.6080, 7783.656
524.0901, 7815.266
524.5722, 7830.392
525.0543, 7840.157
525.5364, 7861.116
526.0186, 7889.594
526.5007, 7904.287
526.9828, 7893.619
527.4649, 7875.339
527.9470, 7875.640
528.4291, 7890.626
528.9113, 7905.351
529.3934, 7907.006
529.8755, 7907.160
530.3576, 7918.554
530.8397, 7943.072
531.3218, 7963.416
531.8040, 7966.897
532.2861, 7964.521
532.7682, 7966.289
533.2503, 7981.638
533.7324, 7992.842
534.2145, 7993.702
534.6967, 7988.801
535.1788, 7990.969
535.6609, 8010.187
536.1430, 8022.228
536.6251, 8015.496
537.1072, 7988.720
537.5894, 7978.715
538.0715, 7990.332
538.5536, 8006.683
539.0357, 8013.181
539.5178, 8009.989
539.9999, 8001.813
540.4821, 7986.157
540.9642, 7972.791
541.4463, 7983.592
541.9284, 8012.327
542.4105, 8032.216
542.8926, 8024.851
543.3748, 8004.716
543.8569, 7983.728
544.3390, 7963.037
544.8211, 7952.146
545.3032, 7959.159
545.7853, 7976.821
546.2675, 8001.928
546.7495, 8043.847
547.2316, 8070.355
547.7137, 8056.376
548.1959, 8026.448
548.6780, 8016.167
549.1601, 8045.061
549.6422, 8073.755
550.1243, 8044.167
550.6064, 8096.083
551.0886, 8125.484
551.5707, 8133.577
552.0528, 8056.546
552.5349, 8089.435
553.0170, 8078.272
553.4991, 8065.304
553.9813, 8113.663
554.4634, 8088.315
554.9455, 8093.640
555.4276, 8107.730
555.9097, 8116.484
556.3918, 8114.096
556.8740, 8107.316
557.3561, 8099.487
557.8382, 8093.264
558.3203, 8097.300
558.8024, 8127.472
559.2845, 8161.668
559.7667, 8184.128
560.2488, 8192.830
560.7309, 8198.576
561.2130, 8201.097
561.6951, 8204.252
562.1772, 8210.986
562.6594, 8227.443
563.1415, 8239.608
563.6236, 8243.398
564.1057, 8243.792
564.5878, 8252.485
565.0699, 8275.954
565.5521, 8289.388
566.0342, 8280.276
566.5163, 8254.108
566.9984, 8248.640
567.4805, 8266.451
567.9626, 8284.054
568.4448, 8274.176
568.9269, 8249.663
569.4090, 8257.780
569.8911, 8308.729
570.3732, 8360.762
570.8553, 8371.241
571.3375, 8353.324
571.8196, 8329.586
572.3017, 8294.800
572.7838, 8270.168
573.2659, 8275.632
573.7480, 8301.927
574.2302, 8319.299
574.7123, 8313.899
575.1944, 8301.979
575.6765, 8288.931
576.1586, 8274.499
576.6407, 8262.303
577.1229, 8250.300
577.6050, 8242.863
578.0871, 8245.007
578.5692, 8260.379
579.0513, 8271.519
579.5334, 8277.232
580.0156, 8277.895
580.4977, 8274.750
580.9798, 8267.647
581.4619, 8252.796
581.9440, 8219.726
582.4261, 8183.735
582.9083, 8176.687
583.3904, 8195.570
583.8725, 8219.301
584.3546, 8248.729
584.8367, 8267.759
585.3188, 8250.817
585.8010, 8184.260
586.2831, 8140.795
586.7652, 8176.063
587.2473, 8238.563
587.7294, 8276.757
588.2115, 8267.028
588.6937, 8250.493
589.1758, 8226.302
589.6579, 8198.794
590.1400, 8178.587
590.6221, 8166.983
591.1042, 8159.745
591.5864, 8154.915
592.0685, 8153.049
592.5506, 8161.519
593.0327, 8181.753
593.5148, 8201.847
593.9969, 8216.190
594.4791, 8222.977
594.9612, 8212.688
595.4433, 8181.304
595.9254, 8151.161
596.4075, 8146.149
596.8896, 8156.168
597.3718, 8164.674
597.8539, 8160.616
598.3360, 8159.665
598.8181, 8172.148
599.3002, 8193.966
599.7823, 8212.865
600.2645, 8235.187
600.7466, 8245.128
601.2287, 8232.294
601.7108, 8194.473
602.1929, 8169.128
602.6750, 8157.613
603.1572, 8156.756
603.6393, 8167.921
604.1214, 8192.667
604.6035, 8209.752
605.0856, 8217.366
605.5677, 8218.335
606.0499, 8215.054
606.5320, 8208.104
607.0141, 8199.821
607.4962, 8189.295
607.9783, 8179.832
608.4604, 8175.936
608.9425, 8176.440
609.4246, 8177.882
609.9067, 8183.391
610.3889, 8185.284
610.8710, 8179.194
611.3531, 8164.711
611.8352, 8161.565
612.3173, 8187.883
612.7994, 8195.438
613.2816, 8185.232
613.7637, 8104.096
614.2458, 8114.558
614.7279, 8088.311
615.2100, 8060.559
615.6921, 8083.916
616.1743, 8013.092
616.6564, 7975.526
617.1385, 7927.050
617.6206, 7871.631
618.1027, 7863.865
618.5848, 7895.521
619.0670, 7919.351
619.5491, 7898.082
620.0312, 7862.827
620.5133, 7849.787
620.9954, 7858.215
621.4775, 7858.966
621.9597, 7820.988
622.4418, 7780.509
622.9239, 7765.693
623.4060, 7797.687
623.8881, 7812.565
624.3702, 7790.907
624.8524, 7756.885
625.3345, 7735.000
625.8166, 7731.218
626.2987, 7723.735
626.7808, 7707.264
627.2629, 7687.683
627.7451, 7680.913
628.2272, 7687.144
628.7093, 7691.146
629.1914, 7684.824
629.6735, 7672.588
630.1556, 7666.678
630.6378, 7665.527
631.1199, 7657.248
631.6020, 7622.380
632.0841, 7583.817
632.5662, 7563.744
633.0483, 7567.146
633.5305, 7575.017
634.0126, 7586.106
634.4947, 7595.260
634.9768, 7597.756
