##NAMES=Durangite
##RRUFFID=R120118
##IDEAL CHEMISTRY=NaAlAs^5+^O_4_F
##LOCALITY=Barranca mine, Coneto de Comonfort, Durango, Mexico
##OWNER=RRUFF
##SOURCE=Michael Shannon
##DESCRIPTION=Single orange crystal fragment, used in the Downs et al (2012) study
##STATUS=The identification of this mineral is confirmed by single-crystal X-ray diffraction and chemical analysis.
##URL=rruff.info/R120118
##MEASURED CHEMISTRY=(Na_0.95_Li_0.05_)(Al_0.91_Fe^3+^_0.07_Mn^3+^_0.02_)(As_1.0_O_4_)(F_0.73_(OH)_0.27_); Li and H by charge balance and difference
9.001007e+001, 0.000000e+000
9.049219e+001, 5.479762e+001
9.097430e+001, 5.471696e+001
9.145642e+001, 5.490068e+001
9.193854e+001, 5.528661e+001
9.242065e+001, 5.535808e+001
9.290277e+001, 5.450827e+001
9.338489e+001, 5.302272e+001
9.386700e+001, 5.155513e+001
9.434912e+001, 5.023260e+001
9.483124e+001, 4.911140e+001
9.531335e+001, 4.838201e+001
9.579547e+001, 4.807123e+001
9.627759e+001, 4.794772e+001
9.675970e+001, 4.790407e+001
9.724182e+001, 4.791124e+001
9.772394e+001, 4.758775e+001
9.820605e+001, 4.651554e+001
9.868817e+001, 4.478352e+001
9.917029e+001, 4.357535e+001
9.965240e+001, 4.296437e+001
1.001345e+002, 4.276532e+001
1.006166e+002, 4.269387e+001
1.010988e+002, 4.278278e+001
1.015809e+002, 4.285306e+001
1.020630e+002, 4.289701e+001
1.025451e+002, 4.300274e+001
1.030272e+002, 4.257034e+001
1.035093e+002, 4.128149e+001
1.039915e+002, 3.945528e+001
1.044736e+002, 3.843309e+001
1.049557e+002, 3.853761e+001
1.054378e+002, 3.899449e+001
1.059199e+002, 3.933431e+001
1.064020e+002, 3.971749e+001
1.068842e+002, 3.967366e+001
1.073663e+002, 3.893859e+001
1.078484e+002, 3.750400e+001
1.083305e+002, 3.653066e+001
1.088126e+002, 3.633647e+001
1.092947e+002, 3.643133e+001
1.097769e+002, 3.636650e+001
1.102590e+002, 3.601501e+001
1.107411e+002, 3.563182e+001
1.112232e+002, 3.519801e+001
1.117053e+002, 3.464213e+001
1.121874e+002, 3.435437e+001
1.126696e+002, 3.477337e+001
1.131517e+002, 3.537457e+001
1.136338e+002, 3.547840e+001
1.141159e+002, 3.444525e+001
1.145980e+002, 3.334240e+001
1.150801e+002, 3.255377e+001
1.155623e+002, 3.224461e+001
1.160444e+002, 3.197496e+001
1.165265e+002, 3.151696e+001
1.170086e+002, 3.101145e+001
1.174907e+002, 3.076739e+001
1.179728e+002, 3.100670e+001
1.184550e+002, 3.146768e+001
1.189371e+002, 3.206766e+001
1.194192e+002, 3.319536e+001
1.199013e+002, 3.383078e+001
1.203834e+002, 3.300173e+001
1.208655e+002, 3.107095e+001
1.213477e+002, 2.945118e+001
1.218298e+002, 2.911594e+001
1.223119e+002, 2.944077e+001
1.227940e+002, 2.978892e+001
1.232761e+002, 3.010589e+001
1.237582e+002, 3.025149e+001
1.242404e+002, 3.007820e+001
1.247225e+002, 2.959753e+001
1.252046e+002, 2.894878e+001
1.256867e+002, 2.795058e+001
1.261688e+002, 2.687646e+001
1.266509e+002, 2.623393e+001
1.271331e+002, 2.662021e+001
1.276152e+002, 2.741389e+001
1.280973e+002, 2.768643e+001
1.285794e+002, 2.741520e+001
1.290615e+002, 2.689716e+001
1.295436e+002, 2.628128e+001
1.300258e+002, 2.562256e+001
1.305079e+002, 2.517319e+001
1.309900e+002, 2.516497e+001
1.314721e+002, 2.546317e+001
1.319542e+002, 2.567264e+001
1.324363e+002, 2.578711e+001
1.329185e+002, 2.579057e+001
1.334006e+002, 2.563412e+001
1.338827e+002, 2.531553e+001
1.343648e+002, 2.494013e+001
1.348469e+002, 2.454865e+001
1.353290e+002, 2.414115e+001
1.358112e+002, 2.367653e+001
1.362933e+002, 2.308365e+001
1.367754e+002, 2.252135e+001
1.372575e+002, 2.244893e+001
1.377396e+002, 2.297096e+001
1.382217e+002, 2.351340e+001
1.387039e+002, 2.365417e+001
1.391860e+002, 2.330944e+001
1.396681e+002, 2.317963e+001
1.401502e+002, 2.341836e+001
1.406323e+002, 2.391630e+001
1.411144e+002, 2.424026e+001
1.415966e+002, 2.443070e+001
1.420787e+002, 2.436657e+001
1.425608e+002, 2.388770e+001
1.430429e+002, 2.281083e+001
1.435250e+002, 2.183452e+001
1.440071e+002, 2.101214e+001
1.444893e+002, 2.035560e+001
1.449714e+002, 2.003231e+001
1.454535e+002, 2.020494e+001
1.459356e+002, 2.055629e+001
1.464177e+002, 2.080468e+001
1.468998e+002, 2.101057e+001
1.473820e+002, 2.101875e+001
1.478641e+002, 2.069249e+001
1.483462e+002, 1.993584e+001
1.488283e+002, 1.953561e+001
1.493104e+002, 1.965875e+001
1.497925e+002, 2.005705e+001
1.502747e+002, 2.045253e+001
1.507568e+002, 2.091446e+001
1.512389e+002, 2.129253e+001
1.517210e+002, 2.155689e+001
1.522031e+002, 2.169996e+001
1.526852e+002, 2.175106e+001
1.531674e+002, 2.171062e+001
1.536495e+002, 2.157880e+001
1.541316e+002, 2.135670e+001
1.546137e+002, 2.099984e+001
1.550958e+002, 2.059096e+001
1.555779e+002, 2.008616e+001
1.560601e+002, 1.926263e+001
1.565422e+002, 1.886318e+001
1.570243e+002, 1.918102e+001
1.575064e+002, 1.998908e+001
1.579885e+002, 2.084769e+001
1.584706e+002, 2.176885e+001
1.589528e+002, 2.264154e+001
1.594349e+002, 2.338000e+001
1.599170e+002, 2.378017e+001
1.603991e+002, 2.438585e+001
1.608812e+002, 2.508496e+001
1.613633e+002, 2.606674e+001
1.618455e+002, 2.782779e+001
1.623276e+002, 3.067677e+001
1.628097e+002, 3.426085e+001
1.632918e+002, 3.861532e+001
1.637739e+002, 4.527407e+001
1.642560e+002, 5.054867e+001
1.647382e+002, 5.172298e+001
1.652203e+002, 4.980782e+001
1.657024e+002, 4.867101e+001
1.661845e+002, 5.044448e+001
1.666666e+002, 5.370410e+001
1.671487e+002, 5.717985e+001
1.676309e+002, 6.069995e+001
1.681130e+002, 6.420184e+001
1.685951e+002, 6.749755e+001
1.690772e+002, 7.065640e+001
1.695593e+002, 7.401675e+001
1.700414e+002, 7.811815e+001
1.705236e+002, 8.245213e+001
1.710057e+002, 8.634953e+001
1.714878e+002, 8.933572e+001
1.719699e+002, 9.205596e+001
1.724520e+002, 9.483889e+001
1.729341e+002, 9.771610e+001
1.734163e+002, 1.009635e+002
1.738984e+002, 1.051269e+002
1.743805e+002, 1.097917e+002
1.748626e+002, 1.141388e+002
1.753447e+002, 1.179496e+002
1.758268e+002, 1.213348e+002
1.763090e+002, 1.241417e+002
1.767911e+002, 1.263380e+002
1.772732e+002, 1.288449e+002
1.777553e+002, 1.322069e+002
1.782374e+002, 1.358711e+002
1.787195e+002, 1.391943e+002
1.792017e+002, 1.416387e+002
1.796838e+002, 1.437475e+002
1.801659e+002, 1.463234e+002
1.806480e+002, 1.494175e+002
1.811301e+002, 1.526453e+002
1.816122e+002, 1.556855e+002
1.820944e+002, 1.586030e+002
1.825765e+002, 1.615293e+002
1.830586e+002, 1.646611e+002
1.835407e+002, 1.678296e+002
1.840228e+002, 1.706917e+002
1.845049e+002, 1.731406e+002
1.849871e+002, 1.757413e+002
1.854692e+002, 1.794556e+002
1.859513e+002, 1.840684e+002
1.864334e+002, 1.882114e+002
1.869155e+002, 1.909525e+002
1.873976e+002, 1.927137e+002
1.878798e+002, 1.948800e+002
1.883619e+002, 1.974731e+002
1.888440e+002, 2.005110e+002
1.893261e+002, 2.041310e+002
1.898082e+002, 2.083200e+002
1.902903e+002, 2.125114e+002
1.907725e+002, 2.164181e+002
1.912546e+002, 2.201224e+002
1.917367e+002, 2.237739e+002
1.922188e+002, 2.274089e+002
1.927009e+002, 2.309682e+002
1.931830e+002, 2.342764e+002
1.936652e+002, 2.373222e+002
1.941473e+002, 2.402435e+002
1.946294e+002, 2.430941e+002
1.951115e+002, 2.458691e+002
1.955936e+002, 2.484454e+002
1.960757e+002, 2.507372e+002
1.965579e+002, 2.529638e+002
1.970400e+002, 2.556660e+002
1.975221e+002, 2.589037e+002
1.980042e+002, 2.619715e+002
1.984863e+002, 2.645343e+002
1.989684e+002, 2.665817e+002
1.994506e+002, 2.682771e+002
1.999327e+002, 2.695595e+002
2.004148e+002, 2.705726e+002
2.008969e+002, 2.715650e+002
2.013790e+002, 2.725328e+002
2.018611e+002, 2.735606e+002
2.023433e+002, 2.746315e+002
2.028254e+002, 2.757188e+002
2.033075e+002, 2.772241e+002
2.037896e+002, 2.792916e+002
2.042717e+002, 2.816714e+002
2.047538e+002, 2.837657e+002
2.052360e+002, 2.855926e+002
2.057181e+002, 2.870623e+002
2.062002e+002, 2.881038e+002
2.066823e+002, 2.886952e+002
2.071644e+002, 2.889631e+002
2.076465e+002, 2.888543e+002
2.081287e+002, 2.884579e+002
2.086108e+002, 2.879917e+002
2.090929e+002, 2.873969e+002
2.095750e+002, 2.868839e+002
2.100571e+002, 2.866414e+002
2.105392e+002, 2.867584e+002
2.110214e+002, 2.866590e+002
2.115035e+002, 2.860747e+002
2.119856e+002, 2.853154e+002
2.124677e+002, 2.856146e+002
2.129498e+002, 2.874532e+002
2.134319e+002, 2.892929e+002
2.139140e+002, 2.901339e+002
2.143962e+002, 2.896639e+002
2.148783e+002, 2.893448e+002
2.153604e+002, 2.893300e+002
2.158425e+002, 2.895556e+002
2.163246e+002, 2.897342e+002
2.168067e+002, 2.897640e+002
2.172889e+002, 2.899381e+002
2.177710e+002, 2.905456e+002
2.182531e+002, 2.918997e+002
2.187352e+002, 2.927083e+002
2.192173e+002, 2.926510e+002
2.196994e+002, 2.919585e+002
2.201816e+002, 2.917389e+002
2.206637e+002, 2.921086e+002
2.211458e+002, 2.927208e+002
2.216279e+002, 2.933731e+002
2.221100e+002, 2.940859e+002
2.225921e+002, 2.947888e+002
2.230743e+002, 2.954731e+002
2.235564e+002, 2.961445e+002
2.240385e+002, 2.968896e+002
2.245206e+002, 2.978013e+002
2.250027e+002, 2.986284e+002
2.254848e+002, 2.991773e+002
2.259670e+002, 2.992655e+002
2.264491e+002, 2.995166e+002
2.269312e+002, 2.999492e+002
2.274133e+002, 3.005805e+002
2.278954e+002, 3.016008e+002
2.283775e+002, 3.033603e+002
2.288597e+002, 3.049754e+002
2.293418e+002, 3.057847e+002
2.298239e+002, 3.052057e+002
2.303060e+002, 3.051871e+002
2.307881e+002, 3.060619e+002
2.312702e+002, 3.076244e+002
2.317524e+002, 3.088824e+002
2.322345e+002, 3.097242e+002
2.327166e+002, 3.103851e+002
2.331987e+002, 3.109421e+002
2.336808e+002, 3.112176e+002
2.341629e+002, 3.117699e+002
2.346451e+002, 3.127218e+002
2.351272e+002, 3.139796e+002
2.356093e+002, 3.151962e+002
2.360914e+002, 3.165170e+002
2.365735e+002, 3.175984e+002
2.370556e+002, 3.181667e+002
2.375378e+002, 3.177689e+002
2.380199e+002, 3.178887e+002
2.385020e+002, 3.188550e+002
2.389841e+002, 3.204145e+002
2.394662e+002, 3.214637e+002
2.399483e+002, 3.217145e+002
2.404305e+002, 3.218712e+002
2.409126e+002, 3.223447e+002
2.413947e+002, 3.234102e+002
2.418768e+002, 3.241613e+002
2.423589e+002, 3.242527e+002
2.428410e+002, 3.240193e+002
2.433232e+002, 3.247085e+002
2.438053e+002, 3.267091e+002
2.442874e+002, 3.290956e+002
2.447695e+002, 3.314175e+002
2.452516e+002, 3.337321e+002
2.457337e+002, 3.358733e+002
2.462159e+002, 3.378419e+002
2.466980e+002, 3.396295e+002
2.471801e+002, 3.411937e+002
2.476622e+002, 3.425790e+002
2.481443e+002, 3.436854e+002
2.486264e+002, 3.443718e+002
2.491086e+002, 3.442789e+002
2.495907e+002, 3.446901e+002
2.500728e+002, 3.460070e+002
2.505549e+002, 3.477363e+002
2.510370e+002, 3.484759e+002
2.515191e+002, 3.476565e+002
2.520013e+002, 3.467641e+002
2.524834e+002, 3.464589e+002
2.529655e+002, 3.469643e+002
2.534476e+002, 3.475199e+002
2.539297e+002, 3.482413e+002
2.544118e+002, 3.489666e+002
2.548940e+002, 3.492752e+002
2.553761e+002, 3.488434e+002
2.558582e+002, 3.485635e+002
2.563403e+002, 3.487826e+002
2.568224e+002, 3.495265e+002
2.573046e+002, 3.506863e+002
2.577867e+002, 3.524083e+002
2.582688e+002, 3.544286e+002
2.587509e+002, 3.561987e+002
2.592330e+002, 3.575147e+002
2.597151e+002, 3.589417e+002
2.601973e+002, 3.606735e+002
2.606794e+002, 3.626608e+002
2.611615e+002, 3.649650e+002
2.616436e+002, 3.673857e+002
2.621257e+002, 3.702661e+002
2.626078e+002, 3.744165e+002
2.630900e+002, 3.804730e+002
2.635721e+002, 3.862313e+002
2.640542e+002, 3.910080e+002
2.645363e+002, 3.948916e+002
2.650184e+002, 3.975356e+002
2.655005e+002, 3.987409e+002
2.659827e+002, 3.990271e+002
2.664648e+002, 3.991326e+002
2.669469e+002, 3.991080e+002
2.674290e+002, 3.987743e+002
2.679111e+002, 3.981893e+002
2.683932e+002, 3.973930e+002
2.688754e+002, 3.954493e+002
2.693575e+002, 3.919273e+002
2.698396e+002, 3.879113e+002
2.703217e+002, 3.848172e+002
2.708038e+002, 3.828021e+002
2.712859e+002, 3.810923e+002
2.717681e+002, 3.794998e+002
2.722502e+002, 3.780296e+002
2.727323e+002, 3.768190e+002
2.732144e+002, 3.759340e+002
2.736965e+002, 3.752112e+002
2.741786e+002, 3.744262e+002
2.746608e+002, 3.735003e+002
2.751429e+002, 3.729306e+002
2.756250e+002, 3.729578e+002
2.761071e+002, 3.734796e+002
2.765892e+002, 3.737254e+002
2.770714e+002, 3.736708e+002
2.775535e+002, 3.733999e+002
2.780356e+002, 3.729434e+002
2.785177e+002, 3.722824e+002
2.789998e+002, 3.715879e+002
2.794819e+002, 3.708167e+002
2.799641e+002, 3.700475e+002
2.804462e+002, 3.697253e+002
2.809283e+002, 3.699254e+002
2.814104e+002, 3.702382e+002
2.818925e+002, 3.703689e+002
2.823746e+002, 3.703189e+002
2.828568e+002, 3.701205e+002
2.833389e+002, 3.697143e+002
2.838210e+002, 3.692287e+002
2.843031e+002, 3.690683e+002
2.847852e+002, 3.692783e+002
2.852673e+002, 3.695103e+002
2.857495e+002, 3.693856e+002
2.862316e+002, 3.689639e+002
2.867137e+002, 3.689796e+002
2.871958e+002, 3.695691e+002
2.876779e+002, 3.705833e+002
2.881600e+002, 3.718233e+002
2.886422e+002, 3.732928e+002
2.891243e+002, 3.747264e+002
2.896064e+002, 3.758976e+002
2.900885e+002, 3.768539e+002
2.905706e+002, 3.777340e+002
2.910527e+002, 3.784599e+002
2.915349e+002, 3.793104e+002
2.920170e+002, 3.808798e+002
2.924991e+002, 3.830892e+002
2.929812e+002, 3.852798e+002
2.934633e+002, 3.869984e+002
2.939454e+002, 3.883914e+002
2.944276e+002, 3.898165e+002
2.949097e+002, 3.912222e+002
2.953918e+002, 3.929168e+002
2.958739e+002, 3.954318e+002
2.963560e+002, 3.986230e+002
2.968381e+002, 4.019262e+002
2.973203e+002, 4.048130e+002
2.978024e+002, 4.076386e+002
2.982845e+002, 4.111545e+002
2.987666e+002, 4.154033e+002
2.992487e+002, 4.202312e+002
2.997308e+002, 4.258746e+002
3.002130e+002, 4.320953e+002
3.006951e+002, 4.381006e+002
3.011772e+002, 4.429532e+002
3.016593e+002, 4.476962e+002
3.021414e+002, 4.538924e+002
3.026235e+002, 4.614758e+002
3.031057e+002, 4.700199e+002
3.035878e+002, 4.791335e+002
3.040699e+002, 4.889184e+002
3.045520e+002, 4.993793e+002
3.050341e+002, 5.104699e+002
3.055162e+002, 5.222471e+002
3.059984e+002, 5.347946e+002
3.064805e+002, 5.480531e+002
3.069626e+002, 5.624524e+002
3.074447e+002, 5.782807e+002
3.079268e+002, 5.953259e+002
3.084089e+002, 6.131194e+002
3.088911e+002, 6.317043e+002
3.093732e+002, 6.507820e+002
3.098553e+002, 6.698153e+002
3.103374e+002, 6.889748e+002
3.108195e+002, 7.092914e+002
3.113016e+002, 7.309312e+002
3.117838e+002, 7.538927e+002
3.122659e+002, 7.784258e+002
3.127480e+002, 8.044962e+002
3.132301e+002, 8.320770e+002
3.137122e+002, 8.608004e+002
3.141943e+002, 8.913231e+002
3.146765e+002, 9.244153e+002
3.151586e+002, 9.599826e+002
3.156407e+002, 9.984127e+002
3.161228e+002, 1.040113e+003
3.166049e+002, 1.084672e+003
3.170870e+002, 1.133740e+003
3.175692e+002, 1.187654e+003
3.180513e+002, 1.246223e+003
3.185334e+002, 1.308909e+003
3.190155e+002, 1.376211e+003
3.194976e+002, 1.447037e+003
3.199797e+002, 1.521365e+003
3.204619e+002, 1.599491e+003
3.209440e+002, 1.677566e+003
3.214261e+002, 1.759040e+003
3.219082e+002, 1.837259e+003
3.223903e+002, 1.905552e+003
3.228724e+002, 1.970819e+003
3.233546e+002, 2.017629e+003
3.238367e+002, 2.044529e+003
3.243188e+002, 2.051174e+003
3.248009e+002, 2.031093e+003
3.252830e+002, 1.976522e+003
3.257651e+002, 1.899355e+003
3.262473e+002, 1.807347e+003
3.267294e+002, 1.688536e+003
3.272115e+002, 1.569691e+003
3.276936e+002, 1.448341e+003
3.281757e+002, 1.327823e+003
3.286578e+002, 1.219021e+003
3.291400e+002, 1.122300e+003
3.296221e+002, 1.036891e+003
3.301042e+002, 9.618853e+002
3.305863e+002, 8.992755e+002
3.310684e+002, 8.435705e+002
3.315505e+002, 7.962316e+002
3.320327e+002, 7.557686e+002
3.325148e+002, 7.195258e+002
3.329969e+002, 6.877488e+002
3.334790e+002, 6.597589e+002
3.339611e+002, 6.350279e+002
3.344432e+002, 6.137683e+002
3.349254e+002, 5.949205e+002
3.354075e+002, 5.793240e+002
3.358896e+002, 5.656125e+002
3.363717e+002, 5.518827e+002
3.368538e+002, 5.377598e+002
3.373359e+002, 5.247977e+002
3.378180e+002, 5.135148e+002
3.383001e+002, 5.039445e+002
3.387823e+002, 4.955800e+002
3.392644e+002, 4.886691e+002
3.397465e+002, 4.826695e+002
3.402286e+002, 4.774104e+002
3.407107e+002, 4.732154e+002
3.411928e+002, 4.680068e+002
3.416750e+002, 4.609913e+002
3.421571e+002, 4.528660e+002
3.426392e+002, 4.469240e+002
3.431213e+002, 4.433991e+002
3.436034e+002, 4.405570e+002
3.440855e+002, 4.370020e+002
3.445677e+002, 4.328154e+002
3.450498e+002, 4.292509e+002
3.455319e+002, 4.265223e+002
3.460140e+002, 4.244232e+002
3.464961e+002, 4.227386e+002
3.469782e+002, 4.214571e+002
3.474604e+002, 4.201100e+002
3.479425e+002, 4.182647e+002
3.484246e+002, 4.161140e+002
3.489067e+002, 4.143689e+002
3.493888e+002, 4.130460e+002
3.498709e+002, 4.122275e+002
3.503531e+002, 4.122213e+002
3.508352e+002, 4.128632e+002
3.513173e+002, 4.135439e+002
3.517994e+002, 4.141572e+002
3.522815e+002, 4.145927e+002
3.527636e+002, 4.144383e+002
3.532458e+002, 4.136915e+002
3.537279e+002, 4.132169e+002
3.542100e+002, 4.139204e+002
3.546921e+002, 4.153631e+002
3.551742e+002, 4.167814e+002
3.556563e+002, 4.178757e+002
3.561385e+002, 4.189310e+002
3.566206e+002, 4.201424e+002
3.571027e+002, 4.215304e+002
3.575848e+002, 4.231618e+002
3.580669e+002, 4.251091e+002
3.585490e+002, 4.273172e+002
3.590312e+002, 4.297554e+002
3.595133e+002, 4.325214e+002
3.599954e+002, 4.353493e+002
3.604775e+002, 4.380331e+002
3.609596e+002, 4.406898e+002
3.614417e+002, 4.435150e+002
3.619239e+002, 4.463497e+002
3.624060e+002, 4.495934e+002
3.628881e+002, 4.534706e+002
3.633702e+002, 4.580306e+002
3.638523e+002, 4.630938e+002
3.643344e+002, 4.687156e+002
3.648166e+002, 4.747712e+002
3.652987e+002, 4.811720e+002
3.657808e+002, 4.878089e+002
3.662629e+002, 4.947081e+002
3.667450e+002, 5.016432e+002
3.672271e+002, 5.086233e+002
3.677093e+002, 5.165895e+002
3.681914e+002, 5.262416e+002
3.686735e+002, 5.365349e+002
3.691556e+002, 5.468676e+002
3.696377e+002, 5.562051e+002
3.701198e+002, 5.665643e+002
3.706020e+002, 5.785532e+002
3.710841e+002, 5.916832e+002
3.715662e+002, 6.042663e+002
3.720483e+002, 6.161100e+002
3.725304e+002, 6.274579e+002
3.730125e+002, 6.386829e+002
3.734947e+002, 6.506010e+002
3.739768e+002, 6.598115e+002
3.744589e+002, 6.662411e+002
3.749410e+002, 6.701268e+002
3.754231e+002, 6.720187e+002
3.759052e+002, 6.724870e+002
3.763874e+002, 6.694517e+002
3.768695e+002, 6.620946e+002
3.773516e+002, 6.503636e+002
3.778337e+002, 6.364095e+002
3.783158e+002, 6.198146e+002
3.787979e+002, 6.017429e+002
3.792801e+002, 5.830743e+002
3.797622e+002, 5.635809e+002
3.802443e+002, 5.450530e+002
3.807264e+002, 5.275609e+002
3.812085e+002, 5.112252e+002
3.816906e+002, 4.960952e+002
3.821728e+002, 4.822132e+002
3.826549e+002, 4.696677e+002
3.831370e+002, 4.589764e+002
3.836191e+002, 4.497950e+002
3.841012e+002, 4.411564e+002
3.845833e+002, 4.327809e+002
3.850655e+002, 4.251789e+002
3.855476e+002, 4.192615e+002
3.860297e+002, 4.147320e+002
3.865118e+002, 4.108580e+002
3.869939e+002, 4.073995e+002
3.874760e+002, 4.042930e+002
3.879582e+002, 4.014977e+002
3.884403e+002, 3.989933e+002
3.889224e+002, 3.965947e+002
3.894045e+002, 3.940843e+002
3.898866e+002, 3.916337e+002
3.903687e+002, 3.894654e+002
3.908509e+002, 3.876743e+002
3.913330e+002, 3.862141e+002
3.918151e+002, 3.852697e+002
3.922972e+002, 3.846992e+002
3.927793e+002, 3.839004e+002
3.932614e+002, 3.820352e+002
3.937436e+002, 3.801779e+002
3.942257e+002, 3.791489e+002
3.947078e+002, 3.794573e+002
3.951899e+002, 3.797129e+002
3.956720e+002, 3.793598e+002
3.961541e+002, 3.786479e+002
3.966363e+002, 3.779817e+002
3.971184e+002, 3.774493e+002
3.976005e+002, 3.769818e+002
3.980826e+002, 3.765679e+002
3.985647e+002, 3.762113e+002
3.990468e+002, 3.758595e+002
3.995290e+002, 3.753232e+002
4.000111e+002, 3.748940e+002
4.004932e+002, 3.748185e+002
4.009753e+002, 3.756802e+002
4.014574e+002, 3.760910e+002
4.019395e+002, 3.755416e+002
4.024217e+002, 3.743665e+002
4.029038e+002, 3.742251e+002
4.033859e+002, 3.757166e+002
4.038680e+002, 3.773660e+002
4.043501e+002, 3.784809e+002
4.048322e+002, 3.789343e+002
4.053144e+002, 3.792483e+002
4.057965e+002, 3.793831e+002
4.062786e+002, 3.794209e+002
4.067607e+002, 3.795282e+002
4.072428e+002, 3.797484e+002
4.077249e+002, 3.797611e+002
4.082071e+002, 3.792245e+002
4.086892e+002, 3.783365e+002
4.091713e+002, 3.785381e+002
4.096534e+002, 3.799656e+002
4.101355e+002, 3.816971e+002
4.106176e+002, 3.827977e+002
4.110998e+002, 3.834099e+002
4.115819e+002, 3.844044e+002
4.120640e+002, 3.860930e+002
4.125461e+002, 3.879953e+002
