##NAMES=Durangite
##RRUFFID=R060889
##IDEAL CHEMISTRY=NaAlAs^5+^O_4_F
##LOCALITY=northern end Thomas Range, Juab County, Utah, USA
##OWNER=RRUFF
##SOURCE=Bob Jenkins
##DESCRIPTION=Equant red crystals with a dusting of white powder
##STATUS=The identification of this mineral is confirmed by single-crystal X-ray diffraction and chemical analysis.
##URL=rruff.info/R060889
##MEASURED CHEMISTRY=(Na_0.80_Li_0.18_Ca_0.02_)_Σ=1_(Al_0.78_Fe^3+^_0.20_Mn_0.02_)_Σ=1_As_1.00_O_4_(F_0.60_(OH)_0.40_)_Σ=1_ ; Li estimated by difference; OH estimated by charge balance
182.2741, 9503.790
182.7562, 9517.759
183.2384, 9534.780
183.7205, 9556.680
184.2026, 9580.957
184.6847, 9605.369
185.1668, 9630.578
185.6489, 9652.182
186.1311, 9664.617
186.6132, 9671.998
187.0953, 9679.702
187.5774, 9689.181
188.0595, 9699.937
188.5416, 9708.333
189.0238, 9711.191
189.5059, 9724.370
189.9880, 9778.437
190.4701, 9845.063
190.9522, 9881.466
191.4343, 9855.989
191.9165, 9808.014
192.3986, 9799.950
192.8807, 9840.688
193.3628, 9886.881
193.8449, 9917.620
194.3270, 9939.345
194.8092, 9958.241
195.2913, 9974.003
195.7734, 9990.165
196.2555, 10014.15
196.7376, 10048.95
197.2197, 10079.49
197.7019, 10096.27
198.1840, 10104.77
198.6661, 10109.29
199.1482, 10108.48
199.6303, 10107.29
200.1124, 10115.25
200.5946, 10135.39
201.0767, 10150.27
201.5588, 10139.43
202.0409, 10122.12
202.5230, 10122.16
203.0051, 10155.48
203.4873, 10194.04
203.9694, 10197.80
204.4515, 10160.70
204.9336, 10122.19
205.4157, 10093.89
205.8978, 10075.78
206.3800, 10072.05
206.8621, 10089.69
207.3442, 10110.18
207.8263, 10109.31
208.3084, 10084.65
208.7905, 10059.16
209.2727, 10037.47
209.7548, 10022.13
210.2369, 10017.24
210.7190, 10025.55
211.2011, 10039.44
211.6832, 10052.84
212.1654, 10065.91
212.6475, 10074.92
213.1296, 10076.17
213.6117, 10073.81
214.0938, 10069.65
214.5760, 10061.20
215.0581, 10060.62
215.5402, 10086.96
216.0223, 10140.17
216.5044, 10180.12
216.9865, 10185.57
217.4687, 10177.98
217.9508, 10180.16
218.4329, 10194.92
218.9150, 10214.11
219.3971, 10236.52
219.8792, 10261.11
220.3614, 10272.07
220.8435, 10258.42
221.3256, 10234.67
221.8077, 10212.54
222.2898, 10190.60
222.7719, 10183.64
223.2541, 10212.75
223.7362, 10270.25
224.2183, 10313.85
224.7004, 10333.48
225.1825, 10334.44
225.6646, 10316.56
226.1468, 10278.64
226.6289, 10255.14
227.1110, 10277.72
227.5931, 10331.69
228.0752, 10367.45
228.5573, 10370.53
229.0395, 10361.08
229.5216, 10358.38
230.0037, 10361.85
230.4858, 10367.70
230.9679, 10371.73
231.4500, 10377.17
231.9322, 10394.07
232.4143, 10428.45
232.8964, 10462.53
233.3785, 10477.13
233.8606, 10475.61
234.3427, 10471.91
234.8249, 10454.23
235.3070, 10442.28
235.7891, 10473.76
236.2712, 10559.21
236.7533, 10655.29
237.2354, 10733.92
237.7176, 10794.38
238.1997, 10822.66
238.6818, 10788.75
239.1639, 10735.95
239.6460, 10714.74
240.1281, 10729.08
240.6103, 10749.57
241.0924, 10751.35
241.5745, 10740.35
242.0566, 10746.66
242.5387, 10791.28
243.0208, 10840.50
243.5030, 10865.16
243.9851, 10866.82
244.4672, 10867.69
244.9493, 10882.98
245.4314, 10908.72
245.9135, 10924.82
246.3957, 10922.33
246.8778, 10918.98
247.3599, 10925.28
247.8420, 10939.25
248.3241, 10953.43
248.8062, 10964.29
249.2884, 10972.35
249.7705, 10979.52
250.2526, 10981.21
250.7347, 10987.61
251.2168, 10997.13
251.6989, 11013.88
252.1811, 11048.45
252.6632, 11106.86
253.1453, 11180.62
253.6274, 11250.69
254.1095, 11316.27
254.5916, 11379.54
255.0738, 11429.79
255.5559, 11481.13
256.0380, 11555.74
256.5201, 11661.08
257.0022, 11780.92
257.4843, 11889.37
257.9665, 11975.63
258.4486, 12070.77
258.9307, 12185.52
259.4128, 12304.07
259.8949, 12412.12
260.3770, 12507.20
260.8592, 12596.16
261.3413, 12689.56
261.8234, 12795.70
262.3055, 12875.47
262.7876, 12926.39
263.2697, 12956.92
263.7519, 12977.79
264.2340, 12985.80
264.7161, 12963.04
265.1982, 12889.02
265.6803, 12756.58
266.1624, 12638.32
266.6446, 12552.37
267.1267, 12460.62
267.6088, 12344.41
268.0909, 12210.17
268.5730, 12075.07
269.0551, 11950.17
269.5373, 11835.36
270.0194, 11729.27
270.5015, 11632.75
270.9836, 11545.28
271.4657, 11471.84
271.9478, 11406.21
272.4300, 11339.80
272.9121, 11267.53
273.3942, 11193.34
273.8763, 11126.99
274.3584, 11068.21
274.8405, 11019.86
275.3227, 10990.46
275.8048, 10966.19
276.2869, 10931.27
276.7690, 10880.76
277.2511, 10827.67
277.7332, 10794.89
278.2154, 10790.27
278.6975, 10781.87
279.1796, 10755.98
279.6617, 10731.93
280.1438, 10722.04
280.6259, 10727.84
281.1081, 10742.04
281.5902, 10766.51
282.0723, 10803.63
282.5544, 10807.25
283.0365, 10737.54
283.5186, 10669.00
284.0008, 10645.41
284.4829, 10660.38
284.9650, 10681.17
285.4471, 10689.71
285.9292, 10686.87
286.4113, 10673.86
286.8935, 10642.73
287.3756, 10616.90
287.8577, 10615.72
288.3398, 10629.25
288.8219, 10637.79
289.3040, 10633.34
289.7862, 10620.27
290.2683, 10602.26
290.7504, 10578.03
291.2325, 10558.12
291.7146, 10545.14
292.1967, 10541.83
292.6789, 10555.49
293.1610, 10603.44
293.6431, 10644.32
294.1252, 10626.36
294.6073, 10562.06
295.0894, 10537.25
295.5716, 10602.91
296.0537, 10708.02
296.5358, 10752.13
297.0179, 10715.74
297.5000, 10685.81
297.9821, 10707.75
298.4643, 10757.51
298.9464, 10788.25
299.4285, 10785.10
299.9106, 10772.68
300.3927, 10784.14
300.8748, 10823.12
301.3570, 10867.58
301.8391, 10921.81
302.3212, 10976.48
302.8033, 11024.00
303.2854, 11063.54
303.7675, 11096.60
304.2497, 11122.88
304.7318, 11141.14
305.2139, 11171.83
305.6960, 11206.21
306.1781, 11259.42
306.6602, 11352.27
307.1424, 11470.40
307.6245, 11580.21
308.1066, 11659.94
308.5887, 11715.32
309.0708, 11778.92
309.5529, 11829.24
310.0351, 11914.49
310.5172, 12073.92
310.9993, 12258.16
311.4814, 12403.85
311.9635, 12486.71
312.4456, 12544.41
312.9278, 12650.48
313.4099, 12825.30
313.8920, 13007.29
314.3741, 13184.67
314.8562, 13372.76
315.3383, 13586.68
315.8205, 13825.64
316.3026, 14071.66
316.7847, 14309.96
317.2668, 14540.63
317.7489, 14762.96
318.2310, 14985.29
318.7132, 15189.25
319.1953, 15377.93
319.6774, 15543.42
320.1595, 15671.88
320.6416, 15756.47
321.1237, 15796.68
321.6059, 15788.25
322.0880, 15726.03
322.5701, 15626.02
323.0522, 15488.58
323.5343, 15319.52
324.0164, 15120.74
324.4986, 14887.91
324.9807, 14632.58
325.4628, 14354.60
325.9449, 14056.18
326.4270, 13781.68
326.9091, 13553.31
327.3913, 13351.09
327.8734, 13142.15
328.3555, 12922.19
328.8376, 12716.92
329.3197, 12536.50
329.8018, 12379.39
330.2840, 12247.04
330.7661, 12143.84
331.2482, 12042.17
331.7303, 11904.52
332.2124, 11725.64
332.6945, 11577.27
333.1767, 11476.60
333.6588, 11398.77
334.1409, 11334.32
334.6230, 11278.18
335.1051, 11212.90
335.5873, 11121.55
336.0694, 11009.32
336.5515, 10931.34
337.0336, 10919.69
337.5157, 10900.26
337.9979, 10846.24
338.4800, 10775.77
338.9621, 10716.19
339.4442, 10678.91
339.9263, 10654.84
340.4084, 10625.26
340.8906, 10585.50
341.3727, 10547.83
341.8548, 10501.99
342.3369, 10465.41
342.8190, 10457.75
343.3011, 10476.55
343.7833, 10495.79
344.2654, 10485.77
344.7475, 10443.78
345.2296, 10415.52
345.7117, 10407.01
346.1938, 10406.42
346.6760, 10416.77
347.1581, 10430.70
347.6402, 10433.51
348.1223, 10413.12
348.6044, 10381.51
349.0865, 10366.60
349.5687, 10373.54
350.0508, 10376.46
350.5329, 10352.39
351.0150, 10325.31
351.4971, 10325.26
351.9792, 10363.65
352.4614, 10402.37
352.9435, 10405.65
353.4256, 10383.37
353.9077, 10377.58
354.3898, 10403.45
354.8719, 10438.43
355.3541, 10454.24
355.8362, 10452.15
356.3183, 10448.95
356.8004, 10446.67
357.2825, 10446.08
357.7646, 10445.94
358.2468, 10446.91
358.7289, 10455.48
359.2110, 10477.87
359.6931, 10512.93
360.1752, 10544.88
360.6573, 10576.55
361.1395, 10602.54
361.6216, 10617.04
362.1037, 10625.76
362.5858, 10637.96
363.0679, 10657.53
363.5500, 10681.58
364.0322, 10703.63
364.5143, 10717.20
364.9964, 10740.91
365.4785, 10780.41
365.9606, 10824.42
366.4427, 10865.49
366.9249, 10903.18
367.4070, 10942.12
367.8891, 10989.23
368.3712, 11044.30
368.8533, 11083.76
369.3354, 11104.95
369.8176, 11112.26
370.2997, 11102.88
370.7818, 11083.09
371.2639, 11063.78
371.7460, 11051.99
372.2281, 11037.41
372.7103, 11003.27
373.1924, 10948.42
373.6745, 10885.78
374.1566, 10814.77
374.6387, 10741.21
375.1208, 10672.95
375.6030, 10611.31
376.0851, 10545.59
376.5672, 10461.97
377.0493, 10372.06
377.5314, 10301.18
378.0135, 10254.97
378.4957, 10212.86
378.9778, 10154.16
379.4599, 10079.17
379.9420, 10018.32
380.4241, 9984.472
380.9063, 9953.184
381.3884, 9909.545
381.8705, 9857.454
382.3526, 9808.614
382.8347, 9769.740
383.3168, 9736.073
383.7990, 9694.781
384.2811, 9637.574
384.7632, 9583.238
385.2453, 9519.563
385.7274, 9466.910
386.2095, 9449.391
386.6917, 9466.357
387.1738, 9491.191
387.6559, 9495.712
388.1380, 9478.510
388.6201, 9462.846
389.1022, 9447.011
389.5844, 9434.969
390.0665, 9427.656
390.5486, 9424.807
391.0307, 9427.962
391.5128, 9441.442
391.9949, 9453.741
392.4771, 9439.968
392.9592, 9395.833
393.4413, 9364.343
393.9234, 9368.219
394.4055, 9383.370
394.8876, 9378.947
395.3698, 9351.526
395.8519, 9335.279
396.3340, 9357.979
396.8161, 9400.236
397.2982, 9429.947
397.7803, 9442.954
398.2625, 9442.100
398.7446, 9427.366
399.2267, 9398.571
399.7088, 9368.559
400.1909, 9328.828
400.6730, 9296.540
401.1552, 9284.874
401.6373, 9285.385
402.1194, 9279.161
402.6015, 9257.787
403.0836, 9232.453
403.5657, 9227.409
404.0479, 9264.220
404.5300, 9282.369
405.0121, 9270.371
405.4942, 9251.923
405.9763, 9241.415
406.4584, 9239.072
406.9406, 9237.702
407.4227, 9231.554
407.9048, 9221.352
408.3869, 9211.334
408.8690, 9200.728
409.3511, 9192.070
409.8333, 9185.506
410.3154, 9181.535
410.7975, 9181.015
411.2796, 9184.321
411.7617, 9190.160
412.2438, 9194.779
412.7260, 9199.637
413.2081, 9216.867
413.6902, 9254.786
414.1723, 9293.967
414.6544, 9308.242
415.1365, 9300.590
415.6187, 9299.656
416.1008, 9318.652
416.5829, 9340.386
417.0650, 9350.314
417.5471, 9349.632
418.0292, 9346.613
418.5114, 9345.396
418.9935, 9346.148
419.4756, 9349.444
419.9577, 9366.355
420.4398, 9371.437
420.9219, 9353.422
421.4041, 9329.473
421.8862, 9315.646
422.3683, 9313.694
422.8504, 9313.330
423.3325, 9301.700
423.8146, 9278.199
424.2968, 9270.094
424.7789, 9294.711
425.2610, 9312.389
425.7431, 9305.044
426.2252, 9284.142
426.7073, 9266.907
427.1895, 9260.365
427.6716, 9257.035
428.1537, 9246.605
428.6358, 9229.480
429.1179, 9216.424
429.6000, 9211.109
430.0822, 9209.316
430.5643, 9206.098
431.0464, 9201.548
431.5285, 9199.099
432.0106, 9209.890
432.4927, 9216.301
432.9749, 9189.623
433.4570, 9136.660
433.9391, 9103.142
434.4212, 9120.573
434.9033, 9172.836
435.3854, 9197.195
435.8676, 9155.317
436.3497, 9135.217
436.8318, 9157.437
437.3139, 9195.366
437.7960, 9227.829
438.2781, 9249.911
438.7603, 9266.188
439.2424, 9279.154
439.7245, 9288.705
440.2066, 9307.889
440.6887, 9344.365
441.1708, 9380.276
441.6530, 9404.006
442.1351, 9425.071
442.6172, 9458.339
443.0993, 9511.535
443.5814, 9568.019
444.0635, 9610.240
444.5457, 9639.220
445.0278, 9660.117
445.5099, 9665.737
445.9920, 9679.189
446.4741, 9739.538
446.9562, 9842.019
447.4384, 9917.444
447.9205, 9932.137
448.4026, 9934.709
448.8847, 9960.810
449.3668, 10006.63
449.8489, 10054.01
450.3311, 10094.46
450.8132, 10128.94
451.2953, 10159.81
451.7774, 10177.38
452.2595, 10207.16
452.7416, 10256.86
453.2238, 10312.05
453.7059, 10367.63
454.1880, 10420.40
454.6701, 10464.79
455.1522, 10492.97
455.6343, 10509.94
456.1165, 10541.67
456.5986, 10595.81
457.0807, 10646.78
457.5628, 10683.86
458.0449, 10713.35
458.5270, 10740.75
459.0092, 10766.90
459.4913, 10789.99
459.9734, 10818.83
460.4555, 10842.01
460.9376, 10827.84
461.4197, 10769.20
461.9019, 10703.57
462.3840, 10661.78
462.8661, 10643.09
463.3482, 10622.98
463.8303, 10612.94
464.3124, 10589.01
464.7946, 10532.50
465.2767, 10460.97
465.7588, 10399.14
466.2409, 10354.60
466.7230, 10318.49
467.2051, 10276.47
467.6873, 10223.83
468.1694, 10188.26
468.6515, 10175.24
469.1336, 10175.20
469.6157, 10191.25
470.0978, 10216.72
470.5800, 10240.99
471.0621, 10260.57
471.5442, 10274.60
472.0263, 10277.06
472.5084, 10269.00
472.9905, 10273.30
473.4727, 10299.52
473.9548, 10334.17
474.4369, 10355.60
474.9190, 10364.31
475.4011, 10395.34
475.8832, 10474.39
476.3654, 10561.93
476.8475, 10629.17
477.3296, 10679.25
477.8117, 10726.00
478.2938, 10775.64
478.7759, 10830.37
479.2581, 10896.27
479.7402, 10984.96
480.2223, 11065.01
480.7044, 11125.14
481.1865, 11186.71
481.6686, 11260.98
482.1508, 11348.30
482.6329, 11445.45
483.1150, 11554.74
483.5971, 11668.65
484.0792, 11764.99
484.5613, 11838.11
485.0435, 11924.40
485.5256, 12050.47
486.0077, 12184.98
486.4898, 12284.71
486.9719, 12345.07
487.4540, 12411.43
487.9362, 12508.73
488.4183, 12615.82
488.9004, 12715.03
489.3825, 12802.47
489.8646, 12867.75
490.3467, 12902.57
490.8289, 12912.38
491.3110, 12920.88
491.7931, 12943.54
492.2752, 12942.81
492.7573, 12916.70
493.2394, 12867.41
493.7216, 12796.00
494.2037, 12703.03
494.6858, 12589.67
495.1679, 12451.00
495.6500, 12293.30
496.1321, 12147.14
496.6143, 12021.10
497.0964, 11881.60
497.5785, 11704.22
498.0606, 11512.48
498.5427, 11336.99
499.0248, 11183.11
499.5070, 11028.55
499.9891, 10853.38
500.4712, 10676.14
500.9533, 10529.24
501.4355, 10413.70
501.9176, 10299.02
502.3997, 10162.14
502.8818, 10009.60
503.3639, 9879.015
503.8460, 9780.314
504.3282, 9692.488
504.8103, 9623.271
505.2924, 9558.692
505.7745, 9484.267
506.2566, 9400.023
506.7387, 9320.685
507.2209, 9263.667
507.7030, 9222.438
508.1851, 9155.747
508.6672, 9048.330
509.1493, 8960.766
509.6314, 8931.291
510.1136, 8929.621
510.5957, 8918.633
511.0778, 8894.924
511.5599, 8866.368
512.0420, 8829.862
512.5241, 8793.791
513.0062, 8774.567
513.4883, 8771.169
513.9705, 8759.348
514.4526, 8718.801
514.9347, 8658.371
515.4168, 8624.794
515.8989, 8648.080
516.3810, 8658.984
516.8632, 8647.900
517.3453, 8626.632
517.8274, 8598.808
518.3095, 8568.667
518.7916, 8547.289
519.2737, 8548.712
519.7559, 8564.567
520.2380, 8564.563
520.7201, 8544.546
521.2022, 8528.886
521.6843, 8529.632
522.1664, 8538.693
522.6486, 8546.504
523.1307, 8555.887
523.6128, 8549.477
524.0949, 8505.234
524.5770, 8453.566
525.0591, 8423.025
525.5413, 8414.581
526.0234, 8419.368
526.5055, 8433.015
526.9876, 8453.263
527.4697, 8473.891
527.9518, 8501.478
528.4340, 8516.736
528.9161, 8517.267
529.3982, 8507.995
529.8803, 8482.031
530.3624, 8447.203
530.8445, 8429.304
531.3267, 8453.080
531.8088, 8494.123
532.2909, 8506.102
532.7730, 8489.535
533.2551, 8478.515
533.7372, 8488.022
534.2194, 8502.345
534.7015, 8496.866
535.1836, 8468.755
535.6657, 8445.216
536.1478, 8433.644
536.6299, 8422.881
537.1121, 8404.655
537.5942, 8381.763
538.0763, 8360.458
538.5584, 8343.419
539.0405, 8331.559
539.5226, 8328.535
540.0048, 8337.844
540.4869, 8340.646
540.9690, 8336.908
541.4511, 8324.927
541.9332, 8303.251
542.4153, 8273.390
542.8975, 8237.864
543.3796, 8193.863
543.8617, 8151.181
544.3438, 8115.581
544.8259, 8087.808
545.3080, 8071.620
545.7902, 8068.550
546.2723, 8069.003
546.7544, 8064.483
547.2365, 8055.043
547.7186, 8038.220
548.2007, 8002.734
548.6829, 7974.134
549.1650, 7961.351
549.6471, 7957.021
550.1292, 7952.239
550.6113, 7945.178
551.0934, 7941.324
551.5756, 7952.442
552.0577, 7973.569
552.5398, 7972.208
553.0219, 7942.163
553.5040, 7910.792
553.9861, 7888.891
554.4683, 7875.351
554.9504, 7867.250
555.4325, 7866.621
555.9146, 7865.374
556.3967, 7859.273
556.8788, 7852.666
557.3610, 7847.797
557.8431, 7846.125
558.3252, 7854.341
558.8073, 7879.222
559.2894, 7908.317
559.7715, 7899.135
560.2537, 7827.327
560.7358, 7777.017
561.2179, 7768.858
561.7000, 7775.663
562.1821, 7790.549
562.6642, 7808.955
563.1464, 7819.704
563.6285, 7818.773
564.1106, 7806.936
564.5927, 7776.449
565.0748, 7733.944
565.5569, 7709.826
566.0391, 7715.335
566.5212, 7724.952
567.0033, 7705.654
567.4854, 7650.793
567.9675, 7619.499
568.4496, 7634.821
568.9318, 7643.717
569.4139, 7618.648
569.8960, 7583.948
570.3781, 7575.412
570.8602, 7600.923
571.3423, 7627.780
571.8245, 7618.657
572.3066, 7581.401
572.7887, 7551.925
573.2708, 7529.978
573.7529, 7524.158
574.2350, 7551.287
574.7172, 7591.014
575.1993, 7592.384
575.6814, 7528.577
576.1635, 7500.910
576.6456, 7578.884
577.1277, 7665.732
577.6099, 7673.092
578.0920, 7612.664
578.5741, 7549.445
579.0562, 7521.388
579.5383, 7515.121
580.0204, 7497.689
580.5026, 7463.176
580.9847, 7444.235
581.4668, 7457.518
581.9489, 7472.875
582.4310, 7468.356
582.9132, 7449.717
583.3953, 7434.765
583.8774, 7431.422
584.3596, 7428.812
584.8417, 7420.822
585.3238, 7408.032
585.8059, 7387.885
586.2880, 7360.828
586.7701, 7340.269
587.2523, 7342.263
587.7344, 7364.790
588.2165, 7366.040
588.6986, 7329.535
589.1807, 7295.737
589.6628, 7269.450
590.1450, 7250.468
590.6271, 7240.286
591.1092, 7238.265
591.5913, 7238.211
592.0734, 7237.820
592.5555, 7236.368
593.0377, 7232.283
593.5198, 7225.840
594.0019, 7219.638
594.4840, 7215.090
594.9661, 7209.793
595.4482, 7199.531
595.9304, 7181.616
596.4125, 7168.461
596.8946, 7164.297
597.3767, 7159.532
597.8588, 7147.729
598.3409, 7134.065
598.8231, 7126.639
599.3052, 7128.020
599.7873, 7132.896
600.2694, 7138.059
600.7515, 7142.479
601.2336, 7141.696
601.7158, 7135.086
602.1979, 7125.619
602.6800, 7112.398
603.1621, 7099.191
603.6442, 7097.458
604.1263, 7117.516
604.6085, 7125.988
605.0906, 7111.849
605.5727, 7091.828
606.0548, 7076.123
606.5369, 7064.222
607.0190, 7050.663
607.5012, 7032.189
607.9833, 7014.074
608.4654, 7007.242
608.9475, 7011.506
609.4296, 7009.130
609.9117, 6994.617
610.3939, 6980.912
610.8760, 6983.223
611.3581, 6994.223
611.8402, 6984.683
612.3223, 6930.931
612.8044, 6889.986
613.2866, 6887.590
613.7687, 6899.518
614.2508, 6906.333
614.7329, 6903.290
615.2150, 6886.490
615.6971, 6849.651
616.1793, 6804.939
616.6614, 6788.892
617.1435, 6806.851
617.6256, 6823.312
618.1077, 6836.372
618.5898, 6839.799
619.0720, 6823.315
619.5541, 6791.323
620.0362, 6762.707
620.5183, 6739.461
621.0004, 6721.375
621.4825, 6710.705
621.9647, 6704.260
622.4468, 6697.958
622.9289, 6690.893
623.4110, 6684.322
623.8931, 6680.025
624.3752, 6676.694
624.8574, 6666.199
625.3395, 6644.724
625.8216, 6628.302
626.3037, 6625.356
626.7858, 6625.060
627.2679, 6617.174
627.7501, 6602.454
628.2322, 6588.368
628.7143, 6571.196
629.1964, 6560.908
629.6785, 6575.660
630.1606, 6598.574
630.6428, 6594.450
631.1249, 6556.533
631.6070, 6513.986
632.0891, 6497.533
632.5712, 6505.310
633.0533, 6517.796
633.5355, 6543.353
634.0176, 6553.514
634.4997, 6522.130
634.9818, 6484.250
635.4639, 6478.027
635.9460, 6503.075
636.4282, 6513.763
636.9103, 6478.498
637.3924, 6439.243
637.8745, 6431.547
638.3566, 6443.247
638.8387, 6447.053
639.3209, 6434.730
639.8030, 6417.250
640.2851, 6407.895
640.7672, 6406.235
641.2493, 6398.241
641.7314, 6376.592
642.2136, 6364.209
642.6957, 6381.477
643.1778, 6403.052
643.6599, 6399.274
644.1420, 6368.665
644.6241, 6349.762
645.1063, 6372.533
645.5884, 6396.262
646.0705, 6385.273
646.5526, 6351.507
647.0347, 6320.392
647.5168, 6300.909
647.9990, 6290.964
648.4811, 6288.365
648.9632, 6293.161
649.4453, 6307.401
649.9274, 6339.875
650.4095, 6361.548
650.8917, 6353.223
651.3738, 6335.050
651.8559, 6329.824
652.3380, 6338.704
652.8201, 6344.948
653.3022, 6340.060
653.7844, 6334.110
654.2665, 6334.924
654.7486, 6339.926
655.2307, 6346.262
655.7128, 6352.120
656.1949, 6349.722
656.6771, 6325.903
657.1592, 6283.147
657.6413, 6257.108
658.1234, 6251.009
658.6055, 6252.345
659.0876, 6258.890
659.5698, 6269.459
660.0519, 6289.221
660.5340, 6319.706
661.0161, 6323.581
661.4982, 6263.303
661.9803, 6204.813
662.4625, 6194.113
662.9446, 6209.688
663.4267, 6215.989
663.9088, 6203.196
664.3909, 6182.222
664.8730, 6161.506
665.3552, 6142.527
665.8373, 6135.042
666.3194, 6141.451
666.8015, 6146.587
667.2836, 6145.528
667.7657, 6140.888
668.2479, 6133.312
668.7300, 6122.350
669.2121, 6120.871
669.6942, 6137.169
670.1763, 6154.964
670.6584, 6175.011
671.1406, 6188.645
671.6227, 6176.812
672.1048, 6141.417
672.5869, 6116.442
673.0690, 6139.271
673.5511, 6188.254
674.0333, 6201.868
674.5154, 6179.684
674.9975, 6161.924
