##NAMES=Dussertite
##RRUFFID=R060398
##IDEAL CHEMISTRY=BaFe^3+^_3_(As^5+^O_4_)(As^5+^O_3_OH)(OH)_6_
##LOCALITY=Constantine, Algeria
##OWNER=RRUFF
##SOURCE=American Museum of Natural History
##DESCRIPTION=Green granular aggregate
##STATUS=The identification of this mineral is confirmed by single-crystal X-ray diffraction and chemical analysis.
##URL=rruff.info/R060398
##MEASURED CHEMISTRY=(Ba_0.99_Ca_0.01_)_Σ=1_(Fe^3+^_2.85_Al_0.15_)_Σ=3_(As_1.00_O_4_)(As_1.00_O_3_OH)((OH)_5.93_F_0.07_)_Σ=6_ ; (OH) estimated by difference and charge balance
101.6941, 615.4583
102.1763, 612.8876
102.6584, 613.1295
103.1405, 615.4127
103.6226, 618.6680
104.1047, 622.2761
104.5868, 626.3883
105.0690, 631.8420
105.5511, 637.9691
106.0332, 645.5576
106.5153, 655.1609
106.9974, 666.6695
107.4795, 679.3350
107.9617, 692.2648
108.4438, 706.0580
108.9259, 722.3856
109.4080, 742.8035
109.8901, 765.4510
110.3722, 787.8224
110.8544, 809.4950
111.3365, 831.5668
111.8186, 855.8227
112.3007, 881.0554
112.7828, 904.7979
113.2649, 925.3301
113.7471, 942.8841
114.2292, 959.3060
114.7113, 974.7834
115.1934, 988.8807
115.6755, 1000.923
116.1576, 1011.295
116.6397, 1021.244
117.1219, 1031.974
117.6040, 1043.409
118.0861, 1056.077
118.5682, 1070.136
119.0503, 1085.029
119.5324, 1100.309
120.0146, 1115.901
120.4967, 1132.270
120.9788, 1150.053
121.4609, 1169.665
121.9430, 1190.429
122.4251, 1212.354
122.9073, 1235.469
123.3894, 1259.336
123.8715, 1283.782
124.3536, 1309.380
124.8357, 1337.599
125.3178, 1367.784
125.8000, 1400.655
126.2821, 1436.233
126.7642, 1474.616
127.2463, 1515.669
127.7284, 1560.355
128.2105, 1607.520
128.6927, 1655.289
129.1748, 1704.870
129.6569, 1753.093
130.1390, 1799.419
130.6211, 1845.280
131.1032, 1880.411
131.5854, 1903.076
132.0675, 1911.814
132.5496, 1902.485
133.0317, 1872.914
133.5138, 1825.342
133.9959, 1763.480
134.4781, 1679.880
134.9602, 1591.788
135.4423, 1500.455
135.9244, 1408.951
136.4065, 1321.253
136.8886, 1239.245
137.3708, 1162.569
137.8529, 1093.461
138.3350, 1033.497
138.8171, 979.7347
139.2992, 932.4036
139.7813, 890.8019
140.2635, 853.7834
140.7456, 820.7673
141.2277, 791.9365
141.7098, 765.5870
142.1919, 741.1479
142.6740, 719.0561
143.1561, 700.1109
143.6383, 684.1786
144.1204, 669.7365
144.6025, 655.2040
145.0846, 640.4924
145.5667, 627.4221
146.0488, 616.4102
146.5310, 606.9637
147.0131, 598.6581
147.4952, 591.4478
147.9773, 585.2128
148.4594, 579.9907
148.9415, 575.6237
149.4237, 571.7643
149.9058, 568.3831
150.3879, 565.4249
150.8700, 562.8166
151.3521, 560.6119
151.8342, 558.6672
152.3164, 556.5031
152.7985, 554.2345
153.2806, 552.6934
153.7627, 552.8546
154.2448, 554.7556
154.7269, 556.3355
155.2091, 557.1975
155.6912, 557.7253
156.1733, 557.6769
156.6554, 557.2010
157.1375, 557.1833
157.6196, 558.9466
158.1018, 563.3558
158.5839, 567.0276
159.0660, 568.8641
159.5481, 570.6205
160.0302, 573.2479
160.5123, 577.0296
160.9945, 581.7743
161.4766, 587.0867
161.9587, 592.8084
162.4408, 599.6061
162.9229, 607.4304
163.4050, 616.2269
163.8871, 625.8799
164.3693, 636.3755
164.8514, 647.7475
165.3335, 660.1639
165.8156, 673.6036
166.2977, 688.0525
166.7798, 703.8190
167.2620, 720.6160
167.7441, 738.0248
168.2262, 755.9122
168.7083, 774.1946
169.1904, 792.4886
169.6725, 810.9632
170.1547, 829.1462
170.6368, 847.0068
171.1189, 864.4265
171.6010, 881.0048
172.0831, 896.6053
172.5652, 911.0322
173.0474, 924.5016
173.5295, 936.5944
174.0116, 948.4725
174.4937, 960.6219
174.9758, 973.0656
175.4579, 986.5084
175.9401, 1002.042
176.4222, 1018.447
176.9043, 1034.212
177.3864, 1048.920
177.8685, 1063.473
178.3506, 1078.872
178.8328, 1094.962
179.3149, 1112.677
179.7970, 1133.190
180.2791, 1155.040
180.7612, 1176.712
181.2433, 1197.611
181.7255, 1218.745
182.2076, 1242.225
182.6897, 1267.952
183.1718, 1296.672
183.6539, 1329.176
184.1360, 1363.847
184.6181, 1398.968
185.1003, 1433.753
185.5824, 1468.444
186.0645, 1503.778
186.5466, 1545.225
187.0287, 1580.225
187.5108, 1607.275
187.9930, 1626.981
188.4751, 1640.557
188.9572, 1648.738
189.4393, 1650.884
189.9214, 1642.558
190.4035, 1620.510
190.8857, 1591.737
191.3678, 1556.143
191.8499, 1514.817
192.3320, 1468.621
192.8141, 1417.601
193.2962, 1362.483
193.7784, 1308.010
194.2605, 1251.517
194.7426, 1198.191
195.2247, 1149.797
195.7068, 1105.908
196.1889, 1064.944
196.6711, 1026.064
197.1532, 989.5466
197.6353, 955.5956
198.1174, 922.9233
198.5995, 893.4373
199.0816, 868.5435
199.5638, 847.8864
200.0459, 829.5386
200.5280, 812.7766
201.0101, 797.4672
201.4922, 782.9677
201.9743, 768.6425
202.4565, 755.6600
202.9386, 745.4435
203.4207, 738.0329
203.9028, 731.1922
204.3849, 724.1349
204.8670, 716.8031
205.3492, 709.0154
205.8313, 700.1887
206.3134, 691.6141
206.7955, 685.2845
207.2776, 681.6954
207.7597, 678.0520
208.2419, 672.7266
208.7240, 666.8120
209.2061, 661.3812
209.6882, 656.8456
210.1703, 652.7799
210.6524, 648.3189
211.1346, 643.0762
211.6167, 638.5377
212.0988, 635.7043
212.5809, 633.5049
213.0630, 630.9491
213.5451, 627.6639
214.0273, 623.8134
214.5094, 619.6714
214.9915, 614.7663
215.4736, 610.4666
215.9557, 606.9492
216.4378, 604.0723
216.9200, 601.8320
217.4021, 600.2672
217.8842, 599.0281
218.3663, 597.1589
218.8484, 594.3671
219.3305, 591.2880
219.8127, 587.3725
220.2948, 583.4739
220.7769, 580.5882
221.2590, 579.1699
221.7411, 578.7229
222.2232, 577.7779
222.7054, 575.5486
223.1875, 573.7475
223.6696, 572.5406
224.1517, 571.7812
224.6338, 571.2861
225.1159, 570.9694
225.5980, 570.8979
226.0802, 571.2826
226.5623, 573.0899
227.0444, 574.1970
227.5265, 573.7893
228.0086, 572.7822
228.4907, 572.2925
228.9729, 572.7828
229.4550, 574.0681
229.9371, 575.7256
230.4192, 577.8594
230.9013, 580.1682
231.3834, 583.1057
231.8656, 586.0774
232.3477, 587.9725
232.8298, 588.2256
233.3119, 587.7828
233.7940, 588.7942
234.2761, 591.5538
234.7583, 594.5943
235.2404, 597.6353
235.7225, 600.7040
236.2046, 603.9349
236.6867, 607.4592
237.1688, 610.9776
237.6510, 613.8660
238.1331, 615.9693
238.6152, 618.3876
239.0973, 621.7502
239.5794, 625.6758
240.0615, 629.3384
240.5437, 632.5299
241.0258, 635.4052
241.5079, 638.0758
241.9900, 640.5393
242.4721, 643.1710
242.9542, 646.2719
243.4364, 649.6583
243.9185, 652.7568
244.4006, 655.2076
244.8827, 657.8318
245.3648, 661.6820
245.8469, 666.5800
246.3290, 671.2169
246.8112, 674.6196
247.2933, 677.2231
247.7754, 680.5184
248.2575, 685.0059
248.7396, 689.6658
249.2217, 694.0374
249.7039, 698.0218
250.1860, 701.1331
250.6681, 702.6309
251.1502, 702.9558
251.6323, 703.7943
252.1144, 705.4060
252.5966, 707.2352
253.0787, 709.5507
253.5608, 711.8499
254.0429, 712.9789
254.5250, 712.0296
255.0071, 709.3876
255.4893, 706.4385
255.9714, 702.9625
256.4535, 699.5494
256.9356, 696.2421
257.4177, 693.1902
257.8998, 690.6737
258.3820, 689.0449
258.8641, 687.9854
259.3462, 686.3293
259.8283, 683.6771
260.3104, 681.0616
260.7925, 678.8047
261.2747, 676.7657
261.7568, 674.7530
262.2389, 672.6405
262.7210, 670.5256
263.2031, 668.6296
263.6852, 666.7946
264.1674, 665.5160
264.6495, 665.1210
265.1316, 665.1551
265.6137, 665.0525
266.0958, 664.5426
266.5779, 664.0170
267.0601, 664.5055
267.5422, 666.7814
268.0243, 668.7098
268.5064, 669.4948
268.9885, 670.1017
269.4706, 671.3994
269.9528, 673.6895
270.4349, 676.6133
270.9170, 679.6025
271.3991, 683.0664
271.8812, 685.6828
272.3633, 686.5238
272.8455, 687.1623
273.3276, 689.0048
273.8097, 692.3015
274.2918, 696.0133
274.7739, 698.4720
275.2560, 698.7697
275.7382, 699.7307
276.2202, 701.7996
276.7024, 704.0533
277.1845, 705.7916
277.6666, 706.9963
278.1487, 708.2482
278.6308, 710.2762
279.1129, 713.2939
279.5951, 716.3606
280.0772, 719.3386
280.5593, 722.4711
281.0414, 726.1400
281.5235, 730.1795
282.0056, 733.9225
282.4878, 736.6124
282.9699, 737.9918
283.4520, 740.3439
283.9341, 744.4602
284.4162, 748.6464
284.8983, 752.4963
285.3805, 755.8700
285.8626, 758.5475
286.3447, 760.2444
286.8268, 760.9872
287.3089, 762.7093
287.7910, 766.0846
288.2732, 769.6228
288.7553, 773.0030
289.2374, 776.2261
289.7195, 779.4473
290.2016, 782.8213
290.6837, 786.1414
291.1659, 788.2677
291.6480, 787.7602
292.1301, 787.7266
292.6122, 788.9986
293.0943, 790.9592
293.5764, 792.7823
294.0586, 794.1031
294.5407, 794.9889
295.0228, 795.6275
295.5049, 795.6283
295.9870, 795.8569
296.4691, 797.4308
296.9513, 798.7815
297.4334, 797.8314
297.9155, 793.9843
298.3976, 788.8947
298.8797, 785.3930
299.3618, 785.1208
299.8440, 783.3456
300.3261, 779.7684
300.8082, 774.9400
301.2903, 769.1354
301.7724, 762.4718
302.2545, 755.0696
302.7367, 747.0258
303.2188, 738.3320
303.7009, 728.8273
304.1830, 718.0416
304.6651, 706.8693
305.1472, 695.6658
305.6294, 684.5430
306.1115, 673.6874
306.5936, 663.3633
307.0757, 653.5881
307.5578, 643.1160
308.0399, 631.3288
308.5221, 619.5782
309.0042, 608.5966
309.4863, 598.1545
309.9684, 587.6588
310.4505, 576.6996
310.9326, 565.4203
311.4148, 555.2100
311.8969, 546.7479
312.3790, 538.3387
312.8611, 529.2670
313.3432, 520.0591
313.8253, 511.5351
314.3075, 504.1218
314.7896, 497.5021
315.2717, 490.8392
315.7538, 484.0637
316.2359, 477.3195
316.7180, 470.4115
317.2001, 463.6302
317.6823, 457.3170
318.1644, 451.5404
318.6465, 446.1502
319.1286, 440.8684
319.6107, 435.5236
320.0928, 430.9060
320.5750, 427.9387
321.0571, 425.0202
321.5392, 420.6600
322.0213, 414.8449
322.5034, 408.8257
322.9855, 403.9045
323.4677, 400.2192
323.9498, 396.4874
324.4319, 392.1209
324.9140, 388.2350
325.3961, 385.6293
325.8782, 384.0331
326.3604, 382.5353
326.8425, 380.5107
327.3246, 378.0099
327.8067, 375.5409
328.2888, 372.6106
328.7709, 370.2596
329.2531, 369.1751
329.7352, 368.7853
330.2173, 368.1325
330.6994, 366.7516
331.1815, 364.9521
331.6636, 363.5571
332.1458, 362.8095
332.6279, 362.2065
333.1100, 362.0417
333.5921, 361.8674
334.0742, 361.1331
334.5563, 359.7216
335.0385, 358.0614
335.5206, 356.7409
336.0027, 355.6615
336.4848, 355.2917
336.9669, 355.7923
337.4490, 356.7799
337.9312, 358.3384
338.4133, 360.2657
338.8954, 361.8867
339.3775, 362.5253
339.8596, 362.0842
340.3417, 361.8808
340.8239, 361.6816
341.3060, 361.9129
341.7881, 362.9268
342.2702, 364.4825
342.7523, 366.1342
343.2344, 367.6177
343.7166, 368.9307
344.1987, 370.0469
344.6808, 370.3645
345.1629, 371.1924
345.6450, 373.0341
346.1271, 375.2842
346.6093, 377.2965
347.0914, 378.8179
347.5735, 380.0287
348.0556, 381.2145
348.5377, 382.2718
349.0198, 383.5221
349.5020, 384.9463
349.9841, 386.5486
350.4662, 388.3885
350.9483, 390.4282
351.4304, 392.5323
351.9125, 394.5869
352.3947, 396.6399
352.8768, 398.2981
353.3589, 398.8137
353.8410, 399.6740
354.3231, 401.4432
354.8052, 403.9662
355.2874, 406.9229
355.7695, 410.1761
356.2516, 413.5841
356.7337, 416.4193
357.2158, 418.5389
357.6979, 420.1936
358.1800, 421.3292
358.6621, 422.1104
359.1443, 422.5906
359.6264, 422.7981
360.1085, 423.0069
360.5906, 423.8143
361.0727, 425.6231
361.5548, 426.9736
362.0370, 427.5825
362.5191, 427.8289
363.0012, 427.6900
363.4833, 427.2965
363.9654, 427.1383
364.4475, 427.7473
364.9297, 429.1599
365.4118, 430.7296
365.8939, 432.6066
366.3760, 434.4797
366.8581, 436.0801
367.3402, 437.5802
367.8224, 439.4240
368.3045, 442.1140
368.7866, 445.1107
369.2687, 446.8067
369.7508, 446.9716
370.2329, 446.2568
370.7151, 444.8627
371.1972, 442.8006
371.6793, 439.8384
372.1614, 435.8491
372.6435, 431.5701
373.1256, 428.0253
373.6078, 425.2950
374.0899, 422.2242
374.5720, 418.1435
375.0541, 414.0290
375.5362, 410.5690
376.0183, 407.7462
376.5005, 405.2448
376.9826, 402.7297
377.4647, 400.3409
377.9468, 398.4864
378.4289, 397.0038
378.9110, 396.4991
379.3932, 397.7200
379.8753, 400.1302
380.3574, 402.8574
380.8395, 405.7851
381.3216, 408.7725
381.8037, 411.6203
382.2859, 414.3313
382.7680, 416.9856
383.2501, 419.2466
383.7322, 421.7676
384.2143, 425.5581
384.6964, 430.8779
385.1786, 436.5520
385.6607, 441.6912
386.1428, 446.6265
386.6249, 452.4056
387.1070, 459.4287
387.5891, 466.8336
388.0713, 473.5884
388.5534, 479.7587
389.0355, 486.2018
389.5176, 493.4891
389.9997, 500.8829
390.4818, 507.1843
390.9640, 512.4905
391.4461, 518.7574
391.9282, 527.7439
392.4103, 538.7786
392.8924, 548.1211
393.3745, 554.2984
393.8567, 560.5580
394.3388, 568.3110
394.8209, 577.0128
395.3030, 585.5442
395.7851, 593.5743
396.2672, 601.2429
396.7494, 608.8880
397.2315, 616.4783
397.7136, 624.0399
398.1957, 631.6152
398.6778, 639.1965
399.1599, 646.9987
399.6420, 654.9288
400.1241, 662.4464
400.6063, 669.0287
401.0884, 674.6775
401.5705, 680.1844
402.0526, 685.8199
402.5347, 691.0607
403.0168, 696.0383
403.4990, 700.4703
403.9811, 703.8304
404.4632, 705.8516
404.9453, 706.8714
405.4274, 707.8018
405.9095, 709.9935
406.3917, 709.6074
406.8738, 704.9704
407.3559, 699.1661
407.8380, 694.5524
408.3201, 691.2661
408.8022, 687.7302
409.2844, 682.3962
409.7665, 675.2411
410.2486, 666.7811
410.7307, 655.5491
411.2128, 644.5562
411.6949, 634.9637
412.1771, 626.1406
412.6592, 616.9016
413.1413, 606.5746
413.6234, 595.8156
414.1055, 586.1516
414.5876, 577.9412
415.0698, 569.5955
415.5519, 560.8536
416.0340, 551.8020
416.5161, 542.1251
416.9982, 531.8494
417.4803, 522.2299
417.9625, 514.5545
418.4446, 508.5755
418.9267, 502.2657
419.4088, 495.1441
419.8909, 488.3948
420.3730, 483.0560
420.8552, 478.6232
421.3373, 474.1684
421.8194, 469.3268
422.3015, 464.3885
422.7836, 459.6719
423.2657, 455.1852
423.7479, 450.8363
424.2300, 446.4403
424.7121, 442.3368
425.1942, 438.9996
425.6763, 436.5377
426.1584, 434.2759
426.6406, 431.9557
427.1227, 429.6371
427.6048, 427.4536
428.0869, 425.4182
428.5690, 423.4342
429.0511, 421.3720
429.5333, 419.2490
430.0154, 417.4483
430.4975, 416.2040
430.9796, 415.0598
431.4617, 413.4802
431.9438, 411.7858
432.4260, 411.0034
432.9081, 411.7544
433.3902, 413.1602
433.8723, 413.0920
434.3544, 410.0302
434.8365, 407.9882
435.3187, 407.5762
435.8008, 407.9079
436.2829, 408.5287
436.7650, 409.2303
437.2471, 409.6364
437.7292, 409.2986
438.2114, 408.1777
438.6935, 407.8419
439.1756, 408.6393
439.6577, 409.8604
440.1398, 411.5605
440.6219, 413.5294
441.1040, 415.5490
441.5862, 417.5201
442.0683, 419.4038
442.5504, 421.0063
443.0325, 422.0626
443.5146, 423.6833
443.9967, 426.2641
444.4789, 429.1840
444.9610, 431.9574
445.4431, 434.7230
445.9252, 438.1281
446.4073, 442.7285
446.8894, 448.2940
447.3716, 453.9555
447.8537, 459.6820
448.3358, 465.5676
448.8179, 471.5827
449.3000, 477.8358
449.7821, 484.4345
450.2643, 491.3553
450.7464, 498.8447
451.2285, 507.2432
451.7106, 516.4460
452.1927, 525.5998
452.6748, 534.2665
453.1570, 543.3126
453.6391, 553.9717
454.1212, 565.8932
454.6033, 577.6369
455.0854, 588.6544
455.5675, 599.4525
456.0497, 610.5425
456.5318, 621.8578
457.0139, 633.1532
457.4960, 644.2581
457.9781, 655.3304
458.4602, 666.9496
458.9424, 679.6251
459.4245, 691.7113
459.9066, 702.2340
460.3887, 712.3748
460.8708, 723.3561
461.3529, 735.3406
461.8351, 747.7135
462.3172, 759.9904
462.7993, 772.0882
463.2814, 784.4910
463.7635, 797.4650
464.2456, 810.4071
464.7278, 823.1721
465.2099, 835.9244
465.6920, 848.8222
466.1741, 861.9968
466.6562, 875.4141
467.1383, 889.1302
467.6205, 903.5712
468.1026, 917.3364
468.5847, 931.8484
469.0668, 944.3284
469.5489, 953.3867
470.0310, 959.2577
470.5132, 962.7950
470.9953, 964.6542
471.4774, 964.4308
471.9595, 961.0320
472.4416, 954.3161
472.9237, 945.0255
473.4059, 933.3167
473.8880, 919.0349
474.3701, 901.6624
474.8522, 881.1959
475.3343, 858.8553
475.8164, 834.7949
476.2986, 809.6324
476.7807, 784.5897
477.2628, 759.9445
477.7449, 735.1771
478.2270, 709.3710
478.7091, 683.0769
479.1913, 658.7537
479.6734, 637.4115
480.1555, 617.1149
480.6376, 596.7394
481.1197, 576.7206
481.6018, 557.8904
482.0839, 540.5239
482.5660, 524.3718
483.0482, 508.9528
483.5303, 494.2081
484.0124, 480.9383
484.4945, 470.1488
484.9766, 459.8226
485.4587, 448.5836
485.9409, 436.8721
486.4230, 425.9971
486.9051, 416.6749
487.3872, 408.4603
487.8693, 400.1245
488.3514, 391.1118
488.8336, 382.9400
489.3157, 375.6251
489.7978, 369.1234
490.2799, 363.8233
490.7620, 359.4614
491.2441, 355.0798
491.7263, 349.8263
492.2084, 343.9402
492.6905, 338.5542
493.1726, 333.7164
493.6547, 329.2989
494.1368, 325.5988
494.6190, 322.1607
495.1011, 318.4214
495.5832, 314.2142
496.0653, 310.2993
496.5474, 307.4229
497.0295, 305.3243
497.5117, 303.3092
497.9938, 301.3267
498.4759, 299.1782
498.9580, 296.3872
499.4401, 293.2014
499.9222, 290.9105
500.4044, 290.1937
500.8865, 289.7575
501.3686, 289.1138
501.8507, 288.2394
502.3328, 287.0985
502.8149, 285.6834
503.2971, 283.9396
503.7792, 281.6842
504.2613, 278.4799
504.7434, 276.3743
505.2255, 276.1922
505.7076, 276.1713
506.1898, 275.3265
506.6719, 274.0114
507.1540, 273.1167
507.6361, 273.1255
508.1182, 273.6353
508.6003, 273.7407
509.0825, 273.3870
509.5646, 272.7714
510.0467, 271.7182
510.5288, 270.5746
511.0109, 269.1918
511.4930, 267.8165
511.9752, 267.2483
512.4573, 268.5789
512.9394, 270.6732
513.4215, 270.5247
513.9036, 267.6726
514.3857, 265.5010
514.8679, 265.5547
515.3500, 266.7898
515.8321, 267.9494
516.3142, 269.0457
516.7963, 269.7223
517.2784, 269.5472
517.7606, 268.9944
518.2427, 268.6350
518.7248, 268.5355
519.2069, 268.7987
519.6890, 269.6390
520.1711, 270.8480
520.6533, 271.3345
521.1354, 270.2936
521.6175, 269.7220
522.0996, 270.1892
522.5817, 271.1370
523.0638, 272.0518
523.5460, 272.8275
524.0281, 273.6033
524.5102, 274.5048
524.9923, 275.5262
525.4744, 276.6193
525.9565, 278.0659
526.4387, 279.1844
526.9208, 279.4062
527.4029, 279.4786
527.8850, 280.2949
528.3671, 282.0483
528.8492, 283.9698
529.3314, 285.2375
529.8135, 285.9162
530.2956, 286.5436
530.7777, 286.8258
531.2598, 287.7320
531.7419, 290.5960
532.2241, 294.3243
532.7062, 297.1561
533.1883, 298.4890
533.6704, 299.4447
534.1525, 300.5704
534.6346, 301.9150
535.1168, 303.7263
535.5989, 306.1013
536.0810, 308.4629
536.5631, 310.0602
537.0452, 310.8495
537.5273, 312.7026
538.0095, 316.5096
538.4916, 320.2890
538.9737, 323.2914
539.4558, 325.8254
539.9379, 328.4265
540.4200, 331.2562
540.9022, 334.0511
541.3843, 336.3642
541.8664, 338.0516
542.3485, 340.0807
542.8306, 342.3980
543.3127, 345.1460
543.7948, 348.6263
544.2769, 352.4864
544.7590, 356.2217
545.2411, 359.6653
545.7233, 362.8768
546.2054, 365.8221
546.6875, 368.5284
547.1696, 371.2250
547.6517, 373.8866
548.1339, 376.6440
548.6160, 379.7509
549.0981, 383.0497
549.5802, 386.1291
550.0623, 388.8983
550.5444, 391.4213
551.0266, 393.6652
551.5087, 395.7067
551.9908, 397.7979
552.4729, 400.0263
552.9550, 402.0968
553.4371, 403.6542
553.9193, 404.6769
554.4014, 405.2869
554.8835, 405.0863
555.3656, 404.9796
555.8477, 405.6767
556.3298, 406.5546
556.8120, 406.7033
557.2941, 405.7912
557.7762, 404.1348
558.2583, 402.1316
558.7404, 399.7943
559.2225, 397.0306
559.7047, 393.1571
560.1868, 389.8026
560.6689, 388.2152
561.1510, 387.4694
561.6331, 386.0356
562.1152, 383.4989
562.5974, 380.0555
563.0795, 375.2835
563.5616, 369.6693
564.0437, 365.1001
564.5258, 362.0586
565.0079, 359.5123
565.4901, 356.5941
565.9722, 353.3098
566.4543, 350.0306
566.9364, 347.0363
567.4185, 343.7369
567.9006, 339.5744
568.3828, 335.1039
568.8649, 331.3101
569.3470, 328.3737
569.8291, 325.1540
570.3112, 320.0970
570.7933, 312.9621
571.2755, 308.0724
571.7576, 307.8747
572.2397, 306.8698
572.7218, 302.9709
573.2039, 297.9782
573.6860, 294.0359
574.1682, 291.6423
574.6503, 289.4931
575.1324, 286.1207
575.6145, 281.8920
576.0966, 278.5414
576.5787, 276.3594
577.0609, 274.3334
577.5430, 271.8610
578.0251, 269.1410
578.5072, 266.6966
578.9893, 264.7066
579.4714, 262.6125
579.9536, 259.9314
580.4357, 257.1736
580.9178, 254.9904
581.3999, 253.4328
581.8820, 252.1228
582.3641, 250.8262
582.8463, 249.4911
583.3284, 247.7903
583.8105, 245.3263
584.2926, 243.0589
584.7747, 241.0275
585.2568, 239.2241
585.7390, 237.7357
586.2211, 236.4925
586.7032, 235.2324
587.1853, 233.7284
587.6674, 232.1017
588.1495, 230.6221
588.6317, 229.2374
589.1138, 228.3933
589.5959, 228.8290
590.0780, 229.2867
590.5601, 227.9041
591.0422, 224.7192
591.5244, 222.5676
592.0065, 223.5894
592.4886, 225.0147
592.9707, 224.1265
593.4528, 221.4094
593.9349, 218.7500
594.4171, 216.9627
