##NAMES=Dussertite
##RRUFFID=R070486
##IDEAL CHEMISTRY=BaFe^3+^_3_(As^5+^O_4_)(As^5+^O_3_OH)(OH)_6_
##LOCALITY=Clara mine, Rankach Valley, Oberwolfach, Wolfach, Black Forest, Baden-WÃ¼rttemberg, Germany
##OWNER=RRUFF
##SOURCE=Bob Jenkins
##DESCRIPTION=Light green hexagonal plates lining vug associated with quartz and pharmacosiderite
##STATUS=The identification of this mineral has been confirmed by single-crystal X-ray diffraction.
##URL=rruff.info/R070486
130.3886, 3618.621
130.8707, 3944.157
131.3528, 4303.264
131.8349, 4706.900
132.3170, 5124.361
132.7991, 5528.395
133.2813, 5921.766
133.7634, 6235.012
134.2455, 6419.201
134.7276, 6476.118
135.2097, 6447.180
135.6918, 6318.068
136.1740, 6115.802
136.6561, 5930.096
137.1382, 5762.901
137.6203, 5603.536
138.1024, 5437.551
138.5845, 5260.782
139.0667, 5095.136
139.5488, 4939.173
140.0309, 4792.519
140.5130, 4684.030
140.9951, 4624.940
141.4772, 4587.509
141.9594, 4530.861
142.4415, 4441.312
142.9236, 4363.401
143.4057, 4312.258
143.8878, 4295.115
144.3699, 4281.190
144.8521, 4279.100
145.3342, 4277.178
145.8163, 4246.848
146.2984, 4169.896
146.7805, 4087.409
147.2626, 4013.597
147.7448, 3938.283
148.2269, 3890.357
148.7090, 3884.076
149.1911, 3910.556
149.6732, 3921.835
150.1554, 3904.368
150.6375, 3881.496
151.1196, 3866.845
151.6017, 3851.224
152.0838, 3853.703
152.5659, 3882.984
153.0481, 3938.929
153.5302, 3989.209
154.0123, 4024.665
154.4944, 4057.347
154.9765, 4096.982
155.4586, 4138.450
155.9408, 4192.849
156.4229, 4268.052
156.9050, 4351.142
157.3871, 4405.562
157.8692, 4440.870
158.3513, 4465.413
158.8335, 4486.382
159.3156, 4492.473
159.7977, 4506.590
160.2798, 4542.391
160.7619, 4611.248
161.2440, 4669.604
161.7262, 4701.059
162.2083, 4713.785
162.6904, 4722.325
163.1725, 4731.579
163.6546, 4738.441
164.1367, 4739.311
164.6189, 4726.385
165.1010, 4720.429
165.5831, 4728.641
166.0652, 4750.656
166.5473, 4786.333
167.0294, 4840.718
167.5116, 4905.068
167.9937, 4970.792
168.4758, 5026.315
168.9579, 5093.021
169.4400, 5179.168
169.9221, 5285.635
170.4043, 5419.371
170.8864, 5594.838
171.3685, 5796.363
171.8506, 6007.492
172.3327, 6198.413
172.8148, 6409.867
173.2970, 6682.347
173.7791, 7014.519
174.2612, 7373.487
174.7433, 7724.170
175.2254, 8080.181
175.7076, 8470.575
176.1897, 8916.337
176.6718, 9397.260
177.1539, 9893.887
177.6360, 10406.94
178.1181, 10943.11
178.6003, 11495.26
179.0824, 12082.18
179.5645, 12733.95
180.0466, 13501.76
180.5287, 14350.06
181.0108, 15194.35
181.4930, 16024.15
181.9751, 16892.09
182.4572, 17842.41
182.9393, 18881.09
183.4214, 19993.80
183.9035, 21178.21
184.3857, 22426.20
184.8678, 23747.44
185.3499, 25137.91
185.8320, 26584.89
186.3141, 28058.91
186.7962, 29569.19
187.2784, 31060.89
187.7605, 32527.62
188.2426, 33949.80
188.7247, 35290.05
189.2068, 36555.71
189.6889, 37700.29
190.1711, 38666.98
190.6532, 39450.14
191.1353, 40012.66
191.6174, 40331.06
192.0995, 40401.66
192.5816, 40196.76
193.0638, 39694.45
193.5459, 38922.14
194.0280, 37938.00
194.5101, 36723.02
194.9922, 35369.03
195.4743, 33923.55
195.9565, 32407.13
196.4386, 30862.29
196.9207, 29293.00
197.4028, 27713.54
197.8849, 26193.06
198.3671, 24711.27
198.8492, 23305.03
199.3313, 22011.80
199.8134, 20829.08
200.2955, 19727.61
200.7776, 18683.83
201.2598, 17699.92
201.7419, 16830.09
202.2240, 16081.16
202.7061, 15410.07
203.1882, 14749.86
203.6703, 14088.54
204.1525, 13489.78
204.6346, 12981.81
205.1167, 12568.11
205.5988, 12161.49
206.0809, 11755.31
206.5630, 11365.44
207.0452, 11019.34
207.5273, 10720.73
208.0094, 10449.37
208.4915, 10195.67
208.9736, 9962.282
209.4557, 9745.771
209.9379, 9548.324
210.4200, 9365.819
210.9021, 9190.399
211.3842, 9021.876
211.8663, 8860.607
212.3484, 8708.568
212.8306, 8567.615
213.3127, 8430.594
213.7948, 8297.051
214.2769, 8167.635
214.7590, 8045.485
215.2411, 7936.775
215.7233, 7823.955
216.2054, 7692.144
216.6875, 7525.969
217.1696, 7397.673
217.6517, 7323.315
218.1338, 7285.271
218.6160, 7224.794
219.0981, 7130.938
219.5802, 7033.307
220.0623, 6950.045
220.5444, 6886.772
221.0265, 6821.112
221.5087, 6746.562
221.9908, 6667.811
222.4729, 6610.072
222.9550, 6583.795
223.4371, 6561.730
223.9192, 6524.922
224.4014, 6465.825
224.8835, 6412.832
225.3656, 6368.874
225.8477, 6333.233
226.3298, 6304.530
226.8119, 6285.204
227.2941, 6268.961
227.7762, 6249.022
228.2583, 6216.800
228.7404, 6201.685
229.2225, 6215.750
229.7046, 6253.853
230.1868, 6267.896
230.6689, 6244.260
231.1510, 6212.762
231.6331, 6195.440
232.1152, 6197.270
232.5974, 6203.124
233.0795, 6208.521
233.5616, 6214.466
234.0437, 6238.912
234.5258, 6294.235
235.0079, 6355.261
235.4901, 6400.607
235.9722, 6421.595
236.4543, 6444.670
236.9364, 6472.429
237.4185, 6505.022
237.9006, 6547.566
238.3828, 6603.771
238.8649, 6665.701
239.3470, 6727.239
239.8291, 6787.713
240.3112, 6847.987
240.7933, 6906.962
241.2755, 6964.689
241.7576, 7024.135
242.2397, 7084.896
242.7218, 7147.329
243.2039, 7212.732
243.6860, 7285.731
244.1682, 7352.096
244.6503, 7402.236
245.1324, 7434.982
245.6145, 7496.288
246.0966, 7604.614
246.5787, 7723.378
247.0609, 7815.423
247.5430, 7872.996
248.0251, 7918.656
248.5072, 7953.351
248.9893, 7975.956
249.4714, 8006.721
249.9536, 8051.750
250.4357, 8098.784
250.9178, 8134.147
251.3999, 8151.503
251.8820, 8169.460
252.3641, 8194.242
252.8463, 8226.769
253.3284, 8249.917
253.8105, 8269.652
254.2926, 8273.789
254.7747, 8245.641
255.2568, 8169.969
255.7390, 8094.089
256.2211, 8028.997
256.7032, 7976.176
257.1853, 7916.031
257.6674, 7848.101
258.1495, 7774.325
258.6317, 7694.726
259.1138, 7604.093
259.5959, 7521.595
260.0780, 7456.062
260.5601, 7408.175
261.0422, 7347.992
261.5244, 7271.678
262.0065, 7187.891
262.4886, 7108.547
262.9707, 7036.534
263.4528, 6958.705
263.9349, 6865.638
264.4171, 6755.676
264.8992, 6674.162
265.3813, 6627.631
265.8634, 6597.706
266.3455, 6564.438
266.8276, 6525.470
267.3098, 6489.326
267.7919, 6455.984
268.2740, 6425.787
268.7561, 6407.883
269.2382, 6405.166
269.7203, 6410.345
270.2025, 6415.764
270.6846, 6420.555
271.1667, 6428.702
271.6488, 6441.305
272.1309, 6458.228
272.6130, 6476.834
273.0952, 6495.015
273.5773, 6519.315
274.0594, 6561.741
274.5415, 6627.365
275.0236, 6680.465
275.5057, 6704.739
275.9879, 6705.498
276.4700, 6736.383
276.9521, 6805.161
277.4342, 6883.247
277.9163, 6939.006
278.3984, 6969.261
278.8806, 7007.166
279.3627, 7060.416
279.8448, 7127.543
280.3269, 7204.683
280.8090, 7293.867
281.2911, 7385.322
281.7733, 7468.876
282.2554, 7543.959
282.7375, 7623.171
283.2196, 7705.603
283.7017, 7794.848
284.1838, 7916.685
284.6660, 8079.119
285.1481, 8231.427
285.6302, 8312.572
286.1123, 8327.227
286.5944, 8375.521
287.0765, 8492.539
287.5587, 8651.983
288.0408, 8778.171
288.5229, 8870.429
289.0050, 8942.244
289.4871, 8996.498
289.9692, 9036.898
290.4514, 9086.148
290.9335, 9150.305
291.4156, 9225.400
291.8977, 9307.478
292.3798, 9396.876
292.8619, 9475.663
293.3441, 9524.541
293.8262, 9549.352
294.3083, 9571.228
294.7904, 9595.141
295.2726, 9617.202
295.7547, 9634.344
296.2368, 9645.778
296.7189, 9643.227
297.2010, 9613.482
297.6831, 9565.284
298.1653, 9520.513
298.6474, 9485.561
299.1295, 9450.670
299.6116, 9401.571
300.0937, 9339.903
300.5758, 9272.025
301.0580, 9203.384
301.5401, 9132.015
302.0222, 9053.253
302.5043, 8966.862
302.9864, 8873.555
303.4685, 8773.281
303.9507, 8666.663
304.4328, 8559.294
304.9149, 8459.576
305.3970, 8359.337
305.8791, 8244.391
306.3612, 8110.354
306.8434, 7973.759
307.3255, 7853.322
307.8076, 7743.662
308.2897, 7629.688
308.7718, 7499.011
309.2539, 7363.774
309.7361, 7233.839
310.2182, 7110.012
310.7003, 6994.491
311.1824, 6900.972
311.6645, 6816.964
312.1466, 6720.685
312.6288, 6588.958
313.1109, 6449.709
313.5930, 6321.282
314.0751, 6205.015
314.5572, 6091.557
315.0393, 5969.963
315.5215, 5849.557
316.0036, 5743.242
316.4857, 5670.165
316.9678, 5599.224
317.4499, 5512.051
317.9320, 5406.939
318.4142, 5304.120
318.8963, 5210.806
319.3784, 5124.003
319.8605, 5039.571
320.3426, 4954.674
320.8247, 4874.111
321.3069, 4799.118
321.7890, 4729.395
322.2711, 4667.945
322.7532, 4623.130
323.2353, 4582.601
323.7174, 4536.904
324.1996, 4478.642
324.6817, 4420.953
325.1638, 4365.586
325.6459, 4312.541
326.1280, 4263.831
326.6101, 4220.084
327.0923, 4180.357
327.5744, 4144.574
328.0565, 4117.923
328.5386, 4088.798
329.0207, 4049.786
329.5028, 4006.352
329.9850, 3980.134
330.4671, 3984.749
330.9492, 3994.058
331.4313, 3997.286
331.9134, 3998.643
332.3955, 3986.246
332.8777, 3950.284
333.3598, 3902.620
333.8419, 3871.331
334.3240, 3863.703
334.8061, 3861.126
335.2882, 3855.800
335.7704, 3845.138
336.2525, 3840.364
336.7346, 3843.339
337.2167, 3850.455
337.6988, 3855.629
338.1809, 3858.410
338.6631, 3860.491
339.1452, 3863.549
339.6273, 3868.005
340.1094, 3864.260
340.5915, 3849.266
341.0736, 3831.808
341.5558, 3825.575
342.0379, 3832.241
342.5200, 3835.230
343.0021, 3828.293
343.4842, 3813.342
343.9663, 3800.012
344.4485, 3787.670
344.9306, 3780.753
345.4127, 3788.034
345.8948, 3807.917
346.3769, 3821.924
346.8590, 3822.259
347.3412, 3815.860
347.8233, 3821.839
348.3054, 3840.169
348.7875, 3858.294
349.2696, 3859.361
349.7517, 3850.994
350.2339, 3857.651
350.7160, 3886.864
351.1981, 3928.182
351.6802, 3972.772
352.1623, 4018.850
352.6444, 4058.097
353.1266, 4081.031
353.6087, 4094.427
354.0908, 4106.942
354.5729, 4118.791
355.0550, 4132.994
355.5371, 4150.965
356.0193, 4173.450
356.5014, 4201.979
356.9835, 4249.704
357.4656, 4296.418
357.9477, 4321.465
358.4298, 4320.951
358.9120, 4317.212
359.3941, 4322.704
359.8762, 4333.849
360.3583, 4345.772
360.8404, 4356.717
361.3225, 4367.842
361.8047, 4377.885
362.2868, 4386.886
362.7689, 4402.060
363.2510, 4434.138
363.7331, 4469.644
364.2152, 4496.822
364.6974, 4502.370
365.1795, 4509.512
365.6616, 4520.921
366.1437, 4537.385
366.6258, 4564.021
367.1079, 4611.711
367.5901, 4662.880
368.0722, 4708.231
368.5543, 4750.751
369.0364, 4783.042
369.5185, 4799.354
370.0006, 4805.363
370.4828, 4816.425
370.9649, 4845.909
371.4470, 4866.370
371.9291, 4871.796
372.4112, 4872.465
372.8933, 4826.439
373.3755, 4713.947
373.8576, 4568.864
374.3397, 4443.782
374.8218, 4344.356
375.3039, 4254.032
375.7861, 4165.647
376.2682, 4079.364
376.7503, 4014.182
377.2324, 3974.340
377.7145, 3948.218
378.1967, 3924.751
378.6788, 3904.249
379.1609, 3885.076
379.6430, 3864.114
380.1251, 3845.296
380.6072, 3842.777
381.0894, 3857.259
381.5715, 3883.891
382.0536, 3922.184
382.5357, 3971.015
383.0178, 4019.543
383.4999, 4064.446
383.9821, 4112.581
384.4642, 4174.242
384.9463, 4249.931
385.4284, 4336.135
385.9105, 4433.732
386.3926, 4541.175
386.8748, 4659.084
387.3569, 4790.629
387.8390, 4920.768
388.3211, 5026.561
388.8032, 5120.819
389.2853, 5227.711
389.7675, 5357.184
390.2496, 5505.945
390.7317, 5674.464
391.2138, 5862.502
391.6959, 6053.466
392.1780, 6236.339
392.6602, 6420.134
393.1423, 6613.136
393.6244, 6833.769
394.1065, 7049.995
394.5886, 7244.817
395.0707, 7423.029
395.5529, 7611.211
396.0350, 7829.083
396.5171, 8051.803
396.9992, 8265.649
397.4813, 8462.782
397.9634, 8655.574
398.4456, 8844.980
398.9277, 9031.892
399.4098, 9219.992
399.8919, 9417.809
400.3740, 9608.769
400.8561, 9789.802
401.3383, 9960.300
401.8204, 10117.01
402.3025, 10260.41
402.7846, 10389.97
403.2667, 10506.99
403.7488, 10616.68
404.2310, 10700.69
404.7131, 10754.39
405.1952, 10778.64
405.6773, 10779.95
406.1594, 10750.79
406.6415, 10717.03
407.1237, 10713.63
407.6058, 10748.29
408.0879, 10715.36
408.5700, 10591.87
409.0521, 10406.20
409.5342, 10213.01
410.0164, 10012.83
410.4985, 9818.732
410.9806, 9646.979
411.4627, 9488.349
411.9448, 9308.354
412.4269, 9101.894
412.9091, 8886.948
413.3912, 8686.368
413.8733, 8497.234
414.3554, 8315.549
414.8375, 8141.646
415.3196, 7975.256
415.8018, 7818.879
416.2839, 7673.238
416.7660, 7528.138
417.2481, 7373.810
417.7302, 7220.504
418.2123, 7081.751
418.6945, 6969.926
419.1766, 6862.460
419.6587, 6742.107
420.1408, 6615.648
420.6229, 6504.944
421.1050, 6432.212
421.5872, 6367.527
422.0693, 6291.780
422.5514, 6196.298
423.0335, 6112.465
423.5156, 6052.374
423.9977, 6005.340
424.4799, 5956.214
424.9620, 5899.784
425.4441, 5846.009
425.9262, 5798.247
426.4083, 5756.820
426.8904, 5709.000
427.3726, 5646.946
427.8547, 5585.463
428.3368, 5534.538
428.8189, 5494.776
429.3010, 5464.244
429.7831, 5447.831
430.2653, 5438.149
430.7474, 5410.561
431.2295, 5358.276
431.7116, 5312.971
432.1937, 5295.384
432.6758, 5305.901
433.1580, 5300.958
433.6401, 5277.162
434.1222, 5248.333
434.6043, 5230.770
435.0864, 5223.816
435.5685, 5222.932
436.0507, 5229.155
436.5328, 5238.674
437.0149, 5242.889
437.4970, 5242.058
437.9791, 5241.424
438.4612, 5235.573
438.9434, 5234.744
439.4255, 5260.394
439.9076, 5328.257
440.3897, 5397.233
440.8718, 5425.287
441.3539, 5427.061
441.8361, 5434.030
442.3182, 5461.032
442.8003, 5498.174
443.2824, 5537.396
443.7645, 5576.891
444.2466, 5630.723
444.7288, 5715.877
445.2109, 5812.580
445.6930, 5900.039
446.1751, 5955.178
446.6572, 6022.349
447.1393, 6112.199
447.6215, 6223.091
448.1036, 6338.108
448.5857, 6460.466
449.0678, 6583.792
449.5499, 6705.021
450.0320, 6813.997
450.5142, 6941.854
450.9963, 7088.056
451.4784, 7254.518
451.9605, 7444.509
452.4426, 7666.106
452.9247, 7891.612
453.4069, 8111.430
453.8890, 8329.880
454.3711, 8576.184
454.8532, 8853.302
455.3353, 9149.679
455.8174, 9438.221
456.2996, 9728.708
456.7817, 10077.94
457.2638, 10506.01
457.7459, 10975.63
458.2281, 11428.15
458.7102, 11869.54
459.1923, 12351.48
459.6744, 12909.60
460.1565, 13521.31
460.6386, 14144.42
461.1208, 14785.54
461.6029, 15428.10
462.0850, 16041.86
462.5671, 16659.75
463.0492, 17312.17
463.5313, 18020.45
464.0135, 18769.87
464.4956, 19561.97
464.9777, 20396.68
465.4598, 21224.13
465.9419, 22053.34
466.4240, 22856.23
466.9062, 23604.04
467.3883, 24251.79
467.8704, 24927.73
468.3525, 25701.67
468.8346, 26486.79
469.3167, 27182.71
469.7989, 27776.74
470.2810, 28299.04
470.7631, 28779.75
471.2452, 29210.06
471.7273, 29467.30
472.2094, 29533.62
472.6916, 29468.43
473.1737, 29325.38
473.6558, 29109.83
474.1379, 28740.71
474.6200, 28196.29
475.1021, 27516.08
475.5843, 26752.37
476.0664, 25907.30
476.5485, 24996.73
477.0306, 24007.75
477.5127, 22969.72
477.9948, 21941.79
478.4770, 20923.71
478.9591, 19934.11
479.4412, 18974.73
479.9233, 18052.46
480.4054, 17190.85
480.8875, 16414.27
481.3697, 15672.95
481.8518, 14922.19
482.3339, 14181.20
482.8160, 13500.81
483.2981, 12927.67
483.7802, 12395.65
484.2624, 11882.81
484.7445, 11379.70
485.2266, 10903.08
485.7087, 10445.60
486.1908, 10019.83
486.6729, 9644.031
487.1551, 9355.011
487.6372, 9060.064
488.1193, 8735.764
488.6014, 8400.408
489.0835, 8106.627
489.5656, 7866.008
490.0478, 7642.989
490.5299, 7419.042
491.0120, 7191.951
491.4941, 6977.714
491.9762, 6775.006
492.4583, 6583.333
492.9405, 6403.159
493.4226, 6232.595
493.9047, 6068.939
494.3868, 5912.519
494.8689, 5759.425
495.3510, 5592.265
495.8332, 5414.596
496.3153, 5249.473
496.7974, 5117.182
497.2795, 5003.894
497.7616, 4893.384
498.2437, 4781.055
498.7259, 4678.896
499.2080, 4605.024
499.6901, 4542.662
500.1722, 4467.564
500.6543, 4349.775
501.1364, 4239.610
501.6186, 4157.667
502.1007, 4101.678
502.5828, 4047.753
503.0649, 3992.718
503.5470, 3937.197
504.0291, 3881.785
504.5113, 3823.946
504.9934, 3769.978
505.4755, 3718.179
505.9576, 3671.691
506.4397, 3635.186
506.9218, 3611.650
507.4040, 3590.276
507.8861, 3570.112
508.3682, 3549.905
508.8503, 3522.365
509.3324, 3486.542
509.8145, 3449.785
510.2967, 3414.860
510.7788, 3382.742
511.2609, 3359.737
511.7430, 3347.974
512.2252, 3338.112
512.7073, 3317.356
513.1894, 3290.003
513.6715, 3266.430
514.1536, 3254.118
514.6357, 3244.958
515.1179, 3231.493
515.6000, 3214.606
516.0821, 3199.730
516.5642, 3190.449
517.0463, 3183.374
517.5284, 3176.288
518.0106, 3168.697
518.4927, 3161.578
518.9748, 3149.116
519.4569, 3139.298
519.9390, 3143.632
520.4211, 3182.528
520.9033, 3207.608
521.3854, 3205.643
521.8675, 3181.378
522.3496, 3169.643
522.8317, 3174.464
523.3138, 3182.728
523.7960, 3183.695
524.2781, 3175.972
524.7602, 3190.107
525.2423, 3232.975
525.7244, 3278.918
526.2065, 3288.214
526.6887, 3267.465
527.1708, 3255.993
527.6529, 3269.412
528.1350, 3295.658
528.6171, 3315.849
529.0992, 3332.420
529.5814, 3357.191
530.0635, 3405.361
530.5456, 3460.597
531.0277, 3508.875
531.5098, 3547.624
531.9919, 3581.925
532.4741, 3611.419
532.9562, 3638.801
533.4383, 3667.499
533.9204, 3694.985
534.4025, 3727.094
534.8846, 3766.751
535.3668, 3812.661
535.8489, 3856.255
536.3310, 3894.161
536.8131, 3935.663
537.2952, 3987.160
537.7773, 4051.003
538.2595, 4103.795
538.7416, 4144.236
539.2237, 4178.251
539.7058, 4205.441
540.1879, 4226.834
540.6700, 4268.696
541.1522, 4340.151
541.6343, 4426.594
542.1164, 4502.052
542.5985, 4568.542
543.0806, 4636.245
543.5627, 4711.797
544.0449, 4790.668
544.5270, 4864.929
545.0091, 4935.241
545.4912, 5012.114
545.9733, 5103.138
546.4554, 5203.135
546.9376, 5309.227
547.4197, 5428.696
547.9018, 5538.256
548.3839, 5621.476
548.8660, 5691.635
549.3481, 5773.502
549.8303, 5876.982
550.3124, 5983.309
550.7945, 6091.320
551.2766, 6199.836
551.7587, 6301.901
552.2408, 6397.370
552.7230, 6486.999
553.2051, 6570.231
553.6872, 6646.864
554.1693, 6722.065
554.6514, 6795.631
555.1335, 6869.437
555.6157, 6945.964
556.0978, 7024.545
556.5799, 7102.891
557.0620, 7193.345
557.5441, 7269.537
558.0262, 7282.022
558.5084, 7244.419
558.9905, 7216.778
559.4726, 7249.229
559.9547, 7293.021
560.4368, 7311.457
560.9189, 7297.782
561.4011, 7277.722
561.8832, 7267.696
562.3653, 7250.937
562.8474, 7212.314
563.3295, 7124.104
563.8116, 7048.017
564.2938, 6992.392
564.7759, 6949.501
565.2580, 6901.333
565.7401, 6850.193
566.2222, 6787.209
566.7043, 6705.527
567.1865, 6607.448
567.6686, 6512.339
568.1507, 6419.375
568.6328, 6329.055
569.1149, 6241.571
569.5970, 6155.808
570.0792, 6071.331
570.5613, 5989.521
571.0434, 5902.702
571.5255, 5797.843
572.0076, 5682.606
572.4897, 5568.811
572.9719, 5459.054
573.4540, 5355.379
573.9361, 5264.363
574.4182, 5182.837
574.9003, 5096.489
575.3824, 5001.439
575.8646, 4900.419
576.3467, 4792.009
576.8288, 4670.585
577.3109, 4566.499
577.7930, 4490.939
578.2751, 4422.551
578.7573, 4341.771
579.2394, 4245.417
579.7215, 4149.976
580.2036, 4054.526
580.6857, 3963.322
581.1678, 3886.525
581.6500, 3823.775
582.1321, 3762.116
582.6142, 3698.304
583.0963, 3631.546
583.5784, 3554.133
584.0605, 3468.242
584.5427, 3390.036
585.0248, 3335.861
585.5069, 3293.171
585.9890, 3250.737
586.4711, 3208.384
586.9532, 3161.407
587.4354, 3103.665
587.9175, 3042.003
588.3996, 2984.045
588.8817, 2932.431
589.3638, 2883.066
589.8459, 2833.709
590.3281, 2786.149
590.8102, 2743.827
591.2923, 2707.345
591.7744, 2675.646
592.2565, 2650.208
592.7386, 2630.304
593.2208, 2604.971
593.7029, 2573.554
594.1850, 2540.998
594.6671, 2512.905
595.1492, 2487.384
595.6313, 2457.884
596.1135, 2422.021
596.5956, 2388.031
597.0777, 2365.868
597.5598, 2350.446
598.0419, 2333.246
598.5240, 2310.442
599.0062, 2285.541
599.4883, 2255.762
599.9704, 2224.063
600.4525, 2201.424
600.9346, 2196.838
601.4167, 2196.022
601.8989, 2196.340
602.3810, 2199.237
602.8631, 2188.738
603.3452, 2157.432
603.8273, 2123.851
604.3094, 2104.308
604.7916, 2100.700
605.2737, 2088.495
605.7558, 2063.286
606.2379, 2034.296
606.7200, 2013.381
607.2021, 1999.494
607.6843, 1988.283
608.1664, 1977.754
608.6485, 1969.486
609.1306, 1969.231
609.6127, 1973.794
610.0948, 1971.287
610.5770, 1952.030
611.0591, 1926.684
611.5412, 1898.408
612.0233, 1866.498
612.5054, 1845.152
612.9875, 1841.096
613.4697, 1846.263
613.9518, 1856.661
614.4339, 1882.133
614.9160, 1890.646
615.3981, 1876.063
615.8802, 1850.563
616.3624, 1830.450
616.8445, 1815.770
617.3266, 1808.323
617.8087, 1812.238
618.2908, 1819.778
618.7729, 1810.961
619.2551, 1788.811
619.7372, 1771.256
620.2193, 1772.074
620.7014, 1780.655
621.1835, 1788.061
621.6656, 1793.539
622.1478, 1791.927
622.6299, 1770.889
623.1120, 1748.035
623.5941, 1737.681
624.0762, 1751.242
624.5583, 1758.102
625.0405, 1747.375
625.5226, 1733.197
