##NAMES=Dussertite
##RRUFFID=R060398
##IDEAL CHEMISTRY=BaFe^3+^_3_(As^5+^O_4_)(As^5+^O_3_OH)(OH)_6_
##LOCALITY=Constantine, Algeria
##OWNER=RRUFF
##SOURCE=American Museum of Natural History
##DESCRIPTION=Green granular aggregate
##STATUS=The identification of this mineral is confirmed by single-crystal X-ray diffraction and chemical analysis.
##URL=rruff.info/R060398
##MEASURED CHEMISTRY=(Ba_0.99_Ca_0.01_)_Σ=1_(Fe^3+^_2.85_Al_0.15_)_Σ=3_(As_1.00_O_4_)(As_1.00_O_3_OH)((OH)_5.93_F_0.07_)_Σ=6_ ; (OH) estimated by difference and charge balance
168.6560, 793.3848
169.1381, 828.3554
169.6203, 864.7644
170.1024, 899.0100
170.5845, 936.1298
171.0666, 976.5115
171.5487, 1018.568
172.0309, 1062.039
172.5130, 1105.683
172.9951, 1148.362
173.4772, 1190.651
173.9593, 1233.608
174.4414, 1277.009
174.9236, 1321.380
175.4057, 1367.282
175.8878, 1415.152
176.3699, 1461.882
176.8520, 1504.086
177.3341, 1543.632
177.8163, 1584.759
178.2984, 1627.656
178.7805, 1673.293
179.2626, 1723.344
179.7447, 1776.950
180.2268, 1834.347
180.7090, 1893.464
181.1911, 1955.443
181.6732, 2023.562
182.1553, 2097.320
182.6374, 2178.257
183.1195, 2267.917
183.6017, 2367.679
184.0838, 2474.448
184.5659, 2588.149
185.0480, 2707.796
185.5301, 2834.585
186.0123, 2971.475
186.4944, 3115.949
186.9765, 3257.771
187.4586, 3399.676
187.9407, 3532.978
188.4228, 3652.043
188.9050, 3755.627
189.3871, 3832.889
189.8692, 3879.676
190.3513, 3895.759
190.8334, 3877.913
191.3155, 3825.167
191.7977, 3741.554
192.2798, 3627.721
192.7619, 3483.883
193.2440, 3328.356
193.7261, 3164.194
194.2082, 2993.149
194.6904, 2826.497
195.1725, 2664.278
195.6546, 2507.342
196.1367, 2362.666
196.6188, 2229.508
197.1009, 2106.917
197.5831, 1994.421
198.0652, 1890.970
198.5473, 1799.602
199.0294, 1721.436
199.5115, 1653.724
199.9937, 1591.094
200.4758, 1534.199
200.9579, 1482.549
201.4400, 1436.985
201.9221, 1397.647
202.4042, 1361.893
202.8864, 1329.699
203.3685, 1300.807
203.8506, 1274.942
204.3327, 1252.695
204.8148, 1231.969
205.2969, 1211.695
205.7791, 1191.769
206.2612, 1172.998
206.7433, 1155.469
207.2254, 1139.075
207.7075, 1123.710
208.1896, 1109.551
208.6718, 1095.788
209.1539, 1081.681
209.6360, 1067.148
210.1181, 1053.331
210.6002, 1040.180
211.0823, 1027.856
211.5645, 1016.845
212.0466, 1007.242
212.5287, 998.6765
213.0108, 991.3353
213.4929, 985.8193
213.9750, 978.9686
214.4572, 970.0750
214.9393, 959.9836
215.4214, 950.9276
215.9035, 943.1253
216.3856, 935.8187
216.8678, 928.7578
217.3499, 921.8050
217.8320, 915.2026
218.3141, 909.1205
218.7962, 903.3568
219.2783, 897.2281
219.7605, 890.2498
220.2426, 883.8248
220.7247, 878.8738
221.2068, 875.9471
221.6889, 872.9418
222.1710, 869.8592
222.6532, 866.6347
223.1353, 863.1061
223.6174, 858.9860
224.0995, 855.0086
224.5816, 851.4591
225.0637, 848.0793
225.5459, 845.8326
226.0280, 845.3463
226.5101, 845.8814
226.9922, 845.0525
227.4743, 841.9088
227.9564, 838.8894
228.4386, 837.1415
228.9207, 837.0300
229.4028, 837.3693
229.8849, 838.2343
230.3670, 839.4969
230.8492, 840.7810
231.3313, 841.7341
231.8134, 843.2126
232.2955, 845.7200
232.7776, 849.7032
233.2597, 853.5975
233.7419, 857.2684
234.2240, 860.9109
234.7061, 864.9044
235.1882, 869.2362
235.6703, 873.9503
236.1524, 879.1328
236.6346, 884.8600
237.1167, 890.8919
237.5988, 897.3696
238.0809, 904.1113
238.5630, 910.7487
239.0451, 916.8463
239.5273, 923.4146
240.0094, 931.1116
240.4915, 941.0397
240.9736, 949.0018
241.4557, 953.5631
241.9378, 956.8109
242.4200, 963.3190
242.9021, 975.2615
243.3842, 987.1649
243.8663, 996.7627
244.3484, 1002.822
244.8306, 1010.320
245.3127, 1019.652
245.7948, 1030.140
246.2769, 1040.500
246.7590, 1050.327
247.2411, 1060.531
247.7233, 1071.542
248.2054, 1083.708
248.6875, 1095.522
249.1696, 1107.146
249.6517, 1118.218
250.1338, 1128.089
250.6160, 1136.756
251.0981, 1144.261
251.5802, 1150.310
252.0623, 1154.586
252.5444, 1159.508
253.0265, 1166.291
253.5087, 1172.704
253.9908, 1175.252
254.4729, 1172.523
254.9550, 1168.885
255.4371, 1165.611
255.9192, 1162.932
256.4014, 1158.958
256.8835, 1153.224
257.3656, 1146.652
257.8477, 1140.214
258.3298, 1134.118
258.8120, 1127.637
259.2941, 1120.473
259.7762, 1112.548
260.2583, 1104.572
260.7404, 1096.164
261.2225, 1088.052
261.7047, 1080.646
262.1868, 1073.615
262.6689, 1068.127
263.1510, 1064.765
263.6331, 1063.477
264.1152, 1061.644
264.5974, 1059.267
265.0795, 1056.352
265.5616, 1052.497
266.0437, 1046.671
266.5258, 1043.240
267.0079, 1043.548
267.4901, 1047.167
267.9722, 1050.039
268.4543, 1051.747
268.9364, 1053.658
269.4185, 1056.992
269.9006, 1062.042
270.3828, 1067.394
270.8649, 1073.288
271.3470, 1079.310
271.8291, 1083.313
272.3112, 1084.645
272.7933, 1085.706
273.2755, 1088.421
273.7576, 1093.096
274.2397, 1097.105
274.7218, 1100.023
275.2039, 1102.085
275.6860, 1104.065
276.1682, 1106.061
276.6503, 1107.674
277.1324, 1108.280
277.6145, 1107.723
278.0966, 1108.572
278.5787, 1111.460
279.0609, 1115.404
279.5430, 1117.961
280.0251, 1118.830
280.5072, 1120.331
280.9893, 1124.166
281.4715, 1130.300
281.9536, 1135.536
282.4357, 1139.389
282.9178, 1142.981
283.3999, 1148.192
283.8820, 1155.044
284.3642, 1162.764
284.8463, 1171.170
285.3284, 1180.230
285.8105, 1189.307
286.2926, 1198.385
286.7747, 1207.549
287.2569, 1217.027
287.7390, 1226.784
288.2211, 1236.372
288.7032, 1245.789
289.1853, 1254.901
289.6674, 1263.221
290.1496, 1270.748
290.6317, 1277.825
291.1138, 1285.107
291.5959, 1292.477
292.0780, 1298.746
292.5602, 1303.117
293.0423, 1306.364
293.5244, 1310.492
294.0065, 1315.527
294.4886, 1320.738
294.9707, 1325.484
295.4529, 1329.909
295.9350, 1334.494
296.4171, 1339.776
296.8992, 1344.967
297.3813, 1348.560
297.8634, 1350.613
298.3456, 1351.892
298.8277, 1353.377
299.3098, 1354.483
299.7919, 1353.904
300.2740, 1351.365
300.7561, 1347.035
301.2383, 1341.352
301.7204, 1334.176
302.2025, 1325.181
302.6846, 1313.712
303.1667, 1300.383
303.6488, 1285.773
304.1310, 1270.022
304.6131, 1253.266
305.0952, 1236.119
305.5773, 1218.286
306.0594, 1199.055
306.5415, 1176.275
307.0237, 1152.658
307.5058, 1131.155
307.9879, 1112.505
308.4700, 1093.626
308.9521, 1070.970
309.4343, 1046.509
309.9164, 1023.224
310.3985, 1002.172
310.8806, 982.7098
311.3627, 964.7549
311.8448, 948.1541
312.3270, 931.6953
312.8091, 914.1505
313.2912, 896.4607
313.7733, 879.7379
314.2554, 864.6049
314.7375, 850.3430
315.2197, 836.8079
315.7018, 823.8424
316.1839, 811.1929
316.6660, 798.2729
317.1481, 785.7921
317.6302, 774.5467
318.1124, 766.0523
318.5945, 757.0632
319.0766, 745.6659
319.5587, 732.6729
320.0408, 720.7322
320.5229, 711.8171
321.0051, 703.3792
321.4872, 693.7399
321.9693, 681.2156
322.4514, 670.3825
322.9335, 663.7166
323.4156, 659.2485
323.8978, 653.1825
324.3799, 642.5361
324.8620, 632.2156
325.3441, 624.0494
325.8262, 618.8835
326.3083, 613.8641
326.7905, 608.9962
327.2726, 604.0707
327.7547, 598.8984
328.2368, 592.6780
328.7189, 586.9925
329.2010, 582.1850
329.6832, 578.3505
330.1653, 574.7778
330.6474, 571.3938
331.1295, 568.3293
331.6116, 565.6829
332.0938, 563.7776
332.5759, 561.7503
333.0580, 559.3440
333.5401, 556.6550
334.0222, 554.6122
334.5043, 553.4908
334.9865, 552.6073
335.4686, 551.5118
335.9507, 550.0068
336.4328, 548.7693
336.9149, 547.6670
337.3970, 546.9223
337.8792, 547.2382
338.3613, 548.8849
338.8434, 550.8381
339.3255, 552.7824
339.8076, 554.7872
340.2898, 556.2291
340.7719, 556.9159
341.2540, 557.4105
341.7361, 558.5814
342.2182, 560.4562
342.7003, 562.5831
343.1825, 564.8415
343.6646, 567.2307
344.1467, 569.6363
344.6288, 572.1035
345.1109, 574.4543
345.5930, 576.6420
346.0752, 578.6121
346.5573, 580.0206
347.0394, 580.3627
347.5215, 580.4562
348.0036, 582.3405
348.4857, 585.9760
348.9679, 590.0466
349.4500, 593.5618
349.9321, 596.7790
350.4142, 600.4745
350.8963, 604.8829
351.3784, 609.5458
351.8606, 613.7366
352.3427, 617.5730
352.8248, 621.5884
353.3069, 625.9006
353.7890, 630.5917
354.2711, 636.1343
354.7533, 642.6699
355.2354, 648.9156
355.7175, 653.2501
356.1996, 656.5355
356.6817, 660.2737
357.1638, 665.4487
357.6460, 671.0505
358.1281, 676.6588
358.6102, 682.1886
359.0923, 687.0861
359.5744, 691.0763
360.0565, 694.2059
360.5387, 696.4523
361.0208, 696.8829
361.5029, 697.5994
361.9850, 699.8201
362.4671, 703.1171
362.9492, 706.1468
363.4314, 707.4263
363.9135, 709.0544
364.3956, 712.3705
364.8777, 718.4006
365.3598, 724.1416
365.8419, 728.1072
366.3241, 731.5923
366.8062, 736.5181
367.2883, 744.9695
367.7704, 753.1310
368.2526, 760.0779
368.7347, 765.7399
369.2168, 770.4832
369.6989, 774.2408
370.1810, 777.1682
370.6631, 779.5541
371.1453, 783.1349
371.6274, 783.5390
372.1095, 779.6531
372.5916, 771.9323
373.0737, 763.5267
373.5558, 754.0247
374.0380, 744.3410
374.5201, 734.7743
375.0022, 725.2938
375.4843, 716.3671
375.9664, 708.1240
376.4485, 700.3469
376.9307, 692.0905
377.4128, 683.0060
377.8949, 675.2146
378.3770, 669.8005
378.8591, 666.6907
379.3412, 664.0252
379.8234, 661.6588
380.3055, 660.3229
380.7876, 661.2190
381.2697, 664.2496
381.7518, 667.5082
382.2339, 670.4199
382.7161, 673.2927
383.1982, 676.6535
383.6803, 680.4947
384.1624, 685.4226
384.6445, 692.4520
385.1266, 700.8640
385.6088, 708.7551
386.0909, 715.6146
386.5730, 722.5494
387.0551, 730.4611
387.5372, 739.3270
388.0193, 749.2678
388.5015, 760.9335
388.9836, 773.2929
389.4657, 785.0109
389.9478, 795.9769
390.4299, 807.5809
390.9120, 820.7059
391.3942, 835.0692
391.8763, 850.1480
392.3584, 866.5544
392.8405, 882.8939
393.3226, 897.9456
393.8047, 912.1277
394.2869, 927.3487
394.7690, 945.0101
395.2511, 963.4955
395.7332, 981.8132
396.2154, 999.6203
396.6975, 1017.584
397.1796, 1036.126
397.6617, 1055.064
398.1438, 1073.922
398.6259, 1092.171
399.1081, 1110.957
399.5902, 1130.929
400.0723, 1152.422
400.5544, 1172.853
401.0365, 1191.953
401.5186, 1210.234
402.0008, 1227.913
402.4829, 1245.223
402.9650, 1261.756
403.4471, 1278.034
403.9292, 1293.538
404.4113, 1305.696
404.8935, 1314.161
405.3756, 1320.289
405.8577, 1324.695
406.3398, 1327.336
406.8219, 1328.648
407.3040, 1329.080
407.7862, 1327.376
408.2683, 1321.332
408.7504, 1310.894
409.2325, 1298.677
409.7146, 1285.333
410.1967, 1271.049
410.6789, 1255.370
411.1610, 1238.280
411.6431, 1220.429
412.1252, 1202.792
412.6073, 1184.980
413.0894, 1165.742
413.5716, 1144.826
414.0537, 1123.361
414.5358, 1102.314
415.0179, 1082.001
415.5000, 1062.736
415.9821, 1044.641
416.4643, 1027.934
416.9464, 1013.507
417.4285, 1001.637
417.9106, 989.4276
418.3927, 974.3204
418.8748, 957.9811
419.3570, 942.6669
419.8391, 929.1869
420.3212, 916.6572
420.8033, 904.4752
421.2854, 892.8126
421.7675, 882.1913
422.2497, 873.2056
422.7318, 864.9883
423.2139, 857.2433
423.6960, 850.2049
424.1781, 843.1130
424.6602, 835.4551
425.1424, 827.8600
425.6245, 821.3250
426.1066, 816.3043
426.5887, 811.8860
427.0709, 808.1768
427.5530, 805.1710
428.0351, 801.5015
428.5172, 796.5813
428.9993, 791.7241
429.4814, 787.8512
429.9636, 785.0908
430.4457, 782.8548
430.9278, 781.2546
431.4099, 779.9891
431.8920, 778.3026
432.3741, 776.0873
432.8563, 774.1652
433.3384, 772.9867
433.8205, 772.4523
434.3026, 771.8954
434.7847, 771.2913
435.2668, 770.8365
435.7490, 770.6096
436.2311, 770.6732
436.7132, 771.2956
437.1953, 772.6895
437.6774, 774.4736
438.1595, 776.1594
438.6417, 777.8002
439.1238, 779.6153
439.6059, 782.0201
440.0880, 784.5270
440.5701, 786.3740
441.0522, 787.3187
441.5344, 788.8502
442.0165, 792.2255
442.4986, 796.6213
442.9807, 801.0143
443.4628, 804.1661
443.9449, 808.1324
444.4271, 814.1755
444.9092, 821.9366
445.3913, 829.4089
445.8734, 834.4802
446.3555, 840.2024
446.8376, 848.2051
447.3198, 859.9221
447.8019, 871.3305
448.2840, 881.5347
448.7661, 891.6141
449.2482, 903.0617
449.7303, 916.1877
450.2125, 929.9698
450.6946, 944.1558
451.1767, 958.8680
451.6588, 974.7416
452.1409, 991.8040
452.6230, 1010.252
453.1052, 1029.723
453.5873, 1050.269
454.0694, 1073.727
454.5515, 1100.586
455.0337, 1129.571
455.5158, 1157.817
455.9979, 1185.674
456.4800, 1214.625
456.9621, 1245.467
457.4442, 1278.085
457.9264, 1312.614
458.4085, 1348.887
458.8906, 1386.779
459.3727, 1425.866
459.8548, 1466.311
460.3369, 1507.409
460.8191, 1549.161
461.3012, 1592.398
461.7833, 1637.922
462.2654, 1685.546
462.7475, 1734.664
463.2296, 1784.310
463.7118, 1836.613
464.1939, 1893.466
464.6760, 1955.504
465.1581, 2018.131
465.6402, 2078.646
466.1223, 2139.485
466.6045, 2201.571
467.0866, 2268.191
467.5687, 2331.818
468.0508, 2392.495
468.5329, 2450.191
469.0150, 2506.104
469.4972, 2563.262
469.9793, 2613.157
470.4614, 2653.369
470.9435, 2683.986
471.4256, 2703.655
471.9077, 2712.706
472.3899, 2710.276
472.8720, 2695.473
473.3541, 2667.900
473.8362, 2629.343
474.3183, 2579.207
474.8004, 2519.222
475.2826, 2451.029
475.7647, 2374.947
476.2468, 2295.550
476.7289, 2213.642
477.2110, 2129.996
477.6931, 2047.202
478.1753, 1964.933
478.6574, 1884.536
479.1395, 1807.096
479.6216, 1732.249
480.1037, 1659.067
480.5858, 1585.503
481.0680, 1516.483
481.5501, 1456.344
482.0322, 1403.014
482.5143, 1352.755
482.9964, 1304.909
483.4786, 1259.124
483.9607, 1214.869
484.4428, 1172.438
484.9249, 1132.544
485.4070, 1095.329
485.8892, 1061.128
486.3713, 1030.348
486.8534, 1005.403
487.3355, 980.5499
487.8176, 955.0294
488.2997, 929.7899
488.7819, 906.2595
489.2640, 884.3781
489.7461, 864.1349
490.2282, 845.6090
490.7103, 828.6273
491.1924, 813.2672
491.6746, 799.6462
492.1567, 786.7239
492.6388, 773.3928
493.1209, 759.7153
493.6030, 748.1394
494.0851, 739.2514
494.5673, 731.2997
495.0494, 721.7900
495.5315, 711.0691
496.0136, 700.7540
496.4957, 691.3676
496.9778, 682.8489
497.4600, 674.7493
497.9421, 667.1511
498.4242, 660.4916
498.9063, 655.4835
499.3884, 651.2233
499.8705, 646.8699
500.3527, 642.2670
500.8348, 637.6427
501.3169, 632.9438
501.7990, 628.3976
502.2811, 624.2933
502.7632, 621.2208
503.2454, 618.0889
503.7275, 614.5764
504.2096, 610.7418
504.6917, 606.9323
505.1738, 602.7079
505.6559, 599.1736
506.1381, 597.1668
506.6202, 597.2327
507.1023, 596.6036
507.5844, 595.1219
508.0665, 593.2482
508.5486, 591.4120
509.0308, 589.5930
509.5129, 588.5332
509.9950, 588.7327
510.4771, 589.4673
510.9592, 589.1643
511.4413, 587.8797
511.9235, 586.2559
512.4056, 583.8962
512.8877, 581.7443
513.3698, 581.6931
513.8519, 584.0323
514.3340, 586.0234
514.8162, 585.2028
515.2983, 583.0546
515.7804, 581.3319
516.2625, 580.3892
516.7446, 580.1914
517.2267, 581.4394
517.7089, 583.4621
518.1910, 584.5845
518.6731, 583.0281
519.1552, 581.8690
519.6373, 582.4669
520.1194, 585.0464
520.6016, 586.9611
521.0837, 587.8111
521.5658, 588.4107
522.0479, 589.3131
522.5300, 590.5377
523.0121, 591.9713
523.4943, 593.6871
523.9764, 595.4904
524.4585, 596.9068
524.9406, 597.8947
525.4227, 599.2820
525.9048, 601.5327
526.3870, 604.2991
526.8691, 606.8010
527.3513, 609.0598
527.8334, 611.2094
528.3155, 612.8934
528.7976, 614.7260
529.2797, 617.9310
529.7618, 622.9426
530.2440, 627.6339
530.7261, 630.0758
531.2082, 631.4098
531.6903, 633.0515
532.1724, 635.0212
532.6545, 637.8478
533.1367, 642.1860
533.6188, 647.6127
534.1009, 652.7805
534.5830, 657.7906
535.0651, 662.1534
535.5472, 665.2692
536.0294, 666.7697
536.5115, 670.0242
536.9936, 675.7545
537.4757, 682.2352
537.9578, 687.8661
538.4399, 692.4200
538.9221, 697.9939
539.4042, 705.1243
539.8863, 712.9143
540.3684, 719.6843
540.8505, 725.5367
541.3326, 731.6895
541.8148, 738.5174
542.2969, 745.9902
542.7790, 754.7028
543.2611, 764.4114
543.7432, 773.4688
544.2253, 779.4991
544.7075, 784.9832
545.1896, 792.7928
545.6717, 803.7250
546.1538, 814.6559
546.6359, 824.0922
547.1180, 832.7404
547.6002, 841.2249
548.0823, 849.3713
548.5644, 857.7491
549.0465, 866.0209
549.5286, 874.6227
550.0107, 884.9183
550.4929, 898.4559
550.9750, 911.3600
551.4571, 922.4413
551.9392, 931.7272
552.4213, 940.0005
552.9034, 947.1949
553.3856, 953.7238
553.8677, 959.9741
554.3498, 965.9072
554.8319, 970.9872
555.3140, 975.0711
555.7961, 978.6409
556.2783, 982.5166
556.7604, 986.3880
557.2425, 989.3586
557.7246, 991.4634
558.2067, 992.1617
558.6888, 990.6809
559.1710, 987.3046
559.6531, 982.9460
560.1352, 977.3904
560.6173, 971.5508
561.0994, 966.1625
561.5815, 961.3728
562.0637, 956.0153
562.5458, 949.8992
563.0279, 943.0988
563.5100, 935.5911
563.9921, 926.8782
564.4742, 918.2868
564.9564, 910.0464
565.4385, 901.7885
565.9206, 892.8739
566.4027, 883.2759
566.8848, 873.4361
567.3669, 863.4668
567.8491, 853.4108
568.3312, 843.7985
568.8133, 834.6525
569.2954, 825.4639
569.7775, 815.8201
570.2596, 806.0114
570.7418, 796.9990
571.2239, 788.7943
571.7060, 780.3345
572.1881, 770.0496
572.6702, 759.4229
573.1523, 750.0742
573.6345, 743.2659
574.1166, 736.3996
574.5987, 728.6016
575.0808, 720.1957
575.5629, 711.5616
576.0450, 702.3309
576.5272, 693.5758
577.0093, 685.5687
577.4914, 678.2946
577.9735, 671.3904
578.4556, 664.8156
578.9377, 658.8246
579.4199, 653.6183
579.9020, 649.2839
580.3841, 644.9549
580.8662, 640.7667
581.3483, 635.9977
581.8304, 629.2020
582.3126, 621.1658
582.7947, 614.7540
583.2768, 610.7593
583.7589, 607.7032
584.2410, 604.1428
584.7231, 600.3465
585.2053, 596.8482
585.6874, 594.2752
586.1696, 591.6670
586.6517, 588.5652
587.1338, 584.9885
587.6159, 581.0829
588.0980, 576.0441
588.5801, 571.4132
589.0623, 567.9064
589.5444, 565.6332
590.0265, 563.7250
590.5086, 562.5693
590.9907, 561.2924
591.4728, 559.0836
591.9550, 555.7743
592.4371, 552.7332
592.9192, 550.0013
593.4013, 547.8075
593.8834, 546.9906
594.3655, 547.2669
594.8477, 546.7458
595.3298, 544.5494
595.8119, 541.6322
596.2940, 539.1038
596.7761, 536.9286
597.2582, 534.9066
597.7404, 532.5218
598.2225, 530.5607
598.7046, 529.9019
599.1867, 530.5607
599.6688, 530.7339
600.1509, 529.3998
600.6331, 527.7419
601.1152, 526.5775
601.5973, 526.4919
602.0794, 525.4872
602.5615, 522.9931
603.0436, 520.1335
603.5258, 518.1530
604.0079, 517.1129
604.4900, 516.7596
604.9721, 517.2952
605.4542, 518.1699
605.9363, 518.1581
606.4185, 517.3682
606.9006, 516.7231
607.3827, 517.2245
607.8648, 517.7682
608.3469, 516.1733
608.8290, 512.8558
609.3112, 510.2371
609.7933, 510.4601
610.2754, 511.4058
610.7575, 511.4090
611.2396, 510.1517
611.7217, 508.9914
612.2039, 508.1452
612.6860, 507.6343
613.1681, 507.4986
613.6502, 508.1762
614.1323, 508.4060
614.6144, 507.9053
615.0966, 507.1806
615.5787, 506.9592
616.0608, 507.2957
616.5429, 507.9246
617.0250, 509.0883
617.5071, 510.1728
617.9893, 509.4673
618.4714, 507.1708
618.9535, 504.8549
619.4356, 502.9216
619.9177, 501.6330
620.3998, 501.7633
620.8820, 503.1271
621.3641, 504.0633
621.8462, 502.8120
622.3283, 501.3558
622.8104, 501.4512
623.2925, 503.9706
623.7747, 505.3365
624.2568, 503.6641
624.7389, 501.3460
625.2210, 500.2969
625.7031, 500.9778
626.1852, 502.0165
626.6674, 503.6859
627.1495, 505.2711
627.6316, 505.2777
628.1137, 503.6235
628.5958, 502.4944
629.0779, 502.8121
629.5601, 503.6886
630.0422, 503.0429
630.5243, 501.2499
631.0064, 500.0367
631.4885, 501.0290
631.9706, 502.6039
632.4528, 503.1349
632.9349, 502.6694
633.4170, 502.3750
633.8991, 503.0472
634.3812, 503.8376
634.8633, 504.1552
635.3455, 503.6262
635.8276, 503.6752
636.3097, 504.8698
636.7918, 506.1554
637.2739, 506.5480
637.7560, 505.7251
638.2382, 505.2301
638.7203, 505.1384
639.2024, 505.4813
639.6845, 506.3458
640.1666, 507.7128
640.6487, 509.5356
641.1309, 512.2886
641.6130, 514.8095
642.0951, 514.8817
642.5772, 513.2910
643.0594, 512.2582
643.5415, 513.2786
644.0236, 514.8171
644.5057, 516.2781
644.9879, 517.5754
645.4700, 518.1871
645.9521, 516.9675
646.4342, 516.0132
646.9163, 516.4104
647.3984, 518.4879
647.8806, 519.7228
648.3627, 519.7697
648.8448, 519.6776
649.3269, 520.4911
649.8090, 522.2149
650.2911, 523.1193
650.7733, 522.9422
651.2554, 522.6157
651.7375, 523.4169
652.2196, 524.9322
652.7017, 526.1063
653.1838, 526.4323
653.6660, 526.7394
654.1481, 527.5414
654.6302, 528.7739
655.1123, 530.3458
655.5944, 533.2941
656.0765, 535.4099
656.5587, 535.4910
657.0408, 534.0007
657.5229, 533.2012
658.0050, 533.3802
658.4871, 533.7356
658.9692, 533.7618
659.4514, 533.6003
659.9335, 535.1823
660.4156, 538.7054
660.8977, 542.2811
661.3798, 544.6832
