##NAMES=Dussertite
##RRUFFID=R070486
##IDEAL CHEMISTRY=BaFe^3+^_3_(As^5+^O_4_)(As^5+^O_3_OH)(OH)_6_
##LOCALITY=Clara mine, Rankach Valley, Oberwolfach, Wolfach, Black Forest, Baden-WÃ¼rttemberg, Germany
##OWNER=RRUFF
##SOURCE=Bob Jenkins
##DESCRIPTION=Light green hexagonal plates lining vug associated with quartz and pharmacosiderite
##STATUS=The identification of this mineral has been confirmed by single-crystal X-ray diffraction.
##URL=rruff.info/R070486
119.9530, 2340.433
120.4351, 2481.205
120.9172, 2615.714
121.3994, 2751.038
121.8815, 2899.685
122.3636, 3054.310
122.8457, 3237.728
123.3278, 3468.182
123.8099, 3717.547
124.2921, 3951.472
124.7742, 4155.978
125.2563, 4349.231
125.7384, 4585.900
126.2205, 4868.848
126.7026, 5197.132
127.1848, 5567.448
127.6669, 5983.470
128.1490, 6447.554
128.6311, 6963.924
129.1132, 7527.741
129.5953, 8135.297
130.0775, 8753.619
130.5596, 9443.666
131.0417, 10266.00
131.5238, 11166.44
132.0059, 12072.38
132.4880, 12979.85
132.9702, 13830.73
133.4523, 14369.48
133.9344, 14622.50
134.4165, 14619.29
134.8986, 14311.11
135.3807, 13739.48
135.8629, 13020.27
136.3450, 12175.45
136.8271, 11242.01
137.3092, 10385.46
137.7913, 9583.780
138.2734, 8861.329
138.7556, 8237.402
139.2377, 7707.042
139.7198, 7257.927
140.2019, 6891.574
140.6840, 6606.868
141.1661, 6366.749
141.6483, 6172.459
142.1304, 6019.524
142.6125, 5910.309
143.0946, 5844.831
143.5767, 5803.225
144.0588, 5783.162
144.5410, 5779.377
145.0231, 5780.542
145.5052, 5781.782
145.9873, 5790.593
146.4694, 5821.987
146.9515, 5879.971
147.4337, 5929.748
147.9158, 5945.364
148.3979, 5942.101
148.8800, 5938.732
149.3621, 5942.612
149.8442, 5946.045
150.3264, 5935.112
150.8085, 5905.020
151.2906, 5878.261
151.7727, 5874.070
152.2548, 5877.491
152.7369, 5869.646
153.2191, 5839.063
153.7012, 5798.528
154.1833, 5770.826
154.6654, 5756.125
155.1475, 5754.774
155.6296, 5771.225
156.1118, 5798.311
156.5939, 5827.497
157.0760, 5853.681
157.5581, 5881.698
158.0402, 5923.042
158.5223, 5978.614
159.0045, 6047.410
159.4866, 6135.638
159.9687, 6233.057
160.4508, 6323.530
160.9329, 6381.031
161.4150, 6405.792
161.8972, 6437.842
162.3793, 6476.975
162.8614, 6525.005
163.3435, 6579.324
163.8256, 6641.854
164.3077, 6717.064
164.7899, 6809.941
165.2720, 6913.040
165.7541, 6996.461
166.2362, 7032.965
166.7183, 7094.002
167.2004, 7196.564
167.6826, 7327.926
168.1647, 7474.282
168.6468, 7628.796
169.1289, 7791.303
169.6110, 7957.797
170.0931, 8093.478
170.5753, 8285.541
171.0574, 8549.549
171.5395, 8872.448
172.0216, 9236.976
172.5037, 9635.621
172.9858, 10067.43
173.4680, 10535.27
173.9501, 11034.33
174.4322, 11576.77
174.9143, 12168.68
175.3964, 12798.50
175.8785, 13462.25
176.3607, 14151.55
176.8428, 14868.74
177.3249, 15611.95
177.8070, 16382.99
178.2891, 17179.22
178.7712, 17995.00
179.2534, 18834.21
179.7355, 19712.20
180.2176, 20634.02
180.6997, 21590.38
181.1818, 22546.75
181.6639, 23472.79
182.1461, 24442.16
182.6282, 25451.17
183.1103, 26508.93
183.5924, 27618.23
184.0745, 28777.01
184.5566, 30005.08
185.0388, 31336.64
185.5209, 32864.03
186.0030, 34408.59
186.4851, 35931.79
186.9672, 37472.58
187.4493, 39084.20
187.9315, 40784.91
188.4136, 42534.45
188.8957, 44198.23
189.3778, 45849.16
189.8599, 47325.04
190.3420, 48640.20
190.8242, 49766.88
191.3063, 50673.71
191.7884, 51350.25
192.2705, 51788.39
192.7526, 51966.51
193.2347, 51945.81
193.7169, 51548.45
194.1990, 50659.62
194.6811, 49441.23
195.1632, 48047.93
195.6453, 46525.78
196.1274, 44882.43
196.6096, 43107.84
197.0917, 41082.50
197.5738, 39093.78
198.0559, 37131.04
198.5380, 35213.61
199.0201, 33348.45
199.5023, 31546.72
199.9844, 29819.48
200.4665, 28191.09
200.9486, 26672.27
201.4307, 25252.77
201.9128, 23920.60
202.3950, 22688.82
202.8771, 21569.23
203.3592, 20561.45
203.8413, 19644.32
204.3234, 18785.59
204.8055, 17984.95
205.2877, 17270.44
205.7698, 16671.25
206.2519, 16131.84
206.7340, 15602.51
207.2161, 15073.66
207.6982, 14572.12
208.1804, 14129.45
208.6625, 13763.78
209.1446, 13398.14
209.6267, 13009.33
210.1088, 12635.61
210.5909, 12307.60
211.0731, 12026.94
211.5552, 11778.09
212.0373, 11547.27
212.5194, 11336.65
213.0015, 11138.24
213.4836, 10948.32
213.9658, 10772.17
214.4479, 10622.34
214.9300, 10494.58
215.4121, 10368.24
215.8942, 10223.73
216.3763, 10059.67
216.8584, 9914.743
217.3406, 9792.580
217.8227, 9683.130
218.3048, 9588.546
218.7869, 9504.040
219.2690, 9414.078
219.7511, 9304.129
220.2333, 9176.007
220.7154, 9074.634
221.1975, 9010.171
221.6796, 8955.647
222.1617, 8907.997
222.6438, 8862.507
223.1260, 8806.658
223.6081, 8730.347
224.0902, 8639.425
224.5723, 8570.415
225.0544, 8537.223
225.5365, 8505.445
226.0187, 8463.184
226.5008, 8416.273
226.9829, 8376.691
227.4650, 8350.784
227.9471, 8334.559
228.4292, 8314.902
228.9114, 8280.654
229.3935, 8256.779
229.8756, 8254.391
230.3577, 8262.173
230.8398, 8261.667
231.3219, 8245.065
231.8041, 8225.568
232.2862, 8232.278
232.7683, 8287.544
233.2504, 8336.801
233.7325, 8363.122
234.2146, 8388.792
234.6968, 8440.912
235.1789, 8525.961
235.6610, 8623.806
236.1431, 8704.437
236.6252, 8756.802
237.1073, 8811.914
237.5895, 8866.151
238.0716, 8924.996
238.5537, 8989.654
239.0358, 9061.418
239.5179, 9147.522
240.0000, 9259.397
240.4822, 9410.834
240.9643, 9533.259
241.4464, 9603.651
241.9285, 9669.401
242.4106, 9764.490
242.8927, 9884.695
243.3749, 9997.875
243.8570, 10071.60
244.3391, 10099.52
244.8212, 10165.17
245.3033, 10303.58
245.7854, 10437.89
246.2676, 10537.49
246.7497, 10608.82
247.2318, 10673.91
247.7139, 10747.38
248.1960, 10828.31
248.6781, 10910.20
249.1603, 10985.31
249.6424, 11070.20
250.1245, 11187.14
250.6066, 11311.74
251.0887, 11406.61
251.5708, 11450.69
252.0530, 11457.99
252.5351, 11476.45
253.0172, 11517.75
253.4993, 11555.84
253.9814, 11600.47
254.4635, 11635.82
254.9457, 11642.65
255.4278, 11614.62
255.9099, 11565.26
256.3920, 11521.13
256.8741, 11493.74
257.3563, 11448.86
257.8384, 11374.56
258.3205, 11293.00
258.8026, 11221.34
259.2847, 11162.22
259.7668, 11104.55
260.2490, 11035.94
260.7311, 10958.77
261.2132, 10862.96
261.6953, 10725.46
262.1774, 10590.98
262.6595, 10483.52
263.1417, 10399.75
263.6238, 10317.17
264.1059, 10212.65
264.5880, 10085.54
265.0701, 9976.309
265.5522, 9900.850
266.0344, 9827.621
266.5165, 9739.069
266.9986, 9645.938
267.4807, 9569.831
267.9628, 9526.340
268.4449, 9508.680
268.9271, 9486.407
269.4092, 9441.749
269.8913, 9423.982
270.3734, 9457.997
270.8555, 9517.968
271.3376, 9572.620
271.8198, 9607.423
272.3019, 9637.012
272.7840, 9689.064
273.2661, 9769.853
273.7482, 9852.510
274.2303, 9933.609
274.7125, 10011.53
275.1946, 10080.80
275.6767, 10140.13
276.1588, 10204.54
276.6409, 10297.42
277.1230, 10420.13
277.6052, 10523.99
278.0873, 10585.13
278.5694, 10638.08
279.0515, 10706.26
279.5336, 10789.84
280.0157, 10880.33
280.4979, 10970.98
280.9800, 11063.53
281.4621, 11162.37
281.9442, 11263.69
282.4263, 11381.42
282.9084, 11537.72
283.3906, 11718.59
283.8727, 11885.86
284.3548, 12010.68
284.8369, 12118.74
285.3190, 12255.72
285.8011, 12428.29
286.2833, 12592.31
286.7654, 12712.30
287.2475, 12807.95
287.7296, 12918.03
288.2117, 13052.38
288.6938, 13196.41
289.1760, 13348.22
289.6581, 13504.87
290.1402, 13640.61
290.6223, 13737.66
291.1044, 13813.77
291.5865, 13908.01
292.0687, 14031.84
292.5508, 14142.19
293.0329, 14217.07
293.5150, 14266.41
293.9971, 14309.12
294.4792, 14350.62
294.9614, 14384.90
295.4435, 14403.44
295.9256, 14406.27
296.4077, 14395.22
296.8898, 14374.66
297.3719, 14337.56
297.8541, 14269.64
298.3362, 14171.72
298.8183, 14071.19
299.3004, 13994.20
299.7825, 13942.69
300.2646, 13865.57
300.7468, 13754.80
301.2289, 13629.74
301.7110, 13497.02
302.1931, 13357.09
302.6752, 13209.52
303.1573, 13052.15
303.6395, 12888.14
304.1216, 12732.71
304.6037, 12598.38
305.0858, 12457.00
305.5679, 12308.94
306.0500, 12150.10
306.5322, 11974.95
307.0143, 11781.52
307.4964, 11575.60
307.9785, 11367.37
308.4606, 11146.36
308.9427, 10941.70
309.4249, 10760.35
309.9070, 10586.14
310.3891, 10413.03
310.8712, 10236.98
311.3533, 10055.90
311.8354, 9867.595
312.3176, 9671.250
312.7997, 9468.304
313.2818, 9241.104
313.7639, 9025.627
314.2460, 8835.951
314.7281, 8665.951
315.2103, 8504.460
315.6924, 8346.212
316.1745, 8190.882
316.6566, 8037.040
317.1387, 7889.527
317.6208, 7734.917
318.1030, 7553.202
318.5851, 7371.355
319.0672, 7218.188
319.5493, 7102.517
320.0314, 6998.664
320.5135, 6871.397
320.9957, 6719.981
321.4778, 6589.462
321.9599, 6501.807
322.4420, 6424.968
322.9241, 6330.673
323.4063, 6220.756
323.8884, 6116.872
324.3705, 6032.323
324.8526, 5962.585
325.3347, 5897.093
325.8168, 5835.804
326.2990, 5776.278
326.7811, 5717.773
327.2632, 5659.584
327.7453, 5600.627
328.2274, 5534.943
328.7095, 5472.771
329.1917, 5424.674
329.6738, 5389.011
330.1559, 5357.017
330.6380, 5324.975
331.1201, 5293.646
331.6022, 5263.710
332.0844, 5231.335
332.5665, 5207.354
333.0486, 5205.234
333.5307, 5210.667
334.0128, 5198.880
334.4949, 5163.276
334.9771, 5122.715
335.4592, 5101.776
335.9413, 5106.104
336.4234, 5113.957
336.9055, 5129.772
337.3876, 5145.354
337.8698, 5156.619
338.3519, 5162.938
338.8340, 5164.002
339.3161, 5158.917
339.7982, 5148.396
340.2803, 5140.427
340.7624, 5141.327
341.2445, 5137.376
341.7267, 5124.964
342.2088, 5106.847
342.6909, 5085.917
343.1730, 5063.352
343.6551, 5039.347
344.1372, 5013.101
344.6194, 4981.489
345.1015, 4956.083
345.5836, 4933.004
346.0657, 4919.514
346.5478, 4924.782
347.0299, 4946.142
347.5121, 4969.029
347.9942, 4980.896
348.4763, 4982.841
348.9584, 4985.770
349.4405, 4990.054
349.9226, 4994.934
350.4048, 4991.705
350.8869, 4990.348
351.3690, 5009.388
351.8511, 5063.022
352.3332, 5128.238
352.8153, 5174.924
353.2975, 5202.634
353.7796, 5224.251
354.2617, 5234.319
354.7438, 5249.245
355.2259, 5291.517
355.7080, 5365.633
356.1902, 5440.562
356.6723, 5500.210
357.1544, 5550.477
357.6365, 5606.793
358.1186, 5673.529
358.6007, 5731.580
359.0829, 5760.128
359.5650, 5758.216
360.0471, 5758.494
360.5292, 5760.715
361.0113, 5766.623
361.4934, 5777.392
361.9756, 5792.794
362.4577, 5812.458
362.9398, 5836.555
363.4219, 5863.943
363.9040, 5890.854
364.3861, 5914.359
364.8683, 5941.409
365.3504, 5971.268
365.8325, 6005.624
366.3146, 6046.951
366.7967, 6095.311
367.2788, 6147.409
367.7610, 6200.522
368.2431, 6255.910
368.7252, 6303.822
369.2073, 6347.528
369.6894, 6380.427
370.1715, 6403.780
370.6537, 6413.950
371.1358, 6404.207
371.6179, 6369.858
372.1000, 6315.014
372.5821, 6249.123
373.0642, 6168.967
373.5464, 6086.688
374.0285, 6010.620
374.5106, 5930.661
374.9927, 5837.711
375.4748, 5730.582
375.9569, 5617.061
376.4391, 5499.300
376.9212, 5379.438
377.4033, 5265.977
377.8854, 5156.618
378.3675, 5060.891
378.8496, 4989.387
379.3318, 4938.090
379.8139, 4901.015
380.2960, 4874.762
380.7781, 4863.701
381.2602, 4877.156
381.7423, 4911.798
382.2245, 4947.637
382.7066, 4973.598
383.1887, 4996.909
383.6708, 5037.093
384.1529, 5090.823
384.6350, 5163.316
385.1172, 5265.573
385.5993, 5382.038
386.0814, 5495.022
386.5635, 5602.417
387.0456, 5714.426
387.5277, 5840.499
388.0099, 5980.442
388.4920, 6143.105
388.9741, 6342.075
389.4562, 6546.373
389.9383, 6745.939
390.4204, 6944.602
390.9026, 7151.218
391.3847, 7369.397
391.8668, 7593.540
392.3489, 7804.264
392.8310, 7986.440
393.3131, 8200.719
393.7953, 8487.048
394.2774, 8783.071
394.7595, 9048.267
395.2416, 9283.493
395.7237, 9526.000
396.2058, 9809.282
396.6880, 10121.45
397.1701, 10421.17
397.6522, 10708.24
398.1343, 10981.49
398.6164, 11233.43
399.0985, 11473.13
399.5807, 11718.89
400.0628, 11980.19
400.5449, 12236.67
401.0270, 12477.98
401.5091, 12703.64
401.9912, 12913.68
402.4734, 13108.26
402.9555, 13283.30
403.4376, 13432.37
403.9197, 13555.74
404.4018, 13646.93
404.8839, 13698.33
405.3661, 13722.41
405.8482, 13729.14
406.3303, 13716.52
406.8124, 13675.64
407.2945, 13600.51
407.7766, 13493.27
408.2588, 13363.56
408.7409, 13213.75
409.2230, 13034.73
409.7051, 12813.91
410.1872, 12573.23
410.6693, 12327.75
411.1515, 12082.04
411.6336, 11837.37
412.1157, 11598.04
412.5978, 11364.03
413.0799, 11116.78
413.5620, 10847.31
414.0442, 10576.15
414.5263, 10310.39
415.0084, 10050.01
415.4905, 9791.199
415.9726, 9531.269
416.4547, 9278.343
416.9369, 9040.935
417.4190, 8819.341
417.9011, 8612.201
418.3832, 8421.086
418.8653, 8242.007
419.3474, 8069.585
419.8296, 7903.734
420.3117, 7743.357
420.7938, 7588.394
421.2759, 7438.985
421.7580, 7291.805
422.2401, 7148.589
422.7223, 7018.427
423.2044, 6908.816
423.6865, 6815.404
424.1686, 6715.766
424.6507, 6596.311
425.1328, 6488.104
425.6150, 6400.501
426.0971, 6321.831
426.5792, 6238.011
427.0613, 6147.633
427.5434, 6063.510
428.0255, 6002.154
428.5077, 5965.480
428.9898, 5913.586
429.4719, 5822.292
429.9540, 5747.125
430.4361, 5725.307
430.9182, 5724.670
431.4004, 5694.234
431.8825, 5610.157
432.3646, 5511.705
432.8467, 5449.111
433.3288, 5420.835
433.8109, 5391.049
434.2931, 5349.451
434.7752, 5307.854
435.2573, 5281.418
435.7394, 5267.981
436.2215, 5249.747
436.7036, 5221.145
437.1858, 5186.803
437.6679, 5146.960
438.1500, 5103.869
438.6321, 5066.948
439.1142, 5041.165
439.5963, 5024.569
440.0785, 5012.520
440.5606, 5013.803
441.0427, 5006.265
441.5248, 4978.886
442.0069, 4949.834
442.4890, 4932.337
442.9712, 4927.664
443.4533, 4931.164
443.9354, 4939.713
444.4175, 4952.814
444.8996, 4966.710
445.3817, 4984.535
445.8639, 4997.419
446.3460, 4996.684
446.8281, 4993.808
447.3102, 4998.847
447.7923, 5014.042
448.2744, 5039.789
448.7566, 5082.337
449.2387, 5137.136
449.7208, 5182.419
450.2029, 5212.169
450.6850, 5242.041
451.1671, 5280.121
451.6493, 5328.024
452.1314, 5391.667
452.6135, 5481.248
453.0956, 5577.434
453.5777, 5664.649
454.0598, 5751.138
454.5420, 5855.939
455.0241, 5985.591
455.5062, 6127.213
455.9883, 6263.851
456.4704, 6391.663
456.9525, 6525.159
457.4347, 6641.175
457.9168, 6784.668
458.3989, 6989.405
458.8810, 7234.503
459.3631, 7479.913
459.8452, 7703.868
460.3274, 7918.252
460.8095, 8142.994
461.2916, 8380.128
461.7737, 8626.567
462.2558, 8881.350
462.7379, 9146.700
463.2201, 9420.570
463.7022, 9704.686
464.1843, 10001.92
464.6664, 10327.68
465.1485, 10660.45
465.6306, 10963.44
466.1128, 11237.89
466.5949, 11514.74
467.0770, 11800.97
467.5591, 12102.46
468.0412, 12437.73
468.5233, 12826.14
469.0055, 13191.48
469.4876, 13521.51
469.9697, 13822.04
470.4518, 14098.24
470.9339, 14348.87
471.4160, 14572.68
471.8982, 14769.81
472.3803, 14937.29
472.8624, 15059.54
473.3445, 15148.34
473.8266, 15166.84
474.3087, 15122.29
474.7909, 15008.13
475.2730, 14809.74
475.7551, 14529.96
476.2372, 14198.99
476.7193, 13832.61
477.2014, 13432.98
477.6836, 13011.10
478.1657, 12565.20
478.6478, 12103.64
479.1299, 11616.95
479.6120, 11121.66
480.0941, 10659.38
480.5763, 10235.74
481.0584, 9829.387
481.5405, 9428.232
482.0226, 9042.573
482.5047, 8694.250
482.9868, 8385.535
483.4690, 8090.855
483.9511, 7787.878
484.4332, 7480.289
484.9153, 7206.541
485.3974, 6990.238
485.8795, 6784.145
486.3617, 6576.367
486.8438, 6378.959
487.3259, 6205.686
487.8080, 6058.487
488.2901, 5922.282
488.7722, 5784.635
489.2544, 5645.396
489.7365, 5500.842
490.2186, 5344.032
490.7007, 5196.172
491.1828, 5069.999
491.6649, 4959.938
492.1471, 4859.707
492.6292, 4772.901
493.1113, 4685.068
493.5934, 4582.049
494.0755, 4473.661
494.5576, 4379.939
495.0398, 4303.830
495.5219, 4230.914
496.0040, 4148.193
496.4861, 4055.974
496.9682, 3973.538
497.4503, 3909.394
497.9325, 3843.322
498.4146, 3762.782
498.8967, 3682.542
499.3788, 3621.503
499.8609, 3582.049
500.3430, 3547.800
500.8252, 3501.389
501.3073, 3443.339
501.7894, 3383.482
502.2715, 3316.864
502.7536, 3259.075
503.2357, 3223.574
503.7179, 3199.272
504.2000, 3173.134
504.6821, 3142.785
505.1642, 3111.390
505.6463, 3078.562
506.1284, 3046.678
506.6106, 3020.372
507.0927, 3000.383
507.5748, 2982.958
508.0569, 2965.583
508.5390, 2948.181
509.0211, 2929.414
509.5033, 2905.064
509.9854, 2884.752
510.4675, 2876.012
510.9496, 2868.351
511.4317, 2848.979
511.9138, 2817.446
512.3960, 2786.030
512.8781, 2766.023
513.3602, 2756.387
513.8423, 2751.416
514.3245, 2755.028
514.8066, 2753.536
515.2887, 2732.063
515.7708, 2707.094
516.2529, 2699.996
516.7350, 2716.378
517.2172, 2728.628
517.6993, 2715.415
518.1814, 2693.064
518.6635, 2687.282
519.1456, 2699.020
519.6277, 2710.561
520.1099, 2709.875
520.5920, 2700.139
521.0741, 2694.194
521.5562, 2688.187
522.0383, 2691.857
522.5204, 2718.392
523.0026, 2744.892
523.4847, 2751.443
523.9668, 2740.004
524.4489, 2727.302
524.9310, 2723.178
525.4131, 2728.333
525.8953, 2749.086
526.3774, 2790.207
526.8595, 2821.216
527.3416, 2826.801
527.8237, 2822.995
528.3058, 2827.409
528.7880, 2840.069
529.2701, 2857.411
529.7522, 2879.884
530.2343, 2905.304
530.7164, 2932.073
531.1985, 2960.096
531.6807, 2991.387
532.1628, 3027.457
532.6449, 3062.800
533.1270, 3084.518
533.6091, 3079.176
534.0912, 3092.591
534.5734, 3142.307
535.0555, 3191.731
535.5376, 3223.045
536.0197, 3241.788
536.5018, 3259.904
536.9839, 3281.563
537.4661, 3309.014
537.9482, 3347.722
538.4303, 3396.652
538.9124, 3444.611
539.3945, 3489.621
539.8766, 3532.945
540.3588, 3575.195
540.8409, 3616.499
541.3230, 3659.957
541.8051, 3707.993
542.2872, 3755.414
542.7693, 3795.035
543.2515, 3834.601
543.7336, 3885.239
544.2157, 3949.566
544.6978, 4023.313
545.1799, 4104.564
545.6620, 4193.268
546.1442, 4265.348
546.6263, 4302.142
547.1084, 4352.974
547.5905, 4442.554
548.0726, 4547.356
548.5547, 4645.664
549.0369, 4733.851
549.5190, 4812.097
550.0011, 4872.910
550.4832, 4926.574
550.9653, 4992.192
551.4474, 5070.242
551.9296, 5151.814
552.4117, 5231.264
552.8938, 5310.007
553.3759, 5393.014
553.8580, 5490.462
554.3401, 5574.984
554.8223, 5631.454
555.3044, 5687.519
555.7865, 5772.287
556.2686, 5872.215
556.7507, 5948.075
557.2328, 5974.044
557.7150, 5974.023
558.1971, 5993.361
558.6792, 6033.434
559.1613, 6071.281
559.6434, 6105.583
560.1255, 6132.293
560.6077, 6151.528
561.0898, 6161.668
561.5719, 6150.432
562.0540, 6093.252
562.5361, 6038.223
563.0182, 6018.570
563.5004, 6016.222
563.9825, 6001.561
564.4646, 5967.211
564.9467, 5923.714
565.4288, 5883.643
565.9109, 5846.906
566.3931, 5797.321
566.8752, 5733.476
567.3573, 5658.070
567.8394, 5561.104
568.3215, 5460.832
568.8036, 5378.946
569.2858, 5317.973
569.7679, 5251.488
570.2500, 5150.631
570.7321, 5040.045
571.2142, 4967.326
571.6964, 4930.306
572.1785, 4882.170
572.6606, 4798.583
573.1427, 4694.217
573.6248, 4597.353
574.1069, 4512.588
574.5891, 4426.029
575.0712, 4336.156
575.5533, 4246.017
576.0354, 4151.998
576.5175, 4059.863
576.9996, 3982.597
577.4818, 3927.313
577.9639, 3876.610
578.4460, 3803.373
578.9281, 3710.358
579.4102, 3630.040
579.8923, 3569.631
580.3745, 3510.742
580.8566, 3439.094
581.3387, 3358.609
581.8208, 3286.268
582.3029, 3226.714
582.7850, 3167.632
583.2672, 3100.345
583.7493, 3034.630
584.2314, 2985.125
584.7135, 2949.185
585.1956, 2909.259
585.6777, 2851.126
586.1598, 2782.138
586.6419, 2728.567
587.1240, 2695.033
587.6061, 2660.615
588.0883, 2622.647
588.5704, 2581.093
589.0525, 2532.351
589.5346, 2479.161
590.0167, 2433.775
590.4988, 2404.775
590.9810, 2380.453
591.4631, 2356.162
591.9452, 2329.662
592.4273, 2293.149
592.9094, 2245.047
593.3915, 2197.947
593.8737, 2165.906
594.3558, 2148.684
594.8379, 2131.403
595.3200, 2114.025
595.8021, 2096.348
596.2842, 2078.164
596.7664, 2059.719
597.2485, 2040.224
597.7306, 2019.927
598.2127, 2002.088
598.6948, 1992.508
599.1769, 1984.279
599.6591, 1966.799
600.1412, 1941.140
600.6233, 1912.729
601.1054, 1882.458
601.5875, 1856.320
602.0696, 1844.567
602.5518, 1852.121
603.0339, 1851.878
603.5160, 1839.660
603.9981, 1825.222
604.4802, 1808.973
604.9623, 1793.637
605.4445, 1783.037
605.9266, 1778.115
606.4087, 1774.126
606.8908, 1767.390
607.3729, 1758.210
607.8550, 1745.740
608.3372, 1729.564
608.8193, 1719.400
609.3014, 1723.304
609.7835, 1731.827
610.2656, 1725.031
610.7477, 1694.447
611.2299, 1670.777
611.7120, 1654.703
612.1941, 1645.935
612.6762, 1651.129
613.1583, 1661.874
613.6404, 1662.993
614.1226, 1648.466
614.6047, 1628.466
615.0868, 1615.859
