##NAMES=Eakerite
##RRUFFID=R060319
##IDEAL CHEMISTRY=Ca_2_Sn^4+^Al_2_Si_6_O_18_(OH)_2_&#183;2H_2_O
##LOCALITY=Foote Mineral Company mine, Kings Mountain, North Carolina, USA
##OWNER=RRUFF
##SOURCE=Michael Scott
##DESCRIPTION=Transparent colorless bladed single crystals
##STATUS=The identification of this mineral has been confirmed by single-crystal X-ray diffraction.
##URL=rruff.info/R060319
##MEASURED CHEMISTRY=Ca_2.00_Sn^4+^_1.00_Al_2.00_Si_6_O_18_(OH)_2_Â·2H_2_O
90.01007, 0.0000000E+00
90.49219, 34.36427
90.97430, 34.38549
91.45642, 34.39418
91.93854, 34.67433
92.42065, 34.85598
92.90277, 34.21669
93.38489, 32.55507
93.86700, 30.76451
94.34912, 30.02614
94.83124, 30.19564
95.31335, 30.47046
95.79547, 30.40335
96.27759, 30.04704
96.75970, 29.54203
97.24182, 28.77019
97.72394, 28.03054
98.20605, 28.22745
98.68817, 29.49706
99.17029, 30.59816
99.65240, 30.09075
100.1345, 27.78898
100.6166, 26.78144
101.0988, 28.25610
101.5809, 31.74702
102.0630, 33.17114
102.5451, 31.94329
103.0272, 29.71396
103.5093, 28.26808
103.9915, 27.86786
104.4736, 27.60472
104.9557, 27.21976
105.4378, 26.64371
105.9199, 26.36285
106.4020, 26.58028
106.8842, 26.99214
107.3663, 27.01652
107.8484, 25.95582
108.3305, 25.31962
108.8126, 25.74495
109.2947, 28.61650
109.7769, 30.24418
110.2590, 29.84839
110.7411, 28.07142
111.2232, 26.92039
111.7053, 26.73932
112.1874, 26.96995
112.6696, 27.36592
113.1517, 27.94119
113.6338, 28.64065
114.1159, 30.03683
114.5980, 31.87336
115.0801, 32.34039
115.5623, 29.25644
116.0444, 25.47521
116.5265, 23.21174
117.0086, 24.25970
117.4907, 25.83083
117.9728, 26.86276
118.4550, 27.29988
118.9371, 27.87247
119.4192, 29.56826
119.9013, 31.44554
120.3834, 32.27433
120.8655, 30.40638
121.3477, 28.03622
121.8298, 26.83230
122.3119, 27.08541
122.7940, 27.58076
123.2761, 27.00173
123.7582, 25.97861
124.2404, 25.91497
124.7225, 28.61239
125.2046, 32.33155
125.6867, 34.81892
126.1688, 35.52422
126.6509, 35.54334
127.1331, 35.62238
127.6152, 35.86596
128.0973, 36.79393
128.5794, 39.20558
129.0615, 42.57894
129.5436, 45.60143
130.0258, 47.74610
130.5079, 49.67859
130.9900, 52.69947
131.4721, 56.78208
131.9542, 61.28517
132.4363, 65.52343
132.9185, 69.60468
133.4006, 74.27595
133.8827, 79.82409
134.3648, 86.06210
134.8469, 92.47347
135.3290, 98.87791
135.8112, 106.2853
136.2933, 115.8530
136.7754, 127.6876
137.2575, 140.5849
137.7396, 154.3676
138.2217, 168.7937
138.7039, 183.7935
139.1860, 199.3432
139.6681, 215.5479
140.1502, 233.1801
140.6323, 252.5153
141.1144, 271.7852
141.5966, 290.5402
142.0787, 308.8379
142.5608, 325.8143
143.0429, 341.0892
143.5250, 355.2259
144.0071, 369.3752
144.4893, 383.4568
144.9714, 397.4834
145.4535, 411.1320
145.9356, 423.7032
146.4177, 437.5956
146.8998, 453.1324
147.3820, 470.0772
147.8641, 488.0679
148.3462, 505.7578
148.8283, 525.5261
149.3104, 548.9543
149.7925, 578.3883
150.2747, 608.3157
150.7568, 638.6967
151.2389, 669.3777
151.7210, 698.3619
152.2031, 724.6974
152.6852, 749.6336
153.1674, 774.2358
153.6495, 800.0646
154.1316, 823.7262
154.6137, 844.3485
155.0958, 861.8870
155.5779, 878.5413
156.0601, 894.3583
156.5422, 909.5322
157.0243, 924.0392
157.5064, 937.9656
157.9885, 951.1535
158.4706, 963.3447
158.9528, 974.4225
159.4349, 985.5029
159.9170, 996.3063
160.3991, 1007.430
160.8812, 1019.565
161.3633, 1033.196
161.8455, 1047.651
162.3276, 1062.464
162.8097, 1077.142
163.2918, 1093.457
163.7739, 1112.544
164.2560, 1132.320
164.7382, 1144.316
165.2203, 1153.293
165.7024, 1163.074
166.1845, 1174.533
166.6666, 1188.035
167.1487, 1202.432
167.6309, 1217.753
168.1130, 1233.693
168.5951, 1249.322
169.0772, 1265.344
169.5593, 1280.467
170.0414, 1293.999
170.5236, 1306.703
171.0057, 1315.982
171.4878, 1319.148
171.9699, 1317.315
172.4520, 1313.767
172.9341, 1309.467
173.4163, 1304.811
173.8984, 1299.916
174.3805, 1293.668
174.8626, 1288.973
175.3447, 1289.038
175.8268, 1293.197
176.3090, 1298.513
176.7911, 1303.356
177.2732, 1307.925
177.7553, 1312.648
178.2374, 1318.276
178.7195, 1323.381
179.2017, 1325.105
179.6838, 1323.859
180.1659, 1323.497
180.6480, 1327.395
181.1301, 1334.404
181.6122, 1342.039
182.0944, 1350.074
182.5765, 1357.977
183.0586, 1364.947
183.5407, 1370.879
184.0228, 1376.468
184.5049, 1381.796
184.9871, 1387.124
185.4692, 1393.285
185.9513, 1401.383
186.4334, 1410.197
186.9155, 1416.303
187.3976, 1419.400
187.8798, 1422.956
188.3619, 1431.770
188.8440, 1444.968
189.3261, 1456.344
189.8082, 1463.569
190.2903, 1467.454
190.7725, 1470.784
191.2546, 1473.543
191.7367, 1476.050
192.2188, 1478.806
192.7009, 1481.801
193.1830, 1484.487
193.6652, 1487.217
194.1473, 1489.678
194.6294, 1489.820
195.1115, 1487.690
195.5936, 1483.160
196.0757, 1475.221
196.5579, 1463.761
197.0400, 1452.327
197.5221, 1442.108
198.0042, 1433.119
198.4863, 1424.875
198.9684, 1417.218
199.4506, 1410.761
199.9327, 1406.616
200.4148, 1404.849
200.8969, 1404.425
201.3790, 1405.517
201.8611, 1408.208
202.3433, 1409.257
202.8254, 1407.987
203.3075, 1406.114
203.7896, 1406.859
204.2717, 1410.699
204.7538, 1414.591
205.2360, 1417.265
205.7181, 1418.611
206.2002, 1419.559
206.6823, 1419.974
207.1644, 1420.140
207.6465, 1420.549
208.1287, 1421.197
208.6108, 1422.122
209.0929, 1423.454
209.5750, 1425.336
210.0571, 1426.936
210.5392, 1428.088
211.0214, 1429.178
211.5035, 1431.073
211.9856, 1434.005
212.4677, 1437.131
212.9498, 1440.025
213.4319, 1442.497
213.9140, 1445.458
214.3962, 1448.950
214.8783, 1452.917
215.3604, 1457.107
215.8425, 1461.377
216.3246, 1466.199
216.8067, 1472.193
217.2889, 1480.109
217.7710, 1486.240
218.2531, 1490.072
218.7352, 1492.272
219.2173, 1494.496
219.6994, 1496.763
220.1816, 1498.984
220.6637, 1501.147
221.1458, 1503.251
221.6279, 1505.291
222.1100, 1507.059
222.5921, 1508.880
223.0743, 1511.714
223.5564, 1515.911
224.0385, 1520.560
224.5206, 1525.101
225.0027, 1529.297
225.4848, 1534.188
225.9670, 1539.430
226.4491, 1545.461
226.9312, 1553.716
227.4133, 1564.951
227.8954, 1577.115
228.3775, 1588.874
228.8597, 1599.629
229.3418, 1611.910
229.8239, 1626.233
230.3060, 1641.937
230.7881, 1656.955
231.2702, 1671.867
231.7524, 1685.391
232.2345, 1697.139
232.7166, 1708.576
233.1987, 1715.043
233.6808, 1715.304
234.1629, 1710.932
234.6451, 1706.000
235.1272, 1700.935
235.6093, 1694.806
236.0914, 1687.009
236.5735, 1676.432
237.0556, 1666.793
237.5378, 1657.752
238.0199, 1649.811
238.5020, 1644.319
238.9841, 1642.043
239.4662, 1641.044
239.9483, 1640.604
240.4305, 1640.962
240.9126, 1641.280
241.3947, 1641.388
241.8768, 1641.472
242.3589, 1642.267
242.8410, 1645.112
243.3232, 1646.553
243.8053, 1645.099
244.2874, 1640.171
244.7695, 1633.617
245.2516, 1625.224
245.7337, 1615.261
246.2159, 1604.141
246.6980, 1590.991
247.1801, 1578.053
247.6622, 1565.998
248.1443, 1554.673
248.6264, 1544.746
249.1086, 1536.853
249.5907, 1530.004
250.0728, 1521.954
250.5549, 1511.489
251.0370, 1501.856
251.5191, 1494.264
252.0013, 1489.099
252.4834, 1484.922
252.9655, 1482.196
253.4476, 1480.175
253.9297, 1477.234
254.4118, 1472.115
254.8940, 1468.442
255.3761, 1467.811
255.8582, 1471.107
256.3403, 1473.932
256.8224, 1476.191
257.3046, 1478.072
257.7867, 1479.800
258.2688, 1481.346
258.7509, 1482.892
259.2330, 1484.496
259.7151, 1486.190
260.1973, 1488.034
260.6794, 1490.272
261.1615, 1492.432
261.6436, 1493.662
262.1257, 1493.600
262.6078, 1493.498
263.0900, 1493.520
263.5721, 1493.547
264.0542, 1494.770
264.5363, 1497.323
265.0184, 1500.879
265.5005, 1505.293
265.9827, 1510.839
266.4648, 1516.264
266.9469, 1521.059
267.4290, 1525.170
267.9111, 1529.828
268.3932, 1535.233
268.8754, 1540.806
269.3575, 1545.503
269.8396, 1548.706
270.3217, 1553.517
270.8038, 1560.824
271.2859, 1570.611
271.7681, 1581.402
272.2502, 1593.673
272.7323, 1605.983
273.2144, 1616.429
273.6965, 1624.771
274.1786, 1633.051
274.6608, 1642.664
275.1429, 1652.844
275.6250, 1658.545
276.1071, 1659.784
276.5892, 1656.574
277.0714, 1647.734
277.5535, 1632.568
278.0356, 1617.864
278.5177, 1604.483
278.9998, 1592.615
279.4819, 1583.455
279.9641, 1577.324
280.4462, 1572.251
280.9283, 1565.962
281.4104, 1558.381
281.8925, 1554.008
282.3746, 1554.166
282.8568, 1557.488
283.3389, 1560.319
283.8210, 1562.617
284.3031, 1564.675
284.7852, 1567.234
285.2673, 1570.125
285.7495, 1570.957
286.2316, 1569.356
286.7137, 1565.600
287.1958, 1559.348
287.6779, 1550.476
288.1600, 1542.291
288.6422, 1537.675
289.1243, 1535.949
289.6064, 1532.438
290.0885, 1526.368
290.5706, 1519.288
291.0527, 1513.476
291.5349, 1508.911
292.0170, 1505.092
292.4991, 1501.452
292.9812, 1498.319
293.4633, 1497.299
293.9454, 1498.770
294.4276, 1501.130
294.9097, 1502.892
295.3918, 1503.943
295.8739, 1503.573
296.3560, 1499.777
296.8381, 1494.461
297.3203, 1492.346
297.8024, 1493.671
298.2845, 1496.699
298.7666, 1500.907
299.2487, 1505.552
299.7308, 1508.490
300.2130, 1507.821
300.6951, 1505.275
301.1772, 1503.455
301.6593, 1502.373
302.1414, 1501.888
302.6235, 1501.689
303.1057, 1502.038
303.5878, 1503.518
304.0699, 1507.332
304.5520, 1511.612
305.0341, 1514.133
305.5162, 1515.031
305.9984, 1515.494
306.4805, 1515.510
306.9626, 1515.821
307.4447, 1517.602
307.9268, 1522.094
308.4089, 1526.900
308.8911, 1529.595
309.3732, 1530.647
309.8553, 1532.032
310.3374, 1535.666
310.8195, 1539.846
311.3016, 1542.701
311.7838, 1543.283
312.2659, 1543.684
312.7480, 1545.482
313.2301, 1548.170
313.7122, 1550.507
314.1943, 1550.839
314.6765, 1551.356
315.1586, 1553.968
315.6407, 1559.621
316.1228, 1564.976
316.6049, 1567.811
317.0870, 1569.364
317.5692, 1571.631
318.0513, 1575.862
318.5334, 1580.524
319.0155, 1584.733
319.4976, 1588.301
319.9797, 1592.342
320.4619, 1598.660
320.9440, 1605.124
321.4261, 1609.285
321.9082, 1607.450
322.3903, 1606.251
322.8724, 1608.352
323.3546, 1613.905
323.8367, 1618.415
324.3188, 1619.701
324.8009, 1620.404
325.2830, 1622.528
325.7651, 1625.888
326.2473, 1631.229
326.7294, 1639.852
327.2115, 1651.247
327.6936, 1661.297
328.1757, 1666.702
328.6578, 1672.884
329.1400, 1682.584
329.6221, 1698.539
330.1042, 1714.137
330.5863, 1729.203
331.0684, 1743.927
331.5505, 1758.508
332.0327, 1772.208
332.5148, 1786.706
332.9969, 1802.855
333.4790, 1820.820
333.9611, 1839.188
334.4432, 1859.057
334.9254, 1878.736
335.4075, 1895.500
335.8896, 1910.531
336.3717, 1920.560
336.8538, 1924.293
337.3359, 1921.537
337.8180, 1914.464
338.3001, 1901.811
338.7823, 1886.854
339.2644, 1873.092
339.7465, 1860.297
340.2286, 1849.355
340.7107, 1840.739
341.1928, 1834.181
341.6750, 1828.060
342.1571, 1821.606
342.6392, 1817.992
343.1213, 1821.070
343.6034, 1830.904
344.0855, 1839.618
344.5677, 1845.111
345.0498, 1849.463
345.5319, 1857.406
346.0140, 1868.973
346.4961, 1883.137
346.9782, 1901.157
347.4604, 1921.917
347.9425, 1939.403
348.4246, 1953.474
348.9067, 1963.560
349.3888, 1969.957
349.8709, 1972.238
350.3531, 1967.885
350.8352, 1954.557
351.3173, 1934.095
351.7994, 1908.305
352.2815, 1877.001
352.7636, 1844.657
353.2458, 1814.180
353.7279, 1785.866
354.2100, 1760.362
354.6921, 1737.911
355.1742, 1718.431
355.6563, 1701.805
356.1385, 1688.050
356.6206, 1676.544
357.1027, 1667.231
357.5848, 1659.816
358.0669, 1653.975
358.5490, 1650.506
359.0312, 1647.281
359.5133, 1642.092
359.9954, 1635.844
360.4775, 1631.282
360.9596, 1630.877
361.4417, 1631.847
361.9239, 1632.276
362.4060, 1631.628
362.8881, 1631.121
363.3702, 1631.233
363.8523, 1631.765
364.3344, 1632.412
364.8166, 1634.389
365.2987, 1635.318
365.7808, 1633.731
366.2629, 1629.183
366.7450, 1625.578
367.2271, 1624.720
367.7093, 1624.511
368.1914, 1623.109
368.6735, 1619.386
369.1556, 1615.541
369.6377, 1611.605
370.1198, 1607.655
370.6020, 1604.659
371.0841, 1603.018
371.5662, 1601.957
372.0483, 1601.093
372.5304, 1600.431
373.0125, 1599.957
373.4947, 1599.861
373.9768, 1599.882
374.4589, 1599.185
374.9410, 1596.947
375.4231, 1595.694
375.9052, 1596.676
376.3874, 1600.269
376.8695, 1603.154
377.3516, 1605.150
377.8337, 1606.805
378.3158, 1609.003
378.7979, 1611.896
379.2801, 1614.194
379.7622, 1615.132
380.2443, 1615.250
380.7264, 1617.298
381.2085, 1621.471
381.6906, 1626.085
382.1728, 1629.609
382.6549, 1632.258
383.1370, 1635.169
383.6191, 1638.480
384.1012, 1642.273
384.5833, 1646.912
385.0655, 1652.331
385.5476, 1657.966
386.0297, 1663.715
386.5118, 1669.482
386.9939, 1674.929
387.4760, 1679.849
387.9582, 1685.526
388.4403, 1693.213
388.9224, 1702.641
389.4045, 1713.145
389.8866, 1725.688
390.3687, 1738.444
390.8509, 1749.940
391.3330, 1760.122
391.8151, 1769.152
392.2972, 1778.334
392.7793, 1785.725
393.2614, 1789.631
393.7436, 1790.719
394.2257, 1786.614
394.7078, 1773.397
395.1899, 1753.922
395.6720, 1735.682
396.1541, 1719.655
396.6363, 1706.533
397.1184, 1697.108
397.6005, 1692.529
398.0826, 1688.292
398.5647, 1682.450
399.0468, 1677.036
399.5290, 1674.515
400.0111, 1677.589
400.4932, 1680.858
400.9753, 1683.328
401.4574, 1685.011
401.9395, 1687.320
402.4217, 1690.917
402.9038, 1694.436
403.3859, 1696.798
403.8680, 1697.085
404.3501, 1698.390
404.8322, 1701.035
405.3144, 1704.751
405.7965, 1708.734
406.2786, 1712.927
406.7607, 1717.634
407.2428, 1722.893
407.7249, 1728.716
408.2071, 1735.508
408.6892, 1743.302
409.1713, 1752.040
409.6534, 1761.649
410.1355, 1772.105
410.6176, 1783.543
411.0998, 1795.893
411.5819, 1809.409
412.0640, 1825.343
412.5461, 1843.479
413.0282, 1861.822
413.5103, 1878.056
413.9925, 1893.244
414.4746, 1910.037
414.9567, 1929.349
415.4388, 1949.028
415.9209, 1969.113
416.4030, 1988.105
416.8852, 2002.838
417.3673, 2010.183
417.8494, 2013.381
418.3315, 2016.111
418.8136, 2018.600
419.2957, 2015.740
419.7779, 2003.343
420.2600, 1984.720
420.7421, 1963.404
421.2242, 1937.558
421.7063, 1911.995
422.1884, 1886.652
422.6706, 1862.349
423.1527, 1841.152
423.6348, 1824.736
424.1169, 1810.890
424.5990, 1798.531
425.0811, 1787.694
425.5633, 1778.362
426.0454, 1769.776
426.5275, 1762.990
427.0096, 1759.444
427.4917, 1761.209
427.9738, 1763.146
428.4560, 1764.194
428.9381, 1764.408
429.4202, 1764.905
429.9023, 1765.629
430.3844, 1766.690
430.8665, 1767.814
431.3487, 1768.658
431.8308, 1771.792
432.3129, 1777.874
432.7950, 1785.728
433.2771, 1792.908
433.7592, 1799.311
434.2414, 1805.773
434.7235, 1812.351
435.2056, 1819.231
435.6877, 1827.275
436.1698, 1836.465
436.6519, 1846.432
437.1341, 1856.581
437.6162, 1867.071
438.0983, 1878.747
438.5804, 1892.492
439.0625, 1906.575
439.5446, 1919.178
440.0268, 1930.473
440.5089, 1941.047
440.9910, 1952.002
441.4731, 1961.953
441.9552, 1970.580
442.4373, 1978.315
442.9195, 1981.536
443.4016, 1977.327
443.8837, 1967.914
444.3658, 1956.000
444.8479, 1942.174
445.3300, 1926.177
445.8122, 1907.441
446.2943, 1886.255
446.7764, 1863.779
447.2585, 1836.375
447.7406, 1810.645
448.2227, 1789.997
448.7049, 1777.263
449.1870, 1764.485
449.6691, 1751.427
450.1512, 1738.495
450.6333, 1726.418
451.1154, 1714.556
451.5976, 1704.732
452.0797, 1697.789
452.5618, 1693.535
453.0439, 1689.874
453.5260, 1686.937
454.0081, 1684.379
454.4903, 1682.104
454.9724, 1680.123
455.4545, 1677.701
455.9366, 1674.576
456.4187, 1671.393
456.9008, 1669.232
457.3830, 1668.033
457.8651, 1667.510
458.3472, 1667.799
458.8293, 1668.569
459.3114, 1669.068
459.7935, 1669.299
460.2757, 1670.042
460.7578, 1672.529
461.2399, 1675.725
461.7220, 1678.111
462.2041, 1678.867
462.6862, 1679.476
463.1684, 1680.774
463.6505, 1682.649
464.1326, 1684.830
464.6147, 1686.906
465.0968, 1689.499
465.5789, 1693.186
466.0611, 1698.214
466.5432, 1702.561
467.0253, 1705.779
467.5074, 1708.115
467.9895, 1709.738
468.4716, 1707.646
468.9538, 1708.803
469.4359, 1715.043
469.9180, 1724.766
470.4001, 1732.953
470.8822, 1739.004
471.3643, 1744.535
471.8465, 1750.141
472.3286, 1755.852
472.8107, 1761.648
473.2928, 1767.545
473.7749, 1773.409
474.2570, 1779.201
474.7392, 1784.928
475.2213, 1789.764
475.7034, 1793.544
476.1855, 1796.320
476.6676, 1799.017
477.1497, 1801.339
477.6319, 1800.566
478.1140, 1794.117
478.5961, 1783.802
479.0782, 1772.098
479.5603, 1759.057
480.0424, 1746.004
480.5246, 1733.194
481.0067, 1721.246
481.4888, 1711.034
481.9709, 1703.549
482.4530, 1696.901
482.9352, 1690.178
483.4173, 1683.512
483.8994, 1677.327
484.3815, 1671.255
484.8636, 1666.097
485.3457, 1662.499
485.8279, 1660.984
486.3100, 1659.066
486.7921, 1655.885
487.2742, 1652.581
487.7563, 1650.039
488.2384, 1647.790
488.7206, 1647.324
489.2027, 1650.001
489.6848, 1654.404
490.1669, 1654.819
490.6490, 1649.750
491.1311, 1645.287
491.6133, 1645.235
492.0954, 1649.494
492.5775, 1650.442
493.0596, 1647.490
493.5417, 1643.740
494.0238, 1642.573
494.5060, 1643.571
494.9881, 1644.911
495.4702, 1646.294
495.9523, 1647.545
496.4344, 1648.339
496.9165, 1648.741
497.3987, 1648.994
497.8808, 1648.416
498.3629, 1648.237
498.8450, 1649.988
499.3271, 1653.869
499.8092, 1657.627
500.2914, 1660.446
500.7735, 1662.374
501.2556, 1663.516
501.7377, 1662.980
502.2198, 1662.713
502.7019, 1663.205
503.1841, 1664.268
503.6662, 1665.404
504.1483, 1666.570
504.6304, 1667.853
505.1125, 1669.488
505.5946, 1671.593
506.0768, 1672.610
506.5589, 1672.021
507.0410, 1671.141
507.5231, 1670.857
508.0052, 1671.099
508.4873, 1672.721
508.9695, 1676.319
509.4516, 1680.533
509.9337, 1682.449
510.4158, 1682.197
510.8979, 1682.229
511.3800, 1683.716
511.8622, 1686.177
512.3443, 1688.631
512.8264, 1691.053
513.3085, 1693.510
513.7906, 1696.783
514.2728, 1699.835
514.7549, 1701.038
515.2370, 1699.501
515.7191, 1697.898
516.2012, 1697.578
516.6833, 1698.358
517.1655, 1699.946
517.6476, 1703.770
518.1297, 1706.901
518.6118, 1707.846
519.0939, 1706.831
519.5760, 1706.531
520.0582, 1707.825
520.5403, 1709.431
521.0224, 1710.876
521.5045, 1712.303
521.9866, 1713.015
522.4688, 1712.318
522.9509, 1711.643
523.4330, 1713.265
523.9151, 1717.879
524.3972, 1720.675
524.8793, 1719.823
525.3615, 1717.152
525.8436, 1717.946
526.3257, 1722.157
526.8078, 1726.182
527.2899, 1727.550
527.7720, 1727.321
528.2542, 1727.804
528.7363, 1729.115
529.2184, 1730.840
529.7005, 1732.246
530.1826, 1733.967
530.6647, 1737.067
531.1469, 1742.965
531.6290, 1748.373
532.1111, 1750.463
532.5932, 1750.771
533.0753, 1752.429
533.5574, 1757.887
534.0396, 1763.355
534.5217, 1766.749
535.0038, 1767.727
535.4859, 1771.826
535.9680, 1780.898
536.4501, 1791.313
536.9323, 1801.068
537.4144, 1810.159
537.8965, 1818.619
538.3786, 1825.761
538.8607, 1833.195
539.3428, 1843.636
539.8250, 1857.428
540.3071, 1870.861
540.7892, 1882.364
541.2713, 1893.144
541.7534, 1906.200
542.2355, 1921.309
542.7177, 1935.947
543.1998, 1947.727
543.6819, 1958.506
544.1640, 1971.736
544.6461, 1987.848
545.1282, 2002.878
545.6104, 2014.244
546.0925, 2022.727
546.5746, 2029.172
547.0567, 2033.525
547.5388, 2036.241
548.0209, 2037.888
548.5031, 2037.927
548.9852, 2035.242
549.4673, 2026.712
549.9494, 2018.501
550.4315, 2011.978
550.9136, 2007.142
551.3958, 2003.494
551.8779, 2001.631
552.3600, 1999.961
552.8421, 1997.000
553.3242, 1992.384
553.8063, 1990.004
554.2885, 1990.158
554.7706, 1992.181
555.2527, 1995.353
555.7348, 1999.661
556.2169, 2005.026
556.6990, 2011.314
557.1812, 2018.696
557.6633, 2027.673
558.1454, 2038.014
558.6275, 2048.894
559.1096, 2059.860
559.5917, 2071.081
560.0739, 2082.028
560.5560, 2092.693
561.0381, 2105.338
561.5202, 2121.259
562.0023, 2139.154
562.4844, 2158.057
562.9666, 2178.323
563.4487, 2198.990
563.9308, 2220.463
564.4129, 2242.056
564.8950, 2262.717
565.3771, 2282.194
565.8593, 2300.801
566.3414, 2318.714
566.8235, 2335.685
567.3056, 2352.639
567.7877, 2370.190
568.2698, 2382.358
568.7520, 2385.161
569.2341, 2379.658
569.7162, 2370.401
570.1983, 2357.765
570.6804, 2338.996
571.1625, 2309.721
571.6447, 2273.249
572.1268, 2234.577
572.6089, 2193.398
573.0910, 2152.865
573.5731, 2114.395
574.0552, 2077.840
574.5374, 2042.067
575.0195, 2004.885
575.5016, 1970.735
575.9837, 1941.585
576.4658, 1917.375
576.9479, 1894.605
577.4301, 1873.323
577.9122, 1853.583
578.3943, 1835.030
578.8764, 1817.489
579.3585, 1802.809
579.8406, 1791.313
580.3228, 1781.938
580.8049, 1774.095
581.2870, 1767.714
581.7691, 1760.932
582.2512, 1753.131
582.7333, 1745.582
583.2155, 1740.884
583.6975, 1738.178
584.1796, 1734.569
584.6617, 1726.580
