##NAMES=Earlshannonite
##RRUFFID=R100095
##IDEAL CHEMISTRY=Mn^2+^Fe^3+^_2_(PO_4_)_2_(OH)_2_&#183;4H_2_O
##LOCALITY=Foote mine, Kings Mountain, North Carolina
##OWNER=RRUFF
##SOURCE=
##DESCRIPTION=Orange to brown spherical aggregates on matrix
##STATUS=The identification of this mineral has been confirmed by single-crystal X-ray diffraction.
##URL=rruff.info/R100095
91.53320, 273.0056
92.01532, 273.6346
92.49744, 273.1670
92.97955, 275.1408
93.46167, 276.4976
93.94379, 275.4665
94.42590, 273.7514
94.90802, 271.6816
95.39014, 268.8212
95.87225, 264.9655
96.35437, 261.2878
96.83649, 258.4665
97.31860, 256.1887
97.80072, 254.1550
98.28284, 251.9707
98.76495, 249.4467
99.24707, 246.9034
99.72919, 244.3947
100.2113, 241.8988
100.6934, 239.0171
101.1755, 236.0515
101.6577, 233.6818
102.1398, 232.5917
102.6219, 233.1592
103.1040, 232.9275
103.5861, 231.4128
104.0682, 229.6842
104.5504, 228.2538
105.0325, 227.2181
105.5146, 226.3974
105.9967, 225.5775
106.4788, 224.8821
106.9609, 223.7439
107.4431, 221.3752
107.9252, 218.7207
108.4073, 217.2527
108.8894, 217.6864
109.3715, 218.9107
109.8536, 218.9678
110.3358, 217.7528
110.8179, 216.2594
111.3000, 214.8004
111.7821, 213.4065
112.2642, 212.4181
112.7463, 212.2409
113.2285, 212.3963
113.7106, 212.5011
114.1927, 212.5733
114.6748, 212.3581
115.1569, 211.2933
115.6390, 208.8011
116.1212, 206.9432
116.6033, 206.8804
117.0854, 207.4418
117.5675, 207.3983
118.0496, 206.0540
118.5317, 203.7798
119.0139, 202.3808
119.4960, 202.8963
119.9781, 203.2620
120.4602, 202.9320
120.9423, 202.1863
121.4244, 201.5670
121.9066, 201.5065
122.3887, 202.0545
122.8708, 202.4753
123.3529, 202.7923
123.8350, 203.0015
124.3171, 202.9511
124.7993, 202.7057
125.2814, 202.6237
125.7635, 203.1487
126.2456, 204.4785
126.7277, 205.3269
127.2098, 205.5117
127.6920, 205.2776
128.1741, 204.7456
128.6562, 203.8670
129.1383, 203.0418
129.6204, 202.8296
130.1025, 203.1472
130.5847, 203.6349
131.0668, 204.2066
131.5489, 204.8464
132.0310, 205.5207
132.5131, 206.3469
132.9952, 207.0590
133.4774, 207.4440
133.9595, 207.5009
134.4416, 207.4111
134.9237, 207.2717
135.4058, 207.0546
135.8879, 206.9943
136.3701, 207.3052
136.8522, 207.6860
137.3343, 208.0100
137.8164, 208.2411
138.2985, 208.3531
138.7806, 208.2575
139.2628, 207.6894
139.7449, 207.4181
140.2270, 207.5837
140.7091, 207.9892
141.1912, 208.4588
141.6733, 208.9104
142.1555, 209.3906
142.6376, 210.0566
143.1197, 211.0773
143.6018, 212.1059
144.0839, 213.3711
144.5660, 214.5908
145.0482, 215.2704
145.5303, 215.0591
146.0124, 214.1072
146.4945, 213.5587
146.9766, 213.3291
147.4587, 213.4686
147.9409, 214.2666
148.4230, 215.5680
148.9051, 216.7077
149.3872, 217.2487
149.8693, 217.1853
150.3514, 216.9530
150.8336, 216.4446
151.3157, 215.8394
151.7978, 215.2676
152.2799, 214.7239
152.7620, 214.2525
153.2441, 213.9366
153.7263, 213.7152
154.2084, 213.4937
154.6905, 213.4519
155.1726, 213.3634
155.6547, 212.6551
156.1368, 211.0489
156.6190, 209.2971
157.1011, 207.6300
157.5832, 206.1262
158.0653, 204.9483
158.5474, 204.3648
159.0295, 204.3107
159.5117, 203.9102
159.9938, 202.7403
160.4759, 201.6135
160.9580, 200.7650
161.4401, 200.1973
161.9222, 199.8633
162.4044, 199.7853
162.8865, 200.0526
163.3686, 200.0314
163.8507, 199.6456
164.3328, 199.0650
164.8149, 198.2684
165.2971, 197.3036
165.7792, 196.3235
166.2613, 195.5046
166.7434, 194.9317
167.2255, 194.2937
167.7076, 193.6596
168.1898, 192.9269
168.6719, 191.8426
169.1540, 190.4092
169.6361, 189.1149
170.1182, 188.7047
170.6003, 189.6761
171.0825, 190.3223
171.5646, 190.3344
172.0467, 190.0769
172.5288, 189.9271
173.0109, 189.9830
173.4930, 190.2107
173.9752, 190.6054
174.4573, 191.1671
174.9394, 191.7753
175.4215, 192.6257
175.9036, 193.4984
176.3857, 193.7389
176.8679, 192.7864
177.3500, 191.7412
177.8321, 192.1478
178.3142, 194.0920
178.7963, 196.1777
179.2784, 197.6418
179.7606, 198.5404
180.2427, 199.2058
180.7248, 199.5634
181.2069, 199.8456
181.6890, 200.2290
182.1711, 200.7283
182.6533, 201.3362
183.1354, 202.2147
183.6175, 203.4632
184.0996, 204.1961
184.5817, 203.5086
185.0638, 202.6574
185.5460, 202.5356
186.0281, 203.3084
186.5102, 204.1899
186.9923, 203.9584
187.4744, 202.0555
187.9565, 200.5109
188.4387, 199.5674
188.9208, 199.0182
189.4029, 198.9085
189.8850, 199.2091
190.3671, 199.5712
190.8492, 199.2862
191.3314, 197.7779
191.8135, 196.5322
192.2956, 195.9105
192.7777, 195.4299
193.2598, 194.6223
193.7419, 193.3127
194.2241, 191.7222
194.7062, 190.3870
195.1883, 189.8630
195.6704, 188.9375
196.1525, 187.2733
196.6346, 185.2984
197.1168, 183.5196
197.5989, 182.1608
198.0810, 181.0741
198.5631, 179.8321
199.0452, 178.1188
199.5273, 176.6689
200.0095, 175.7567
200.4916, 175.1642
200.9737, 174.4833
201.4558, 173.4824
201.9379, 172.3803
202.4200, 171.8699
202.9022, 172.4253
203.3843, 172.6464
203.8664, 171.6855
204.3485, 169.9577
204.8306, 168.6263
205.3127, 168.2448
205.7949, 168.5182
206.2770, 168.7823
206.7591, 169.1674
207.2412, 169.2916
207.7233, 168.7627
208.2054, 167.6875
208.6876, 166.7523
209.1697, 166.3134
209.6518, 166.1037
210.1339, 165.6771
210.6160, 164.9290
211.0981, 164.2253
211.5803, 163.8861
212.0624, 163.9121
212.5445, 164.0168
213.0266, 164.1452
213.5087, 164.2852
213.9908, 164.4034
214.4730, 164.4802
214.9551, 164.6143
215.4372, 164.9622
215.9193, 165.5750
216.4014, 166.0958
216.8836, 166.2209
217.3657, 166.3329
217.8478, 166.7167
218.3299, 167.4415
218.8120, 168.3232
219.2941, 169.1336
219.7763, 169.8803
220.2584, 170.5191
220.7405, 170.7887
221.2226, 171.1091
221.7047, 171.8283
222.1868, 173.0294
222.6690, 174.4507
223.1511, 175.7050
223.6332, 176.8064
224.1153, 177.6940
224.5974, 177.9969
225.0795, 178.3438
225.5617, 179.3059
226.0438, 181.0060
226.5259, 182.9909
227.0080, 184.4385
227.4901, 184.8631
227.9722, 185.6235
228.4544, 187.0351
228.9365, 188.5861
229.4186, 189.7535
229.9007, 190.4316
230.3828, 191.0473
230.8649, 192.3646
231.3471, 195.1003
231.8292, 197.4244
232.3113, 199.2000
232.7934, 200.6814
233.2755, 201.9970
233.7576, 203.2005
234.2398, 204.4176
234.7219, 205.8350
235.2040, 207.5316
235.6861, 209.3340
236.1682, 211.3904
236.6503, 213.4704
237.1325, 215.3334
237.6146, 216.9140
238.0967, 218.3703
238.5788, 219.9402
239.0609, 221.7163
239.5430, 223.3678
240.0252, 224.8808
240.5073, 226.2578
240.9894, 227.4822
241.4715, 228.5564
241.9536, 229.4997
242.4357, 230.3350
242.9179, 231.0516
243.4000, 231.6842
243.8821, 232.5622
244.3642, 233.2040
244.8463, 232.9875
245.3284, 231.7655
245.8106, 230.0817
246.2927, 228.4994
246.7748, 227.0211
247.2569, 225.5373
247.7390, 224.0625
248.2211, 222.5547
248.7033, 221.0046
249.1854, 219.4240
249.6675, 217.6712
250.1496, 215.5087
250.6317, 212.9806
251.1138, 210.4519
251.5960, 208.0661
252.0781, 205.6833
252.5602, 202.8562
253.0423, 199.4000
253.5244, 196.4203
254.0065, 195.4622
254.4887, 195.8607
254.9708, 195.8262
255.4529, 194.7478
255.9350, 193.0585
256.4171, 191.1868
256.8992, 189.0309
257.3813, 187.2236
257.8635, 186.7180
258.3456, 186.8418
258.8277, 186.4309
259.3098, 184.7570
259.7919, 182.6144
260.2740, 181.1847
260.7562, 180.6029
261.2383, 180.1499
261.7204, 179.2032
262.2025, 178.1915
262.6846, 177.7350
263.1667, 178.2828
263.6489, 179.1286
264.1310, 179.2763
264.6131, 178.6284
265.0952, 177.7017
265.5773, 176.3076
266.0594, 174.9209
266.5416, 174.0348
267.0237, 173.8358
267.5058, 174.0330
267.9879, 174.3117
268.4700, 174.7151
268.9521, 175.0017
269.4343, 174.9709
269.9164, 174.8512
270.3985, 174.7742
270.8806, 174.7624
271.3627, 174.8801
271.8448, 175.3846
272.3270, 176.4643
272.8091, 176.9517
273.2912, 175.6662
273.7733, 174.2569
274.2554, 173.8575
274.7375, 174.6358
275.2197, 175.7395
275.7018, 176.0850
276.1839, 175.4686
276.6660, 175.4076
277.1481, 176.9547
277.6302, 178.5075
278.1124, 179.2260
278.5945, 179.0817
279.0766, 178.6003
279.5587, 178.2501
280.0408, 178.0419
280.5229, 177.8618
281.0051, 177.3954
281.4872, 177.2523
281.9693, 177.8926
282.4514, 179.1507
282.9335, 180.4480
283.4156, 181.2688
283.8978, 181.6015
284.3799, 182.0060
284.8620, 182.5512
285.3441, 183.1034
285.8262, 183.5047
286.3083, 183.8714
286.7905, 184.4891
287.2726, 185.6719
287.7547, 187.3119
288.2368, 188.3111
288.7189, 187.9340
289.2010, 187.7645
289.6832, 188.3968
290.1653, 189.4717
290.6474, 190.4241
291.1295, 190.9091
291.6116, 191.0585
292.0938, 191.4206
292.5759, 192.2725
293.0580, 192.9352
293.5401, 193.2051
294.0222, 193.2644
294.5043, 193.2910
294.9865, 193.3611
295.4686, 193.4845
295.9507, 193.6848
296.4328, 193.9715
296.9149, 194.3299
297.3970, 194.7056
297.8792, 195.1655
298.3613, 195.8584
298.8434, 196.8058
299.3255, 197.7472
299.8076, 198.2146
300.2897, 197.9576
300.7719, 197.7752
301.2540, 197.7853
301.7361, 197.8120
302.2182, 197.8303
302.7003, 197.7899
303.1824, 197.5394
303.6646, 196.8559
304.1467, 195.6178
304.6288, 194.3814
305.1109, 193.1022
305.5930, 191.8542
306.0751, 190.6716
306.5573, 189.5564
307.0394, 188.4908
307.5215, 187.4467
308.0036, 186.4081
308.4857, 185.5447
308.9678, 185.7097
309.4500, 185.1985
309.9321, 182.8933
310.4142, 179.5219
310.8963, 176.6369
311.3784, 175.3757
311.8605, 175.4541
312.3427, 174.6521
312.8248, 172.1908
313.3069, 169.6685
313.7890, 167.1526
314.2711, 164.8115
314.7532, 162.8506
315.2354, 161.3950
315.7175, 160.2812
316.1996, 159.0847
316.6817, 157.9064
317.1638, 156.4432
317.6459, 154.3461
318.1281, 152.1540
318.6102, 150.3568
319.0923, 149.1067
319.5744, 148.2134
320.0565, 147.4093
320.5386, 146.8204
321.0208, 146.0201
321.5029, 145.0630
321.9850, 143.8773
322.4671, 142.3071
322.9492, 140.3916
323.4313, 138.4043
323.9135, 136.5786
324.3956, 134.8826
324.8777, 133.5354
325.3598, 132.9529
325.8419, 132.3298
326.3240, 131.2023
326.8062, 129.7397
327.2883, 128.4772
327.7704, 127.9118
328.2525, 127.9786
328.7346, 127.4705
329.2167, 125.5534
329.6989, 123.9916
330.1810, 123.6659
330.6631, 123.8623
331.1452, 123.4587
331.6273, 121.7991
332.1094, 119.3293
332.5916, 117.4185
333.0737, 116.2248
333.5558, 115.3836
334.0379, 115.0890
334.5200, 114.9209
335.0021, 114.5247
335.4843, 113.7805
335.9664, 112.7558
336.4485, 111.4525
336.9306, 109.6055
337.4127, 108.2761
337.8948, 107.9067
338.3770, 107.7940
338.8591, 107.5414
339.3412, 107.1133
339.8233, 106.7194
340.3055, 106.7759
340.7876, 107.4152
341.2697, 107.1318
341.7518, 104.6220
342.2339, 102.4457
342.7160, 101.8769
343.1982, 102.4542
343.6803, 102.9417
344.1624, 102.4296
344.6445, 101.1679
345.1266, 100.4387
345.6087, 100.5682
346.0909, 100.7232
346.5730, 100.5702
347.0551, 100.2963
347.5372, 100.1432
348.0193, 100.2181
348.5014, 100.4197
348.9836, 100.6339
349.4657, 100.9644
349.9478, 100.9506
350.4299, 100.0216
350.9120, 98.97739
351.3941, 98.46591
351.8763, 98.59924
352.3584, 98.87325
352.8405, 98.69668
353.3226, 98.04891
353.8047, 97.69399
354.2868, 97.97878
354.7690, 98.33157
355.2511, 98.36135
355.7332, 98.12498
356.2153, 97.90825
356.6974, 97.91472
357.1795, 98.09289
357.6617, 98.27122
358.1438, 98.51636
358.6259, 98.61057
359.1080, 98.18732
359.5901, 97.58285
360.0722, 97.36929
360.5544, 97.88737
361.0365, 98.72425
361.5186, 99.30692
362.0007, 99.60127
362.4828, 99.89277
362.9649, 100.4246
363.4471, 100.9312
363.9292, 101.0617
364.4113, 100.7044
364.8934, 100.3133
365.3755, 100.2353
365.8576, 100.4289
366.3398, 100.6667
366.8219, 100.8952
367.3040, 101.1614
367.7861, 101.6331
368.2682, 102.2767
368.7503, 102.6139
369.2325, 102.1697
369.7146, 101.3822
370.1967, 101.0566
370.6788, 101.3227
371.1609, 101.6600
371.6430, 101.5348
372.1252, 101.1536
372.6073, 101.2110
373.0894, 102.3294
373.5715, 103.4926
374.0536, 103.7243
374.5357, 103.1849
375.0179, 102.8672
375.5000, 103.3284
375.9821, 104.2400
376.4642, 104.8203
376.9463, 104.9948
377.4284, 105.0658
377.9106, 105.0669
378.3927, 105.0523
378.8748, 105.1420
379.3569, 105.3792
379.8390, 105.6350
380.3211, 105.7358
380.8033, 105.6509
381.2854, 105.5803
381.7675, 105.6096
382.2496, 105.6070
382.7317, 105.3750
383.2138, 104.9534
383.6960, 104.6608
384.1781, 104.7498
384.6602, 105.1958
385.1423, 105.6246
385.6244, 105.9250
386.1065, 106.3319
386.5887, 107.0188
387.0708, 107.8440
387.5529, 108.5601
388.0350, 109.0562
388.5171, 109.4257
388.9992, 109.8690
389.4814, 110.2722
389.9635, 110.9563
390.4456, 112.4601
390.9277, 113.8874
391.4098, 114.2196
391.8919, 113.4944
392.3741, 112.8568
392.8562, 113.6054
393.3383, 116.0313
393.8204, 117.6255
394.3025, 117.9122
394.7846, 117.9299
395.2668, 117.7297
395.7489, 117.5503
396.2310, 117.7788
396.7131, 118.6688
397.1952, 120.0275
397.6773, 121.2183
398.1595, 122.3841
398.6416, 123.1046
399.1237, 122.8798
399.6058, 122.5170
400.0879, 122.7816
400.5700, 123.8171
401.0522, 125.0809
401.5343, 125.8858
402.0164, 126.1208
402.4985, 126.5302
402.9806, 127.0397
403.4627, 127.8499
403.9449, 129.3873
404.4270, 131.3209
404.9091, 132.8138
405.3912, 133.1778
405.8733, 132.8115
406.3554, 133.0061
406.8376, 134.0150
407.3197, 134.9571
407.8018, 135.4991
408.2839, 135.7905
408.7660, 135.8853
409.2481, 135.7475
409.7303, 135.6881
410.2124, 136.1320
410.6945, 137.0368
411.1766, 137.7323
411.6587, 137.9973
412.1408, 138.1120
412.6230, 138.3381
413.1051, 138.6617
413.5872, 138.9796
414.0693, 139.2562
414.5514, 139.4986
415.0335, 139.7053
415.5157, 139.8725
415.9978, 140.0308
416.4799, 140.1118
416.9620, 140.2232
417.4441, 140.6802
417.9262, 141.9320
418.4084, 142.9486
418.8905, 142.8773
419.3726, 142.1077
419.8547, 141.6688
420.3368, 141.9445
420.8189, 142.5715
421.3011, 142.9472
421.7832, 142.9564
422.2653, 143.2186
422.7474, 144.1444
423.2295, 145.1181
423.7116, 145.5207
424.1938, 145.3704
424.6759, 145.1965
425.1580, 145.4105
425.6401, 145.9913
426.1222, 146.5570
426.6043, 147.0847
427.0865, 147.6248
427.5686, 148.1704
428.0507, 148.7426
428.5328, 149.4200
429.0149, 150.2272
429.4970, 151.0130
429.9792, 151.4940
430.4613, 151.4531
430.9434, 151.5818
431.4255, 152.0139
431.9076, 152.4674
432.3897, 152.7945
432.8719, 152.9977
433.3540, 153.1556
433.8361, 153.3355
434.3182, 153.5225
434.8003, 153.5746
435.2824, 153.1913
435.7646, 153.1588
436.2467, 153.9030
436.7288, 154.9388
437.2109, 155.8508
437.6930, 156.5145
438.1751, 156.7836
438.6573, 156.2908
439.1394, 154.9597
439.6215, 153.9755
440.1036, 153.9523
440.5857, 153.7876
441.0678, 152.5115
441.5500, 150.4278
442.0321, 148.7163
442.5142, 148.4717
442.9963, 148.7735
443.4784, 147.7146
443.9605, 145.0941
444.4427, 142.6736
444.9248, 141.4052
445.4069, 140.8680
445.8890, 140.3188
446.3711, 139.7480
446.8532, 139.1031
447.3354, 138.2829
447.8175, 137.3780
448.2996, 136.6823
448.7817, 136.3187
449.2638, 135.7942
449.7459, 134.4347
450.2281, 132.1732
450.7102, 130.4403
451.1923, 129.7362
451.6744, 129.1752
452.1565, 128.0667
452.6386, 126.6155
453.1208, 125.5748
453.6029, 125.3831
454.0850, 125.6809
454.5671, 125.4693
455.0492, 124.2366
455.5313, 123.1662
456.0135, 122.5396
456.4956, 121.9012
456.9777, 120.7402
457.4598, 119.0876
457.9419, 117.4864
458.4240, 116.4859
458.9062, 116.1003
459.3883, 115.4648
459.8704, 114.2732
460.3525, 113.1626
460.8346, 112.3248
461.3167, 111.6260
461.7989, 110.8728
462.2810, 109.9858
462.7631, 109.0951
463.2452, 108.3909
463.7273, 107.8825
464.2094, 107.5176
464.6916, 107.6110
465.1737, 107.5287
465.6558, 106.7782
466.1379, 105.5087
466.6200, 104.2868
467.1021, 103.4397
467.5843, 102.8300
468.0664, 102.1923
468.5485, 101.5138
469.0306, 100.8716
469.5127, 100.2103
469.9948, 99.67171
470.4770, 99.60422
470.9591, 100.2695
471.4412, 100.4587
471.9233, 99.13634
472.4054, 97.03399
472.8875, 95.42457
473.3697, 94.52857
473.8518, 94.21761
474.3339, 94.59462
474.8160, 95.62966
475.2981, 95.92002
475.7802, 94.92039
476.2624, 93.77280
476.7445, 92.96143
477.2266, 92.36565
477.7087, 91.69840
478.1908, 90.83681
478.6729, 89.96211
479.1551, 89.42477
479.6372, 89.46648
480.1193, 89.27379
480.6014, 88.55855
481.0835, 87.89713
481.5656, 87.70377
482.0478, 87.85247
482.5299, 87.92867
483.0120, 87.64571
483.4941, 87.11326
483.9762, 86.76579
484.4583, 86.72542
484.9405, 86.62284
485.4226, 86.59136
485.9047, 86.34065
486.3868, 85.41607
486.8689, 83.85164
487.3510, 82.47769
487.8332, 82.12440
488.3153, 82.59486
488.7974, 82.96094
489.2795, 83.24477
489.7616, 83.28540
490.2437, 82.80576
490.7259, 82.05598
491.2080, 81.36504
491.6901, 80.70947
492.1722, 80.29161
492.6543, 80.58994
493.1364, 81.26228
493.6186, 81.20692
494.1007, 80.03298
494.5828, 78.53967
495.0649, 77.61303
495.5470, 77.31274
496.0291, 77.06113
496.5113, 76.81687
496.9934, 76.63695
497.4755, 76.68421
497.9576, 76.82114
498.4397, 76.62693
498.9218, 75.87275
499.4040, 74.95211
499.8861, 74.79688
500.3682, 76.14008
500.8503, 76.90302
501.3324, 76.87576
501.8145, 76.52402
502.2967, 75.97669
502.7788, 75.34823
503.2609, 74.83978
503.7430, 74.61516
504.2251, 74.58582
504.7072, 74.38288
505.1894, 73.86583
505.6715, 73.49770
506.1536, 73.52318
506.6357, 73.65643
507.1178, 73.68864
507.5999, 73.59258
508.0821, 73.45328
508.5642, 73.40128
509.0463, 73.35410
509.5284, 72.94523
510.0105, 72.01812
510.4926, 71.35577
510.9748, 71.68126
511.4569, 72.56033
511.9390, 72.94267
512.4211, 72.55202
512.9032, 72.06414
513.3853, 71.76379
513.8674, 71.59824
514.3495, 71.41655
514.8317, 71.18485
515.3138, 71.20156
515.7959, 71.88591
516.2780, 73.33019
516.7601, 73.98289
517.2422, 73.12275
517.7244, 72.41615
518.2065, 72.69238
518.6886, 73.38282
519.1707, 73.55745
519.6528, 72.90923
520.1349, 72.00717
520.6171, 71.78098
521.0992, 72.47766
521.5813, 72.84155
522.0634, 72.39214
522.5455, 72.08205
523.0276, 72.38615
523.5098, 73.06003
523.9919, 73.62610
524.4740, 73.87208
524.9561, 73.93492
525.4382, 73.96855
525.9203, 73.97059
526.4025, 74.08930
526.8846, 74.47389
527.3667, 74.82887
527.8488, 74.77416
528.3309, 74.38757
528.8130, 74.18578
529.2952, 74.30250
529.7773, 74.67924
530.2594, 75.51630
530.7415, 76.64351
531.2236, 77.25261
531.7057, 76.89356
532.1879, 76.10000
532.6700, 75.90857
533.1521, 76.66109
533.6342, 77.26788
534.1163, 77.61091
534.5984, 77.88620
535.0806, 78.22334
535.5627, 78.60579
536.0448, 78.89931
536.5269, 78.98991
537.0090, 79.05785
537.4911, 79.73946
537.9733, 81.58150
538.4554, 82.83511
538.9375, 82.71453
539.4196, 82.45306
539.9017, 82.87098
540.3839, 83.89289
540.8660, 84.88056
541.3481, 85.45478
541.8302, 85.70423
542.3123, 85.68398
542.7944, 85.32170
543.2766, 85.35985
543.7587, 86.35796
544.2408, 87.69115
544.7229, 88.44028
545.2050, 88.55738
545.6871, 88.58809
546.1693, 88.65227
546.6514, 88.76128
547.1335, 88.89462
547.6156, 89.06924
548.0977, 89.39238
548.5798, 89.94288
549.0620, 90.66757
549.5441, 91.38279
550.0262, 92.35728
550.5083, 92.93784
550.9904, 92.73551
551.4725, 92.42939
551.9547, 92.56895
552.4368, 93.11658
552.9189, 93.70743
553.4010, 94.10924
553.8831, 94.29578
554.3652, 94.03427
554.8474, 92.93448
555.3295, 92.37910
555.8116, 93.28979
556.2937, 94.48695
556.7758, 95.15163
557.2579, 95.23717
557.7401, 95.17915
558.2222, 95.13712
558.7043, 95.15114
559.1864, 95.25457
559.6685, 95.44777
560.1506, 95.89597
560.6328, 96.78811
561.1149, 97.87575
561.5970, 98.63538
562.0791, 99.06086
562.5612, 99.26376
563.0433, 99.19431
563.5255, 98.96220
564.0076, 98.58390
564.4897, 98.11401
564.9718, 97.69908
565.4539, 97.43780
565.9360, 97.28335
566.4182, 97.06965
566.9003, 96.68196
567.3824, 96.45633
567.8645, 96.60525
568.3466, 96.74451
568.8287, 96.52300
569.3109, 96.04790
569.7930, 95.79537
570.2751, 96.25354
570.7572, 96.91682
571.2393, 96.56063
571.7214, 95.08688
572.2036, 93.80403
572.6857, 93.13142
573.1678, 92.83416
573.6499, 92.64256
574.1320, 92.55312
574.6141, 92.57652
575.0963, 92.94808
575.5784, 93.24877
576.0605, 92.92137
576.5426, 92.17710
577.0247, 91.78736
577.5068, 92.12818
577.9890, 92.84591
578.4711, 93.29817
578.9532, 93.47213
579.4353, 93.38547
579.9174, 92.79347
580.3995, 92.21960
580.8817, 91.90727
581.3638, 91.80324
581.8459, 91.80913
582.3280, 91.89506
582.8101, 91.93519
583.2922, 91.66150
583.7744, 91.04286
584.2565, 90.58129
584.7386, 90.40110
585.2207, 90.30186
585.7029, 90.07401
586.1850, 89.80947
586.6671, 89.77508
587.1492, 90.25453
587.6313, 90.68396
588.1135, 90.57001
588.5956, 90.10220
589.0777, 89.72509
