##NAMES=Eckermannite
##RRUFFID=R060320
##IDEAL CHEMISTRY=NaNa_2_(Mg_4_Al)Si_8_O_22_(OH)_2_
##LOCALITY=Norra Karr Complex, near Granna, Ostergotsland, Sweden
##OWNER=RRUFF
##SOURCE=Michael Scott
##DESCRIPTION=Parallel aggregate of blue elongated bladed crystals
##STATUS=The identification of this mineral is confirmed by single-crystal X-ray diffraction and chemical analysis.
##URL=rruff.info/R060320
##MEASURED CHEMISTRY=(Na_2.50_K_0.30_[box]_0.20_)_Σ=3_(Mg_2.35_Fe^2+^_1.35_Al_1.20_Mn_0.10_)_Σ=5_Si_8.00_O_22_((OH)_1.18_F_0.82_)_Σ=2_; OH estimated by charge balance, dark material
90.49219, 9.782235
90.97430, 9.977218
91.45642, 10.04688
91.93854, 9.880820
92.42065, 9.621446
92.90277, 9.502539
93.38489, 9.564112
93.86700, 9.646191
94.34912, 9.522231
94.83124, 9.225231
95.31335, 8.947547
95.79547, 8.854974
96.27759, 8.893943
96.75970, 8.816080
97.24182, 8.537510
97.72394, 8.189405
98.20605, 8.102262
98.68817, 8.307886
99.17029, 8.514500
99.65240, 8.418689
100.1345, 7.987388
100.6166, 7.762886
101.0988, 7.934330
101.5809, 8.432665
102.0630, 8.655903
102.5451, 8.529720
103.0272, 8.264452
103.5093, 8.098692
103.9915, 8.090763
104.4736, 8.031133
104.9557, 7.825823
105.4378, 7.416524
105.9199, 7.203601
106.4020, 7.301480
106.8842, 7.538537
107.3663, 7.603779
107.8484, 7.285263
108.3305, 7.040598
108.8126, 7.057211
109.2947, 7.701771
109.7769, 7.996380
110.2590, 7.647556
110.7411, 6.896657
111.2232, 6.503082
111.7053, 6.887235
112.1874, 7.344035
112.6696, 7.554559
113.1517, 7.045503
113.6338, 6.765934
114.1159, 7.085760
114.5980, 7.882805
115.0801, 8.284960
115.5623, 7.675004
116.0444, 6.787374
116.5265, 6.192268
117.0086, 6.262548
117.4907, 6.446818
117.9728, 6.546996
118.4550, 6.553430
118.9371, 6.558454
119.4192, 6.631654
119.9013, 6.721050
120.3834, 6.759101
120.8655, 6.670887
121.3477, 6.551392
121.8298, 6.485472
122.3119, 6.495412
122.7940, 6.469411
123.2761, 6.235152
123.7582, 5.897193
124.2404, 5.688380
124.7225, 5.769296
125.2046, 6.036783
125.6867, 6.409318
126.1688, 6.946823
126.6509, 7.415303
127.1331, 7.477738
127.6152, 7.203151
128.0973, 6.934660
128.5794, 6.950823
129.0615, 7.148743
129.5436, 7.263475
130.0258, 7.169220
130.5079, 7.040929
130.9900, 7.261493
131.4721, 7.828697
131.9542, 8.397082
132.4363, 8.625226
132.9185, 8.560161
133.4006, 8.521579
133.8827, 8.577631
134.3648, 8.727145
134.8469, 8.935431
135.3290, 9.177656
135.8112, 9.590421
136.2933, 10.46720
136.7754, 11.85622
137.2575, 13.00699
137.7396, 13.51703
138.2217, 13.40592
138.7039, 13.79272
139.1860, 14.78274
139.6681, 16.10821
140.1502, 17.40541
140.6323, 18.65088
141.1144, 19.90302
141.5966, 21.17441
142.0787, 22.44340
142.5608, 23.81587
143.0429, 25.34564
143.5250, 26.94515
144.0071, 28.39417
144.4893, 29.60148
144.9714, 30.78607
145.4535, 31.98010
145.9356, 32.95226
146.4177, 34.44153
146.8998, 36.64982
147.3820, 39.40831
147.8641, 42.10027
148.3462, 44.38721
148.8283, 46.89129
149.3104, 49.97020
149.7925, 53.68426
150.2747, 57.88729
150.7568, 62.76062
151.2389, 68.23022
151.7210, 73.39954
152.2031, 78.02586
152.6852, 82.44861
153.1674, 86.92989
153.6495, 91.94779
154.1316, 96.49126
154.6137, 100.6392
155.0958, 104.4002
155.5779, 106.9675
156.0601, 107.8758
156.5422, 107.7241
157.0243, 107.0079
157.5064, 105.1971
157.9885, 103.4042
158.4706, 101.8508
158.9528, 100.5325
159.4349, 99.64097
159.9170, 99.30561
160.3991, 99.39950
160.8812, 99.77587
161.3633, 100.5167
161.8455, 101.4319
162.3276, 102.3999
162.8097, 103.3473
163.2918, 104.5946
163.7739, 106.2588
164.2560, 108.1812
164.7382, 109.6125
165.2203, 111.0474
165.7024, 112.7894
166.1845, 114.8950
166.6666, 117.4125
167.1487, 120.1536
167.6309, 123.0083
168.1130, 126.0365
168.5951, 129.3145
169.0772, 133.0457
169.5593, 136.9782
170.0414, 140.9491
170.5236, 145.0431
171.0057, 148.9400
171.4878, 152.4112
171.9699, 155.5447
172.4520, 158.5256
172.9341, 161.4943
173.4163, 164.3936
173.8984, 167.1197
174.3805, 169.5524
174.8626, 171.9839
175.3447, 174.6545
175.8268, 177.5788
176.3090, 180.8606
176.7911, 185.0420
177.2732, 189.5177
177.7553, 193.2615
178.2374, 195.9059
178.7195, 197.8555
179.2017, 199.3681
179.6838, 200.5139
180.1659, 201.8391
180.6480, 204.1558
181.1301, 206.9858
181.6122, 209.3002
182.0944, 210.9813
182.5765, 211.8669
183.0586, 211.4587
183.5407, 209.7800
184.0228, 207.6894
184.5049, 206.0138
184.9871, 204.5872
185.4692, 202.8477
185.9513, 200.3171
186.4334, 197.4613
186.9155, 195.3680
187.3976, 194.0838
187.8798, 193.1156
188.3619, 192.0155
188.8440, 190.7957
189.3261, 189.5976
189.8082, 188.3991
190.2903, 187.2511
190.7725, 186.2012
191.2546, 185.1668
191.7367, 184.5882
192.2188, 185.2700
192.7009, 187.1407
193.1830, 188.7393
193.6652, 189.1903
194.1473, 188.7906
194.6294, 189.4472
195.1115, 191.2769
195.5936, 193.7546
196.0757, 196.1176
196.5579, 198.3414
197.0400, 201.1128
197.5221, 204.8887
198.0042, 209.5787
198.4863, 214.0852
198.9684, 218.3208
199.4506, 222.5297
199.9327, 226.8787
200.4148, 231.3391
200.8969, 236.3293
201.3790, 242.3174
201.8611, 249.3269
202.3433, 255.8323
202.8254, 261.7505
203.3075, 267.3187
203.7896, 272.8651
204.2717, 278.4530
204.7538, 283.8269
205.2360, 288.7821
205.7181, 293.2475
206.2002, 298.0071
206.6823, 303.2749
207.1644, 308.5773
207.6465, 313.1740
208.1287, 317.1121
208.6108, 320.0621
209.0929, 321.7278
209.5750, 321.9233
210.0571, 321.8934
210.5392, 321.6807
211.0214, 321.2330
211.5035, 320.4585
211.9856, 319.4109
212.4677, 317.9418
212.9498, 315.9491
213.4319, 313.3946
213.9140, 310.5687
214.3962, 307.4512
214.8783, 304.0612
215.3604, 300.4328
215.8425, 296.3528
216.3246, 292.4268
216.8067, 288.8551
217.2889, 285.6588
217.7710, 282.8983
218.2531, 280.8255
218.7352, 279.0570
219.2173, 276.4248
219.6994, 272.1472
220.1816, 268.4739
220.6637, 266.5555
221.1458, 267.2022
221.6279, 267.2079
222.1100, 266.1767
222.5921, 264.6228
223.0743, 263.9323
223.5564, 264.5419
224.0385, 265.2694
224.5206, 265.5643
225.0027, 265.2960
225.4848, 265.0230
225.9670, 264.9850
226.4491, 264.8823
226.9312, 263.8800
227.4133, 261.7629
227.8954, 259.0972
228.3775, 256.2256
228.8597, 253.2793
229.3418, 249.6627
229.8239, 245.2809
230.3060, 240.2253
230.7881, 234.8452
231.2702, 228.8438
231.7524, 222.8366
232.2345, 217.1422
232.7166, 211.6330
233.1987, 206.5043
233.6808, 201.7539
234.1629, 197.4035
234.6451, 193.4910
235.1272, 190.3587
235.6093, 187.2085
236.0914, 183.5457
236.5735, 178.5798
237.0556, 174.9937
237.5378, 173.3753
238.0199, 172.9691
238.5020, 171.8626
238.9841, 169.7342
239.4662, 167.3687
239.9483, 165.0054
240.4305, 162.4077
240.9126, 160.4528
241.3947, 159.4210
241.8768, 158.9393
242.3589, 158.1209
242.8410, 156.9688
243.3232, 155.4727
243.8053, 153.5190
244.2874, 150.5978
244.7695, 148.4844
245.2516, 147.5285
245.7337, 147.2275
246.2159, 146.4161
246.6980, 144.6886
247.1801, 143.0915
247.6622, 142.1202
248.1443, 142.2139
248.6264, 141.6626
249.1086, 140.2052
249.5907, 138.2318
250.0728, 136.5251
250.5549, 135.1236
251.0370, 133.9205
251.5191, 132.8507
252.0013, 131.8600
252.4834, 131.2926
252.9655, 131.6024
253.4476, 132.0669
253.9297, 131.2042
254.4118, 128.2693
254.8940, 125.4177
255.3761, 123.4956
255.8582, 122.8175
256.3403, 121.7433
256.8224, 120.0395
257.3046, 118.1198
257.7867, 116.7901
258.2688, 116.4301
258.7509, 115.8347
259.2330, 114.5071
259.7151, 112.2474
260.1973, 110.4258
260.6794, 109.2169
261.1615, 108.3148
261.6436, 107.3327
262.1257, 106.2728
262.6078, 105.1066
263.0900, 103.8059
263.5721, 102.3366
264.0542, 100.9386
264.5363, 99.56702
265.0184, 98.30145
265.5005, 97.21079
265.9827, 96.33627
266.4648, 95.54322
266.9469, 94.82787
267.4290, 94.19567
267.9111, 93.50284
268.3932, 92.77285
268.8754, 91.95149
269.3575, 90.90005
269.8396, 89.47253
270.3217, 88.31782
270.8038, 87.61343
271.2859, 87.34016
271.7681, 87.31731
272.2502, 87.70419
272.7323, 88.01369
273.2144, 87.60650
273.6965, 86.29351
274.1786, 85.31229
274.6608, 85.06782
275.1429, 85.41226
275.6250, 85.17019
276.1071, 84.16479
276.5892, 83.08245
277.0714, 82.64612
277.5535, 82.93829
278.0356, 83.08172
278.5177, 82.88039
278.9998, 82.41726
279.4819, 82.01667
279.9641, 81.67579
280.4462, 81.39668
280.9283, 81.20360
281.4104, 81.10233
281.8925, 80.98061
282.3746, 80.84016
282.8568, 80.65456
283.3389, 80.22466
283.8210, 79.48661
284.3031, 78.99271
284.7852, 79.31836
285.2673, 80.40162
285.7495, 81.16910
286.2316, 81.42551
286.7137, 81.39305
287.1958, 81.52737
287.6779, 81.83254
288.1600, 82.14581
288.6422, 82.45010
289.1243, 82.71191
289.6064, 82.59306
290.0885, 81.93739
290.5706, 81.21531
291.0527, 81.29058
291.5349, 82.11463
292.0170, 82.96815
292.4991, 83.36555
292.9812, 83.45943
293.4633, 83.82698
293.9454, 84.54768
294.4276, 85.34591
294.9097, 85.78062
295.3918, 85.92915
295.8739, 86.19023
296.3560, 86.78267
296.8381, 87.62196
297.3203, 88.49805
297.8024, 89.39756
298.2845, 90.37050
298.7666, 91.50382
299.2487, 92.75207
299.7308, 94.01092
300.2130, 95.21976
300.6951, 96.41969
301.1772, 97.65142
301.6593, 98.90987
302.1414, 100.2999
302.6235, 101.9310
303.1057, 103.7538
303.5878, 105.6368
304.0699, 107.6791
304.5520, 109.6747
305.0341, 111.2702
305.5162, 112.5150
305.9984, 113.8955
306.4805, 115.8085
306.9626, 118.0512
307.4447, 120.3317
307.9268, 122.7337
308.4089, 124.9698
308.8911, 126.6696
309.3732, 127.9445
309.8553, 129.2566
310.3374, 130.9460
310.8195, 132.7770
311.3016, 134.5222
311.7838, 136.1842
312.2659, 137.6423
312.7480, 138.8956
313.2301, 139.8750
313.7122, 140.4392
314.1943, 140.5756
314.6765, 140.2458
315.1586, 139.3177
315.6407, 137.6144
316.1228, 135.8959
316.6049, 134.6632
317.0870, 133.6390
317.5692, 132.3865
318.0513, 130.6193
318.5334, 128.6772
319.0155, 126.6628
319.4976, 124.5351
319.9797, 122.5612
320.4619, 120.8674
320.9440, 119.3477
321.4261, 117.9049
321.9082, 116.5197
322.3903, 115.1854
322.8724, 114.0518
323.3546, 113.1292
323.8367, 111.7576
324.3188, 109.2680
324.8009, 106.5731
325.2830, 104.3982
325.7651, 103.2553
326.2473, 102.1453
326.7294, 100.8788
327.2115, 99.49415
327.6936, 98.29343
328.1757, 97.36191
328.6578, 96.58358
329.1400, 95.90182
329.6221, 95.43710
330.1042, 94.91771
330.5863, 94.36277
331.0684, 93.74824
331.5505, 93.00940
332.0327, 92.00507
332.5148, 91.03275
332.9969, 90.21966
333.4790, 89.67882
333.9611, 89.00538
334.4432, 88.04607
334.9254, 87.03902
335.4075, 86.42548
335.8896, 86.36298
336.3717, 86.36936
336.8538, 86.31738
337.3359, 86.20702
337.8180, 86.03767
338.3001, 85.80655
338.7823, 85.52351
339.2644, 85.14687
339.7465, 84.60128
340.2286, 84.29443
340.7107, 84.39149
341.1928, 84.82622
341.6750, 85.08604
342.1571, 85.11644
342.6392, 85.18471
343.1213, 85.56535
343.6034, 86.25976
344.0855, 86.88020
344.5677, 87.32360
345.0498, 87.68949
345.5319, 88.25146
346.0140, 89.01791
346.4961, 89.74269
346.9782, 90.12539
347.4604, 90.28840
347.9425, 90.88085
348.4246, 92.06689
348.9067, 93.40220
349.3888, 94.14538
349.8709, 94.41286
350.3531, 94.84607
350.8352, 95.84980
351.3173, 97.21709
351.7994, 98.56548
352.2815, 99.87016
352.7636, 101.2410
353.2458, 102.8763
353.7279, 104.6565
354.2100, 106.3202
354.6921, 107.6410
355.1742, 108.8766
355.6563, 110.2909
356.1385, 111.8744
356.6206, 113.5856
357.1027, 115.5387
357.5848, 117.5460
358.0669, 119.4365
358.5490, 121.2759
359.0312, 122.8108
359.5133, 123.6742
359.9954, 124.0647
360.4775, 124.6137
360.9596, 125.5744
361.4417, 126.8274
361.9239, 128.3843
362.4060, 130.4155
362.8881, 132.2454
363.3702, 133.4807
363.8523, 134.3817
364.3344, 135.3479
364.8166, 136.8795
365.2987, 138.1580
365.7808, 138.6884
366.2629, 138.3406
366.7450, 138.2878
367.2271, 139.1066
367.7093, 140.1087
368.1914, 140.6888
368.6735, 140.0915
369.1556, 139.8555
369.6377, 140.3686
370.1198, 141.5308
370.6020, 142.4483
371.0841, 142.8983
371.5662, 143.3135
372.0483, 143.9693
372.5304, 145.3566
373.0125, 146.0575
373.4947, 145.8755
373.9768, 145.0470
374.4589, 144.0722
374.9410, 142.8609
375.4231, 141.6809
375.9052, 140.5958
376.3874, 139.5870
376.8695, 138.8786
377.3516, 138.6507
377.8337, 138.4092
378.3158, 137.4480
378.7979, 135.6718
379.2801, 133.8333
379.7622, 132.0083
380.2443, 130.2894
380.7264, 129.0829
381.2085, 128.4392
381.6906, 127.9959
382.1728, 127.3478
382.6549, 126.5751
383.1370, 126.2840
383.6191, 126.6922
384.1012, 127.4109
384.5833, 127.7844
385.0655, 127.8568
385.5476, 127.9615
386.0297, 128.4149
386.5118, 129.0052
386.9939, 129.2608
387.4760, 129.0824
387.9582, 128.9942
388.4403, 129.6611
388.9224, 130.7831
389.4045, 131.7297
389.8866, 132.1257
390.3687, 132.3250
390.8509, 132.5111
391.3330, 132.7053
391.8151, 133.1249
392.2972, 134.3732
392.7793, 135.6862
393.2614, 136.3049
393.7436, 135.6745
394.2257, 134.8242
394.7078, 134.1110
395.1899, 133.5014
395.6720, 132.9071
396.1541, 132.3165
396.6363, 131.7238
397.1184, 131.1081
397.6005, 130.4267
398.0826, 129.8545
398.5647, 129.4782
399.0468, 129.2052
399.5290, 128.9233
400.0111, 128.7105
400.4932, 128.3938
400.9753, 127.8776
401.4574, 127.1610
401.9395, 126.6080
402.4217, 126.2250
402.9038, 125.9908
403.3859, 125.8920
403.8680, 125.9277
404.3501, 126.1088
404.8322, 126.4773
405.3144, 126.9708
405.7965, 127.4523
406.2786, 127.9735
406.7607, 128.3180
407.2428, 128.2510
407.7249, 127.7468
408.2071, 127.7549
408.6892, 128.3588
409.1713, 129.2232
409.6534, 129.8138
410.1355, 130.1642
410.6176, 131.0054
411.0998, 132.7278
411.5819, 134.9716
412.0640, 136.9129
412.5461, 138.5429
413.0282, 140.0637
413.5103, 141.4165
413.9925, 142.7731
414.4746, 144.5713
414.9567, 146.9910
415.4388, 149.5554
415.9209, 152.0137
416.4030, 154.2597
416.8852, 156.0991
417.3673, 157.1867
417.8494, 157.9596
418.3315, 158.9268
418.8136, 160.1153
419.2957, 160.8063
419.7779, 160.5599
420.2600, 159.6236
420.7421, 158.2517
421.2242, 156.5174
421.7063, 154.3528
422.1884, 151.6441
422.6706, 148.4649
423.1527, 144.9827
423.6348, 141.3958
424.1169, 137.4341
424.5990, 132.8540
425.0811, 127.2781
425.5633, 121.9751
426.0454, 116.8884
426.5275, 112.1488
427.0096, 107.8784
427.4917, 104.3109
427.9738, 100.9037
428.4560, 97.54870
428.9381, 94.22511
429.4202, 91.10072
429.9023, 88.18697
430.3844, 85.51528
430.8665, 83.12829
431.3487, 81.01163
431.8308, 79.30810
432.3129, 78.13387
432.7950, 77.24145
433.2771, 76.14243
433.7592, 74.83725
434.2414, 73.53476
434.7235, 72.22472
435.2056, 70.98288
435.6877, 70.16534
436.1698, 69.79233
436.6519, 69.61108
437.1341, 69.49308
437.6162, 69.38026
438.0983, 69.08130
438.5804, 68.39143
439.0625, 67.71565
439.5446, 67.60163
440.0268, 67.92667
440.5089, 68.24174
440.9910, 68.33881
441.4731, 68.27927
441.9552, 68.11671
442.4373, 67.86080
442.9195, 67.49505
443.4016, 66.86349
443.8837, 66.16595
444.3658, 65.64538
444.8479, 65.68098
445.3300, 65.59489
445.8122, 65.16473
446.2943, 64.41077
446.7764, 63.52686
447.2585, 62.10933
447.7406, 60.89989
448.2227, 60.32771
448.7049, 60.98692
449.1870, 61.14118
449.6691, 60.58889
450.1512, 59.63001
450.6333, 58.72042
451.1154, 57.81206
451.5976, 57.03997
452.0797, 56.45185
452.5618, 56.03948
453.0439, 55.77300
453.5260, 55.71651
454.0081, 55.62250
454.4903, 55.26186
454.9724, 54.64173
455.4545, 54.02781
455.9366, 53.43671
456.4187, 52.90778
456.9008, 52.55146
457.3830, 52.34581
457.8651, 52.15767
458.3472, 51.85276
458.8293, 51.54126
459.3114, 51.46223
459.7935, 51.61549
460.2757, 51.77942
460.7578, 51.81346
461.2399, 51.73581
461.7220, 51.55542
462.2041, 51.19670
462.6862, 50.86595
463.1684, 50.69035
463.6505, 50.64246
464.1326, 50.66389
464.6147, 50.88177
465.0968, 51.03865
465.5789, 50.93003
466.0611, 50.48724
466.5432, 50.22295
467.0253, 50.53051
467.5074, 50.90361
467.9895, 50.91471
468.4716, 49.96405
468.9538, 49.39143
469.4359, 49.41826
469.9180, 49.87792
470.4001, 50.25805
470.8822, 50.55066
471.3643, 50.77185
471.8465, 50.88735
472.3286, 50.87132
472.8107, 51.07299
473.2928, 51.57117
473.7749, 52.09034
474.2570, 52.17079
474.7392, 51.81901
475.2213, 51.93584
475.7034, 52.88093
476.1855, 54.20596
476.6676, 55.00069
477.1497, 55.30167
477.6319, 55.43215
478.1140, 55.50791
478.5961, 55.56676
479.0782, 55.70277
479.5603, 55.93095
480.0424, 56.10139
480.5246, 55.86523
481.0067, 55.55628
481.4888, 55.66322
481.9709, 56.77745
482.4530, 57.84324
482.9352, 58.33235
483.4173, 58.33631
483.8994, 58.14467
484.3815, 57.57346
484.8636, 57.05782
485.3457, 56.84521
485.8279, 57.05294
486.3100, 57.17490
486.7921, 57.24579
487.2742, 57.16935
487.7563, 56.83146
488.2384, 55.95928
488.7206, 55.29773
489.2027, 54.98495
489.6848, 54.93288
490.1669, 54.82567
490.6490, 54.62550
491.1311, 54.49165
491.6133, 54.61245
492.0954, 54.97926
492.5775, 54.83814
493.0596, 54.10066
493.5417, 53.23169
494.0238, 52.72633
494.5060, 52.52898
494.9881, 52.39032
495.4702, 52.23011
495.9523, 52.13226
496.4344, 52.29204
496.9165, 52.64195
497.3987, 52.92763
497.8808, 52.98908
498.3629, 52.93174
498.8450, 52.74764
499.3271, 52.41819
499.8092, 52.38396
500.2914, 53.25466
500.7735, 54.34849
501.2556, 55.03687
501.7377, 54.77652
502.2198, 54.55189
502.7019, 54.55251
503.1841, 54.74141
503.6662, 55.01441
504.1483, 55.28001
504.6304, 55.72984
505.1125, 56.51009
505.5946, 57.67374
506.0768, 58.46988
506.5589, 58.71527
507.0410, 58.85777
507.5231, 59.27709
508.0052, 60.01788
508.4873, 60.72545
508.9695, 61.33199
509.4516, 61.91533
509.9337, 62.67379
510.4158, 63.59249
510.8979, 64.38482
511.3800, 64.88151
511.8622, 65.18523
512.3443, 65.51151
512.8264, 65.85741
513.3085, 66.22770
513.7906, 66.59776
514.2728, 67.00358
514.7549, 67.53800
515.2370, 68.30476
515.7191, 68.93588
516.2012, 69.00661
516.6833, 68.83351
517.1655, 68.90425
517.6476, 69.66084
518.1297, 70.40462
518.6118, 70.82261
519.0939, 70.95102
519.5760, 71.26057
520.0582, 72.02675
520.5403, 72.79394
521.0224, 73.33427
521.5045, 73.50048
521.9866, 73.88023
522.4688, 74.51818
522.9509, 75.31992
523.4330, 76.20036
523.9151, 77.17305
524.3972, 78.12971
524.8793, 78.97491
525.3615, 79.83717
525.8436, 81.14150
526.3257, 82.88792
526.8078, 84.66566
527.2899, 86.35481
527.7720, 87.90415
528.2542, 89.01633
528.7363, 89.65517
529.2184, 90.49771
529.7005, 92.32176
530.1826, 94.62180
530.6647, 96.71098
531.1469, 98.31198
531.6290, 99.77764
532.1111, 101.3036
532.5932, 102.8202
533.0753, 104.1799
533.5574, 105.4873
534.0396, 106.5020
534.5217, 107.0987
535.0038, 107.2479
535.4859, 107.2939
535.9680, 107.0021
536.4501, 106.8460
536.9323, 107.1193
537.4144, 107.9845
537.8965, 108.8437
538.3786, 109.6958
538.8607, 110.5270
539.3428, 111.1886
539.8250, 111.6458
540.3071, 112.5552
540.7892, 114.3133
541.2713, 116.4677
541.7534, 117.6558
542.2355, 117.9805
542.7177, 118.5219
543.1998, 120.0503
543.6819, 122.2175
544.1640, 124.6336
544.6461, 127.2938
545.1282, 129.6939
545.6104, 131.1423
546.0925, 132.2439
546.5746, 133.6832
547.0567, 135.8362
547.5388, 138.0824
548.0209, 140.3278
548.5031, 142.4932
548.9852, 144.4559
549.4673, 146.4298
549.9494, 147.9363
550.4315, 148.7208
550.9136, 148.7872
551.3958, 149.0539
551.8779, 149.6492
552.3600, 150.2305
552.8421, 150.5967
553.3242, 150.7401
553.8063, 150.7622
554.2885, 150.6900
554.7706, 150.4348
555.2527, 150.0002
555.7348, 149.3301
556.2169, 148.0123
556.6990, 145.7045
557.1812, 142.9971
557.6633, 140.7070
558.1454, 138.7479
558.6275, 136.7871
559.1096, 134.9255
559.5917, 132.8006
560.0739, 129.9175
560.5560, 126.2177
561.0381, 122.8747
561.5202, 120.8680
562.0023, 119.1297
562.4844, 116.8444
562.9666, 113.0103
563.4487, 109.9749
563.9308, 108.4064
564.4129, 107.4555
564.8950, 105.7835
565.3771, 102.9817
565.8593, 100.4316
566.3414, 98.53149
566.8235, 97.11560
567.3056, 95.28239
567.7877, 92.97238
568.2698, 90.74577
568.7520, 88.85409
569.2341, 87.30749
569.7162, 86.20345
570.1983, 85.58430
570.6804, 84.92892
571.1625, 83.63913
571.6447, 82.02817
572.1268, 80.61305
572.6089, 79.56203
573.0910, 78.60836
573.5731, 77.48976
574.0552, 76.35859
574.5374, 75.45612
575.0195, 75.16170
575.5016, 74.81689
575.9837, 74.15188
576.4658, 73.19672
576.9479, 72.35548
577.4301, 71.77858
577.9122, 71.15849
578.3943, 70.27723
578.8764, 69.00906
579.3585, 68.28499
579.8406, 68.27964
580.3228, 68.42873
580.8049, 68.09462
581.2870, 67.31066
581.7691, 66.63493
582.2512, 66.14977
