##NAMES=Eclarite
##RRUFFID=R110124
##IDEAL CHEMISTRY=(Cu,Fe)Pb_9_Bi_12_S_28_
##LOCALITY=Crabtree quarry, Wake County, North Carolina, USA
##OWNER=RRUFF
##SOURCE=Mark Feinglos 
##DESCRIPTION=Mass of tin-white metallic elongated crystals associated with quartz
##STATUS=The identification of this mineral has been confirmed only by single crystal X-ray diffraction.
##URL=rruff.info/R110124
91.60352, 7173.800
92.08563, 6952.297
92.56775, 6925.444
93.04987, 7198.431
93.53198, 7528.194
94.01410, 7757.417
94.49622, 7888.041
94.97833, 7960.177
95.46045, 8006.882
95.94257, 8028.248
96.42468, 8036.895
96.90680, 8039.906
97.38892, 8037.399
97.87103, 8030.712
98.35315, 8010.330
98.83527, 7971.217
99.31738, 7930.494
99.79950, 7890.274
100.2816, 7850.846
100.7637, 7808.216
101.2458, 7765.203
101.7280, 7723.720
102.2101, 7683.205
102.6922, 7645.701
103.1743, 7615.477
103.6564, 7591.888
104.1385, 7567.574
104.6207, 7537.638
105.1028, 7503.920
105.5849, 7473.144
106.0670, 7448.007
106.5491, 7423.076
107.0313, 7392.178
107.5134, 7353.839
107.9955, 7314.301
108.4776, 7279.980
108.9597, 7251.467
109.4418, 7224.246
109.9240, 7198.649
110.4061, 7172.714
110.8882, 7144.436
111.3703, 7112.797
111.8524, 7079.746
112.3345, 7050.754
112.8167, 7029.583
113.2988, 7007.800
113.7809, 6984.140
114.2630, 6959.131
114.7451, 6933.473
115.2272, 6907.883
115.7094, 6882.013
116.1915, 6853.654
116.6736, 6822.015
117.1557, 6788.814
117.6378, 6753.008
118.1199, 6715.514
118.6021, 6679.126
119.0842, 6646.159
119.5663, 6617.061
120.0484, 6590.087
120.5305, 6566.839
121.0126, 6544.442
121.4948, 6521.036
121.9769, 6496.476
122.4590, 6469.839
122.9411, 6438.839
123.4232, 6404.627
123.9053, 6370.690
124.3875, 6338.417
124.8696, 6307.319
125.3517, 6276.120
125.8338, 6243.539
126.3159, 6212.516
126.7980, 6185.371
127.2802, 6161.498
127.7623, 6138.351
128.2444, 6113.525
128.7265, 6086.880
129.2086, 6061.291
129.6907, 6038.526
130.1729, 6015.739
130.6550, 5992.072
131.1371, 5967.252
131.6192, 5941.183
132.1013, 5913.350
132.5834, 5880.909
133.0656, 5852.103
133.5477, 5826.484
134.0298, 5804.118
134.5119, 5785.877
134.9940, 5771.900
135.4761, 5760.473
135.9583, 5747.853
136.4404, 5730.749
136.9225, 5716.717
137.4046, 5708.256
137.8867, 5702.672
138.3688, 5696.208
138.8510, 5686.960
139.3331, 5675.987
139.8152, 5666.779
140.2973, 5659.480
140.7794, 5653.125
141.2615, 5647.959
141.7437, 5643.658
142.2258, 5638.516
142.7079, 5630.828
143.1900, 5622.182
143.6721, 5615.996
144.1542, 5613.939
144.6364, 5612.471
145.1185, 5608.527
145.6006, 5602.094
146.0827, 5593.250
146.5648, 5579.723
147.0469, 5564.456
147.5291, 5550.788
148.0112, 5541.108
148.4933, 5532.466
148.9754, 5517.866
149.4575, 5494.205
149.9396, 5469.325
150.4218, 5446.244
150.9039, 5423.592
151.3860, 5399.805
151.8681, 5374.000
152.3502, 5346.036
152.8323, 5316.268
153.3145, 5281.515
153.7966, 5247.851
154.2787, 5216.742
154.7608, 5187.512
155.2429, 5158.380
155.7250, 5127.647
156.2072, 5095.119
156.6893, 5064.739
157.1714, 5036.357
157.6535, 5009.547
158.1356, 4984.790
158.6177, 4961.645
159.0999, 4938.444
159.5820, 4913.555
160.0641, 4886.477
160.5462, 4860.678
161.0283, 4834.988
161.5104, 4811.372
161.9926, 4792.182
162.4747, 4777.701
162.9568, 4764.696
163.4389, 4750.229
163.9210, 4734.340
164.4031, 4718.210
164.8853, 4701.577
165.3674, 4684.966
165.8495, 4669.545
166.3316, 4655.622
166.8137, 4642.345
167.2958, 4628.784
167.7780, 4615.063
168.2601, 4601.864
168.7422, 4589.274
169.2243, 4577.409
169.7064, 4567.156
170.1885, 4559.771
170.6707, 4552.618
171.1528, 4544.080
171.6349, 4534.289
172.1170, 4523.859
172.5991, 4512.730
173.0812, 4500.798
173.5634, 4490.374
174.0455, 4482.796
174.5276, 4475.826
175.0097, 4468.565
175.4918, 4461.009
175.9739, 4453.706
176.4561, 4447.705
176.9382, 4443.985
177.4203, 4437.921
177.9024, 4427.776
178.3845, 4416.919
178.8666, 4406.739
179.3488, 4397.647
179.8309, 4389.501
180.3130, 4382.386
180.7951, 4377.229
181.2772, 4370.987
181.7593, 4362.555
182.2415, 4353.928
182.7236, 4347.108
183.2057, 4342.414
183.6878, 4338.033
184.1699, 4331.158
184.6520, 4320.091
185.1342, 4309.752
185.6163, 4300.415
186.0984, 4291.823
186.5805, 4284.189
187.0626, 4277.686
187.5447, 4270.993
188.0269, 4261.291
188.5090, 4247.614
188.9911, 4235.345
189.4732, 4225.547
189.9553, 4217.941
190.4374, 4212.533
190.9196, 4209.773
191.4017, 4208.075
191.8838, 4205.119
192.3659, 4200.895
192.8480, 4196.312
193.3301, 4191.538
193.8123, 4186.649
194.2944, 4181.924
194.7765, 4177.278
195.2586, 4173.019
195.7407, 4169.408
196.2228, 4166.455
196.7050, 4163.753
197.1871, 4161.370
197.6692, 4159.259
198.1513, 4156.212
198.6334, 4151.174
199.1155, 4145.822
199.5977, 4140.931
200.0798, 4136.645
200.5619, 4133.442
201.0440, 4131.832
201.5261, 4131.920
202.0082, 4133.012
202.4904, 4135.659
202.9725, 4138.938
203.4546, 4142.688
203.9367, 4146.784
204.4188, 4150.891
204.9009, 4154.424
205.3831, 4156.925
205.8652, 4160.261
206.3473, 4166.079
206.8294, 4171.486
207.3115, 4174.337
207.7936, 4174.512
208.2758, 4173.789
208.7579, 4174.640
209.2400, 4177.780
209.7221, 4181.042
210.2042, 4183.394
210.6863, 4186.498
211.1685, 4192.058
211.6506, 4200.152
212.1327, 4208.924
212.6148, 4215.584
213.0969, 4217.851
213.5790, 4222.837
214.0612, 4233.128
214.5433, 4244.304
215.0254, 4252.438
215.5075, 4256.703
215.9896, 4260.021
216.4718, 4266.672
216.9539, 4279.177
217.4360, 4289.009
217.9181, 4293.241
218.4002, 4296.143
218.8823, 4302.124
219.3645, 4312.248
219.8466, 4324.271
220.3287, 4335.477
220.8108, 4345.962
221.2929, 4355.448
221.7750, 4363.538
222.2572, 4370.753
222.7393, 4377.619
223.2214, 4384.191
223.7035, 4390.708
224.1856, 4397.181
224.6677, 4403.584
225.1499, 4410.925
225.6320, 4421.104
226.1141, 4431.994
226.5962, 4439.854
227.0783, 4443.621
227.5604, 4445.714
228.0426, 4447.845
228.5247, 4450.107
229.0068, 4453.394
229.4889, 4458.613
229.9710, 4465.020
230.4531, 4471.353
230.9353, 4478.127
231.4174, 4483.288
231.8995, 4484.686
232.3816, 4483.292
232.8637, 4481.550
233.3458, 4480.464
233.8280, 4479.916
234.3101, 4479.385
234.7922, 4478.356
235.2743, 4478.303
235.7564, 4480.282
236.2385, 4483.677
236.7207, 4487.396
237.2028, 4491.736
237.6849, 4495.958
238.1670, 4496.884
238.6491, 4493.627
239.1312, 4487.969
239.6134, 4480.051
240.0955, 4470.719
240.5776, 4461.160
241.0597, 4451.896
241.5418, 4443.033
242.0239, 4435.345
242.5061, 4429.473
242.9882, 4423.965
243.4703, 4419.125
243.9524, 4414.172
244.4345, 4408.052
244.9166, 4400.185
245.3988, 4390.656
245.8809, 4379.961
246.3630, 4367.014
246.8451, 4354.213
247.3272, 4343.104
247.8093, 4332.135
248.2915, 4319.600
248.7736, 4304.617
249.2557, 4287.141
249.7378, 4267.115
250.2199, 4242.217
250.7020, 4217.308
251.1842, 4193.546
251.6663, 4170.083
252.1484, 4146.390
252.6305, 4122.104
253.1126, 4096.949
253.5947, 4069.339
254.0769, 4038.236
254.5590, 4005.877
255.0411, 3969.622
255.5232, 3933.242
256.0053, 3900.956
256.4874, 3874.649
256.9695, 3852.229
257.4517, 3828.699
257.9338, 3805.456
258.4159, 3778.888
258.8980, 3746.064
259.3801, 3711.094
259.8622, 3677.402
260.3444, 3646.254
260.8265, 3617.772
261.3086, 3592.454
261.7907, 3574.123
262.2728, 3552.563
262.7549, 3524.905
263.2371, 3495.164
263.7192, 3467.337
264.2013, 3442.424
264.6834, 3419.160
265.1655, 3395.668
265.6476, 3371.614
266.1298, 3348.434
266.6119, 3325.705
267.0940, 3304.011
267.5761, 3284.413
268.0582, 3266.962
268.5403, 3250.326
269.0225, 3232.893
269.5046, 3214.396
269.9867, 3196.542
270.4688, 3180.287
270.9509, 3164.193
271.4330, 3146.652
271.9152, 3127.604
272.3973, 3108.751
272.8794, 3092.099
273.3615, 3077.794
273.8436, 3062.139
274.3257, 3042.449
274.8079, 3023.126
275.2900, 3008.917
275.7721, 2999.621
276.2542, 2989.958
276.7363, 2975.532
277.2184, 2956.893
277.7006, 2939.950
278.1827, 2924.992
278.6648, 2911.626
279.1469, 2900.919
279.6290, 2892.396
280.1111, 2882.185
280.5933, 2867.086
281.0754, 2848.777
281.5575, 2833.319
282.0396, 2822.739
282.5217, 2812.564
283.0038, 2799.788
283.4860, 2784.886
283.9681, 2770.106
284.4502, 2756.215
284.9323, 2743.345
285.4144, 2731.567
285.8965, 2721.212
286.3787, 2711.082
286.8608, 2700.189
287.3429, 2688.926
287.8250, 2678.690
288.3071, 2670.357
288.7892, 2662.704
289.2714, 2653.470
289.7535, 2642.302
290.2356, 2632.491
290.7177, 2627.196
291.1998, 2624.471
291.6819, 2618.987
292.1641, 2609.184
292.6462, 2597.018
293.1283, 2583.641
293.6104, 2569.295
294.0925, 2556.511
294.5746, 2546.792
295.0568, 2539.278
295.5389, 2532.420
296.0210, 2526.175
296.5031, 2520.214
296.9852, 2514.304
297.4673, 2508.440
297.9495, 2502.554
298.4316, 2497.245
298.9137, 2491.689
299.3958, 2484.408
299.8779, 2475.076
300.3600, 2465.431
300.8422, 2456.288
301.3243, 2447.679
301.8064, 2439.903
302.2885, 2433.063
302.7706, 2426.940
303.2527, 2421.294
303.7349, 2416.104
304.2170, 2411.376
304.6991, 2407.310
305.1812, 2403.647
305.6633, 2400.135
306.1454, 2396.924
306.6276, 2393.448
307.1097, 2389.282
307.5918, 2384.444
308.0739, 2378.856
308.5560, 2371.763
309.0381, 2364.630
309.5203, 2359.365
310.0024, 2356.183
310.4845, 2352.831
310.9666, 2347.512
311.4487, 2340.615
311.9308, 2334.019
312.4130, 2327.832
312.8951, 2322.493
313.3772, 2318.526
313.8593, 2315.756
314.3414, 2313.318
314.8235, 2310.887
315.3057, 2308.455
315.7878, 2306.363
316.2699, 2305.387
316.7520, 2302.915
317.2341, 2295.406
317.7162, 2284.992
318.1984, 2276.279
318.6805, 2271.816
319.1626, 2269.626
319.6447, 2266.646
320.1268, 2262.716
320.6089, 2258.856
321.0911, 2255.749
321.5732, 2253.036
322.0553, 2250.331
322.5374, 2247.761
323.0195, 2244.832
323.5016, 2240.670
323.9838, 2235.238
324.4659, 2230.517
324.9480, 2227.949
325.4301, 2226.005
325.9122, 2222.689
326.3943, 2217.607
326.8765, 2212.525
327.3586, 2208.792
327.8407, 2206.187
328.3228, 2203.558
328.8049, 2200.557
329.2870, 2197.587
329.7692, 2195.409
330.2513, 2193.918
330.7334, 2191.603
331.2155, 2187.180
331.6976, 2181.467
332.1797, 2176.104
332.6619, 2170.957
333.1440, 2167.030
333.6261, 2166.493
334.1082, 2167.936
334.5903, 2167.915
335.0724, 2163.755
335.5546, 2158.410
336.0367, 2156.260
336.5188, 2157.681
337.0009, 2158.524
337.4830, 2155.995
337.9651, 2151.397
338.4473, 2147.217
338.9294, 2143.792
339.4115, 2140.718
339.8936, 2138.047
340.3758, 2135.643
340.8579, 2132.430
341.3400, 2127.553
341.8221, 2122.106
342.3042, 2117.710
342.7863, 2114.417
343.2685, 2111.602
343.7506, 2109.134
344.2327, 2106.906
344.7148, 2104.658
345.1969, 2102.323
345.6790, 2099.987
346.1612, 2097.704
346.6433, 2095.471
347.1254, 2093.399
347.6075, 2091.681
348.0896, 2090.063
348.5717, 2088.729
349.0539, 2087.750
349.5360, 2085.377
350.0181, 2079.568
350.5002, 2071.119
350.9823, 2064.011
351.4644, 2058.327
351.9466, 2054.191
352.4287, 2052.144
352.9108, 2051.896
353.3929, 2052.199
353.8750, 2052.842
354.3571, 2053.266
354.8393, 2051.809
355.3214, 2047.012
355.8035, 2043.801
356.2856, 2046.372
356.7677, 2051.285
357.2498, 2052.015
357.7320, 2046.410
358.2141, 2037.855
358.6962, 2030.239
359.1783, 2023.298
359.6604, 2018.924
360.1425, 2020.202
360.6247, 2022.361
361.1068, 2020.221
361.5889, 2013.564
362.0710, 2006.930
362.5531, 2004.359
363.0352, 2005.787
363.5174, 2005.239
363.9995, 2000.842
364.4816, 1996.521
364.9637, 1994.623
365.4458, 1994.332
365.9279, 1993.307
366.4101, 1990.221
366.8922, 1985.830
367.3743, 1982.628
367.8564, 1980.292
368.3385, 1979.450
368.8206, 1982.132
369.3028, 1985.517
369.7849, 1986.047
370.2670, 1982.800
370.7491, 1977.880
371.2312, 1974.211
371.7133, 1972.582
372.1955, 1969.833
372.6776, 1964.938
373.1597, 1959.889
373.6418, 1955.417
374.1239, 1951.828
374.6060, 1949.700
375.0882, 1949.744
375.5703, 1951.849
376.0524, 1951.990
376.5345, 1948.898
377.0166, 1945.377
377.4987, 1941.405
377.9809, 1937.550
378.4630, 1934.618
378.9451, 1932.986
379.4272, 1932.180
379.9093, 1931.049
380.3914, 1929.029
380.8736, 1927.652
381.3557, 1928.111
381.8378, 1928.365
382.3199, 1926.489
382.8020, 1922.458
383.2841, 1918.064
383.7663, 1915.317
384.2484, 1914.407
384.7305, 1913.700
385.2126, 1914.405
385.6947, 1914.093
386.1768, 1910.670
386.6590, 1905.691
387.1411, 1902.450
387.6232, 1903.295
388.1053, 1906.714
388.5874, 1907.145
389.0695, 1903.035
389.5517, 1898.756
390.0338, 1894.364
390.5159, 1890.777
390.9980, 1889.156
391.4801, 1889.802
391.9622, 1891.376
392.4444, 1892.449
392.9265, 1893.043
393.4086, 1893.039
393.8907, 1892.757
394.3728, 1891.453
394.8549, 1888.184
395.3371, 1883.410
395.8192, 1878.823
396.3013, 1875.364
396.7834, 1872.921
397.2655, 1871.152
397.7477, 1870.057
398.2298, 1869.655
398.7119, 1870.576
399.1940, 1871.996
399.6761, 1872.941
400.1582, 1873.291
400.6404, 1872.815
401.1225, 1870.958
401.6046, 1867.783
402.0867, 1864.659
402.5688, 1861.668
403.0509, 1859.290
403.5331, 1857.903
404.0152, 1857.480
404.4973, 1857.995
404.9794, 1861.129
405.4615, 1864.721
405.9436, 1864.216
406.4258, 1858.630
406.9079, 1852.778
407.3900, 1850.798
407.8721, 1852.052
408.3542, 1852.670
408.8363, 1851.684
409.3185, 1850.653
409.8006, 1850.658
410.2827, 1851.488
410.7648, 1852.459
411.2469, 1853.376
411.7290, 1854.058
412.2112, 1853.856
412.6933, 1851.946
413.1754, 1851.277
413.6575, 1852.734
414.1396, 1855.459
414.6217, 1859.203
415.1039, 1863.693
415.5860, 1867.347
416.0681, 1868.314
416.5502, 1866.187
417.0323, 1865.875
417.5144, 1868.402
417.9966, 1871.339
418.4787, 1873.498
418.9608, 1875.363
419.4429, 1878.027
419.9250, 1882.072
420.4071, 1887.132
420.8893, 1892.290
421.3714, 1898.643
421.8535, 1903.281
422.3356, 1904.994
422.8177, 1905.912
423.2998, 1907.331
423.7820, 1909.611
424.2641, 1912.779
424.7462, 1917.084
425.2283, 1922.680
425.7104, 1927.368
426.1925, 1930.352
426.6747, 1933.222
427.1568, 1936.293
427.6389, 1939.580
428.1210, 1942.777
428.6031, 1945.563
429.0852, 1948.934
429.5674, 1955.362
430.0495, 1965.953
430.5316, 1975.643
431.0137, 1982.459
431.4958, 1988.458
431.9779, 1995.072
432.4601, 2002.318
432.9422, 2008.810
433.4243, 2013.278
433.9064, 2016.068
434.3885, 2018.839
434.8706, 2022.022
435.3528, 2024.367
435.8349, 2024.718
436.3170, 2023.763
436.7991, 2022.588
437.2812, 2021.885
437.7633, 2020.429
438.2455, 2016.593
438.7276, 2010.696
439.2097, 2005.088
439.6918, 2000.682
440.1739, 1996.778
440.6560, 1992.405
441.1382, 1987.559
441.6203, 1982.458
442.1024, 1977.442
442.5845, 1972.059
443.0666, 1965.248
443.5487, 1957.082
444.0309, 1949.832
444.5130, 1945.544
444.9951, 1943.802
445.4772, 1940.313
445.9593, 1934.221
446.4414, 1927.705
446.9236, 1921.450
447.4057, 1915.175
447.8878, 1908.502
448.3699, 1901.295
448.8520, 1893.441
449.3341, 1884.527
449.8163, 1873.561
450.2984, 1864.539
450.7805, 1858.635
451.2626, 1853.296
451.7447, 1847.234
452.2268, 1840.580
452.7090, 1834.032
453.1911, 1828.103
453.6732, 1822.625
454.1553, 1816.851
454.6374, 1809.922
455.1195, 1804.227
455.6017, 1800.988
456.0838, 1798.424
456.5659, 1794.882
457.0480, 1790.113
457.5301, 1785.449
458.0122, 1782.635
458.4944, 1781.604
458.9765, 1779.395
459.4586, 1775.350
459.9407, 1770.930
460.4228, 1766.357
460.9049, 1762.066
461.3871, 1758.950
461.8692, 1757.682
462.3513, 1757.119
462.8334, 1756.217
463.3155, 1754.956
463.7976, 1752.623
464.2798, 1748.438
464.7619, 1743.743
465.2440, 1740.298
465.7261, 1738.101
466.2082, 1735.945
466.6903, 1733.197
467.1725, 1730.385
467.6546, 1728.313
468.1367, 1726.998
468.6188, 1725.607
469.1009, 1723.682
469.5830, 1721.213
470.0652, 1718.095
470.5473, 1712.727
471.0294, 1708.821
471.5115, 1707.899
471.9936, 1708.709
472.4757, 1710.262
472.9579, 1712.127
473.4400, 1713.173
473.9221, 1711.970
474.4042, 1708.192
474.8863, 1703.950
475.3684, 1697.951
475.8506, 1692.860
476.3327, 1690.147
476.8148, 1688.929
477.2969, 1687.742
477.7790, 1685.894
478.2611, 1683.603
478.7433, 1681.265
479.2254, 1678.707
479.7075, 1676.638
480.1896, 1675.826
480.6717, 1674.973
481.1538, 1673.241
481.6360, 1670.763
482.1181, 1668.311
482.6002, 1666.436
483.0823, 1664.966
483.5644, 1663.442
484.0465, 1661.930
484.5287, 1660.148
485.0108, 1657.752
485.4929, 1655.127
485.9750, 1652.680
486.4571, 1650.459
486.9392, 1648.445
487.4214, 1646.524
487.9035, 1644.810
488.3856, 1643.840
488.8677, 1643.826
489.3498, 1643.435
489.8319, 1641.385
490.3141, 1637.749
490.7962, 1634.469
491.2783, 1631.366
491.7604, 1628.775
492.2425, 1627.316
492.7246, 1626.382
493.2068, 1624.570
493.6889, 1621.394
494.1710, 1618.125
494.6531, 1616.914
495.1352, 1618.869
495.6173, 1619.385
496.0995, 1617.931
496.5816, 1615.783
497.0637, 1613.080
497.5458, 1610.204
498.0279, 1607.841
498.5100, 1606.419
498.9922, 1605.495
499.4743, 1603.887
499.9564, 1601.338
500.4385, 1598.733
500.9206, 1595.291
501.4027, 1592.511
501.8849, 1591.921
502.3670, 1593.156
502.8491, 1594.109
503.3312, 1593.269
503.8133, 1591.122
504.2954, 1588.873
504.7776, 1586.492
505.2597, 1584.193
505.7418, 1581.889
506.2239, 1579.872
506.7060, 1578.754
507.1881, 1578.941
507.6703, 1578.469
508.1524, 1576.049
508.6345, 1572.436
509.1166, 1568.398
509.5987, 1564.031
510.0808, 1560.846
510.5630, 1560.343
511.0451, 1562.281
511.5272, 1563.571
512.0093, 1564.717
512.4914, 1564.720
512.9735, 1561.996
513.4556, 1558.488
513.9377, 1557.014
514.4199, 1558.220
514.9020, 1560.227
515.3841, 1560.795
515.8662, 1559.888
516.3483, 1557.841
516.8304, 1553.305
517.3126, 1549.053
517.7947, 1545.833
518.2768, 1543.408
518.7589, 1541.435
519.2410, 1539.795
519.7231, 1538.338
520.2053, 1536.897
520.6874, 1535.484
521.1695, 1533.900
521.6516, 1532.023
522.1337, 1530.071
522.6158, 1528.313
523.0980, 1526.614
523.5801, 1524.533
524.0622, 1521.383
524.5443, 1518.328
525.0264, 1516.680
525.5085, 1516.280
525.9907, 1516.436
526.4728, 1517.185
526.9549, 1517.775
527.4370, 1516.787
527.9191, 1513.820
528.4012, 1511.947
528.8834, 1512.898
529.3655, 1513.823
529.8476, 1512.334
530.3297, 1509.081
530.8118, 1506.172
531.2939, 1504.709
531.7761, 1504.409
532.2582, 1504.707
532.7403, 1506.866
533.2224, 1507.175
533.7045, 1503.962
534.1866, 1500.516
534.6688, 1498.944
535.1509, 1498.906
535.6330, 1498.769
536.1151, 1497.391
536.5972, 1495.294
537.0793, 1493.969
537.5615, 1493.697
538.0436, 1493.093
538.5257, 1491.608
539.0078, 1489.760
539.4899, 1487.725
539.9720, 1485.579
540.4542, 1484.182
540.9363, 1484.712
541.4184, 1485.883
541.9005, 1485.799
542.3826, 1484.441
542.8647, 1482.806
543.3469, 1481.358
543.8290, 1480.007
544.3111, 1478.474
544.7932, 1476.524
545.2753, 1474.950
545.7574, 1474.220
546.2396, 1473.630
546.7217, 1472.546
547.2038, 1470.983
547.6859, 1469.300
548.1680, 1467.700
548.6501, 1466.258
549.1323, 1465.352
549.6144, 1465.452
550.0965, 1465.285
550.5786, 1464.585
551.0607, 1463.709
551.5428, 1462.838
552.0250, 1462.032
552.5071, 1461.386
552.9892, 1461.230
553.4713, 1461.198
553.9534, 1459.897
554.4355, 1456.926
554.9177, 1454.772
555.3998, 1455.043
555.8819, 1456.197
556.3640, 1456.068
556.8461, 1454.476
557.3282, 1452.840
557.8104, 1451.530
558.2925, 1450.562
558.7746, 1450.169
559.2567, 1450.251
559.7388, 1450.154
560.2209, 1449.507
560.7031, 1448.363
561.1852, 1446.889
561.6673, 1444.424
562.1494, 1442.554
562.6315, 1441.846
563.1136, 1441.318
563.5958, 1440.198
564.0779, 1438.557
564.5600, 1436.996
565.0421, 1435.969
565.5242, 1435.279
566.0063, 1434.173
566.4885, 1432.367
566.9706, 1430.992
567.4527, 1431.010
567.9348, 1431.027
568.4169, 1429.852
568.8990, 1427.620
569.3812, 1425.632
569.8633, 1424.605
570.3454, 1424.217
570.8275, 1424.212
571.3096, 1424.545
571.7917, 1424.619
572.2739, 1424.112
572.7560, 1423.331
573.2381, 1422.950
573.7202, 1423.306
574.2023, 1422.739
574.6844, 1420.523
575.1666, 1417.840
575.6487, 1414.954
576.1308, 1412.289
576.6129, 1410.819
577.0950, 1411.093
577.5771, 1412.287
578.0593, 1412.538
578.5414, 1411.408
579.0235, 1410.517
579.5056, 1409.259
579.9877, 1408.899
580.4698, 1410.883
580.9520, 1414.179
581.4341, 1416.522
581.9162, 1416.932
582.3983, 1415.876
582.8804, 1413.207
583.3625, 1409.176
583.8447, 1406.712
584.3268, 1406.778
584.8089, 1407.957
585.2910, 1409.309
585.7732, 1410.730
586.2553, 1410.997
586.7374, 1409.033
587.2195, 1406.919
587.7017, 1406.018
588.1838, 1405.634
588.6659, 1404.409
