##NAMES=Eclarite
##RRUFFID=R110124
##IDEAL CHEMISTRY=(Cu,Fe)Pb_9_Bi_12_S_28_
##LOCALITY=Crabtree quarry, Wake County, North Carolina, USA
##OWNER=RRUFF
##SOURCE=Mark Feinglos 
##DESCRIPTION=Mass of tin-white metallic elongated crystals associated with quartz
##STATUS=The identification of this mineral has been confirmed only by single crystal X-ray diffraction.
##URL=rruff.info/R110124
90.49219, 103.8192
90.97430, 103.6796
91.45642, 103.8836
91.93854, 104.3625
92.42065, 104.5435
92.90277, 104.0186
93.38489, 102.8596
93.86700, 101.1949
94.34912, 98.67296
94.83124, 95.80336
95.31335, 93.69505
95.79547, 92.38741
96.27759, 91.52064
96.75970, 90.84464
97.24182, 90.33512
97.72394, 89.62834
98.20605, 88.30259
98.68817, 86.44895
99.17029, 85.35873
99.65240, 85.22663
100.1345, 85.55016
100.6166, 85.34536
101.0988, 84.50838
101.5809, 83.58679
102.0630, 82.96378
102.5451, 82.77858
103.0272, 82.13207
103.5093, 80.80569
103.9915, 78.99342
104.4736, 77.43810
104.9557, 76.17612
105.4378, 75.13783
105.9199, 74.29977
106.4020, 73.75333
106.8842, 73.22199
107.3663, 72.63656
107.8484, 71.99927
108.3305, 71.52202
108.8126, 71.47261
109.2947, 71.43420
109.7769, 71.02200
110.2590, 69.76162
110.7411, 68.60767
111.2232, 67.69033
111.7053, 67.00057
112.1874, 66.60178
112.6696, 66.94108
113.1517, 67.46938
113.6338, 67.47512
114.1159, 66.24065
114.5980, 64.97095
115.0801, 64.20496
115.5623, 64.42948
116.0444, 64.13339
116.5265, 62.29627
117.0086, 59.63170
117.4907, 57.68982
117.9728, 57.68903
118.4550, 58.15191
118.9371, 58.11919
119.4192, 57.08887
119.9013, 55.99937
120.3834, 55.35866
120.8655, 55.07810
121.3477, 54.80956
121.8298, 54.34269
122.3119, 53.79758
122.7940, 53.30925
123.2761, 53.01833
123.7582, 52.70966
124.2404, 52.09323
124.7225, 51.20198
125.2046, 50.44052
125.6867, 50.34027
126.1688, 50.58077
126.6509, 50.58129
127.1331, 49.98793
127.6152, 49.06895
128.0973, 48.11731
128.5794, 47.11475
129.0615, 46.30138
129.5436, 46.13359
130.0258, 46.45440
130.5079, 46.58186
130.9900, 45.96122
131.4721, 44.88515
131.9542, 44.27920
132.4363, 44.23854
132.9185, 44.46591
133.4006, 44.57398
133.8827, 44.56244
134.3648, 44.46500
134.8469, 44.40647
135.3290, 44.35673
135.8112, 43.76126
136.2933, 42.37365
136.7754, 40.68116
137.2575, 39.93620
137.7396, 40.32548
138.2217, 40.80917
138.7039, 40.53332
139.1860, 39.28688
139.6681, 38.89161
140.1502, 39.94307
140.6323, 41.93076
141.1144, 42.51946
141.5966, 41.18789
142.0787, 39.44639
142.5608, 38.48246
143.0429, 38.61579
143.5250, 38.61980
144.0071, 38.23152
144.4893, 37.47973
144.9714, 37.04560
145.4535, 37.13139
145.9356, 37.34119
146.4177, 37.31213
146.8998, 36.98273
147.3820, 36.50751
147.8641, 35.84013
148.3462, 34.92737
148.8283, 34.20858
149.3104, 33.47459
149.7925, 33.02729
150.2747, 33.22627
150.7568, 34.70480
151.2389, 36.16845
151.7210, 37.33973
152.2031, 38.11633
152.6852, 38.90593
153.1674, 39.12493
153.6495, 39.49111
154.1316, 41.03777
154.6137, 44.34309
155.0958, 48.40931
155.5779, 53.05336
156.0601, 58.57570
156.5422, 63.90311
157.0243, 68.15942
157.5064, 72.12217
157.9885, 77.29705
158.4706, 84.21323
158.9528, 92.26393
159.4349, 101.2013
159.9170, 111.0911
160.3991, 121.6806
160.8812, 132.6231
161.3633, 144.1758
161.8455, 157.0139
162.3276, 171.9659
162.8097, 187.8308
163.2918, 204.2041
163.7739, 221.0906
164.2560, 238.1195
164.7382, 255.1768
165.2203, 272.2584
165.7024, 289.3491
166.1845, 307.5568
166.6666, 325.3432
167.1487, 341.1206
167.6309, 354.1996
168.1130, 365.6791
168.5951, 375.8019
169.0772, 384.6963
169.5593, 392.8360
170.0414, 400.0463
170.5236, 406.8227
171.0057, 413.6474
171.4878, 420.3910
171.9699, 427.5732
172.4520, 435.4632
172.9341, 444.0921
173.4163, 453.4928
173.8984, 463.5073
174.3805, 474.4278
174.8626, 486.3914
175.3447, 500.1862
175.8268, 514.8732
176.3090, 529.1767
176.7911, 542.9623
177.2732, 557.6557
177.7553, 572.7539
178.2374, 587.0036
178.7195, 600.2379
179.2017, 612.4171
179.6838, 623.8094
180.1659, 634.2736
180.6480, 643.8704
181.1301, 653.4496
181.6122, 664.8168
182.0944, 677.2625
182.5765, 688.1152
183.0586, 695.8714
183.5407, 701.3818
184.0228, 706.5362
184.5049, 711.2545
184.9871, 716.1158
185.4692, 722.2618
185.9513, 729.3889
186.4334, 735.5191
186.9155, 739.1656
187.3976, 741.0563
187.8798, 743.6835
188.3619, 747.1736
188.8440, 751.1441
189.3261, 755.1456
189.8082, 759.1945
190.2903, 763.0803
190.7725, 766.6548
191.2546, 769.9990
191.7367, 773.2715
192.2188, 776.4900
192.7009, 779.6603
193.1830, 782.7292
193.6652, 785.6852
194.1473, 788.5771
194.6294, 791.2172
195.1115, 793.6578
195.5936, 796.7317
196.0757, 800.6364
196.5579, 804.9182
197.0400, 808.7463
197.5221, 812.1028
198.0042, 815.2217
198.4863, 818.1902
198.9684, 820.9954
199.4506, 823.9851
199.9327, 827.2733
200.4148, 830.6119
200.8969, 833.3821
201.3790, 835.5546
201.8611, 837.5070
202.3433, 839.2165
202.8254, 840.5886
203.3075, 843.0582
203.7896, 847.1854
204.2717, 852.0371
204.7538, 855.0247
205.2360, 855.7656
205.7181, 856.0244
206.2002, 856.7625
206.6823, 858.0095
207.1644, 859.4349
207.6465, 861.0233
208.1287, 862.7413
208.6108, 864.6299
209.0929, 866.8035
209.5750, 868.8174
210.0571, 870.4475
210.5392, 871.7561
211.0214, 872.3547
211.5035, 871.8160
211.9856, 870.6877
212.4677, 870.9781
212.9498, 873.1622
213.4319, 875.7540
213.9141, 878.0226
214.3962, 880.1076
214.8783, 881.3710
215.3604, 881.3928
215.8425, 880.6110
216.3246, 880.7978
216.8067, 882.2031
217.2889, 884.0742
217.7710, 886.0620
218.2531, 888.3334
218.7352, 890.1772
219.2173, 891.4198
219.6994, 892.1824
220.1816, 892.9960
220.6637, 893.8126
221.1458, 894.7333
221.6279, 895.8655
222.1100, 897.4062
222.5921, 898.6281
223.0743, 899.4061
223.5564, 899.8256
224.0385, 900.3090
224.5206, 900.8898
225.0027, 901.5014
225.4848, 902.0604
225.9670, 902.3882
226.4491, 903.2087
226.9312, 905.0175
227.4133, 907.4227
227.8954, 908.4466
228.3775, 907.3743
228.8597, 905.9557
229.3418, 905.2924
229.8239, 905.8213
230.3060, 906.0447
230.7881, 905.6472
231.2702, 904.8133
231.7524, 904.5119
232.2345, 904.9856
232.7166, 905.6000
233.1987, 906.0134
233.6808, 906.2684
234.1629, 906.1864
234.6451, 905.7927
235.1272, 905.0402
235.6093, 903.6866
236.0914, 901.3736
236.5735, 898.9548
237.0556, 896.9152
237.5378, 895.4394
238.0199, 893.9990
238.5020, 892.7112
238.9841, 891.4644
239.4662, 889.7706
239.9483, 887.3527
240.4305, 884.9207
240.9126, 882.9368
241.3947, 882.0002
241.8768, 880.1855
242.3589, 876.9684
242.8410, 872.8633
243.3232, 869.6292
243.8053, 867.6007
244.2874, 865.9936
244.7695, 864.5412
245.2516, 863.6518
245.7337, 861.9189
246.2159, 859.1139
246.6980, 855.4184
247.1801, 851.4579
247.6622, 846.9634
248.1443, 842.5169
248.6264, 838.4738
249.1086, 835.0533
249.5907, 831.4346
250.0728, 827.5399
250.5549, 823.4670
251.0370, 819.5034
251.5191, 815.8307
252.0013, 812.0016
252.4834, 807.7864
252.9655, 803.2103
253.4476, 798.3354
253.9297, 793.1097
254.4118, 787.6340
254.8940, 781.9068
255.3761, 775.5617
255.8582, 769.5834
256.3403, 764.5497
256.8224, 760.9247
257.3046, 756.6541
257.7867, 751.4408
258.2688, 745.7882
258.7509, 740.8255
259.2330, 737.1259
259.7151, 733.0203
260.1973, 727.6619
260.6794, 720.7432
261.1615, 714.3232
261.6436, 708.3712
262.1257, 703.0222
262.6078, 698.8174
263.0900, 696.5831
263.5721, 693.6381
264.0542, 688.8987
264.5363, 681.9631
265.0184, 675.6072
265.5005, 669.8233
265.9827, 664.5222
266.4648, 659.4383
266.9469, 654.5349
267.4290, 650.0877
267.9111, 646.3282
268.3932, 643.3464
268.8754, 639.5826
269.3575, 634.6329
269.8396, 629.5013
270.3217, 625.7330
270.8038, 623.7755
271.2859, 621.4281
271.7681, 618.0608
272.2502, 613.7117
272.7323, 609.0685
273.2144, 604.0634
273.6965, 599.0537
274.1786, 594.4608
274.6608, 590.2831
275.1429, 586.3170
275.6250, 582.5101
276.1071, 578.8865
276.5892, 575.5358
277.0714, 572.6050
277.5535, 569.6806
278.0356, 566.3171
278.5177, 562.4578
278.9998, 558.7537
279.4819, 555.4752
279.9641, 552.4111
280.4462, 548.7236
280.9283, 544.3006
281.4104, 539.6765
281.8925, 535.0987
282.3746, 530.5646
282.8568, 526.5113
283.3389, 523.1581
283.8210, 520.2346
284.3031, 516.9425
284.7852, 513.2379
285.2673, 509.5486
285.7495, 506.1064
286.2316, 502.9149
286.7137, 500.0132
287.1958, 497.5585
287.6779, 495.1810
288.1600, 491.8871
288.6422, 487.6551
289.1243, 483.6237
289.6064, 480.7655
290.0885, 478.8282
290.5706, 476.5777
291.0527, 473.7422
291.5349, 470.9203
292.0170, 469.3446
292.4991, 468.8989
292.9812, 468.1993
293.4633, 466.4653
293.9454, 463.8872
294.4276, 460.9670
294.9097, 457.6929
295.3918, 454.3856
295.8739, 451.3067
296.3560, 448.5225
296.8381, 446.1929
297.3203, 444.6667
297.8024, 443.6307
298.2845, 442.4903
298.7666, 441.2396
299.2487, 439.7940
299.7308, 438.1328
300.2130, 436.1976
300.6951, 433.8439
301.1772, 430.6797
301.6593, 427.2367
302.1414, 424.0619
302.6235, 421.1874
303.1057, 418.8904
303.5878, 417.8081
304.0699, 417.4499
304.5520, 416.9712
305.0341, 416.3941
305.5162, 415.3110
305.9984, 412.8164
306.4805, 409.1542
306.9626, 405.8239
307.4447, 404.2758
307.9268, 403.5630
308.4089, 402.4703
308.8911, 400.5092
309.3732, 398.3576
309.8553, 396.5210
310.3374, 394.9467
310.8195, 393.4164
311.3016, 391.7945
311.7838, 390.1907
312.2659, 388.6950
312.7480, 387.3640
313.2301, 386.0630
313.7122, 384.6163
314.1943, 383.1216
314.6765, 381.8181
315.1586, 381.1064
315.6407, 380.4175
316.1228, 379.3261
316.6049, 377.6820
317.0870, 376.0814
317.5692, 375.0890
318.0513, 374.2469
318.5334, 372.9185
319.0155, 370.1747
319.4976, 367.5231
319.9797, 365.6731
320.4619, 364.7192
320.9440, 363.9561
321.4261, 363.6207
321.9082, 363.1906
322.3903, 362.1700
322.8724, 359.7552
323.3546, 357.4355
323.8367, 355.6735
324.3188, 354.4534
324.8009, 353.1113
325.2830, 351.2684
325.7651, 349.4579
326.2473, 348.0324
326.7294, 347.2738
327.2115, 346.6273
327.6936, 346.2793
328.1757, 346.1026
328.6578, 345.4204
329.1400, 343.5061
329.6221, 341.7016
330.1042, 340.6182
330.5863, 341.2094
331.0684, 340.9149
331.5505, 339.0874
332.0327, 336.4896
332.5148, 334.8813
332.9969, 335.0422
333.4790, 335.1187
333.9611, 334.3712
334.4432, 332.4468
334.9254, 331.0848
335.4075, 330.5161
335.8896, 330.3117
336.3717, 329.8960
336.8538, 329.2079
337.3359, 328.4496
337.8180, 327.6627
338.3001, 326.8528
338.7823, 326.1276
339.2644, 325.6277
339.7465, 324.9701
340.2286, 323.6134
340.7107, 321.3881
341.1928, 319.6191
341.6750, 318.7487
342.1571, 318.4909
342.6392, 317.7320
343.1213, 316.3882
343.6034, 314.9735
344.0855, 313.6234
344.5677, 312.3757
345.0498, 312.1710
345.5319, 313.5854
346.0140, 315.3328
346.4961, 314.5830
346.9782, 311.4370
347.4604, 308.2596
347.9425, 306.4583
348.4246, 305.7279
348.9067, 305.0456
349.3888, 304.3474
349.8709, 303.7455
350.3531, 303.5241
350.8352, 303.5567
351.3173, 303.3752
351.7994, 302.5562
352.2815, 301.4652
352.7636, 300.7682
353.2458, 300.4619
353.7279, 300.1381
354.2100, 299.2456
354.6921, 298.1262
355.1742, 297.4273
355.6563, 297.8288
356.1385, 298.2023
356.6206, 297.1309
357.1027, 294.9144
357.5848, 293.0819
358.0669, 292.8783
358.5490, 293.3093
359.0312, 293.3778
359.5133, 292.6527
359.9954, 292.0892
360.4775, 292.7778
360.9596, 294.0352
361.4417, 294.4035
361.9239, 292.5627
362.4060, 290.2488
362.8881, 288.3716
363.3702, 287.0750
363.8523, 285.9664
364.3344, 284.8619
364.8166, 283.8979
365.2987, 283.2244
365.7808, 282.9870
366.2629, 282.9525
366.7450, 283.2286
367.2271, 283.8055
367.7093, 284.0197
368.1914, 283.7032
368.6735, 283.0542
369.1556, 282.1878
369.6377, 280.7111
370.1198, 279.5392
370.6020, 278.8545
371.0841, 278.5163
371.5662, 278.0105
372.0483, 277.1837
372.5304, 276.3772
373.0125, 275.7238
373.4947, 275.2448
373.9768, 274.8732
374.4589, 274.6358
374.9410, 274.4799
375.4231, 274.3620
375.9052, 274.3598
376.3874, 274.1886
376.8695, 273.7528
377.3516, 273.0549
377.8337, 272.2686
378.3158, 271.3478
378.7979, 270.4557
379.2801, 269.7098
379.7622, 269.0994
380.2443, 268.8678
380.7264, 269.2867
381.2085, 269.9248
381.6906, 269.3722
382.1728, 267.6024
382.6549, 265.9897
383.1370, 265.5499
383.6191, 266.0618
384.1012, 266.7336
384.5833, 267.5213
385.0655, 268.3316
385.5476, 269.3905
386.0297, 270.4703
386.5118, 270.6869
386.9939, 268.7963
387.4760, 266.1228
387.9582, 264.6538
388.4403, 264.4286
388.9224, 264.5318
389.4045, 264.4156
389.8866, 264.1172
390.3687, 263.6664
390.8509, 262.8561
391.3330, 262.1469
391.8151, 262.1657
392.2972, 262.6656
392.7793, 262.6386
393.2614, 260.8999
393.7436, 258.8869
394.2257, 257.6177
394.7078, 257.4913
395.1899, 257.5976
395.6720, 257.7585
396.1541, 257.9197
396.6363, 257.9956
397.1184, 257.9667
397.6005, 257.8446
398.0826, 257.6221
398.5647, 257.2926
399.0468, 256.9139
399.5290, 256.2940
400.0111, 255.7382
400.4932, 255.4958
400.9753, 255.8844
401.4574, 256.1562
401.9395, 256.1240
402.4217, 255.8999
402.9038, 256.0645
403.3859, 256.9906
403.8680, 257.7608
404.3501, 257.8188
404.8322, 256.8008
405.3144, 256.3930
405.7965, 256.7971
406.2786, 257.5750
406.7607, 257.9661
407.2428, 257.8594
407.7249, 257.9934
408.2071, 258.7922
408.6892, 260.0781
409.1713, 260.6227
409.6534, 260.3432
410.1355, 259.7963
410.6176, 259.3506
411.0998, 259.0310
411.5819, 259.0462
412.0640, 259.5276
412.5461, 260.2058
413.0282, 260.6518
413.5103, 260.8968
413.9925, 261.1389
414.4746, 261.4983
414.9567, 261.9293
415.4388, 262.3412
415.9209, 262.7224
416.4030, 263.1581
416.8852, 263.5971
417.3673, 264.1654
417.8494, 265.0645
418.3315, 267.0159
418.8136, 268.8033
419.2957, 269.4090
419.7779, 269.0193
420.2600, 268.8970
420.7421, 269.5778
421.2242, 270.7767
421.7063, 272.3115
422.1884, 274.3769
422.6706, 276.3887
423.1527, 278.4371
423.6348, 280.3257
424.1169, 281.6981
424.5990, 281.4367
425.0811, 281.6862
425.5633, 283.3889
426.0454, 286.8618
426.5275, 289.5082
427.0096, 290.8709
427.4917, 291.7841
427.9738, 292.9089
428.4560, 294.2519
428.9381, 295.7845
429.4202, 297.5687
429.9023, 299.5016
430.3844, 301.3430
430.8665, 303.0807
431.3487, 304.7285
431.8308, 306.2827
432.3129, 307.7358
432.7950, 309.1551
433.2771, 310.5355
433.7592, 311.8935
434.2414, 313.4576
434.7235, 315.1717
435.2056, 316.3023
435.6877, 316.4724
436.1698, 316.0230
436.6519, 315.6237
437.1341, 315.2708
437.6162, 314.8736
438.0983, 314.2778
438.5804, 313.6104
439.0625, 313.1844
439.5446, 313.1872
440.0268, 312.9752
440.5089, 311.8453
440.9910, 310.0737
441.4731, 308.2495
441.9552, 306.7852
442.4373, 305.2173
442.9195, 303.1136
443.4016, 300.4777
443.8837, 297.9526
444.3658, 296.0951
444.8479, 294.2753
445.3300, 291.9996
445.8122, 288.3470
446.2943, 285.2770
446.7764, 283.5689
447.2585, 282.6792
447.7406, 281.2185
448.2227, 278.3890
448.7049, 275.6801
449.1870, 273.5874
449.6691, 272.3007
450.1512, 270.5840
450.6333, 268.2184
451.1154, 265.6927
451.5976, 263.5078
452.0797, 261.8376
452.5618, 259.9960
453.0439, 257.7919
453.5260, 255.4096
454.0081, 253.3337
454.4903, 251.6098
454.9724, 249.8562
455.4545, 247.5395
455.9366, 244.8627
456.4187, 243.3511
456.9008, 243.2247
457.3830, 243.3631
457.8651, 242.3351
458.3472, 240.4689
458.8293, 238.8845
459.3114, 238.0245
459.7935, 237.5173
460.2757, 237.0601
460.7578, 236.5947
461.2399, 235.8329
461.7220, 234.1272
462.2041, 232.2962
462.6862, 231.3110
463.1684, 231.5609
463.6505, 231.5342
464.1326, 229.9272
464.6147, 227.7568
465.0968, 226.3141
465.5789, 226.8595
466.0611, 227.3411
466.5432, 227.0023
467.0253, 225.9278
467.5074, 225.1829
467.9895, 225.5021
468.4716, 225.6850
468.9538, 225.1124
469.4359, 223.2831
469.9180, 221.8066
470.4001, 220.7058
470.8822, 219.9234
471.3643, 219.4063
471.8465, 219.2401
472.3286, 219.0924
472.8107, 218.9302
473.2928, 218.7206
473.7749, 218.1722
474.2570, 217.2145
474.7392, 216.2954
475.2213, 215.9128
475.7034, 215.9438
476.1855, 215.4718
476.6676, 214.3093
477.1497, 212.9491
477.6319, 211.9194
478.1140, 211.2261
478.5961, 210.9118
479.0782, 211.4676
479.5603, 212.1226
480.0424, 211.9106
480.5246, 210.9057
481.0067, 209.7312
481.4888, 208.4915
481.9709, 207.4140
482.4530, 206.7669
482.9352, 206.7969
483.4173, 206.7624
483.8994, 206.3680
484.3815, 205.7214
484.8636, 204.9921
485.3457, 203.9167
485.8279, 203.0727
486.3100, 202.7238
486.7921, 202.8740
487.2742, 202.8652
487.7563, 202.7034
488.2384, 202.3827
488.7206, 201.8676
489.2027, 201.0280
489.6848, 200.3915
490.1669, 200.0875
490.6490, 199.8597
491.1311, 199.2399
491.6133, 198.1710
492.0954, 197.1283
492.5775, 196.1750
493.0596, 195.3802
493.5417, 195.1399
494.0238, 195.4627
494.5060, 195.6989
494.9881, 195.1811
495.4702, 194.2131
495.9523, 193.5520
496.4344, 193.3232
496.9165, 193.2847
497.3987, 193.3717
497.8808, 193.4597
498.3629, 193.3126
498.8450, 192.6552
499.3271, 191.8833
499.8092, 191.2382
500.2914, 190.7003
500.7735, 190.1985
501.2556, 189.6436
501.7377, 189.1529
502.2198, 188.8697
502.7019, 189.0552
503.1841, 188.8033
503.6662, 187.5312
504.1483, 185.9617
504.6304, 184.9510
505.1125, 184.8179
505.5946, 184.7608
506.0768, 184.7715
506.5589, 184.7726
507.0410, 184.3063
507.5231, 183.1982
508.0052, 182.1102
508.4873, 181.3562
508.9695, 180.9464
509.4516, 180.7656
509.9337, 180.8601
510.4158, 180.9787
510.8979, 180.8092
511.3800, 180.4029
511.8622, 180.0197
512.3443, 179.8020
512.8264, 179.5281
513.3085, 178.6328
513.7906, 177.3508
514.2728, 176.5233
514.7549, 177.1389
515.2370, 178.0808
515.7191, 178.4469
516.2012, 178.1584
516.6833, 177.4848
517.1655, 176.2075
517.6476, 174.7859
518.1297, 173.6106
518.6118, 172.7287
519.0939, 172.1411
519.5760, 171.8512
520.0582, 171.8657
520.5403, 172.2124
521.0224, 173.4927
521.5045, 174.2463
521.9866, 173.9115
522.4688, 172.4864
522.9509, 171.4340
523.4330, 170.8062
523.9151, 170.4067
524.3972, 170.1262
524.8793, 169.9672
525.3615, 169.7854
525.8436, 169.5353
526.3257, 169.3397
526.8078, 169.5769
527.2899, 170.1043
527.7720, 170.2263
528.2542, 169.5026
528.7363, 168.3563
529.2184, 167.1159
529.7005, 165.8679
530.1826, 165.0219
530.6647, 165.1594
531.1469, 165.6142
531.6290, 165.8203
532.1111, 165.6650
532.5932, 165.4336
533.0753, 165.4438
533.5574, 165.3499
534.0396, 164.7935
534.5217, 162.9637
535.0038, 161.5482
535.4859, 160.8996
535.9680, 160.8344
536.4501, 160.7977
536.9323, 160.8751
537.4144, 160.8268
537.8965, 160.4567
538.3786, 159.7460
538.8607, 159.6772
539.3428, 160.4983
539.8250, 161.1916
540.3071, 160.5146
540.7892, 158.6585
541.2713, 157.4040
541.7534, 157.0910
542.2355, 157.2766
542.7177, 157.5267
543.1998, 157.7927
543.6819, 157.9120
544.1640, 157.7665
544.6461, 157.4721
545.1282, 157.1047
545.6104, 156.6722
546.0925, 156.2127
546.5746, 155.6415
547.0567, 155.1265
547.5388, 154.8009
548.0209, 154.7497
548.5031, 154.6687
548.9852, 154.4060
549.4673, 154.1239
549.9494, 154.0116
550.4315, 154.4298
550.9136, 154.4188
551.3958, 153.5603
551.8779, 152.2846
552.3600, 152.0410
552.8421, 153.1862
553.3242, 154.1003
553.8063, 154.0007
554.2885, 153.0303
554.7706, 152.2632
555.2527, 151.6973
555.7348, 151.3602
556.2169, 151.5520
556.6990, 151.9843
557.1812, 151.8157
557.6633, 150.7845
558.1454, 149.6503
558.6275, 149.1343
559.1096, 149.0329
559.5917, 148.9756
560.0739, 148.8421
560.5560, 148.6933
561.0381, 148.5246
561.5202, 148.3563
562.0023, 148.2683
562.4844, 148.5043
562.9666, 148.6304
563.4487, 148.3953
563.9308, 147.6981
564.4129, 147.1504
564.8950, 146.8188
565.3771, 146.5610
565.8593, 146.2651
566.3414, 145.9304
566.8235, 145.5325
567.3056, 145.0208
567.7877, 144.5113
568.2698, 144.2941
568.7520, 144.3438
569.2341, 144.2265
569.7162, 143.5452
570.1983, 142.7528
570.6804, 142.8262
571.1625, 143.6508
571.6447, 144.4154
572.1268, 144.7027
572.6089, 144.6130
573.0910, 144.1018
573.5731, 143.0840
574.0552, 142.2845
574.5374, 142.2867
575.0195, 142.5287
575.5016, 142.4842
575.9837, 141.5639
576.4658, 140.9578
576.9479, 140.9556
577.4301, 141.2829
577.9122, 141.4180
578.3943, 141.3361
578.8764, 141.0913
579.3585, 140.6370
579.8406, 140.0163
580.3228, 139.5195
580.8049, 139.1414
581.2870, 138.9199
581.7691, 139.0090
582.2512, 139.2976
582.7333, 139.2480
583.2155, 138.7922
583.6976, 138.3957
584.1797, 138.6233
584.6617, 139.1764
585.1439, 139.5393
585.6260, 139.4463
586.1081, 139.3644
586.5902, 139.7593
587.0723, 140.3504
587.5544, 140.5904
