##NAMES=Eddavidite
##RRUFFID=R050381
##IDEAL CHEMISTRY=Cu^2+^_12_Pb^4+^_2_O_15_Br_2_
##LOCALITY=Southwest mine, Bisbee, Arizona, USA
##OWNER=RRUFF
##SOURCE=University of Arizona Mineral Museum
##DESCRIPTION=Black cubes, associated with malachite and cuprite. Type sample
##STATUS=The identification of this mineral is confirmed by single-crystal X-ray diffraction and chemical analysis.
##URL=rruff.info/R050381
##MEASURED CHEMISTRY=Pb_1.95_Cu_12.14_O_15.09_(Br_1.16_Cl_0.75_)_Î£1.91_
8.758203e+001, 1.302761e+003
8.806415e+001, 1.286155e+003
8.854626e+001, 1.283273e+003
8.902838e+001, 1.298774e+003
8.951050e+001, 1.319783e+003
8.999261e+001, 1.343174e+003
9.047473e+001, 1.368100e+003
9.095685e+001, 1.392446e+003
9.143896e+001, 1.414101e+003
9.192108e+001, 1.433008e+003
9.240320e+001, 1.451982e+003
9.288531e+001, 1.454824e+003
9.336743e+001, 1.431281e+003
9.384955e+001, 1.387391e+003
9.433167e+001, 1.344454e+003
9.481378e+001, 1.299827e+003
9.529590e+001, 1.260161e+003
9.577802e+001, 1.225186e+003
9.626013e+001, 1.194993e+003
9.674225e+001, 1.170173e+003
9.722437e+001, 1.149879e+003
9.770648e+001, 1.130159e+003
9.818860e+001, 1.109995e+003
9.867072e+001, 1.090061e+003
9.915283e+001, 1.070336e+003
9.963495e+001, 1.050756e+003
1.001171e+002, 1.031805e+003
1.005992e+002, 1.014182e+003
1.010813e+002, 9.972787e+002
1.015634e+002, 9.823588e+002
1.020455e+002, 9.690529e+002
1.025277e+002, 9.567551e+002
1.030098e+002, 9.448806e+002
1.034919e+002, 9.331293e+002
1.039740e+002, 9.217262e+002
1.044561e+002, 9.116888e+002
1.049382e+002, 9.045966e+002
1.054204e+002, 8.968822e+002
1.059025e+002, 8.878259e+002
1.063846e+002, 8.778361e+002
1.068667e+002, 8.675820e+002
1.073488e+002, 8.572830e+002
1.078309e+002, 8.471082e+002
1.083131e+002, 8.382727e+002
1.087952e+002, 8.309131e+002
1.092773e+002, 8.244300e+002
1.097594e+002, 8.184486e+002
1.102415e+002, 8.129514e+002
1.107236e+002, 8.084500e+002
1.112058e+002, 8.061956e+002
1.116879e+002, 8.053622e+002
1.121700e+002, 8.032764e+002
1.126521e+002, 7.984303e+002
1.131342e+002, 7.922899e+002
1.136163e+002, 7.872985e+002
1.140985e+002, 7.838743e+002
1.145806e+002, 7.810546e+002
1.150627e+002, 7.782648e+002
1.155448e+002, 7.755219e+002
1.160269e+002, 7.728318e+002
1.165090e+002, 7.703141e+002
1.169912e+002, 7.679650e+002
1.174733e+002, 7.653141e+002
1.179554e+002, 7.619095e+002
1.184375e+002, 7.585356e+002
1.189196e+002, 7.552748e+002
1.194017e+002, 7.522444e+002
1.198839e+002, 7.497169e+002
1.203660e+002, 7.481474e+002
1.208481e+002, 7.481783e+002
1.213302e+002, 7.475301e+002
1.218123e+002, 7.459693e+002
1.222944e+002, 7.440233e+002
1.227766e+002, 7.420402e+002
1.232587e+002, 7.401052e+002
1.237408e+002, 7.380047e+002
1.242229e+002, 7.353503e+002
1.247050e+002, 7.312059e+002
1.251871e+002, 7.276987e+002
1.256693e+002, 7.247496e+002
1.261514e+002, 7.224745e+002
1.266335e+002, 7.213702e+002
1.271156e+002, 7.218588e+002
1.275977e+002, 7.230561e+002
1.280798e+002, 7.221622e+002
1.285620e+002, 7.183511e+002
1.290441e+002, 7.143801e+002
1.295262e+002, 7.113873e+002
1.300083e+002, 7.091776e+002
1.304904e+002, 7.069908e+002
1.309725e+002, 7.045505e+002
1.314547e+002, 7.018131e+002
1.319368e+002, 6.986757e+002
1.324189e+002, 6.944314e+002
1.329010e+002, 6.906390e+002
1.333831e+002, 6.893580e+002
1.338652e+002, 6.911256e+002
1.343474e+002, 6.925298e+002
1.348295e+002, 6.917346e+002
1.353116e+002, 6.896324e+002
1.357937e+002, 6.869063e+002
1.362758e+002, 6.835457e+002
1.367579e+002, 6.799163e+002
1.372401e+002, 6.770215e+002
1.377222e+002, 6.752684e+002
1.382043e+002, 6.736802e+002
1.386864e+002, 6.720036e+002
1.391685e+002, 6.702316e+002
1.396507e+002, 6.684141e+002
1.401328e+002, 6.666846e+002
1.406149e+002, 6.650057e+002
1.410970e+002, 6.624562e+002
1.415791e+002, 6.578945e+002
1.420612e+002, 6.534873e+002
1.425434e+002, 6.495251e+002
1.430255e+002, 6.461730e+002
1.435076e+002, 6.436219e+002
1.439897e+002, 6.421362e+002
1.444718e+002, 6.419773e+002
1.449539e+002, 6.414500e+002
1.454361e+002, 6.407503e+002
1.459182e+002, 6.396297e+002
1.464003e+002, 6.378253e+002
1.468824e+002, 6.353659e+002
1.473645e+002, 6.325833e+002
1.478466e+002, 6.297695e+002
1.483288e+002, 6.267742e+002
1.488109e+002, 6.244470e+002
1.492930e+002, 6.231730e+002
1.497751e+002, 6.223922e+002
1.502572e+002, 6.216293e+002
1.507393e+002, 6.208046e+002
1.512215e+002, 6.198002e+002
1.517036e+002, 6.182606e+002
1.521857e+002, 6.162003e+002
1.526678e+002, 6.143665e+002
1.531499e+002, 6.135306e+002
1.536320e+002, 6.131259e+002
1.541142e+002, 6.114995e+002
1.545963e+002, 6.074518e+002
1.550784e+002, 6.032668e+002
1.555605e+002, 6.015080e+002
1.560426e+002, 6.021596e+002
1.565247e+002, 6.030456e+002
1.570069e+002, 6.028250e+002
1.574890e+002, 6.015085e+002
1.579711e+002, 5.994562e+002
1.584532e+002, 5.953355e+002
1.589353e+002, 5.915718e+002
1.594174e+002, 5.900582e+002
1.598996e+002, 5.909987e+002
1.603817e+002, 5.927257e+002
1.608638e+002, 5.932810e+002
1.613459e+002, 5.923421e+002
1.618280e+002, 5.912754e+002
1.623102e+002, 5.902114e+002
1.627923e+002, 5.891363e+002
1.632744e+002, 5.880111e+002
1.637565e+002, 5.868261e+002
1.642386e+002, 5.856696e+002
1.647207e+002, 5.847462e+002
1.652029e+002, 5.845618e+002
1.656850e+002, 5.837440e+002
1.661671e+002, 5.814384e+002
1.666492e+002, 5.788966e+002
1.671313e+002, 5.773109e+002
1.676134e+002, 5.772053e+002
1.680956e+002, 5.780990e+002
1.685777e+002, 5.786000e+002
1.690598e+002, 5.794140e+002
1.695419e+002, 5.789421e+002
1.700240e+002, 5.760596e+002
1.705061e+002, 5.720189e+002
1.709883e+002, 5.684039e+002
1.714704e+002, 5.659516e+002
1.719525e+002, 5.646312e+002
1.724346e+002, 5.644903e+002
1.729167e+002, 5.668980e+002
1.733988e+002, 5.687108e+002
1.738810e+002, 5.687648e+002
1.743631e+002, 5.674696e+002
1.748452e+002, 5.657797e+002
1.753273e+002, 5.640244e+002
1.758094e+002, 5.623966e+002
1.762915e+002, 5.614814e+002
1.767737e+002, 5.616949e+002
1.772558e+002, 5.620898e+002
1.777379e+002, 5.622455e+002
1.782200e+002, 5.621501e+002
1.787021e+002, 5.616072e+002
1.791842e+002, 5.599862e+002
1.796664e+002, 5.580341e+002
1.801485e+002, 5.572184e+002
1.806306e+002, 5.583337e+002
1.811127e+002, 5.599392e+002
1.815948e+002, 5.604636e+002
1.820769e+002, 5.597638e+002
1.825591e+002, 5.587722e+002
1.830412e+002, 5.579293e+002
1.835233e+002, 5.570697e+002
1.840054e+002, 5.559260e+002
1.844875e+002, 5.542297e+002
1.849696e+002, 5.524268e+002
1.854518e+002, 5.514415e+002
1.859339e+002, 5.516673e+002
1.864160e+002, 5.518348e+002
1.868981e+002, 5.514355e+002
1.873802e+002, 5.507370e+002
1.878623e+002, 5.500087e+002
1.883445e+002, 5.493580e+002
1.888266e+002, 5.488007e+002
1.893087e+002, 5.484127e+002
1.897908e+002, 5.483284e+002
1.902729e+002, 5.482396e+002
1.907550e+002, 5.483010e+002
1.912372e+002, 5.482706e+002
1.917193e+002, 5.477493e+002
1.922014e+002, 5.464305e+002
1.926835e+002, 5.444989e+002
1.931656e+002, 5.432142e+002
1.936477e+002, 5.436365e+002
1.941299e+002, 5.436780e+002
1.946120e+002, 5.426368e+002
1.950941e+002, 5.410069e+002
1.955762e+002, 5.395677e+002
1.960583e+002, 5.388142e+002
1.965404e+002, 5.387388e+002
1.970226e+002, 5.392791e+002
1.975047e+002, 5.412998e+002
1.979868e+002, 5.429823e+002
1.984689e+002, 5.436130e+002
1.989510e+002, 5.434763e+002
1.994331e+002, 5.432995e+002
1.999153e+002, 5.436176e+002
2.003974e+002, 5.444048e+002
2.008795e+002, 5.447591e+002
2.013616e+002, 5.443499e+002
2.018437e+002, 5.439228e+002
2.023258e+002, 5.440494e+002
2.028080e+002, 5.445226e+002
2.032901e+002, 5.444952e+002
2.037722e+002, 5.431962e+002
2.042543e+002, 5.407509e+002
2.047364e+002, 5.390936e+002
2.052185e+002, 5.388130e+002
2.057007e+002, 5.387582e+002
2.061828e+002, 5.380825e+002
2.066649e+002, 5.368517e+002
2.071470e+002, 5.359247e+002
2.076291e+002, 5.360722e+002
2.081112e+002, 5.370724e+002
2.085934e+002, 5.376516e+002
2.090755e+002, 5.376473e+002
2.095576e+002, 5.372798e+002
2.100397e+002, 5.365060e+002
2.105218e+002, 5.352987e+002
2.110039e+002, 5.344352e+002
2.114861e+002, 5.346110e+002
2.119682e+002, 5.354947e+002
2.124503e+002, 5.364370e+002
2.129324e+002, 5.375950e+002
2.134145e+002, 5.385668e+002
2.138967e+002, 5.387150e+002
2.143788e+002, 5.378687e+002
2.148609e+002, 5.369847e+002
2.153430e+002, 5.364857e+002
2.158251e+002, 5.363068e+002
2.163072e+002, 5.364590e+002
2.167894e+002, 5.370561e+002
2.172715e+002, 5.378793e+002
2.177536e+002, 5.386039e+002
2.182357e+002, 5.392716e+002
2.187178e+002, 5.396993e+002
2.191999e+002, 5.398010e+002
2.196821e+002, 5.396484e+002
2.201642e+002, 5.391628e+002
2.206463e+002, 5.380689e+002
2.211284e+002, 5.369719e+002
2.216105e+002, 5.374802e+002
2.220926e+002, 5.407566e+002
2.225748e+002, 5.433055e+002
2.230569e+002, 5.437359e+002
2.235390e+002, 5.431073e+002
2.240211e+002, 5.425341e+002
2.245032e+002, 5.425135e+002
2.249853e+002, 5.428950e+002
2.254675e+002, 5.432766e+002
2.259496e+002, 5.437201e+002
2.264317e+002, 5.440565e+002
2.269138e+002, 5.438787e+002
2.273959e+002, 5.437200e+002
2.278780e+002, 5.443448e+002
2.283602e+002, 5.461900e+002
2.288423e+002, 5.486664e+002
2.293244e+002, 5.498322e+002
2.298065e+002, 5.484356e+002
2.302886e+002, 5.473406e+002
2.307707e+002, 5.463900e+002
2.312529e+002, 5.460855e+002
2.317350e+002, 5.471424e+002
2.322171e+002, 5.499218e+002
2.326992e+002, 5.538783e+002
2.331813e+002, 5.572747e+002
2.336634e+002, 5.600861e+002
2.341456e+002, 5.622543e+002
2.346277e+002, 5.640196e+002
2.351098e+002, 5.650792e+002
2.355919e+002, 5.648187e+002
2.360740e+002, 5.629453e+002
2.365561e+002, 5.601298e+002
2.370383e+002, 5.583497e+002
2.375204e+002, 5.579113e+002
2.380025e+002, 5.583010e+002
2.384846e+002, 5.602429e+002
2.389667e+002, 5.627766e+002
2.394488e+002, 5.647081e+002
2.399310e+002, 5.655411e+002
2.404131e+002, 5.656741e+002
2.408952e+002, 5.661009e+002
2.413773e+002, 5.668486e+002
2.418594e+002, 5.678694e+002
2.423415e+002, 5.692817e+002
2.428237e+002, 5.709291e+002
2.433058e+002, 5.726680e+002
2.437879e+002, 5.744650e+002
2.442700e+002, 5.762099e+002
2.447521e+002, 5.776566e+002
2.452342e+002, 5.786349e+002
2.457164e+002, 5.796606e+002
2.461985e+002, 5.812852e+002
2.466806e+002, 5.828580e+002
2.471627e+002, 5.832385e+002
2.476448e+002, 5.819285e+002
2.481269e+002, 5.800300e+002
2.486091e+002, 5.795325e+002
2.490912e+002, 5.806874e+002
2.495733e+002, 5.820118e+002
2.500554e+002, 5.833848e+002
2.505375e+002, 5.847215e+002
2.510196e+002, 5.858499e+002
2.515018e+002, 5.866964e+002
2.519839e+002, 5.874705e+002
2.524660e+002, 5.884493e+002
2.529481e+002, 5.896174e+002
2.534302e+002, 5.909928e+002
2.539123e+002, 5.925717e+002
2.543945e+002, 5.943696e+002
2.548766e+002, 5.966371e+002
2.553587e+002, 5.996188e+002
2.558408e+002, 6.023690e+002
2.563229e+002, 6.031803e+002
2.568051e+002, 6.023447e+002
2.572872e+002, 6.023146e+002
2.577693e+002, 6.041191e+002
2.582514e+002, 6.070541e+002
2.587335e+002, 6.101229e+002
2.592156e+002, 6.132552e+002
2.596978e+002, 6.162244e+002
2.601799e+002, 6.189265e+002
2.606620e+002, 6.213459e+002
2.611441e+002, 6.231049e+002
2.616262e+002, 6.234097e+002
2.621083e+002, 6.231887e+002
2.625905e+002, 6.240446e+002
2.630726e+002, 6.262684e+002
2.635547e+002, 6.288265e+002
2.640368e+002, 6.307809e+002
2.645189e+002, 6.324581e+002
2.650010e+002, 6.345463e+002
2.654832e+002, 6.380618e+002
2.659653e+002, 6.418165e+002
2.664474e+002, 6.436487e+002
2.669295e+002, 6.430743e+002
2.674116e+002, 6.423710e+002
2.678937e+002, 6.431917e+002
2.683759e+002, 6.447420e+002
2.688580e+002, 6.459688e+002
2.693401e+002, 6.465263e+002
2.698222e+002, 6.466371e+002
2.703043e+002, 6.464219e+002
2.707864e+002, 6.456960e+002
2.712686e+002, 6.454528e+002
2.717507e+002, 6.469228e+002
2.722328e+002, 6.488903e+002
2.727149e+002, 6.500505e+002
2.731970e+002, 6.499407e+002
2.736791e+002, 6.491555e+002
2.741613e+002, 6.484764e+002
2.746434e+002, 6.479583e+002
2.751255e+002, 6.472197e+002
2.756076e+002, 6.461234e+002
2.760897e+002, 6.447169e+002
2.765718e+002, 6.429730e+002
2.770540e+002, 6.408713e+002
2.775361e+002, 6.385070e+002
2.780182e+002, 6.358742e+002
2.785003e+002, 6.329192e+002
2.789824e+002, 6.301317e+002
2.794645e+002, 6.279438e+002
2.799467e+002, 6.257740e+002
2.804288e+002, 6.231451e+002
2.809109e+002, 6.199978e+002
2.813930e+002, 6.168549e+002
2.818751e+002, 6.144657e+002
2.823572e+002, 6.129515e+002
2.828394e+002, 6.107555e+002
2.833215e+002, 6.069807e+002
2.838036e+002, 6.029622e+002
2.842857e+002, 5.992493e+002
2.847678e+002, 5.959598e+002
2.852499e+002, 5.931630e+002
2.857321e+002, 5.910876e+002
2.862142e+002, 5.897561e+002
2.866963e+002, 5.884046e+002
2.871784e+002, 5.873698e+002
2.876605e+002, 5.858842e+002
2.881426e+002, 5.835169e+002
2.886248e+002, 5.803741e+002
2.891069e+002, 5.768499e+002
2.895890e+002, 5.730261e+002
2.900711e+002, 5.689496e+002
2.905532e+002, 5.654824e+002
2.910353e+002, 5.629113e+002
2.915175e+002, 5.606321e+002
2.919996e+002, 5.584502e+002
2.924817e+002, 5.563519e+002
2.929638e+002, 5.543648e+002
2.934459e+002, 5.525404e+002
2.939280e+002, 5.508235e+002
2.944102e+002, 5.490323e+002
2.948923e+002, 5.472354e+002
2.953744e+002, 5.452408e+002
2.958565e+002, 5.425770e+002
2.963386e+002, 5.398400e+002
2.968207e+002, 5.379373e+002
2.973029e+002, 5.374449e+002
2.977850e+002, 5.376768e+002
2.982671e+002, 5.368011e+002
2.987492e+002, 5.339888e+002
2.992313e+002, 5.317557e+002
2.997134e+002, 5.308585e+002
3.001956e+002, 5.306190e+002
3.006777e+002, 5.304345e+002
3.011598e+002, 5.300955e+002
3.016419e+002, 5.298287e+002
3.021240e+002, 5.301086e+002
3.026061e+002, 5.312286e+002
3.030883e+002, 5.320524e+002
3.035704e+002, 5.326110e+002
3.040525e+002, 5.327062e+002
3.045346e+002, 5.320536e+002
3.050167e+002, 5.306440e+002
3.054988e+002, 5.288790e+002
3.059810e+002, 5.270305e+002
3.064631e+002, 5.248776e+002
3.069452e+002, 5.236635e+002
3.074273e+002, 5.241702e+002
3.079094e+002, 5.250932e+002
3.083915e+002, 5.262242e+002
3.088737e+002, 5.273292e+002
3.093558e+002, 5.278664e+002
3.098379e+002, 5.268574e+002
3.103200e+002, 5.241364e+002
3.108021e+002, 5.232496e+002
3.112842e+002, 5.263449e+002
3.117664e+002, 5.291981e+002
3.122485e+002, 5.302111e+002
3.127306e+002, 5.298088e+002
3.132127e+002, 5.291228e+002
3.136948e+002, 5.289119e+002
3.141769e+002, 5.290688e+002
3.146591e+002, 5.289163e+002
3.151412e+002, 5.282709e+002
3.156233e+002, 5.275475e+002
3.161054e+002, 5.267222e+002
3.165875e+002, 5.259447e+002
3.170696e+002, 5.254670e+002
3.175518e+002, 5.254612e+002
3.180339e+002, 5.256707e+002
3.185160e+002, 5.253785e+002
3.189981e+002, 5.241942e+002
3.194802e+002, 5.233303e+002
3.199623e+002, 5.233508e+002
3.204445e+002, 5.235998e+002
3.209266e+002, 5.234732e+002
3.214087e+002, 5.227892e+002
3.218908e+002, 5.218762e+002
3.223729e+002, 5.211926e+002
3.228550e+002, 5.207426e+002
3.233372e+002, 5.205090e+002
3.238193e+002, 5.207015e+002
3.243014e+002, 5.209468e+002
3.247835e+002, 5.211145e+002
3.252656e+002, 5.211477e+002
3.257477e+002, 5.209427e+002
3.262299e+002, 5.203378e+002
3.267120e+002, 5.192938e+002
3.271941e+002, 5.181969e+002
3.276762e+002, 5.168214e+002
3.281583e+002, 5.156097e+002
3.286404e+002, 5.148988e+002
3.291226e+002, 5.145256e+002
3.296047e+002, 5.140217e+002
3.300868e+002, 5.129783e+002
3.305689e+002, 5.114980e+002
3.310510e+002, 5.102843e+002
3.315331e+002, 5.094534e+002
3.320153e+002, 5.087460e+002
3.324974e+002, 5.079812e+002
3.329795e+002, 5.072855e+002
3.334616e+002, 5.069300e+002
3.339437e+002, 5.071831e+002
3.344258e+002, 5.076074e+002
3.349080e+002, 5.071202e+002
3.353901e+002, 5.053572e+002
3.358722e+002, 5.036473e+002
3.363543e+002, 5.025566e+002
3.368365e+002, 5.016055e+002
3.373186e+002, 5.002690e+002
3.378007e+002, 4.983830e+002
3.382828e+002, 4.965320e+002
3.387649e+002, 4.955634e+002
3.392470e+002, 4.956284e+002
3.397292e+002, 4.954507e+002
3.402113e+002, 4.943539e+002
3.406934e+002, 4.932732e+002
3.411755e+002, 4.928756e+002
3.416576e+002, 4.931454e+002
3.421397e+002, 4.935071e+002
3.426219e+002, 4.935259e+002
3.431040e+002, 4.932162e+002
3.435861e+002, 4.927817e+002
3.440682e+002, 4.921662e+002
3.445503e+002, 4.914919e+002
3.450324e+002, 4.908911e+002
3.455146e+002, 4.902971e+002
3.459967e+002, 4.895338e+002
3.464788e+002, 4.883469e+002
3.469609e+002, 4.869820e+002
3.474430e+002, 4.861322e+002
3.479251e+002, 4.860248e+002
3.484073e+002, 4.858039e+002
3.488894e+002, 4.847739e+002
3.493715e+002, 4.834775e+002
3.498536e+002, 4.826295e+002
3.503357e+002, 4.826171e+002
3.508178e+002, 4.827298e+002
3.513000e+002, 4.819994e+002
3.517821e+002, 4.803798e+002
3.522642e+002, 4.789574e+002
3.527463e+002, 4.782723e+002
3.532284e+002, 4.778220e+002
3.537105e+002, 4.769629e+002
3.541927e+002, 4.755968e+002
3.546748e+002, 4.744992e+002
3.551569e+002, 4.743325e+002
3.556390e+002, 4.749217e+002
3.561211e+002, 4.756006e+002
3.566032e+002, 4.765703e+002
3.570854e+002, 4.770309e+002
3.575675e+002, 4.758695e+002
3.580496e+002, 4.734235e+002
3.585317e+002, 4.713623e+002
3.590138e+002, 4.706524e+002
3.594959e+002, 4.705974e+002
3.599781e+002, 4.699075e+002
3.604602e+002, 4.683716e+002
3.609423e+002, 4.671947e+002
3.614244e+002, 4.676992e+002
3.619065e+002, 4.691641e+002
3.623886e+002, 4.697482e+002
3.628708e+002, 4.684432e+002
3.633529e+002, 4.669701e+002
3.638350e+002, 4.668636e+002
3.643171e+002, 4.679387e+002
3.647992e+002, 4.689739e+002
3.652813e+002, 4.694964e+002
3.657635e+002, 4.695975e+002
3.662456e+002, 4.695146e+002
3.667277e+002, 4.692809e+002
3.672098e+002, 4.688006e+002
3.676919e+002, 4.676244e+002
3.681740e+002, 4.662409e+002
3.686562e+002, 4.657230e+002
3.691383e+002, 4.664453e+002
3.696204e+002, 4.675073e+002
3.701025e+002, 4.678565e+002
3.705846e+002, 4.674746e+002
3.710667e+002, 4.667734e+002
3.715489e+002, 4.651698e+002
3.720310e+002, 4.636786e+002
3.725131e+002, 4.635860e+002
3.729952e+002, 4.648126e+002
3.734773e+002, 4.657562e+002
3.739594e+002, 4.651495e+002
3.744416e+002, 4.631381e+002
3.749237e+002, 4.616283e+002
3.754058e+002, 4.607161e+002
3.758879e+002, 4.601379e+002
3.763700e+002, 4.598490e+002
3.768521e+002, 4.598132e+002
3.773343e+002, 4.599620e+002
3.778164e+002, 4.602607e+002
3.782985e+002, 4.607455e+002
3.787806e+002, 4.615464e+002
3.792627e+002, 4.632869e+002
3.797448e+002, 4.642710e+002
3.802270e+002, 4.640263e+002
3.807091e+002, 4.631671e+002
3.811912e+002, 4.619918e+002
3.816733e+002, 4.606689e+002
3.821554e+002, 4.597361e+002
3.826375e+002, 4.598780e+002
3.831197e+002, 4.614186e+002
3.836018e+002, 4.624028e+002
3.840839e+002, 4.627587e+002
3.845660e+002, 4.627416e+002
3.850481e+002, 4.622474e+002
3.855302e+002, 4.614642e+002
3.860124e+002, 4.607472e+002
3.864945e+002, 4.603114e+002
3.869766e+002, 4.601600e+002
3.874587e+002, 4.603150e+002
3.879408e+002, 4.612693e+002
3.884229e+002, 4.619430e+002
3.889051e+002, 4.620588e+002
3.893872e+002, 4.619270e+002
3.898693e+002, 4.618451e+002
3.903514e+002, 4.619178e+002
3.908335e+002, 4.620924e+002
3.913156e+002, 4.623216e+002
3.917978e+002, 4.627135e+002
3.922799e+002, 4.628600e+002
3.927620e+002, 4.627243e+002
3.932441e+002, 4.623916e+002
3.937262e+002, 4.617754e+002
3.942083e+002, 4.609675e+002
3.946905e+002, 4.602312e+002
3.951726e+002, 4.597880e+002
3.956547e+002, 4.596103e+002
3.961368e+002, 4.594139e+002
3.966189e+002, 4.591830e+002
3.971010e+002, 4.589567e+002
3.975832e+002, 4.588405e+002
3.980653e+002, 4.587046e+002
3.985474e+002, 4.583280e+002
3.990295e+002, 4.575805e+002
3.995116e+002, 4.567566e+002
3.999937e+002, 4.563305e+002
4.004759e+002, 4.563462e+002
4.009580e+002, 4.565349e+002
4.014401e+002, 4.569352e+002
4.019222e+002, 4.574271e+002
4.024043e+002, 4.579633e+002
4.028864e+002, 4.585313e+002
4.033686e+002, 4.590669e+002
4.038507e+002, 4.596982e+002
4.043328e+002, 4.602992e+002
4.048149e+002, 4.601914e+002
4.052970e+002, 4.589838e+002
4.057791e+002, 4.577976e+002
4.062613e+002, 4.573990e+002
4.067434e+002, 4.575680e+002
4.072255e+002, 4.579261e+002
4.077076e+002, 4.584899e+002
4.081897e+002, 4.590723e+002
4.086718e+002, 4.596456e+002
4.091540e+002, 4.601886e+002
4.096361e+002, 4.599421e+002
4.101182e+002, 4.579027e+002
4.106003e+002, 4.554801e+002
4.110824e+002, 4.552844e+002
