##NAMES=Edenite
##RRUFFID=R060029
##IDEAL CHEMISTRY=NaCa_2_Mg_5_(Si_7_Al)O_22_(OH)_2_
##LOCALITY=Renfrew County, Ontario, Canada
##OWNER=RRUFF
##SOURCE=University of Arizona Mineral Museum
##DESCRIPTION=Black prismatic
##STATUS=The identification of this mineral has been confirmed by X-ray diffraction and chemical analysis
##URL=rruff.info/R060029
##MEASURED CHEMISTRY=(Na_0.62_K_0.34_[box]_0.04_)(Ca_0.86_Na_0.14_)_2_(Mg_0.57_Fe^2+^_0.30_Fe^3+^_0.07_Al_0.05_Ti_0.01_Mn_0.01_)_5_(Si_6.61_Al_1.39_)O_22_((OH)_0.69_F_0.31_)_2_
164.8412, 65.73288
165.3233, 65.21880
165.8054, 64.82377
166.2875, 64.88519
166.7696, 65.33207
167.2517, 65.62157
167.7339, 65.43532
168.2160, 65.12825
168.6981, 65.09315
169.1802, 65.39758
169.6623, 65.75919
170.1444, 65.88609
170.6266, 65.74525
171.1087, 65.57519
171.5908, 65.40066
172.0729, 65.24515
172.5550, 65.13421
173.0371, 65.07687
173.5193, 65.04270
174.0014, 64.96618
174.4835, 64.78391
174.9656, 64.70486
175.4477, 64.84024
175.9298, 65.03581
176.4120, 65.18077
176.8941, 65.22948
177.3762, 65.17397
177.8583, 64.98026
178.3404, 64.42289
178.8225, 64.02621
179.3047, 63.88393
179.7868, 63.90369
180.2689, 64.00891
180.7510, 64.16568
181.2331, 64.33647
181.7152, 64.34328
182.1973, 64.11407
182.6795, 63.80433
183.1616, 63.33635
183.6437, 62.81056
184.1258, 62.40484
184.6079, 62.23456
185.0900, 62.25347
185.5722, 62.16804
186.0543, 61.92532
186.5364, 61.66111
187.0185, 61.38219
187.5006, 61.11296
187.9827, 60.93408
188.4649, 60.93573
188.9470, 61.05577
189.4291, 61.01304
189.9112, 60.67693
190.3933, 60.30278
190.8754, 60.04990
191.3576, 59.91163
191.8397, 59.82058
192.3218, 59.80585
192.8039, 59.78693
193.2860, 59.57740
193.7681, 58.93221
194.2503, 58.28674
194.7324, 58.19115
195.2145, 58.73338
195.6966, 59.23500
196.1787, 59.30905
196.6608, 59.11040
197.1430, 58.73313
197.6251, 58.04018
198.1072, 57.34410
198.5893, 57.26965
199.0714, 58.10604
199.5535, 58.81060
200.0357, 58.88659
200.5178, 58.61827
200.9999, 58.31430
201.4820, 58.11466
201.9641, 57.95359
202.4462, 57.60733
202.9284, 56.81489
203.4105, 56.28896
203.8926, 56.32500
204.3747, 56.66826
204.8568, 57.02705
205.3389, 57.25568
205.8211, 57.36029
206.3032, 57.35595
206.7853, 57.10384
207.2674, 56.90872
207.7495, 56.88542
208.2316, 56.94197
208.7138, 56.92451
209.1959, 56.72601
209.6780, 56.39647
210.1601, 56.30754
210.6422, 56.78901
211.1243, 57.17615
211.6065, 57.31118
212.0886, 57.27948
212.5707, 57.22636
213.0528, 57.24223
213.5349, 57.32054
214.0170, 57.40078
214.4992, 57.52071
214.9813, 57.60213
215.4634, 57.58906
215.9455, 57.52022
216.4276, 57.47230
216.9097, 57.49178
217.3918, 57.57583
217.8740, 57.70154
218.3561, 57.98843
218.8382, 58.18638
219.3203, 58.13963
219.8024, 57.91508
220.2845, 57.72389
220.7667, 57.72228
221.2488, 57.84435
221.7309, 57.73931
222.2130, 57.20475
222.6951, 56.66805
223.1772, 56.32865
223.6594, 56.16653
224.1415, 56.08780
224.6236, 56.07103
225.1057, 56.08721
225.5878, 56.03989
226.0699, 55.86930
226.5521, 55.70328
227.0342, 55.65806
227.5163, 55.71883
227.9984, 55.73203
228.4805, 55.61417
228.9626, 55.39414
229.4448, 55.12795
229.9269, 54.74402
230.4090, 54.43019
230.8911, 54.44595
231.3732, 54.79424
231.8553, 54.97673
232.3375, 54.66768
232.8196, 54.11711
233.3017, 53.60294
233.7838, 53.13169
234.2659, 52.78028
234.7480, 52.71095
235.2302, 52.96436
235.7123, 53.10612
236.1944, 52.87550
236.6765, 52.51335
237.1586, 52.19532
237.6407, 51.95135
238.1229, 51.77989
238.6050, 51.73053
239.0871, 51.85123
239.5692, 51.83812
240.0513, 51.43068
240.5334, 50.96002
241.0156, 50.65840
241.4977, 50.58061
241.9798, 50.58129
242.4619, 50.46564
242.9440, 50.19333
243.4261, 49.95722
243.9083, 49.75998
244.3904, 49.62780
244.8725, 49.62160
245.3546, 49.74085
245.8367, 49.87313
246.3188, 49.84961
246.8010, 49.60303
247.2831, 49.40865
247.7652, 49.28165
248.2473, 49.21178
248.7294, 49.24324
249.2115, 49.36066
249.6937, 49.45851
250.1758, 49.38945
250.6579, 49.08769
251.1400, 48.78807
251.6221, 48.48247
252.1042, 48.18475
252.5863, 47.85590
253.0685, 47.51682
253.5506, 47.27450
254.0327, 47.27276
254.5148, 47.60027
254.9969, 47.89440
255.4790, 48.29097
255.9612, 48.55565
256.4433, 48.44745
256.9254, 48.02632
257.4075, 47.61510
257.8896, 47.59613
258.3718, 48.12870
258.8539, 48.33623
259.3360, 47.99303
259.8181, 47.59573
260.3002, 47.41392
260.7823, 47.43139
261.2645, 47.44799
261.7466, 47.25465
262.2287, 46.79073
262.7108, 46.58821
263.1929, 46.84424
263.6750, 47.11703
264.1572, 47.15021
264.6393, 46.99792
265.1214, 46.92299
265.6035, 47.16879
266.0856, 47.75263
266.5677, 48.00632
267.0499, 47.77137
267.5320, 47.44656
268.0141, 47.13639
268.4962, 46.86885
268.9783, 46.67272
269.4604, 46.56703
269.9425, 46.55128
270.4247, 46.62100
270.9068, 46.84460
271.3889, 47.06178
271.8710, 47.25240
272.3531, 47.39352
272.8352, 47.42279
273.3174, 47.28654
273.7995, 47.02807
274.2816, 46.86087
274.7637, 46.74019
275.2458, 46.73363
275.7279, 46.98108
276.2101, 47.35617
276.6922, 47.57173
277.1743, 47.47157
277.6564, 47.18245
278.1385, 47.07549
278.6206, 47.24407
279.1028, 47.37685
279.5849, 47.35864
280.0670, 47.25113
280.5491, 47.15599
281.0312, 47.10559
281.5133, 47.09481
281.9955, 47.13020
282.4776, 47.23395
282.9597, 47.29821
283.4418, 47.23854
283.9239, 47.13804
284.4060, 47.13575
284.8882, 47.27525
285.3703, 47.47953
285.8524, 47.64157
286.3345, 47.75642
286.8166, 47.89775
287.2987, 48.16465
287.7809, 48.43283
288.2630, 48.54658
288.7451, 48.47755
289.2272, 48.26452
289.7093, 47.85242
290.1914, 47.25990
290.6736, 46.88714
291.1557, 46.87363
291.6378, 47.06464
292.1199, 47.38060
292.6020, 47.82165
293.0841, 48.14556
293.5663, 48.08914
294.0484, 47.72266
294.5305, 47.44888
295.0126, 47.33916
295.4947, 47.31540
295.9768, 47.33778
296.4590, 47.40213
296.9411, 47.44518
297.4232, 47.41327
297.9053, 47.33171
298.3874, 47.28791
298.8695, 47.34222
299.3517, 47.36967
299.8338, 47.27394
300.3159, 47.06617
300.7980, 46.81386
301.2801, 46.51720
301.7622, 46.22042
302.2444, 45.98787
302.7265, 45.78803
303.2086, 45.71999
303.6907, 45.96319
304.1728, 46.41425
304.6549, 46.67611
305.1371, 46.56997
305.6192, 46.29270
306.1013, 46.15865
306.5834, 46.19182
307.0655, 46.15194
307.5476, 45.83593
308.0298, 45.37635
308.5119, 45.10588
308.9940, 45.14434
309.4761, 45.25503
309.9582, 45.11861
310.4403, 44.77502
310.9225, 44.54926
311.4046, 44.72336
311.8867, 45.01809
312.3688, 44.93242
312.8509, 44.35252
313.3330, 43.74127
313.8152, 43.53182
314.2973, 43.62168
314.7794, 43.70300
315.2615, 43.68265
315.7436, 43.64565
316.2257, 43.70302
316.7079, 43.86087
317.1900, 44.00695
317.6721, 44.12279
318.1542, 44.15645
318.6363, 43.98967
319.1184, 43.42479
319.6006, 42.89049
320.0827, 42.78688
320.5648, 43.05563
321.0469, 43.25832
321.5290, 43.19936
322.0111, 42.97125
322.4933, 42.75457
322.9754, 42.53479
323.4575, 42.36647
323.9396, 42.31677
324.4217, 42.34635
324.9038, 42.31773
325.3860, 42.15617
325.8681, 41.99340
326.3502, 42.07372
326.8323, 42.40448
327.3144, 42.58381
327.7965, 42.34578
328.2787, 41.89849
328.7608, 41.58369
329.2429, 41.45830
329.7250, 41.44416
330.2071, 41.48645
330.6892, 41.58187
331.1714, 41.72979
331.6535, 42.02934
332.1356, 42.32355
332.6177, 42.43101
333.0998, 42.34311
333.5819, 42.18995
334.0641, 42.01437
334.5462, 41.84882
335.0283, 41.79194
335.5104, 41.98881
335.9925, 42.15594
336.4746, 42.05411
336.9568, 41.74032
337.4389, 41.47023
337.9210, 41.34221
338.4031, 41.34735
338.8852, 41.49494
339.3673, 41.93000
339.8495, 42.15366
340.3315, 41.74026
340.8137, 41.00078
341.2958, 40.58418
341.7779, 40.71827
342.2600, 41.09193
342.7421, 41.22693
343.2242, 41.07394
343.7064, 41.12583
344.1885, 41.81984
344.6706, 42.59144
345.1527, 42.67440
345.6348, 41.96612
346.1169, 41.20201
346.5991, 41.08091
347.0812, 41.64964
347.5633, 42.03726
348.0454, 42.19270
348.5275, 42.21114
349.0096, 42.08558
349.4918, 41.85450
349.9739, 41.67426
350.4560, 41.65074
350.9381, 41.74833
351.4202, 41.78555
351.9023, 41.68721
352.3845, 41.62481
352.8666, 41.65747
353.3487, 41.76041
353.8308, 41.92263
354.3129, 42.15415
354.7950, 42.35885
355.2772, 42.32267
355.7593, 41.86372
356.2414, 41.56638
356.7235, 41.63659
357.2056, 41.80845
357.6877, 41.80986
358.1699, 41.59644
358.6520, 41.30891
359.1341, 41.08804
359.6162, 40.93761
360.0983, 40.87122
360.5804, 40.91334
361.0626, 41.00673
361.5447, 41.14405
362.0268, 41.31002
362.5089, 41.46782
362.9910, 41.58890
363.4731, 41.68053
363.9553, 41.80589
364.4374, 42.05319
364.9195, 42.23048
365.4016, 42.33801
365.8837, 42.33988
366.3658, 42.14569
366.8480, 41.71875
367.3301, 41.18983
367.8122, 40.83850
368.2943, 40.70075
368.7764, 40.71418
369.2585, 41.02691
369.7407, 41.37714
370.2228, 41.56902
370.7049, 41.57621
371.1870, 41.49377
371.6691, 41.42047
372.1512, 41.35828
372.6334, 41.29616
373.1155, 41.22872
373.5976, 41.16722
374.0797, 41.09460
374.5618, 41.03187
375.0439, 41.04124
375.5261, 41.18476
376.0082, 41.40191
376.4903, 41.37578
376.9724, 40.88879
377.4545, 40.45495
377.9366, 40.11932
378.4188, 39.88992
378.9009, 39.77843
379.3830, 39.78740
379.8651, 39.89256
380.3472, 40.09937
380.8293, 40.50189
381.3115, 40.69585
381.7936, 40.42755
382.2757, 40.12099
382.7578, 40.01899
383.2399, 40.10757
383.7220, 40.19678
384.2042, 40.10486
384.6863, 39.84818
385.1684, 39.68355
385.6505, 39.68856
386.1326, 39.67567
386.6147, 39.53314
387.0969, 39.33147
387.5790, 39.18501
388.0611, 39.14835
388.5432, 39.17973
389.0253, 39.22498
389.5074, 39.30402
389.9896, 39.30780
390.4717, 39.11409
390.9538, 38.87816
391.4359, 38.73039
391.9180, 38.69094
392.4001, 38.68546
392.8823, 38.68970
393.3644, 38.68989
393.8465, 38.56985
394.3286, 38.21236
394.8107, 37.89986
395.2928, 37.93612
395.7750, 38.22697
396.2571, 38.43336
396.7392, 38.40228
397.2213, 38.22535
397.7034, 37.98558
398.1855, 37.67519
398.6677, 37.45176
399.1498, 37.44064
399.6319, 37.57377
400.1140, 37.69187
400.5961, 37.84219
401.0782, 37.88408
401.5604, 37.63060
402.0425, 37.19360
402.5246, 36.92222
403.0067, 36.95925
403.4888, 37.10797
403.9709, 37.03255
404.4531, 36.68603
404.9352, 36.52759
405.4173, 36.83186
405.8994, 37.24475
406.3815, 37.42675
406.8636, 37.34948
407.3458, 37.11546
407.8279, 36.73905
408.3100, 36.25336
408.7921, 36.14881
409.2742, 36.85089
409.7563, 37.41262
410.2385, 37.36957
410.7206, 36.96581
411.2027, 36.63734
411.6848, 36.56758
412.1669, 36.66840
412.6490, 36.76838
413.1311, 36.93596
413.6133, 36.97050
414.0954, 36.73147
414.5775, 36.46708
415.0596, 36.36137
415.5417, 36.42546
416.0238, 36.56258
416.5060, 36.69767
416.9881, 36.83287
417.4702, 36.86432
417.9523, 36.71245
418.4344, 36.53815
418.9165, 36.28755
419.3987, 36.06237
419.8808, 36.02002
420.3629, 36.23618
420.8450, 36.59545
421.3271, 36.88379
421.8092, 37.16267
422.2914, 37.20098
422.7735, 36.60369
423.2556, 36.05626
423.7377, 36.05589
424.2198, 36.58411
424.7019, 37.20476
425.1841, 37.60984
425.6662, 37.79921
426.1483, 37.70640
426.6304, 37.08756
427.1125, 36.58757
427.5946, 36.58856
428.0768, 36.85658
428.5589, 37.04103
429.0410, 36.99088
429.5231, 36.87971
430.0052, 36.96961
430.4873, 37.26756
430.9695, 37.45022
431.4516, 37.34846
431.9337, 37.16073
432.4158, 37.13110
432.8979, 37.26174
433.3800, 37.34955
433.8622, 37.22086
434.3443, 37.00812
434.8264, 36.99097
435.3085, 37.22226
435.7906, 37.41795
436.2727, 37.33822
436.7549, 37.03659
437.2370, 36.80974
437.7191, 36.69574
438.2012, 36.62937
438.6833, 36.56814
439.1654, 36.52742
439.6476, 36.58225
440.1297, 36.78495
440.6118, 36.98046
441.0939, 36.85646
441.5760, 36.16677
442.0581, 35.85565
442.5403, 36.35563
443.0224, 36.96471
443.5045, 37.13819
443.9866, 36.87595
444.4687, 36.46131
444.9508, 36.08827
445.4330, 35.76593
445.9151, 35.58431
446.3972, 35.63074
446.8793, 35.71922
447.3614, 35.88322
447.8435, 36.04925
448.3257, 36.12233
448.8078, 36.07814
449.2899, 35.99157
449.7720, 35.99736
450.2541, 36.17278
450.7362, 36.16934
451.2184, 35.79731
451.7005, 35.41958
452.1826, 35.16375
452.6647, 35.02010
453.1468, 34.93805
453.6289, 34.90836
454.1111, 34.89540
454.5932, 34.78345
455.0753, 34.51994
455.5574, 34.31293
456.0395, 34.27501
456.5216, 34.29857
457.0038, 34.31426
457.4859, 34.31195
457.9680, 34.28535
458.4501, 34.24266
458.9322, 34.17358
459.4143, 34.01663
459.8965, 33.72404
460.3786, 33.45826
460.8607, 33.33058
461.3428, 33.32908
461.8249, 33.45225
462.3070, 33.86771
462.7892, 34.24360
463.2713, 34.29858
463.7534, 34.09235
464.2355, 33.82774
464.7176, 33.55634
465.1997, 33.32249
465.6819, 33.21561
466.1640, 33.26473
466.6461, 33.32060
467.1282, 33.35926
467.6103, 33.40418
468.0924, 33.52515
468.5746, 33.69064
469.0567, 33.72474
469.5388, 33.45968
470.0209, 32.97735
470.5030, 32.84880
470.9851, 33.61158
471.4673, 34.07441
471.9494, 33.88650
472.4315, 33.45108
472.9136, 33.17672
473.3957, 33.16106
473.8778, 33.21529
474.3600, 33.07878
474.8421, 32.69714
475.3242, 32.53278
475.8063, 32.85782
476.2884, 33.11800
476.7705, 33.07842
477.2527, 32.86176
477.7348, 32.66220
478.2169, 32.54944
478.6990, 32.55057
479.1811, 32.78090
479.6632, 33.28797
480.1454, 33.61930
480.6275, 33.56810
481.1096, 33.39893
481.5917, 33.32784
482.0738, 33.35045
482.5559, 33.38002
483.0380, 33.37079
483.5201, 33.34512
484.0023, 33.32710
484.4844, 33.31671
484.9665, 33.35530
485.4486, 33.49044
485.9307, 33.67817
486.4128, 33.79747
486.8950, 33.81280
487.3771, 33.83934
487.8592, 33.90780
488.3413, 34.01411
488.8234, 34.18739
489.3055, 34.42537
489.7877, 34.61026
490.2698, 34.60370
490.7519, 34.38852
491.2340, 34.32504
491.7161, 34.56858
492.1982, 34.75872
492.6804, 34.69391
493.1625, 34.53519
493.6446, 34.53473
494.1267, 34.78266
494.6088, 35.14496
495.0909, 35.39693
495.5731, 35.49104
496.0552, 35.62591
496.5373, 35.86674
497.0194, 36.08757
497.5015, 36.23615
497.9836, 36.32375
498.4658, 36.38013
498.9479, 36.41466
499.4300, 36.43880
499.9121, 36.46629
500.3942, 36.49058
500.8763, 36.55919
501.3585, 36.70447
501.8406, 36.88578
502.3227, 37.07652
502.8048, 37.27446
503.2869, 37.45314
503.7690, 37.60912
504.2512, 37.73446
504.7333, 37.79863
505.2154, 37.80084
505.6975, 37.80856
506.1796, 37.84071
506.6617, 37.91915
507.1439, 38.11825
507.6260, 38.52144
508.1081, 38.87455
508.5902, 39.12920
509.0723, 39.28867
509.5544, 39.32107
510.0366, 39.23744
510.5187, 39.13800
511.0008, 39.10616
511.4829, 39.14208
511.9650, 39.28439
512.4471, 39.78120
512.9293, 40.08985
513.4114, 39.87025
513.8935, 39.51798
514.3756, 39.53440
514.8577, 40.04523
515.3398, 40.70558
515.8220, 41.08098
516.3041, 41.14840
516.7862, 41.17177
517.2683, 41.09516
517.7504, 41.05120
518.2325, 41.17414
518.7147, 41.35066
519.1968, 41.34637
519.6789, 40.99099
520.1610, 40.65894
520.6431, 40.92176
521.1252, 41.67839
521.6074, 42.04878
522.0895, 41.67912
522.5716, 41.15759
523.0537, 41.18203
523.5358, 41.67206
524.0179, 42.06140
524.5001, 42.25712
524.9822, 42.32330
525.4643, 42.27242
525.9464, 42.12706
526.4285, 41.92139
526.9106, 41.65796
527.3928, 41.40931
527.8749, 41.30819
528.3570, 41.38350
528.8391, 41.55927
529.3212, 41.99049
529.8033, 42.37206
530.2855, 42.53155
530.7676, 42.49864
531.2497, 42.38514
531.7318, 42.25744
532.2139, 42.09052
532.6960, 41.77258
533.1782, 41.16657
533.6603, 40.80088
534.1424, 41.00439
534.6245, 41.28613
535.1066, 41.37141
535.5887, 41.27069
536.0709, 41.14267
536.5530, 41.10887
537.0351, 41.09164
537.5172, 40.91315
537.9993, 40.56462
538.4814, 40.26417
538.9636, 40.13341
539.4457, 40.06994
539.9278, 39.87645
540.4099, 39.51614
540.8920, 39.25914
541.3741, 39.21785
541.8563, 39.28788
542.3384, 39.45943
542.8205, 39.67579
543.3026, 39.66289
543.7847, 39.19686
544.2668, 38.47282
544.7490, 38.21461
545.2311, 38.97968
545.7132, 39.45363
546.1953, 39.46947
546.6774, 39.30056
547.1595, 39.14453
547.6417, 39.00587
548.1238, 38.75494
548.6059, 38.23548
549.0880, 37.57197
549.5701, 37.29250
550.0522, 37.55666
550.5344, 37.79710
551.0165, 37.79912
551.4986, 37.73928
551.9807, 37.76062
552.4628, 37.87083
552.9449, 37.95370
553.4271, 38.00351
553.9092, 37.95955
554.3913, 37.61187
554.8734, 36.94978
555.3555, 36.48507
555.8376, 36.60513
556.3198, 37.01221
556.8019, 36.88057
557.2840, 35.94278
557.7661, 35.23517
558.2482, 35.14289
558.7303, 35.23257
559.2125, 35.06044
559.6946, 34.65681
560.1767, 34.41437
560.6588, 34.64460
561.1409, 35.18012
561.6230, 35.27084
562.1052, 34.48893
562.5873, 33.99492
563.0694, 34.09188
563.5515, 34.32732
564.0336, 34.40669
564.5157, 34.31336
564.9979, 34.17660
565.4800, 34.11397
565.9621, 34.05624
566.4442, 33.75433
566.9263, 33.14538
567.4084, 32.73801
567.8906, 32.86066
568.3727, 33.16181
568.8548, 33.16085
569.3369, 32.84063
569.8190, 32.53348
570.3011, 32.35757
570.7833, 32.24388
571.2654, 32.12697
571.7475, 32.00700
572.2296, 31.94071
572.7117, 31.98245
573.1938, 32.01539
573.6760, 31.73620
574.1581, 30.77978
574.6402, 30.19239
575.1223, 30.23679
575.6044, 30.38540
576.0865, 30.30501
576.5687, 30.06311
577.0508, 29.93241
577.5329, 30.09293
578.0150, 30.35531
578.4971, 30.25576
578.9792, 29.70379
579.4614, 29.30848
579.9435, 29.28134
580.4256, 29.33113
580.9077, 29.24053
581.3898, 29.04054
581.8719, 28.85707
582.3541, 28.73015
582.8362, 28.64341
583.3183, 28.61646
583.8004, 28.62425
584.2825, 28.55723
584.7646, 28.36759
585.2468, 28.15400
585.7289, 28.04335
586.2110, 28.05612
586.6931, 28.06785
587.1752, 28.04658
587.6573, 28.05888
588.1394, 28.20096
588.6215, 28.37208
589.1036, 28.37578
589.5858, 28.15652
590.0679, 27.92089
590.5500, 28.00646
591.0321, 28.46498
591.5142, 28.69324
591.9963, 28.63843
592.4785, 28.41809
592.9606, 27.94520
593.4427, 27.40323
593.9248, 27.06969
594.4069, 27.03565
594.8890, 27.06642
595.3712, 26.97412
595.8533, 26.81929
596.3354, 26.72670
596.8175, 26.71121
597.2996, 26.81003
597.7817, 27.10051
598.2639, 27.52075
598.7460, 27.72170
599.2281, 27.52780
599.7102, 27.38807
600.1923, 27.44329
600.6744, 27.52826
601.1566, 27.45085
601.6387, 27.23532
602.1208, 27.08901
602.6029, 27.18708
603.0850, 27.45316
603.5671, 27.57735
604.0493, 27.50398
604.5314, 27.43815
605.0135, 27.49075
605.4956, 27.51130
605.9777, 27.32023
606.4598, 26.96705
606.9420, 26.75587
607.4241, 26.92875
607.9062, 27.25235
608.3883, 27.48475
608.8704, 27.62720
609.3525, 27.66794
609.8347, 27.58909
610.3168, 27.45710
610.7989, 27.36519
611.2810, 27.32875
611.7631, 27.25101
612.2452, 27.00114
612.7274, 26.85290
613.2095, 27.00443
613.6916, 27.30481
614.1737, 27.54339
614.6558, 27.64316
615.1379, 27.63140
615.6201, 27.48870
616.1022, 27.20735
616.5843, 27.10149
617.0664, 27.23365
617.5485, 27.43338
618.0306, 27.71811
618.5128, 27.98173
618.9949, 28.08278
619.4770, 27.98445
619.9591, 27.81067
620.4412, 27.58527
620.9233, 27.34833
621.4055, 27.15072
621.8876, 26.99942
622.3697, 26.91742
622.8518, 26.92838
623.3339, 27.00168
623.8160, 27.04709
624.2982, 27.03853
624.7803, 27.04407
625.2624, 27.08483
625.7445, 27.12034
626.2266, 27.08747
626.7087, 27.03097
627.1909, 27.06878
627.6730, 27.27512
628.1551, 27.54364
628.6372, 27.67401
629.1193, 27.66113
629.6014, 27.72884
630.0836, 28.00835
630.5657, 28.20673
631.0478, 27.89815
631.5299, 27.32503
632.0120, 27.13227
632.4941, 27.73858
632.9763, 28.26537
633.4584, 28.14522
633.9405, 27.72500
634.4226, 27.50607
634.9047, 27.57354
635.3868, 27.75699
635.8690, 27.93268
636.3511, 28.08603
636.8332, 28.09662
637.3153, 27.72211
637.7974, 27.61470
638.2795, 28.10408
638.7617, 28.65155
639.2438, 28.85569
639.7259, 28.74827
640.2080, 28.62494
640.6901, 28.66563
641.1722, 28.76775
641.6544, 28.73103
642.1365, 28.57994
642.6186, 28.58774
643.1007, 28.87278
643.5828, 29.22325
644.0649, 29.41295
644.5471, 29.43103
645.0292, 29.44656
645.5113, 29.50103
645.9934, 29.50490
646.4755, 29.36585
646.9576, 29.18682
647.4398, 29.06419
647.9219, 29.03556
648.4040, 29.15750
648.8861, 29.53966
649.3682, 30.11133
649.8503, 30.39695
650.3325, 30.28726
650.8146, 30.18296
651.2967, 30.15967
651.7788, 30.22815
652.2609, 30.47099
652.7430, 30.86680
653.2252, 31.10994
653.7073, 30.87903
654.1894, 30.61915
654.6715, 30.76529
655.1536, 31.22194
655.6357, 31.75181
656.1179, 32.27977
656.6000, 32.63118
657.0821, 32.52205
657.5642, 31.86670
658.0463, 31.61382
