##NAMES=Edingtonite
##RRUFFID=R040110
##IDEAL CHEMISTRY=Ba(Si_3_Al_2_)O_10_&#183;4H_2_O
##LOCALITY=2350 level, Brunswick 12 mine, Bathhurst, New Brunswick, Canada
##OWNER=RRUFF
##SOURCE=National Museums of Canada
##DESCRIPTION=Colorless rectangular prism
##STATUS=The identification of this mineral has been confirmed by X-ray diffraction and chemical analysis
##URL=rruff.info/R040110
##MEASURED CHEMISTRY=Ba_1.00_(Si_3.00_Al_2.00_)O_10_Â·4H_2_O
128.5412, 588.0195
129.0233, 632.1535
129.5054, 679.7609
129.9875, 728.2171
130.4697, 777.1846
130.9518, 826.5352
131.4339, 876.6992
131.9160, 928.5673
132.3981, 980.9380
132.8802, 1024.251
133.3624, 1053.931
133.8445, 1078.448
134.3266, 1096.475
134.8087, 1110.382
135.2908, 1123.721
135.7729, 1138.830
136.2551, 1155.587
136.7372, 1171.404
137.2193, 1181.582
137.7014, 1195.586
138.1835, 1217.090
138.6656, 1244.853
139.1478, 1275.103
139.6299, 1304.344
140.1120, 1332.571
140.5941, 1374.094
141.0762, 1436.809
141.5583, 1501.942
142.0405, 1559.245
142.5226, 1610.716
143.0047, 1664.859
143.4868, 1727.973
143.9689, 1800.456
144.4510, 1880.894
144.9332, 1967.200
145.4153, 2061.664
145.8974, 2169.712
146.3795, 2289.448
146.8616, 2410.061
147.3438, 2524.159
147.8259, 2630.750
148.3080, 2731.191
148.7901, 2821.872
149.2722, 2909.119
149.7543, 3000.585
150.2365, 3096.552
150.7186, 3185.820
151.2007, 3261.490
151.6828, 3321.746
152.1649, 3367.162
152.6470, 3395.438
153.1292, 3410.123
153.6113, 3417.354
154.0934, 3417.828
154.5755, 3399.824
155.0576, 3344.076
155.5397, 3258.710
156.0219, 3179.888
156.5040, 3123.686
156.9861, 3071.500
157.4682, 2998.001
157.9503, 2899.027
158.4324, 2799.949
158.9146, 2722.993
159.3967, 2661.572
159.8788, 2601.445
160.3609, 2534.648
160.8430, 2468.972
161.3251, 2419.257
161.8073, 2390.104
162.2894, 2361.679
162.7715, 2312.977
163.2536, 2255.006
163.7357, 2207.977
164.2178, 2185.121
164.7000, 2176.040
165.1821, 2162.747
165.6642, 2144.438
166.1463, 2124.172
166.6284, 2102.161
167.1105, 2079.693
167.5927, 2059.028
168.0748, 2040.751
168.5569, 2024.881
169.0390, 2012.645
169.5211, 2006.944
170.0032, 1997.956
170.4854, 1979.023
170.9675, 1953.948
171.4496, 1927.925
171.9317, 1901.182
172.4138, 1875.896
172.8959, 1858.425
173.3781, 1852.225
173.8602, 1847.172
174.3423, 1839.822
174.8244, 1830.357
175.3065, 1818.533
175.7886, 1802.522
176.2708, 1785.054
176.7529, 1774.692
177.2350, 1777.218
177.7171, 1776.059
178.1992, 1760.042
178.6813, 1738.181
179.1634, 1723.710
179.6456, 1725.522
180.1277, 1736.458
180.6098, 1733.960
181.0919, 1708.186
181.5740, 1686.206
182.0561, 1680.321
182.5383, 1681.427
183.0204, 1676.985
183.5025, 1658.861
183.9846, 1634.640
184.4667, 1627.275
184.9488, 1647.089
185.4310, 1666.575
185.9131, 1684.816
186.3952, 1696.552
186.8773, 1693.426
187.3594, 1669.474
187.8415, 1634.291
188.3237, 1613.428
188.8058, 1615.129
189.2879, 1618.179
189.7700, 1620.197
190.2521, 1620.041
190.7342, 1615.641
191.2164, 1605.734
191.6985, 1593.295
192.1806, 1585.404
192.6627, 1582.940
193.1448, 1584.042
193.6269, 1590.689
194.1091, 1598.990
194.5912, 1605.239
195.0733, 1607.955
195.5554, 1608.380
196.0375, 1609.716
196.5196, 1615.525
197.0018, 1615.035
197.4839, 1601.976
197.9660, 1585.820
198.4481, 1575.039
198.9302, 1572.410
199.4123, 1574.238
199.8945, 1573.739
200.3766, 1569.613
200.8587, 1565.622
201.3408, 1563.386
201.8229, 1560.636
202.3050, 1554.451
202.7872, 1544.368
203.2693, 1534.125
203.7514, 1531.004
204.2335, 1541.915
204.7156, 1544.052
205.1977, 1528.139
205.6799, 1510.214
206.1620, 1501.564
206.6441, 1504.178
207.1262, 1511.778
207.6083, 1516.052
208.0904, 1515.774
208.5726, 1515.036
209.0547, 1512.806
209.5368, 1510.988
210.0189, 1510.659
210.5010, 1511.957
210.9831, 1514.419
211.4653, 1517.987
211.9474, 1523.664
212.4295, 1526.570
212.9116, 1525.963
213.3937, 1523.463
213.8758, 1517.317
214.3580, 1509.137
214.8401, 1503.906
215.3222, 1507.404
215.8043, 1521.344
216.2864, 1532.624
216.7685, 1543.771
217.2507, 1550.047
217.7328, 1544.608
218.2149, 1531.733
218.6970, 1523.106
219.1791, 1530.042
219.6612, 1553.214
220.1434, 1567.350
220.6255, 1561.338
221.1076, 1556.655
221.5897, 1559.788
222.0718, 1568.732
222.5539, 1577.906
223.0361, 1582.519
223.5182, 1583.836
224.0003, 1595.290
224.4824, 1636.099
224.9645, 1666.098
225.4466, 1668.282
225.9288, 1656.209
226.4109, 1650.568
226.8930, 1663.755
227.3751, 1691.158
227.8572, 1713.323
228.3393, 1725.638
228.8215, 1738.736
229.3036, 1751.631
229.7857, 1767.158
230.2678, 1789.547
230.7499, 1820.913
231.2320, 1857.249
231.7142, 1888.944
232.1963, 1913.783
232.6784, 1937.150
233.1605, 1961.543
233.6426, 1984.038
234.1247, 2004.326
234.6069, 2021.861
235.0890, 2032.354
235.5711, 2027.334
236.0532, 2001.198
236.5353, 1972.068
237.0174, 1944.564
237.4996, 1912.802
237.9817, 1868.750
238.4638, 1812.615
238.9459, 1755.905
239.4280, 1714.501
239.9101, 1694.035
240.3923, 1667.750
240.8744, 1626.096
241.3565, 1585.524
241.8386, 1552.560
242.3207, 1528.057
242.8028, 1510.569
243.2850, 1500.256
243.7671, 1497.832
244.2492, 1493.873
244.7313, 1487.417
245.2134, 1480.135
245.6955, 1470.887
246.1777, 1461.108
246.6598, 1454.356
247.1419, 1454.590
247.6240, 1460.592
248.1061, 1461.096
248.5882, 1451.610
249.0704, 1442.358
249.5525, 1437.110
250.0346, 1434.386
250.5167, 1431.694
250.9988, 1427.594
251.4809, 1422.748
251.9631, 1419.168
252.4452, 1417.536
252.9273, 1415.778
253.4094, 1410.668
253.8915, 1406.084
254.3736, 1407.118
254.8558, 1416.386
255.3379, 1428.873
255.8200, 1436.801
256.3021, 1439.425
256.7842, 1440.169
257.2664, 1436.838
257.7485, 1433.798
258.2306, 1434.959
258.7127, 1441.262
259.1948, 1448.698
259.6769, 1452.778
260.1591, 1453.319
260.6412, 1454.843
261.1233, 1458.206
261.6054, 1462.958
262.0875, 1470.441
262.5696, 1480.183
263.0518, 1486.840
263.5339, 1483.027
264.0160, 1471.381
264.4981, 1468.829
264.9802, 1483.833
265.4623, 1497.633
265.9445, 1492.476
266.4266, 1474.061
266.9087, 1461.488
267.3908, 1467.945
267.8729, 1485.568
268.3550, 1497.270
268.8372, 1500.911
269.3193, 1504.278
269.8014, 1514.733
270.2835, 1528.396
270.7656, 1538.471
271.2477, 1540.854
271.7299, 1540.862
272.2120, 1544.377
272.6941, 1551.486
273.1762, 1559.772
273.6583, 1570.110
274.1404, 1579.746
274.6226, 1583.131
275.1047, 1575.790
275.5868, 1569.879
276.0689, 1577.829
276.5510, 1595.370
277.0331, 1603.653
277.5153, 1592.664
277.9974, 1573.958
278.4795, 1568.373
278.9616, 1579.057
279.4437, 1585.420
279.9258, 1576.697
280.4080, 1559.584
280.8901, 1544.321
281.3722, 1532.637
281.8543, 1526.019
282.3364, 1529.259
282.8185, 1543.742
283.3007, 1550.093
283.7828, 1538.777
284.2649, 1523.069
284.7470, 1515.545
285.2291, 1516.867
285.7112, 1519.346
286.1934, 1517.027
286.6755, 1509.823
287.1576, 1502.032
287.6397, 1490.562
288.1218, 1481.506
288.6039, 1478.375
289.0861, 1480.098
289.5682, 1484.174
290.0503, 1489.658
290.5324, 1495.710
291.0145, 1498.578
291.4966, 1497.132
291.9788, 1494.182
292.4609, 1489.142
292.9430, 1483.167
293.4251, 1476.719
293.9072, 1470.057
294.3893, 1465.317
294.8715, 1466.724
295.3536, 1480.287
295.8357, 1488.639
296.3178, 1488.499
296.7999, 1485.901
297.2820, 1485.284
297.7642, 1486.956
298.2463, 1488.082
298.7284, 1485.226
299.2105, 1477.271
299.6926, 1473.192
300.1747, 1470.699
300.6569, 1474.180
301.1390, 1492.490
301.6211, 1517.990
302.1032, 1534.093
302.5853, 1528.113
303.0674, 1505.893
303.5495, 1498.321
304.0316, 1519.925
304.5138, 1535.005
304.9959, 1530.755
305.4780, 1519.312
305.9601, 1514.347
306.4422, 1521.067
306.9243, 1532.697
307.4065, 1537.856
307.8886, 1534.596
308.3707, 1532.043
308.8528, 1530.386
309.3349, 1530.974
309.8170, 1536.385
310.2992, 1546.242
310.7813, 1555.280
311.2634, 1558.165
311.7455, 1555.515
312.2276, 1554.318
312.7097, 1556.907
313.1919, 1558.184
313.6740, 1554.219
314.1561, 1546.569
314.6382, 1539.258
315.1203, 1533.347
315.6024, 1529.203
316.0846, 1528.226
316.5667, 1531.021
317.0488, 1533.524
317.5309, 1534.622
318.0130, 1533.551
318.4951, 1528.352
318.9773, 1515.638
319.4594, 1504.367
319.9415, 1503.974
320.4236, 1511.710
320.9057, 1514.519
321.3878, 1506.354
321.8700, 1493.957
322.3521, 1488.294
322.8342, 1490.020
323.3163, 1492.065
323.7984, 1491.769
324.2805, 1490.972
324.7627, 1492.471
325.2448, 1496.729
325.7269, 1501.339
326.2090, 1503.910
326.6911, 1504.184
327.1732, 1505.250
327.6554, 1509.983
328.1375, 1512.875
328.6196, 1506.524
329.1017, 1495.095
329.5838, 1492.255
330.0659, 1507.426
330.5481, 1534.879
331.0302, 1548.119
331.5123, 1530.470
331.9944, 1519.268
332.4765, 1521.289
332.9586, 1530.262
333.4408, 1540.604
333.9229, 1550.238
334.4050, 1558.454
334.8871, 1564.627
335.3692, 1570.155
335.8513, 1569.333
336.3335, 1551.825
336.8156, 1537.803
337.2977, 1539.707
337.7798, 1555.064
338.2619, 1573.569
338.7440, 1588.454
339.2262, 1599.356
339.7083, 1602.200
340.1904, 1589.727
340.6725, 1579.787
341.1546, 1579.150
341.6367, 1583.162
342.1189, 1585.436
342.6010, 1583.119
343.0831, 1580.468
343.5652, 1584.724
344.0473, 1597.022
344.5294, 1608.353
345.0116, 1618.260
345.4937, 1624.881
345.9758, 1624.753
346.4579, 1618.061
346.9400, 1613.739
347.4221, 1620.412
347.9043, 1633.707
348.3864, 1640.734
348.8685, 1638.587
349.3506, 1635.365
349.8327, 1639.171
350.3148, 1647.234
350.7970, 1651.068
351.2791, 1644.735
351.7612, 1637.176
352.2433, 1636.241
352.7254, 1640.870
353.2076, 1645.321
353.6897, 1646.810
354.1718, 1646.552
354.6539, 1647.972
355.1360, 1652.681
355.6181, 1655.399
356.1003, 1651.898
356.5824, 1647.162
357.0645, 1648.015
357.5466, 1655.645
358.0287, 1664.996
358.5108, 1670.572
358.9930, 1671.906
359.4751, 1671.663
359.9572, 1667.720
360.4393, 1664.542
360.9214, 1666.514
361.4035, 1670.739
361.8857, 1670.148
362.3678, 1660.004
362.8499, 1643.903
363.3320, 1635.273
363.8141, 1640.197
364.2962, 1643.063
364.7784, 1638.269
365.2605, 1633.178
365.7426, 1636.382
366.2247, 1648.686
366.7068, 1660.197
367.1889, 1657.589
367.6711, 1639.658
368.1532, 1627.717
368.6353, 1627.448
369.1174, 1627.511
369.5995, 1618.382
370.0816, 1604.987
370.5638, 1599.659
371.0459, 1612.094
371.5280, 1632.649
372.0101, 1645.007
372.4922, 1648.481
372.9743, 1650.195
373.4565, 1652.563
373.9386, 1655.071
374.4207, 1656.883
374.9028, 1657.763
375.3849, 1658.701
375.8670, 1657.377
376.3492, 1656.933
376.8313, 1667.051
377.3134, 1691.311
377.7955, 1713.250
378.2776, 1713.041
378.7597, 1687.640
379.2419, 1675.473
379.7240, 1689.502
380.2061, 1705.633
380.6882, 1709.328
381.1703, 1703.130
381.6524, 1695.397
382.1346, 1690.244
382.6167, 1688.085
383.0988, 1690.269
383.5809, 1702.205
384.0630, 1711.535
384.5451, 1718.489
385.0273, 1722.454
385.5094, 1720.985
385.9915, 1714.853
386.4736, 1709.569
386.9557, 1711.964
387.4378, 1722.702
387.9200, 1728.129
388.4021, 1724.665
388.8842, 1719.672
389.3663, 1713.235
389.8484, 1707.445
390.3305, 1706.097
390.8127, 1711.776
391.2948, 1719.627
391.7769, 1722.089
392.2590, 1718.800
392.7411, 1712.760
393.2232, 1698.099
393.7054, 1687.378
394.1875, 1694.912
394.6696, 1720.570
395.1517, 1744.417
395.6338, 1757.086
396.1159, 1761.609
396.5981, 1760.430
397.0802, 1753.234
397.5623, 1749.631
398.0444, 1757.962
398.5265, 1775.765
399.0086, 1788.690
399.4908, 1794.246
399.9729, 1797.747
400.4550, 1799.670
400.9371, 1801.230
401.4192, 1805.651
401.9013, 1814.043
402.3835, 1821.802
402.8656, 1821.803
403.3477, 1810.682
403.8298, 1801.747
404.3119, 1794.286
404.7940, 1789.233
405.2762, 1787.496
405.7583, 1788.557
406.2404, 1791.843
406.7225, 1797.566
407.2046, 1803.934
407.6867, 1803.733
408.1689, 1792.337
408.6510, 1783.893
409.1331, 1783.253
409.6152, 1784.941
410.0973, 1783.618
410.5794, 1778.833
411.0616, 1776.429
411.5437, 1786.368
412.0258, 1804.544
412.5079, 1806.247
412.9900, 1781.934
413.4721, 1760.309
413.9543, 1767.750
414.4364, 1791.693
414.9185, 1807.486
415.4006, 1805.127
415.8827, 1800.184
416.3648, 1803.510
416.8470, 1813.488
417.3291, 1826.101
417.8112, 1840.747
418.2933, 1854.677
418.7754, 1863.955
419.2575, 1868.123
419.7397, 1868.168
420.2218, 1854.449
420.7039, 1844.534
421.1860, 1853.997
421.6681, 1878.556
422.1502, 1902.462
422.6324, 1915.670
423.1145, 1920.276
423.5966, 1925.447
424.0787, 1933.675
424.5608, 1938.386
425.0429, 1932.436
425.5251, 1927.332
426.0072, 1934.480
426.4893, 1954.366
426.9714, 1976.080
427.4535, 1988.208
427.9356, 1991.884
428.4178, 2000.483
428.8999, 2018.086
429.3820, 2032.692
429.8641, 2036.839
430.3462, 2034.566
430.8283, 2030.707
431.3105, 2024.618
431.7926, 2021.015
432.2747, 2028.319
432.7568, 2042.131
433.2389, 2044.874
433.7210, 2029.844
434.2032, 2010.293
434.6853, 2003.164
435.1674, 2010.338
435.6495, 2009.711
436.1316, 1990.544
436.6137, 1971.906
437.0959, 1969.270
437.5780, 1976.874
438.0601, 1977.917
438.5422, 1963.366
439.0243, 1939.909
439.5064, 1924.779
439.9886, 1924.036
440.4707, 1921.115
440.9528, 1919.345
441.4349, 1912.591
441.9170, 1893.296
442.3991, 1864.379
442.8813, 1836.930
443.3634, 1819.313
443.8455, 1809.785
444.3276, 1802.151
444.8097, 1797.128
445.2918, 1791.992
445.7740, 1786.585
446.2561, 1779.998
446.7382, 1770.291
447.2203, 1756.686
447.7024, 1744.618
448.1845, 1739.226
448.6667, 1737.375
449.1488, 1730.640
449.6309, 1717.252
450.1130, 1708.490
450.5951, 1716.296
451.0772, 1737.938
451.5594, 1745.826
452.0415, 1728.547
452.5236, 1711.938
453.0057, 1703.376
453.4878, 1700.964
453.9699, 1703.614
454.4521, 1710.482
454.9342, 1717.588
455.4163, 1720.183
455.8984, 1718.403
456.3805, 1711.339
456.8626, 1686.980
457.3448, 1669.787
457.8269, 1672.346
458.3090, 1685.834
458.7911, 1696.225
459.2732, 1697.693
459.7553, 1693.674
460.2375, 1687.237
460.7196, 1678.314
461.2017, 1673.484
461.6838, 1675.592
462.1659, 1680.058
462.6480, 1682.326
463.1302, 1683.039
463.6123, 1685.883
464.0944, 1696.191
464.5765, 1705.668
465.0586, 1703.902
465.5407, 1694.047
466.0229, 1689.620
466.5050, 1697.245
466.9871, 1710.596
467.4692, 1716.937
467.9513, 1709.612
468.4334, 1709.496
468.9156, 1724.545
469.3977, 1739.772
469.8798, 1743.524
470.3619, 1738.966
470.8440, 1737.910
471.3261, 1748.811
471.8083, 1765.569
472.2904, 1768.330
472.7725, 1748.908
473.2546, 1737.816
473.7367, 1747.855
474.2188, 1764.008
474.7010, 1779.411
475.1831, 1792.801
475.6652, 1801.663
476.1473, 1800.038
476.6294, 1794.743
477.1115, 1799.172
477.5937, 1813.700
478.0758, 1826.029
478.5579, 1828.381
479.0400, 1825.994
479.5221, 1832.756
480.0042, 1853.837
480.4864, 1869.615
480.9685, 1869.123
481.4506, 1866.602
481.9327, 1877.606
482.4148, 1901.006
482.8969, 1922.832
483.3791, 1932.293
483.8612, 1931.964
484.3433, 1936.198
484.8254, 1945.394
485.3075, 1958.987
485.7896, 1980.791
486.2718, 2003.620
486.7539, 2021.659
487.2360, 2034.423
487.7181, 2045.040
488.2002, 2057.484
488.6823, 2069.615
489.1645, 2072.995
489.6466, 2065.682
490.1287, 2060.571
490.6108, 2064.773
491.0929, 2075.120
491.5750, 2084.687
492.0572, 2093.738
492.5393, 2101.346
493.0214, 2105.971
493.5035, 2109.605
493.9856, 2114.951
494.4677, 2121.959
494.9499, 2128.374
495.4320, 2132.612
495.9141, 2134.672
496.3962, 2134.418
496.8783, 2126.220
497.3604, 2123.863
497.8426, 2133.657
498.3247, 2146.112
498.8068, 2153.921
499.2889, 2156.049
499.7710, 2155.120
500.2531, 2151.218
500.7353, 2146.063
501.2174, 2147.638
501.6995, 2158.116
502.1816, 2165.926
502.6637, 2163.315
503.1458, 2156.723
503.6280, 2156.163
504.1101, 2162.591
504.5922, 2171.772
505.0743, 2184.318
505.5564, 2197.524
506.0385, 2206.642
506.5207, 2212.291
507.0028, 2220.145
507.4849, 2233.769
507.9670, 2253.045
508.4491, 2277.282
508.9312, 2308.906
509.4134, 2342.520
509.8955, 2372.097
510.3776, 2407.764
510.8597, 2459.339
511.3418, 2525.072
511.8239, 2593.352
512.3061, 2652.862
512.7882, 2710.699
513.2703, 2790.151
513.7524, 2894.513
514.2346, 2996.912
514.7167, 3081.778
515.1988, 3165.837
515.6809, 3269.644
516.1630, 3393.838
516.6451, 3528.546
517.1273, 3672.029
517.6094, 3823.980
518.0915, 3983.271
518.5736, 4151.095
519.0557, 4336.415
519.5378, 4543.991
520.0200, 4768.417
520.5021, 4996.559
520.9842, 5227.566
521.4663, 5465.956
521.9484, 5713.920
522.4305, 5965.662
522.9127, 6211.832
523.3948, 6460.237
523.8769, 6727.172
524.3590, 7027.100
524.8411, 7340.137
525.3232, 7641.969
525.8054, 7932.457
526.2875, 8192.494
526.7696, 8424.399
527.2517, 8613.681
527.7338, 8741.110
528.2159, 8811.421
528.6981, 8830.229
529.1802, 8800.510
529.6623, 8716.911
530.1444, 8575.973
530.6265, 8378.833
531.1086, 8121.772
531.5908, 7803.434
532.0729, 7447.923
532.5550, 7085.480
533.0371, 6713.063
533.5192, 6343.820
534.0013, 5958.914
534.4835, 5598.134
534.9656, 5273.122
535.4477, 4979.443
535.9298, 4710.956
536.4119, 4465.791
536.8940, 4236.482
537.3762, 4015.566
537.8583, 3805.220
538.3404, 3613.525
538.8225, 3442.537
539.3046, 3289.687
539.7867, 3157.541
540.2689, 3043.407
540.7510, 2935.479
541.2331, 2831.406
541.7152, 2734.536
542.1973, 2644.806
542.6794, 2563.105
543.1616, 2491.248
543.6437, 2428.374
544.1258, 2370.928
544.6079, 2316.181
545.0900, 2264.288
545.5721, 2216.250
546.0543, 2173.141
546.5364, 2130.984
547.0185, 2083.609
547.5006, 2041.229
547.9827, 2015.981
548.4648, 2006.277
548.9469, 1991.119
549.4290, 1952.632
549.9111, 1910.487
550.3932, 1889.686
550.8754, 1885.658
551.3575, 1876.601
551.8396, 1853.006
552.3217, 1824.190
552.8038, 1806.349
553.2859, 1807.006
553.7681, 1792.546
554.2502, 1742.236
554.7323, 1701.096
555.2144, 1693.121
555.6965, 1704.382
556.1786, 1713.784
556.6608, 1713.773
557.1429, 1705.771
557.6250, 1686.768
558.1071, 1659.060
558.5892, 1642.303
559.0714, 1640.302
559.5535, 1643.193
560.0356, 1648.107
560.5177, 1652.418
560.9998, 1648.488
561.4819, 1631.614
561.9641, 1614.648
562.4462, 1599.850
562.9283, 1588.010
563.4104, 1579.685
563.8925, 1575.065
564.3746, 1575.119
564.8568, 1581.534
565.3389, 1591.405
565.8210, 1592.831
566.3031, 1582.462
566.7852, 1572.113
567.2673, 1562.651
567.7495, 1554.734
568.2316, 1548.954
568.7137, 1545.183
569.1958, 1542.812
569.6779, 1543.872
570.1600, 1544.151
570.6422, 1536.475
571.1243, 1524.052
571.6064, 1519.372
572.0885, 1526.917
572.5706, 1536.471
573.0527, 1535.474
573.5349, 1522.638
574.0170, 1511.288
574.4991, 1496.792
574.9812, 1489.069
575.4633, 1496.196
575.9454, 1508.464
576.4276, 1514.770
576.9097, 1512.875
577.3918, 1509.224
577.8739, 1508.903
578.3560, 1511.513
578.8381, 1518.049
579.3203, 1529.793
579.8024, 1533.006
580.2845, 1516.260
580.7666, 1491.843
581.2487, 1484.529
581.7308, 1497.027
582.2130, 1510.721
582.6951, 1527.436
583.1772, 1540.617
583.6593, 1544.483
584.1414, 1541.479
584.6235, 1536.763
585.1057, 1532.668
585.5878, 1529.680
586.0699, 1528.548
586.5520, 1529.311
587.0341, 1532.110
587.5162, 1539.880
587.9984, 1544.862
588.4805, 1539.550
588.9626, 1529.383
589.4447, 1523.185
589.9268, 1522.876
590.4089, 1524.506
590.8911, 1527.674
591.3732, 1530.899
591.8553, 1530.813
592.3374, 1528.183
592.8195, 1529.327
593.3016, 1539.293
593.7838, 1553.467
594.2659, 1556.391
594.7480, 1540.000
595.2301, 1531.529
595.7122, 1541.452
596.1943, 1552.366
596.6765, 1557.163
597.1586, 1555.983
597.6407, 1549.883
598.1228, 1537.175
598.6049, 1523.778
599.0870, 1515.002
599.5692, 1509.678
600.0513, 1503.573
600.5334, 1495.831
601.0155, 1493.250
601.4976, 1503.814
601.9797, 1524.533
602.4619, 1530.816
602.9440, 1506.522
603.4261, 1489.550
603.9082, 1486.419
604.3903, 1488.567
604.8724, 1491.476
605.3546, 1493.823
605.8367, 1494.490
606.3188, 1493.641
606.8009, 1489.685
607.2830, 1477.481
607.7651, 1458.504
608.2473, 1444.831
608.7294, 1439.718
609.2115, 1439.514
609.6936, 1441.622
610.1757, 1446.050
610.6578, 1447.592
611.1400, 1444.436
611.6221, 1440.989
612.1042, 1439.164
612.5863, 1436.961
613.0684, 1431.203
613.5505, 1422.398
614.0327, 1415.333
614.5148, 1415.028
614.9969, 1417.858
615.4790, 1413.708
615.9611, 1402.168
616.4432, 1393.132
616.9254, 1390.226
617.4075, 1389.448
617.8896, 1385.933
618.3717, 1379.605
618.8538, 1376.151
619.3359, 1377.891
619.8181, 1380.109
620.3002, 1383.224
620.7823, 1384.681
621.2644, 1378.461
621.7465, 1365.276
622.2286, 1356.261
622.7108, 1363.782
623.1929, 1382.481
623.6750, 1390.497
624.1571, 1386.070
