##NAMES=Edingtonite
##RRUFFID=R040003
##IDEAL CHEMISTRY=Ba(Si_3_Al_2_)O_10_&#183;4H_2_O
##LOCALITY=Bohl, Sweden
##OWNER=RRUFF
##SOURCE=University of Arizona Mineral Museum
##DESCRIPTION=Colorless tetragonal prism
##STATUS=The identification of this mineral has been confirmed by X-ray diffraction and chemical analysis
##URL=rruff.info/R040003
##MEASURED CHEMISTRY=Ba_1.00_(Si_3.00_Al_2.00_)O_10_Â·4H_2_O; trace amounts of Na; H_2_O estimated by difference
121.0460, 1235.893
121.5281, 1270.684
122.0102, 1298.136
122.4924, 1331.002
122.9745, 1369.633
123.4566, 1420.060
123.9387, 1488.902
124.4208, 1578.085
124.9029, 1684.702
125.3851, 1812.479
125.8672, 1967.648
126.3493, 2114.282
126.8314, 2222.898
127.3135, 2318.942
127.7956, 2428.093
128.2778, 2555.998
128.7599, 2703.194
129.2420, 2873.948
129.7241, 3078.682
130.2062, 3281.792
130.6883, 3493.640
131.1705, 3690.538
131.6526, 3841.631
132.1347, 3932.092
132.6168, 3966.856
133.0989, 3957.779
133.5810, 3890.844
134.0632, 3795.026
134.5453, 3664.856
135.0274, 3519.186
135.5095, 3383.204
135.9916, 3266.418
136.4737, 3171.684
136.9559, 3124.926
137.4380, 3146.846
137.9201, 3200.867
138.4022, 3270.480
138.8843, 3361.958
139.3664, 3488.076
139.8486, 3656.311
140.3307, 3867.302
140.8128, 4122.304
141.2949, 4444.823
141.7770, 4796.416
142.2591, 5195.911
142.7413, 5619.158
143.2234, 6018.503
143.7055, 6347.006
144.1876, 6596.251
144.6697, 6842.994
145.1518, 7068.439
145.6340, 7307.617
146.1161, 7579.850
146.5982, 7880.913
147.0803, 8192.213
147.5624, 8498.985
148.0445, 8802.020
148.5267, 9093.533
149.0088, 9379.278
149.4909, 9650.389
149.9730, 9910.263
150.4551, 10155.16
150.9372, 10373.07
151.4194, 10553.68
151.9015, 10697.04
152.3836, 10790.03
152.8657, 10835.00
153.3478, 10838.46
153.8299, 10804.32
154.3121, 10733.22
154.7942, 10622.00
155.2763, 10465.63
155.7584, 10248.31
156.2405, 10016.74
156.7226, 9747.622
157.2048, 9480.953
157.6869, 9249.995
158.1690, 9060.061
158.6511, 8883.200
159.1332, 8683.660
159.6153, 8440.704
160.0975, 8223.546
160.5796, 8046.685
161.0617, 7885.801
161.5438, 7716.845
162.0259, 7535.413
162.5080, 7355.802
162.9902, 7198.934
163.4723, 7072.865
163.9544, 6954.335
164.4365, 6845.667
164.9186, 6743.186
165.4007, 6647.723
165.8829, 6559.268
166.3650, 6468.776
166.8471, 6362.652
167.3292, 6237.643
167.8113, 6105.921
168.2934, 5962.067
168.7756, 5814.917
169.2577, 5678.012
169.7398, 5555.634
170.2219, 5436.546
170.7040, 5300.127
171.1861, 5135.940
171.6683, 4989.739
172.1504, 4875.152
172.6325, 4780.730
173.1146, 4692.844
173.5967, 4607.989
174.0788, 4526.929
174.5610, 4449.833
175.0431, 4375.777
175.5252, 4307.352
176.0073, 4247.308
176.4894, 4192.456
176.9715, 4137.218
177.4537, 4079.672
177.9358, 4022.801
178.4179, 3973.046
178.9000, 3931.727
179.3821, 3888.664
179.8642, 3834.816
180.3464, 3778.930
180.8285, 3736.049
181.3106, 3711.320
181.7927, 3696.827
182.2748, 3683.141
182.7569, 3671.343
183.2391, 3654.623
183.7212, 3626.652
184.2033, 3593.295
184.6854, 3564.998
185.1675, 3545.050
185.6496, 3529.066
186.1318, 3511.559
186.6139, 3492.955
187.0960, 3472.321
187.5781, 3446.829
188.0602, 3419.652
188.5423, 3396.824
189.0245, 3381.074
189.5066, 3367.203
189.9887, 3347.154
190.4708, 3320.851
190.9529, 3296.156
191.4350, 3276.787
191.9172, 3260.689
192.3993, 3243.075
192.8814, 3221.764
193.3635, 3202.133
193.8456, 3193.901
194.3277, 3197.063
194.8099, 3196.742
195.2920, 3185.378
195.7741, 3168.046
196.2562, 3153.770
196.7383, 3144.688
197.2204, 3137.838
197.7026, 3127.911
198.1847, 3114.793
198.6668, 3107.937
199.1489, 3113.995
199.6310, 3127.271
200.1131, 3139.357
200.5953, 3149.533
201.0774, 3155.548
201.5595, 3151.422
202.0416, 3138.341
202.5237, 3127.801
203.0058, 3124.799
203.4880, 3125.778
203.9701, 3126.916
204.4522, 3128.848
204.9343, 3125.918
205.4164, 3108.948
205.8985, 3079.846
206.3807, 3050.463
206.8628, 3018.754
207.3449, 2990.069
207.8270, 2974.331
208.3091, 2974.606
208.7912, 2977.863
209.2734, 2970.927
209.7555, 2955.279
210.2376, 2940.507
210.7197, 2931.791
211.2018, 2923.510
211.6839, 2907.975
212.1660, 2883.966
212.6482, 2857.304
213.1303, 2832.683
213.6124, 2809.820
214.0945, 2787.712
214.5766, 2769.238
215.0587, 2749.811
215.5409, 2723.417
216.0230, 2689.471
216.5051, 2655.115
216.9872, 2627.200
217.4693, 2604.366
217.9514, 2577.814
218.4336, 2543.461
218.9157, 2507.271
219.3978, 2475.442
219.8799, 2448.057
220.3620, 2419.215
220.8441, 2382.601
221.3263, 2340.545
221.8084, 2305.680
222.2905, 2281.598
222.7726, 2262.450
223.2547, 2244.416
223.7368, 2227.425
224.2190, 2211.122
224.7011, 2192.412
225.1832, 2175.145
225.6653, 2172.103
226.1474, 2195.295
226.6295, 2221.517
227.1117, 2233.656
227.5938, 2235.560
228.0759, 2245.068
228.5580, 2273.072
229.0401, 2315.390
229.5222, 2354.438
230.0044, 2381.481
230.4865, 2415.769
230.9686, 2467.330
231.4507, 2532.943
231.9328, 2605.393
232.4149, 2682.750
232.8971, 2762.701
233.3792, 2840.387
233.8613, 2921.739
234.3434, 2992.670
234.8255, 3047.926
235.3076, 3089.391
235.7898, 3122.217
236.2719, 3149.217
236.7540, 3165.974
237.2361, 3160.520
237.7182, 3128.325
238.2003, 3088.119
238.6825, 3034.751
239.1646, 2978.080
239.6467, 2934.795
240.1288, 2910.595
240.6109, 2892.747
241.0930, 2859.371
241.5752, 2802.520
242.0573, 2749.138
242.5394, 2703.610
243.0215, 2661.091
243.5036, 2615.541
243.9857, 2565.822
244.4679, 2517.239
244.9500, 2477.836
245.4321, 2454.824
245.9142, 2418.400
246.3963, 2353.597
246.8784, 2286.235
247.3606, 2237.339
247.8427, 2208.279
248.3248, 2183.914
248.8069, 2147.856
249.2890, 2095.517
249.7711, 2059.201
250.2533, 2050.489
250.7354, 2045.331
251.2175, 2029.467
251.6996, 2004.703
252.1817, 1982.410
252.6638, 1972.884
253.1460, 1976.776
253.6281, 1972.565
254.1102, 1954.158
254.5923, 1935.092
255.0744, 1916.541
255.5565, 1900.760
256.0387, 1892.194
256.5208, 1894.494
257.0029, 1905.749
257.4850, 1911.853
257.9671, 1913.136
258.4492, 1908.376
258.9314, 1891.879
259.4135, 1870.587
259.8956, 1853.823
260.3777, 1846.300
260.8598, 1845.163
261.3419, 1841.826
261.8241, 1834.592
262.3062, 1827.534
262.7883, 1819.392
263.2704, 1812.460
263.7525, 1810.281
264.2346, 1813.852
264.7168, 1818.408
265.1989, 1813.696
265.6810, 1790.171
266.1631, 1779.849
266.6452, 1795.081
267.1273, 1815.414
267.6095, 1828.783
268.0916, 1832.596
268.5737, 1830.005
269.0558, 1821.413
269.5379, 1803.290
270.0201, 1796.782
270.5022, 1815.853
270.9843, 1836.747
271.4664, 1850.038
271.9485, 1855.646
272.4306, 1857.989
272.9128, 1859.456
273.3949, 1860.182
273.8770, 1863.195
274.3591, 1869.989
274.8412, 1877.287
275.3233, 1883.592
275.8055, 1889.168
276.2876, 1894.768
276.7697, 1901.388
277.2518, 1908.155
277.7339, 1912.212
278.2160, 1912.147
278.6982, 1912.633
279.1803, 1916.448
279.6624, 1922.012
280.1445, 1927.838
280.6266, 1935.083
281.1087, 1940.107
281.5909, 1935.167
282.0730, 1918.680
282.5551, 1907.439
283.0372, 1910.698
283.5193, 1922.064
284.0014, 1933.765
284.4836, 1945.765
284.9657, 1956.204
285.4478, 1961.842
285.9299, 1963.887
286.4120, 1968.624
286.8941, 1977.098
287.3763, 1990.427
287.8584, 2012.015
288.3405, 2043.589
288.8226, 2070.384
289.3047, 2082.187
289.7868, 2085.947
290.2690, 2095.550
290.7511, 2114.786
291.2332, 2134.929
291.7153, 2144.805
292.1974, 2144.036
292.6795, 2145.682
293.1617, 2152.473
293.6438, 2161.752
294.1259, 2173.851
294.6080, 2187.884
295.0901, 2196.114
295.5722, 2190.606
296.0544, 2171.437
296.5365, 2158.522
297.0186, 2158.767
297.5007, 2158.004
297.9828, 2146.447
298.4649, 2128.002
298.9471, 2114.014
299.4292, 2111.412
299.9113, 2117.250
300.3934, 2117.703
300.8755, 2108.830
301.3576, 2099.533
301.8398, 2087.784
302.3219, 2077.505
302.8040, 2075.827
303.2861, 2085.100
303.7682, 2097.433
304.2503, 2096.580
304.7325, 2062.946
305.2146, 2050.516
305.6967, 2079.347
306.1788, 2112.226
306.6609, 2121.236
307.1430, 2104.287
307.6252, 2080.305
308.1073, 2069.959
308.5894, 2075.273
309.0715, 2081.404
309.5536, 2094.828
310.0357, 2102.982
310.5179, 2098.205
311.0000, 2084.221
311.4821, 2070.504
311.9642, 2063.812
312.4463, 2062.431
312.9284, 2057.978
313.4106, 2049.792
313.8927, 2039.498
314.3748, 2026.674
314.8569, 2012.695
315.3390, 1998.939
315.8211, 1985.470
316.3033, 1973.609
316.7854, 1967.810
317.2675, 1969.937
317.7496, 1963.912
318.2317, 1934.755
318.7138, 1901.770
319.1960, 1884.309
319.6781, 1885.241
320.1602, 1890.261
320.6423, 1889.784
321.1244, 1885.065
321.6065, 1880.439
322.0887, 1875.103
322.5708, 1873.217
323.0529, 1882.329
323.5350, 1900.837
324.0171, 1915.419
324.4992, 1917.713
324.9814, 1916.373
325.4635, 1922.004
325.9456, 1935.487
326.4277, 1951.334
326.9098, 1966.607
327.3919, 1980.857
327.8741, 1991.890
328.3562, 1997.206
328.8383, 2001.934
329.3204, 2008.365
329.8025, 2016.178
330.2846, 2023.948
330.7668, 2030.622
331.2489, 2037.799
331.7310, 2049.972
332.2131, 2072.794
332.6952, 2093.029
333.1773, 2111.177
333.6595, 2125.691
334.1415, 2133.023
334.6237, 2133.080
335.1058, 2131.376
335.5879, 2135.576
336.0700, 2148.712
336.5521, 2157.410
337.0342, 2155.856
337.5164, 2155.757
337.9985, 2163.394
338.4806, 2177.434
338.9627, 2193.148
339.4448, 2207.490
339.9269, 2220.299
340.4091, 2230.121
340.8912, 2233.863
341.3733, 2239.132
341.8554, 2252.501
342.3375, 2266.724
342.8196, 2272.375
343.3018, 2265.200
343.7839, 2251.480
344.2660, 2239.348
344.7481, 2228.625
345.2302, 2220.994
345.7123, 2222.577
346.1945, 2222.865
346.6766, 2210.432
347.1587, 2184.649
347.6408, 2161.887
348.1229, 2155.079
348.6050, 2159.325
349.0872, 2159.456
349.5693, 2151.887
350.0514, 2145.411
350.5335, 2149.714
351.0156, 2162.244
351.4977, 2172.418
351.9799, 2173.975
352.4620, 2175.833
352.9441, 2182.978
353.4262, 2196.331
353.9083, 2220.591
354.3904, 2260.369
354.8726, 2311.646
355.3547, 2358.349
355.8368, 2404.687
356.3189, 2442.297
356.8010, 2466.314
357.2831, 2481.904
357.7653, 2494.463
358.2474, 2505.739
358.7295, 2516.932
359.2116, 2530.166
359.6937, 2547.506
360.1758, 2560.471
360.6580, 2570.599
361.1401, 2575.761
361.6222, 2576.313
362.1043, 2571.053
362.5864, 2556.661
363.0685, 2529.383
363.5507, 2490.952
364.0328, 2455.422
364.5149, 2427.012
364.9970, 2395.020
365.4791, 2352.817
365.9612, 2307.581
366.4434, 2267.413
366.9255, 2234.904
367.4076, 2207.772
367.8897, 2183.560
368.3718, 2162.458
368.8539, 2141.865
369.3361, 2121.302
369.8182, 2101.224
370.3003, 2081.530
370.7824, 2062.338
371.2645, 2045.221
371.7466, 2030.446
372.2288, 2018.501
372.7109, 2012.170
373.1930, 2012.684
373.6751, 2010.745
374.1572, 1996.200
374.6393, 1973.593
375.1215, 1962.349
375.6036, 1973.120
376.0857, 1985.667
376.5678, 1988.650
377.0499, 1985.079
377.5320, 1981.041
378.0142, 1978.233
378.4963, 1979.423
378.9784, 1990.989
379.4605, 2027.300
379.9426, 2046.829
380.4247, 2033.552
380.9069, 2014.458
381.3890, 2012.472
381.8711, 2027.514
382.3532, 2042.557
382.8353, 2042.399
383.3174, 2027.018
383.7996, 2009.355
384.2817, 1978.882
384.7638, 1958.285
385.2459, 1959.767
385.7280, 1971.810
386.2101, 1979.437
386.6923, 1976.497
387.1744, 1966.557
387.6565, 1953.304
388.1386, 1934.876
388.6207, 1923.633
389.1028, 1930.082
389.5850, 1937.837
390.0671, 1931.749
390.5492, 1912.861
391.0313, 1899.517
391.5134, 1908.204
391.9955, 1928.852
392.4777, 1938.659
392.9598, 1934.611
393.4419, 1928.793
393.9240, 1925.696
394.4061, 1927.752
394.8882, 1941.672
395.3704, 1980.618
395.8525, 2017.549
396.3346, 2034.630
396.8167, 2039.728
397.2988, 2050.138
397.7809, 2072.324
398.2631, 2100.118
398.7452, 2123.302
399.2273, 2138.426
399.7094, 2156.670
400.1915, 2185.131
400.6736, 2210.782
401.1558, 2222.343
401.6379, 2222.469
402.1200, 2223.710
402.6021, 2236.814
403.0842, 2258.994
403.5663, 2268.137
404.0485, 2258.166
404.5306, 2243.313
405.0127, 2220.978
405.4948, 2198.590
405.9769, 2185.549
406.4590, 2184.626
406.9412, 2185.759
407.4233, 2177.550
407.9054, 2160.099
408.3875, 2141.189
408.8696, 2121.867
409.3517, 2101.079
409.8339, 2073.429
410.3160, 2042.181
410.7981, 2021.835
411.2802, 2023.698
411.7623, 2034.568
412.2444, 2039.291
412.7266, 2038.575
413.2087, 2041.734
413.6908, 2053.782
414.1729, 2072.402
414.6550, 2092.223
415.1371, 2116.262
415.6193, 2135.598
416.1014, 2142.451
416.5835, 2146.920
417.0656, 2159.316
417.5477, 2181.339
418.0298, 2208.901
418.5120, 2238.814
418.9941, 2271.211
419.4762, 2302.459
419.9583, 2329.829
420.4404, 2359.050
420.9225, 2392.575
421.4047, 2428.656
421.8868, 2464.080
422.3689, 2497.261
422.8510, 2531.839
423.3331, 2575.692
423.8152, 2631.423
424.2974, 2679.915
424.7795, 2709.273
425.2616, 2738.798
425.7437, 2785.265
426.2258, 2846.112
426.7079, 2903.121
427.1901, 2942.342
427.6722, 2974.650
428.1543, 3020.444
428.6364, 3080.052
429.1185, 3131.246
429.6006, 3161.740
430.0828, 3174.680
430.5649, 3180.265
431.0470, 3171.451
431.5291, 3168.071
432.0112, 3188.462
432.4933, 3211.040
432.9755, 3207.050
433.4576, 3172.122
433.9397, 3125.701
434.4218, 3087.603
434.9039, 3058.730
435.3860, 3029.826
435.8682, 3013.678
436.3503, 2983.297
436.8324, 2921.754
437.3145, 2843.762
437.7966, 2770.979
438.2787, 2712.183
438.7609, 2661.296
439.2430, 2607.818
439.7251, 2551.295
440.2072, 2497.913
440.6893, 2452.188
441.1714, 2405.846
441.6536, 2349.922
442.1357, 2286.653
442.6178, 2228.407
443.0999, 2183.752
443.5820, 2145.018
444.0641, 2102.038
444.5463, 2054.881
445.0284, 2010.159
445.5105, 1971.732
445.9926, 1937.343
446.4747, 1900.368
446.9568, 1855.826
447.4390, 1818.563
447.9211, 1794.686
448.4032, 1776.968
448.8853, 1759.295
449.3674, 1740.607
449.8495, 1721.789
450.3317, 1704.118
450.8138, 1687.409
451.2959, 1668.070
451.7780, 1644.018
452.2601, 1619.999
452.7422, 1595.918
453.2244, 1573.081
453.7065, 1552.705
454.1886, 1535.169
454.6707, 1520.401
455.1528, 1508.067
455.6349, 1498.291
456.1171, 1493.600
456.5992, 1497.309
457.0813, 1500.359
457.5634, 1492.634
458.0455, 1478.096
458.5276, 1468.443
459.0098, 1471.189
459.4919, 1474.795
459.9740, 1469.296
460.4561, 1458.008
460.9382, 1450.843
461.4203, 1451.764
461.9025, 1456.109
462.3846, 1456.551
462.8667, 1452.161
463.3488, 1445.824
463.8309, 1430.880
464.3130, 1420.264
464.7952, 1424.088
465.2773, 1438.136
465.7594, 1450.804
466.2415, 1454.622
466.7236, 1454.482
467.2057, 1466.032
467.6879, 1497.005
468.1700, 1514.652
468.6521, 1493.084
469.1342, 1469.449
469.6163, 1474.683
470.0984, 1507.471
470.5806, 1534.963
471.0627, 1533.405
471.5448, 1517.487
472.0269, 1509.226
472.5090, 1509.490
472.9911, 1517.809
473.4733, 1537.826
473.9554, 1563.406
474.4375, 1574.335
474.9196, 1561.000
475.4017, 1553.102
475.8839, 1555.476
476.3660, 1565.878
476.8481, 1585.954
477.3302, 1613.541
477.8123, 1638.908
478.2944, 1652.748
478.7766, 1656.372
479.2587, 1665.452
479.7408, 1682.034
480.2229, 1701.345
480.7050, 1723.925
481.1871, 1747.501
481.6693, 1769.276
482.1514, 1788.729
482.6335, 1808.333
483.1156, 1830.409
483.5977, 1854.353
484.0798, 1877.720
484.5620, 1900.139
485.0441, 1922.672
485.5262, 1945.164
486.0083, 1968.561
486.4904, 1995.304
486.9725, 2029.274
487.4547, 2061.847
487.9368, 2088.155
488.4189, 2111.715
488.9010, 2136.508
489.3831, 2163.704
489.8652, 2193.796
490.3474, 2228.698
490.8295, 2269.365
491.3116, 2300.431
491.7937, 2307.715
492.2758, 2320.885
492.7579, 2355.281
493.2401, 2396.389
493.7222, 2423.453
494.2043, 2428.683
494.6864, 2430.809
495.1685, 2455.128
495.6506, 2497.647
496.1328, 2524.821
496.6149, 2527.250
497.0970, 2527.391
497.5791, 2546.902
498.0612, 2579.752
498.5433, 2600.776
499.0254, 2599.010
499.5075, 2594.122
499.9897, 2593.826
500.4718, 2597.623
500.9539, 2604.397
501.4360, 2613.829
501.9181, 2626.727
502.4002, 2643.995
502.8824, 2665.640
503.3645, 2691.770
503.8466, 2732.494
504.3287, 2766.673
504.8108, 2780.388
505.2929, 2786.354
505.7751, 2803.248
506.2572, 2837.963
506.7393, 2881.346
507.2214, 2919.897
507.7035, 2955.513
508.1856, 3004.939
508.6678, 3072.392
509.1499, 3148.832
509.6320, 3221.081
510.1141, 3294.841
510.5962, 3397.450
511.0783, 3551.011
511.5605, 3712.654
512.0426, 3860.864
512.5247, 4004.287
513.0068, 4151.509
513.4890, 4306.499
513.9711, 4484.968
514.4532, 4707.012
514.9353, 4977.425
515.4174, 5264.552
515.8995, 5552.990
516.3817, 5879.996
516.8638, 6240.965
517.3459, 6651.382
517.8280, 7127.612
518.3101, 7678.275
518.7922, 8283.239
519.2744, 8920.002
519.7565, 9593.303
520.2386, 10339.42
520.7207, 11160.99
521.2028, 12050.96
521.6849, 12997.77
522.1671, 14007.26
522.6492, 15095.17
523.1313, 16277.72
523.6134, 17513.63
524.0955, 18822.70
524.5776, 20159.56
525.0598, 21497.01
525.5419, 22817.90
526.0240, 24081.40
526.5061, 25271.42
526.9882, 26387.69
527.4703, 27288.46
527.9525, 28030.11
528.4346, 28460.08
528.9167, 28572.06
529.3988, 28371.46
529.8809, 27831.94
530.3630, 26944.40
530.8452, 25832.65
531.3273, 24511.21
531.8094, 23051.82
532.2915, 21578.32
532.7736, 20098.98
533.2557, 18639.17
533.7379, 17197.68
534.2200, 15793.50
534.7021, 14514.38
535.1842, 13364.85
535.6663, 12311.18
536.1484, 11358.08
536.6306, 10492.28
537.1127, 9717.366
537.5948, 9022.231
538.0769, 8391.811
538.5590, 7814.559
539.0411, 7291.535
539.5233, 6820.730
540.0054, 6411.167
540.4875, 6029.439
540.9696, 5665.981
541.4517, 5332.696
541.9338, 5046.963
542.4160, 4809.618
542.8981, 4583.951
543.3802, 4351.658
543.8623, 4130.855
544.3444, 3941.858
544.8265, 3781.286
545.3087, 3634.085
545.7908, 3492.888
546.2729, 3359.357
546.7550, 3236.672
547.2371, 3128.049
547.7192, 3023.015
548.2014, 2910.888
548.6835, 2811.585
549.1656, 2742.703
549.6477, 2692.583
550.1298, 2638.210
550.6119, 2569.167
551.0941, 2492.938
551.5762, 2412.754
552.0583, 2331.019
552.5404, 2273.937
553.0225, 2253.210
553.5046, 2237.323
553.9868, 2196.667
554.4689, 2132.436
554.9510, 2077.555
555.4331, 2037.305
555.9152, 2000.627
556.3973, 1963.307
556.8795, 1927.548
557.3616, 1895.709
557.8437, 1868.599
558.3258, 1847.273
558.8079, 1835.459
559.2900, 1831.892
559.7722, 1814.228
560.2543, 1775.509
560.7364, 1736.907
561.2185, 1703.848
561.7006, 1676.112
562.1827, 1655.087
562.6649, 1641.279
563.1470, 1628.971
563.6291, 1617.737
564.1112, 1604.988
564.5933, 1586.089
565.0754, 1561.731
565.5576, 1537.415
566.0397, 1515.915
566.5218, 1497.302
567.0039, 1481.663
567.4860, 1467.156
567.9681, 1459.572
568.4503, 1465.304
568.9324, 1471.132
569.4145, 1470.053
569.8966, 1463.412
570.3787, 1455.631
570.8608, 1448.785
571.3430, 1441.644
571.8251, 1431.263
572.3072, 1418.597
572.7893, 1410.529
573.2714, 1409.356
573.7535, 1409.802
574.2357, 1406.024
574.7178, 1398.293
575.1999, 1397.161
575.6820, 1414.961
576.1641, 1424.082
576.6462, 1407.792
577.1284, 1383.086
577.6105, 1369.491
578.0926, 1370.385
578.5747, 1376.364
579.0568, 1380.423
579.5389, 1382.022
580.0211, 1376.753
580.5032, 1361.731
580.9852, 1350.721
581.4673, 1353.361
581.9495, 1359.148
582.4316, 1353.042
582.9137, 1333.582
583.3958, 1316.132
583.8779, 1302.542
584.3600, 1294.649
584.8422, 1298.403
585.3243, 1309.209
585.8064, 1314.334
586.2885, 1307.995
586.7706, 1296.383
587.2527, 1291.269
587.7349, 1295.713
588.2170, 1293.125
588.6991, 1274.161
589.1812, 1259.901
589.6633, 1264.542
590.1454, 1278.180
590.6276, 1283.818
591.1097, 1275.471
591.5918, 1265.552
592.0739, 1260.928
592.5560, 1260.878
593.0381, 1266.864
593.5203, 1278.075
594.0024, 1284.238
594.4845, 1276.371
594.9666, 1259.901
595.4487, 1257.885
595.9308, 1281.597
596.4130, 1301.018
596.8951, 1318.748
597.3772, 1328.441
597.8593, 1320.315
598.3414, 1300.049
598.8235, 1285.572
599.3057, 1289.047
599.7878, 1297.352
600.2699, 1292.550
600.7520, 1277.444
601.2341, 1265.584
601.7162, 1260.462
602.1984, 1257.436
602.6805, 1251.518
603.1626, 1242.673
603.6447, 1238.587
604.1268, 1244.850
604.6089, 1248.357
605.0911, 1247.711
605.5732, 1242.280
606.0553, 1230.053
606.5374, 1211.748
607.0195, 1192.205
607.5016, 1174.287
607.9838, 1158.249
608.4659, 1144.578
608.9480, 1133.314
609.4301, 1123.828
609.9122, 1115.518
610.3943, 1109.571
610.8765, 1109.149
611.3586, 1116.158
611.8407, 1116.169
612.3228, 1101.686
612.8049, 1087.919
613.2870, 1083.138
613.7692, 1082.730
614.2513, 1078.950
614.7334, 1069.819
615.2155, 1060.872
615.6976, 1060.105
616.1797, 1065.583
