##NAMES=Edingtonite
##RRUFFID=R040110
##IDEAL CHEMISTRY=Ba(Si_3_Al_2_)O_10_&#183;4H_2_O
##LOCALITY=2350 level, Brunswick 12 mine, Bathhurst, New Brunswick, Canada
##OWNER=RRUFF
##SOURCE=National Museums of Canada
##DESCRIPTION=Colorless rectangular prism
##STATUS=The identification of this mineral has been confirmed by X-ray diffraction and chemical analysis
##URL=rruff.info/R040110
##MEASURED CHEMISTRY=Ba_1.00_(Si_3.00_Al_2.00_)O_10_Â·4H_2_O
120.7725, 892.3989
121.2546, 953.6155
121.7368, 1024.851
122.2189, 1118.292
122.7010, 1225.073
123.1831, 1334.589
123.6652, 1444.704
124.1473, 1554.898
124.6295, 1662.035
125.1116, 1766.012
125.5937, 1875.330
126.0758, 1998.524
126.5579, 2134.001
127.0400, 2274.354
127.5222, 2418.367
128.0043, 2565.816
128.4864, 2715.075
128.9685, 2865.157
129.4506, 3021.253
129.9327, 3189.706
130.4149, 3370.474
130.8970, 3556.364
131.3791, 3747.735
131.8612, 3942.354
132.3433, 4122.434
132.8254, 4284.590
133.3076, 4430.340
133.7897, 4565.786
134.2718, 4693.820
134.7539, 4795.062
135.2360, 4851.888
135.7181, 4863.335
136.2003, 4852.958
136.6824, 4819.435
137.1645, 4766.784
137.6466, 4722.429
138.1287, 4691.419
138.6108, 4658.848
139.0930, 4606.504
139.5751, 4527.441
140.0572, 4453.089
140.5393, 4391.461
141.0214, 4342.388
141.5035, 4301.913
141.9857, 4268.349
142.4678, 4244.315
142.9499, 4234.457
143.4320, 4241.196
143.9141, 4257.964
144.3962, 4282.556
144.8784, 4313.135
145.3605, 4356.097
145.8426, 4416.196
146.3247, 4488.399
146.8068, 4556.982
147.2889, 4613.416
147.7711, 4674.386
148.2532, 4746.892
148.7353, 4842.179
149.2174, 4935.952
149.6995, 5030.968
150.1816, 5126.344
150.6638, 5210.112
151.1459, 5286.334
151.6280, 5348.362
152.1101, 5392.302
152.5922, 5412.484
153.0743, 5420.315
153.5565, 5422.312
154.0386, 5418.872
154.5207, 5386.817
155.0028, 5310.941
155.4849, 5209.877
155.9670, 5099.813
156.4492, 4976.800
156.9313, 4852.028
157.4134, 4725.916
157.8955, 4598.183
158.3776, 4475.786
158.8597, 4364.542
159.3419, 4258.540
159.8240, 4151.153
160.3061, 4030.663
160.7882, 3914.385
161.2703, 3812.434
161.7524, 3728.493
162.2346, 3648.291
162.7167, 3568.161
163.1988, 3487.018
163.6809, 3403.979
164.1630, 3309.980
164.6451, 3218.012
165.1273, 3137.437
165.6094, 3070.996
166.0915, 3014.775
166.5736, 2970.276
167.0557, 2935.542
167.5379, 2901.829
168.0200, 2861.159
168.5021, 2820.636
168.9842, 2788.509
169.4663, 2774.795
169.9484, 2762.255
170.4306, 2733.812
170.9127, 2691.635
171.3948, 2651.525
171.8769, 2626.406
172.3590, 2610.417
172.8411, 2595.010
173.3233, 2576.276
173.8054, 2557.271
174.2875, 2542.473
174.7696, 2531.893
175.2517, 2520.547
175.7338, 2502.558
176.2160, 2480.463
176.6981, 2459.921
177.1802, 2444.240
177.6623, 2431.485
178.1444, 2419.985
178.6265, 2410.252
179.1087, 2398.465
179.5908, 2375.006
180.0729, 2344.401
180.5550, 2322.600
181.0371, 2325.384
181.5192, 2342.493
182.0014, 2351.436
182.4835, 2350.630
182.9656, 2341.749
183.4477, 2323.287
183.9298, 2296.503
184.4119, 2270.947
184.8941, 2250.719
185.3762, 2235.891
185.8583, 2228.238
186.3404, 2229.205
186.8225, 2234.960
187.3046, 2241.189
187.7868, 2247.778
188.2689, 2249.821
188.7510, 2240.825
189.2331, 2222.793
189.7152, 2208.293
190.1973, 2200.467
190.6795, 2196.423
191.1616, 2188.063
191.6437, 2174.817
192.1258, 2163.270
192.6079, 2161.932
193.0900, 2170.102
193.5722, 2171.112
194.0543, 2158.925
194.5364, 2137.941
195.0185, 2124.954
195.5006, 2120.854
195.9827, 2120.622
196.4649, 2121.054
196.9470, 2122.326
197.4291, 2120.408
197.9112, 2113.567
198.3933, 2102.483
198.8754, 2091.053
199.3576, 2078.604
199.8397, 2067.781
200.3218, 2062.087
200.8039, 2062.007
201.2860, 2064.142
201.7681, 2069.531
202.2503, 2077.851
202.7324, 2077.585
203.2145, 2066.535
203.6966, 2050.939
204.1787, 2037.472
204.6608, 2025.255
205.1430, 2019.787
205.6251, 2025.926
206.1072, 2045.163
206.5893, 2055.577
207.0714, 2054.748
207.5535, 2048.092
208.0357, 2043.753
208.5178, 2041.594
208.9999, 2042.347
209.4820, 2047.925
209.9641, 2060.291
210.4462, 2065.376
210.9284, 2059.192
211.4105, 2048.984
211.8926, 2050.780
212.3747, 2069.525
212.8568, 2088.352
213.3389, 2098.620
213.8211, 2095.938
214.3032, 2101.048
214.7853, 2117.042
215.2674, 2139.547
215.7495, 2156.360
216.2316, 2163.976
216.7138, 2173.186
217.1959, 2189.490
217.6780, 2215.026
218.1601, 2241.783
218.6422, 2270.150
219.1243, 2299.224
219.6065, 2324.873
220.0886, 2342.921
220.5707, 2364.275
221.0528, 2394.324
221.5349, 2434.851
222.0170, 2480.832
222.4992, 2534.433
222.9813, 2593.237
223.4634, 2648.255
223.9455, 2693.682
224.4276, 2744.265
224.9097, 2809.946
225.3919, 2900.714
225.8740, 2983.976
226.3561, 3048.782
226.8382, 3101.927
227.3203, 3188.930
227.8024, 3324.735
228.2846, 3473.668
228.7667, 3613.422
229.2488, 3731.191
229.7309, 3862.249
230.2130, 4014.311
230.6951, 4183.448
231.1773, 4345.255
231.6594, 4498.818
232.1415, 4644.545
232.6236, 4784.567
233.1057, 4927.781
233.5878, 5048.573
234.0700, 5151.995
234.5521, 5234.986
235.0342, 5261.810
235.5163, 5235.084
235.9984, 5148.450
236.4805, 4989.230
236.9627, 4725.999
237.4448, 4456.386
237.9269, 4190.907
238.4090, 3929.898
238.8911, 3682.020
239.3732, 3441.488
239.8554, 3220.209
240.3375, 3029.081
240.8196, 2874.093
241.3017, 2738.091
241.7838, 2617.194
242.2659, 2511.985
242.7481, 2421.320
243.2302, 2346.417
243.7123, 2284.833
244.1944, 2236.508
244.6765, 2211.777
245.1586, 2180.128
245.6408, 2132.424
246.1229, 2068.273
246.6050, 2018.478
247.0871, 1986.549
247.5692, 1965.330
248.0513, 1948.478
248.5335, 1936.204
249.0156, 1928.124
249.4977, 1926.120
249.9798, 1930.388
250.4619, 1928.941
250.9440, 1919.109
251.4262, 1906.463
251.9083, 1896.577
252.3904, 1891.222
252.8725, 1884.767
253.3546, 1874.727
253.8367, 1860.871
254.3189, 1853.868
254.8010, 1856.821
255.2831, 1863.165
255.7652, 1866.872
256.2473, 1868.461
256.7295, 1865.775
257.2116, 1855.652
257.6937, 1837.950
258.1758, 1831.297
258.6579, 1841.561
259.1400, 1855.724
259.6222, 1860.024
260.1043, 1850.642
260.5864, 1840.622
261.0685, 1830.632
261.5506, 1820.858
262.0327, 1822.212
262.5149, 1839.341
262.9970, 1861.109
263.4791, 1875.573
263.9612, 1880.604
264.4433, 1884.890
264.9254, 1890.988
265.4076, 1898.667
265.8897, 1901.387
266.3718, 1896.218
266.8539, 1890.950
267.3360, 1895.178
267.8181, 1912.668
268.3003, 1925.820
268.7824, 1928.706
269.2645, 1922.304
269.7466, 1922.921
270.2287, 1932.849
270.7108, 1945.204
271.1930, 1952.739
271.6751, 1954.037
272.1572, 1956.980
272.6393, 1964.221
273.1214, 1975.117
273.6035, 1982.476
274.0857, 1985.976
274.5678, 1986.928
275.0499, 1985.796
275.5320, 1982.092
276.0141, 1979.913
276.4962, 1981.281
276.9784, 1985.062
277.4605, 1984.350
277.9426, 1978.904
278.4247, 1969.992
278.9068, 1956.392
279.3889, 1937.404
279.8711, 1924.996
280.3532, 1924.078
280.8353, 1931.304
281.3174, 1932.800
281.7995, 1928.198
282.2816, 1919.716
282.7638, 1907.269
283.2459, 1890.972
283.7280, 1878.418
284.2101, 1872.412
284.6922, 1870.624
285.1743, 1863.981
285.6565, 1851.657
286.1386, 1842.657
286.6207, 1847.785
287.1028, 1865.330
287.5849, 1878.169
288.0670, 1881.695
288.5492, 1879.511
289.0313, 1879.049
289.5134, 1880.310
289.9955, 1883.443
290.4776, 1889.735
290.9597, 1898.367
291.4419, 1906.448
291.9240, 1914.974
292.4061, 1920.666
292.8882, 1914.385
293.3703, 1896.767
293.8524, 1880.024
294.3346, 1869.874
294.8167, 1867.106
295.2988, 1875.585
295.7809, 1899.873
296.2630, 1928.658
296.7451, 1945.547
297.2273, 1951.615
297.7094, 1955.030
298.1915, 1957.959
298.6736, 1962.407
299.1557, 1973.115
299.6378, 1992.251
300.1200, 2014.359
300.6021, 2034.262
301.0842, 2052.066
301.5663, 2068.583
302.0484, 2085.903
302.5305, 2101.780
303.0127, 2111.659
303.4948, 2113.708
303.9769, 2114.433
304.4590, 2118.946
304.9411, 2126.951
305.4232, 2137.641
305.9054, 2153.142
306.3875, 2169.903
306.8696, 2183.994
307.3517, 2194.757
307.8338, 2203.913
308.3159, 2213.552
308.7981, 2222.397
309.2802, 2227.982
309.7623, 2224.832
310.2444, 2220.767
310.7265, 2222.411
311.2086, 2230.978
311.6908, 2240.112
312.1729, 2246.839
312.6550, 2251.681
313.1371, 2255.278
313.6192, 2260.264
314.1013, 2262.173
314.5835, 2258.042
315.0656, 2247.485
315.5477, 2234.433
316.0298, 2218.057
316.5119, 2200.979
316.9940, 2186.018
317.4762, 2174.896
317.9583, 2165.456
318.4404, 2158.152
318.9225, 2152.908
319.4046, 2145.704
319.8867, 2131.330
320.3689, 2116.473
320.8510, 2106.684
321.3331, 2105.512
321.8152, 2107.080
322.2973, 2113.360
322.7794, 2123.334
323.2616, 2126.156
323.7437, 2114.724
324.2258, 2098.978
324.7079, 2085.097
325.1900, 2070.885
325.6721, 2061.782
326.1543, 2061.739
326.6364, 2068.697
327.1185, 2070.696
327.6006, 2061.678
328.0827, 2052.403
328.5648, 2047.714
329.0470, 2050.428
329.5291, 2053.649
330.0112, 2055.323
330.4933, 2057.537
330.9754, 2066.716
331.4576, 2087.905
331.9397, 2109.789
332.4218, 2128.125
332.9039, 2141.992
333.3860, 2154.781
333.8681, 2166.608
334.3503, 2177.076
334.8324, 2184.735
335.3145, 2187.826
335.7966, 2191.761
336.2787, 2198.518
336.7608, 2208.294
337.2430, 2220.265
337.7251, 2237.007
338.2072, 2251.874
338.6893, 2250.559
339.1714, 2227.019
339.6535, 2217.334
340.1357, 2238.777
340.6178, 2288.284
341.0999, 2319.656
341.5820, 2329.691
342.0641, 2332.646
342.5462, 2344.094
343.0284, 2363.914
343.5105, 2382.573
343.9926, 2395.994
344.4747, 2406.956
344.9568, 2426.272
345.4389, 2454.712
345.9211, 2481.327
346.4032, 2496.222
346.8853, 2501.054
347.3674, 2502.044
347.8495, 2498.375
348.3316, 2494.333
348.8138, 2499.414
349.2959, 2512.694
349.7780, 2524.768
350.2601, 2523.024
350.7422, 2516.535
351.2243, 2525.521
351.7065, 2557.437
352.1886, 2594.626
352.6707, 2616.310
353.1528, 2626.665
353.6349, 2638.767
354.1170, 2668.331
354.5992, 2699.630
355.0813, 2711.633
355.5634, 2698.621
356.0455, 2686.885
356.5276, 2702.802
357.0097, 2732.470
357.4919, 2751.493
357.9740, 2741.450
358.4561, 2723.902
358.9382, 2712.799
359.4203, 2709.175
359.9024, 2705.049
360.3846, 2695.052
360.8667, 2683.223
361.3488, 2673.775
361.8309, 2675.946
362.3130, 2673.157
362.7951, 2657.017
363.2773, 2628.639
363.7594, 2601.594
364.2415, 2580.793
364.7236, 2561.873
365.2057, 2541.982
365.6878, 2523.547
366.1700, 2501.138
366.6521, 2467.117
367.1342, 2426.650
367.6163, 2400.793
368.0984, 2409.480
368.5805, 2417.153
369.0627, 2408.533
369.5448, 2369.021
370.0269, 2342.000
370.5090, 2332.518
370.9911, 2333.965
371.4732, 2334.425
371.9554, 2335.076
372.4375, 2332.603
372.9196, 2323.726
373.4017, 2305.807
373.8838, 2299.320
374.3659, 2307.439
374.8481, 2322.493
375.3302, 2336.537
375.8123, 2350.877
376.2944, 2358.457
376.7765, 2353.783
377.2586, 2339.784
377.7408, 2340.758
378.2229, 2359.009
378.7050, 2382.403
379.1871, 2403.571
379.6692, 2422.055
380.1513, 2430.278
380.6335, 2422.883
381.1156, 2408.852
381.5977, 2410.726
382.0798, 2427.780
382.5619, 2442.111
383.0440, 2437.151
383.5262, 2420.300
384.0083, 2413.215
384.4904, 2420.535
384.9725, 2430.625
385.4546, 2427.007
385.9367, 2414.029
386.4189, 2405.275
386.9010, 2413.882
387.3831, 2427.346
387.8652, 2430.339
388.3473, 2421.643
388.8294, 2409.616
389.3116, 2395.165
389.7937, 2382.663
390.2758, 2378.076
390.7579, 2392.066
391.2400, 2407.734
391.7221, 2414.112
392.2043, 2412.267
392.6864, 2412.192
393.1685, 2418.002
393.6506, 2427.405
394.1327, 2439.067
394.6148, 2458.600
395.0970, 2472.518
395.5791, 2472.113
396.0612, 2462.945
396.5433, 2461.220
397.0254, 2472.258
397.5075, 2489.173
397.9897, 2510.222
398.4718, 2538.858
398.9539, 2563.637
399.4360, 2584.490
399.9181, 2601.448
400.4002, 2614.183
400.8824, 2619.176
401.3645, 2625.138
401.8466, 2633.782
402.3287, 2645.146
402.8108, 2659.391
403.2929, 2677.952
403.7751, 2696.990
404.2572, 2714.852
404.7393, 2733.682
405.2214, 2740.927
405.7035, 2731.478
406.1856, 2710.510
406.6678, 2695.436
407.1499, 2686.781
407.6320, 2679.786
408.1141, 2669.466
408.5962, 2656.814
409.0783, 2652.370
409.5605, 2657.851
410.0426, 2669.064
410.5247, 2683.385
411.0068, 2699.470
411.4889, 2710.473
411.9710, 2707.581
412.4532, 2698.957
412.9353, 2699.529
413.4174, 2709.769
413.8995, 2724.342
414.3816, 2741.902
414.8637, 2760.244
415.3459, 2775.664
415.8280, 2781.341
416.3101, 2789.429
416.7922, 2813.002
417.2743, 2848.497
417.7564, 2881.569
418.2386, 2903.022
418.7207, 2920.007
419.2028, 2936.990
419.6849, 2953.714
420.1670, 2973.288
420.6491, 2995.374
421.1313, 3021.308
421.6134, 3053.624
422.0955, 3100.415
422.5776, 3146.520
423.0597, 3188.604
423.5418, 3226.650
424.0240, 3257.495
424.5061, 3270.158
424.9882, 3281.824
425.4703, 3307.971
425.9524, 3361.698
426.4345, 3408.526
426.9167, 3442.462
427.3988, 3465.732
427.8809, 3489.706
428.3630, 3515.344
428.8451, 3539.788
429.3272, 3561.261
429.8094, 3580.009
430.2915, 3594.462
430.7736, 3603.558
431.2557, 3609.901
431.7378, 3617.404
432.2199, 3626.066
432.7021, 3636.187
433.1842, 3654.719
433.6663, 3674.954
434.1484, 3669.245
434.6305, 3636.612
435.1126, 3594.403
435.5948, 3557.024
436.0769, 3523.334
436.5590, 3489.666
437.0411, 3453.024
437.5232, 3419.307
438.0053, 3401.184
438.4875, 3394.035
438.9696, 3379.259
439.4517, 3344.007
439.9338, 3296.946
440.4159, 3241.692
440.8980, 3174.101
441.3802, 3118.489
441.8623, 3097.871
442.3444, 3093.959
442.8265, 3080.665
443.3086, 3043.936
443.7907, 3002.039
444.2729, 2958.943
444.7550, 2915.085
445.2371, 2875.962
445.7192, 2841.886
446.2013, 2812.815
446.6834, 2788.891
447.1656, 2777.488
447.6477, 2760.774
448.1298, 2735.187
448.6119, 2704.095
449.0940, 2677.734
449.5761, 2657.261
450.0583, 2638.554
450.5404, 2620.691
451.0225, 2603.791
451.5046, 2584.622
451.9867, 2561.495
452.4688, 2540.082
452.9510, 2530.007
453.4331, 2531.795
453.9152, 2527.792
454.3973, 2511.724
454.8794, 2488.327
455.3615, 2468.976
455.8437, 2453.502
456.3258, 2441.747
456.8079, 2433.295
457.2900, 2428.442
457.7721, 2428.586
458.2542, 2435.134
458.7364, 2441.892
459.2185, 2443.072
459.7006, 2439.875
460.1827, 2434.805
460.6648, 2425.043
461.1469, 2416.755
461.6291, 2415.804
462.1112, 2421.911
462.5933, 2426.746
463.0754, 2428.397
463.5575, 2426.228
464.0396, 2419.248
464.5218, 2397.409
465.0039, 2383.927
465.4860, 2390.819
465.9681, 2409.545
466.4502, 2417.809
466.9323, 2400.212
467.4145, 2386.374
467.8966, 2386.890
468.3787, 2405.794
468.8608, 2416.343
469.3429, 2412.606
469.8250, 2407.180
470.3072, 2414.492
470.7893, 2439.009
471.2714, 2458.736
471.7535, 2469.360
472.2356, 2472.885
472.7177, 2473.109
473.1999, 2469.164
473.6820, 2470.569
474.1641, 2485.991
474.6462, 2512.430
475.1284, 2536.749
475.6105, 2558.226
476.0926, 2577.261
476.5747, 2596.571
477.0568, 2613.861
477.5389, 2622.552
478.0211, 2608.387
478.5032, 2593.534
478.9853, 2604.849
479.4674, 2638.588
479.9495, 2670.188
480.4316, 2682.715
480.9138, 2688.903
481.3959, 2698.439
481.8780, 2713.151
482.3601, 2731.125
482.8422, 2755.162
483.3243, 2781.276
483.8065, 2803.626
484.2886, 2817.861
484.7707, 2831.530
485.2528, 2845.513
485.7349, 2859.663
486.2170, 2878.043
486.6992, 2900.097
487.1813, 2927.004
487.6634, 2962.494
488.1455, 3015.222
488.6276, 3050.005
489.1097, 3059.250
489.5919, 3055.202
490.0740, 3063.284
490.5561, 3085.145
491.0382, 3104.712
491.5203, 3111.850
492.0024, 3086.370
492.4846, 3122.644
492.9667, 3147.105
493.4488, 3160.387
493.9309, 3129.013
494.4130, 3155.303
494.8951, 3158.485
495.3773, 3160.720
495.8594, 3195.127
496.3415, 3170.247
496.8236, 3204.144
497.3057, 3214.578
497.7878, 3235.751
498.2700, 3233.672
498.7521, 3238.775
499.2342, 3262.928
499.7163, 3281.113
500.1984, 3286.851
500.6805, 3288.912
501.1627, 3294.398
501.6448, 3305.396
502.1269, 3318.633
502.6090, 3332.492
503.0911, 3348.431
503.5732, 3371.546
504.0554, 3409.675
504.5375, 3442.721
505.0196, 3459.570
505.5017, 3457.394
505.9838, 3475.282
506.4659, 3516.455
506.9481, 3570.019
507.4302, 3622.354
507.9123, 3673.677
508.3944, 3741.166
508.8765, 3829.798
509.3586, 3933.547
509.8408, 4043.968
510.3229, 4160.865
510.8050, 4285.770
511.2871, 4415.613
511.7692, 4556.175
512.2513, 4709.963
512.7335, 4877.458
513.2156, 5071.586
513.6977, 5305.591
514.1798, 5569.833
514.6619, 5853.074
515.1440, 6148.947
515.6262, 6468.727
516.1083, 6810.691
516.5904, 7178.000
517.0725, 7575.660
517.5546, 8011.814
518.0367, 8473.944
518.5189, 8954.435
519.0010, 9455.188
519.4831, 9977.145
519.9652, 10522.34
520.4473, 11080.14
520.9294, 11640.06
521.4116, 12191.30
521.8937, 12765.08
522.3758, 13370.50
522.8579, 13995.08
523.3400, 14614.74
523.8221, 15227.08
524.3043, 15826.76
524.7864, 16436.46
525.2685, 17032.50
525.7506, 17562.49
526.2327, 18028.43
526.7148, 18418.08
527.1970, 18762.07
527.6791, 19018.50
528.1612, 19118.20
528.6433, 19037.46
529.1254, 18815.36
529.6075, 18465.22
530.0897, 17994.93
530.5718, 17430.07
531.0539, 16734.66
531.5360, 15980.10
532.0181, 15181.20
532.5002, 14340.93
532.9824, 13505.69
533.4645, 12667.40
533.9466, 11853.15
534.4287, 11089.84
534.9108, 10375.32
535.3929, 9699.542
535.8751, 9052.317
536.3572, 8451.051
536.8393, 7936.385
537.3214, 7516.128
537.8035, 7128.048
538.2856, 6745.364
538.7678, 6377.018
539.2499, 6061.275
539.7320, 5799.370
540.2141, 5561.013
540.6962, 5320.705
541.1783, 5087.701
541.6605, 4882.229
542.1426, 4711.294
542.6247, 4554.925
543.1068, 4390.902
543.5889, 4229.189
544.0710, 4086.766
544.5532, 3987.357
545.0353, 3893.223
545.5174, 3779.048
545.9995, 3650.075
546.4816, 3540.167
546.9637, 3470.410
547.4459, 3412.653
547.9280, 3352.747
548.4101, 3287.121
548.8922, 3227.748
549.3743, 3176.996
549.8564, 3130.519
550.3386, 3084.006
550.8207, 3037.389
551.3028, 2990.152
551.7849, 2940.658
552.2670, 2892.193
552.7491, 2855.344
553.2313, 2830.405
553.7134, 2809.104
554.1955, 2789.573
554.6776, 2770.155
555.1597, 2745.153
555.6418, 2714.592
556.1240, 2683.234
556.6061, 2653.219
557.0882, 2625.470
557.5703, 2601.978
558.0524, 2584.239
558.5345, 2568.236
559.0167, 2551.531
559.4988, 2535.000
559.9809, 2520.674
560.4630, 2512.563
560.9451, 2503.201
561.4272, 2489.563
561.9094, 2471.573
562.3915, 2453.728
562.8736, 2430.311
563.3557, 2413.311
563.8378, 2411.998
564.3199, 2434.499
564.8021, 2442.774
565.2842, 2432.779
565.7663, 2414.743
566.2484, 2402.587
566.7305, 2396.132
567.2126, 2390.639
567.6948, 2385.505
568.1769, 2379.791
568.6590, 2370.628
569.1411, 2358.713
569.6232, 2348.528
570.1053, 2343.265
570.5875, 2340.764
571.0696, 2339.084
571.5517, 2338.112
572.0338, 2336.970
572.5159, 2335.371
572.9980, 2333.304
573.4802, 2330.754
573.9623, 2327.127
574.4444, 2323.791
574.9265, 2320.438
575.4086, 2317.629
575.8907, 2316.672
576.3729, 2318.756
576.8550, 2320.499
577.3371, 2319.528
577.8192, 2316.734
578.3013, 2324.402
578.7834, 2346.149
579.2656, 2363.396
579.7477, 2355.305
580.2298, 2327.947
580.7119, 2324.748
581.1940, 2352.157
581.6761, 2384.728
582.1583, 2392.677
582.6404, 2384.881
583.1225, 2380.235
583.6046, 2387.029
584.0867, 2396.442
584.5688, 2401.395
585.0510, 2403.723
585.5331, 2408.554
586.0152, 2421.409
586.4973, 2433.994
586.9794, 2441.302
587.4615, 2441.931
587.9437, 2447.686
588.4258, 2461.829
588.9079, 2478.512
589.3900, 2495.004
589.8721, 2513.644
590.3542, 2523.698
590.8364, 2521.019
591.3185, 2515.127
591.8006, 2522.102
592.2827, 2541.704
592.7648, 2561.365
593.2469, 2579.191
593.7291, 2593.040
594.2112, 2594.938
594.6933, 2587.283
595.1754, 2582.685
595.6575, 2590.666
596.1396, 2604.395
596.6218, 2617.739
597.1039, 2630.164
597.5860, 2642.845
598.0681, 2662.570
598.5502, 2678.971
599.0323, 2683.237
599.5145, 2663.470
599.9966, 2646.365
600.4787, 2638.374
600.9608, 2632.163
601.4429, 2614.017
601.9250, 2574.170
602.4072, 2545.747
602.8893, 2540.007
603.3714, 2550.839
603.8535, 2554.210
604.3356, 2550.211
604.8177, 2538.237
605.2999, 2513.328
605.7820, 2480.288
606.2641, 2454.839
606.7462, 2437.627
607.2283, 2420.222
607.7104, 2392.054
608.1926, 2360.650
608.6747, 2336.086
609.1568, 2326.046
609.6389, 2313.369
610.1210, 2283.070
610.6031, 2246.709
611.0853, 2223.914
611.5674, 2231.569
612.0495, 2238.430
612.5316, 2239.706
613.0137, 2235.456
613.4958, 2224.603
613.9780, 2203.097
614.4601, 2184.602
614.9422, 2179.242
615.4243, 2186.501
615.9064, 2181.964
616.3885, 2164.446
