##NAMES=Edingtonite
##RRUFFID=R040003
##IDEAL CHEMISTRY=Ba(Si_3_Al_2_)O_10_&#183;4H_2_O
##LOCALITY=Bohl, Sweden
##OWNER=RRUFF
##SOURCE=University of Arizona Mineral Museum
##DESCRIPTION=Colorless tetragonal prism
##STATUS=The identification of this mineral has been confirmed by X-ray diffraction and chemical analysis
##URL=rruff.info/R040003
##MEASURED CHEMISTRY=Ba_1.00_(Si_3.00_Al_2.00_)O_10_Â·4H_2_O; trace amounts of Na; H_2_O estimated by difference
119.5940, 2727.406
120.0761, 2884.351
120.5582, 3035.670
121.0403, 3178.893
121.5224, 3334.203
122.0045, 3516.945
122.4867, 3720.546
122.9688, 3931.085
123.4509, 4145.928
123.9330, 4362.333
124.4151, 4578.466
124.8972, 4795.918
125.3794, 5008.722
125.8615, 5216.697
126.3436, 5416.111
126.8257, 5597.866
127.3078, 5762.732
127.7899, 5905.184
128.2721, 6010.759
128.7542, 6068.220
129.2363, 6093.044
129.7184, 6115.271
130.2005, 6135.379
130.6826, 6141.303
131.1648, 6110.071
131.6469, 6047.578
132.1290, 5996.076
132.6111, 5971.013
133.0932, 5969.275
133.5753, 5978.265
134.0575, 5998.820
134.5396, 6027.730
135.0217, 6058.632
135.5038, 6090.867
135.9859, 6134.010
136.4680, 6192.170
136.9501, 6265.775
137.4323, 6351.418
137.9144, 6449.027
138.3965, 6558.191
138.8786, 6676.383
139.3607, 6804.821
139.8428, 6937.833
140.3250, 7070.743
140.8071, 7199.402
141.2892, 7339.436
141.7713, 7492.054
142.2534, 7658.109
142.7355, 7832.746
143.2177, 8019.905
143.6998, 8210.499
144.1819, 8392.186
144.6640, 8559.048
145.1461, 8729.441
145.6283, 8910.303
146.1104, 9102.243
146.5925, 9288.691
147.0746, 9456.377
147.5567, 9621.632
148.0388, 9804.557
148.5210, 10026.12
149.0031, 10242.27
149.4852, 10436.43
149.9673, 10592.97
150.4494, 10762.84
150.9315, 10961.65
151.4137, 11175.18
151.8958, 11362.73
152.3779, 11516.18
152.8600, 11650.87
153.3421, 11772.47
153.8242, 11934.21
154.3064, 12023.44
154.7885, 12004.54
155.2706, 11892.91
155.7527, 11778.90
156.2348, 11685.47
156.7169, 11589.46
157.1990, 11476.22
157.6812, 11347.14
158.1633, 11194.96
158.6454, 11008.53
159.1275, 10789.35
159.6096, 10567.43
160.0917, 10348.91
160.5739, 10133.88
161.0560, 9922.546
161.5381, 9701.919
162.0202, 9494.720
162.5023, 9320.221
162.9844, 9189.634
163.4666, 9044.392
163.9487, 8848.427
164.4308, 8622.437
164.9129, 8400.715
165.3950, 8197.647
165.8771, 8004.692
166.3593, 7817.564
166.8414, 7637.588
167.3235, 7458.365
167.8056, 7269.930
168.2877, 7077.153
168.7698, 6892.816
169.2520, 6725.324
169.7341, 6569.229
170.2162, 6418.249
170.6983, 6270.730
171.1804, 6130.673
171.6625, 5996.364
172.1447, 5869.277
172.6268, 5757.999
173.1089, 5673.363
173.5910, 5607.577
174.0731, 5547.951
174.5552, 5496.042
175.0374, 5444.073
175.5195, 5382.006
176.0016, 5309.658
176.4837, 5238.122
176.9658, 5177.720
177.4479, 5125.652
177.9300, 5076.376
178.4122, 5026.107
178.8943, 4977.596
179.3764, 4936.990
179.8585, 4905.444
180.3406, 4874.160
180.8227, 4830.868
181.3049, 4779.109
181.7870, 4730.870
182.2691, 4695.737
182.7512, 4668.708
183.2333, 4637.389
183.7154, 4599.864
184.1976, 4561.740
184.6797, 4530.170
185.1618, 4504.644
185.6439, 4483.464
186.1260, 4467.431
186.6081, 4455.198
187.0903, 4442.132
187.5724, 4428.933
188.0545, 4412.399
188.5366, 4381.057
189.0187, 4335.082
189.5008, 4293.535
189.9830, 4273.483
190.4651, 4272.566
190.9472, 4273.379
191.4293, 4275.855
191.9114, 4276.073
192.3935, 4261.651
192.8757, 4231.466
193.3578, 4196.016
193.8399, 4160.015
194.3220, 4123.431
194.8041, 4099.728
195.2862, 4095.761
195.7684, 4107.124
196.2505, 4114.405
196.7326, 4117.775
197.2147, 4116.723
197.6968, 4107.849
198.1789, 4090.370
198.6610, 4077.666
199.1432, 4075.036
199.6253, 4081.839
200.1074, 4087.749
200.5895, 4091.920
201.0716, 4097.037
201.5537, 4109.063
202.0359, 4129.980
202.5180, 4145.252
203.0001, 4147.693
203.4822, 4136.264
203.9643, 4127.282
204.4464, 4121.422
204.9286, 4116.915
205.4107, 4110.808
205.8928, 4102.644
206.3749, 4094.150
206.8570, 4087.828
207.3391, 4085.656
207.8213, 4072.790
208.3034, 4045.072
208.7855, 4010.277
209.2676, 3985.797
209.7497, 3973.140
210.2318, 3967.296
210.7140, 3971.138
211.1961, 3992.765
211.6782, 3989.214
212.1603, 3950.369
212.6424, 3888.047
213.1245, 3839.456
213.6067, 3808.543
214.0888, 3784.058
214.5709, 3761.583
215.0530, 3744.828
215.5351, 3716.856
216.0172, 3671.172
216.4994, 3612.662
216.9815, 3564.034
217.4636, 3528.710
217.9457, 3498.173
218.4278, 3468.207
218.9099, 3442.832
219.3920, 3407.465
219.8742, 3355.323
220.3563, 3289.875
220.8384, 3234.851
221.3205, 3190.844
221.8026, 3157.345
222.2847, 3136.864
222.7669, 3137.684
223.2490, 3131.988
223.7311, 3110.774
224.2132, 3074.099
224.6953, 3055.686
225.1774, 3062.117
225.6596, 3078.969
226.1417, 3092.267
226.6238, 3098.126
227.1059, 3107.718
227.5880, 3122.580
228.0701, 3142.464
228.5523, 3169.358
229.0344, 3200.554
229.5165, 3240.910
229.9986, 3297.434
230.4807, 3374.802
230.9628, 3459.188
231.4450, 3549.593
231.9271, 3648.546
232.4092, 3736.026
232.8913, 3805.784
233.3734, 3870.559
233.8555, 3949.924
234.3377, 4062.459
234.8198, 4159.845
235.3019, 4229.322
235.7840, 4268.888
236.2661, 4289.898
236.7482, 4290.420
237.2304, 4273.338
237.7125, 4240.934
238.1946, 4183.723
238.6767, 4126.949
239.1588, 4078.067
239.6409, 4039.489
240.1230, 4001.416
240.6052, 3964.074
241.0873, 3927.446
241.5694, 3892.862
242.0515, 3866.025
242.5336, 3832.006
243.0157, 3783.390
243.4979, 3712.298
243.9800, 3650.280
244.4621, 3602.040
244.9442, 3560.837
245.4263, 3511.384
245.9084, 3448.366
246.3906, 3385.094
246.8727, 3326.371
247.3548, 3272.665
247.8369, 3222.367
248.3190, 3176.186
248.8011, 3133.361
249.2833, 3090.631
249.7654, 3046.916
250.2475, 3006.076
250.7296, 2969.777
251.2117, 2938.364
251.6938, 2911.379
252.1760, 2890.461
252.6581, 2873.802
253.1402, 2855.795
253.6223, 2836.570
254.1044, 2815.920
254.5865, 2792.663
255.0687, 2762.031
255.5508, 2741.436
256.0329, 2735.579
256.5150, 2738.687
256.9971, 2733.439
257.4792, 2713.289
257.9614, 2695.818
258.4435, 2690.721
258.9256, 2704.194
259.4077, 2713.025
259.8898, 2716.561
260.3719, 2714.839
260.8541, 2706.618
261.3362, 2686.739
261.8183, 2669.784
262.3004, 2665.659
262.7825, 2681.582
263.2646, 2686.406
263.7468, 2674.276
264.2289, 2651.408
264.7110, 2637.636
265.1931, 2635.153
265.6752, 2637.112
266.1573, 2639.390
266.6395, 2640.661
267.1216, 2648.813
267.6037, 2669.531
268.0858, 2695.289
268.5679, 2700.093
269.0500, 2675.539
269.5321, 2651.305
270.0143, 2645.368
270.4964, 2661.702
270.9785, 2678.052
271.4606, 2694.634
271.9427, 2709.458
272.4248, 2715.156
272.9070, 2708.813
273.3891, 2702.504
273.8712, 2704.417
274.3533, 2715.956
274.8354, 2725.507
275.3175, 2733.314
275.7997, 2737.538
276.2818, 2729.356
276.7639, 2704.386
277.2460, 2684.708
277.7281, 2687.322
278.2102, 2714.170
278.6924, 2734.761
279.1745, 2744.602
279.6566, 2748.532
280.1387, 2759.531
280.6208, 2778.971
281.1029, 2796.988
281.5851, 2804.010
282.0672, 2800.026
282.5493, 2807.461
283.0314, 2832.356
283.5135, 2864.815
283.9956, 2880.446
284.4778, 2877.698
284.9599, 2875.748
285.4420, 2886.421
285.9241, 2909.026
286.4062, 2935.839
286.8883, 2966.362
287.3705, 2999.958
287.8526, 3038.429
288.3347, 3081.857
288.8168, 3119.323
289.2989, 3140.417
289.7810, 3148.229
290.2632, 3159.074
290.7453, 3175.005
291.2274, 3192.988
291.7095, 3208.972
292.1916, 3222.896
292.6737, 3234.010
293.1559, 3241.254
293.6380, 3245.215
294.1201, 3247.896
294.6022, 3249.674
295.0843, 3249.933
295.5664, 3250.968
296.0486, 3251.476
296.5307, 3242.999
297.0128, 3212.749
297.4949, 3170.751
297.9770, 3139.607
298.4591, 3121.837
298.9413, 3112.195
299.4234, 3110.609
299.9055, 3113.751
300.3876, 3109.250
300.8697, 3083.559
301.3518, 3047.926
301.8340, 3019.298
302.3161, 2999.238
302.7982, 2984.409
303.2803, 2974.271
303.7624, 2966.877
304.2445, 2956.959
304.7267, 2937.655
305.2088, 2916.403
305.6909, 2900.969
306.1730, 2892.186
306.6551, 2888.506
307.1372, 2895.242
307.6194, 2906.197
308.1015, 2909.203
308.5836, 2891.577
309.0657, 2868.083
309.5478, 2850.384
310.0299, 2839.281
310.5120, 2833.315
310.9941, 2834.587
311.4763, 2839.919
311.9584, 2844.731
312.4405, 2851.199
312.9226, 2853.504
313.4047, 2845.972
313.8868, 2828.129
314.3690, 2810.079
314.8511, 2796.543
315.3332, 2785.761
315.8153, 2775.765
316.2974, 2767.407
316.7795, 2758.240
317.2617, 2745.329
317.7438, 2728.824
318.2259, 2716.773
318.7080, 2718.045
319.1901, 2722.429
319.6722, 2720.844
320.1544, 2703.883
320.6365, 2687.540
321.1186, 2675.075
321.6007, 2666.648
322.0828, 2664.660
322.5649, 2675.451
323.0471, 2689.496
323.5292, 2700.149
324.0113, 2699.067
324.4934, 2702.397
324.9755, 2714.665
325.4576, 2734.580
325.9398, 2753.534
326.4219, 2765.518
326.9040, 2779.917
327.3861, 2801.735
327.8682, 2840.537
328.3503, 2875.554
328.8325, 2906.098
329.3146, 2932.130
329.7967, 2955.646
330.2788, 2977.239
330.7609, 2995.815
331.2430, 3010.725
331.7252, 3019.428
332.2073, 3028.604
332.6894, 3037.470
333.1715, 3047.106
333.6536, 3060.661
334.1357, 3082.942
334.6179, 3101.890
335.1000, 3111.965
335.5821, 3110.418
336.0642, 3107.883
336.5463, 3101.524
337.0284, 3096.282
337.5106, 3103.292
337.9927, 3127.384
338.4748, 3148.755
338.9569, 3157.078
339.4390, 3150.382
339.9211, 3157.083
340.4033, 3181.921
340.8854, 3211.635
341.3675, 3225.862
341.8496, 3223.309
342.3317, 3219.792
342.8138, 3223.050
343.2960, 3231.027
343.7781, 3225.681
344.2602, 3204.986
344.7423, 3180.379
345.2244, 3163.969
345.7065, 3155.426
346.1887, 3150.705
346.6708, 3151.302
347.1529, 3153.698
347.6350, 3146.393
348.1171, 3129.069
348.5992, 3111.817
349.0814, 3105.077
349.5635, 3105.981
350.0456, 3104.117
350.5277, 3091.031
351.0098, 3080.693
351.4919, 3098.006
351.9740, 3140.162
352.4561, 3185.316
352.9383, 3223.450
353.4204, 3253.260
353.9025, 3268.982
354.3846, 3260.370
354.8667, 3256.576
355.3488, 3296.115
355.8310, 3365.415
356.3131, 3424.446
356.7952, 3436.621
357.2773, 3434.773
357.7594, 3452.478
358.2415, 3500.794
358.7237, 3547.225
359.2058, 3572.880
359.6879, 3583.040
360.1700, 3587.195
360.6521, 3584.995
361.1342, 3581.034
361.6164, 3581.378
362.0985, 3589.278
362.5806, 3582.983
363.0627, 3542.370
363.5448, 3487.499
364.0269, 3441.775
364.5091, 3431.470
364.9912, 3411.424
365.4733, 3360.723
365.9554, 3277.016
366.4375, 3206.613
366.9196, 3164.828
367.4018, 3134.384
367.8839, 3101.401
368.3660, 3055.653
368.8481, 3017.995
369.3302, 2996.334
369.8123, 2987.731
370.2945, 2968.120
370.7766, 2927.162
371.2587, 2885.041
371.7408, 2852.654
372.2229, 2832.912
372.7050, 2818.007
373.1872, 2809.447
373.6693, 2805.060
374.1514, 2798.611
374.6335, 2790.306
375.1156, 2779.289
375.5977, 2764.181
376.0799, 2743.559
376.5620, 2724.942
377.0441, 2707.188
377.5262, 2692.864
378.0083, 2687.243
378.4904, 2691.285
378.9726, 2697.073
379.4547, 2704.536
379.9368, 2712.424
380.4189, 2707.713
380.9010, 2688.423
381.3831, 2666.006
381.8653, 2652.692
382.3474, 2647.833
382.8295, 2648.841
383.3116, 2658.844
383.7937, 2671.792
384.2758, 2672.823
384.7580, 2662.115
385.2401, 2651.457
385.7222, 2653.547
386.2043, 2661.952
386.6864, 2662.716
387.1685, 2649.505
387.6507, 2632.406
388.1328, 2621.614
388.6149, 2615.980
389.0970, 2611.877
389.5791, 2609.493
390.0612, 2606.352
390.5434, 2599.089
391.0255, 2585.534
391.5076, 2573.713
391.9897, 2564.683
392.4718, 2561.079
392.9539, 2567.440
393.4360, 2596.798
393.9182, 2627.312
394.4003, 2647.682
394.8824, 2655.781
395.3645, 2663.587
395.8466, 2673.862
396.3287, 2685.859
396.8109, 2698.876
397.2930, 2712.803
397.7751, 2727.429
398.2572, 2743.668
398.7393, 2761.329
399.2214, 2776.230
399.7036, 2788.637
400.1857, 2797.943
400.6678, 2803.399
401.1499, 2799.736
401.6320, 2801.060
402.1141, 2810.472
402.5963, 2824.995
403.0784, 2835.490
403.5605, 2840.955
404.0426, 2844.310
404.5247, 2846.551
405.0068, 2847.442
405.4890, 2849.285
405.9711, 2854.115
406.4532, 2856.906
406.9353, 2848.800
407.4174, 2828.684
407.8995, 2807.067
408.3817, 2786.616
408.8638, 2767.597
409.3459, 2750.252
409.8280, 2734.152
410.3101, 2722.257
410.7922, 2718.825
411.2744, 2722.601
411.7565, 2728.218
412.2386, 2734.195
412.7207, 2741.514
413.2028, 2752.670
413.6849, 2767.216
414.1671, 2781.571
414.6492, 2792.000
415.1313, 2801.273
415.6134, 2813.077
416.0955, 2827.694
416.5776, 2845.929
417.0598, 2872.488
417.5419, 2902.901
418.0240, 2928.667
418.5061, 2935.585
418.9882, 2944.044
419.4703, 2968.203
419.9525, 3010.292
420.4346, 3054.479
420.9167, 3098.913
421.3988, 3140.817
421.8809, 3178.701
422.3630, 3205.202
422.8452, 3234.651
423.3273, 3270.333
423.8094, 3311.843
424.2915, 3356.343
424.7736, 3407.312
425.2557, 3458.145
425.7379, 3505.612
426.2200, 3548.933
426.7021, 3589.993
427.1842, 3629.455
427.6663, 3666.634
428.1484, 3700.089
428.6306, 3729.150
429.1127, 3756.571
429.5948, 3784.969
430.0769, 3814.857
430.5590, 3834.603
431.0411, 3842.215
431.5233, 3843.513
432.0054, 3845.636
432.4875, 3848.804
432.9696, 3847.579
433.4517, 3842.111
433.9338, 3830.502
434.4159, 3803.955
434.8980, 3762.478
435.3802, 3719.983
435.8623, 3693.763
436.3444, 3674.532
436.8265, 3635.583
437.3086, 3567.984
437.7907, 3493.630
438.2729, 3438.870
438.7550, 3397.338
439.2371, 3351.562
439.7192, 3286.816
440.2013, 3217.236
440.6834, 3154.925
441.1656, 3101.376
441.6477, 3051.528
442.1298, 3004.635
442.6119, 2959.269
443.0940, 2913.896
443.5761, 2865.561
444.0583, 2819.506
444.5404, 2777.518
445.0225, 2739.698
445.5046, 2705.309
445.9867, 2681.286
446.4688, 2655.327
446.9510, 2620.778
447.4331, 2566.743
447.9152, 2522.250
448.3973, 2489.415
448.8794, 2465.549
449.3615, 2445.794
449.8437, 2432.689
450.3258, 2419.008
450.8079, 2402.223
451.2900, 2382.129
451.7721, 2365.588
452.2542, 2354.061
452.7364, 2343.142
453.2185, 2327.548
453.7006, 2306.899
454.1827, 2290.449
454.6648, 2280.646
455.1469, 2275.247
455.6291, 2272.163
456.1112, 2271.079
456.5933, 2264.157
457.0754, 2238.909
457.5575, 2205.066
458.0396, 2187.875
458.5218, 2190.593
459.0039, 2199.668
459.4860, 2205.884
459.9681, 2208.434
460.4502, 2205.551
460.9323, 2190.238
461.4145, 2174.076
461.8966, 2162.865
462.3787, 2157.279
462.8608, 2161.297
463.3429, 2192.514
463.8250, 2224.876
464.3072, 2236.858
464.7893, 2208.934
465.2714, 2187.078
465.7535, 2187.143
466.2356, 2200.175
466.7177, 2208.299
467.1999, 2204.861
467.6820, 2200.608
468.1641, 2197.198
468.6462, 2193.947
469.1283, 2196.803
469.6104, 2209.889
470.0926, 2224.593
470.5747, 2233.101
471.0568, 2233.204
471.5389, 2234.008
472.0210, 2238.188
472.5031, 2243.165
472.9853, 2237.375
473.4674, 2218.490
473.9495, 2206.368
474.4316, 2217.244
474.9137, 2246.709
475.3958, 2267.417
475.8779, 2277.521
476.3600, 2284.264
476.8422, 2296.063
477.3243, 2311.590
477.8064, 2326.876
478.2885, 2342.759
478.7706, 2355.709
479.2527, 2355.500
479.7349, 2345.463
480.2170, 2345.644
480.6991, 2379.506
481.1812, 2422.858
481.6633, 2453.795
482.1454, 2464.068
482.6276, 2472.075
483.1097, 2481.303
483.5918, 2493.539
484.0739, 2511.716
484.5560, 2546.689
485.0381, 2577.425
485.5203, 2595.305
486.0024, 2599.018
486.4845, 2606.683
486.9666, 2618.314
487.4487, 2633.986
487.9308, 2654.693
488.4130, 2684.293
488.8951, 2710.483
489.3772, 2733.259
489.8593, 2752.440
490.3414, 2764.548
490.8235, 2767.232
491.3057, 2776.618
491.7878, 2803.934
492.2699, 2845.705
492.7520, 2872.722
493.2341, 2883.183
493.7162, 2893.315
494.1984, 2922.654
494.6805, 2964.968
495.1626, 3000.126
495.6447, 3021.139
496.1268, 3037.139
496.6089, 3060.920
497.0911, 3089.254
497.5732, 3112.708
498.0553, 3120.108
498.5374, 3124.365
499.0195, 3135.573
499.5016, 3155.191
499.9838, 3177.108
500.4659, 3200.785
500.9480, 3224.195
501.4301, 3245.561
501.9122, 3255.208
502.3943, 3273.008
502.8765, 3304.653
503.3586, 3347.938
503.8407, 3392.652
504.3228, 3439.531
504.8049, 3486.691
505.2870, 3532.183
505.7692, 3573.730
506.2513, 3623.370
506.7334, 3681.062
507.2155, 3746.405
507.6976, 3818.765
508.1797, 3898.084
508.6619, 3985.408
509.1440, 4080.501
509.6261, 4184.258
510.1082, 4296.154
510.5903, 4416.733
511.0724, 4554.489
511.5546, 4719.279
512.0367, 4903.631
512.5188, 5092.547
513.0009, 5284.076
513.4830, 5498.441
513.9651, 5753.475
514.4473, 6042.635
514.9294, 6356.129
515.4115, 6686.650
515.8936, 7043.989
516.3757, 7431.654
516.8578, 7849.059
517.3400, 8309.688
517.8221, 8825.394
518.3042, 9378.175
518.7863, 9955.915
519.2684, 10541.81
519.7505, 11196.45
520.2327, 11916.96
520.7148, 12704.33
521.1969, 13545.14
521.6790, 14438.81
522.1611, 15399.44
522.6432, 16433.48
523.1254, 17540.74
523.6075, 18699.69
524.0896, 19907.41
524.5717, 21153.02
525.0538, 22452.07
525.5359, 23781.41
526.0181, 25112.40
526.5002, 26467.04
526.9823, 27708.46
527.4644, 28786.54
527.9465, 29648.62
528.4286, 30182.25
528.9108, 30342.38
529.3929, 30175.17
529.8750, 29697.87
530.3571, 28919.42
530.8392, 27892.37
531.3214, 26485.65
531.8035, 24949.43
532.2856, 23390.64
532.7677, 21800.16
533.2498, 20263.45
533.7319, 18750.38
534.2141, 17313.75
534.6962, 15981.69
535.1783, 14760.92
535.6604, 13650.20
536.1425, 12636.91
536.6246, 11726.12
537.1067, 10905.56
537.5888, 10190.25
538.0709, 9539.662
538.5530, 8925.864
539.0352, 8354.112
539.5173, 7851.850
539.9994, 7430.113
540.4815, 7059.370
540.9636, 6720.962
541.4457, 6409.234
541.9279, 6114.994
542.4100, 5835.124
542.8921, 5572.072
543.3742, 5337.697
543.8563, 5128.420
544.3384, 4936.934
544.8206, 4762.919
545.3027, 4602.616
545.7848, 4456.893
546.2669, 4326.096
546.7490, 4203.171
547.2311, 4084.169
547.7133, 3973.724
548.1954, 3872.824
548.6775, 3797.603
549.1596, 3712.494
549.6417, 3603.412
550.1238, 3487.276
550.6060, 3401.206
551.0881, 3358.888
551.5702, 3316.557
552.0523, 3257.906
552.5344, 3185.457
553.0165, 3129.364
553.4987, 3092.130
553.9808, 3057.995
554.4629, 3010.007
554.9450, 2952.911
555.4271, 2910.752
555.9092, 2889.439
556.3914, 2874.613
556.8735, 2853.261
557.3556, 2825.883
557.8377, 2793.674
558.3198, 2746.476
558.8019, 2703.097
559.2841, 2683.488
559.7662, 2683.087
560.2483, 2675.280
560.7304, 2639.590
561.2125, 2601.075
561.6946, 2574.356
562.1768, 2566.195
562.6589, 2556.790
563.1410, 2544.752
563.6231, 2531.046
564.1052, 2516.420
564.5873, 2500.465
565.0695, 2484.476
565.5516, 2469.068
566.0337, 2453.366
566.5158, 2431.880
566.9979, 2402.682
567.4800, 2382.216
567.9622, 2383.790
568.4443, 2401.569
568.9264, 2415.671
569.4085, 2426.220
569.8906, 2428.332
570.3727, 2408.498
570.8549, 2379.896
571.3370, 2364.407
571.8191, 2373.635
572.3012, 2383.749
572.7833, 2378.156
573.2654, 2362.657
573.7476, 2348.053
574.2297, 2337.157
574.7118, 2328.243
575.1939, 2322.880
575.6760, 2320.892
576.1581, 2312.772
576.6403, 2289.479
577.1224, 2269.443
577.6045, 2263.005
578.0866, 2274.906
578.5687, 2285.552
579.0508, 2296.253
579.5330, 2303.252
580.0151, 2299.255
580.4972, 2284.476
580.9793, 2272.274
581.4614, 2266.880
581.9435, 2264.950
582.4257, 2260.810
582.9078, 2254.774
583.3899, 2248.545
583.8720, 2241.009
584.3541, 2234.987
584.8362, 2233.983
585.3184, 2238.318
585.8005, 2243.290
586.2826, 2247.791
586.7647, 2251.162
587.2468, 2253.011
587.7289, 2254.750
588.2111, 2252.752
588.6932, 2244.141
589.1753, 2232.312
589.6574, 2222.270
590.1395, 2213.855
590.6216, 2207.671
591.1038, 2204.517
591.5859, 2203.725
592.0680, 2200.200
592.5501, 2192.944
593.0322, 2189.455
593.5143, 2198.590
593.9965, 2216.163
594.4786, 2224.805
594.9607, 2222.987
595.4428, 2217.291
595.9249, 2212.520
596.4070, 2208.383
596.8892, 2204.290
597.3713, 2199.308
597.8534, 2195.546
598.3355, 2197.282
598.8176, 2200.969
599.2997, 2199.087
599.7819, 2179.875
600.2640, 2164.218
600.7461, 2159.730
601.2282, 2166.528
601.7103, 2175.494
602.1924, 2189.364
602.6746, 2201.566
603.1567, 2208.639
603.6388, 2210.681
604.1209, 2206.184
604.6030, 2193.599
605.0851, 2178.522
605.5673, 2168.150
606.0494, 2161.744
606.5315, 2155.220
607.0136, 2145.701
607.4957, 2138.250
607.9778, 2145.049
608.4600, 2160.067
608.9421, 2165.647
609.4242, 2142.196
609.9063, 2114.582
610.3884, 2099.628
610.8705, 2097.717
611.3527, 2095.992
611.8348, 2090.579
612.3169, 2084.481
612.7990, 2079.531
613.2811, 2076.201
613.7632, 2072.785
614.2454, 2067.949
614.7275, 2064.494
