##NAMES=Ekatite
##RRUFFID=R110136
##IDEAL CHEMISTRY=(Fe^3+^,Fe^2+^,Zn^2+^)_12_(As^3+^O_3_)_6_(As^3+^O_3_,SiO_3_OH)_2_(OH)_6_
##LOCALITY=Tsumeb, Namibia
##OWNER=RRUFF
##SOURCE=William W. Pinch
##DESCRIPTION=Radiating aggregate of thin black prismatic crystals
##STATUS=The identification of this mineral has been confirmed by single-crystal X-ray diffraction.
##URL=rruff.info/R110136
187.5447, 843.8979
188.0269, 838.0184
188.5090, 838.6865
188.9911, 839.9048
189.4732, 841.1119
189.9553, 841.9224
190.4374, 841.0948
190.9196, 837.4628
191.4017, 833.8965
191.8838, 834.1968
192.3659, 838.0385
192.8480, 844.7821
193.3301, 859.6813
193.8123, 878.6047
194.2944, 884.6689
194.7765, 865.8117
195.2586, 841.9920
195.7407, 834.6967
196.2228, 844.1647
196.7050, 857.2271
197.1871, 865.3248
197.6692, 868.6222
198.1513, 870.8164
198.6334, 872.9655
199.1155, 873.6901
199.5977, 871.2523
200.0798, 865.7850
200.5619, 860.3563
201.0440, 857.0174
201.5261, 855.3812
202.0082, 858.5026
202.4904, 870.6040
202.9725, 885.0618
203.4546, 901.1709
203.9367, 917.7858
204.4188, 931.0059
204.9009, 932.9948
205.3831, 915.7593
205.8652, 912.3956
206.3473, 930.6465
206.8294, 956.5519
207.3115, 984.8910
207.7936, 1013.519
208.2758, 1040.843
208.7579, 1063.360
209.2400, 1074.546
209.7221, 1095.897
210.2042, 1131.204
210.6863, 1171.890
211.1685, 1210.752
211.6506, 1247.055
212.1327, 1287.083
212.6148, 1341.370
213.0969, 1421.336
213.5790, 1490.790
214.0612, 1544.786
214.5433, 1592.065
215.0254, 1638.461
215.5075, 1685.414
215.9896, 1734.724
216.4717, 1790.144
216.9539, 1861.835
217.4360, 1912.616
217.9181, 1936.961
218.4002, 1942.746
218.8823, 1937.263
219.3644, 1922.228
219.8466, 1891.379
220.3287, 1854.699
220.8108, 1796.556
221.2929, 1732.190
221.7750, 1656.875
222.2571, 1578.322
222.7393, 1505.084
223.2214, 1438.775
223.7035, 1379.326
224.1856, 1330.413
224.6677, 1291.236
225.1498, 1251.160
225.6320, 1203.999
226.1141, 1155.130
226.5962, 1112.755
227.0783, 1077.800
227.5604, 1050.619
228.0425, 1035.403
228.5247, 1029.415
229.0068, 1021.546
229.4889, 1002.653
229.9710, 979.4182
230.4531, 968.8714
230.9352, 978.5568
231.4174, 988.6388
231.8995, 983.1709
232.3816, 966.1310
232.8637, 947.4550
233.3458, 928.9181
233.8279, 912.1217
234.3101, 903.5140
234.7922, 909.2746
235.2743, 913.0884
235.7564, 903.0038
236.2385, 884.5110
236.7206, 868.4836
237.2028, 860.6919
237.6849, 860.2917
238.1670, 863.8387
238.6491, 872.7512
239.1312, 883.9395
239.6133, 905.1169
240.0955, 926.5143
240.5776, 930.2218
241.0597, 899.7667
241.5418, 844.6994
242.0239, 812.6438
242.5060, 818.7560
242.9882, 828.8960
243.4703, 832.3014
243.9524, 832.8758
244.4345, 838.2479
244.9166, 854.4977
245.3987, 876.9546
245.8809, 882.3088
246.3630, 852.2155
246.8451, 827.9269
247.3272, 816.7802
247.8093, 816.2174
248.2914, 824.8766
248.7736, 842.9134
249.2557, 866.0660
249.7378, 876.5414
250.2199, 860.7947
250.7020, 848.3885
251.1841, 845.5262
251.6663, 847.2690
252.1484, 847.6852
252.6305, 843.8959
253.1126, 837.1599
253.5947, 831.2552
254.0768, 824.0060
254.5590, 820.7386
255.0411, 822.2427
255.5232, 827.6100
256.0053, 837.8188
256.4874, 853.1742
256.9695, 869.4810
257.4517, 876.6016
257.9338, 868.3865
258.4159, 857.0890
258.8980, 834.0397
259.3801, 811.6941
259.8622, 804.4279
260.3444, 817.0280
260.8265, 841.2438
261.3086, 861.8763
261.7907, 879.8493
262.2728, 891.8732
262.7549, 891.4684
263.2371, 888.2720
263.7192, 892.4570
264.2013, 906.6403
264.6834, 925.4584
265.1655, 941.8485
265.6476, 957.7847
266.1298, 964.3104
266.6119, 947.3246
267.0940, 928.5555
267.5761, 931.6232
268.0582, 960.5044
268.5403, 996.4565
269.0225, 1018.282
269.5046, 1022.582
269.9867, 1023.978
270.4688, 1014.883
270.9509, 1007.876
271.4330, 1014.364
271.9152, 1035.452
272.3973, 1064.597
272.8794, 1098.313
273.3615, 1136.867
273.8436, 1165.823
274.3257, 1181.007
274.8079, 1189.478
275.2900, 1191.965
275.7721, 1189.772
276.2542, 1194.743
276.7363, 1219.154
277.2184, 1260.307
277.7006, 1291.022
278.1827, 1300.948
278.6648, 1308.382
279.1469, 1328.346
279.6290, 1359.173
280.1111, 1386.582
280.5933, 1402.045
281.0754, 1406.991
281.5575, 1410.130
282.0396, 1410.521
282.5217, 1410.289
283.0038, 1411.540
283.4860, 1413.674
283.9681, 1414.498
284.4502, 1416.031
284.9323, 1412.354
285.4144, 1391.980
285.8965, 1348.658
286.3787, 1304.830
286.8608, 1272.669
287.3429, 1250.163
287.8250, 1229.087
288.3071, 1205.549
288.7892, 1184.408
289.2714, 1176.506
289.7535, 1184.960
290.2356, 1182.365
290.7177, 1140.957
291.1998, 1078.242
291.6819, 1043.744
292.1641, 1056.803
292.6462, 1084.014
293.1283, 1090.267
293.6104, 1077.918
294.0925, 1058.536
294.5746, 1028.567
295.0568, 995.9980
295.5389, 980.5900
296.0210, 990.6035
296.5031, 999.8876
296.9852, 981.4835
297.4673, 943.7684
297.9495, 907.4697
298.4316, 876.5965
298.9137, 852.0825
299.3958, 837.4874
299.8779, 834.6664
300.3600, 832.9671
300.8422, 823.8966
301.3243, 811.3776
301.8064, 802.2609
302.2885, 798.4662
302.7706, 798.1512
303.2527, 802.1226
303.7349, 811.1664
304.2170, 813.0190
304.6991, 795.4572
305.1812, 770.2176
305.6633, 754.2411
306.1454, 752.8837
306.6276, 752.7521
307.1097, 737.7931
307.5918, 709.3948
308.0739, 692.7924
308.5560, 704.6658
309.0381, 724.9102
309.5203, 729.4391
310.0024, 716.3282
310.4845, 701.6846
310.9666, 697.7257
311.4487, 702.0499
311.9308, 702.7856
312.4130, 696.8900
312.8951, 687.7357
313.3772, 676.5455
313.8593, 664.0276
314.3414, 655.8877
314.8235, 656.5588
315.3057, 663.6066
315.7878, 672.6864
316.2699, 686.7995
316.7520, 694.5934
317.2341, 681.6460
317.7162, 656.2064
318.1984, 635.8214
318.6805, 627.2889
319.1626, 627.2245
319.6447, 632.3104
320.1268, 643.9193
320.6089, 653.8234
321.0911, 657.8245
321.5732, 656.9635
322.0553, 650.9302
322.5374, 635.6270
323.0195, 621.7284
323.5016, 624.1241
323.9838, 643.0056
324.4659, 655.2999
324.9480, 647.0229
325.4301, 631.1747
325.9122, 624.1924
326.3943, 628.1255
326.8765, 634.2949
327.3586, 636.6937
327.8407, 635.9559
328.3228, 635.5895
328.8049, 636.6570
329.2870, 637.9418
329.7692, 638.8254
330.2513, 639.2422
330.7334, 637.6788
331.2155, 630.0575
331.6976, 620.2276
332.1797, 618.8956
332.6619, 630.2543
333.1440, 641.4248
333.6261, 639.7471
334.1082, 629.6151
334.5903, 620.7466
335.0724, 617.8370
335.5546, 616.8846
336.0367, 610.5961
336.5188, 597.9858
337.0009, 590.9653
337.4830, 601.5620
337.9651, 620.8472
338.4473, 631.3679
338.9294, 626.7035
339.4115, 620.1998
339.8936, 625.3972
340.3757, 640.1318
340.8578, 647.3943
341.3400, 638.3492
341.8221, 621.0763
342.3042, 607.5426
342.7863, 597.4904
343.2684, 591.3970
343.7505, 589.0132
344.2327, 590.7576
344.7148, 600.1776
345.1969, 621.4056
345.6790, 641.2770
346.1611, 641.6609
346.6432, 625.6945
347.1254, 608.8534
347.6075, 589.2467
348.0896, 573.7659
348.5717, 574.8849
349.0538, 594.2477
349.5359, 613.6668
350.0181, 619.8097
350.5002, 614.4679
350.9823, 608.6250
351.4644, 598.0646
351.9465, 591.2805
352.4286, 597.3121
352.9108, 613.4517
353.3929, 626.6439
353.8750, 629.8937
354.3571, 626.8737
354.8392, 626.6253
355.3214, 629.0223
355.8035, 633.7366
356.2856, 646.0765
356.7677, 659.6825
357.2498, 660.7715
357.7319, 643.9532
358.2141, 622.0634
358.6962, 613.4498
359.1783, 620.5881
359.6604, 624.9242
360.1425, 623.0204
360.6246, 618.2687
361.1068, 613.1670
361.5889, 608.1152
362.0710, 603.4007
362.5531, 598.6159
363.0352, 594.0587
363.5173, 594.7048
363.9995, 602.8260
364.4816, 613.3236
364.9637, 628.0633
365.4458, 643.5219
365.9279, 649.8317
366.4100, 640.5448
366.8922, 621.7396
367.3743, 613.5511
367.8564, 624.6975
368.3385, 633.2899
368.8206, 635.1439
369.3027, 633.6256
369.7849, 632.3890
370.2670, 632.4885
370.7491, 633.0079
371.2312, 632.8214
371.7133, 632.2104
372.1954, 629.6564
372.6776, 620.2983
373.1597, 613.1620
373.6418, 616.4080
374.1239, 627.9824
374.6060, 638.4498
375.0881, 640.2515
375.5703, 633.6150
376.0524, 627.2153
376.5345, 614.7841
377.0166, 609.6075
377.4987, 621.7084
377.9808, 641.1534
378.4630, 653.0576
378.9451, 650.5255
379.4272, 639.3963
379.9093, 633.6419
380.3914, 638.0802
380.8735, 639.9598
381.3557, 634.2589
381.8378, 629.2598
382.3199, 633.6428
382.8020, 647.0889
383.2841, 659.9725
383.7662, 660.4485
384.2484, 646.0543
384.7305, 636.5310
385.2126, 635.9477
385.6947, 636.5281
386.1768, 635.6704
386.6589, 634.1586
387.1411, 633.7296
387.6232, 635.2159
388.1053, 638.8749
388.5874, 646.6871
389.0695, 664.3948
389.5516, 675.0222
390.0338, 668.6725
390.5159, 657.8737
390.9980, 655.0773
391.4801, 663.6446
391.9622, 675.0774
392.4443, 679.3935
392.9265, 676.1757
393.4086, 669.6503
393.8907, 654.5126
394.3728, 641.8119
394.8549, 639.5173
395.3370, 645.6863
395.8192, 652.2057
396.3013, 654.9302
396.7834, 654.0277
397.2655, 648.7408
397.7476, 636.3101
398.2297, 626.7245
398.7119, 628.7323
399.1940, 635.6434
399.6761, 639.6304
400.1582, 639.5784
400.6403, 634.2158
401.1224, 617.6450
401.6046, 590.8612
402.0867, 574.3422
402.5688, 580.5897
403.0509, 592.5987
403.5330, 587.3632
404.0151, 564.4152
404.4973, 546.9813
404.9794, 551.6107
405.4615, 566.5385
405.9436, 570.0944
406.4257, 558.7169
406.9078, 544.6008
407.3900, 535.7573
407.8721, 532.5381
408.3542, 534.7675
408.8363, 555.0217
409.3184, 569.4610
409.8005, 555.3748
410.2827, 520.8724
410.7648, 494.8304
411.2469, 490.9527
411.7290, 500.6642
412.2111, 504.8808
412.6932, 500.5963
413.1754, 499.1705
413.6575, 504.7488
414.1396, 512.9254
414.6217, 520.1411
415.1038, 525.4402
415.5859, 527.7986
416.0681, 526.0193
416.5502, 519.7885
417.0323, 512.0717
417.5144, 499.8902
417.9965, 489.5447
418.4786, 485.3394
418.9608, 484.6638
419.4429, 481.3453
419.9250, 471.9432
420.4071, 460.2861
420.8892, 457.5081
421.3713, 475.4110
421.8535, 484.2262
422.3356, 477.7772
422.8177, 466.3676
423.2998, 456.3343
423.7819, 449.3655
424.2640, 445.3788
424.7462, 444.3135
425.2283, 446.1905
425.7104, 450.7596
426.1925, 463.7369
426.6746, 473.1109
427.1567, 471.3428
427.6389, 464.6977
428.1210, 463.4841
428.6031, 473.2210
429.0852, 488.3882
429.5673, 498.3725
430.0494, 502.9019
430.5316, 503.3860
431.0137, 498.9227
431.4958, 491.0427
431.9779, 478.5331
432.4600, 462.0641
432.9421, 447.3068
433.4243, 435.2713
433.9064, 427.8316
434.3885, 436.0963
434.8706, 468.4133
435.3527, 498.1891
435.8348, 503.9015
436.3170, 496.3364
436.7991, 493.7157
437.2812, 506.0204
437.7633, 516.7477
438.2454, 505.2794
438.7275, 475.4372
439.2097, 454.7629
439.6918, 454.7961
440.1739, 465.0853
440.6560, 470.4544
441.1381, 470.6624
441.6202, 471.4539
442.1024, 474.2147
442.5845, 478.4820
443.0666, 485.1734
443.5487, 493.9483
444.0308, 500.0872
444.5129, 499.4923
444.9951, 492.9008
445.4772, 487.8256
445.9593, 484.9537
446.4414, 482.5767
446.9235, 478.3454
447.4056, 474.8208
447.8878, 477.4942
448.3699, 488.0414
448.8520, 500.0759
449.3341, 503.7381
449.8162, 496.1856
450.2983, 487.6548
450.7805, 475.3608
451.2626, 464.7944
451.7447, 457.7491
452.2268, 454.8148
452.7089, 458.0500
453.1910, 470.2315
453.6732, 486.8314
454.1553, 487.0031
454.6374, 454.7146
455.1195, 433.4121
455.6016, 431.9128
456.0837, 441.3428
456.5659, 459.2790
457.0480, 483.3716
457.5301, 502.3250
458.0122, 500.6706
458.4943, 478.9306
458.9764, 464.6793
459.4586, 458.1815
459.9407, 460.8247
460.4228, 483.3116
460.9049, 512.7079
461.3870, 524.3137
461.8691, 503.6286
462.3513, 471.5067
462.8334, 450.3427
463.3155, 440.0652
463.7976, 440.2102
464.2797, 456.2049
464.7618, 476.1012
465.2440, 483.0294
465.7261, 476.7699
466.2082, 474.1964
466.6903, 485.5431
467.1724, 501.1688
467.6545, 509.4699
468.1367, 509.6719
468.6188, 506.6536
469.1009, 503.5143
469.5830, 499.7911
470.0651, 493.0010
470.5472, 473.5746
471.0294, 463.4879
471.5115, 474.0312
471.9936, 494.5740
472.4757, 514.2402
472.9578, 529.5044
473.4399, 538.3348
473.9221, 537.9921
474.4042, 527.5192
474.8863, 512.9465
475.3684, 481.5421
475.8505, 459.7528
476.3326, 462.9889
476.8148, 481.4671
477.2969, 498.7101
477.7790, 506.6681
478.2611, 509.0406
478.7432, 514.0866
479.2253, 524.5588
479.7075, 529.7504
480.1896, 522.7311
480.6717, 514.8712
481.1538, 512.7965
481.6359, 515.8698
482.1180, 519.0504
482.6002, 518.6302
483.0823, 515.9514
483.5644, 515.1630
484.0465, 517.0473
484.5286, 518.0477
485.0107, 518.6004
485.4929, 516.2043
485.9750, 505.9822
486.4571, 485.5150
486.9392, 467.5291
487.4213, 457.1605
487.9034, 455.1982
488.3856, 467.4434
488.8677, 496.9146
489.3498, 524.2460
489.8319, 530.9281
490.3140, 518.3408
490.7961, 512.6902
491.2783, 520.7401
491.7604, 528.4496
492.2425, 528.9655
492.7246, 524.7452
493.2067, 520.2908
493.6888, 517.1993
494.1710, 514.8541
494.6531, 512.6469
495.1352, 511.6891
495.6173, 507.0501
496.0994, 491.9962
496.5815, 480.2993
497.0637, 483.1759
497.5458, 494.3789
498.0279, 499.2828
498.5100, 489.0978
498.9921, 470.5174
499.4742, 459.9913
499.9564, 458.8236
500.4385, 462.7340
500.9206, 478.6566
501.4027, 493.4919
501.8848, 498.8994
502.3669, 495.1155
502.8491, 487.3982
503.3312, 476.4269
503.8133, 464.8017
504.2954, 461.8581
504.7775, 470.3837
505.2596, 474.1021
505.7418, 460.1491
506.2239, 439.9919
506.7060, 429.3264
507.1881, 429.4929
507.6702, 437.0169
508.1523, 456.4248
508.6345, 480.0506
509.1166, 497.2414
509.5987, 506.4782
510.0808, 502.7462
510.5629, 476.4930
511.0450, 431.4980
511.5272, 410.1880
512.0093, 433.4901
512.4914, 452.1353
512.9735, 445.2201
513.4556, 428.0930
513.9377, 421.7139
514.4199, 431.4630
514.9020, 447.6627
515.3841, 459.1849
515.8662, 466.5209
516.3483, 465.7603
516.8304, 444.0229
517.3126, 427.8126
517.7947, 428.9071
518.2768, 438.9306
518.7589, 445.0372
519.2410, 442.0023
519.7231, 435.7809
520.2053, 435.1702
520.6874, 440.6137
521.1695, 445.7054
521.6516, 452.7635
522.1337, 454.9464
522.6158, 444.3299
523.0980, 425.4214
523.5801, 411.0689
524.0622, 405.4935
524.5443, 406.7350
525.0264, 416.8995
525.5085, 433.8832
525.9907, 444.6947
526.4728, 444.5994
526.9549, 436.9527
527.4370, 424.7171
527.9191, 406.2292
528.4012, 393.3217
528.8834, 388.8109
529.3655, 388.8198
529.8476, 394.5075
530.3297, 402.6780
530.8118, 404.0772
531.2939, 393.0984
531.7761, 376.4369
532.2582, 371.8207
532.7403, 389.6705
533.2224, 400.4751
533.7045, 403.4492
534.1866, 400.5203
534.6688, 388.5988
535.1509, 371.3916
535.6330, 358.4550
536.1151, 356.8595
536.5972, 362.6440
537.0793, 366.3978
537.5615, 369.1163
538.0436, 365.4327
538.5257, 347.5101
539.0078, 327.3258
539.4899, 313.1815
539.9720, 305.6371
540.4542, 306.7824
540.9363, 324.3777
541.4184, 347.9443
541.9005, 361.8030
542.3826, 365.8175
542.8647, 370.1267
543.3469, 382.4037
543.8290, 395.9210
544.3111, 390.9046
544.7932, 356.4631
545.2753, 331.9892
545.7574, 326.0526
546.2396, 329.9645
546.7217, 339.0050
547.2038, 351.1924
547.6859, 364.1473
548.1680, 376.8303
548.6501, 387.8574
549.1323, 390.3487
549.6144, 376.5641
550.0965, 367.6259
550.5786, 370.6743
551.0607, 375.0315
551.5428, 373.1708
552.0250, 364.7433
552.5071, 353.6501
552.9892, 341.5771
553.4713, 329.2985
553.9534, 316.9972
554.4355, 302.8150
554.9177, 298.9956
555.3998, 317.8464
555.8819, 344.4062
556.3640, 358.5671
556.8461, 359.0168
557.3282, 355.5747
557.8104, 350.7486
558.2925, 344.8021
558.7746, 335.2922
559.2567, 323.4552
559.7388, 319.7016
560.2209, 332.3292
560.7031, 354.2163
561.1852, 362.5965
561.6673, 339.7395
562.1494, 328.3226
562.6315, 340.3307
563.1136, 354.9978
563.5958, 354.9890
564.0779, 342.6712
564.5600, 333.1817
565.0421, 338.4135
565.5242, 352.2153
566.0063, 352.2121
566.4885, 331.8179
566.9706, 316.9037
567.4527, 320.2632
567.9348, 326.1968
568.4169, 320.7821
568.8990, 305.8159
569.3812, 297.9999
569.8633, 310.3309
570.3454, 332.6865
570.8275, 354.8950
571.3096, 375.9988
571.7917, 383.3070
572.2739, 366.8935
572.7560, 341.3290
573.2381, 335.0452
573.7202, 355.8357
574.2023, 363.8402
574.6844, 342.4850
575.1666, 318.4312
575.6487, 308.6690
576.1308, 311.6926
576.6129, 320.9140
577.0950, 333.2706
577.5771, 345.9375
578.0593, 353.2375
578.5414, 355.9889
579.0235, 351.0419
579.5056, 323.1878
579.9877, 301.6662
580.4698, 304.5192
580.9520, 323.9383
581.4341, 341.0818
581.9162, 347.8833
582.3983, 348.0557
582.8804, 345.1794
583.3625, 339.5047
583.8447, 333.7865
584.3268, 328.6276
584.8089, 323.6336
585.2910, 317.2299
585.7731, 309.9473
586.2552, 307.6715
586.7374, 317.0373
587.2195, 325.1236
587.7016, 319.3839
588.1837, 309.3132
588.6658, 315.4188
589.1479, 342.8255
589.6301, 371.6472
590.1122, 375.3070
590.5943, 349.5986
591.0764, 339.3234
591.5585, 368.5488
592.0406, 384.9927
592.5228, 363.6017
593.0049, 328.9243
593.4870, 309.5282
593.9691, 312.6990
594.4512, 326.6612
594.9333, 345.8246
595.4155, 367.3463
595.8976, 376.9883
596.3797, 371.6412
596.8618, 364.9287
597.3439, 365.3505
597.8260, 369.5271
598.3082, 368.7601
598.7903, 360.4330
599.2724, 353.8022
599.7545, 350.3541
600.2366, 350.9788
600.7188, 360.2202
601.2009, 375.9536
601.6830, 387.2289
602.1651, 386.4549
602.6472, 376.2336
603.1293, 365.8696
603.6115, 354.1763
604.0936, 344.6073
604.5757, 335.4273
605.0578, 329.8681
605.5399, 331.8387
606.0220, 339.4276
606.5042, 346.9980
606.9863, 352.4930
607.4684, 354.6218
607.9505, 349.3573
608.4326, 336.9350
608.9147, 327.1237
609.3969, 322.2132
609.8790, 321.1416
610.3611, 322.8753
610.8432, 327.3929
611.3253, 335.7111
611.8074, 357.8681
612.2896, 373.4951
612.7717, 370.0611
613.2538, 353.3524
613.7359, 328.1229
614.2180, 297.4002
614.7001, 275.9666
615.1823, 284.8539
615.6644, 326.5185
616.1465, 346.4911
616.6286, 323.5951
617.1107, 307.8070
617.5928, 319.7006
618.0750, 339.9737
618.5571, 348.2888
619.0392, 340.9604
619.5213, 329.7601
620.0034, 320.5112
620.4855, 314.4833
620.9677, 316.3235
621.4498, 326.4922
621.9319, 335.7620
622.4140, 339.9272
622.8961, 340.0928
623.3782, 337.7650
623.8604, 331.3448
624.3425, 327.7766
624.8246, 331.3549
625.3067, 334.9256
625.7888, 331.4364
626.2709, 324.0596
626.7531, 322.0881
627.2352, 330.2451
627.7173, 341.7461
628.1994, 343.1818
628.6815, 332.0886
629.1636, 324.7774
629.6458, 325.3157
630.1279, 325.6063
630.6100, 320.0475
631.0921, 311.8841
631.5742, 307.1699
632.0563, 308.2897
632.5385, 310.3454
633.0206, 310.4319
633.5027, 308.8018
633.9848, 303.6901
634.4669, 295.1412
634.9490, 292.8330
635.4312, 305.8418
635.9133, 329.5261
636.3954, 341.9344
636.8775, 329.0484
637.3596, 323.4160
637.8417, 332.6581
638.3239, 344.0592
638.8060, 349.2205
639.2881, 348.2141
639.7702, 343.9195
640.2523, 336.6083
640.7344, 330.7431
641.2166, 338.6639
641.6987, 361.4347
642.1808, 373.1895
642.6629, 364.6728
643.1450, 350.8516
643.6271, 347.1153
644.1093, 349.7318
644.5914, 344.3862
645.0735, 317.4200
645.5556, 295.5766
646.0377, 296.9102
646.5198, 308.6679
647.0020, 310.6413
647.4841, 300.2538
647.9662, 292.5834
648.4483, 302.8500
648.9304, 326.8102
649.4125, 333.3752
649.8947, 311.0760
650.3768, 292.7266
650.8589, 285.0449
651.3410, 282.2176
651.8231, 279.4303
652.3052, 277.4601
652.7874, 281.8326
653.2695, 301.2288
653.7516, 322.6695
654.2337, 327.1653
654.7158, 318.6198
655.1979, 316.4481
655.6801, 327.2346
656.1622, 339.4581
656.6443, 340.3114
657.1264, 329.1810
657.6085, 318.1520
658.0906, 302.5197
658.5728, 292.8045
659.0549, 297.8705
659.5370, 306.1685
660.0191, 303.8971
660.5012, 290.4464
660.9833, 277.5563
661.4655, 274.5587
661.9476, 279.5471
662.4297, 287.5983
662.9118, 299.1136
663.3939, 310.7985
663.8760, 323.4598
664.3582, 333.6156
664.8403, 336.8721
665.3224, 333.7111
665.8045, 326.6884
666.2866, 309.5478
666.7687, 295.5955
667.2509, 295.2928
667.7330, 302.1822
668.2151, 307.0367
668.6972, 306.8365
669.1793, 300.4299
669.6614, 284.3427
670.1436, 260.0702
670.6257, 250.1820
671.1078, 263.1461
671.5899, 272.9198
672.0720, 265.5275
672.5541, 256.9689
673.0363, 262.0947
673.5184, 280.2119
674.0005, 295.6828
674.4826, 302.2654
674.9647, 302.9608
675.4468, 294.8723
675.9290, 283.2057
676.4111, 288.8312
676.8932, 318.7347
677.3753, 345.0490
677.8574, 331.8986
678.3395, 277.0063
678.8217, 241.7775
679.3038, 237.2047
679.7859, 239.3446
680.2680, 247.1299
680.7501, 257.9403
681.2322, 273.2928
681.7144, 290.9909
682.1965, 300.4442
682.6786, 289.3509
683.1607, 269.4378
683.6428, 260.0764
684.1249, 260.2200
684.6071, 261.5748
