##NAMES=Elbaite
##RRUFFID=R060631
##IDEAL CHEMISTRY=Na(Al_1.5_Li_1.5_)Al_6_(Si_6_O_18_)(BO_3_)_3_(OH)_3_OH
##LOCALITY=unknown
##OWNER=RRUFF
##SOURCE=Gemological Institute of America
##DESCRIPTION=Pink polished fragment
##STATUS=The identification of this mineral is confirmed by single-crystal X-ray diffraction and chemical analysis.
##URL=rruff.info/R060631
##MEASURED CHEMISTRY=(Na_0.55_Ca_0.34_[box]_0.11_)(Li_1.53_Al_1.30_Mn_0.14_Fe^2+^_0.03_)Al_6.00_(BO_3_)_3_[Si_6.00_O_18_]((OH)_0.82_F_0.18_)_4_
92.20605, 170.3930
92.68817, 168.5480
93.17029, 168.8804
93.65240, 170.5764
94.13452, 173.0210
94.61664, 175.0034
95.09875, 176.2678
95.58087, 177.0648
96.06299, 177.6189
96.54510, 178.0564
97.02722, 178.0391
97.50933, 177.4290
97.99145, 176.5288
98.47356, 175.7239
98.95568, 175.1842
99.43780, 174.6426
99.91991, 173.9618
100.4020, 172.8540
100.8841, 171.9519
101.3663, 171.5279
101.8484, 171.5358
102.3305, 171.7407
102.8126, 171.9406
103.2947, 172.1428
103.7768, 172.2228
104.2590, 171.9633
104.7411, 171.6610
105.2232, 171.6609
105.7053, 172.0641
106.1874, 172.6187
106.6695, 172.9644
107.1517, 173.1141
107.6338, 173.2222
108.1159, 173.3164
108.5980, 173.4046
109.0801, 173.5422
109.5622, 173.7139
110.0444, 173.9649
110.5265, 174.3996
111.0086, 175.0322
111.4907, 175.5971
111.9728, 175.6475
112.4549, 174.8804
112.9371, 174.6618
113.4192, 175.7333
113.9013, 177.1183
114.3834, 178.1473
114.8655, 178.5587
115.3476, 178.5249
115.8298, 178.4863
116.3119, 178.3476
116.7940, 178.3334
117.2761, 178.3670
117.7582, 178.5518
118.2403, 179.1085
118.7225, 180.2163
119.2046, 181.7784
119.6867, 182.6000
120.1688, 182.0189
120.6509, 181.5212
121.1330, 181.6497
121.6152, 182.3374
122.0973, 183.2510
122.5794, 184.2231
123.0615, 185.2096
123.5436, 185.8613
124.0257, 185.9331
124.5079, 185.8085
124.9900, 185.7951
125.4721, 185.9099
125.9542, 186.1708
126.4363, 186.8140
126.9184, 187.6589
127.4006, 188.2237
127.8827, 188.0259
128.3648, 187.3715
128.8469, 187.2244
129.3290, 187.8716
129.8111, 188.7824
130.2932, 189.6470
130.7754, 190.4728
131.2575, 191.2966
131.7396, 192.2598
132.2217, 193.4278
132.7038, 194.1458
133.1859, 194.0364
133.6681, 193.7300
134.1502, 193.4618
134.6323, 193.2650
135.1144, 193.0459
135.5965, 192.6827
136.0786, 192.1457
136.5608, 191.4932
137.0429, 190.4312
137.5250, 189.4442
138.0071, 188.9663
138.4892, 189.1081
138.9713, 189.5910
139.4535, 189.8391
139.9356, 189.6035
140.4177, 189.4683
140.8998, 189.4350
141.3819, 189.5250
141.8640, 189.8277
142.3462, 190.4247
142.8283, 191.1480
143.3104, 191.4873
143.7925, 191.2652
144.2746, 191.0625
144.7567, 191.1913
145.2388, 191.5683
145.7210, 191.8010
146.2031, 191.5141
146.6852, 191.0994
147.1673, 191.2973
147.6494, 192.3989
148.1315, 193.7282
148.6137, 194.7117
149.0958, 195.3352
149.5779, 195.7171
150.0600, 195.6206
150.5421, 195.4093
151.0242, 195.4563
151.5064, 195.9480
151.9885, 196.6759
152.4706, 197.2355
152.9527, 197.6451
153.4348, 197.8247
153.9169, 197.8236
154.3991, 197.6154
154.8812, 197.1331
155.3633, 196.3035
155.8454, 195.1932
156.3275, 194.2091
156.8096, 193.1806
157.2918, 192.5075
157.7739, 192.6062
158.2560, 193.1027
158.7381, 193.3345
159.2202, 192.7568
159.7023, 191.3338
160.1845, 190.4606
160.6666, 190.8144
161.1487, 190.9909
161.6308, 190.1804
162.1129, 188.6269
162.5950, 187.2876
163.0772, 187.0878
163.5593, 188.2312
164.0414, 188.7397
164.5235, 188.1193
165.0056, 187.2967
165.4877, 186.9547
165.9698, 187.1447
166.4520, 187.3698
166.9341, 187.0383
167.4162, 186.1543
167.8983, 185.6390
168.3804, 185.7495
168.8625, 186.2153
169.3447, 186.8085
169.8268, 187.5704
170.3089, 188.1703
170.7910, 188.0825
171.2731, 187.4887
171.7552, 187.0251
172.2374, 186.9642
172.7195, 187.2215
173.2016, 187.6106
173.6837, 188.2779
174.1658, 188.8036
174.6479, 188.7678
175.1301, 188.3112
175.6122, 187.9796
176.0943, 188.3023
176.5764, 189.2403
177.0585, 189.8321
177.5406, 189.7457
178.0228, 189.5257
178.5049, 189.4075
178.9870, 189.3941
179.4691, 189.4023
179.9512, 189.3361
180.4333, 189.1629
180.9155, 189.0706
181.3976, 188.9355
181.8797, 188.9790
182.3618, 189.4929
182.8439, 190.3980
183.3260, 191.2515
183.8082, 191.4151
184.2903, 190.3280
184.7724, 190.0568
185.2545, 191.1463
185.7366, 192.4743
186.2187, 193.2995
186.7009, 193.4999
187.1830, 193.4837
187.6651, 193.8388
188.1472, 194.8289
188.6293, 195.6698
189.1114, 196.0930
189.5936, 196.5130
190.0757, 197.3948
190.5578, 198.8456
191.0399, 200.4468
191.5220, 201.4786
192.0041, 201.6064
192.4863, 202.0904
192.9684, 203.3557
193.4505, 204.9492
193.9326, 206.2698
194.4147, 207.1137
194.8968, 207.7752
195.3790, 208.7256
195.8611, 209.9436
196.3432, 211.3081
196.8253, 213.0859
197.3074, 214.9772
197.7895, 216.2153
198.2717, 216.3257
198.7538, 216.1953
199.2359, 217.0544
199.7180, 218.9158
200.2001, 220.7367
200.6822, 221.8885
201.1644, 222.5041
201.6465, 223.2364
202.1286, 224.3571
202.6107, 225.4935
203.0928, 226.2828
203.5749, 226.7302
204.0571, 227.1042
204.5392, 227.4068
205.0213, 227.6473
205.5034, 228.5708
205.9855, 231.0259
206.4676, 233.6265
206.9497, 235.5419
207.4319, 236.7277
207.9140, 237.5918
208.3961, 238.4500
208.8782, 239.2777
209.3603, 240.2583
209.8424, 241.3248
210.3246, 242.6231
210.8067, 244.2882
211.2888, 246.3080
211.7709, 248.5220
212.2530, 250.7070
212.7351, 252.7256
213.2173, 255.1257
213.6994, 258.3083
214.1815, 261.5276
214.6636, 264.2309
215.1457, 266.4225
215.6278, 268.6686
216.1100, 271.7427
216.5921, 276.0629
217.0742, 280.2252
217.5563, 284.1105
218.0384, 287.9684
218.5205, 292.2414
219.0027, 296.8524
219.4848, 301.1410
219.9669, 304.1095
220.4490, 304.9315
220.9311, 306.4384
221.4132, 309.6234
221.8954, 312.7622
222.3775, 314.7383
222.8596, 315.3049
223.3417, 314.7128
223.8238, 313.1894
224.3059, 310.2880
224.7881, 307.5481
225.2702, 305.1475
225.7523, 302.7954
226.2344, 300.2484
226.7165, 297.4562
227.1986, 294.5516
227.6807, 291.6677
228.1629, 288.8076
228.6450, 286.0222
229.1271, 283.2617
229.6092, 280.6074
230.0913, 278.1097
230.5734, 275.7725
231.0556, 273.7583
231.5377, 272.3218
232.0198, 271.4552
232.5019, 270.8719
232.9840, 270.8769
233.4661, 271.0025
233.9483, 270.5970
234.4304, 269.5123
234.9125, 268.2909
235.3946, 267.3895
235.8767, 266.7694
236.3588, 266.3842
236.8410, 266.3383
237.3231, 266.4832
237.8052, 266.5565
238.2873, 266.4815
238.7694, 266.5442
239.2515, 267.2569
239.7337, 268.3102
240.2158, 268.9839
240.6979, 268.9693
241.1800, 268.4353
241.6621, 267.6191
242.1442, 266.4137
242.6264, 265.2157
243.1085, 264.3646
243.5906, 263.6813
244.0727, 262.8702
244.5548, 261.7591
245.0369, 260.4716
245.5191, 259.3171
246.0012, 258.4328
246.4833, 257.3474
246.9654, 255.6770
247.4475, 253.7290
247.9296, 251.9064
248.4117, 250.3987
248.8939, 249.1023
249.3760, 247.8087
249.8581, 246.6488
250.3402, 245.1913
250.8223, 242.9929
251.3044, 240.5635
251.7866, 238.4377
252.2687, 236.8210
252.7508, 235.6733
253.2329, 234.9893
253.7150, 235.1505
254.1971, 234.9938
254.6793, 233.9781
255.1614, 232.6784
255.6435, 231.6582
256.1256, 231.1547
256.6077, 230.9349
257.0898, 230.4660
257.5720, 229.4624
258.0541, 228.7938
258.5362, 228.8431
259.0183, 229.0826
259.5004, 229.0544
259.9825, 228.6031
260.4647, 227.9194
260.9468, 227.3074
261.4289, 226.5708
261.9110, 226.3454
262.3931, 226.9485
262.8752, 227.8057
263.3574, 228.5216
263.8395, 228.9774
264.3216, 229.2425
264.8037, 229.3761
265.2858, 229.0994
265.7679, 229.2883
266.2501, 230.3849
266.7322, 231.5618
267.2143, 232.1931
267.6964, 232.2009
268.1785, 231.9982
268.6606, 232.1685
269.1428, 233.0143
269.6249, 233.4209
270.1070, 233.1800
270.5891, 232.7556
271.0712, 232.2888
271.5533, 231.8703
272.0355, 231.6808
272.5176, 231.9913
272.9997, 233.0533
273.4818, 233.4851
273.9639, 232.7956
274.4460, 232.0350
274.9282, 231.8217
275.4103, 232.0965
275.8924, 232.3697
276.3745, 232.1616
276.8566, 231.3785
277.3387, 231.0343
277.8208, 231.5718
278.3029, 232.0189
278.7851, 231.7897
279.2672, 231.0724
279.7493, 230.5133
280.2314, 230.6280
280.7135, 231.3846
281.1956, 231.7778
281.6778, 231.8347
282.1599, 231.5927
282.6420, 230.7041
283.1241, 229.5179
283.6062, 228.8297
284.0883, 229.1795
284.5705, 230.3273
285.0526, 230.8489
285.5347, 230.5178
286.0168, 229.9410
286.4989, 228.9817
286.9810, 227.9058
287.4632, 227.2316
287.9453, 227.2467
288.4274, 227.6286
288.9095, 227.4373
289.3916, 226.2877
289.8737, 225.1869
290.3559, 224.3404
290.8380, 223.6164
291.3201, 222.7924
291.8022, 221.7795
292.2843, 220.7863
292.7664, 220.2196
293.2486, 220.3217
293.7307, 220.2744
294.2128, 220.0442
294.6949, 219.6069
295.1770, 218.8166
295.6591, 217.6430
296.1413, 216.4624
296.6234, 215.7632
297.1055, 215.6795
297.5876, 215.6200
298.0697, 215.7939
298.5518, 215.8431
299.0340, 215.3003
299.5161, 214.1622
299.9982, 213.0171
300.4803, 212.3554
300.9624, 212.2425
301.4445, 212.5848
301.9267, 213.9750
302.4088, 215.3267
302.8909, 215.9166
303.3730, 215.7688
303.8551, 215.3145
304.3372, 214.7556
304.8194, 214.1467
305.3015, 213.8741
305.7836, 213.9164
306.2657, 214.2677
306.7478, 215.1253
307.2299, 216.3251
307.7121, 217.4125
308.1942, 218.1784
308.6763, 218.6349
309.1584, 218.7865
309.6405, 218.3619
310.1227, 218.1006
310.6048, 218.2722
311.0869, 218.7646
311.5690, 219.4895
312.0511, 220.4971
312.5332, 221.4296
313.0154, 221.4417
313.4975, 220.2171
313.9796, 219.2212
314.4617, 218.7036
314.9438, 218.5853
315.4259, 218.8538
315.9081, 219.5217
316.3902, 220.3197
316.8723, 220.9324
317.3544, 221.3386
317.8365, 221.6799
318.3186, 221.9275
318.8007, 222.1407
319.2828, 222.3383
319.7650, 222.5323
320.2471, 222.7966
320.7292, 223.1834
321.2113, 223.7085
321.6934, 224.3910
322.1755, 225.3919
322.6577, 226.4084
323.1398, 227.2576
323.6219, 227.9517
324.1040, 228.6065
324.5861, 229.2984
325.0682, 229.9994
325.5504, 230.5504
326.0325, 230.9248
326.5146, 231.2081
326.9967, 231.3475
327.4788, 231.4205
327.9609, 231.5806
328.4431, 231.8880
328.9252, 232.3352
329.4073, 233.0094
329.8894, 234.4185
330.3715, 234.9630
330.8536, 233.6235
331.3358, 231.5249
331.8179, 230.0634
332.3000, 229.6077
332.7821, 229.7287
333.2642, 229.9565
333.7463, 230.4117
334.2285, 230.4473
334.7106, 229.7406
335.1927, 228.8135
335.6748, 228.0987
336.1569, 227.6269
336.6390, 227.1043
337.1212, 226.2227
337.6033, 224.9609
338.0854, 224.1442
338.5675, 223.9549
339.0496, 223.9674
339.5317, 224.0768
340.0139, 224.2260
340.4960, 224.2944
340.9781, 224.2007
341.4602, 223.9816
341.9423, 223.8217
342.4244, 223.6359
342.9066, 223.5981
343.3887, 223.8632
343.8708, 224.2664
344.3529, 224.5660
344.8350, 224.6675
345.3171, 224.6603
345.7993, 224.7201
346.2814, 225.0228
346.7635, 225.0675
347.2456, 224.5392
347.7277, 223.9421
348.2098, 223.7459
348.6920, 224.0076
349.1741, 224.4198
349.6562, 224.6286
350.1383, 224.5587
350.6204, 224.6783
351.1025, 225.1087
351.5847, 225.5823
352.0668, 225.9090
352.5489, 226.1497
353.0310, 226.5367
353.5131, 227.2660
353.9952, 228.2787
354.4774, 228.9719
354.9595, 228.7357
355.4416, 228.8845
355.9237, 229.7133
356.4058, 231.0620
356.8879, 232.8628
357.3701, 235.0871
357.8522, 237.3831
358.3343, 238.8967
358.8164, 238.5029
359.2985, 239.0917
359.7806, 241.3536
360.2627, 244.1143
360.7448, 246.4112
361.2270, 248.1149
361.7091, 249.7534
362.1912, 251.9557
362.6733, 254.7988
363.1554, 257.8971
363.6375, 261.6476
364.1197, 265.2507
364.6018, 268.0720
365.0839, 270.4605
365.5660, 273.2048
366.0481, 276.8872
366.5302, 281.4278
367.0124, 286.2153
367.4945, 291.2584
367.9766, 296.5733
368.4587, 301.7315
368.9408, 307.2859
369.4229, 314.1963
369.9051, 322.8437
370.3872, 332.0763
370.8693, 339.6413
371.3514, 344.7852
371.8335, 350.1398
372.3156, 356.7939
372.7978, 363.1906
373.2799, 369.0048
373.7620, 373.8559
374.2441, 376.7525
374.7262, 376.0838
375.2083, 371.6862
375.6905, 367.6765
376.1726, 364.9335
376.6547, 361.5298
377.1368, 356.5683
377.6189, 350.3622
378.1010, 343.5888
378.5832, 336.3216
379.0653, 328.9225
379.5474, 322.4237
380.0295, 317.1690
380.5116, 311.9144
380.9937, 306.0369
381.4759, 299.9996
381.9580, 294.2045
382.4401, 288.7396
382.9222, 283.5781
383.4043, 278.7872
383.8864, 274.3548
384.3686, 269.9926
384.8507, 265.5847
385.3328, 261.3031
385.8149, 257.2306
386.2970, 253.3873
386.7791, 249.7063
387.2613, 245.9321
387.7434, 242.3541
388.2255, 239.7581
388.7076, 238.3946
389.1897, 237.3589
389.6718, 236.0510
390.1540, 234.6090
390.6361, 233.3310
391.1182, 232.5337
391.6003, 231.6537
392.0824, 229.8094
392.5645, 227.1721
393.0467, 225.4191
393.5288, 225.6060
394.0109, 226.7138
394.4930, 226.8383
394.9751, 225.8146
395.4572, 224.6144
395.9394, 223.4219
396.4215, 222.3488
396.9036, 221.5484
397.3857, 221.0319
397.8678, 220.9293
398.3499, 221.5384
398.8321, 222.9131
399.3142, 223.8734
399.7963, 224.1986
400.2784, 224.2388
400.7605, 224.0486
401.2426, 223.7392
401.7247, 223.7155
402.2068, 224.2803
402.6890, 225.2560
403.1711, 225.8314
403.6532, 225.8028
404.1353, 225.6959
404.6174, 225.4568
405.0995, 225.2451
405.5817, 225.3977
406.0638, 225.9834
406.5459, 226.5263
407.0280, 226.3254
407.5101, 225.0980
407.9922, 223.9859
408.4744, 223.0929
408.9565, 222.2144
409.4386, 221.4627
409.9207, 220.6534
410.4028, 219.2662
410.8849, 216.8172
411.3671, 213.5248
411.8492, 211.0050
412.3313, 209.8272
412.8134, 208.7836
413.2955, 207.9914
413.7776, 207.1196
414.2598, 205.8678
414.7419, 204.1300
415.2240, 201.9377
415.7061, 199.2215
416.1882, 195.7192
416.6703, 192.5653
417.1525, 189.6444
417.6346, 187.2572
418.1167, 185.7815
418.5988, 185.0180
419.0809, 184.3976
419.5630, 183.5332
420.0452, 182.4853
420.5273, 181.4454
421.0094, 180.2824
421.4915, 179.4319
421.9736, 179.5283
422.4557, 179.8076
422.9379, 179.3820
423.4200, 177.9580
423.9021, 176.1433
424.3842, 174.4310
424.8663, 172.8335
425.3484, 171.5891
425.8306, 170.8239
426.3127, 170.3520
426.7948, 170.0216
427.2769, 169.8180
427.7590, 169.6513
428.2411, 169.5420
428.7233, 169.4218
429.2054, 169.1687
429.6875, 168.7686
430.1696, 168.3472
430.6517, 167.9791
431.1339, 167.6465
431.6160, 167.2702
432.0981, 166.6739
432.5802, 166.3142
433.0623, 166.8020
433.5444, 167.6522
434.0266, 167.7107
434.5087, 166.5587
434.9908, 165.0432
435.4729, 164.3058
435.9550, 164.5451
436.4371, 164.7782
436.9193, 164.9884
437.4014, 165.1717
437.8835, 165.3100
438.3656, 165.4145
438.8477, 165.5185
439.3298, 165.6394
439.8120, 165.7827
440.2941, 165.9773
440.7762, 166.4045
441.2583, 166.6548
441.7404, 166.5530
442.2225, 166.3223
442.7046, 166.1949
443.1867, 166.2251
443.6689, 166.2979
444.1510, 166.2636
444.6331, 166.0974
445.1152, 165.9479
445.5973, 165.7219
446.0794, 165.6072
446.5616, 165.7063
447.0437, 165.9631
447.5258, 166.3078
448.0079, 166.7361
448.4900, 167.1296
448.9721, 167.1188
449.4543, 166.4817
449.9364, 166.0833
450.4185, 166.4127
450.9006, 166.8601
451.3827, 167.0218
451.8648, 166.8517
452.3470, 166.5254
452.8291, 166.1822
453.3112, 165.7981
453.7933, 165.1617
454.2754, 164.0096
454.7575, 163.2223
455.2397, 163.9548
455.7218, 165.3729
456.2039, 166.0150
456.6860, 165.2219
457.1681, 164.0517
457.6502, 163.1621
458.1324, 162.5947
458.6145, 162.6478
459.0966, 163.6399
459.5787, 164.8572
460.0608, 165.1677
460.5429, 164.5382
461.0251, 163.8739
461.5072, 163.2491
461.9893, 162.7164
462.4714, 162.4403
462.9535, 162.3576
463.4356, 162.0324
463.9178, 161.0512
464.3999, 159.6650
464.8820, 159.2574
465.3641, 161.0149
465.8462, 162.1655
466.3283, 161.9663
466.8105, 161.1616
467.2926, 160.4418
467.7747, 160.0127
468.2568, 159.8748
468.7389, 160.1361
469.2210, 160.9760
469.7032, 161.0164
470.1853, 159.3081
470.6674, 157.7760
471.1495, 157.0014
471.6316, 156.7881
472.1137, 156.7998
472.5959, 156.8913
473.0780, 157.0411
473.5601, 157.2277
474.0422, 157.4745
474.5243, 157.6587
475.0064, 157.7433
475.4886, 157.7659
475.9707, 157.8378
476.4528, 157.9047
476.9349, 157.7016
477.4170, 156.7711
477.8991, 155.5174
478.3813, 154.8614
478.8634, 154.8562
479.3455, 155.1714
479.8276, 155.8260
480.3097, 156.6220
480.7918, 157.1961
481.2740, 157.4738
481.7561, 157.6993
482.2382, 158.0562
482.7203, 158.4307
483.2024, 158.5607
483.6845, 158.3839
484.1666, 158.1807
484.6487, 158.2134
485.1309, 158.4955
485.6130, 158.7969
486.0951, 159.1324
486.5772, 159.4687
487.0593, 159.8709
487.5414, 160.2496
488.0236, 160.3880
488.5057, 160.2014
488.9878, 159.9264
489.4699, 159.9929
489.9520, 160.5668
490.4341, 161.0844
490.9163, 161.5616
491.3984, 161.9762
491.8805, 162.3181
492.3626, 162.5866
492.8447, 162.7490
493.3268, 162.7465
493.8090, 162.7065
494.2911, 163.0744
494.7732, 164.0958
495.2553, 164.8578
495.7374, 165.0485
496.2195, 164.9664
496.7017, 164.6754
497.1838, 164.2320
497.6659, 163.9421
498.1480, 164.0705
498.6301, 164.5132
499.1122, 165.0615
499.5944, 165.7761
500.0765, 166.2588
500.5586, 166.0428
501.0407, 165.5204
501.5228, 165.5598
502.0049, 166.5373
502.4871, 167.3470
502.9692, 167.2016
503.4513, 166.5774
503.9334, 166.3847
504.4155, 166.8258
504.8976, 167.3903
505.3798, 167.5490
505.8619, 167.2689
506.3440, 167.2638
506.8261, 167.8530
507.3082, 168.3342
507.7903, 168.4250
508.2725, 168.2501
508.7546, 167.9283
509.2367, 167.5205
509.7188, 167.2250
510.2009, 167.4403
510.6830, 168.4680
511.1652, 168.9867
511.6473, 168.4910
512.1294, 167.9841
512.6115, 167.9239
513.0936, 168.1364
513.5757, 168.2217
514.0579, 167.9608
514.5400, 167.5165
515.0221, 167.1671
515.5042, 166.9149
515.9863, 166.7531
516.4684, 166.9211
516.9506, 166.9231
517.4327, 166.1692
517.9148, 164.7829
518.3969, 163.6912
518.8790, 163.5693
519.3611, 163.7866
519.8433, 163.5273
520.3254, 162.8017
520.8075, 161.9756
521.2896, 161.1836
521.7717, 160.4417
522.2538, 159.7845
522.7360, 159.1265
523.2181, 158.7455
523.7002, 159.1175
524.1823, 159.4912
524.6644, 159.1012
525.1465, 158.0008
525.6287, 156.7437
526.1108, 155.6788
526.5929, 154.8734
527.0750, 154.6972
527.5571, 155.6763
528.0392, 156.5679
528.5214, 157.3981
529.0035, 158.0123
529.4856, 158.2328
529.9677, 158.0749
530.4498, 157.7352
530.9319, 157.2580
531.4141, 156.7282
531.8962, 156.7182
532.3783, 157.4202
532.8604, 158.1971
533.3425, 158.9707
533.8246, 159.5825
534.3068, 159.7632
534.7889, 159.4049
535.2710, 159.1066
535.7531, 159.4266
536.2352, 160.0529
536.7173, 160.3168
537.1995, 160.1240
537.6816, 159.6814
538.1637, 159.0460
538.6458, 158.2861
539.1279, 157.8066
539.6100, 157.7921
540.0922, 157.8038
540.5743, 157.7931
541.0564, 157.7077
541.5385, 157.4500
542.0206, 157.0168
542.5027, 156.5402
542.9849, 156.1784
543.4670, 155.9387
543.9491, 155.4816
544.4312, 154.4279
544.9133, 153.6160
545.3954, 153.5190
545.8775, 153.5952
546.3596, 153.1013
546.8417, 151.8855
547.3239, 150.7025
547.8060, 150.6029
548.2881, 151.4515
548.7702, 151.6516
549.2523, 151.0034
549.7344, 149.9803
550.2166, 148.3379
550.6987, 146.6341
551.1808, 145.8869
551.6629, 146.6982
552.1450, 147.4801
552.6271, 146.9685
553.1093, 145.7677
553.5914, 145.2415
554.0735, 145.6776
554.5556, 146.1650
555.0377, 145.8247
555.5198, 144.6723
556.0020, 143.8966
556.4841, 143.6856
556.9662, 143.5616
557.4483, 143.5336
557.9304, 143.4583
558.4125, 143.1579
558.8947, 142.5965
559.3768, 141.8879
559.8589, 141.1133
560.3410, 140.2706
560.8231, 139.6347
561.3052, 139.3978
561.7874, 139.0962
562.2695, 138.4564
562.7516, 137.7384
563.2337, 137.3125
563.7158, 137.2912
564.1979, 137.1949
564.6801, 136.3936
565.1622, 135.1747
565.6443, 134.5324
566.1264, 134.6298
566.6085, 134.9984
567.0906, 135.4935
567.5728, 135.9832
568.0549, 136.0065
568.5370, 135.0831
569.0191, 134.4503
569.5012, 134.9256
569.9833, 135.7258
570.4655, 135.7645
570.9476, 134.9465
571.4297, 134.0789
571.9118, 133.9107
572.3939, 134.3731
572.8760, 134.5959
573.3582, 134.5378
573.8403, 134.2713
574.3224, 133.3709
574.8045, 132.5578
575.2866, 132.7131
575.7687, 133.8058
576.2509, 134.7419
576.7330, 134.4301
577.2151, 133.2120
577.6972, 132.3787
578.1793, 131.9599
578.6614, 131.8130
579.1436, 132.0304
579.6257, 132.4003
580.1078, 132.6685
580.5899, 132.8672
581.0720, 132.7508
581.5541, 131.8340
582.0363, 130.7975
582.5184, 130.4748
583.0005, 130.8330
583.4826, 131.3471
583.9647, 131.7738
584.4468, 131.9887
584.9290, 131.5872
585.4111, 129.3605
585.8932, 128.4513
586.3753, 129.9911
