##NAMES=Elbaite
##RRUFFID=R060566
##IDEAL CHEMISTRY=Na(Al_1.5_Li_1.5_)Al_6_(Si_6_O_18_)(BO_3_)_3_(OH)_3_OH
##LOCALITY=unknown
##OWNER=RRUFF
##SOURCE=Gemological Institute of America
##DESCRIPTION=Pink part of a slice of a tourmaline crystal perpendicular to its c-axis showing pink, colorless and green zones, see also R070563 (white) and R070564 (green)
##STATUS=The identification of this mineral has been confirmed by X-ray diffraction and chemical analysis
##URL=rruff.info/R060566
##MEASURED CHEMISTRY=(Na_0.63_[box]_0.34_Ca_0.03_)_Σ=1_(Al_1.59_Li_1.28_Fe^2+^_0.10_Mn_0.03_)_Σ=3_Al_6.00_(BO_3_)_3_[Si_6.00_O_18_]((OH)_3.47_F_0.53_)_Σ=4_ ; B and Li not measured but estimated by stoichiometry and charge balance
91.72394, 0.0000000E+00
92.20605, 318.9333
92.68817, 329.5690
93.17029, 336.5002
93.65240, 333.4143
94.13452, 325.3171
94.61664, 313.4373
95.09875, 298.2770
95.58087, 281.4189
96.06299, 266.0787
96.54510, 250.5714
97.02721, 239.1398
97.50933, 234.8602
97.99145, 234.2538
98.47356, 232.9344
98.95568, 227.8517
99.43780, 218.7592
99.91991, 208.0919
100.4020, 193.4360
100.8841, 179.8022
101.3663, 169.4815
101.8484, 162.1722
102.3305, 155.9106
102.8126, 148.6610
103.2947, 139.8912
103.7768, 132.8036
104.2590, 127.8620
104.7411, 124.2842
105.2232, 121.5295
105.7053, 119.5916
106.1874, 117.8992
106.6695, 115.5557
107.1517, 112.5922
107.6338, 109.9141
108.1159, 108.1512
108.5980, 107.1038
109.0801, 105.6962
109.5622, 103.2710
110.0444, 100.7461
110.5265, 98.97612
111.0086, 98.03784
111.4907, 97.22949
111.9728, 95.53405
112.4549, 92.44870
112.9371, 90.27145
113.4192, 90.10377
113.9013, 90.52438
114.3834, 90.59306
114.8655, 89.94820
115.3476, 88.77187
115.8298, 87.52792
116.3119, 85.72079
116.7940, 84.49612
117.2761, 84.20734
117.7582, 84.48650
118.2403, 84.91111
118.7225, 85.25231
119.2046, 85.49609
119.6867, 85.44579
120.1688, 84.67069
120.6509, 84.08684
121.1330, 84.12845
121.6152, 84.69096
122.0973, 85.34830
122.5794, 85.81316
123.0615, 86.05293
123.5436, 86.14092
124.0257, 85.98476
124.5079, 85.72868
124.9900, 85.50267
125.4721, 85.32027
125.9542, 85.13911
126.4363, 84.90203
126.9184, 84.63316
127.4006, 84.39278
127.8827, 84.21619
128.3648, 84.08791
128.8469, 83.94983
129.3290, 83.73067
129.8111, 83.60691
130.2932, 83.64034
130.7754, 83.83146
131.2575, 84.17404
131.7396, 84.76987
132.2217, 85.67876
132.7038, 86.29955
133.1859, 86.30054
133.6681, 86.24126
134.1502, 86.37096
134.6323, 86.70707
135.1144, 87.09505
135.5965, 87.37513
136.0786, 87.71064
136.5608, 87.53828
137.0429, 86.40546
137.5250, 85.13110
138.0071, 84.41645
138.4892, 84.44909
138.9713, 84.81697
139.4535, 84.66224
139.9356, 83.36307
140.4177, 82.38291
140.8998, 81.77837
141.3819, 81.53814
141.8640, 81.74209
142.3462, 82.49372
142.8283, 83.54302
143.3104, 84.17355
143.7925, 84.33995
144.2746, 84.30405
144.7567, 83.96284
145.2388, 83.42924
145.7210, 83.20963
146.2031, 83.70059
146.6852, 84.58350
147.1673, 85.20664
147.6494, 85.50584
148.1315, 85.59925
148.6137, 85.65609
149.0958, 85.71755
149.5779, 85.44292
150.0600, 84.18375
150.5421, 82.65462
151.0242, 81.56514
151.5064, 81.25903
151.9885, 81.37342
152.4706, 81.17394
152.9527, 80.50828
153.4348, 79.78905
153.9169, 79.14280
154.3991, 78.53120
154.8812, 77.88600
155.3633, 77.15414
155.8454, 76.37112
156.3275, 75.76630
156.8096, 75.53584
157.2918, 75.29906
157.7739, 74.93625
158.2560, 74.51258
158.7381, 74.15756
159.2202, 73.97501
159.7023, 73.97100
160.1845, 73.90961
160.6666, 73.68468
161.1487, 73.51040
161.6308, 73.37959
162.1129, 73.34724
162.5950, 73.57034
163.0772, 74.23351
163.5593, 75.42189
164.0414, 76.31934
164.5235, 76.67107
165.0056, 76.94790
165.4877, 77.48288
165.9698, 78.30433
166.4520, 79.19117
166.9341, 79.91277
167.4162, 80.46841
167.8983, 81.09991
168.3804, 81.83755
168.8625, 82.66619
169.3447, 83.69176
169.8268, 85.03432
170.3089, 86.14253
170.7910, 86.13557
171.2731, 85.31541
171.7552, 84.76827
172.2374, 85.21641
172.7195, 86.27862
173.2016, 86.86179
173.6837, 86.70889
174.1658, 86.23132
174.6479, 85.65768
175.1301, 85.02774
175.6122, 84.49266
176.0943, 84.19579
176.5764, 84.12623
177.0585, 84.04819
177.5406, 84.01671
178.0228, 83.90092
178.5049, 83.64231
178.9870, 83.24336
179.4691, 82.74132
179.9512, 82.08738
180.4333, 81.17719
180.9155, 80.60705
181.3976, 80.59602
181.8797, 80.73968
182.3618, 80.87206
182.8439, 80.97594
183.3260, 81.12763
183.8082, 81.42850
184.2903, 81.93652
184.7724, 82.45483
185.2545, 82.91383
185.7366, 83.42834
186.2187, 84.01493
186.7009, 84.70079
187.1830, 85.58130
187.6651, 86.81644
188.1472, 88.73866
188.6293, 90.32121
189.1114, 91.28477
189.5936, 92.06812
190.0757, 92.98279
190.5578, 94.11537
191.0399, 95.49082
191.5220, 97.20026
192.0041, 99.38879
192.4863, 101.4964
192.9684, 103.3820
193.4505, 105.1730
193.9326, 107.0114
194.4147, 108.9275
194.8968, 110.9579
195.3790, 113.2089
195.8611, 115.6731
196.3432, 118.2121
196.8253, 120.7204
197.3074, 123.2820
197.7895, 126.0898
198.2717, 129.2013
198.7538, 132.5825
199.2359, 136.2192
199.7180, 140.1307
200.2001, 144.0517
200.6822, 147.8246
201.1644, 151.4978
201.6465, 155.2310
202.1286, 158.9504
202.6107, 162.9230
203.0928, 167.3817
203.5749, 172.3343
204.0571, 177.3248
204.5392, 181.8670
205.0213, 185.9815
205.5034, 190.5078
205.9855, 195.6809
206.4676, 201.2644
206.9497, 207.0766
207.4319, 213.0998
207.9140, 219.4397
208.3961, 226.3370
208.8782, 233.9436
209.3603, 241.1418
209.8424, 246.6342
210.3246, 252.5892
210.8067, 260.2204
211.2888, 269.5706
211.7709, 279.7236
212.2530, 289.5208
212.7351, 298.4757
213.2173, 308.4723
213.6994, 319.7195
214.1815, 331.7216
214.6636, 344.3131
215.1457, 357.4135
215.6278, 371.1398
216.1100, 385.6027
216.5921, 400.8177
217.0742, 416.9174
217.5563, 434.2694
218.0384, 452.0573
218.5205, 470.4636
219.0027, 489.1481
219.4848, 507.1670
219.9669, 523.2070
220.4490, 537.2243
220.9311, 548.6936
221.4132, 558.8439
221.8954, 566.0565
222.3775, 569.0395
222.8596, 567.6182
223.3417, 562.6448
223.8238, 555.1002
224.3059, 544.3987
224.7881, 531.7763
225.2702, 516.1066
225.7523, 499.2123
226.2344, 482.4137
226.7165, 465.9691
227.1986, 450.0376
227.6807, 434.7978
228.1629, 420.3652
228.6450, 406.5768
229.1271, 393.1743
229.6092, 380.5600
230.0913, 369.4703
230.5734, 360.0667
231.0556, 351.5432
231.5377, 343.0219
232.0198, 334.5076
232.5019, 327.0875
232.9840, 321.3168
233.4661, 316.6023
233.9483, 312.2626
234.4304, 308.2051
234.9125, 304.5498
235.3946, 301.4250
235.8767, 298.7852
236.3588, 296.6757
236.8410, 294.8967
237.3231, 293.7307
237.8052, 293.7311
238.2873, 295.1306
238.7694, 297.0342
239.2515, 298.7647
239.7337, 300.4447
240.2158, 302.4258
240.6979, 305.0537
241.1800, 308.0094
241.6621, 310.6986
242.1442, 313.1009
242.6264, 315.2961
243.1085, 317.1277
243.5906, 318.8209
244.0727, 320.7816
244.5548, 323.4232
245.0369, 326.3217
245.5191, 328.6770
246.0012, 330.6321
246.4833, 331.6276
246.9654, 331.3070
247.4475, 329.9974
247.9296, 328.0170
248.4117, 325.4111
248.8939, 322.3091
249.3760, 319.0141
249.8581, 315.7712
250.3402, 311.7515
250.8223, 306.3341
251.3044, 300.2306
251.7866, 294.0918
252.2687, 288.0771
252.7508, 282.4398
253.2329, 277.7539
253.7150, 274.4083
254.1971, 271.3293
254.6793, 268.2162
255.1614, 265.2050
255.6435, 262.4018
256.1256, 259.8598
256.6077, 257.5537
257.0898, 255.3978
257.5720, 253.3166
258.0541, 251.5909
258.5362, 250.3632
259.0183, 249.3777
259.5004, 248.3175
259.9825, 247.0917
260.4647, 246.0173
260.9468, 245.7566
261.4289, 246.8238
261.9110, 247.7305
262.3931, 248.4402
262.8752, 248.9382
263.3574, 248.9746
263.8395, 248.5715
264.3216, 248.2922
264.8037, 249.1338
265.2858, 251.9319
265.7679, 254.2039
266.2501, 255.7995
266.7322, 257.0448
267.2143, 258.1329
267.6964, 259.1066
268.1785, 259.9135
268.6606, 260.5012
269.1428, 260.9439
269.6249, 260.9002
270.1070, 260.2218
270.5891, 259.2781
271.0712, 258.5486
271.5533, 257.9228
272.0355, 256.6776
272.5176, 253.9167
272.9997, 249.2307
273.4818, 244.8012
273.9639, 241.1300
274.4460, 237.2423
274.9282, 232.6105
275.4103, 227.2655
275.8924, 221.5599
276.3745, 215.7707
276.8566, 209.8603
277.3387, 204.1776
277.8208, 199.1714
278.3029, 193.9039
278.7851, 187.6040
279.2672, 180.5947
279.7493, 173.9044
280.2314, 168.3160
280.7135, 163.7998
281.1956, 159.1674
281.6778, 154.2381
282.1599, 149.3913
282.6420, 144.6383
283.1241, 140.0614
283.6062, 135.8328
284.0883, 132.0805
284.5705, 128.7210
285.0526, 125.4361
285.5347, 121.9496
286.0168, 118.8151
286.4989, 116.2859
286.9810, 114.1788
287.4632, 112.2068
287.9453, 110.2419
288.4274, 108.2977
288.9095, 106.3728
289.3916, 104.1005
289.8737, 102.3782
290.3559, 101.7020
290.8380, 101.5631
291.3201, 101.3336
291.8022, 100.8021
292.2843, 100.0302
292.7664, 99.07854
293.2486, 97.82933
293.7307, 96.69639
294.2128, 95.60822
294.6949, 94.70788
295.1770, 94.22975
295.6591, 94.22256
296.1413, 94.38087
296.6234, 94.28106
297.1055, 93.78053
297.5876, 93.66407
298.0697, 94.43044
298.5518, 95.29648
299.0340, 95.48754
299.5161, 94.94679
299.9982, 94.29262
300.4803, 94.07414
300.9624, 94.34840
301.4445, 94.73364
301.9267, 95.33723
302.4088, 95.95850
302.8909, 96.42609
303.3730, 96.76393
303.8551, 97.16302
304.3372, 97.74812
304.8194, 98.52431
305.3015, 99.43346
305.7836, 100.2802
306.2657, 101.4339
306.7478, 103.2428
307.2299, 105.5331
307.7121, 107.7738
308.1942, 109.6636
308.6763, 111.3410
309.1584, 113.2586
309.6405, 115.4104
310.1227, 117.7465
310.6048, 120.2113
311.0869, 122.8506
311.5690, 125.9173
312.0511, 129.6339
312.5332, 133.3397
313.0154, 135.5919
313.4975, 136.1847
313.9796, 136.3563
314.4617, 136.4859
314.9438, 136.2709
315.4259, 135.2337
315.9081, 133.2432
316.3902, 130.7270
316.8723, 128.0975
317.3544, 125.3008
317.8365, 122.7309
318.3186, 120.3939
318.8007, 118.3129
319.2828, 116.5497
319.7650, 115.0935
320.2471, 113.8168
320.7292, 112.5798
321.2113, 111.4129
321.6934, 110.5868
322.1755, 110.0610
322.6577, 109.8895
323.1398, 110.3463
323.6219, 111.2731
324.1040, 112.0036
324.5861, 112.0787
325.0682, 111.6403
325.5504, 111.4430
326.0325, 111.5459
326.5146, 111.7764
326.9967, 112.0273
327.4788, 112.3630
327.9609, 112.9849
328.4431, 114.0343
328.9252, 115.2670
329.4073, 116.1493
329.8894, 116.8716
330.3715, 116.9359
330.8536, 115.4514
331.3358, 113.5526
331.8179, 112.8421
332.3000, 113.7524
332.7821, 115.2284
333.2642, 115.9019
333.7463, 115.5279
334.2285, 115.1130
334.7106, 114.6074
335.1927, 114.1276
335.6748, 113.7168
336.1569, 113.4014
336.6390, 113.2820
337.1212, 113.4918
337.6033, 114.0501
338.0854, 114.4232
338.5675, 114.2007
339.0496, 114.2082
339.5317, 114.9509
340.0139, 116.2798
340.4960, 117.7268
340.9781, 119.0199
341.4602, 120.2041
341.9423, 121.4974
342.4244, 123.1402
342.9066, 124.5855
343.3887, 125.4017
343.8708, 126.0393
344.3529, 127.2430
344.8350, 129.3042
345.3171, 131.7334
345.7993, 133.5794
346.2814, 134.2019
346.7635, 135.3409
347.2456, 137.3304
347.7277, 139.6340
348.2098, 141.6829
348.6920, 143.4259
349.1741, 145.4080
349.6562, 148.2601
350.1383, 152.2264
350.6204, 155.9385
351.1025, 159.1934
351.5847, 162.4249
352.0668, 165.6559
352.5489, 168.9980
353.0310, 172.7312
353.5131, 177.0732
353.9952, 181.9526
354.4774, 186.7454
354.9595, 190.9747
355.4416, 195.6533
355.9237, 201.2957
356.4058, 207.4012
356.8879, 213.2715
357.3701, 218.5820
357.8522, 223.6452
358.3343, 229.2569
358.8164, 235.8650
359.2985, 242.3651
359.7806, 248.4462
360.2627, 254.6161
360.7448, 261.1009
361.2270, 268.0385
361.7091, 275.5450
362.1912, 283.8167
362.6733, 292.9131
363.1554, 302.5745
363.6375, 313.0954
364.1197, 323.8312
364.6018, 334.2421
365.0839, 344.6755
365.5660, 355.6701
366.0481, 367.5517
366.5302, 380.3941
367.0124, 394.8197
367.4945, 411.7314
367.9766, 429.2024
368.4587, 446.8802
368.9408, 464.7935
369.4229, 483.3634
369.9051, 502.6976
370.3872, 521.8085
370.8693, 538.9800
371.3514, 554.1282
371.8335, 567.3223
372.3156, 579.5673
372.7978, 589.3526
373.2799, 596.2399
373.7620, 599.8727
374.2441, 599.5499
374.7262, 594.1525
375.2083, 583.5887
375.6905, 570.5064
376.1726, 553.8644
376.6547, 535.5626
377.1368, 516.0032
377.6189, 495.5019
378.1010, 474.7463
378.5832, 453.7160
379.0653, 432.8357
379.5474, 413.0612
380.0295, 394.3480
380.5116, 376.9164
380.9937, 360.9247
381.4759, 346.1631
381.9580, 332.6450
382.4401, 320.4344
382.9222, 309.0552
383.4043, 297.8911
383.8864, 286.9279
384.3686, 277.3109
384.8507, 269.7285
385.3328, 263.2182
385.8149, 256.9193
386.2970, 250.8515
386.7791, 244.9277
387.2613, 238.8421
387.7434, 232.9525
388.2255, 228.1020
388.7076, 224.4469
389.1897, 221.5385
389.6718, 219.2223
390.1540, 217.4219
390.6361, 216.0968
391.1182, 215.6201
391.6003, 215.2217
392.0824, 213.8980
392.5645, 211.8086
393.0467, 210.4480
393.5288, 210.5885
394.0109, 211.6761
394.4930, 212.7701
394.9751, 214.0183
395.4572, 214.7707
395.9394, 214.1970
396.4215, 213.1126
396.9036, 212.9757
397.3857, 214.1377
397.8678, 215.7435
398.3499, 216.9307
398.8321, 217.6642
399.3142, 218.5302
399.7963, 219.6349
400.2784, 220.8192
400.7605, 222.0938
401.2426, 223.3834
401.7247, 224.4651
402.2068, 225.2415
402.6890, 225.6730
403.1711, 225.5254
403.6532, 224.2318
404.1353, 223.1593
404.6174, 222.5653
405.0995, 222.3128
405.5817, 222.4534
406.0638, 222.9567
406.5459, 223.2670
407.0280, 222.5705
407.5101, 220.5599
407.9922, 218.4428
408.4744, 216.3391
408.9565, 214.0520
409.4386, 211.5169
409.9207, 208.7018
410.4028, 205.5347
410.8849, 201.8983
411.3671, 197.8685
411.8492, 193.9226
412.3313, 190.0345
412.8134, 186.2885
413.2955, 182.9952
413.7776, 179.7071
414.2598, 175.8162
414.7419, 171.1570
415.2240, 166.2930
415.7061, 162.2048
416.1882, 159.2617
416.6703, 155.7291
417.1525, 150.9789
417.6346, 146.1057
418.1167, 141.5906
418.5988, 137.3747
419.0809, 133.1961
419.5630, 128.7054
420.0452, 124.1185
420.5273, 120.3387
421.0094, 117.7086
421.4915, 115.2201
421.9736, 112.7019
422.4557, 110.0363
422.9379, 106.9245
423.4200, 103.1698
423.9021, 99.65312
424.3842, 97.54296
424.8663, 96.78108
425.3484, 95.77369
425.8306, 94.06365
426.3127, 92.17913
426.7948, 90.61240
427.2769, 89.31837
427.7590, 87.98479
428.2411, 86.32619
428.7233, 84.60978
429.2054, 83.29807
429.6875, 82.42070
430.1696, 81.63363
430.6517, 80.73356
431.1339, 79.77759
431.6160, 78.93933
432.0981, 78.27325
432.5802, 77.63853
433.0623, 76.95258
433.5444, 76.25244
434.0266, 75.57549
434.5087, 74.91995
434.9908, 74.40278
435.4729, 74.24752
435.9550, 74.59537
436.4371, 74.65430
436.9193, 74.21976
437.4014, 73.63344
437.8835, 73.05980
438.3656, 72.53857
438.8477, 72.13824
439.3298, 71.92762
439.8120, 71.84539
440.2941, 71.56457
440.7762, 70.64347
441.2583, 70.07405
441.7404, 70.16325
442.2225, 70.54591
442.7046, 70.96544
443.1867, 71.30782
443.6689, 71.42203
444.1510, 71.05347
444.6331, 70.05604
445.1152, 69.30418
445.5973, 68.88002
446.0794, 68.62761
446.5616, 68.59554
447.0437, 68.68964
447.5258, 68.78730
448.0079, 68.84924
448.4900, 68.79250
448.9721, 68.30417
449.4543, 67.09682
449.9364, 66.29090
450.4185, 66.53093
450.9006, 67.00807
451.3827, 67.22983
451.8648, 67.12686
452.3470, 66.80561
452.8291, 66.26006
453.3112, 65.54551
453.7933, 64.90247
454.2754, 64.32374
454.7575, 63.87295
455.2397, 63.71012
455.7218, 63.68833
456.2039, 63.55540
456.6860, 63.20593
457.1681, 62.80396
457.6502, 62.50397
458.1324, 62.27684
458.6145, 61.94652
459.0966, 61.38912
459.5787, 60.83881
460.0608, 60.73996
460.5429, 61.14117
461.0251, 61.32668
461.5072, 60.88435
461.9893, 60.37085
462.4714, 60.38496
462.9535, 60.87497
463.4356, 61.29222
463.9178, 61.26178
464.3999, 60.86467
464.8820, 60.54286
465.3641, 60.22527
465.8462, 60.06556
466.3283, 60.17755
466.8105, 60.40977
467.2926, 60.63227
467.7747, 60.80150
468.2568, 60.89597
468.7389, 60.88671
469.2210, 60.76331
469.7032, 60.60067
470.1853, 60.26121
470.6674, 60.02705
471.1495, 60.03056
471.6316, 60.18773
472.1137, 60.35686
472.5959, 60.46928
473.0780, 60.57680
473.5601, 60.84024
474.0422, 61.36310
474.5243, 61.59179
475.0064, 61.02416
475.4886, 60.46151
475.9707, 60.52563
476.4528, 61.11440
476.9349, 61.55535
477.4170, 61.22290
477.8991, 60.49811
478.3813, 60.28724
478.8634, 60.66364
479.3455, 61.13583
479.8276, 61.53291
480.3097, 61.83210
480.7918, 61.94902
481.2740, 61.73960
481.7561, 61.74882
482.2382, 62.45156
482.7203, 63.51495
483.2024, 64.32761
483.6845, 64.76603
484.1666, 65.02134
484.6487, 65.23635
485.1309, 65.41056
485.6130, 65.68672
486.0951, 65.91127
486.5772, 66.38942
487.0593, 67.49760
487.5414, 68.90771
488.0236, 70.01472
488.5057, 70.58175
488.9878, 70.84196
489.4699, 71.17759
489.9520, 71.52455
490.4341, 72.12892
490.9163, 73.41649
491.3984, 74.52135
491.8805, 74.76705
492.3626, 74.45631
492.8447, 74.37830
493.3268, 75.05094
493.8090, 76.24123
494.2911, 77.28838
494.7732, 78.16983
495.2553, 78.96379
495.7374, 79.56166
496.2195, 80.16089
496.7017, 80.89233
497.1838, 81.76619
497.6659, 82.73486
498.1480, 83.69803
498.6301, 84.72826
499.1122, 86.10251
499.5944, 87.92190
500.0765, 89.64715
500.5586, 90.82515
501.0407, 91.76701
501.5228, 93.16936
502.0049, 95.39732
502.4871, 97.37181
502.9692, 98.25740
503.4513, 98.61060
503.9334, 99.51878
504.4155, 101.2209
504.8976, 103.0854
505.3798, 104.4652
505.8619, 105.3317
506.3440, 106.4417
506.8261, 108.1824
507.3082, 109.7120
507.7903, 110.6005
508.2725, 111.1154
508.7546, 111.6184
509.2367, 112.2553
509.7188, 113.0571
510.2009, 114.1261
510.6830, 115.6477
511.1652, 116.8129
511.6473, 117.2539
512.1294, 117.6990
512.6115, 118.5419
513.0936, 119.5909
513.5757, 120.4048
514.0579, 120.7129
514.5400, 120.8154
515.0221, 121.3355
515.5042, 122.3605
515.9863, 123.1529
516.4684, 123.5184
516.9506, 123.6064
517.4327, 123.5416
517.9148, 123.3308
518.3969, 123.0101
518.8790, 122.6687
519.3611, 122.1815
519.8433, 121.4081
520.3254, 120.3444
520.8075, 118.9432
521.2896, 117.0785
521.7717, 114.9790
522.2538, 113.2249
522.7360, 111.8950
523.2181, 110.5835
523.7002, 109.2782
524.1823, 107.9325
524.6644, 106.4777
525.1465, 104.9406
525.6287, 103.4169
526.1108, 101.9779
526.5929, 100.6287
527.0750, 99.36308
527.5571, 98.22241
528.0392, 97.12937
528.5214, 96.02815
529.0035, 94.99641
529.4856, 94.09694
529.9677, 93.33815
530.4498, 92.69532
530.9319, 92.14534
531.4141, 91.69250
531.8962, 91.37011
532.3783, 91.21407
532.8604, 91.10726
533.3425, 90.94975
533.8246, 90.84096
534.3068, 90.95673
534.7889, 91.36982
535.2710, 91.66147
535.7531, 91.51073
536.2352, 91.05418
536.7173, 90.55307
537.1995, 90.03547
537.6816, 89.53904
538.1637, 89.09120
538.6458, 88.69148
539.1279, 88.33213
539.6100, 88.17966
540.0922, 87.86144
540.5743, 87.16630
541.0564, 86.29636
541.5385, 85.49744
542.0206, 84.82133
542.5027, 84.16348
542.9849, 83.41087
543.4670, 82.55939
543.9491, 81.78962
544.4312, 81.10548
544.9133, 80.51246
545.3954, 80.24082
545.8775, 79.94939
546.3596, 79.12615
546.8417, 77.67860
547.3239, 76.25245
547.8060, 75.72324
548.2881, 75.98435
548.7702, 75.76332
549.2523, 74.81214
549.7344, 73.78719
550.2166, 73.05750
550.6987, 72.52232
551.1808, 72.03712
551.6629, 71.56815
552.1450, 71.17733
552.6271, 71.02407
553.1093, 70.95344
553.5914, 70.57486
554.0735, 69.80309
554.5556, 69.03030
555.0377, 68.63143
555.5198, 68.59915
556.0020, 68.46469
556.4841, 68.18463
556.9662, 67.87166
557.4483, 67.56334
557.9304, 67.23249
558.4125, 66.85088
558.8947, 66.40905
559.3768, 65.90899
559.8589, 65.30087
560.3410, 64.57855
560.8231, 64.16455
561.3052, 64.27034
561.7874, 64.39180
562.2695, 64.34410
562.7516, 64.23341
563.2337, 64.18217
563.7158, 64.22156
564.1979, 64.29731
564.6801, 64.46529
565.1622, 64.63760
565.6443, 64.46313
566.1264, 63.84478
566.6085, 63.18097
567.0906, 62.63318
567.5728, 62.28241
568.0549, 62.35937
568.5370, 63.29970
569.0191, 63.98107
569.5012, 63.80087
569.9833, 63.26171
570.4655, 62.95846
570.9476, 62.99120
571.4297, 63.16510
571.9118, 63.32676
572.3939, 63.46978
572.8760, 63.49847
573.3582, 63.17044
573.8403, 63.06646
574.3224, 63.47419
574.8045, 63.99168
575.2866, 64.27998
575.7687, 64.28994
576.2509, 64.16307
576.7330, 64.00448
577.2151, 63.80672
577.6972, 63.50744
578.1793, 63.06342
578.6614, 62.70046
579.1436, 62.46396
579.6257, 62.41413
580.1078, 62.67695
