##NAMES=Elbaite
##RRUFFID=R050487
##IDEAL CHEMISTRY=Na(Al_1.5_Li_1.5_)Al_6_(Si_6_O_18_)(BO_3_)_3_(OH)_3_OH
##LOCALITY=White Queen mine, Pala, San Diego County, California, USA
##OWNER=RRUFF
##SOURCE=California Institute of Technology
##DESCRIPTION=Mass of blue acicular crystals
##STATUS=The identification of this mineral has been confirmed by X-ray diffraction and chemical analysis
##URL=rruff.info/R050487
##MEASURED CHEMISTRY=(Na_0.86_[box]_0.13_Ca_0.01_)(Al_0.42_Li_0.38_Fe^2+^_0.18_Mn_0.02_)_3_Al_6_(BO_3_)_3_Si_6_O_18_((OH)_0.85_F_0.15_)_4_
93.78320, 522.0901
94.26532, 543.3596
94.74744, 548.1664
95.22955, 534.9660
95.71167, 508.5200
96.19379, 470.0205
96.67590, 413.1206
97.15802, 369.5000
97.64014, 349.1481
98.12225, 343.4539
98.60437, 338.0487
99.08649, 328.6849
99.56860, 317.0354
100.0507, 305.5727
100.5328, 293.4943
101.0150, 282.2609
101.4971, 273.6582
101.9792, 267.7599
102.4613, 261.2732
102.9434, 251.9344
103.4255, 241.8206
103.9077, 232.1507
104.3898, 223.1148
104.8719, 214.9998
105.3540, 208.4148
105.8361, 203.5908
106.3182, 199.9945
106.8004, 198.7070
107.2825, 197.9979
107.7646, 195.7832
108.2467, 190.7163
108.7288, 182.9960
109.2109, 175.2698
109.6931, 166.5578
110.1752, 158.7197
110.6573, 152.3524
111.1394, 147.3067
111.6215, 143.0911
112.1036, 139.3465
112.5858, 136.1046
113.0679, 133.2380
113.5500, 130.6707
114.0321, 128.4847
114.5142, 126.8016
114.9964, 125.6383
115.4785, 124.8009
115.9606, 124.2435
116.4427, 123.9499
116.9248, 123.3783
117.4069, 122.0444
117.8891, 120.3696
118.3712, 119.2510
118.8533, 119.0309
119.3354, 119.1817
119.8175, 119.0497
120.2996, 118.6767
120.7818, 118.6014
121.2639, 119.3433
121.7460, 120.9330
122.2281, 122.4913
122.7102, 124.5342
123.1923, 126.0107
123.6745, 126.0166
124.1566, 124.4768
124.6387, 122.3928
125.1208, 121.1664
125.6029, 121.0555
126.0850, 121.3656
126.5672, 122.3088
127.0493, 123.4052
127.5314, 124.4699
128.0135, 125.4072
128.4956, 125.9423
128.9777, 125.2845
129.4599, 121.7346
129.9420, 118.8154
130.4241, 117.2417
130.9062, 116.3772
131.3883, 115.2366
131.8705, 113.2369
132.3526, 110.5746
132.8347, 108.3543
133.3168, 106.5917
133.7989, 105.1222
134.2810, 103.8472
134.7632, 102.7866
135.2453, 102.0705
135.7274, 101.9180
136.2095, 102.1812
136.6916, 102.2505
137.1737, 102.0132
137.6559, 101.6200
138.1380, 101.2413
138.6201, 100.9025
139.1022, 100.4495
139.5843, 99.66061
140.0664, 98.70303
140.5486, 97.81288
141.0307, 97.06178
141.5128, 96.44671
141.9949, 96.01237
142.4770, 95.97554
142.9591, 95.78217
143.4413, 95.09837
143.9234, 94.11640
144.4055, 93.17757
144.8876, 92.51781
145.3697, 92.13857
145.8518, 91.88329
146.3340, 91.85455
146.8161, 91.87069
147.2982, 91.94567
147.7803, 92.03367
148.2624, 92.04262
148.7445, 91.87423
149.2267, 91.49206
149.7088, 91.07101
150.1909, 90.46934
150.6730, 89.94463
151.1551, 89.64875
151.6372, 89.59713
152.1194, 89.70666
152.6015, 89.89980
153.0836, 90.26530
153.5657, 90.43311
154.0478, 90.29555
154.5299, 90.01265
155.0121, 89.73367
155.4942, 89.49621
155.9763, 89.26694
156.4584, 88.96983
156.9405, 88.58623
157.4227, 88.29163
157.9048, 88.14836
158.3869, 88.12638
158.8690, 88.19855
159.3511, 88.43874
159.8332, 88.63451
160.3154, 88.50778
160.7975, 88.05497
161.2796, 87.57235
161.7617, 87.22095
162.2438, 86.99525
162.7259, 86.84996
163.2081, 86.81660
163.6902, 86.83440
164.1723, 86.86813
164.6544, 86.91416
165.1365, 86.95644
165.6186, 86.97800
166.1008, 86.97653
166.5829, 86.96542
167.0650, 86.92574
167.5471, 86.89169
168.0292, 86.92422
168.5113, 87.02914
168.9935, 87.10497
169.4756, 86.93764
169.9577, 86.23837
170.4398, 85.86622
170.9219, 86.16253
171.4040, 86.60667
171.8862, 86.72002
172.3683, 86.33464
172.8504, 85.69438
173.3325, 85.37837
173.8146, 85.80327
174.2967, 86.08384
174.7789, 86.11437
175.2610, 86.01577
175.7431, 85.88624
176.2252, 85.76050
176.7073, 85.69830
177.1894, 85.91595
177.6716, 86.75387
178.1537, 87.42461
178.6358, 87.83862
179.1179, 87.98438
179.6000, 87.78525
180.0821, 87.12386
180.5643, 86.19310
181.0464, 85.58784
181.5285, 85.34140
182.0106, 85.28352
182.4927, 85.41625
182.9749, 85.70129
183.4570, 85.97446
183.9391, 86.18959
184.4212, 86.31165
184.9033, 86.28559
185.3854, 86.00354
185.8676, 85.74973
186.3497, 85.84502
186.8318, 86.30335
187.3139, 86.61967
187.7960, 86.46331
188.2781, 86.08029
188.7603, 85.69435
189.2424, 85.30006
189.7245, 85.01756
190.2066, 85.06541
190.6887, 85.55250
191.1708, 85.97423
191.6530, 86.07376
192.1351, 86.06508
192.6172, 86.13383
193.0993, 86.35371
193.5814, 86.64359
194.0635, 86.81738
194.5457, 86.75154
195.0278, 86.82376
195.5099, 87.22469
195.9920, 87.72852
196.4741, 88.12862
196.9562, 88.33404
197.4384, 88.37460
197.9205, 88.31207
198.4026, 87.86643
198.8847, 87.72576
199.3668, 88.09203
199.8489, 88.74525
200.3311, 89.46675
200.8132, 90.14928
201.2953, 90.79089
201.7774, 91.37547
202.2595, 91.93472
202.7416, 92.39439
203.2238, 92.53706
203.7059, 92.62080
204.1880, 93.08402
204.6701, 94.19243
205.1522, 95.72658
205.6344, 96.68151
206.1165, 96.57838
206.5986, 96.52656
207.0807, 96.76180
207.5628, 97.20965
208.0449, 97.70036
208.5271, 98.12458
209.0092, 98.55906
209.4913, 99.33101
209.9734, 100.8751
210.4555, 102.1714
210.9376, 102.6531
211.4198, 102.5714
211.9019, 102.6136
212.3840, 103.1072
212.8661, 103.9759
213.3482, 104.9574
213.8303, 106.1450
214.3125, 107.2835
214.7946, 108.2019
215.2767, 108.9317
215.7588, 109.6233
216.2409, 110.3613
216.7230, 111.0802
217.2052, 111.6254
217.6873, 111.8157
218.1694, 112.2140
218.6515, 113.5354
219.1336, 115.7343
219.6157, 117.4325
220.0979, 117.8210
220.5800, 117.6038
221.0621, 117.5889
221.5442, 117.9132
222.0263, 118.2224
222.5084, 118.1209
222.9906, 117.5680
223.4727, 117.0481
223.9548, 116.8867
224.4369, 116.7039
224.9190, 116.1628
225.4011, 115.1838
225.8833, 114.0910
226.3654, 113.2693
226.8475, 112.7791
227.3296, 112.2843
227.8117, 111.6858
228.2938, 111.0809
228.7760, 110.5771
229.2581, 110.1841
229.7402, 109.7618
230.2223, 109.0410
230.7044, 107.8113
231.1866, 106.9622
231.6687, 106.9720
232.1508, 107.0924
232.6329, 106.7883
233.1150, 105.9931
233.5971, 105.1136
234.0793, 104.7832
234.5614, 105.3766
235.0435, 105.5881
235.5256, 105.1398
236.0077, 104.5454
236.4898, 104.0643
236.9720, 103.7690
237.4541, 103.6252
237.9362, 103.5940
238.4183, 103.6968
238.9004, 103.8763
239.3825, 104.2870
239.8647, 104.6465
240.3468, 104.7838
240.8289, 104.6718
241.3110, 104.3726
241.7931, 103.9327
242.2752, 103.2347
242.7574, 102.7609
243.2395, 102.6755
243.7216, 102.6555
244.2037, 102.4597
244.6858, 102.0799
245.1679, 101.7189
245.6501, 101.6314
246.1322, 101.9512
246.6143, 101.9695
247.0964, 101.3715
247.5785, 100.7417
248.0606, 100.5415
248.5428, 100.7702
249.0249, 101.0310
249.5070, 100.9374
249.9891, 100.4213
250.4712, 99.93293
250.9533, 99.36199
251.4355, 98.89898
251.9176, 98.75285
252.3997, 98.89715
252.8818, 99.04522
253.3639, 98.98026
253.8460, 98.67751
254.3282, 98.23300
254.8103, 97.45112
255.2924, 96.68446
255.7745, 96.26988
256.2566, 96.17447
256.7387, 95.97275
257.2209, 95.24755
257.7030, 94.14277
258.1851, 93.55730
258.6672, 93.96242
259.1493, 94.50517
259.6314, 94.62887
260.1136, 94.35364
260.5957, 93.90427
261.0778, 93.28107
261.5599, 92.62524
262.0420, 92.31042
262.5241, 92.58411
263.0063, 92.90939
263.4884, 92.93349
263.9705, 92.67491
264.4526, 92.27185
264.9347, 91.67944
265.4168, 91.05351
265.8990, 90.70706
266.3811, 90.78141
266.8632, 90.82973
267.3453, 90.41708
267.8275, 89.61965
268.3096, 89.05424
268.7917, 89.08575
269.2738, 89.33737
269.7559, 89.30231
270.2380, 88.94173
270.7202, 88.46943
271.2023, 87.97112
271.6844, 87.46270
272.1665, 87.04695
272.6486, 86.76667
273.1307, 86.58449
273.6129, 86.51771
274.0950, 86.56206
274.5771, 86.46484
275.0592, 85.92496
275.5413, 85.04122
276.0234, 84.41932
276.5056, 84.29417
276.9877, 84.26346
277.4698, 83.98050
277.9519, 83.49372
278.4340, 83.04673
278.9161, 82.81510
279.3983, 82.75253
279.8804, 82.65936
280.3625, 82.56394
280.8446, 82.36517
281.3267, 82.01057
281.8088, 81.52538
282.2910, 80.95714
282.7731, 80.27608
283.2552, 79.53514
283.7373, 78.90352
284.2194, 78.37611
284.7015, 77.98127
285.1837, 77.82201
285.6658, 77.76468
286.1479, 77.59046
286.6300, 77.14230
287.1121, 76.57577
287.5942, 76.27563
288.0764, 76.37156
288.5585, 76.43089
289.0406, 76.28969
289.5227, 76.03721
290.0048, 75.75091
290.4869, 75.44856
290.9691, 75.14822
291.4512, 74.87942
291.9333, 74.64848
292.4154, 74.43263
292.8975, 74.18539
293.3796, 73.97466
293.8618, 73.89017
294.3439, 73.95415
294.8260, 74.03524
295.3081, 73.52350
295.7902, 73.89848
296.2723, 74.07265
296.7545, 74.05680
297.2366, 73.28184
297.7187, 73.48712
298.2008, 73.29957
298.6829, 73.09590
299.1650, 73.43915
299.6472, 72.77457
300.1293, 73.71799
300.6114, 73.47249
301.0935, 73.15403
301.5756, 73.06797
302.0577, 73.18119
302.5399, 73.29726
303.0220, 73.23893
303.5041, 73.01746
303.9862, 72.88956
304.4683, 72.96000
304.9504, 73.00683
305.4326, 72.91133
305.9147, 72.73934
306.3968, 72.61228
306.8789, 72.60182
307.3610, 72.69444
307.8431, 72.82509
308.3253, 72.57163
308.8074, 73.02655
309.2895, 73.28067
309.7716, 73.34477
310.2537, 72.64976
310.7358, 72.93498
311.2180, 72.82738
311.7001, 72.70366
312.1822, 73.12685
312.6643, 72.54224
313.1464, 72.95677
313.6285, 72.97246
314.1107, 73.17068
314.5928, 72.97364
315.0749, 72.89869
315.5570, 73.21912
316.0392, 73.32063
316.5213, 73.07809
317.0034, 73.28792
317.4855, 72.68951
317.9676, 72.80033
318.4497, 73.21717
318.9319, 72.99451
319.4140, 73.21156
319.8961, 73.26115
320.3782, 72.54964
320.8603, 73.16175
321.3424, 73.20144
321.8246, 72.65338
322.3067, 73.22013
322.7888, 72.75310
323.2709, 72.65507
323.7530, 72.83472
324.2351, 72.72490
324.7173, 72.81876
325.1994, 72.85511
325.6815, 72.96476
326.1636, 73.08916
326.6457, 73.12895
327.1278, 73.01394
327.6100, 72.84225
328.0921, 72.89388
328.5742, 73.36077
329.0563, 73.62781
329.5384, 73.35009
330.0205, 72.94632
330.5027, 72.78640
330.9848, 72.97551
331.4669, 73.32669
331.9490, 73.57363
332.4311, 73.67541
332.9132, 73.85405
333.3954, 74.30665
333.8775, 74.72441
334.3596, 74.89901
334.8417, 74.83889
335.3238, 74.73227
335.8059, 74.76777
336.2881, 74.94851
336.7702, 75.04964
337.2523, 74.91545
337.7344, 74.87777
338.2165, 75.22038
338.6986, 75.77612
339.1808, 76.14288
339.6629, 75.97551
340.1450, 75.45595
340.6271, 75.27718
341.1092, 75.55419
341.5913, 75.96640
342.0735, 76.53495
342.5556, 77.10155
343.0377, 77.45311
343.5198, 77.48400
344.0019, 77.35088
344.4840, 77.25607
344.9662, 77.16581
345.4483, 77.25787
345.9304, 77.79867
346.4125, 78.42547
346.8946, 78.88769
347.3767, 79.14835
347.8589, 79.32136
348.3410, 79.47433
348.8231, 79.61034
349.3052, 79.83516
349.7873, 80.22789
350.2694, 80.64465
350.7516, 80.91442
351.2337, 81.09461
351.7158, 81.42335
352.1979, 82.11762
352.6800, 83.07758
353.1621, 83.96936
353.6443, 84.76570
354.1264, 85.54362
354.6085, 86.32104
355.0906, 87.11697
355.5727, 87.96803
356.0548, 88.92322
356.5370, 89.89571
357.0191, 90.75333
357.5012, 91.47956
357.9833, 92.22598
358.4654, 93.07069
358.9475, 93.95710
359.4297, 94.77895
359.9118, 95.49499
360.3939, 96.31127
360.8760, 97.46408
361.3581, 98.87716
361.8402, 100.1551
362.3224, 101.0938
362.8045, 102.0426
363.2866, 103.4144
363.7687, 105.1606
364.2508, 106.8901
364.7329, 108.3444
365.2151, 109.7229
365.6972, 111.4321
366.1793, 113.5706
366.6614, 115.6857
367.1436, 117.3896
367.6257, 118.7965
368.1078, 120.2579
368.5899, 122.0043
369.0720, 123.6770
369.5541, 125.0392
370.0363, 126.0910
370.5184, 126.8400
371.0005, 127.3881
371.4826, 127.5113
371.9647, 126.7286
372.4468, 124.8220
372.9290, 122.7127
373.4111, 120.8543
373.8932, 119.0143
374.3753, 116.7707
374.8574, 113.9958
375.3395, 110.9170
375.8217, 107.7156
376.3038, 104.3343
376.7859, 101.4184
377.2680, 99.26501
377.7501, 97.44009
378.2322, 95.59291
378.7144, 93.70152
379.1965, 91.89414
379.6786, 90.25294
380.1607, 88.78178
380.6428, 87.42049
381.1249, 86.20030
381.6071, 85.04755
382.0892, 83.83018
382.5713, 82.67027
383.0534, 81.84998
383.5355, 81.50517
384.0176, 81.42011
384.4998, 81.12401
384.9819, 80.43029
385.4640, 79.81914
385.9461, 79.38168
386.4282, 78.98180
386.9103, 78.41338
387.3925, 77.69731
387.8746, 77.14172
388.3567, 77.13414
388.8388, 77.80256
389.3209, 78.08363
389.8030, 77.65755
390.2852, 77.23877
390.7673, 77.09634
391.2494, 77.17006
391.7315, 77.30347
392.2136, 77.40794
392.6957, 77.49044
393.1779, 77.57657
393.6600, 77.67509
394.1421, 77.76390
394.6242, 77.89893
395.1063, 77.99197
395.5884, 77.86921
396.0706, 77.52676
396.5527, 77.24947
397.0348, 77.48473
397.5169, 78.42270
397.9990, 79.10733
398.4811, 79.42371
398.9633, 79.57425
399.4454, 79.44421
399.9275, 79.19815
400.4096, 79.21620
400.8917, 79.83395
401.3738, 80.88000
401.8560, 81.62251
402.3381, 82.00149
402.8202, 82.16944
403.3023, 82.02033
403.7844, 81.78614
404.2665, 81.71083
404.7487, 81.87081
405.2308, 82.14122
405.7129, 82.39246
406.1950, 82.62759
406.6771, 82.82432
407.1592, 82.99915
407.6414, 83.10561
408.1235, 83.14025
408.6056, 83.09354
409.0877, 82.92133
409.5698, 82.60386
410.0519, 82.14310
410.5341, 81.48190
411.0162, 80.55209
411.4983, 79.69075
411.9804, 79.22248
412.4625, 78.93221
412.9446, 78.46410
413.4268, 77.70959
413.9089, 76.85560
414.3910, 76.02930
414.8731, 75.22758
415.3553, 74.42400
415.8374, 73.58515
416.3195, 72.78422
416.8016, 72.14204
417.2837, 71.65486
417.7658, 71.21778
418.2480, 70.86674
418.7301, 70.51855
419.2122, 70.04444
419.6943, 69.43818
420.1764, 68.84670
420.6585, 68.39361
421.1407, 68.06618
421.6228, 67.70810
422.1049, 67.13571
422.5870, 66.72872
423.0691, 66.82412
423.5512, 67.15776
424.0334, 67.21987
424.5155, 66.79949
424.9976, 66.13339
425.4797, 65.66505
425.9618, 65.52670
426.4439, 65.33617
426.9261, 65.02117
427.4082, 64.71159
427.8903, 64.49742
428.3724, 64.38041
428.8545, 64.31107
429.3366, 64.24652
429.8188, 64.18940
430.3009, 64.19505
430.7830, 64.37297
431.2651, 64.49456
431.7472, 64.56858
432.2293, 64.54893
432.7115, 64.31642
433.1936, 63.83745
433.6757, 63.32905
434.1578, 63.20654
434.6399, 63.63844
435.1220, 63.85643
435.6042, 63.55275
436.0863, 63.23223
436.5684, 63.15164
437.0505, 63.27284
437.5326, 63.40936
438.0147, 63.45807
438.4969, 63.41729
438.9790, 63.23400
439.4611, 62.78869
439.9432, 62.50574
440.4253, 62.73286
440.9074, 63.13438
441.3896, 63.36648
441.8717, 63.34679
442.3538, 63.22898
442.8359, 63.11378
443.3180, 63.00698
443.8001, 62.95242
444.2823, 62.97313
444.7644, 63.02176
445.2465, 63.09266
445.7286, 63.16917
446.2107, 63.14242
446.6928, 62.85238
447.1750, 62.53331
447.6571, 62.45408
448.1392, 62.59632
448.6213, 62.73545
449.1034, 62.73833
449.5855, 62.67327
450.0677, 62.75455
450.5498, 63.11329
451.0319, 63.31984
451.5140, 63.13351
451.9961, 62.79568
452.4782, 62.58806
452.9604, 62.56634
453.4425, 62.65955
453.9246, 62.82853
454.4067, 63.10248
454.8888, 63.12029
455.3709, 62.68634
455.8531, 62.25798
456.3352, 62.01589
456.8173, 61.88960
457.2994, 61.72479
457.7815, 61.45012
458.2636, 61.15572
458.7458, 61.04444
459.2279, 61.23883
459.7100, 61.36325
460.1921, 61.29624
460.6742, 61.25814
461.1563, 61.41115
461.6385, 61.72389
462.1206, 62.04292
462.6027, 62.26683
463.0848, 62.39585
463.5669, 62.39655
464.0491, 62.12640
464.5312, 62.02179
465.0133, 62.48171
465.4954, 63.04106
465.9775, 63.18375
466.4597, 62.77076
466.9418, 62.23735
467.4239, 61.96248
467.9060, 61.92168
468.3881, 61.94074
468.8702, 61.98014
469.3524, 62.10636
469.8345, 62.55662
470.3166, 63.16944
470.7987, 63.42076
471.2808, 62.88676
471.7629, 62.16866
472.2451, 61.81462
472.7272, 61.76325
473.2093, 61.68470
473.6914, 61.42088
474.1735, 61.09680
474.6556, 60.96757
475.1378, 61.07600
475.6199, 61.19489
476.1020, 61.28594
476.5841, 61.37649
477.0662, 61.49150
477.5483, 61.63110
478.0305, 61.79303
478.5126, 61.98763
478.9947, 62.19838
479.4768, 62.27449
479.9589, 62.09957
480.4410, 61.92892
480.9232, 61.71077
481.4053, 61.55549
481.8874, 61.63635
482.3695, 61.96610
482.8516, 62.32200
483.3337, 62.42536
483.8159, 62.24625
484.2980, 62.06451
484.7801, 61.78139
485.2622, 61.61636
485.7443, 61.72942
486.2264, 61.98724
486.7086, 62.15415
487.1907, 62.10398
487.6728, 62.02851
488.1549, 62.27087
488.6370, 62.85957
489.1191, 63.29409
489.6013, 63.42690
490.0834, 63.40572
490.5655, 63.35216
491.0476, 63.27010
491.5297, 63.18602
492.0118, 63.08820
492.4940, 63.00677
492.9761, 63.00753
493.4582, 63.08500
493.9403, 63.10568
494.4224, 62.95780
494.9045, 62.74952
495.3867, 62.78592
495.8688, 63.18897
496.3509, 63.48626
496.8330, 63.47729
497.3151, 63.36104
497.7972, 63.35633
498.2794, 63.48127
498.7615, 63.61582
499.2436, 63.65927
499.7257, 63.61506
500.2078, 63.55041
500.6899, 63.42057
501.1721, 63.32413
501.6542, 63.29893
502.1363, 63.30412
502.6184, 63.27422
503.1005, 63.20116
503.5826, 63.16526
504.0648, 63.29482
504.5469, 63.61623
505.0290, 63.84217
505.5111, 63.96248
505.9932, 63.99168
506.4753, 63.88064
506.9575, 63.70414
507.4396, 63.59101
507.9217, 63.60834
508.4038, 63.63656
508.8859, 63.49371
509.3680, 63.19264
509.8502, 62.97270
510.3323, 62.88968
510.8144, 62.89523
511.2965, 63.00376
511.7786, 63.18444
512.2607, 63.24797
512.7429, 63.10109
513.2250, 62.85537
513.7071, 62.56782
514.1892, 62.25566
514.6713, 61.97839
515.1534, 61.76694
515.6356, 61.58568
516.1177, 61.35022
516.5998, 60.94484
517.0819, 60.75733
517.5640, 60.98800
518.0461, 61.28426
518.5283, 61.42964
519.0104, 61.42147
519.4925, 61.34948
519.9746, 61.27816
520.4567, 61.17290
520.9388, 60.87840
521.4210, 60.18794
521.9031, 59.69927
522.3852, 59.56318
522.8673, 59.56131
523.3494, 59.56930
523.8315, 59.56459
524.3137, 59.55795
524.7958, 59.55742
525.2779, 59.56115
525.7600, 59.57955
526.2421, 59.63622
526.7242, 59.61555
527.2064, 59.38765
527.6885, 59.09609
528.1706, 58.93549
528.6527, 58.94477
529.1348, 58.94525
529.6169, 58.76905
530.0991, 58.55268
530.5812, 58.58566
531.0633, 58.89737
531.5454, 59.13922
532.0275, 59.02593
532.5096, 58.62151
532.9918, 58.37420
533.4739, 58.45055
533.9560, 58.44597
534.4381, 58.12593
534.9202, 57.76471
535.4023, 57.70923
535.8845, 57.99403
536.3666, 58.34423
536.8487, 58.47629
537.3308, 58.39132
537.8129, 58.37049
538.2951, 58.50471
538.7772, 58.58283
539.2593, 58.50957
539.7415, 58.38360
540.2236, 58.34508
540.7057, 58.42400
541.1878, 58.44448
541.6699, 58.09645
542.1520, 57.47269
542.6342, 57.26261
543.1163, 57.63022
543.5984, 58.13084
544.0805, 58.59749
544.5626, 58.97431
545.0447, 59.11749
545.5269, 58.87936
546.0090, 58.64996
546.4911, 58.74443
546.9732, 58.98603
547.4553, 58.98144
547.9374, 58.64426
548.4196, 58.30132
548.9017, 58.28611
549.3838, 58.60829
549.8659, 58.79628
550.3480, 58.81891
550.8301, 58.77209
551.3123, 58.57994
551.7944, 58.37840
552.2765, 58.38429
552.7586, 58.62982
553.2407, 58.87758
553.7228, 58.79998
554.2050, 58.36866
554.6871, 58.14302
555.1692, 58.27756
555.6513, 58.40391
556.1334, 58.36760
556.6155, 58.25565
557.0977, 58.17678
557.5798, 58.15990
558.0619, 58.17522
558.5440, 58.25762
559.0261, 58.35798
559.5082, 58.24500
559.9904, 57.83410
560.4725, 57.45331
560.9546, 57.38578
561.4367, 57.57132
561.9188, 57.65597
562.4009, 57.57254
562.8831, 57.46882
563.3652, 57.45675
563.8473, 57.43373
564.3294, 57.22438
564.8115, 56.80663
565.2936, 56.32955
565.7758, 55.91428
566.2579, 55.55888
566.7400, 55.47996
567.2221, 56.00708
567.7042, 56.42261
568.1863, 56.52818
568.6685, 56.50911
569.1506, 56.58222
569.6327, 56.78136
570.1148, 56.92922
570.5969, 56.74252
571.0790, 56.31086
571.5612, 56.26019
572.0433, 56.73906
572.5254, 57.19215
573.0075, 57.32548
573.4896, 57.26150
573.9717, 57.18282
574.4539, 57.11072
574.9360, 56.99299
575.4181, 56.76281
575.9002, 56.49196
576.3823, 56.28107
576.8644, 56.13924
577.3466, 56.02333
577.8287, 55.90080
578.3108, 55.78032
578.7929, 55.70467
579.2750, 55.64856
579.7571, 55.67560
580.2393, 55.81318
580.7214, 56.01671
581.2035, 56.35397
581.6856, 56.74833
582.1677, 56.94087
582.6498, 56.69038
583.1320, 56.13673
583.6141, 55.74657
584.0962, 55.51695
584.5783, 55.46369
585.0604, 55.79683
585.5425, 56.14774
586.0247, 56.15093
586.5068, 55.82818
