##NAMES=Elbaite
##RRUFFID=R070564
##IDEAL CHEMISTRY=Na(Al_1.5_Li_1.5_)Al_6_(Si_6_O_18_)(BO_3_)_3_(OH)_3_OH
##LOCALITY=unknown
##OWNER=RRUFF
##SOURCE=Gemological Institute of America
##DESCRIPTION=Green outer portion of a zoned watermelon tourmaline slice, see also R060566 (pink) and R070563 (white)
##STATUS=The identification of this mineral is confirmed by single-crystal X-ray diffraction and chemical analysis.
##URL=rruff.info/R070564
##MEASURED CHEMISTRY=(Na_0.77_[box]_0.19_Ca_0.04_)_Σ=1_(Al_1.69_Li_0.66_Fe^2+^_0.49_Mn_0.12_Mg_0.03_Ti_0.01_)_Σ=3_Al_6.00_(BO_3_)_3_Si_6.00_O_18_((OH)_3.10_F_0.90_)_Σ=4_; H_2_O from stoichiometry after deduction of F; B_2_O_3_ by difference; Li by charge balance
111.6964, 16529.64
112.1785, 16548.80
112.6606, 16564.79
113.1427, 16567.07
113.6248, 16554.73
114.1069, 16537.86
114.5891, 16533.48
115.0712, 16532.76
115.5533, 16559.74
116.0354, 16634.28
116.5175, 16727.69
116.9996, 16815.85
117.4818, 16888.57
117.9639, 16940.60
118.4460, 16942.04
118.9281, 16831.03
119.4102, 16744.34
119.8923, 16737.02
120.3745, 16793.41
120.8566, 16863.08
121.3387, 16924.36
121.8208, 16967.16
122.3029, 16959.70
122.7850, 16840.25
123.2672, 16706.74
123.7493, 16648.59
124.2314, 16676.79
124.7135, 16743.73
125.1956, 16844.18
125.6777, 16959.81
126.1599, 17030.35
126.6420, 16990.27
127.1241, 16882.70
127.6062, 16843.32
128.0883, 16924.04
128.5704, 17030.57
129.0526, 17107.68
129.5347, 17153.78
130.0168, 17167.93
130.4989, 17132.66
130.9810, 17037.53
131.4631, 16974.80
131.9453, 17002.85
132.4274, 17036.76
132.9095, 17026.58
133.3916, 16962.24
133.8737, 16876.40
134.3558, 16826.97
134.8380, 16850.62
135.3201, 16842.93
135.8022, 16744.21
136.2843, 16635.79
136.7664, 16604.01
137.2485, 16691.65
137.7307, 16861.21
138.2128, 16961.65
138.6949, 16940.88
139.1770, 16901.17
139.6591, 16853.21
140.1412, 16795.96
140.6234, 16723.59
141.1055, 16629.80
141.5876, 16515.49
142.0697, 16412.34
142.5518, 16283.60
143.0339, 16193.69
143.5161, 16203.43
143.9982, 16300.26
144.4803, 16393.54
144.9624, 16396.20
145.4445, 16296.51
145.9266, 16229.32
146.4088, 16233.03
146.8909, 16254.98
147.3730, 16229.06
147.8551, 16135.91
148.3372, 16041.19
148.8193, 16030.01
149.3015, 16089.74
149.7836, 16163.48
150.2657, 16242.35
150.7478, 16321.39
151.2299, 16388.72
151.7121, 16443.20
152.1942, 16480.94
152.6763, 16498.67
153.1584, 16496.10
153.6405, 16489.58
154.1226, 16498.26
154.6048, 16523.21
155.0869, 16524.96
155.5690, 16445.04
156.0511, 16368.95
156.5332, 16369.80
157.0153, 16466.36
157.4975, 16582.17
157.9796, 16601.13
158.4617, 16477.05
158.9438, 16375.14
159.4259, 16318.50
159.9080, 16299.46
160.3902, 16322.83
160.8723, 16393.06
161.3544, 16489.54
161.8365, 16551.29
162.3186, 16551.79
162.8007, 16548.89
163.2829, 16576.23
163.7650, 16601.13
164.2471, 16572.36
164.7292, 16452.64
165.2113, 16255.58
165.6934, 16131.82
166.1756, 16129.11
166.6577, 16149.65
167.1398, 16179.54
167.6219, 16215.02
168.1040, 16257.38
168.5861, 16310.71
169.0683, 16377.88
169.5504, 16406.83
170.0325, 16389.41
170.5146, 16349.85
170.9967, 16275.62
171.4788, 16178.07
171.9610, 16111.09
172.4431, 16137.88
172.9252, 16289.34
173.4073, 16375.53
173.8894, 16362.94
174.3715, 16305.10
174.8537, 16231.98
175.3358, 16147.81
175.8179, 16083.68
176.3000, 16097.02
176.7821, 16195.43
177.2642, 16256.76
177.7464, 16207.71
178.2285, 16116.60
178.7106, 16108.09
179.1927, 16232.18
179.6748, 16393.57
180.1569, 16473.88
180.6391, 16478.12
181.1212, 16445.92
181.6033, 16366.25
182.0854, 16256.46
182.5675, 16188.13
183.0496, 16188.83
183.5318, 16232.61
184.0139, 16294.16
184.4960, 16376.86
184.9781, 16444.42
185.4602, 16461.03
185.9423, 16426.15
186.4245, 16389.64
186.9066, 16342.31
187.3887, 16315.57
187.8708, 16344.11
188.3529, 16438.94
188.8350, 16551.86
189.3172, 16632.74
189.7993, 16684.05
190.2814, 16691.80
190.7635, 16603.08
191.2456, 16497.05
191.7277, 16427.17
192.2099, 16411.28
192.6920, 16444.60
193.1741, 16532.18
193.6562, 16728.74
194.1383, 16866.95
194.6204, 16891.48
195.1026, 16860.67
195.5847, 16828.01
196.0668, 16817.42
196.5489, 16824.32
197.0310, 16833.02
197.5131, 16827.10
197.9953, 16847.29
198.4774, 16930.67
198.9595, 17034.49
199.4416, 17100.61
199.9237, 17090.44
200.4058, 17019.56
200.8880, 16992.79
201.3701, 17039.28
201.8522, 17104.22
202.3343, 17190.63
202.8164, 17288.73
203.2985, 17383.99
203.7807, 17466.29
204.2628, 17536.35
204.7449, 17607.22
205.2270, 17652.30
205.7091, 17724.59
206.1912, 17861.89
206.6734, 18044.45
207.1555, 18220.11
207.6376, 18347.23
208.1197, 18423.00
208.6018, 18509.65
209.0839, 18581.92
209.5661, 18684.27
210.0482, 18851.77
210.5303, 19074.66
211.0124, 19310.21
211.4945, 19522.90
211.9766, 19708.87
212.4588, 19890.92
212.9409, 20088.22
213.4230, 20267.87
213.9051, 20371.96
214.3872, 20408.54
214.8693, 20491.23
215.3515, 20745.03
215.8336, 21199.65
216.3157, 21562.96
216.7978, 21764.27
217.2799, 21910.63
217.7620, 22097.20
218.2442, 22336.46
218.7263, 22578.77
219.2084, 22785.45
219.6905, 22955.47
220.1726, 23069.85
220.6547, 23115.54
221.1369, 23108.55
221.6190, 23057.40
222.1011, 22958.26
222.5832, 22843.97
223.0653, 22767.53
223.5474, 22720.52
224.0296, 22609.49
224.5117, 22355.57
224.9938, 22035.46
225.4759, 21779.95
225.9580, 21617.76
226.4401, 21487.28
226.9223, 21332.12
227.4044, 21156.37
227.8865, 20972.78
228.3686, 20781.95
228.8507, 20587.76
229.3328, 20387.74
229.8150, 20162.19
230.2971, 19913.22
230.7792, 19914.47
231.2613, 19891.06
231.7434, 19844.33
232.2255, 19704.41
232.7077, 19684.81
233.1898, 19616.99
233.6719, 19547.21
234.1540, 19544.55
234.6361, 19418.19
235.1182, 19414.47
235.6004, 19361.79
236.0825, 19346.52
236.5646, 19274.62
237.0467, 19289.33
237.5288, 19487.75
238.0109, 19671.06
238.4931, 19683.92
238.9752, 19551.18
239.4573, 19415.42
239.9394, 19388.79
240.4215, 19459.11
240.9036, 19497.69
241.3858, 19477.28
241.8679, 19438.07
242.3500, 19406.63
242.8321, 19380.98
243.3142, 19346.07
243.7963, 19280.53
244.2785, 19185.59
244.7606, 19115.10
245.2427, 19092.71
245.7248, 19077.12
246.2069, 19051.27
246.6890, 19013.73
247.1712, 18965.29
247.6533, 18910.37
248.1354, 18849.41
248.6175, 18761.49
249.0996, 18593.66
249.5817, 18445.26
250.0639, 18387.33
250.5460, 18401.44
251.0281, 18404.50
251.5102, 18301.62
251.9923, 18079.41
252.4744, 17922.33
252.9566, 17880.52
253.4387, 17869.69
253.9208, 17880.27
254.4029, 17898.04
254.8850, 17889.16
255.3671, 17805.64
255.8493, 17634.79
256.3314, 17514.54
256.8135, 17493.67
257.2956, 17486.66
257.7777, 17463.93
258.2599, 17426.60
258.7420, 17390.99
259.2241, 17376.69
259.7062, 17387.51
260.1883, 17377.90
260.6704, 17332.69
261.1526, 17277.95
261.6347, 17213.13
262.1168, 17144.09
262.5989, 17083.46
263.0810, 17038.13
263.5631, 17007.11
264.0453, 17007.12
264.5274, 17091.78
265.0095, 17161.12
265.4916, 17178.50
265.9737, 17150.36
266.4558, 17103.27
266.9380, 17057.23
267.4201, 17012.19
267.9022, 16970.02
268.3843, 16935.54
268.8664, 16899.48
269.3485, 16853.76
269.8307, 16803.48
270.3128, 16761.07
270.7949, 16738.14
271.2770, 16735.03
271.7591, 16727.31
272.2412, 16691.13
272.7234, 16673.56
273.2055, 16721.77
273.6876, 16800.91
274.1697, 16834.51
274.6518, 16756.92
275.1339, 16572.31
275.6161, 16425.69
276.0982, 16334.12
276.5803, 16268.17
277.0624, 16247.83
277.5445, 16247.91
278.0266, 16222.27
278.5088, 16133.85
278.9909, 15990.28
279.4730, 15888.04
279.9551, 15862.97
280.4372, 15845.66
280.9193, 15822.99
281.4015, 15798.00
281.8836, 15778.47
282.3657, 15769.96
282.8478, 15770.20
283.3299, 15765.60
283.8120, 15769.32
284.2942, 15750.55
284.7763, 15701.36
285.2584, 15627.50
285.7405, 15527.64
286.2226, 15395.66
286.7047, 15252.05
287.1869, 15180.72
287.6690, 15267.04
288.1511, 15317.88
288.6332, 15288.54
289.1153, 15213.55
289.5974, 15128.90
290.0796, 15051.17
290.5617, 14983.07
291.0438, 14934.94
291.5259, 14923.26
292.0080, 14907.88
292.4901, 14864.23
292.9723, 14822.92
293.4544, 14823.06
293.9365, 14880.35
294.4186, 14962.66
294.9007, 14998.28
295.3828, 14957.71
295.8650, 14921.17
296.3471, 14891.74
296.8292, 14872.06
297.3113, 14864.40
297.7934, 14869.31
298.2755, 14885.93
298.7577, 14918.42
299.2398, 14990.37
299.7219, 15023.11
300.2040, 14967.22
300.6861, 14905.54
301.1682, 14906.55
301.6504, 14980.14
302.1325, 15071.33
302.6146, 15100.53
303.0967, 15042.24
303.5788, 14999.89
304.0609, 14970.30
304.5431, 14962.53
305.0252, 14997.88
305.5073, 15070.17
305.9894, 15140.50
306.4715, 15161.57
306.9536, 15120.39
307.4358, 15091.47
307.9179, 15074.27
308.4000, 15070.68
308.8821, 15090.22
309.3642, 15127.41
309.8463, 15162.54
310.3285, 15168.34
310.8106, 15141.49
311.2927, 15163.13
311.7748, 15304.14
312.2569, 15424.86
312.7390, 15450.11
313.2212, 15411.57
313.7033, 15392.75
314.1854, 15463.97
314.6675, 15610.89
315.1496, 15714.21
315.6317, 15753.38
316.1139, 15771.06
316.5960, 15765.42
317.0781, 15753.39
317.5602, 15765.54
318.0423, 15829.50
318.5244, 15921.81
319.0066, 15963.10
319.4887, 15928.14
319.9708, 15888.17
320.4529, 15857.13
320.9350, 15838.98
321.4171, 15842.16
321.8993, 15874.21
322.3814, 15919.65
322.8635, 15950.64
323.3456, 15966.61
323.8277, 15969.61
324.3098, 15925.69
324.7920, 15886.14
325.2741, 15908.33
325.7562, 16016.32
326.2383, 16143.21
326.7204, 16198.46
327.2025, 16170.77
327.6847, 16161.56
328.1668, 16239.36
328.6489, 16317.53
329.1310, 16307.01
329.6131, 16192.89
330.0952, 16090.95
330.5774, 16119.01
331.0595, 16269.29
331.5416, 16405.38
332.0237, 16510.80
332.5058, 16582.74
332.9879, 16619.99
333.4701, 16623.71
333.9522, 16613.89
334.4343, 16592.88
334.9164, 16566.39
335.3985, 16556.95
335.8806, 16573.78
336.3628, 16595.53
336.8449, 16601.60
337.3270, 16596.39
337.8091, 16597.81
338.2912, 16621.50
338.7733, 16653.54
339.2555, 16664.12
339.7376, 16645.27
340.2197, 16635.02
340.7018, 16666.15
341.1839, 16728.18
341.6660, 16795.28
342.1482, 16880.22
342.6303, 16956.81
343.1124, 16987.96
343.5945, 16975.09
344.0766, 16973.51
344.5587, 17024.20
345.0409, 17107.59
345.5230, 17159.09
346.0051, 17152.26
346.4872, 17145.33
346.9693, 17188.39
347.4514, 17264.04
347.9336, 17304.13
348.4157, 17270.57
348.8978, 17196.80
349.3799, 17157.95
349.8620, 17150.62
350.3441, 17174.08
350.8263, 17275.06
351.3084, 17396.52
351.7905, 17421.92
352.2726, 17306.25
352.7547, 17156.07
353.2368, 17138.17
353.7190, 17292.85
354.2011, 17454.74
354.6832, 17642.72
355.1653, 17814.46
355.6474, 17907.74
356.1295, 17920.71
356.6117, 17937.21
357.0938, 18050.52
357.5759, 18286.33
358.0580, 18474.31
358.5401, 18556.89
359.0222, 18647.07
359.5044, 18832.46
359.9865, 19087.94
360.4686, 19314.70
360.9507, 19426.49
361.4328, 19433.57
361.9149, 19544.49
362.3971, 19835.20
362.8792, 20138.16
363.3613, 20432.43
363.8434, 20707.25
364.3255, 20937.48
364.8076, 21106.32
365.2898, 21251.64
365.7719, 21494.82
366.2540, 21961.32
366.7361, 22347.68
367.2182, 22592.88
367.7003, 22774.18
368.1825, 22953.10
368.6646, 23150.06
369.1467, 23356.97
369.6288, 23569.41
370.1109, 23812.56
370.5930, 23989.60
371.0752, 24112.89
371.5573, 24160.83
372.0394, 24098.29
372.5215, 23936.93
373.0036, 23732.96
373.4857, 23533.24
373.9679, 23338.45
374.4500, 23134.10
374.9321, 22926.73
375.4142, 22700.32
375.8963, 22447.99
376.3784, 22173.17
376.8606, 21882.91
377.3427, 21582.41
377.8248, 21268.25
378.3069, 20926.66
378.7890, 20542.97
379.2711, 20164.85
379.7533, 19756.91
380.2354, 19384.83
380.7175, 19150.50
381.1996, 19122.38
381.6817, 19139.45
382.1638, 19006.13
382.6460, 18722.17
383.1281, 18456.81
383.6102, 18265.78
384.0923, 18119.86
384.5744, 17981.57
385.0565, 17849.09
385.5387, 17729.24
386.0208, 17638.14
386.5029, 17562.34
386.9850, 17459.43
387.4671, 17310.08
387.9492, 17165.73
388.4314, 17096.27
388.9135, 17094.45
389.3956, 17077.21
389.8777, 17008.63
390.3598, 16928.73
390.8419, 16883.82
391.3241, 16874.99
391.8062, 16863.29
392.2883, 16818.61
392.7704, 16744.03
393.2525, 16680.26
393.7346, 16596.18
394.2168, 16553.63
394.6989, 16618.98
395.1810, 16744.92
395.6631, 16829.13
396.1452, 16821.97
396.6273, 16746.50
397.1095, 16663.76
397.5916, 16521.29
398.0737, 16441.36
398.5558, 16486.38
399.0379, 16565.96
399.5201, 16572.16
400.0022, 16489.58
400.4843, 16414.29
400.9664, 16489.08
401.4485, 16795.69
401.9306, 16965.48
402.4128, 16900.75
402.8949, 16808.73
403.3770, 16789.04
403.8591, 16829.23
404.3412, 16862.97
404.8233, 16835.73
405.3055, 16757.68
405.7876, 16720.09
406.2697, 16757.14
406.7518, 16787.77
407.2339, 16808.74
407.7160, 16805.61
408.1982, 16749.86
408.6803, 16623.13
409.1624, 16477.53
409.6445, 16402.54
410.1266, 16410.34
410.6087, 16427.14
411.0909, 16477.76
411.5730, 16499.34
412.0551, 16426.25
412.5372, 16255.26
413.0193, 16081.14
413.5014, 15967.88
413.9836, 15908.00
414.4657, 15886.25
414.9478, 15932.23
415.4299, 15948.27
415.9120, 15801.80
416.3941, 15546.29
416.8763, 15362.24
417.3584, 15352.74
417.8405, 15401.71
418.3226, 15382.88
418.8047, 15297.78
419.2868, 15220.17
419.7690, 15191.47
420.2511, 15200.89
420.7332, 15209.36
421.2153, 15247.25
421.6974, 15242.62
422.1795, 15131.31
422.6617, 14968.98
423.1438, 14850.70
423.6259, 14807.84
424.1080, 14805.27
424.5901, 14791.87
425.0722, 14768.19
425.5544, 14729.08
426.0365, 14651.09
426.5186, 14576.71
427.0007, 14534.47
427.4828, 14524.73
427.9649, 14534.02
428.4471, 14553.57
428.9292, 14582.83
429.4113, 14602.94
429.8934, 14600.24
430.3755, 14602.45
430.8576, 14635.28
431.3398, 14669.38
431.8219, 14657.63
432.3040, 14577.35
432.7861, 14471.32
433.2682, 14424.60
433.7503, 14458.85
434.2325, 14483.37
434.7146, 14463.13
435.1967, 14443.72
435.6788, 14456.94
436.1609, 14503.14
436.6430, 14554.49
437.1252, 14604.64
437.6073, 14646.17
438.0894, 14629.04
438.5715, 14518.43
439.0536, 14417.69
439.5357, 14416.08
440.0179, 14473.08
440.5000, 14508.09
440.9821, 14485.27
441.4642, 14444.90
441.9463, 14421.92
442.4284, 14415.56
442.9106, 14419.19
443.3927, 14431.17
443.8748, 14450.51
444.3569, 14480.50
444.8390, 14537.49
445.3211, 14562.38
445.8033, 14517.47
446.2854, 14440.82
446.7675, 14370.71
447.2496, 14316.41
447.7317, 14287.51
448.2138, 14299.82
448.6960, 14362.73
449.1781, 14397.70
449.6602, 14374.61
450.1423, 14358.27
450.6244, 14381.33
451.1065, 14431.64
451.5887, 14486.49
452.0708, 14534.91
452.5529, 14569.24
453.0350, 14560.31
453.5171, 14461.17
453.9992, 14402.68
454.4814, 14432.38
454.9635, 14479.59
455.4456, 14487.62
455.9277, 14448.76
456.4098, 14398.70
456.8919, 14359.48
457.3741, 14331.89
457.8562, 14330.01
458.3383, 14393.97
458.8204, 14433.48
459.3026, 14449.87
459.7847, 14373.83
460.2668, 14417.13
460.7489, 14412.61
461.2310, 14406.13
461.7131, 14466.23
462.1953, 14403.63
462.6774, 14462.68
463.1595, 14473.17
463.6416, 14505.88
464.1237, 14490.46
464.6058, 14489.92
465.0880, 14537.51
465.5701, 14558.44
466.0522, 14537.49
466.5343, 14571.62
467.0164, 14463.95
467.4985, 14524.49
467.9807, 14560.58
468.4628, 14573.54
468.9449, 14494.08
469.4270, 14533.96
469.9091, 14526.01
470.3912, 14516.10
470.8734, 14572.78
471.3555, 14506.76
471.8376, 14562.38
472.3197, 14569.45
472.8018, 14598.73
473.2839, 14579.90
473.7661, 14575.93
474.2482, 14620.09
474.7303, 14637.60
475.2124, 14613.23
475.6945, 14643.93
476.1766, 14576.23
476.6588, 14594.88
477.1409, 14650.78
477.6230, 14628.82
478.1051, 14660.40
478.5872, 14671.59
479.0693, 14590.13
479.5515, 14669.80
480.0336, 14679.79
480.5157, 14618.22
480.9978, 14692.37
481.4799, 14640.67
481.9620, 14633.88
482.4442, 14660.91
482.9263, 14652.69
483.4084, 14700.04
483.8905, 14693.86
484.3726, 14682.90
484.8547, 14692.80
485.3369, 14672.58
485.8190, 14664.46
486.3011, 14691.74
486.7832, 14747.99
487.2653, 14802.71
487.7474, 14837.23
488.2296, 14852.29
488.7117, 14850.91
489.1938, 14814.62
489.6759, 14783.79
490.1580, 14749.17
490.6401, 14727.95
491.1223, 14745.01
491.6044, 14800.44
492.0865, 14860.03
492.5686, 14882.74
493.0507, 14865.35
493.5328, 14863.12
494.0150, 14881.04
494.4971, 14909.02
494.9792, 14955.70
495.4613, 15006.19
495.9434, 15032.50
496.4255, 15016.46
496.9077, 14986.25
497.3898, 14978.96
497.8719, 14993.05
498.3540, 14998.57
498.8361, 14980.86
499.3182, 14958.24
499.8004, 14954.30
500.2825, 14968.21
500.7646, 14993.48
501.2467, 15061.86
501.7288, 15119.32
502.2109, 15086.56
502.6931, 14975.57
503.1752, 14893.44
503.6573, 14919.89
504.1394, 15031.57
504.6215, 15090.66
505.1036, 15018.76
505.5858, 14993.81
506.0679, 15101.42
506.5500, 15229.67
507.0321, 15246.96
507.5142, 15135.44
507.9963, 15003.98
508.4785, 14991.98
508.9606, 15115.42
509.4427, 15152.25
509.9248, 15027.36
510.4069, 14908.42
510.8890, 14868.22
511.3712, 14875.37
511.8533, 14871.81
512.3354, 14826.11
512.8175, 14785.24
513.2996, 14839.69
513.7817, 14977.68
514.2639, 15016.87
514.7460, 14867.52
515.2281, 14665.16
515.7102, 14587.34
516.1923, 14628.50
516.6744, 14657.79
517.1566, 14637.52
517.6387, 14601.04
518.1208, 14567.55
518.6029, 14542.12
519.0850, 14536.52
519.5671, 14559.83
520.0493, 14603.99
520.5314, 14641.60
521.0135, 14699.45
521.4956, 14712.00
521.9777, 14625.86
522.4598, 14529.78
522.9420, 14510.60
523.4241, 14565.89
523.9062, 14615.69
524.3883, 14571.67
524.8704, 14449.20
525.3525, 14411.86
525.8347, 14516.44
526.3168, 14601.99
526.7989, 14602.45
527.2810, 14552.32
527.7631, 14484.01
528.2452, 14399.69
528.7274, 14320.70
529.2095, 14253.82
529.6916, 14205.60
530.1737, 14211.46
530.6558, 14290.83
531.1379, 14364.66
531.6201, 14343.81
532.1022, 14228.24
532.5843, 14178.87
533.0664, 14261.06
533.5485, 14345.45
534.0306, 14363.29
534.5128, 14340.13
534.9949, 14332.21
535.4770, 14361.80
535.9591, 14400.34
536.4412, 14398.21
536.9233, 14343.43
537.4055, 14279.06
537.8876, 14162.42
538.3697, 14077.22
538.8518, 14078.58
539.3339, 14142.06
539.8160, 14205.84
540.2982, 14232.99
540.7803, 14247.15
541.2624, 14298.71
541.7445, 14392.30
542.2266, 14475.55
542.7087, 14538.26
543.1909, 14577.47
543.6730, 14610.34
544.1551, 14639.71
544.6372, 14585.57
545.1193, 14321.32
545.6014, 14024.08
546.0836, 13898.47
546.5657, 13934.15
547.0478, 13986.91
547.5299, 13974.49
548.0120, 13913.73
548.4941, 13863.41
548.9763, 13825.32
549.4584, 13796.30
549.9405, 13731.07
550.4226, 13771.50
550.9047, 13787.28
551.3868, 13779.74
551.8690, 13679.00
552.3511, 13698.60
552.8332, 13669.98
553.3153, 13639.38
553.7974, 13675.92
554.2795, 13588.74
554.7617, 13624.21
555.2438, 13610.72
555.7259, 13619.64
556.2080, 13580.04
556.6901, 13555.42
557.1722, 13579.35
557.6544, 13576.39
558.1365, 13531.20
558.6186, 13541.55
559.1007, 13452.67
559.5828, 13450.86
560.0649, 13486.62
560.5471, 13443.87
561.0292, 13455.10
561.5113, 13445.78
561.9934, 13343.02
562.4755, 13402.75
562.9576, 13392.21
563.4398, 13309.51
563.9219, 13363.67
564.4040, 13290.92
564.8861, 13263.48
565.3682, 13270.12
565.8503, 13288.78
566.3325, 13319.78
566.8146, 13306.22
567.2967, 13226.71
567.7788, 13273.11
568.2609, 13295.06
568.7430, 13293.88
569.2252, 13200.28
569.7073, 13226.02
570.1894, 13203.93
570.6715, 13179.88
571.1536, 13222.42
571.6357, 13142.26
572.1179, 13183.74
572.6000, 13176.67
573.0821, 13191.81
573.5642, 13158.84
574.0463, 13140.73
574.5284, 13170.75
575.0106, 13174.12
575.4927, 13135.61
575.9748, 13152.17
576.4569, 13070.33
576.9390, 13074.84
577.4211, 13116.60
577.9033, 13080.50
578.3854, 13097.94
578.8675, 13095.00
579.3496, 12999.39
579.8317, 13064.92
580.3138, 13060.77
580.7960, 12985.06
581.2781, 13045.07
581.7602, 12979.23
582.2423, 12958.31
582.7244, 12971.19
583.2065, 12948.84
583.6887, 12982.04
584.1708, 12961.72
584.6529, 12883.66
585.1350, 12926.88
585.6171, 12945.66
586.0992, 12941.31
586.5814, 12844.53
587.0635, 12867.10
587.5456, 12841.84
588.0277, 12814.62
588.5098, 12853.99
588.9919, 12770.66
589.4741, 12808.96
589.9562, 12798.71
590.4383, 12810.69
590.9204, 12774.54
591.4025, 12753.26
591.8846, 12780.11
592.3668, 12780.31
592.8489, 12738.62
593.3310, 12752.01
593.8131, 12667.00
594.2952, 12668.33
594.7773, 12706.92
595.2595, 12667.65
595.7416, 12681.92
596.2237, 12675.80
596.7058, 12577.02
597.1879, 12639.38
597.6700, 12632.05
598.1522, 12553.17
598.6343, 12610.01
599.1164, 12540.99
599.5985, 12516.90
600.0806, 12526.61
600.5627, 12501.08
