##NAMES=Elbaite
##RRUFFID=R050260
##IDEAL CHEMISTRY=Na(Al_1.5_Li_1.5_)Al_6_(Si_6_O_18_)(BO_3_)_3_(OH)_3_OH
##LOCALITY=Minas Gerais, Brazil
##OWNER=RRUFF
##SOURCE=Marcus Origlieri
##DESCRIPTION=Greenish-gray prismatic single crystal
##STATUS=The identification of this mineral has been confirmed by X-ray diffraction and chemical analysis
##URL=rruff.info/R050260
##MEASURED CHEMISTRY=(Na_0.76_[box]_0.17_Ca_0.07_)_Σ=1_(Al_1.67_Li_0.97_Mn_0.36_)_Σ=3_Al_6.00_(B_1.00_O_3_)_3_Si_6.00_O_18_((OH)_3.40_F_0.60_)_Σ=4_; B assumed by stoichiometry; OH estimated by charge balance
93.02344, -6.475074
93.50555, -4.455834
93.98767, -3.719698
94.46979, -5.255622
94.95190, -8.016209
95.43402, -9.476608
95.91614, -9.493122
96.39825, -8.777396
96.88037, -8.119441
97.36249, -7.514017
97.84460, -6.917803
98.32672, -6.315471
98.80884, -5.710993
99.29095, -5.065649
99.77307, -4.370313
100.2552, -3.662082
100.7373, -3.258949
101.2194, -3.400340
101.7015, -2.926788
102.1837, -0.6598150
102.6658, 4.061734
103.1479, 7.401829
103.6300, 8.443452
104.1121, 7.699979
104.5942, 8.154482
105.0764, 10.17359
105.5585, 12.90547
106.0406, 15.77424
106.5227, 18.83886
107.0048, 21.90423
107.4869, 25.02712
107.9690, 28.24875
108.4512, 30.99665
108.9333, 33.73602
109.4154, 35.78693
109.8975, 36.47605
110.3796, 32.05527
110.8617, 29.88169
111.3439, 32.07607
111.8260, 40.32362
112.3081, 47.11209
112.7902, 50.98818
113.2723, 53.35192
113.7544, 56.08137
114.2366, 59.79960
114.7187, 63.68360
115.2008, 67.29166
115.6829, 70.20571
116.1650, 73.67166
116.6471, 78.30411
117.1293, 83.77776
117.6114, 89.38390
118.0935, 95.26360
118.5756, 100.9312
119.0577, 106.1815
119.5398, 111.1755
120.0220, 115.3626
120.5041, 117.9695
120.9862, 119.3672
121.4683, 121.0620
121.9504, 124.0950
122.4325, 127.7736
122.9147, 131.4153
123.3968, 134.9041
123.8789, 138.1655
124.3610, 141.0525
124.8431, 143.5932
125.3252, 145.9446
125.8074, 147.9226
126.2895, 149.8044
126.7716, 152.1184
127.2537, 155.0122
127.7358, 158.4915
128.2179, 162.8285
128.7001, 168.0714
129.1822, 173.2234
129.6643, 176.9829
130.1464, 179.6508
130.6285, 182.4766
131.1106, 186.2600
131.5928, 190.6698
132.0749, 194.5610
132.5570, 197.7286
133.0391, 200.7303
133.5212, 204.7774
134.0033, 209.5018
134.4855, 212.2675
134.9676, 211.9395
135.4497, 209.4556
135.9318, 206.9934
136.4139, 204.6021
136.8960, 202.3631
137.3782, 200.5156
137.8603, 199.2009
138.3424, 197.5347
138.8245, 194.5930
139.3066, 190.0040
139.7887, 187.1154
140.2709, 186.9694
140.7530, 188.4057
141.2351, 187.1741
141.7172, 182.2802
142.1993, 176.9383
142.6814, 173.3321
143.1636, 171.8459
143.6457, 170.8305
144.1278, 170.1099
144.6099, 169.6890
145.0920, 169.5985
145.5741, 169.5826
146.0563, 170.1525
146.5384, 171.7817
147.0205, 175.3271
147.5026, 178.5351
147.9847, 181.0647
148.4668, 182.8777
148.9490, 184.6812
149.4311, 186.9868
149.9132, 188.9919
150.3953, 189.8886
150.8774, 186.8239
151.3595, 185.7533
151.8417, 188.4689
152.3238, 195.8887
152.8059, 201.7083
153.2880, 204.9790
153.7701, 206.9048
154.2522, 208.8160
154.7344, 210.9641
155.2165, 212.9490
155.6986, 214.6388
156.1807, 215.9932
156.6628, 217.2526
157.1449, 218.9201
157.6271, 220.3974
158.1092, 220.8775
158.5913, 219.1328
159.0734, 217.2041
159.5555, 216.0125
160.0376, 216.0143
160.5198, 215.6998
161.0019, 214.0440
161.4840, 211.8275
161.9661, 210.4555
162.4482, 211.1651
162.9303, 212.3254
163.4125, 213.1275
163.8946, 213.6041
164.3767, 213.3430
164.8588, 211.4635
165.3409, 208.6511
165.8230, 206.4953
166.3052, 206.5050
166.7873, 207.0097
167.2694, 206.6176
167.7515, 204.4689
168.2336, 202.4000
168.7157, 201.7750
169.1978, 202.2300
169.6800, 202.5716
170.1621, 201.6489
170.6442, 200.4789
171.1263, 200.2242
171.6084, 201.8508
172.0905, 203.4924
172.5727, 203.0018
173.0548, 200.8735
173.5369, 199.5000
174.0190, 201.2519
174.5011, 204.4738
174.9832, 206.8139
175.4654, 207.1537
175.9475, 206.8997
176.4296, 207.4730
176.9117, 208.8314
177.3938, 210.5770
177.8759, 212.9275
178.3581, 215.4185
178.8402, 217.1033
179.3223, 217.2851
179.8044, 216.8351
180.2865, 216.8608
180.7686, 217.3602
181.2508, 218.2570
181.7329, 219.7298
182.2150, 221.5773
182.6971, 223.2709
183.1792, 224.8135
183.6613, 226.0035
184.1435, 226.2255
184.6256, 225.4566
185.1077, 224.4598
185.5898, 223.6819
186.0719, 223.2121
186.5540, 223.4233
187.0362, 224.8091
187.5183, 226.8802
188.0004, 228.1237
188.4825, 228.4607
188.9646, 228.7748
189.4467, 230.0621
189.9289, 232.2364
190.4110, 234.6047
190.8931, 237.2314
191.3752, 239.8929
191.8573, 241.4960
192.3394, 241.8775
192.8216, 242.0855
193.3037, 243.3188
193.7858, 245.5606
194.2679, 248.2456
194.7500, 251.3558
195.2321, 254.7834
195.7143, 257.7010
196.1964, 259.8284
196.6785, 262.2804
197.1606, 266.9407
197.6427, 274.0522
198.1248, 280.5489
198.6070, 285.0563
199.0891, 287.7462
199.5712, 291.1793
200.0533, 295.3225
200.5354, 300.2466
201.0175, 306.2535
201.4997, 313.5485
201.9818, 320.6488
202.4639, 326.9218
202.9460, 332.3657
203.4281, 338.3545
203.9102, 344.9505
204.3924, 351.9816
204.8745, 359.0980
205.3566, 366.1739
205.8387, 373.9734
206.3208, 382.7894
206.8029, 392.6996
207.2851, 402.8936
207.7672, 413.4774
208.2493, 424.1980
208.7314, 434.6710
209.2135, 444.8565
209.6956, 454.9589
210.1778, 464.6581
210.6599, 473.7889
211.1420, 484.4757
211.6241, 496.8055
212.1062, 510.4179
212.5883, 524.6838
213.0705, 539.5234
213.5526, 555.3828
214.0347, 572.3974
214.5168, 591.0185
214.9989, 608.6843
215.4810, 625.0677
215.9632, 640.8725
216.4453, 656.7900
216.9274, 672.5103
217.4095, 689.3897
217.8916, 708.2577
218.3737, 729.6528
218.8559, 749.6046
219.3380, 768.3998
219.8201, 785.2791
220.3022, 799.0440
220.7843, 809.6687
221.2664, 816.9745
221.7486, 820.6291
222.2307, 820.2200
222.7128, 818.3235
223.1949, 815.6482
223.6770, 810.9454
224.1591, 802.1197
224.6413, 787.7288
225.1234, 771.8926
225.6055, 755.5734
226.0876, 738.8550
226.5697, 721.6024
227.0518, 703.6435
227.5340, 685.2589
228.0161, 667.1063
228.4982, 648.4863
228.9803, 630.9734
229.4624, 614.9270
229.9445, 600.0308
230.4267, 587.3698
230.9088, 577.3505
231.3909, 569.0115
231.8730, 560.9620
232.3551, 552.8627
232.8372, 545.4964
233.3194, 539.1854
233.8015, 534.0071
234.2836, 529.0159
234.7657, 524.0889
235.2478, 519.4251
235.7299, 515.2489
236.2121, 511.7631
236.6942, 508.4423
237.1763, 504.8688
237.6584, 500.7549
238.1405, 498.6436
238.6226, 499.8407
239.1048, 502.0162
239.5869, 502.3049
240.0690, 499.7136
240.5511, 496.9988
241.0332, 494.6971
241.5153, 492.8270
241.9975, 491.3313
242.4796, 490.3510
242.9617, 489.6367
243.4438, 489.0834
243.9259, 489.4914
244.4080, 488.5709
244.8902, 485.4767
245.3723, 480.0353
245.8544, 475.1939
246.3365, 471.2817
246.8186, 467.6563
247.3007, 463.5910
247.7829, 458.7435
248.2650, 454.1088
248.7471, 449.9017
249.2292, 446.1133
249.7113, 442.4109
250.1934, 438.8949
250.6756, 435.3159
251.1577, 431.3700
251.6398, 426.8436
252.1219, 422.3597
252.6040, 417.8472
253.0861, 413.3741
253.5683, 409.7313
254.0504, 407.3028
254.5325, 405.2215
255.0146, 402.9158
255.4967, 400.7070
255.9788, 397.4620
256.4609, 392.6940
256.9431, 386.6477
257.4252, 380.9552
257.9073, 375.4782
258.3894, 370.5272
258.8715, 366.3724
259.3536, 363.1812
259.8358, 360.3005
260.3179, 357.8346
260.8000, 355.6232
261.2821, 352.7481
261.7642, 348.7006
262.2463, 344.8056
262.7285, 341.9365
263.2106, 340.3674
263.6927, 339.0043
264.1748, 337.8306
264.6569, 336.7953
265.1390, 335.6234
265.6212, 334.1915
266.1033, 332.9022
266.5854, 332.1080
267.0675, 332.1128
267.5496, 331.4063
268.0317, 329.6274
268.5139, 327.2529
268.9960, 325.5545
269.4781, 324.6170
269.9602, 324.1272
270.4423, 324.2340
270.9244, 325.2874
271.4066, 325.0231
271.8887, 323.0700
272.3708, 320.1078
272.8529, 317.3914
273.3350, 314.8410
273.8171, 312.8301
274.2993, 311.9262
274.7814, 312.4167
275.2635, 311.2721
275.7456, 308.2423
276.2277, 303.9790
276.7098, 299.2187
277.1920, 293.7333
277.6741, 289.0101
278.1562, 285.9378
278.6383, 284.4650
279.1204, 282.2634
279.6025, 279.2744
280.0847, 275.6810
280.5668, 271.3662
281.0489, 266.1991
281.5310, 261.8525
282.0131, 259.4051
282.4952, 258.4357
282.9774, 255.4104
283.4595, 249.9062
283.9416, 244.0184
284.4237, 240.1842
284.9058, 238.3934
285.3879, 236.4609
285.8701, 233.6759
286.3522, 230.3603
286.8343, 227.8313
287.3164, 226.2065
287.7985, 224.6017
288.2806, 222.2758
288.7628, 219.2632
289.2449, 215.7826
289.7270, 211.4827
290.2091, 207.0836
290.6912, 204.5906
291.1733, 204.0652
291.6555, 203.9393
292.1376, 203.1384
292.6197, 201.7698
293.1018, 200.3380
293.5839, 198.9744
294.0660, 197.5263
294.5482, 195.2675
295.0303, 192.3501
295.5124, 190.3418
295.9945, 190.7046
296.4766, 192.7482
296.9587, 194.6561
297.4409, 196.3424
297.9230, 197.5425
298.4051, 197.4317
298.8872, 196.3356
299.3693, 195.6600
299.8514, 196.4117
300.3336, 198.0418
300.8157, 199.7162
301.2978, 201.4214
301.7799, 202.8033
302.2620, 203.1357
302.7441, 202.7880
303.2263, 202.7272
303.7084, 203.0429
304.1905, 204.0345
304.6726, 206.6979
305.1547, 211.0702
305.6368, 214.8923
306.1190, 215.5761
306.6011, 214.4627
307.0832, 213.8571
307.5653, 214.1312
308.0474, 215.6249
308.5295, 219.4784
309.0117, 225.4168
309.4938, 230.7017
309.9759, 233.0629
310.4580, 233.9449
310.9401, 234.9703
311.4222, 236.5187
311.9044, 238.4520
312.3865, 240.7999
312.8686, 243.4712
313.3507, 246.1926
313.8328, 249.0395
314.3149, 251.7360
314.7971, 253.8584
315.2792, 254.8380
315.7613, 256.3613
316.2434, 260.3006
316.7255, 265.4204
317.2076, 269.0360
317.6898, 268.4872
318.1719, 267.2953
318.6540, 267.4582
319.1361, 269.4432
319.6182, 271.9638
320.1003, 275.3429
320.5825, 278.8188
321.0646, 281.3442
321.5467, 281.6607
322.0288, 281.8561
322.5109, 282.6080
322.9930, 283.9689
323.4752, 285.7785
323.9573, 287.7832
324.4394, 290.3233
324.9215, 293.7053
325.4036, 298.9307
325.8857, 303.9890
326.3679, 308.5435
326.8500, 312.6094
327.3321, 316.3072
327.8142, 319.5119
328.2963, 322.4743
328.7784, 325.3395
329.2606, 327.7056
329.7427, 330.4973
330.2248, 334.3057
330.7069, 338.7005
331.1890, 341.8864
331.6711, 342.9801
332.1533, 343.8462
332.6354, 345.2629
333.1175, 347.4548
333.5996, 349.7177
334.0817, 352.1667
334.5638, 354.6372
335.0460, 356.7865
335.5281, 358.3849
336.0102, 360.1188
336.4923, 362.3304
336.9744, 365.1552
337.4565, 367.4757
337.9387, 369.3571
338.4208, 370.6753
338.9029, 370.9083
339.3850, 369.4709
339.8671, 369.2525
340.3492, 371.2900
340.8313, 375.2490
341.3134, 378.4053
341.7956, 380.7441
342.2777, 382.4410
342.7598, 383.5045
343.2419, 383.8945
343.7240, 384.3096
344.2061, 384.6845
344.6883, 385.3264
345.1704, 387.3278
345.6525, 390.8024
346.1346, 394.0424
346.6167, 395.7874
347.0988, 396.2851
347.5810, 396.9026
348.0631, 397.7750
348.5452, 398.3329
349.0273, 399.3419
349.5094, 399.7248
349.9915, 400.4069
350.4737, 401.1507
350.9558, 402.4552
351.4379, 405.7157
351.9200, 411.0376
352.4021, 416.8791
352.8842, 421.3298
353.3664, 425.2238
353.8485, 430.5191
354.3306, 437.9899
354.8127, 447.1589
355.2948, 457.7603
355.7769, 469.6661
356.2591, 481.6946
356.7412, 492.2599
357.2233, 502.7703
357.7054, 515.2280
358.1875, 530.9128
358.6696, 546.9975
359.1518, 561.2377
359.6339, 574.2277
360.1160, 587.2620
360.5981, 599.4185
361.0802, 612.8710
361.5623, 629.6337
362.0445, 650.6810
362.5266, 671.6830
363.0087, 688.9470
363.4908, 705.4762
363.9729, 725.0050
364.4550, 749.9406
364.9372, 776.7797
365.4193, 804.2675
365.9014, 832.3331
366.3835, 862.1180
366.8656, 894.5112
367.3477, 928.2187
367.8299, 962.9424
368.3120, 999.0720
368.7941, 1035.693
369.2762, 1075.370
369.7583, 1116.261
370.2404, 1150.548
370.7226, 1177.928
371.2047, 1198.602
371.6868, 1213.007
372.1689, 1222.254
372.6510, 1222.705
373.1331, 1214.056
373.6153, 1196.879
374.0974, 1171.434
374.5795, 1135.949
375.0616, 1096.107
375.5437, 1052.836
376.0258, 1006.239
376.5080, 960.1871
376.9901, 913.8488
377.4722, 869.4264
377.9543, 828.2247
378.4364, 790.6365
378.9185, 755.8658
379.4007, 724.8591
379.8828, 696.6233
380.3649, 668.9044
380.8470, 641.8665
381.3291, 615.9245
381.8112, 590.7637
382.2934, 566.6248
382.7755, 547.8121
383.2576, 535.7082
383.7397, 525.8239
384.2218, 510.8624
384.7039, 491.8322
385.1861, 475.0715
385.6682, 464.5713
386.1503, 457.9248
386.6324, 450.3989
387.1145, 442.0464
387.5966, 433.6971
388.0788, 425.5080
388.5609, 417.8457
389.0430, 411.3329
389.5251, 406.2314
390.0072, 402.1429
390.4893, 398.8830
390.9715, 396.3911
391.4536, 394.2617
391.9357, 392.5376
392.4178, 390.9647
392.8999, 389.2280
393.3820, 387.0493
393.8642, 385.4100
394.3463, 384.8628
394.8284, 385.1447
395.3105, 385.8486
395.7926, 387.0716
396.2747, 388.4931
396.7569, 390.0587
397.2390, 391.7726
397.7211, 393.3894
398.2032, 394.4482
398.6853, 395.6354
399.1674, 397.4395
399.6496, 400.5144
400.1317, 403.4798
400.6138, 405.8210
401.0959, 407.9111
401.5780, 411.1077
402.0602, 416.1996
402.5423, 421.4824
403.0244, 426.3209
403.5065, 430.7893
403.9886, 434.5912
404.4707, 437.4844
404.9529, 439.9430
405.4350, 442.5730
405.9171, 445.3877
406.3992, 448.4753
406.8813, 452.4560
407.3634, 456.8579
407.8456, 458.3549
408.3277, 456.5834
408.8098, 453.4224
409.2919, 450.6973
409.7740, 448.2767
410.2561, 443.7245
410.7383, 436.1652
411.2204, 427.3686
411.7025, 420.3803
412.1846, 414.9284
412.6667, 408.7110
413.1488, 400.5617
413.6310, 390.8390
414.1131, 379.8942
414.5952, 367.7130
415.0773, 355.6439
415.5594, 345.0555
416.0415, 335.3521
416.5237, 325.1194
417.0058, 312.9289
417.4879, 301.2803
417.9700, 292.9388
418.4521, 287.2353
418.9342, 281.2975
419.4164, 272.5735
419.8985, 263.6435
420.3806, 256.8452
420.8627, 253.1647
421.3448, 249.3314
421.8269, 243.1812
422.3091, 236.3003
422.7912, 230.8736
423.2733, 228.9326
423.7554, 227.0477
424.2375, 224.0732
424.7196, 219.9814
425.2018, 216.2052
425.6839, 212.8582
426.1660, 209.9194
426.6481, 207.3705
427.1302, 205.6944
427.6123, 203.7080
428.0945, 201.2070
428.5766, 198.4223
429.0587, 195.7772
429.5408, 193.0387
430.0229, 190.9649
430.5050, 190.1343
430.9872, 190.6286
431.4693, 189.9841
431.9514, 187.7554
432.4335, 185.4405
432.9156, 184.9423
433.3977, 186.3149
433.8799, 186.7875
434.3620, 185.4640
434.8441, 183.2948
435.3262, 182.3615
435.8083, 182.6332
436.2904, 183.5186
436.7726, 185.2665
437.2547, 187.2928
437.7368, 188.0159
438.2189, 187.1940
438.7010, 186.0863
439.1831, 185.9761
439.6652, 186.4567
440.1473, 186.7337
440.6295, 186.1335
441.1116, 185.5327
441.5937, 185.6717
442.0758, 186.4651
442.5579, 187.4599
443.0400, 188.7756
443.5222, 189.9901
444.0043, 190.8347
444.4864, 191.3205
444.9685, 191.2556
445.4506, 189.8719
445.9327, 188.0706
446.4149, 187.1440
446.8970, 188.3389
447.3791, 189.4261
447.8612, 190.0088
448.3433, 190.0701
448.8254, 189.3319
449.3076, 186.7510
449.7897, 184.3599
450.2718, 183.4746
450.7539, 185.0721
451.2360, 186.0307
451.7181, 186.3208
452.2003, 185.8788
452.6824, 184.3847
453.1645, 181.5279
453.6466, 178.7805
454.1287, 176.5207
454.6108, 174.7712
455.0930, 174.1987
455.5751, 174.9445
456.0572, 175.8970
456.5393, 175.7309
457.0214, 174.7522
457.5035, 174.7596
457.9857, 176.4314
458.4678, 178.4238
458.9499, 178.6072
459.4320, 177.3850
459.9141, 176.2217
460.3962, 176.3050
460.8784, 176.6613
461.3605, 175.7652
461.8426, 173.5530
462.3247, 172.0988
462.8068, 173.4599
463.2889, 175.9595
463.7711, 177.8397
464.2532, 178.5652
464.7353, 178.6789
465.2174, 178.0568
465.6995, 176.9665
466.1816, 176.0280
466.6638, 175.0855
467.1459, 174.6229
467.6280, 174.9153
468.1101, 176.1370
468.5922, 177.3712
469.0743, 179.2109
469.5565, 180.6116
470.0386, 180.4783
470.5207, 177.2944
471.0028, 175.8625
471.4849, 177.5714
471.9670, 180.9600
472.4492, 181.4121
472.9313, 177.9019
473.4134, 174.9834
473.8955, 174.9891
474.3776, 177.7695
474.8597, 180.0100
475.3419, 181.6948
475.8240, 182.9975
476.3061, 184.1499
476.7882, 185.0929
477.2703, 185.4448
477.7524, 184.8256
478.2346, 184.0799
478.7167, 184.5493
479.1988, 185.9571
479.6809, 187.2735
480.1630, 187.5876
480.6451, 187.7173
481.1273, 188.4919
481.6094, 189.9857
482.0915, 191.7663
482.5736, 193.6441
483.0557, 195.6676
483.5378, 197.9353
484.0200, 201.3809
484.5021, 203.9548
484.9842, 204.4061
485.4663, 203.5129
485.9484, 203.3645
486.4305, 204.5065
486.9127, 206.2126
487.3948, 208.4875
487.8769, 211.4938
488.3590, 213.7688
488.8411, 215.1423
489.3232, 215.9764
489.8054, 216.4550
490.2875, 216.3886
490.7696, 216.7280
491.2517, 217.7805
491.7338, 219.0984
492.2159, 219.2326
492.6981, 218.0291
493.1802, 217.8393
493.6623, 220.4724
494.1444, 225.0477
494.6265, 228.0750
495.1086, 229.5923
495.5908, 229.8728
496.0729, 227.8880
496.5550, 225.0040
497.0371, 224.3689
497.5192, 227.4729
498.0013, 230.8608
498.4835, 231.3159
498.9656, 229.7858
499.4477, 228.2215
499.9298, 227.6708
500.4119, 227.1559
500.8940, 225.7729
501.3762, 223.5580
501.8583, 222.3262
502.3404, 223.4270
502.8225, 225.0963
503.3046, 226.2937
503.7867, 227.3904
504.2689, 227.2025
504.7510, 224.5817
505.2331, 221.1754
505.7152, 219.5418
506.1973, 220.7976
506.6794, 221.6272
507.1616, 221.2445
507.6437, 219.7765
508.1258, 218.0792
508.6079, 216.0909
509.0900, 214.1109
509.5721, 212.2514
510.0543, 210.5328
510.5364, 209.2796
511.0185, 208.5973
511.5006, 207.9951
511.9827, 206.7703
512.4648, 205.1176
512.9470, 203.6807
513.4291, 202.9737
513.9112, 202.2439
514.3933, 200.6457
514.8754, 198.2964
515.3575, 195.6260
515.8397, 192.3206
516.3218, 189.1591
516.8039, 186.9751
517.2860, 186.0639
517.7681, 184.5311
518.2502, 180.7703
518.7324, 176.5754
519.2145, 173.5511
519.6966, 172.8694
520.1787, 172.2333
520.6608, 171.4772
521.1429, 170.6264
521.6251, 169.7678
522.1072, 169.0523
522.5893, 168.0287
523.0714, 166.3876
523.5535, 164.1387
524.0356, 162.5965
524.5178, 161.9139
524.9999, 161.3902
525.4820, 160.3860
525.9641, 158.9728
526.4462, 157.6663
526.9283, 156.5198
527.4105, 155.5259
527.8926, 154.4560
528.3747, 153.4723
528.8568, 153.1377
529.3389, 154.5498
529.8210, 156.0890
530.3032, 155.6983
530.7853, 153.7544
531.2674, 152.1340
531.7495, 152.6664
532.2316, 153.3723
532.7137, 152.5139
533.1959, 149.2279
533.6780, 146.9178
534.1601, 147.0585
534.6422, 148.2978
535.1243, 149.2518
535.6064, 149.9556
536.0886, 150.1351
536.5707, 149.3429
537.0528, 148.0518
537.5349, 147.9068
538.0170, 149.5441
538.4991, 150.7239
538.9813, 150.3732
539.4634, 148.5913
539.9455, 147.4796
540.4276, 147.1797
540.9097, 146.7762
541.3918, 144.9798
541.8740, 142.2974
542.3561, 140.8784
542.8382, 141.2632
543.3203, 142.3000
543.8024, 142.9977
544.2845, 143.3194
544.7667, 143.1638
545.2488, 141.8707
545.7309, 140.5974
546.2130, 140.5200
546.6951, 141.3076
547.1772, 141.4207
547.6594, 139.0777
548.1415, 136.8040
548.6236, 136.1287
549.1057, 137.7423
549.5878, 138.9890
550.0699, 139.2481
550.5521, 139.3427
551.0342, 140.1086
551.5163, 142.5163
551.9984, 143.3335
552.4805, 141.5302
552.9626, 138.4832
553.4448, 137.5806
553.9269, 139.1035
554.4090, 140.5600
554.8911, 140.8093
555.3732, 140.2761
555.8553, 140.5987
556.3375, 141.7605
556.8196, 142.9566
557.3017, 143.7739
557.7838, 144.1444
558.2659, 143.7617
558.7480, 142.4500
559.2302, 141.2301
559.7123, 140.8569
560.1944, 141.0401
560.6765, 141.3964
561.1586, 141.8790
561.6407, 142.4354
562.1229, 143.1844
562.6050, 144.0052
563.0871, 144.5671
563.5692, 144.6903
564.0513, 144.6828
564.5334, 144.6050
565.0156, 144.4556
565.4977, 144.3156
565.9798, 144.2018
566.4619, 144.0715
566.9440, 143.8689
567.4261, 143.5849
567.9083, 143.4034
568.3904, 143.3487
568.8725, 143.3676
569.3546, 143.3626
569.8367, 143.3599
570.3188, 143.5034
570.8010, 143.9632
571.2831, 144.4250
571.7652, 144.0097
572.2473, 143.1451
572.7294, 143.2914
573.2115, 146.8364
573.6937, 150.3895
574.1758, 151.3378
574.6579, 149.4600
575.1400, 147.8106
575.6221, 147.4009
576.1042, 147.4678
576.5864, 147.4592
577.0685, 146.7296
577.5506, 147.1214
578.0327, 149.5587
578.5148, 152.4515
578.9969, 153.6179
579.4791, 152.6562
579.9612, 151.3193
580.4433, 149.6728
580.9254, 148.1154
581.4075, 147.9714
581.8896, 149.2260
582.3718, 150.4224
582.8539, 150.5595
583.3360, 150.1545
583.8181, 150.3826
584.3002, 151.2213
584.7823, 152.0159
