##NAMES=Elbaite
##RRUFFID=R070564
##IDEAL CHEMISTRY=Na(Al_1.5_Li_1.5_)Al_6_(Si_6_O_18_)(BO_3_)_3_(OH)_3_OH
##LOCALITY=unknown
##OWNER=RRUFF
##SOURCE=Gemological Institute of America
##DESCRIPTION=Green outer portion of a zoned watermelon tourmaline slice, see also R060566 (pink) and R070563 (white)
##STATUS=The identification of this mineral is confirmed by single-crystal X-ray diffraction and chemical analysis.
##URL=rruff.info/R070564
##MEASURED CHEMISTRY=(Na_0.77_[box]_0.19_Ca_0.04_)_Σ=1_(Al_1.69_Li_0.66_Fe^2+^_0.49_Mn_0.12_Mg_0.03_Ti_0.01_)_Σ=3_Al_6.00_(BO_3_)_3_Si_6.00_O_18_((OH)_3.10_F_0.90_)_Σ=4_; H_2_O from stoichiometry after deduction of F; B_2_O_3_ by difference; Li by charge balance
181.7551, 17727.90
182.2372, 17802.28
182.7193, 17894.97
183.2014, 17958.29
183.6835, 17993.55
184.1656, 18010.09
184.6478, 18006.46
185.1299, 17987.02
185.6120, 17970.92
186.0941, 17959.87
186.5762, 17955.05
187.0583, 17968.89
187.5405, 18002.84
188.0226, 18022.26
188.5047, 17979.26
188.9868, 17882.51
189.4689, 17815.22
189.9510, 17796.84
190.4332, 17821.52
190.9153, 17884.88
191.3974, 17995.17
191.8795, 18100.80
192.3616, 18140.39
192.8437, 18113.90
193.3259, 18083.69
193.8080, 18057.62
194.2901, 18039.99
194.7722, 18073.20
195.2543, 18168.73
195.7364, 18284.07
196.2186, 18364.45
196.7007, 18407.69
197.1828, 18436.38
197.6649, 18445.56
198.1470, 18433.87
198.6291, 18471.92
199.1112, 18572.74
199.5934, 18703.06
200.0755, 18805.17
200.5576, 18875.12
201.0397, 18935.88
201.5218, 19002.85
202.0039, 19080.09
202.4861, 19120.10
202.9682, 19098.81
203.4503, 19057.21
203.9324, 19108.86
204.4145, 19279.63
204.8966, 19463.07
205.3788, 19590.29
205.8609, 19644.24
206.3430, 19726.54
206.8251, 19854.78
207.3072, 20015.39
207.7893, 20155.36
208.2715, 20267.39
208.7536, 20372.53
209.2357, 20484.76
209.7178, 20603.85
210.1999, 20727.80
210.6820, 20855.55
211.1642, 20987.24
211.6463, 21134.62
212.1284, 21306.06
212.6105, 21480.54
213.0926, 21634.25
213.5747, 21757.16
214.0569, 21891.84
214.5390, 22051.21
215.0211, 22233.37
215.5032, 22409.22
215.9853, 22581.16
216.4674, 22743.44
216.9496, 22892.35
217.4317, 23028.62
217.9138, 23150.33
218.3959, 23259.37
218.8780, 23354.96
219.3601, 23434.34
219.8423, 23492.60
220.3244, 23539.11
220.8065, 23596.07
221.2886, 23696.70
221.7707, 23740.38
222.2528, 23685.30
222.7349, 23505.99
223.2171, 23348.79
223.6992, 23224.17
224.1813, 23114.15
224.6634, 22980.98
225.1455, 22803.51
225.6276, 22641.27
226.1098, 22528.32
226.5919, 22497.27
227.0740, 22408.49
227.5561, 22231.37
228.0382, 22008.63
228.5203, 21840.87
229.0025, 21750.73
229.4846, 21680.33
229.9667, 21609.66
230.4488, 21544.23
230.9309, 21462.39
231.4130, 21346.71
231.8952, 21216.30
232.3773, 21130.98
232.8594, 21110.88
233.3415, 21106.61
233.8236, 21092.55
234.3057, 21057.92
234.7879, 21038.30
235.2700, 21043.85
235.7521, 21066.18
236.2342, 21070.46
236.7163, 21055.68
237.1984, 21024.45
237.6806, 20971.69
238.1627, 20868.31
238.6448, 20807.67
239.1269, 20813.02
239.6090, 20872.82
240.0911, 20912.57
240.5733, 20931.57
241.0554, 20931.45
241.5375, 20910.25
242.0196, 20854.62
242.5017, 20806.63
242.9838, 20778.83
243.4660, 20767.46
243.9481, 20723.04
244.4302, 20611.78
244.9123, 20506.05
245.3944, 20472.77
245.8765, 20577.04
246.3586, 20622.27
246.8408, 20556.36
247.3229, 20386.01
247.8050, 20285.24
248.2871, 20300.25
248.7692, 20333.25
249.2513, 20287.12
249.7335, 20099.02
250.2156, 19963.85
250.6977, 19930.39
251.1798, 20000.01
251.6619, 20037.25
252.1440, 20030.98
252.6262, 20004.27
253.1083, 19981.10
253.5904, 19970.86
254.0725, 19942.62
254.5546, 19879.03
255.0367, 19776.22
255.5189, 19724.26
256.0010, 19756.04
256.4831, 19801.13
256.9652, 19772.58
257.4473, 19630.82
257.9294, 19506.85
258.4116, 19439.69
258.8937, 19432.33
259.3758, 19411.98
259.8579, 19367.75
260.3400, 19322.95
260.8221, 19306.79
261.3043, 19326.55
261.7864, 19357.58
262.2685, 19402.33
262.7506, 19464.97
263.2327, 19482.67
263.7148, 19438.98
264.1970, 19371.74
264.6791, 19330.42
265.1612, 19322.25
265.6433, 19319.89
266.1254, 19311.01
266.6075, 19293.53
267.0897, 19312.52
267.5718, 19390.86
268.0539, 19474.22
268.5360, 19468.96
269.0181, 19345.72
269.5002, 19240.94
269.9824, 19207.97
270.4645, 19251.23
270.9466, 19286.75
271.4287, 19315.43
271.9108, 19334.68
272.3929, 19341.03
272.8751, 19334.06
273.3572, 19315.40
273.8393, 19285.91
274.3214, 19245.42
274.8035, 19184.22
275.2856, 19089.22
275.7678, 18998.02
276.2499, 18985.77
276.7320, 19066.92
277.2141, 19126.86
277.6962, 19111.63
278.1783, 19021.80
278.6604, 18942.10
279.1425, 18873.06
279.6247, 18812.12
280.1068, 18754.49
280.5889, 18699.88
281.0710, 18654.44
281.5531, 18620.83
282.0352, 18598.93
282.5174, 18590.29
282.9995, 18599.39
283.4816, 18609.75
283.9637, 18595.80
284.4458, 18557.70
284.9279, 18515.27
285.4101, 18466.25
285.8922, 18415.93
286.3743, 18409.05
286.8564, 18457.07
287.3385, 18511.70
287.8206, 18498.13
288.3028, 18421.95
288.7849, 18344.80
289.2670, 18295.26
289.7491, 18267.80
290.2312, 18242.13
290.7133, 18217.75
291.1955, 18195.71
291.6776, 18178.47
292.1597, 18165.12
292.6418, 18150.91
293.1239, 18122.33
293.6060, 18091.39
294.0882, 18096.43
294.5703, 18143.75
295.0524, 18197.51
295.5345, 18212.13
296.0166, 18197.09
296.4987, 18186.18
296.9809, 18198.28
297.4630, 18224.46
297.9451, 18256.15
298.4272, 18295.88
298.9093, 18318.59
299.3914, 18272.68
299.8736, 18185.84
300.3557, 18131.90
300.8378, 18181.53
301.3199, 18267.43
301.8020, 18288.99
302.2841, 18235.26
302.7663, 18192.05
303.2484, 18252.95
303.7305, 18377.56
304.2126, 18484.93
304.6947, 18535.55
305.1768, 18554.26
305.6590, 18555.71
306.1411, 18539.11
306.6232, 18528.21
307.1053, 18539.85
307.5874, 18568.08
308.0695, 18603.63
308.5517, 18664.56
309.0338, 18716.21
309.5159, 18718.16
309.9980, 18666.94
310.4801, 18634.90
310.9622, 18682.78
311.4444, 18768.95
311.9265, 18841.12
312.4086, 18877.32
312.8907, 18897.10
313.3728, 18901.43
313.8549, 18890.23
314.3371, 18892.96
314.8192, 18937.13
315.3013, 18995.88
315.7834, 19041.53
316.2655, 19056.02
316.7477, 19064.72
317.2298, 19080.33
317.7119, 19102.87
318.1940, 19112.43
318.6761, 19067.88
319.1582, 19024.99
319.6404, 19030.43
320.1225, 19154.52
320.6046, 19266.25
321.0867, 19327.36
321.5688, 19339.85
322.0509, 19359.44
322.5330, 19401.91
323.0151, 19450.75
323.4973, 19494.65
323.9794, 19530.22
324.4615, 19563.42
324.9436, 19595.07
325.4257, 19624.92
325.9078, 19651.27
326.3900, 19665.79
326.8721, 19681.88
327.3542, 19707.42
327.8363, 19750.60
328.3184, 19791.49
328.8005, 19829.44
329.2827, 19863.95
329.7648, 19894.19
330.2469, 19918.23
330.7290, 19940.53
331.2111, 19963.79
331.6932, 19992.18
332.1754, 20013.38
332.6575, 20022.47
333.1396, 20024.70
333.6217, 20039.06
334.1038, 20071.04
334.5859, 20105.79
335.0681, 20134.70
335.5502, 20155.54
336.0323, 20179.57
336.5144, 20208.57
336.9965, 20239.71
337.4786, 20268.83
337.9608, 20296.97
338.4429, 20316.79
338.9250, 20320.43
339.4071, 20306.30
339.8892, 20300.91
340.3713, 20308.91
340.8535, 20319.82
341.3356, 20306.47
341.8177, 20266.35
342.2998, 20244.63
342.7819, 20272.20
343.2640, 20342.08
343.7462, 20406.72
344.2283, 20467.58
344.7104, 20518.26
345.1925, 20548.21
345.6746, 20559.45
346.1567, 20563.45
346.6389, 20568.70
347.1210, 20570.50
347.6031, 20544.40
348.0852, 20485.71
348.5673, 20443.83
349.0494, 20487.55
349.5316, 20591.43
350.0137, 20687.47
350.4958, 20731.55
350.9779, 20758.00
351.4600, 20818.74
351.9421, 20912.76
352.4243, 21005.33
352.9064, 21044.88
353.3885, 21068.08
353.8706, 21133.39
354.3527, 21304.69
354.8348, 21489.62
355.3170, 21612.92
355.7991, 21680.65
356.2812, 21752.76
356.7633, 21874.62
357.2454, 22013.49
357.7275, 22136.01
358.2097, 22207.53
358.6918, 22290.47
359.1739, 22416.28
359.6560, 22578.82
360.1381, 22750.63
360.6202, 22943.02
361.1024, 23127.69
361.5845, 23284.39
362.0666, 23384.74
362.5487, 23494.32
363.0308, 23618.83
363.5129, 23762.31
363.9951, 23935.64
364.4772, 24170.80
364.9593, 24410.35
365.4414, 24630.52
365.9235, 24823.50
366.4056, 25009.64
366.8878, 25189.88
367.3698, 25362.27
367.8520, 25526.09
368.3341, 25695.45
368.8162, 25839.25
369.2983, 25935.17
369.7804, 25953.28
370.2625, 26044.31
370.7447, 26273.32
371.2268, 26526.12
371.7089, 26654.40
372.1910, 26619.90
372.6731, 26546.98
373.1552, 26468.93
373.6374, 26385.28
374.1195, 26264.21
374.6016, 26103.58
375.0837, 25906.96
375.5658, 25672.59
376.0479, 25394.99
376.5301, 25106.98
377.0122, 24808.76
377.4943, 24503.83
377.9764, 24210.11
378.4585, 23923.23
378.9406, 23658.69
379.4228, 23445.83
379.9049, 23275.23
380.3870, 23073.57
380.8691, 22816.75
381.3512, 22539.41
381.8333, 22291.97
382.3155, 22076.35
382.7976, 21887.61
383.2797, 21732.89
383.7618, 21605.46
384.2439, 21496.13
384.7260, 21410.75
385.2082, 21326.49
385.6903, 21210.72
386.1724, 21075.94
386.6545, 20957.17
387.1366, 20873.22
387.6187, 20769.65
388.1009, 20783.31
388.5830, 20777.70
389.0651, 20753.92
389.5472, 20652.44
390.0293, 20655.23
390.5114, 20618.65
390.9936, 20582.10
391.4757, 20604.49
391.9578, 20523.16
392.4399, 20548.09
392.9220, 20533.01
393.4041, 20538.75
393.8863, 20504.85
394.3684, 20485.44
394.8505, 20509.13
395.3326, 20511.63
395.8147, 20479.85
396.2968, 20497.12
396.7790, 20431.55
397.2611, 20441.91
397.7432, 20486.00
398.2253, 20464.90
398.7074, 20491.54
399.1895, 20502.36
399.6717, 20435.28
400.1538, 20508.41
400.6359, 20523.36
401.1180, 20478.54
401.6001, 20502.12
402.0822, 20491.92
402.5644, 20474.44
403.0465, 20441.15
403.5286, 20382.42
404.0107, 20321.46
404.4928, 20304.52
404.9749, 20340.62
405.4571, 20367.29
405.9392, 20355.98
406.4213, 20312.05
406.9034, 20279.49
407.3855, 20259.25
407.8676, 20246.83
408.3498, 20248.26
408.8319, 20257.83
409.3140, 20240.39
409.7961, 20164.91
410.2782, 20069.37
410.7603, 20041.48
411.2425, 20075.41
411.7246, 20093.08
412.2067, 20026.12
412.6888, 19904.01
413.1709, 19772.96
413.6530, 19626.99
414.1351, 19502.83
414.6172, 19456.43
415.0994, 19463.14
415.5815, 19444.13
416.0636, 19322.76
416.5457, 19182.62
417.0278, 19090.07
417.5099, 19068.54
417.9921, 19049.66
418.4742, 19005.06
418.9563, 18944.86
419.4384, 18884.11
419.9205, 18813.20
420.4026, 18754.97
420.8848, 18730.58
421.3669, 18748.64
421.8490, 18729.93
422.3311, 18614.21
422.8132, 18484.91
423.2953, 18413.77
423.7775, 18464.83
424.2596, 18486.70
424.7417, 18444.25
425.2238, 18350.98
425.7059, 18304.26
426.1880, 18323.79
426.6702, 18361.65
427.1523, 18393.74
427.6344, 18423.06
428.1165, 18433.31
428.5986, 18418.55
429.0807, 18389.58
429.5629, 18368.73
430.0450, 18357.37
430.5271, 18345.30
431.0092, 18321.44
431.4913, 18289.52
431.9734, 18285.16
432.4556, 18313.48
432.9377, 18345.42
433.4198, 18344.62
433.9019, 18317.04
434.3840, 18287.61
434.8661, 18263.56
435.3483, 18244.13
435.8304, 18224.83
436.3125, 18206.58
436.7946, 18200.82
437.2767, 18214.32
437.7589, 18245.59
438.2410, 18298.87
438.7231, 18402.99
439.2052, 18482.32
439.6873, 18469.22
440.1694, 18390.53
440.6516, 18319.86
441.1337, 18295.46
441.6158, 18283.59
442.0979, 18261.09
442.5800, 18213.73
443.0621, 18194.42
443.5443, 18241.34
444.0264, 18315.55
444.5085, 18364.38
444.9906, 18377.83
445.4727, 18370.52
445.9548, 18333.48
446.4370, 18264.68
446.9191, 18228.92
447.4012, 18242.41
447.8833, 18271.17
448.3654, 18291.38
448.8475, 18303.58
449.3297, 18304.89
449.8118, 18291.59
450.2939, 18268.58
450.7760, 18250.00
451.2581, 18235.44
451.7402, 18227.07
452.2224, 18237.79
452.7045, 18263.49
453.1866, 18243.53
453.6687, 18165.12
454.1508, 18076.79
454.6329, 18048.27
455.1151, 18069.63
455.5972, 18093.96
456.0793, 18110.19
456.5614, 18114.02
457.0435, 18089.15
457.5256, 18037.42
458.0077, 17993.64
458.4898, 17991.46
458.9720, 18010.79
459.4541, 18029.34
459.9362, 17992.56
460.4183, 18039.08
460.9004, 18064.59
461.3825, 18070.23
461.8647, 17996.43
462.3468, 18025.20
462.8289, 18012.87
463.3110, 17998.85
463.7931, 18042.05
464.2752, 17979.81
464.7574, 18018.58
465.2395, 17998.47
465.7216, 17989.16
466.2037, 18002.31
466.6858, 18010.60
467.1679, 18002.13
467.6501, 17978.26
468.1322, 17984.42
468.6143, 18035.07
469.0964, 18092.13
469.5785, 18132.61
470.0606, 18157.66
470.5428, 18153.93
471.0249, 18109.55
471.5070, 18048.48
471.9891, 18026.61
472.4712, 18044.87
472.9533, 18065.54
473.4355, 18061.22
473.9176, 18043.20
474.3997, 18053.89
474.8818, 18097.05
475.3639, 18145.27
475.8460, 18176.15
476.3282, 18191.46
476.8103, 18194.35
477.2924, 18176.63
477.7745, 18155.40
478.2566, 18144.57
478.7387, 18143.37
479.2209, 18148.38
479.7030, 18168.69
480.1851, 18187.84
480.6672, 18188.91
481.1493, 18147.56
481.6314, 18133.57
482.1136, 18207.86
482.5957, 18315.85
483.0778, 18362.24
483.5599, 18241.60
484.0420, 18152.29
484.5241, 18154.85
485.0063, 18259.88
485.4884, 18342.87
485.9705, 18417.61
486.4526, 18454.84
486.9347, 18415.28
487.4168, 18258.59
487.8990, 18166.54
488.3811, 18176.59
488.8632, 18254.98
489.3453, 18317.06
489.8274, 18363.77
490.3095, 18390.84
490.7917, 18386.67
491.2738, 18358.90
491.7559, 18345.45
492.2380, 18350.36
492.7201, 18353.57
493.2022, 18317.95
493.6844, 18262.80
494.1665, 18237.25
494.6486, 18285.39
495.1307, 18349.03
495.6128, 18365.81
496.0949, 18344.52
496.5771, 18333.46
497.0592, 18383.13
497.5413, 18439.10
498.0234, 18450.72
498.5055, 18374.82
498.9876, 18331.92
499.4698, 18399.29
499.9519, 18512.04
500.4340, 18563.33
500.9161, 18473.43
501.3982, 18388.76
501.8803, 18339.05
502.3624, 18324.93
502.8445, 18335.75
503.3267, 18385.76
503.8088, 18442.30
504.2909, 18486.70
504.7730, 18525.78
505.2551, 18521.31
505.7372, 18458.13
506.2194, 18362.17
506.7015, 18283.17
507.1836, 18221.47
507.6657, 18174.76
508.1478, 18139.18
508.6299, 18118.16
509.1121, 18131.73
509.5942, 18183.06
510.0763, 18231.54
510.5584, 18233.81
511.0405, 18208.66
511.5226, 18190.57
512.0048, 18205.54
512.4869, 18211.71
512.9690, 18162.88
513.4511, 18076.25
513.9332, 18010.61
514.4153, 18017.90
514.8975, 18031.60
515.3796, 18009.76
515.8617, 17930.91
516.3438, 17873.91
516.8259, 17866.56
517.3080, 17880.83
517.7902, 17885.51
518.2723, 17886.02
518.7544, 17866.58
519.2365, 17812.32
519.7186, 17732.78
520.2007, 17692.11
520.6829, 17702.38
521.1650, 17720.87
521.6471, 17721.83
522.1292, 17705.04
522.6113, 17692.22
523.0934, 17685.98
523.5756, 17679.55
524.0577, 17658.98
524.5398, 17628.52
525.0219, 17607.33
525.5040, 17603.29
525.9861, 17612.79
526.4683, 17639.65
526.9504, 17680.82
527.4325, 17711.05
527.9146, 17716.94
528.3967, 17703.08
528.8788, 17665.24
529.3610, 17578.23
529.8431, 17527.68
530.3252, 17581.35
530.8073, 17683.64
531.2894, 17748.21
531.7715, 17720.84
532.2537, 17691.16
532.7358, 17679.80
533.2179, 17686.42
533.7000, 17697.36
534.1821, 17720.71
534.6642, 17738.03
535.1464, 17740.19
535.6285, 17729.67
536.1106, 17686.10
536.5927, 17590.67
537.0748, 17488.03
537.5569, 17469.16
538.0391, 17532.29
538.5212, 17586.30
539.0033, 17585.78
539.4854, 17554.18
539.9675, 17549.29
540.4496, 17569.75
540.9318, 17578.41
541.4139, 17515.61
541.8960, 17435.28
542.3781, 17417.93
542.8602, 17513.77
543.3423, 17594.48
543.8245, 17555.14
544.3066, 17454.40
544.7887, 17398.54
545.2708, 17492.62
545.7529, 17568.18
546.2350, 17552.25
546.7172, 17435.39
547.1993, 17354.37
547.6814, 17321.45
548.1635, 17315.39
548.6456, 17326.75
549.1277, 17366.23
549.6099, 17394.75
550.0920, 17412.99
550.5741, 17417.05
551.0562, 17382.96
551.5383, 17305.24
552.0204, 17270.70
552.5026, 17341.60
552.9847, 17474.57
553.4668, 17530.24
553.9489, 17511.38
554.4310, 17472.05
554.9131, 17442.88
555.3953, 17424.25
555.8774, 17418.42
556.3595, 17429.21
556.8416, 17443.52
557.3237, 17458.79
557.8058, 17470.48
558.2880, 17470.74
558.7701, 17434.23
559.2522, 17407.91
559.7343, 17411.51
560.2164, 17445.54
560.6985, 17482.24
561.1807, 17549.39
561.6628, 17590.23
562.1449, 17564.74
562.6270, 17425.16
563.1091, 17349.62
563.5912, 17362.82
564.0734, 17412.38
564.5555, 17412.45
565.0376, 17359.24
565.5197, 17313.25
566.0018, 17291.27
566.4839, 17290.18
566.9661, 17313.91
567.4482, 17359.90
567.9303, 17389.89
568.4124, 17356.21
568.8945, 17298.22
569.3766, 17275.61
569.8587, 17305.75
570.3408, 17328.36
570.8229, 17295.30
571.3051, 17234.92
571.7872, 17183.91
572.2693, 17150.28
572.7514, 17131.62
573.2335, 17133.94
573.7156, 17154.17
574.1978, 17170.25
574.6799, 17186.36
575.1620, 17192.79
575.6441, 17180.46
576.1262, 17140.90
576.6083, 17125.19
577.0905, 17135.62
577.5726, 17165.65
578.0547, 17218.68
578.5368, 17293.76
579.0189, 17346.80
579.5010, 17368.85
579.9832, 17362.09
580.4653, 17311.71
580.9474, 17228.47
581.4295, 17164.29
581.9116, 17173.72
582.3937, 17202.38
582.8759, 17190.17
583.3580, 17131.80
583.8401, 17078.85
584.3222, 17044.61
584.8043, 17034.90
585.2864, 17054.74
585.7686, 17147.66
586.2507, 17216.66
586.7328, 17252.14
587.2149, 17256.82
587.6970, 17228.95
588.1791, 17139.32
588.6613, 17072.27
589.1434, 17062.10
589.6255, 17102.34
590.1076, 17100.47
590.5897, 17047.03
591.0718, 16997.88
591.5540, 17011.40
592.0361, 17071.08
592.5182, 17102.20
593.0003, 17092.76
593.4824, 17066.35
593.9645, 17040.28
594.4467, 17016.88
594.9288, 17000.89
595.4109, 16992.84
595.8930, 16993.98
596.3751, 17010.44
596.8572, 17038.92
597.3394, 17061.73
597.8215, 17092.64
598.3036, 17101.29
598.7857, 17063.14
599.2678, 16951.52
599.7499, 16881.77
600.2321, 16873.56
600.7142, 16888.33
601.1963, 16885.75
601.6784, 16860.56
602.1605, 16844.74
602.6426, 16845.75
603.1248, 16856.02
603.6069, 16852.92
604.0890, 16838.43
604.5711, 16840.44
605.0532, 16900.17
605.5353, 16973.94
606.0175, 16980.51
606.4996, 16921.03
606.9817, 16872.38
607.4638, 16912.93
607.9459, 16974.85
608.4280, 16992.12
608.9102, 16928.39
609.3923, 16867.90
609.8744, 16817.03
610.3565, 16787.19
610.8386, 16801.68
611.3207, 16923.50
611.8029, 16994.37
612.2850, 16964.87
612.7671, 16857.35
613.2492, 16808.90
613.7313, 16831.77
614.2134, 16865.78
614.6956, 16872.63
615.1777, 16857.78
615.6598, 16864.36
616.1419, 16895.47
616.6240, 16927.71
617.1061, 16939.71
617.5883, 16935.35
618.0704, 16919.77
618.5525, 16883.15
619.0346, 16854.21
619.5167, 16852.74
619.9988, 16873.41
620.4810, 16904.96
620.9631, 16978.48
621.4452, 17029.20
621.9273, 17015.15
622.4094, 16934.76
622.8915, 16909.30
623.3737, 16969.71
623.8558, 17045.35
624.3379, 17096.51
624.8200, 17120.46
625.3021, 17136.31
625.7842, 17142.47
626.2664, 17146.24
626.7485, 17158.95
627.2306, 17152.07
627.7127, 17203.17
628.1948, 17233.27
628.6769, 17243.49
629.1591, 17174.28
629.6412, 17207.63
630.1233, 17199.88
630.6054, 17190.45
631.0875, 17238.24
631.5696, 17180.58
632.0518, 17227.46
632.5339, 17232.62
633.0160, 17256.87
633.4981, 17239.76
633.9802, 17235.43
634.4623, 17272.47
634.9445, 17286.60
635.4266, 17264.73
635.9087, 17290.20
636.3908, 17231.09
636.8729, 17246.20
637.3550, 17293.32
637.8372, 17273.54
638.3193, 17299.76
638.8014, 17249.35
639.2835, 17227.95
639.7656, 17205.77
640.2477, 17183.73
640.7299, 17173.24
641.2120, 17198.84
641.6941, 17264.53
642.1762, 17299.66
642.6583, 17229.96
643.1404, 17146.77
643.6226, 17119.39
644.1047, 17233.52
644.5868, 17282.98
645.0689, 17230.87
645.5510, 17137.52
646.0331, 17096.61
646.5153, 17118.58
646.9974, 17149.58
647.4795, 17185.35
647.9616, 17215.08
648.4437, 17192.29
648.9258, 17122.85
649.4080, 17073.17
649.8901, 17112.65
650.3722, 17182.97
650.8543, 17196.95
651.3364, 17150.15
651.8185, 17109.79
652.3007, 17122.69
652.7828, 17154.04
653.2649, 17175.56
653.7470, 17187.43
654.2291, 17179.33
654.7112, 17119.18
655.1934, 17052.35
655.6755, 17043.59
656.1576, 17124.95
656.6397, 17180.87
657.1218, 17181.92
657.6039, 17146.50
658.0861, 17130.17
658.5682, 17133.07
659.0502, 17148.42
659.5323, 17197.24
660.0145, 17248.38
660.4966, 17235.33
660.9787, 17158.52
661.4608, 17068.37
661.9429, 16966.84
662.4250, 16886.67
662.9072, 16861.48
663.3893, 16919.45
663.8714, 16977.59
664.3535, 17021.09
664.8356, 17051.78
665.3177, 17074.80
665.7999, 17103.96
666.2820, 17093.28
666.7641, 17013.54
667.2462, 16903.82
667.7283, 16883.23
668.2104, 16958.52
668.6926, 17011.83
669.1747, 16967.80
669.6568, 16870.72
670.1389, 16831.65
670.6210, 16845.42
