##NAMES=Elbaite
##RRUFFID=R060560
##IDEAL CHEMISTRY=Na(Al_1.5_Li_1.5_)Al_6_(Si_6_O_18_)(BO_3_)_3_(OH)_3_OH
##LOCALITY=California, USA
##OWNER=RRUFF
##SOURCE=Gemological Institute of America
##DESCRIPTION=Pink fragment
##STATUS=The identification of this mineral has been confirmed by X-ray diffraction and chemical analysis
##URL=rruff.info/R060560
##MEASURED CHEMISTRY=(Na_0.56_Ca_0.12_[box]_0.32_)(Al_1.60_Li_1.40_)Al_6_(BO_3_)_3_[Si_6_O_18_](OH)_4_
92.20605, 78.31704
92.68817, 78.93296
93.17029, 79.74129
93.65240, 79.77181
94.13452, 79.52352
94.61664, 78.97374
95.09875, 78.20816
95.58087, 77.27433
96.06299, 76.04454
96.54510, 74.04478
97.02722, 72.45018
97.50933, 71.65801
97.99145, 71.35963
98.47356, 71.14711
98.95568, 70.70244
99.43780, 69.91708
99.91991, 69.18814
100.4020, 68.48137
100.8841, 67.85696
101.3663, 67.31856
101.8484, 66.86460
102.3305, 66.49519
102.8126, 66.17879
103.2947, 65.88200
103.7768, 65.97054
104.2590, 66.70638
104.7411, 67.69349
105.2232, 68.61281
105.7053, 69.45336
106.1874, 69.99555
106.6695, 69.71133
107.1517, 68.65942
107.6338, 67.77457
108.1159, 67.58298
108.5980, 67.95506
109.0801, 68.22364
109.5622, 68.14201
110.0444, 67.97187
110.5265, 67.94895
111.0086, 68.09492
111.4907, 68.25349
111.9728, 68.13711
112.4549, 67.52841
112.9371, 67.42010
113.4192, 68.29011
113.9013, 69.50678
114.3834, 70.74842
114.8655, 71.88418
115.3476, 72.81390
115.8298, 73.23338
116.3119, 72.53001
116.7940, 72.03798
117.2761, 71.86510
117.7582, 71.97873
118.2403, 72.38904
118.7225, 73.13603
119.2046, 74.16013
119.6867, 74.72484
120.1688, 74.31747
120.6509, 74.05901
121.1330, 74.47832
121.6152, 75.44849
122.0973, 76.44662
122.5794, 77.09639
123.0615, 77.35831
123.5436, 77.48421
124.0257, 77.40577
124.5079, 77.22971
124.9900, 77.00736
125.4721, 76.72195
125.9542, 76.51578
126.4363, 76.60245
126.9184, 76.88133
127.4006, 77.13725
127.8827, 77.24346
128.3648, 77.25919
128.8469, 77.35170
129.3290, 77.49641
129.8111, 77.79301
130.2932, 78.38744
130.7754, 79.19620
131.2575, 79.92936
131.7396, 80.37186
132.2217, 80.51447
132.7038, 80.45033
133.1859, 79.64176
133.6681, 79.03923
134.1502, 79.31372
134.6323, 80.40408
135.1144, 81.57862
135.5965, 81.80885
136.0786, 80.41664
136.5608, 79.41038
137.0429, 78.87457
137.5250, 78.59142
138.0071, 78.46045
138.4892, 78.43446
138.9713, 78.45108
139.4535, 78.38069
139.9356, 78.11157
140.4177, 77.90675
140.8998, 77.82174
141.3819, 77.79895
141.8640, 77.70263
142.3462, 77.43005
142.8283, 77.16237
143.3104, 77.49030
143.7925, 78.83492
144.2746, 79.92811
144.7567, 80.00054
145.2388, 79.28748
145.7210, 78.79197
146.2031, 79.02631
146.6852, 79.79134
147.1673, 80.62341
147.6494, 81.63294
148.1315, 82.51796
148.6137, 83.02040
149.0958, 83.13203
149.5779, 82.91514
150.0600, 81.93401
150.5421, 80.78799
151.0242, 80.10658
151.5064, 80.23228
151.9885, 80.75319
152.4706, 80.82201
152.9527, 80.23701
153.4348, 79.54423
153.9169, 79.02219
154.3991, 78.49262
154.8812, 77.66935
155.3633, 76.32058
155.8454, 74.59611
156.3275, 73.43806
156.8096, 73.58237
157.2918, 73.57373
157.7739, 72.98351
158.2560, 72.03360
158.7381, 71.14529
159.2202, 70.63883
159.7023, 70.52631
160.1845, 70.34480
160.6666, 70.12487
161.1487, 69.82053
161.6308, 69.34222
162.1129, 68.74156
162.5950, 68.17107
163.0772, 67.76291
163.5593, 67.53531
164.0414, 67.40745
164.5235, 67.40738
165.0056, 67.47536
165.4877, 67.58026
165.9698, 67.71739
166.4520, 67.88958
166.9341, 68.14385
167.4162, 68.47613
167.8983, 68.64119
168.3804, 68.34056
168.8625, 67.96774
169.3447, 68.13140
169.8268, 69.04067
170.3089, 69.96985
170.7910, 69.96732
171.2731, 69.28912
171.7552, 68.87027
172.2374, 69.35437
172.7195, 70.39301
173.2016, 70.96341
173.6837, 70.74239
174.1658, 70.33906
174.6479, 70.18113
175.1301, 70.23096
175.6122, 70.34716
176.0943, 70.38757
176.5764, 70.36272
177.0585, 70.56178
177.5406, 71.42666
178.0228, 72.11782
178.5049, 72.12661
178.9870, 71.54259
179.4691, 70.83439
179.9512, 70.44556
180.4333, 70.43835
180.9155, 70.47195
181.3976, 70.52740
181.8797, 70.63795
182.3618, 70.87878
182.8439, 71.22385
183.3260, 71.53987
183.8082, 71.62086
184.2903, 71.23679
184.7724, 71.24512
185.2545, 71.93034
185.7366, 72.71481
186.2187, 73.12430
186.7009, 73.11995
187.1830, 73.12040
187.6651, 73.75004
188.1472, 75.49053
188.6293, 76.89037
189.1114, 77.70545
189.5936, 78.32210
190.0757, 79.10798
190.5578, 80.15349
191.0399, 81.22972
191.5220, 81.91069
192.0041, 81.90180
192.4863, 82.32304
192.9684, 83.71147
193.4505, 85.45512
193.9326, 86.70123
194.4147, 87.13825
194.8968, 87.29825
195.3790, 88.12145
195.8611, 89.63651
196.3432, 91.13618
196.8253, 92.40090
197.3074, 93.50169
197.7895, 94.53450
198.2717, 95.40202
198.7538, 96.44222
199.2359, 98.22348
199.7180, 100.7756
200.2001, 103.1328
200.6822, 104.5476
201.1644, 105.2503
201.6465, 106.4177
202.1286, 108.7523
202.6107, 111.1328
203.0928, 112.3944
203.5749, 112.5554
204.0571, 112.6955
204.5392, 113.6913
205.0213, 115.5326
205.5034, 117.3870
205.9855, 119.1631
206.4676, 120.8691
206.9497, 122.4186
207.4319, 123.8343
207.9140, 125.3440
208.3961, 127.2253
208.8782, 129.5520
209.3603, 131.7837
209.8424, 133.4753
210.3246, 135.3587
210.8067, 137.8482
211.2888, 140.9579
211.7709, 144.3747
212.2530, 147.7070
212.7351, 150.7986
213.2173, 154.2528
213.6994, 158.3737
214.1815, 162.5855
214.6636, 166.4413
215.1457, 169.9515
215.6278, 173.6225
216.1100, 178.1292
216.5921, 183.7854
217.0742, 189.5876
217.5563, 195.7497
218.0384, 201.8821
218.5205, 207.8224
219.0027, 213.4974
219.4848, 218.9541
219.9669, 224.2309
220.4490, 229.4183
220.9311, 234.0858
221.4132, 239.0418
221.8954, 243.0474
222.3775, 245.0888
222.8596, 245.0332
223.3417, 243.6016
223.8238, 241.7080
224.3059, 239.4568
224.7881, 236.0938
225.2702, 230.9977
225.7523, 225.1808
226.2344, 219.4297
226.7165, 213.8943
227.1986, 208.4510
227.6807, 202.8590
228.1629, 197.0064
228.6450, 191.8335
229.1271, 187.5674
229.6092, 183.9309
230.0913, 180.8302
230.5734, 178.2643
231.0556, 175.8882
231.5377, 173.3071
232.0198, 170.5263
232.5019, 167.9844
232.9840, 165.5672
233.4661, 163.5119
233.9483, 162.2900
234.4304, 162.0706
234.9125, 162.0132
235.3946, 161.1285
235.8767, 159.6349
236.3588, 158.4854
236.8410, 158.0470
237.3231, 158.0508
237.8052, 158.0889
238.2873, 158.1020
238.7694, 158.2588
239.2515, 158.8642
239.7337, 159.7305
240.2158, 160.4472
240.6979, 160.7541
241.1800, 160.8522
241.6621, 161.2031
242.1442, 162.0017
242.6264, 162.5283
243.1085, 161.9548
243.5906, 160.8535
244.0727, 160.1933
244.5548, 160.7437
245.0369, 161.8203
245.5191, 161.9229
246.0012, 160.7988
246.4833, 159.2621
246.9654, 157.5478
247.4475, 155.7441
247.9296, 153.9955
248.4117, 152.4497
248.8939, 150.9134
249.3760, 148.8596
249.8581, 146.0430
250.3402, 143.2219
250.8223, 140.6967
251.3044, 138.3098
251.7866, 135.8426
252.2687, 133.1407
252.7508, 130.4550
253.2329, 128.3633
253.7150, 127.1272
254.1971, 126.0057
254.6793, 124.9443
255.1614, 123.8316
255.6435, 122.4558
256.1256, 120.7128
256.6077, 118.9136
257.0898, 117.7903
257.5720, 117.9004
258.0541, 117.5949
258.5362, 116.2929
259.0183, 114.7251
259.5004, 113.4536
259.9825, 112.6829
260.4647, 112.3106
260.9468, 112.2034
261.4289, 112.6294
261.9110, 112.7850
262.3931, 112.2277
262.8752, 111.6615
263.3574, 111.7213
263.8395, 112.5398
264.3216, 113.6690
264.8037, 114.4175
265.2858, 114.6779
265.7679, 114.7272
266.2501, 114.3938
266.7322, 114.0148
267.2143, 113.7697
267.6964, 113.7147
268.1785, 113.8536
268.6606, 114.2050
269.1428, 114.8278
269.6249, 115.5296
270.1070, 116.5221
270.5891, 117.4160
271.0712, 117.9670
271.5533, 118.1587
272.0355, 118.1131
272.5176, 117.9174
272.9997, 117.4511
273.4818, 117.3890
273.9639, 118.1893
274.4460, 118.9142
274.9282, 119.1332
275.4103, 118.8183
275.8924, 118.0796
276.3745, 116.9459
276.8566, 115.3245
277.3387, 114.2178
277.8208, 113.9439
278.3029, 113.7468
278.7851, 113.3289
279.2672, 112.7041
279.7493, 112.0213
280.2314, 111.3993
280.7135, 110.8326
281.1956, 110.0673
281.6778, 108.9924
282.1599, 107.8790
282.6420, 106.7758
283.1241, 105.7037
283.6062, 104.7262
284.0883, 103.9109
284.5705, 103.1826
285.0526, 102.1206
285.5347, 100.2317
286.0168, 98.62357
286.4989, 97.84464
286.9810, 97.47982
287.4632, 96.77369
287.9453, 95.33936
288.4274, 93.47795
288.9095, 92.03465
289.3916, 91.29057
289.8737, 90.51573
290.3559, 89.55615
290.8380, 88.52065
291.3201, 87.55388
291.8022, 86.70442
292.2843, 85.95454
292.7664, 85.27954
293.2486, 84.74392
293.7307, 84.13509
294.2128, 83.26257
294.6949, 82.38592
295.1770, 81.86340
295.6591, 81.77265
296.1413, 81.76402
296.6234, 81.36195
297.1055, 80.41158
297.5876, 79.69510
298.0697, 79.27761
298.5518, 79.08022
299.0340, 79.11491
299.5161, 79.35989
299.9982, 79.60374
300.4803, 79.58869
300.9624, 79.28399
301.4445, 79.41348
301.9267, 80.37472
302.4088, 81.43480
302.8909, 82.09034
303.3730, 82.36613
303.8551, 82.60129
304.3372, 82.97950
304.8194, 83.53649
305.3015, 84.42265
305.7836, 85.81044
306.2657, 87.32014
306.7478, 88.95373
307.2299, 90.59501
307.7121, 91.89945
308.1942, 92.65419
308.6763, 92.98000
309.1584, 93.26196
309.6405, 93.30952
310.1227, 93.59620
310.6048, 94.38406
311.0869, 95.50232
311.5690, 96.66942
312.0511, 97.80508
312.5332, 98.84721
313.0154, 99.61287
313.4975, 100.0085
313.9796, 100.4754
314.4617, 101.2888
314.9438, 102.1498
315.4259, 102.5916
315.9081, 102.4829
316.3902, 102.2629
316.8723, 102.5205
317.3544, 103.3648
317.8365, 103.9927
318.3186, 104.1322
318.8007, 104.1594
319.2828, 104.3681
319.7650, 104.7988
320.2471, 105.4099
320.7292, 106.1362
321.2113, 107.0068
321.6934, 108.2624
322.1755, 110.4725
322.6577, 112.5701
323.1398, 113.7202
323.6219, 114.0922
324.1040, 114.5181
324.5861, 115.4418
325.0682, 116.8714
325.5504, 118.7243
326.0325, 121.8097
326.5146, 124.3699
326.9967, 125.5488
327.4788, 125.7725
327.9609, 125.9143
328.4431, 126.3332
328.9252, 126.8960
329.4073, 127.3156
329.8894, 127.6974
330.3715, 127.7539
330.8536, 127.2021
331.3358, 126.3795
331.8179, 125.6952
332.3000, 125.2569
332.7821, 124.9726
333.2642, 124.7819
333.7463, 124.8067
334.2285, 124.3867
334.7106, 123.0054
335.1927, 121.5109
335.6748, 120.6674
336.1569, 120.5033
336.6390, 120.4135
337.1212, 119.8632
337.6033, 118.8241
338.0854, 117.9275
338.5675, 117.0588
339.0496, 116.4105
339.5317, 116.0506
340.0139, 115.9839
340.4960, 116.2584
340.9781, 116.9485
341.4602, 117.9474
341.9423, 118.7115
342.4244, 119.3023
342.9066, 119.6276
343.3887, 119.3683
343.8708, 118.9107
344.3529, 118.8546
344.8350, 119.4350
345.3171, 120.3496
345.7993, 121.0267
346.2814, 121.2645
346.7635, 121.5968
347.2456, 122.0105
347.7277, 122.5269
348.2098, 123.1740
348.6920, 123.9479
349.1741, 124.8277
349.6562, 125.7897
350.1383, 126.8624
350.6204, 127.8960
351.1025, 128.7748
351.5847, 129.7257
352.0668, 130.8511
352.5489, 132.1385
353.0310, 133.5267
353.5131, 134.9603
353.9952, 136.4477
354.4774, 138.1306
354.9595, 140.0347
355.4416, 142.0955
355.9237, 144.3463
356.4058, 146.7307
356.8879, 149.2396
357.3701, 151.8662
357.8522, 154.4957
358.3343, 156.8682
358.8164, 158.5876
359.2985, 160.6747
359.7806, 163.0607
360.2627, 165.8447
360.7448, 169.1131
361.2270, 172.8813
361.7091, 177.0509
362.1912, 181.5890
362.6733, 186.6232
363.1554, 191.4676
363.6375, 195.7950
364.1197, 200.2450
364.6018, 204.9420
365.0839, 209.9949
365.5660, 215.4630
366.0481, 221.3989
366.5302, 227.7988
367.0124, 234.6705
367.4945, 242.5867
367.9766, 250.2363
368.4587, 256.8652
368.9408, 263.2609
369.4229, 270.4089
369.9051, 278.6843
370.3872, 287.6096
370.8693, 296.4869
371.3514, 305.6622
371.8335, 313.8060
372.3156, 321.2034
372.7978, 327.3130
373.2799, 331.7642
373.7620, 334.5123
374.2441, 335.9099
374.7262, 336.5086
375.2083, 336.3739
375.6905, 333.9529
376.1726, 328.0140
376.6547, 320.9471
377.1368, 313.7888
377.6189, 306.3523
378.1010, 298.1817
378.5832, 288.7386
379.0653, 278.5506
379.5474, 269.0664
380.0295, 260.6317
380.5116, 251.9880
380.9937, 241.8028
381.4759, 231.5802
381.9580, 222.9045
382.4401, 216.2654
382.9222, 210.5271
383.4043, 204.5911
383.8864, 198.4497
384.3686, 192.4700
384.8507, 186.3496
385.3328, 180.8955
385.8149, 176.9658
386.2970, 174.4172
386.7791, 171.7456
387.2613, 167.8835
387.7434, 163.3667
388.2255, 159.3613
388.7076, 155.9202
389.1897, 153.1094
389.6718, 151.2498
390.1540, 150.0427
390.6361, 148.9590
391.1182, 147.9767
391.6003, 146.9990
392.0824, 145.8248
392.5645, 144.5005
393.0467, 143.5083
393.5288, 143.1680
394.0109, 143.1579
394.4930, 142.7921
394.9751, 141.8855
395.4572, 141.3456
395.9394, 141.8649
396.4215, 142.8924
396.9036, 143.4190
397.3857, 143.1988
397.8678, 142.8938
398.3499, 143.2477
398.8321, 144.3110
399.3142, 145.1745
399.7963, 145.7095
400.2784, 146.1126
400.7605, 146.5189
401.2426, 146.9191
401.7247, 147.2157
402.2068, 147.3161
402.6890, 147.3003
403.1711, 147.5358
403.6532, 148.3554
404.1353, 148.9710
404.6174, 149.1977
405.0995, 149.1647
405.5817, 149.0249
406.0638, 148.8248
406.5459, 148.5145
407.0280, 148.0126
407.5101, 147.2574
407.9922, 146.5039
408.4744, 146.0147
408.9565, 145.3027
409.4386, 144.0850
409.9207, 142.4004
410.4028, 140.4345
410.8849, 138.2870
411.3671, 135.9719
411.8492, 133.5352
412.3313, 130.8531
412.8134, 128.2028
413.2955, 125.7251
413.7776, 123.2485
414.2598, 120.4981
414.7419, 117.4060
415.2240, 114.2958
415.7061, 111.7963
416.1882, 110.2555
416.6703, 108.0587
417.1525, 104.2439
417.6346, 100.5332
418.1167, 97.78758
418.5988, 95.85414
419.0809, 94.10045
419.5630, 92.06149
420.0452, 89.84051
420.5273, 87.83992
421.0094, 86.12230
421.4915, 84.52327
421.9736, 82.99903
422.4557, 81.55209
422.9379, 80.22431
423.4200, 79.04570
423.9021, 77.88794
424.3842, 76.49753
424.8663, 74.90050
425.3484, 73.72253
425.8306, 73.31307
426.3127, 73.09077
426.7948, 72.49474
427.2769, 71.58203
427.7590, 70.71458
428.2411, 69.96784
428.7233, 69.38686
429.2054, 69.14188
429.6875, 69.26303
430.1696, 69.28586
430.6517, 68.82663
431.1339, 68.08974
431.6160, 67.70071
432.0981, 67.80979
432.5802, 68.03170
433.0623, 68.21195
433.5444, 68.36309
434.0266, 68.49831
434.5087, 68.61433
434.9908, 68.75687
435.4729, 68.98550
435.9550, 69.30933
436.4371, 69.70547
436.9193, 70.47630
437.4014, 71.07536
437.8835, 70.89589
438.3656, 70.13110
438.8477, 69.57813
439.3298, 69.78183
439.8120, 70.59697
440.2941, 71.24013
440.7762, 71.47652
441.2583, 71.83284
441.7404, 72.59634
442.2225, 73.38242
442.7046, 73.71091
443.1867, 73.50122
443.6689, 73.16039
444.1510, 73.23573
444.6331, 73.85158
445.1152, 74.26008
445.5973, 74.22044
446.0794, 74.20931
446.5616, 74.35334
447.0437, 74.65128
447.5258, 75.11421
448.0079, 75.78468
448.4900, 76.51662
448.9721, 76.91708
449.4543, 76.86434
449.9364, 76.82944
450.4185, 77.04952
450.9006, 77.24033
451.3827, 77.20839
451.8648, 76.93163
452.3470, 76.49335
452.8291, 75.86391
453.3112, 75.10564
453.7933, 74.53464
454.2754, 74.23894
454.7575, 73.96456
455.2397, 73.42166
455.7218, 72.80175
456.2039, 72.48512
456.6860, 72.79995
457.1681, 73.09018
457.6502, 72.65820
458.1324, 71.67590
458.6145, 70.94212
459.0966, 70.76476
459.5787, 70.84512
460.0608, 70.75906
460.5429, 70.50241
461.0251, 70.22792
461.5072, 69.93452
461.9893, 69.65503
462.4714, 69.46170
462.9535, 69.33155
463.4356, 69.10717
463.9178, 68.64938
464.3999, 68.03140
464.8820, 67.64866
465.3641, 67.69923
465.8462, 67.71362
466.3283, 67.55580
466.8105, 67.36549
467.2926, 67.36076
467.7747, 67.55984
468.2568, 67.70812
468.7389, 67.48373
469.2210, 66.81644
469.7032, 66.22559
470.1853, 65.55723
470.6674, 65.13187
471.1495, 65.24313
471.6316, 65.62415
472.1137, 65.83926
472.5959, 65.67331
473.0780, 65.31761
473.5601, 65.15838
474.0422, 65.27215
474.5243, 65.25185
475.0064, 64.78547
475.4886, 64.36433
475.9707, 64.33953
476.4528, 64.66695
476.9349, 65.02032
477.4170, 65.10564
477.8991, 65.09628
478.3813, 65.50021
478.8634, 66.42078
479.3455, 67.11118
479.8276, 66.99152
480.3097, 66.48933
480.7918, 66.37746
481.2740, 66.77999
481.7561, 67.30849
482.2382, 67.81374
482.7203, 68.30219
483.2024, 68.83945
483.6845, 69.44785
484.1666, 69.90499
484.6487, 69.93597
485.1309, 69.52319
485.6130, 69.38011
486.0951, 69.65564
486.5772, 70.02264
487.0593, 70.34692
487.5414, 70.66582
488.0236, 71.06721
488.5057, 71.58691
488.9878, 72.16630
489.4699, 72.68887
489.9520, 73.08173
490.4341, 73.61187
490.9163, 74.40282
491.3984, 75.19061
491.8805, 75.90117
492.3626, 76.49438
492.8447, 76.88277
493.3268, 76.96835
493.8090, 76.90195
494.2911, 77.16389
494.7732, 77.91305
495.2553, 78.55807
495.7374, 78.84913
496.2195, 79.06182
496.7017, 79.36565
497.1838, 79.77874
497.6659, 80.25892
498.1480, 80.84994
498.6301, 81.47764
499.1122, 81.84638
499.5944, 81.84945
500.0765, 82.05602
500.5586, 82.89809
501.0407, 84.14537
501.5228, 85.33195
502.0049, 86.52921
502.4871, 87.46245
502.9692, 87.73192
503.4513, 87.71605
503.9334, 88.16676
504.4155, 89.25099
504.8976, 90.48666
505.3798, 91.41799
505.8619, 92.03342
506.3440, 92.55137
506.8261, 92.66309
507.3082, 93.02813
507.7903, 94.23961
508.2725, 95.76287
508.7546, 96.61009
509.2367, 96.44436
509.7188, 96.03970
510.2009, 96.74341
510.6830, 99.11375
511.1652, 100.7034
511.6473, 100.8088
512.1294, 100.8241
512.6115, 101.2891
513.0936, 102.0712
513.5757, 102.8490
514.0579, 103.4818
514.5400, 103.9665
515.0221, 104.2872
515.5042, 104.4352
515.9863, 104.5002
516.4684, 104.5817
516.9506, 104.4906
517.4327, 103.9264
517.9148, 102.9784
518.3969, 102.2999
518.8790, 102.5709
519.3611, 103.0275
519.8433, 102.6273
520.3254, 101.3992
520.8075, 99.98238
521.2896, 98.61756
521.7717, 97.32116
522.2538, 96.14271
522.7360, 94.99863
523.2181, 94.14443
523.7002, 93.89962
524.1823, 93.77456
524.6644, 93.38127
525.1465, 92.68538
525.6287, 91.74926
526.1108, 90.56900
526.5929, 89.26131
527.0750, 88.43274
527.5571, 88.46103
528.0392, 88.46569
528.5214, 88.08953
529.0035, 87.84682
529.4856, 88.43661
529.9677, 89.75603
530.4498, 90.77757
530.9319, 90.27929
531.4141, 88.64310
531.8962, 88.36818
532.3783, 90.08788
532.8604, 91.70335
533.3425, 92.12667
533.8246, 92.07024
534.3068, 92.25384
534.7889, 92.81168
535.2710, 93.38960
535.7531, 93.80210
536.2352, 94.06243
536.7173, 94.10493
537.1995, 93.89235
537.6816, 93.90161
538.1637, 94.71498
538.6458, 96.06440
539.1279, 96.37835
539.6100, 94.70628
540.0922, 93.26620
540.5743, 92.85367
541.0564, 92.93005
541.5385, 92.92149
542.0206, 92.67026
542.5027, 92.16971
542.9849, 91.37815
543.4670, 90.28608
543.9491, 89.31834
544.4312, 88.44131
544.9133, 87.75218
545.3954, 87.58410
545.8775, 87.46033
546.3596, 86.73069
546.8417, 85.26452
547.3239, 83.73763
547.8060, 82.98626
548.2881, 82.92857
548.7702, 82.62678
549.2523, 81.95943
549.7344, 81.21762
550.2166, 80.60002
550.6987, 80.01814
551.1808, 79.31356
551.6629, 78.42018
552.1450, 77.50282
552.6271, 76.55797
553.1093, 75.68003
553.5914, 75.11167
554.0735, 74.90688
554.5556, 74.79965
555.0377, 74.56862
555.5198, 74.21252
556.0020, 73.77215
556.4841, 73.21255
556.9662, 72.62478
557.4483, 72.01066
557.9304, 71.38773
558.4125, 70.77055
558.8947, 70.16517
559.3768, 69.60227
559.8589, 69.13095
560.3410, 68.75765
560.8231, 68.29356
561.3052, 67.72639
561.7874, 67.08273
562.2695, 66.15830
562.7516, 65.27019
563.2337, 64.86424
563.7158, 65.07527
564.1979, 65.33736
564.6801, 65.20020
565.1622, 64.72438
565.6443, 64.02795
566.1264, 63.05314
566.6085, 62.21126
567.0906, 61.79700
567.5728, 61.75279
568.0549, 61.78654
568.5370, 62.06438
569.0191, 62.16050
569.5012, 61.84772
569.9833, 61.31453
570.4655, 60.67098
570.9476, 59.99749
571.4297, 59.57071
571.9118, 59.69172
572.3939, 60.30100
572.8760, 60.62004
573.3582, 60.27241
573.8403, 60.14819
574.3224, 60.65561
574.8045, 61.23981
575.2866, 61.42903
575.7687, 61.15646
576.2509, 60.62421
576.7330, 59.82159
577.2151, 58.89811
577.6972, 58.51163
578.1793, 58.79268
578.6614, 59.04193
579.1436, 58.86671
579.6257, 58.54634
580.1078, 58.55651
580.5899, 58.99547
581.0720, 59.22032
581.5541, 58.62225
582.0363, 57.91296
582.5184, 58.09622
583.0005, 59.06194
583.4826, 59.74609
583.9647, 59.46642
584.4468, 58.59635
584.9290, 58.23973
585.4111, 58.97627
585.8932, 59.32320
586.3753, 59.04716
586.8574, 58.61249
587.3395, 58.22457
