##NAMES=Elbaite
##RRUFFID=R070077
##IDEAL CHEMISTRY=Na(Al_1.5_Li_1.5_)Al_6_(Si_6_O_18_)(BO_3_)_3_(OH)_3_OH
##LOCALITY=Canary mine, Lundazi area of eastern Zambia
##OWNER=RRUFF
##SOURCE=Tommy Wu
##DESCRIPTION=Green crystal fragments
##STATUS=The identification of this mineral has been made only by X-ray diffraction.
##URL=rruff.info/R070077
147.2892, 2177.904
147.7713, 2209.392
148.2534, 2236.961
148.7356, 2264.085
149.2177, 2293.511
149.6998, 2330.055
150.1819, 2364.387
150.6640, 2394.444
151.1461, 2419.342
151.6283, 2444.609
152.1104, 2474.597
152.5925, 2504.184
153.0746, 2525.366
153.5567, 2526.237
154.0388, 2527.632
154.5210, 2537.811
155.0031, 2566.865
155.4852, 2589.043
155.9673, 2600.246
156.4494, 2601.489
156.9315, 2595.942
157.4137, 2573.228
157.8958, 2550.505
158.3779, 2538.227
158.8600, 2554.083
159.3421, 2565.906
159.8242, 2560.478
160.3064, 2538.826
160.7885, 2521.936
161.2706, 2523.631
161.7527, 2531.862
162.2348, 2534.102
162.7169, 2521.050
163.1991, 2504.773
163.6812, 2491.133
164.1633, 2480.792
164.6454, 2471.571
165.1275, 2461.234
165.6096, 2451.217
166.0918, 2444.060
166.5739, 2444.741
167.0560, 2446.699
167.5381, 2444.488
168.0202, 2435.987
168.5023, 2425.625
168.9845, 2413.298
169.4666, 2400.693
169.9487, 2393.795
170.4308, 2403.325
170.9129, 2418.408
171.3950, 2425.808
171.8772, 2419.164
172.3593, 2405.835
172.8414, 2388.833
173.3235, 2368.739
173.8056, 2354.349
174.2877, 2358.707
174.7699, 2373.436
175.2520, 2383.019
175.7341, 2374.490
176.2162, 2359.842
176.6983, 2355.298
177.1804, 2361.586
177.6626, 2373.842
178.1447, 2392.481
178.6268, 2414.676
179.1089, 2430.518
179.5910, 2427.441
180.0731, 2415.454
180.5553, 2417.056
181.0374, 2437.982
181.5195, 2463.433
182.0016, 2471.555
182.4837, 2464.305
182.9658, 2457.734
183.4479, 2464.603
183.9301, 2481.259
184.4122, 2494.984
184.8943, 2501.985
185.3764, 2506.625
185.8585, 2518.667
186.3406, 2538.135
186.8228, 2558.783
187.3049, 2575.908
187.7870, 2589.538
188.2691, 2599.913
188.7512, 2604.408
189.2333, 2606.007
189.7155, 2616.778
190.1976, 2638.240
190.6797, 2660.156
191.1618, 2669.549
191.6439, 2666.778
192.1260, 2661.790
192.6082, 2652.622
193.0903, 2641.451
193.5724, 2651.771
194.0545, 2688.395
194.5366, 2735.448
195.0187, 2769.332
195.5009, 2789.485
195.9830, 2802.849
196.4651, 2810.879
196.9472, 2813.563
197.4293, 2815.287
197.9114, 2813.026
198.3936, 2813.507
198.8757, 2838.348
199.3578, 2893.370
199.8399, 2945.022
200.3220, 2965.792
200.8041, 2951.607
201.2863, 2950.138
201.7684, 2970.495
202.2505, 3007.301
202.7326, 3038.670
203.2147, 3062.910
203.6968, 3086.552
204.1790, 3116.238
204.6611, 3153.630
205.1432, 3187.151
205.6253, 3208.657
206.1074, 3220.991
206.5895, 3260.868
207.0716, 3336.465
207.5538, 3424.794
208.0359, 3498.545
208.5180, 3552.076
209.0001, 3611.208
209.4822, 3686.033
209.9643, 3778.020
210.4465, 3856.810
210.9286, 3914.804
211.4107, 3968.119
211.8928, 4045.861
212.3749, 4157.987
212.8570, 4266.465
213.3392, 4355.893
213.8213, 4420.439
214.3034, 4485.552
214.7855, 4546.107
215.2676, 4609.636
215.7497, 4697.546
216.2319, 4823.261
216.7140, 4944.375
217.1961, 5035.313
217.6782, 5076.484
218.1603, 5145.487
218.6424, 5265.023
219.1246, 5411.701
219.6067, 5500.194
220.0888, 5505.735
220.5709, 5491.780
221.0530, 5499.994
221.5351, 5547.716
222.0173, 5574.764
222.4994, 5572.979
222.9815, 5544.510
223.4636, 5507.657
223.9457, 5466.024
224.4278, 5411.029
224.9100, 5331.988
225.3921, 5215.591
225.8742, 5104.463
226.3563, 5006.575
226.8384, 4921.124
227.3205, 4835.298
227.8026, 4749.979
228.2848, 4663.389
228.7669, 4572.910
229.2490, 4466.783
229.7311, 4377.095
230.2132, 4316.056
230.6953, 4286.960
231.1775, 4249.937
231.6596, 4202.109
232.1417, 4148.582
232.6238, 4095.595
233.1059, 4038.811
233.5880, 3990.028
234.0702, 3953.289
234.5523, 3930.604
235.0344, 3912.267
235.5165, 3902.094
235.9986, 3894.175
236.4807, 3877.058
236.9629, 3842.776
237.4450, 3811.854
237.9271, 3792.690
238.4092, 3791.525
238.8913, 3784.896
239.3734, 3771.300
239.8556, 3752.657
240.3377, 3733.022
240.8198, 3711.334
241.3019, 3690.194
241.7840, 3670.714
242.2661, 3653.782
242.7483, 3637.946
243.2304, 3629.166
243.7125, 3620.896
244.1946, 3589.228
244.6767, 3517.685
245.1588, 3445.377
245.6410, 3393.664
246.1231, 3373.052
246.6052, 3351.505
247.0873, 3328.409
247.5694, 3303.033
248.0515, 3271.886
248.5337, 3231.386
249.0158, 3189.647
249.4979, 3150.956
249.9800, 3112.949
250.4621, 3083.317
250.9442, 3064.993
251.4263, 3056.613
251.9085, 3045.663
252.3906, 3030.714
252.8727, 3014.968
253.3548, 3001.687
253.8369, 2993.770
254.3190, 2981.210
254.8012, 2960.484
255.2833, 2932.518
255.7654, 2908.617
256.2475, 2887.015
256.7296, 2871.718
257.2118, 2868.200
257.6939, 2884.055
258.1760, 2893.609
258.6581, 2890.194
259.1402, 2873.956
259.6223, 2861.880
260.1045, 2853.793
260.5866, 2849.942
261.0687, 2851.505
261.5508, 2861.040
262.0329, 2869.063
262.5150, 2871.954
262.9971, 2869.450
263.4792, 2874.365
263.9614, 2891.623
264.4435, 2909.680
264.9256, 2912.612
265.4077, 2893.275
265.8898, 2880.165
266.3719, 2883.461
266.8541, 2904.180
267.3362, 2918.104
267.8183, 2922.704
268.3004, 2924.143
268.7825, 2930.498
269.2646, 2942.881
269.7468, 2956.911
270.2289, 2974.485
270.7110, 2996.624
271.1931, 3001.093
271.6752, 2982.290
272.1573, 2954.489
272.6395, 2939.075
273.1216, 2939.351
273.6037, 2938.034
274.0858, 2925.163
274.5679, 2899.656
275.0500, 2892.777
275.5322, 2911.747
276.0143, 2937.089
276.4964, 2935.929
276.9785, 2903.910
277.4606, 2871.372
277.9427, 2850.941
278.4249, 2842.832
278.9070, 2835.521
279.3891, 2829.119
279.8712, 2823.197
280.3533, 2818.520
280.8354, 2815.599
281.3176, 2808.317
281.7997, 2789.189
282.2818, 2759.167
282.7639, 2743.482
283.2460, 2745.139
283.7281, 2755.001
284.2103, 2762.016
284.6924, 2766.323
285.1745, 2761.747
285.6566, 2736.232
286.1387, 2694.383
286.6208, 2675.123
287.1030, 2683.905
287.5851, 2705.832
288.0672, 2723.321
288.5493, 2736.104
289.0314, 2737.635
289.5135, 2714.613
289.9957, 2674.804
290.4778, 2654.259
290.9599, 2658.220
291.4420, 2673.418
291.9241, 2683.874
292.4063, 2689.592
292.8884, 2690.013
293.3705, 2680.668
293.8526, 2665.585
294.3347, 2655.320
294.8168, 2650.157
295.2990, 2651.634
295.7811, 2667.705
296.2632, 2694.996
296.7453, 2715.466
297.2274, 2713.731
297.7095, 2699.084
298.1917, 2689.054
298.6738, 2684.245
299.1559, 2687.961
299.6380, 2711.853
300.1201, 2750.011
300.6022, 2780.619
301.0844, 2783.759
301.5665, 2774.699
302.0486, 2777.427
302.5307, 2796.372
303.0128, 2819.074
303.4949, 2834.514
303.9771, 2844.175
304.4592, 2851.566
304.9413, 2854.230
305.4234, 2857.627
305.9055, 2869.232
306.3876, 2891.744
306.8697, 2915.218
307.3518, 2932.323
307.8340, 2944.832
308.3161, 2956.807
308.7982, 2972.571
309.2803, 2987.472
309.7624, 2996.019
310.2445, 2995.895
310.7267, 2997.594
311.2088, 3012.185
311.6909, 3032.972
312.1730, 3047.619
312.6551, 3039.045
313.1372, 3030.528
313.6194, 3038.590
314.1015, 3067.985
314.5836, 3100.920
315.0657, 3131.842
315.5478, 3160.210
316.0299, 3184.866
316.5121, 3201.270
316.9942, 3217.409
317.4763, 3237.043
317.9584, 3260.716
318.4405, 3287.130
318.9226, 3318.704
319.4048, 3351.880
319.8869, 3381.775
320.3690, 3401.580
320.8511, 3422.813
321.3332, 3449.366
321.8153, 3481.855
322.2975, 3518.027
322.7796, 3561.643
323.2617, 3607.267
323.7438, 3649.074
324.2259, 3686.936
324.7080, 3720.271
325.1902, 3745.639
325.6723, 3759.395
326.1544, 3783.842
326.6365, 3829.751
327.1186, 3882.918
327.6007, 3929.093
328.0829, 3964.241
328.5650, 3996.348
329.0471, 4027.480
329.5292, 4058.218
330.0113, 4082.378
330.4934, 4093.648
330.9756, 4102.610
331.4577, 4120.388
331.9398, 4157.067
332.4219, 4185.661
332.9040, 4197.935
333.3861, 4193.927
333.8683, 4197.972
334.3504, 4212.607
334.8325, 4232.166
335.3146, 4252.318
335.7967, 4274.473
336.2788, 4292.880
336.7610, 4306.039
337.2431, 4314.313
337.7252, 4321.862
338.2073, 4329.017
338.6894, 4334.534
339.1715, 4336.442
339.6537, 4334.047
340.1358, 4332.957
340.6179, 4333.409
341.1000, 4336.083
341.5821, 4344.798
342.0642, 4360.725
342.5464, 4376.868
343.0285, 4390.564
343.5106, 4401.261
343.9927, 4399.962
344.4748, 4379.003
344.9569, 4352.521
345.4391, 4356.862
345.9212, 4391.923
346.4033, 4424.801
346.8854, 4430.217
347.3675, 4413.930
347.8496, 4393.992
348.3318, 4369.624
348.8139, 4349.821
349.2960, 4350.705
349.7781, 4369.725
350.2602, 4391.256
350.7423, 4412.599
351.2244, 4428.598
351.7065, 4425.157
352.1887, 4394.225
352.6708, 4365.429
353.1529, 4368.284
353.6350, 4397.233
354.1171, 4436.273
354.5992, 4487.016
355.0814, 4538.352
355.5635, 4577.446
356.0456, 4601.307
356.5277, 4625.115
357.0098, 4658.331
357.4919, 4698.899
357.9741, 4743.287
358.4562, 4794.043
358.9383, 4845.077
359.4204, 4890.475
359.9025, 4928.619
360.3846, 4974.348
360.8668, 5036.402
361.3489, 5108.790
361.8310, 5184.613
362.3131, 5264.442
362.7952, 5345.304
363.2773, 5423.480
363.7595, 5499.040
364.2416, 5581.127
364.7237, 5677.269
365.2058, 5778.386
365.6879, 5875.750
366.1700, 5950.305
366.6522, 6041.787
367.1343, 6162.989
367.6164, 6312.441
368.0985, 6454.393
368.5806, 6576.635
369.0627, 6699.807
369.5449, 6837.894
370.0270, 7008.586
370.5091, 7167.612
370.9912, 7309.331
371.4733, 7435.808
371.9554, 7559.554
372.4376, 7687.558
372.9197, 7802.635
373.4018, 7896.633
373.8839, 7967.311
374.3660, 8026.315
374.8481, 8081.421
375.3303, 8120.336
375.8124, 8114.941
376.2945, 8061.764
376.7766, 7977.268
377.2587, 7867.170
377.7408, 7732.449
378.2230, 7568.359
378.7051, 7368.481
379.1872, 7151.208
379.6693, 6936.729
380.1514, 6726.137
380.6335, 6529.078
381.1157, 6354.247
381.5978, 6197.141
382.0799, 6047.600
382.5620, 5906.222
383.0441, 5771.102
383.5262, 5650.977
384.0084, 5538.955
384.4905, 5417.876
384.9726, 5265.975
385.4547, 5109.892
385.9368, 4990.623
386.4189, 4905.478
386.9011, 4833.395
387.3832, 4757.354
387.8653, 4682.991
388.3474, 4620.518
388.8295, 4580.064
389.3116, 4543.347
389.7938, 4495.639
390.2759, 4439.267
390.7580, 4382.906
391.2401, 4325.708
391.7222, 4273.963
392.2043, 4233.864
392.6865, 4209.519
393.1686, 4191.130
393.6507, 4179.320
394.1328, 4170.788
394.6149, 4158.229
395.0970, 4136.556
395.5792, 4113.110
396.0613, 4089.898
396.5434, 4065.125
397.0255, 4046.682
397.5076, 4039.494
397.9897, 4038.017
398.4718, 4034.833
398.9539, 4030.068
399.4361, 4023.031
399.9182, 4010.875
400.4003, 3991.938
400.8824, 3984.400
401.3645, 3992.827
401.8466, 4008.347
402.3288, 4024.565
402.8109, 4045.998
403.2930, 4056.691
403.7751, 4051.273
404.2572, 4032.744
404.7393, 4018.737
405.2215, 4009.697
405.7036, 4003.599
406.1857, 3999.331
406.6678, 3996.928
407.1499, 3996.326
407.6320, 3998.780
408.1142, 4001.282
408.5963, 3998.093
409.0784, 3989.170
409.5605, 3975.682
410.0426, 3956.115
410.5247, 3932.220
411.0069, 3911.784
411.4890, 3897.365
411.9711, 3878.388
412.4532, 3836.382
412.9353, 3779.065
413.4174, 3727.923
413.8996, 3698.809
414.3817, 3677.945
414.8638, 3648.780
415.3459, 3611.217
415.8280, 3571.964
416.3102, 3535.538
416.7923, 3500.355
417.2744, 3463.737
417.7565, 3423.293
418.2386, 3383.063
418.7207, 3343.744
419.2029, 3306.083
419.6850, 3273.882
420.1671, 3252.033
420.6492, 3233.561
421.1313, 3213.935
421.6134, 3193.082
422.0956, 3170.266
422.5777, 3142.094
423.0598, 3112.024
423.5419, 3086.553
424.0240, 3067.881
424.5061, 3052.713
424.9883, 3040.406
425.4704, 3031.705
425.9525, 3023.339
426.4346, 3014.133
426.9167, 3006.025
427.3988, 3001.312
427.8810, 3000.110
428.3631, 3002.399
428.8452, 3011.193
429.3273, 3024.858
429.8094, 3025.268
430.2915, 3009.740
430.7737, 2988.471
431.2558, 2966.453
431.7379, 2943.544
432.2200, 2933.359
432.7021, 2941.562
433.1842, 2958.713
433.6664, 2964.434
434.1485, 2959.286
434.6306, 2955.528
435.1127, 2963.406
435.5948, 2977.915
436.0769, 2988.586
436.5591, 2994.993
437.0412, 2995.149
437.5233, 2980.330
438.0054, 2957.572
438.4875, 2942.463
438.9696, 2948.721
439.4518, 2961.096
439.9339, 2966.451
440.4160, 2964.766
440.8981, 2964.351
441.3802, 2968.903
441.8623, 2977.286
442.3444, 2988.750
442.8265, 3016.593
443.3087, 3032.095
443.7908, 3016.794
444.2729, 2979.770
444.7550, 2955.353
445.2371, 2962.800
445.7192, 2974.227
446.2014, 2976.629
446.6835, 2961.613
447.1656, 2953.644
447.6477, 2960.920
448.1298, 2971.658
448.6119, 2966.414
449.0941, 2933.512
449.5762, 2905.555
450.0583, 2891.463
450.5404, 2891.297
451.0225, 2893.320
451.5046, 2898.947
451.9868, 2903.553
452.4689, 2903.039
452.9510, 2897.314
453.4331, 2887.278
453.9152, 2870.984
454.3973, 2852.567
454.8795, 2843.580
455.3616, 2843.696
455.8437, 2843.329
456.3258, 2832.662
456.8079, 2817.380
457.2900, 2812.985
457.7722, 2823.078
458.2543, 2833.407
458.7364, 2823.704
459.2185, 2803.323
459.7006, 2791.902
460.1827, 2802.745
460.6649, 2822.327
461.1470, 2843.068
461.6291, 2864.604
462.1112, 2881.740
462.5933, 2890.093
463.0754, 2893.925
463.5576, 2896.468
464.0397, 2892.809
464.5218, 2895.176
465.0039, 2914.091
465.4860, 2942.035
465.9681, 2957.332
466.4503, 2939.825
466.9324, 2925.057
467.4145, 2925.505
467.8966, 2945.874
468.3787, 2966.111
468.8608, 2987.330
469.3430, 3007.474
469.8251, 3025.400
470.3072, 3043.816
470.7893, 3050.445
471.2714, 3035.518
471.7535, 3006.315
472.2357, 3007.412
472.7178, 3044.326
473.1999, 3082.379
473.6820, 3090.664
474.1641, 3074.208
474.6462, 3071.596
475.1284, 3091.485
475.6105, 3115.280
476.0926, 3113.111
476.5747, 3091.071
477.0568, 3072.809
477.5389, 3075.211
478.0211, 3085.369
478.5032, 3086.196
478.9853, 3077.123
479.4674, 3069.238
479.9495, 3070.799
480.4316, 3077.269
480.9138, 3083.664
481.3959, 3089.007
481.8780, 3093.321
482.3601, 3098.502
482.8422, 3103.005
483.3243, 3101.861
483.8065, 3085.686
484.2886, 3070.401
484.7707, 3062.787
485.2528, 3065.406
485.7349, 3070.876
486.2170, 3084.318
486.6991, 3097.477
487.1812, 3099.441
487.6634, 3083.028
488.1455, 3070.721
488.6276, 3067.215
489.1097, 3071.621
489.5918, 3078.189
490.0739, 3087.482
490.5561, 3097.132
491.0382, 3108.055
491.5203, 3119.604
492.0024, 3118.315
492.4845, 3098.294
492.9666, 3077.694
493.4488, 3091.238
493.9309, 3130.423
494.4130, 3157.480
494.8951, 3146.498
495.3772, 3117.710
495.8593, 3092.854
496.3415, 3072.404
496.8236, 3063.611
497.3057, 3080.340
497.7878, 3107.139
498.2699, 3128.175
498.7520, 3137.500
499.2342, 3142.478
499.7163, 3143.716
500.1984, 3142.677
500.6805, 3142.947
501.1626, 3151.617
501.6447, 3156.094
502.1269, 3148.727
502.6090, 3124.214
503.0911, 3111.896
503.5732, 3118.575
504.0553, 3131.734
504.5374, 3140.780
505.0196, 3146.383
505.5017, 3145.293
505.9838, 3133.630
506.4659, 3116.446
506.9480, 3111.790
507.4301, 3121.872
507.9123, 3129.966
508.3944, 3125.565
508.8765, 3110.520
509.3586, 3095.179
509.8407, 3079.502
510.3228, 3065.858
510.8050, 3060.431
511.2871, 3059.367
511.7692, 3052.767
512.2513, 3033.646
512.7334, 3011.182
513.2155, 2993.757
513.6976, 2980.581
514.1797, 2968.510
514.6619, 2957.539
515.1440, 2945.816
515.6261, 2931.579
516.1082, 2913.476
516.5903, 2896.432
517.0724, 2881.168
517.5546, 2867.884
518.0367, 2856.784
518.5188, 2850.332
519.0009, 2843.382
519.4830, 2833.997
519.9651, 2822.867
520.4473, 2817.594
520.9294, 2823.047
521.4115, 2825.986
521.8936, 2815.847
522.3757, 2789.865
522.8578, 2775.260
523.3400, 2775.815
523.8221, 2781.805
524.3042, 2776.810
524.7863, 2762.204
525.2684, 2753.124
525.7505, 2759.285
526.2327, 2771.678
526.7148, 2770.962
527.1969, 2758.876
527.6790, 2751.186
528.1611, 2763.664
528.6432, 2784.485
529.1254, 2799.889
529.6075, 2806.054
530.0896, 2811.449
530.5717, 2820.068
531.0538, 2831.058
531.5359, 2843.336
532.0181, 2859.630
532.5002, 2873.997
532.9823, 2882.688
533.4644, 2886.054
533.9465, 2894.012
534.4286, 2914.004
534.9108, 2931.422
535.3929, 2937.693
535.8750, 2926.543
536.3571, 2920.788
536.8392, 2919.324
537.3214, 2924.813
537.8035, 2947.125
538.2856, 2988.257
538.7677, 3016.442
539.2498, 3015.630
539.7319, 2998.122
540.2141, 3000.307
540.6962, 3021.464
541.1783, 3044.814
541.6604, 3061.169
542.1425, 3070.524
542.6246, 3071.290
543.1068, 3061.561
543.5889, 3050.379
544.0710, 3041.163
544.5531, 3035.611
545.0352, 3036.161
545.5173, 3056.013
545.9995, 3070.143
546.4816, 3064.038
546.9637, 3040.710
547.4458, 3024.982
547.9279, 3028.183
548.4100, 3033.366
548.8922, 3032.570
549.3743, 3021.606
549.8564, 3016.869
550.3385, 3022.284
550.8206, 3029.597
551.3027, 3028.060
551.7849, 3016.610
552.2670, 3002.216
552.7491, 2985.242
553.2312, 2967.239
553.7133, 2953.061
554.1954, 2942.670
554.6776, 2932.492
555.1597, 2920.906
555.6418, 2907.764
556.1239, 2891.909
556.6060, 2872.914
557.0881, 2854.763
557.5703, 2843.569
558.0524, 2834.385
558.5345, 2820.835
559.0166, 2794.909
559.4987, 2770.786
559.9808, 2757.388
560.4630, 2750.604
560.9451, 2737.875
561.4272, 2702.979
561.9093, 2674.894
562.3914, 2665.285
562.8735, 2677.207
563.3557, 2688.459
563.8378, 2704.189
564.3199, 2712.653
564.8020, 2699.081
565.2841, 2657.397
565.7662, 2629.684
566.2484, 2623.302
566.7305, 2628.805
567.2126, 2630.720
567.6947, 2628.914
568.1768, 2622.091
568.6589, 2602.840
569.1411, 2580.821
569.6232, 2574.120
570.1053, 2581.896
570.5874, 2589.564
571.0695, 2586.520
571.5516, 2578.486
572.0338, 2569.741
572.5159, 2556.993
572.9980, 2553.313
573.4801, 2575.497
573.9622, 2606.794
574.4443, 2622.172
574.9265, 2598.543
575.4086, 2580.646
575.8907, 2579.732
576.3728, 2593.123
576.8549, 2597.739
577.3370, 2591.094
577.8192, 2580.702
578.3013, 2569.894
578.7834, 2558.589
579.2655, 2548.510
579.7476, 2539.718
580.2297, 2531.659
580.7119, 2523.845
581.1940, 2516.209
581.6761, 2508.299
582.1582, 2499.329
582.6403, 2491.045
583.1224, 2485.859
583.6046, 2483.121
584.0867, 2480.865
584.5688, 2487.538
585.0509, 2486.969
585.5330, 2461.216
586.0151, 2407.143
586.4973, 2369.199
586.9794, 2370.598
587.4615, 2385.092
587.9436, 2394.430
588.4257, 2402.200
588.9078, 2397.249
589.3900, 2373.833
589.8721, 2341.560
590.3542, 2315.592
590.8363, 2295.709
591.3184, 2283.806
591.8005, 2283.848
592.2827, 2291.127
592.7648, 2288.943
593.2469, 2277.318
593.7290, 2261.013
594.2111, 2239.334
594.6932, 2216.188
595.1754, 2199.122
595.6575, 2189.328
596.1396, 2181.002
596.6217, 2168.956
597.1038, 2156.400
597.5859, 2147.301
598.0680, 2148.639
598.5501, 2146.746
599.0322, 2132.150
599.5143, 2111.035
599.9965, 2101.318
600.4786, 2118.950
600.9607, 2130.002
601.4428, 2122.893
601.9249, 2097.825
602.4070, 2079.061
602.8892, 2066.787
603.3713, 2060.318
603.8534, 2061.201
604.3355, 2068.846
604.8176, 2074.351
605.2997, 2077.297
605.7819, 2076.760
606.2640, 2069.514
606.7461, 2057.846
607.2282, 2047.383
607.7103, 2040.258
608.1924, 2035.138
608.6746, 2031.510
609.1567, 2029.153
609.6388, 2027.554
610.1209, 2027.500
610.6030, 2027.276
611.0851, 2027.151
611.5673, 2028.024
612.0494, 2022.726
612.5315, 2006.855
613.0136, 1988.850
613.4957, 1973.617
613.9778, 1959.590
614.4600, 1954.776
614.9421, 1963.267
615.4242, 1975.233
615.9063, 1972.346
616.3884, 1955.630
616.8705, 1941.875
617.3527, 1937.609
617.8348, 1938.363
618.3169, 1937.842
618.7990, 1935.965
619.2811, 1932.370
619.7632, 1922.074
620.2454, 1913.139
620.7275, 1913.741
621.2096, 1925.392
621.6917, 1935.908
622.1738, 1942.756
622.6559, 1945.794
623.1381, 1944.688
623.6202, 1929.877
624.1023, 1925.336
624.5844, 1935.250
625.0665, 1952.644
625.5486, 1967.558
626.0308, 1980.870
626.5129, 1986.863
626.9950, 1980.357
627.4771, 1967.725
627.9592, 1969.556
628.4413, 1985.109
628.9235, 2001.469
629.4056, 2011.647
629.8877, 2017.518
630.3698, 2020.684
630.8519, 2021.226
631.3340, 2022.574
631.8162, 2028.786
632.2983, 2035.784
632.7804, 2039.584
633.2625, 2037.052
633.7446, 2035.527
634.2267, 2037.412
634.7089, 2040.712
635.1910, 2042.523
635.6731, 2042.489
636.1552, 2041.818
636.6373, 2041.344
637.1194, 2040.178
637.6016, 2034.155
638.0837, 2022.686
638.5658, 2011.917
639.0479, 2004.721
639.5300, 2000.617
640.0121, 1998.287
640.4943, 1997.692
640.9764, 1999.455
641.4585, 2010.621
641.9406, 2021.350
642.4227, 2017.816
642.9048, 1991.277
643.3870, 1970.039
643.8691, 1969.449
644.3512, 1979.181
644.8333, 1986.863
645.3154, 1995.309
