##NAMES=Elbaite
##RRUFFID=R070077
##IDEAL CHEMISTRY=Na(Al_1.5_Li_1.5_)Al_6_(Si_6_O_18_)(BO_3_)_3_(OH)_3_OH
##LOCALITY=Canary mine, Lundazi area of eastern Zambia
##OWNER=RRUFF
##SOURCE=Tommy Wu
##DESCRIPTION=Green crystal fragments
##STATUS=The identification of this mineral has been made only by X-ray diffraction.
##URL=rruff.info/R070077
181.0923, 7288.113
181.5744, 7278.808
182.0565, 7281.452
182.5386, 7286.704
183.0207, 7295.064
183.5028, 7302.566
183.9850, 7301.058
184.4671, 7287.549
184.9492, 7277.880
185.4313, 7287.721
185.9134, 7305.327
186.3955, 7315.910
186.8777, 7311.542
187.3598, 7301.494
187.8419, 7300.070
188.3240, 7309.569
188.8061, 7318.073
189.2882, 7316.179
189.7704, 7310.911
190.2525, 7309.959
190.7346, 7315.387
191.2167, 7326.296
191.6988, 7342.151
192.1809, 7363.635
192.6631, 7387.429
193.1452, 7417.758
193.6273, 7447.592
194.1094, 7468.505
194.5915, 7476.197
195.0736, 7478.275
195.5558, 7487.737
196.0379, 7508.205
196.5200, 7519.348
197.0021, 7490.867
197.4842, 7458.642
197.9663, 7459.982
198.4485, 7511.708
198.9306, 7578.134
199.4127, 7611.506
199.8948, 7605.410
200.3769, 7600.521
200.8590, 7617.189
201.3412, 7638.028
201.8233, 7648.049
202.3054, 7642.699
202.7875, 7633.109
203.2696, 7630.937
203.7517, 7636.167
204.2339, 7648.806
204.7160, 7672.703
205.1981, 7702.283
205.6802, 7738.220
206.1623, 7781.574
206.6444, 7818.053
207.1266, 7825.900
207.6087, 7801.330
208.0908, 7788.313
208.5729, 7800.708
209.0550, 7826.661
209.5371, 7861.882
210.0193, 7905.700
210.5014, 7949.739
210.9835, 7985.492
211.4656, 8012.977
211.9477, 8039.058
212.4298, 8064.635
212.9120, 8089.334
213.3941, 8108.018
213.8762, 8121.792
214.3583, 8145.895
214.8404, 8202.341
215.3225, 8289.451
215.8047, 8357.425
216.2868, 8388.469
216.7689, 8409.291
217.2510, 8438.652
217.7331, 8475.131
218.2152, 8506.157
218.6974, 8513.273
219.1795, 8501.329
219.6616, 8515.469
220.1437, 8578.321
220.6258, 8643.946
221.1079, 8686.340
221.5901, 8708.249
222.0722, 8721.255
222.5543, 8731.895
223.0364, 8739.342
223.5185, 8739.658
224.0006, 8732.523
224.4828, 8717.810
224.9649, 8694.201
225.4470, 8664.070
225.9291, 8632.488
226.4112, 8605.944
226.8933, 8579.520
227.3755, 8536.811
227.8576, 8470.523
228.3397, 8403.748
228.8218, 8342.951
229.3039, 8290.503
229.7860, 8252.024
230.2682, 8235.352
230.7503, 8230.079
231.2324, 8216.301
231.7145, 8191.536
232.1966, 8166.839
232.6787, 8146.956
233.1609, 8130.378
233.6430, 8115.751
234.1251, 8102.772
234.6072, 8091.452
235.0893, 8082.328
235.5714, 8075.740
236.0536, 8068.614
236.5357, 8057.157
237.0178, 8045.726
237.4999, 8039.005
237.9820, 8038.128
238.4641, 8041.127
238.9463, 8048.582
239.4284, 8060.463
239.9105, 8067.235
240.3926, 8061.343
240.8747, 8052.208
241.3568, 8052.175
241.8390, 8063.957
242.3211, 8073.074
242.8032, 8070.308
243.2853, 8056.187
243.7674, 8032.353
244.2495, 7994.027
244.7317, 7952.057
245.2138, 7916.755
245.6959, 7887.904
246.1780, 7866.040
246.6601, 7855.748
247.1422, 7853.010
247.6244, 7845.971
248.1065, 7831.187
248.5886, 7814.891
249.0707, 7801.840
249.5528, 7791.871
250.0349, 7786.007
250.5171, 7790.466
250.9992, 7797.439
251.4813, 7792.946
251.9634, 7773.970
252.4455, 7751.557
252.9276, 7732.385
253.4098, 7716.866
253.8919, 7707.944
254.3740, 7712.602
254.8561, 7720.215
255.3382, 7718.702
255.8203, 7707.682
256.3025, 7696.351
256.7846, 7688.922
257.2667, 7686.580
257.7488, 7691.042
258.2309, 7711.447
258.7130, 7730.844
259.1952, 7735.859
259.6773, 7729.238
260.1594, 7724.903
260.6415, 7732.129
261.1236, 7744.709
261.6057, 7743.801
262.0879, 7719.972
262.5700, 7698.928
263.0521, 7689.718
263.5342, 7690.626
264.0163, 7699.129
264.4984, 7715.296
264.9806, 7735.622
265.4627, 7753.032
265.9448, 7766.208
266.4269, 7780.246
266.9090, 7804.048
267.3911, 7826.089
267.8733, 7829.989
268.3554, 7811.536
268.8375, 7782.379
269.3196, 7754.983
269.8017, 7725.356
270.2838, 7714.704
270.7660, 7740.201
271.2481, 7773.156
271.7302, 7791.144
272.2123, 7792.674
272.6944, 7791.237
273.1765, 7801.135
273.6587, 7825.399
274.1408, 7827.062
274.6229, 7783.171
275.1050, 7742.725
275.5871, 7730.705
276.0692, 7741.172
276.5514, 7754.567
277.0335, 7757.834
277.5156, 7752.469
277.9977, 7751.324
278.4798, 7764.521
278.9619, 7770.274
279.4441, 7753.971
279.9262, 7730.583
280.4083, 7725.039
280.8904, 7749.192
281.3725, 7786.793
281.8546, 7793.473
282.3368, 7733.598
282.8189, 7696.104
283.3010, 7695.440
283.7831, 7711.328
284.2652, 7731.826
284.7473, 7751.968
285.2295, 7766.934
285.7116, 7768.540
286.1937, 7751.733
286.6758, 7735.886
287.1579, 7721.951
287.6400, 7708.255
288.1222, 7689.518
288.6043, 7668.739
289.0864, 7656.643
289.5685, 7664.758
290.0506, 7693.196
290.5327, 7720.166
291.0149, 7756.749
291.4970, 7777.671
291.9791, 7767.333
292.4612, 7736.537
292.9433, 7704.250
293.4254, 7679.010
293.9076, 7661.520
294.3897, 7656.056
294.8718, 7670.820
295.3539, 7679.153
295.8360, 7660.466
296.3181, 7635.980
296.8003, 7630.156
297.2824, 7653.110
297.7645, 7684.554
298.2466, 7697.682
298.7287, 7690.903
299.2108, 7686.508
299.6930, 7694.893
300.1751, 7704.226
300.6572, 7699.534
301.1393, 7679.208
301.6214, 7667.536
302.1036, 7686.525
302.5857, 7728.659
303.0678, 7768.083
303.5499, 7804.758
304.0320, 7829.769
304.5142, 7827.160
304.9963, 7803.029
305.4784, 7785.535
305.9605, 7788.000
306.4426, 7799.979
306.9247, 7808.225
307.4069, 7811.884
307.8890, 7814.835
308.3711, 7819.462
308.8532, 7825.618
309.3353, 7831.989
309.8174, 7837.545
310.2996, 7844.262
310.7817, 7855.215
311.2638, 7868.712
311.7459, 7878.699
312.2280, 7881.837
312.7101, 7880.797
313.1923, 7881.863
313.6744, 7880.891
314.1565, 7888.819
314.6386, 7921.398
315.1207, 7958.494
315.6028, 7971.754
316.0850, 7954.542
316.5671, 7927.323
317.0492, 7916.069
317.5313, 7924.550
318.0134, 7940.151
318.4955, 7971.147
318.9777, 8001.896
319.4598, 8022.472
319.9419, 8033.573
320.4240, 8040.386
320.9061, 8045.781
321.3882, 8050.229
321.8704, 8066.489
322.3525, 8109.550
322.8346, 8148.174
323.3167, 8178.967
323.7988, 8200.942
324.2809, 8210.406
324.7631, 8205.150
325.2452, 8194.045
325.7273, 8197.697
326.2094, 8221.145
326.6915, 8249.260
327.1736, 8289.642
327.6558, 8327.001
328.1379, 8347.500
328.6200, 8350.280
329.1021, 8349.157
329.5842, 8357.958
330.0663, 8376.962
330.5485, 8399.170
331.0306, 8431.695
331.5127, 8458.366
331.9948, 8465.525
332.4769, 8460.206
332.9590, 8461.963
333.4412, 8487.572
333.9233, 8524.267
334.4054, 8542.669
334.8875, 8538.463
335.3696, 8533.202
335.8517, 8543.661
336.3339, 8557.225
336.8160, 8553.400
337.2981, 8519.069
337.7802, 8488.045
338.2623, 8493.542
338.7444, 8527.905
339.2266, 8553.821
339.7087, 8557.883
340.1908, 8552.299
340.6729, 8553.774
341.1550, 8561.921
341.6371, 8574.666
342.1193, 8602.535
342.6014, 8629.307
343.0835, 8629.637
343.5656, 8601.256
344.0477, 8573.024
344.5298, 8570.553
345.0120, 8594.731
345.4941, 8613.512
345.9762, 8620.410
346.4583, 8629.000
346.9404, 8653.927
347.4225, 8684.820
347.9047, 8696.297
348.3868, 8674.027
348.8689, 8631.976
349.3510, 8610.391
349.8331, 8629.052
350.3152, 8642.814
350.7974, 8646.865
351.2795, 8648.130
351.7616, 8652.819
352.2437, 8661.881
352.7258, 8671.519
353.2079, 8676.633
353.6901, 8675.717
354.1722, 8679.928
354.6543, 8694.206
355.1364, 8709.307
355.6185, 8722.613
356.1006, 8734.509
356.5828, 8745.857
357.0649, 8756.956
357.5470, 8768.247
358.0291, 8779.563
358.5112, 8788.026
358.9933, 8804.902
359.4755, 8843.118
359.9576, 8886.702
360.4397, 8920.988
360.9218, 8942.477
361.4039, 8962.083
361.8860, 8990.786
362.3682, 9026.252
362.8503, 9053.856
363.3324, 9064.928
363.8145, 9078.917
364.2966, 9118.683
364.7787, 9179.820
365.2609, 9239.648
365.7430, 9297.511
366.2251, 9348.138
366.7072, 9377.390
367.1893, 9387.728
367.6714, 9409.200
368.1536, 9462.350
368.6357, 9539.514
369.1178, 9609.938
369.5999, 9671.457
370.0820, 9729.417
370.5641, 9781.482
371.0463, 9832.308
371.5284, 9889.000
372.0105, 9953.826
372.4926, 10023.04
372.9747, 10093.81
373.4568, 10175.02
373.9390, 10227.41
374.4211, 10243.85
374.9032, 10243.13
375.3853, 10229.98
375.8674, 10207.75
376.3495, 10182.40
376.8317, 10159.27
377.3138, 10134.67
377.7959, 10089.89
378.2780, 10016.55
378.7601, 9935.831
379.2422, 9847.042
379.7244, 9757.032
380.2065, 9675.218
380.6886, 9603.947
381.1707, 9532.592
381.6528, 9442.336
382.1349, 9334.074
382.6171, 9253.367
383.0992, 9226.737
383.5813, 9202.008
384.0634, 9137.395
384.5455, 9043.255
385.0276, 8954.172
385.5098, 8881.704
385.9919, 8823.317
386.4740, 8779.971
386.9561, 8751.463
387.4382, 8722.118
387.9203, 8683.094
388.4025, 8638.742
388.8846, 8598.763
389.3667, 8558.621
389.8488, 8531.268
390.3309, 8533.450
390.8130, 8546.277
391.2952, 8540.864
391.7773, 8511.140
392.2594, 8474.115
392.7415, 8448.656
393.2236, 8436.828
393.7057, 8424.095
394.1879, 8407.756
394.6700, 8393.406
395.1521, 8382.112
395.6342, 8374.718
396.1163, 8375.139
396.5984, 8386.354
397.0806, 8400.163
397.5627, 8392.795
398.0448, 8349.905
398.5269, 8315.295
399.0090, 8289.401
399.4911, 8275.479
399.9733, 8281.618
400.4554, 8305.328
400.9375, 8330.027
401.4196, 8341.260
401.9017, 8340.628
402.3839, 8336.827
402.8660, 8324.720
403.3481, 8320.483
403.8302, 8343.696
404.3123, 8378.117
404.7944, 8398.354
405.2766, 8395.840
405.7587, 8382.781
406.2408, 8361.874
406.7229, 8337.187
407.2050, 8330.044
407.6871, 8353.026
408.1693, 8381.013
408.6514, 8376.953
409.1335, 8337.670
409.6156, 8296.102
410.0977, 8238.518
410.5798, 8193.517
411.0620, 8194.363
411.5441, 8232.623
412.0262, 8267.537
412.5083, 8273.030
412.9904, 8253.155
413.4725, 8228.462
413.9547, 8185.122
414.4368, 8154.119
414.9189, 8145.696
415.4010, 8145.579
415.8831, 8141.050
416.3652, 8129.399
416.8474, 8115.680
417.3295, 8105.688
417.8116, 8099.711
418.2937, 8091.990
418.7758, 8080.744
419.2579, 8070.114
419.7401, 8063.241
420.2222, 8057.844
420.7043, 8050.073
421.1864, 8038.357
421.6685, 8024.048
422.1506, 8005.917
422.6328, 7984.587
423.1149, 7973.046
423.5970, 7980.286
424.0791, 7991.487
424.5612, 7985.011
425.0433, 7960.648
425.5255, 7943.821
426.0076, 7948.902
426.4897, 7959.299
426.9718, 7959.272
427.4539, 7948.682
427.9360, 7934.072
428.4182, 7918.490
428.9003, 7903.164
429.3824, 7894.031
429.8645, 7892.594
430.3466, 7895.362
430.8287, 7905.515
431.3109, 7917.712
431.7930, 7928.031
432.2751, 7935.270
432.7572, 7938.986
433.2393, 7938.845
433.7214, 7934.847
434.2036, 7925.802
434.6857, 7903.778
435.1678, 7887.396
435.6499, 7883.271
436.1320, 7887.985
436.6141, 7898.657
437.0963, 7915.900
437.5784, 7931.696
438.0605, 7935.996
438.5426, 7929.472
439.0247, 7917.689
439.5068, 7894.751
439.9890, 7878.839
440.4711, 7900.983
440.9532, 7953.736
441.4353, 7982.925
441.9174, 7960.497
442.3995, 7923.190
442.8817, 7892.251
443.3638, 7870.954
443.8459, 7868.572
444.3280, 7891.989
444.8101, 7929.784
445.2922, 7954.833
445.7744, 7953.845
446.2565, 7960.829
446.7386, 7991.700
447.2207, 8018.167
447.7028, 8014.589
448.1849, 7985.348
448.6671, 7955.122
449.1492, 7942.334
449.6313, 7944.686
450.1134, 7951.048
450.5955, 7966.313
451.0776, 7975.593
451.5598, 7969.436
452.0419, 7959.023
452.5240, 7955.231
453.0061, 7959.960
453.4882, 7963.913
453.9703, 7961.147
454.4525, 7952.037
454.9346, 7935.352
455.4167, 7909.030
455.8988, 7885.044
456.3809, 7871.106
456.8630, 7867.210
457.3452, 7869.620
457.8273, 7889.161
458.3094, 7902.324
458.7915, 7892.405
459.2736, 7871.978
459.7557, 7860.001
460.2379, 7861.821
460.7200, 7872.240
461.2021, 7885.380
461.6842, 7901.338
462.1663, 7919.237
462.6484, 7945.922
463.1306, 7966.961
463.6127, 7974.264
464.0948, 7973.951
464.5769, 7975.270
465.0590, 7982.015
465.5411, 7992.727
466.0233, 8007.757
466.5054, 8028.145
466.9875, 8038.757
467.4696, 8027.781
467.9518, 8018.624
468.4339, 8037.341
468.9160, 8074.358
469.3981, 8093.577
469.8802, 8062.990
470.3623, 8024.619
470.8445, 8023.104
471.3266, 8050.494
471.8087, 8071.076
472.2908, 8069.311
472.7729, 8057.744
473.2550, 8058.942
473.7372, 8084.027
474.2193, 8093.516
474.7014, 8070.487
475.1835, 8046.336
475.6656, 8040.785
476.1477, 8050.914
476.6299, 8065.057
477.1120, 8076.791
477.5941, 8086.297
478.0762, 8094.250
478.5583, 8101.046
479.0404, 8105.193
479.5226, 8105.459
480.0047, 8103.674
480.4868, 8102.518
480.9689, 8100.981
481.4510, 8093.502
481.9331, 8070.187
482.4153, 8041.713
482.8974, 8024.603
483.3795, 8018.973
483.8616, 8026.943
484.3437, 8056.221
484.8258, 8093.078
485.3080, 8106.524
485.7901, 8090.145
486.2722, 8075.978
486.7543, 8071.104
487.2364, 8069.735
487.7185, 8063.507
488.2007, 8054.978
488.6828, 8057.330
489.1649, 8080.948
489.6470, 8119.449
490.1291, 8147.393
490.6112, 8162.834
491.0934, 8170.303
491.5755, 8167.226
492.0576, 8159.818
492.5397, 8149.108
493.0218, 8137.087
493.5039, 8131.076
493.9861, 8140.812
494.4682, 8159.152
494.9503, 8165.733
495.4324, 8158.437
495.9145, 8159.513
496.3966, 8184.661
496.8788, 8220.016
497.3609, 8238.784
497.8430, 8236.660
498.3251, 8235.188
498.8072, 8246.052
499.2893, 8256.370
499.7715, 8247.829
500.2536, 8223.861
500.7357, 8208.706
501.2178, 8220.724
501.6999, 8251.143
502.1820, 8261.509
502.6642, 8232.445
503.1463, 8215.229
503.6284, 8223.515
504.1105, 8236.969
504.5926, 8242.860
505.0747, 8239.708
505.5569, 8230.112
506.0390, 8207.100
506.5211, 8182.446
507.0032, 8190.929
507.4853, 8236.699
507.9674, 8277.896
508.4496, 8297.716
508.9317, 8303.525
509.4138, 8308.874
509.8959, 8315.730
510.3780, 8312.617
510.8601, 8287.374
511.3423, 8257.524
511.8244, 8235.438
512.3065, 8223.122
512.7886, 8223.958
513.2707, 8241.633
513.7528, 8267.900
514.2349, 8277.022
514.7170, 8257.595
515.1992, 8242.834
515.6813, 8237.570
516.1634, 8234.419
516.6455, 8226.395
517.1276, 8216.012
517.6097, 8213.882
518.0919, 8234.012
518.5740, 8257.785
519.0561, 8242.651
519.5382, 8188.334
520.0203, 8157.904
520.5024, 8181.133
520.9846, 8223.055
521.4667, 8231.860
521.9488, 8206.101
522.4309, 8192.124
522.9130, 8212.084
523.3951, 8232.003
523.8773, 8224.575
524.3594, 8198.746
524.8415, 8178.677
525.3236, 8175.219
525.8057, 8180.826
526.2878, 8180.866
526.7700, 8170.819
527.2521, 8169.418
527.7342, 8191.123
528.2163, 8207.334
528.6984, 8197.382
529.1805, 8174.807
529.6627, 8168.903
530.1448, 8195.765
530.6269, 8230.532
531.1090, 8245.476
531.5911, 8244.713
532.0732, 8247.122
532.5554, 8257.495
533.0375, 8268.577
533.5196, 8274.566
534.0017, 8275.112
534.4838, 8268.819
534.9659, 8238.433
535.4481, 8221.496
535.9302, 8243.448
536.4123, 8280.544
536.8944, 8301.859
537.3765, 8300.038
537.8586, 8289.690
538.3408, 8287.081
538.8229, 8291.825
539.3050, 8289.248
539.7871, 8273.074
540.2692, 8261.300
540.7513, 8263.949
541.2335, 8273.197
541.7156, 8282.734
542.1977, 8292.633
542.6798, 8295.279
543.1619, 8276.396
543.6440, 8251.933
544.1262, 8251.544
544.6083, 8275.167
545.0904, 8293.995
545.5725, 8290.009
546.0546, 8268.290
546.5367, 8245.536
547.0189, 8212.801
547.5010, 8192.663
547.9831, 8200.764
548.4652, 8208.326
548.9474, 8188.952
549.4295, 8150.945
549.9116, 8126.511
550.3937, 8140.864
550.8759, 8169.657
551.3580, 8159.192
551.8401, 8106.875
552.3222, 8070.289
552.8043, 8069.633
553.2864, 8080.067
553.7686, 8074.920
554.2507, 8056.298
554.7328, 8039.152
555.2149, 8029.008
555.6970, 8017.588
556.1791, 7997.776
556.6613, 7973.919
557.1434, 7952.928
557.6255, 7937.250
558.1076, 7928.185
558.5897, 7929.253
559.0718, 7941.876
559.5540, 7945.053
560.0361, 7933.336
560.5182, 7919.539
561.0003, 7905.203
561.4824, 7892.568
561.9645, 7886.697
562.4467, 7889.573
562.9288, 7886.556
563.4109, 7860.337
563.8930, 7824.057
564.3751, 7803.961
564.8572, 7801.327
565.3394, 7794.979
565.8215, 7768.890
566.3036, 7735.032
566.7857, 7728.885
567.2678, 7786.442
567.7499, 7815.599
568.2321, 7794.696
568.7142, 7764.733
569.1963, 7749.096
569.6784, 7746.609
570.1605, 7748.354
570.6426, 7751.035
571.1248, 7750.432
571.6069, 7732.881
572.0890, 7698.755
572.5711, 7687.784
573.0532, 7718.955
573.5353, 7752.398
574.0175, 7753.376
574.4996, 7725.752
574.9817, 7691.580
575.4638, 7638.793
575.9459, 7595.516
576.4280, 7572.134
576.9102, 7565.667
577.3923, 7581.366
577.8744, 7615.131
578.3565, 7639.629
578.8386, 7626.897
579.3207, 7582.024
579.8029, 7542.966
580.2850, 7503.274
580.7671, 7483.392
581.2492, 7510.615
581.7313, 7545.960
582.2134, 7558.824
582.6956, 7548.087
583.1777, 7530.640
583.6598, 7511.345
584.1419, 7490.584
584.6240, 7463.276
585.1061, 7434.074
585.5883, 7421.113
586.0704, 7432.662
586.5525, 7451.897
587.0346, 7454.046
587.5167, 7436.272
587.9988, 7415.158
588.4810, 7382.129
588.9631, 7355.455
589.4452, 7344.037
589.9273, 7340.249
590.4094, 7335.097
590.8915, 7326.214
591.3737, 7314.862
591.8558, 7302.282
592.3379, 7287.985
592.8200, 7269.951
593.3021, 7248.008
593.7842, 7226.141
594.2664, 7206.367
594.7485, 7188.414
595.2306, 7171.610
595.7127, 7154.579
596.1948, 7141.655
596.6769, 7132.644
597.1591, 7127.925
597.6412, 7130.688
598.1233, 7137.433
598.6054, 7141.646
599.0875, 7140.386
599.5696, 7135.128
600.0518, 7125.918
600.5339, 7113.393
601.0160, 7105.964
601.4981, 7105.737
601.9802, 7107.030
602.4623, 7106.810
602.9445, 7104.927
603.4266, 7101.032
603.9087, 7091.971
604.3908, 7086.213
604.8729, 7090.076
605.3550, 7094.984
605.8372, 7093.352
606.3193, 7085.192
606.8014, 7072.896
607.2835, 7056.688
607.7656, 7042.056
608.2477, 7046.814
608.7299, 7076.204
609.2120, 7083.565
609.6941, 7048.099
610.1762, 7008.706
610.6583, 6995.229
611.1404, 7001.728
611.6226, 7012.506
612.1047, 7032.700
612.5868, 7046.759
613.0689, 7046.240
613.5510, 7036.313
614.0331, 7022.111
614.5153, 7005.273
614.9974, 6986.504
615.4795, 6964.795
615.9616, 6944.048
616.4437, 6943.192
616.9258, 6972.979
617.4080, 6988.756
617.8901, 6971.248
618.3722, 6947.978
618.8543, 6941.961
619.3364, 6948.353
619.8185, 6946.087
620.3007, 6917.964
620.7828, 6892.083
621.2649, 6890.300
621.7470, 6902.523
622.2291, 6913.511
622.7112, 6919.231
623.1934, 6917.934
623.6755, 6906.685
624.1576, 6887.598
624.6397, 6874.840
625.1218, 6867.862
625.6039, 6868.413
626.0861, 6888.833
626.5682, 6907.459
627.0503, 6905.111
627.5324, 6885.826
628.0145, 6873.484
628.4966, 6880.573
628.9788, 6894.487
629.4609, 6911.367
629.9430, 6926.053
630.4251, 6922.839
630.9072, 6899.106
631.3893, 6873.792
631.8715, 6865.532
632.3536, 6873.122
632.8357, 6883.495
633.3178, 6902.677
633.7999, 6913.851
634.2820, 6908.248
634.7642, 6898.473
635.2463, 6892.179
635.7284, 6889.935
636.2105, 6890.896
636.6926, 6902.184
637.1747, 6909.231
637.6569, 6893.990
638.1390, 6864.416
638.6211, 6838.625
639.1032, 6821.450
639.5853, 6810.180
640.0674, 6802.638
640.5496, 6798.661
641.0317, 6796.671
641.5138, 6799.685
641.9959, 6799.457
642.4780, 6791.046
642.9601, 6781.933
643.4423, 6776.502
643.9244, 6775.239
644.4065, 6778.378
644.8886, 6796.716
645.3707, 6808.240
645.8528, 6785.565
646.3350, 6741.238
646.8171, 6703.834
647.2992, 6680.227
647.7813, 6666.200
648.2634, 6657.876
648.7455, 6655.426
649.2277, 6660.934
649.7098, 6677.725
650.1919, 6696.464
650.6740, 6727.101
651.1561, 6749.739
651.6382, 6745.956
652.1204, 6720.706
652.6025, 6697.180
653.0846, 6680.888
653.5667, 6673.359
654.0488, 6681.170
654.5309, 6697.457
655.0131, 6710.202
655.4952, 6716.508
655.9773, 6713.931
656.4594, 6698.550
656.9415, 6674.438
657.4236, 6663.856
657.9058, 6675.900
658.3879, 6680.495
658.8700, 6661.037
659.3521, 6644.272
659.8342, 6654.510
660.3163, 6681.127
660.7985, 6689.430
661.2806, 6659.278
661.7627, 6625.262
662.2448, 6610.557
662.7269, 6606.283
663.2090, 6600.193
663.6912, 6590.188
664.1733, 6577.813
664.6554, 6564.229
665.1375, 6549.061
665.6196, 6529.365
666.1017, 6500.561
666.5839, 6484.462
667.0660, 6488.302
667.5481, 6499.616
668.0302, 6516.895
668.5123, 6534.839
668.9944, 6542.029
669.4766, 6536.259
669.9587, 6520.161
670.4408, 6477.096
670.9229, 6436.211
671.4050, 6436.838
671.8871, 6471.976
672.3693, 6505.926
672.8514, 6519.552
673.3335, 6515.409
673.8156, 6490.932
674.2977, 6442.430
674.7798, 6420.103
675.2620, 6437.429
675.7441, 6458.421
676.2262, 6460.846
676.7083, 6454.648
677.1904, 6461.353
677.6725, 6487.655
678.1547, 6506.258
678.6368, 6507.284
679.1189, 6501.600
