##NAMES=Elbaite
##RRUFFID=R060631
##IDEAL CHEMISTRY=Na(Al_1.5_Li_1.5_)Al_6_(Si_6_O_18_)(BO_3_)_3_(OH)_3_OH
##LOCALITY=unknown
##OWNER=RRUFF
##SOURCE=Gemological Institute of America
##DESCRIPTION=Pink polished fragment
##STATUS=The identification of this mineral is confirmed by single-crystal X-ray diffraction and chemical analysis.
##URL=rruff.info/R060631
##MEASURED CHEMISTRY=(Na_0.55_Ca_0.34_[box]_0.11_)(Li_1.53_Al_1.30_Mn_0.14_Fe^2+^_0.03_)Al_6.00_(BO_3_)_3_[Si_6.00_O_18_]((OH)_0.82_F_0.18_)_4_
92.10938, 14.21811
92.59149, 14.28192
93.07361, 14.25289
93.55573, 14.13913
94.03784, 14.04307
94.51996, 14.03691
95.00208, 14.11689
95.48419, 14.28007
95.96631, 14.64097
96.44843, 15.06380
96.93054, 15.09939
97.41266, 14.69994
97.89478, 14.16821
98.37689, 13.82329
98.85901, 13.67135
99.34113, 13.66123
99.82324, 13.80385
100.3054, 14.09783
100.7875, 14.42491
101.2696, 14.79380
101.7517, 15.18508
102.2338, 15.57387
102.7159, 15.95845
103.1981, 16.33885
103.6802, 16.66340
104.1623, 16.82491
104.6444, 17.30670
105.1265, 18.23851
105.6086, 19.49325
106.0908, 20.58854
106.5729, 21.21678
107.0550, 22.03795
107.5371, 23.45700
108.0192, 26.03868
108.5013, 28.38501
108.9835, 30.19253
109.4656, 31.48476
109.9477, 33.32690
110.4298, 35.91000
110.9119, 38.94415
111.3940, 42.29549
111.8762, 45.59927
112.3583, 49.54575
112.8404, 54.49028
113.3225, 60.51733
113.8046, 66.46096
114.2867, 72.11122
114.7689, 77.67673
115.2510, 83.33629
115.7331, 88.94303
116.2152, 94.86374
116.6973, 101.2896
117.1794, 108.3605
117.6616, 115.4025
118.1437, 122.3528
118.6258, 129.1555
119.1079, 135.4809
119.5900, 140.7509
120.0721, 145.8570
120.5543, 151.2870
121.0364, 156.9708
121.5185, 163.3318
122.0006, 171.1149
122.4827, 179.9160
122.9648, 188.7043
123.4470, 196.2799
123.9291, 203.6619
124.4112, 212.0025
124.8933, 221.7923
125.3754, 232.2712
125.8575, 242.9897
126.3397, 253.8721
126.8218, 264.4992
127.3039, 273.7664
127.7860, 282.5040
128.2681, 292.4295
128.7502, 304.7544
129.2324, 318.0439
129.7145, 329.8253
130.1966, 340.1558
130.6787, 349.4253
131.1608, 357.9124
131.6429, 365.5716
132.1251, 372.5579
132.6072, 378.7767
133.0893, 384.3294
133.5714, 389.6952
134.0535, 394.8403
134.5356, 399.9536
135.0178, 405.5016
135.4999, 411.4796
135.9820, 416.8856
136.4641, 420.8619
136.9462, 423.5040
137.4283, 427.5818
137.9105, 433.1921
138.3926, 440.1289
138.8747, 448.4041
139.3568, 458.5627
139.8389, 468.1385
140.3210, 475.6334
140.8032, 480.4316
141.2853, 486.7015
141.7674, 494.7353
142.2495, 504.0679
142.7316, 513.0994
143.2137, 520.1664
143.6959, 524.1810
144.1780, 527.4523
144.6601, 529.1436
145.1422, 532.3908
145.6243, 537.6554
146.1064, 544.4904
146.5886, 551.7484
147.0707, 561.3925
147.5528, 569.2951
148.0349, 573.0090
148.5170, 570.2022
148.9991, 567.0999
149.4813, 563.5357
149.9634, 559.6530
150.4455, 557.2388
150.9276, 557.0371
151.4097, 557.7172
151.8918, 558.4539
152.3740, 559.7736
152.8561, 560.5604
153.3382, 560.6994
153.8203, 560.1970
154.3024, 559.2136
154.7845, 557.0175
155.2667, 554.7440
155.7488, 553.2139
156.2309, 553.7074
156.7130, 553.8104
157.1951, 552.6849
157.6772, 550.2460
158.1594, 548.3541
158.6415, 547.5727
159.1236, 547.4534
159.6057, 547.5587
160.0878, 548.3246
160.5699, 548.8116
161.0521, 548.3333
161.5342, 546.6565
162.0163, 545.8112
162.4984, 547.3422
162.9805, 549.8912
163.4626, 551.7413
163.9448, 551.7711
164.4269, 551.3521
164.9090, 551.1708
165.3911, 551.3156
165.8732, 551.5798
166.3553, 551.7084
166.8375, 551.9042
167.3196, 552.5021
167.8017, 554.0336
168.2838, 555.7787
168.7659, 557.2589
169.2480, 558.4135
169.7302, 559.3011
170.2123, 559.5837
170.6944, 559.5944
171.1765, 560.0790
171.6586, 562.1052
172.1407, 564.4532
172.6229, 565.7789
173.1050, 565.5700
173.5871, 565.2327
174.0692, 566.1347
174.5513, 567.9412
175.0334, 569.6622
175.5156, 570.6043
175.9977, 571.1470
176.4798, 571.8032
176.9619, 572.6915
177.4440, 573.6710
177.9261, 573.9285
178.4083, 573.8541
178.8904, 575.1779
179.3725, 581.6928
179.8546, 590.1212
180.3367, 593.3108
180.8188, 587.9753
181.3010, 580.3953
181.7831, 579.9991
182.2652, 585.9928
182.7473, 592.1238
183.2294, 593.5463
183.7115, 591.5203
184.1937, 589.3438
184.6758, 587.3271
185.1579, 585.8721
185.6400, 585.8467
186.1221, 587.2064
186.6042, 588.9431
187.0864, 590.2599
187.5685, 591.2747
188.0506, 592.3812
188.5327, 593.5183
189.0148, 594.9379
189.4969, 597.4701
189.9791, 601.1493
190.4612, 605.0457
190.9433, 608.2562
191.4254, 610.8845
191.9075, 614.1203
192.3896, 618.5198
192.8718, 623.5262
193.3539, 627.3328
193.8360, 629.7980
194.3181, 632.4625
194.8002, 637.0287
195.2823, 643.4799
195.7645, 649.5002
196.2466, 654.3408
196.7287, 658.3821
197.2108, 663.2585
197.6929, 669.0765
198.1750, 675.1680
198.6572, 680.8662
199.1393, 686.1096
199.6214, 691.5164
200.1035, 697.1935
200.5856, 703.1310
201.0677, 709.1029
201.5499, 715.1155
202.0320, 721.2352
202.5141, 727.7335
202.9962, 734.7445
203.4783, 741.0692
203.9604, 746.1354
204.4426, 750.1882
204.9247, 755.2881
205.4068, 761.5579
205.8889, 768.4811
206.3710, 775.6039
206.8531, 782.9642
207.3353, 790.3829
207.8174, 797.7324
208.2995, 805.0593
208.7816, 812.9550
209.2637, 821.3303
209.7458, 830.2756
210.2280, 839.8251
210.7101, 849.9453
211.1922, 860.7830
211.6743, 872.5612
212.1564, 885.1427
212.6385, 897.6130
213.1207, 909.5535
213.6028, 921.8157
214.0849, 935.1517
214.5670, 949.2853
215.0491, 964.9575
215.5313, 982.6647
216.0134, 1002.471
216.4955, 1021.724
216.9776, 1039.987
217.4597, 1058.521
217.9418, 1079.133
218.4239, 1102.336
218.9061, 1125.822
219.3882, 1149.792
219.8703, 1174.070
220.3524, 1195.542
220.8345, 1213.938
221.3166, 1229.566
221.7988, 1243.018
222.2809, 1254.568
222.7630, 1263.054
223.2451, 1268.227
223.7272, 1270.129
224.2093, 1268.640
224.6915, 1263.623
225.1736, 1255.319
225.6557, 1243.855
226.1378, 1227.743
226.6199, 1211.231
227.1020, 1195.022
227.5842, 1178.977
228.0663, 1163.348
228.5484, 1147.942
229.0305, 1132.940
229.5126, 1118.344
229.9947, 1103.735
230.4769, 1090.409
230.9590, 1078.431
231.4411, 1067.853
231.9232, 1058.737
232.4053, 1051.341
232.8874, 1045.011
233.3696, 1039.136
233.8517, 1033.540
234.3338, 1028.761
234.8159, 1024.964
235.2980, 1022.114
235.7801, 1019.811
236.2623, 1018.133
236.7444, 1016.936
237.2265, 1016.068
237.7086, 1015.318
238.1907, 1015.317
238.6728, 1016.118
239.1550, 1017.729
239.6371, 1020.366
240.1192, 1024.685
240.6013, 1029.285
241.0834, 1032.995
241.5655, 1035.279
242.0477, 1037.664
242.5298, 1040.610
243.0119, 1043.956
243.4940, 1046.056
243.9761, 1046.378
244.4582, 1046.060
244.9404, 1046.033
245.4225, 1047.123
245.9046, 1046.777
246.3867, 1044.370
246.8688, 1040.184
247.3509, 1036.278
247.8331, 1033.400
248.3152, 1029.856
248.7973, 1024.451
249.2794, 1016.315
249.7615, 1008.070
250.2436, 999.7620
250.7258, 991.4932
251.2079, 983.9197
251.6900, 977.2599
252.1721, 970.9972
252.6542, 964.9278
253.1363, 959.5038
253.6185, 953.2360
254.1006, 945.5079
254.5827, 936.9598
255.0648, 930.1317
255.5469, 925.9603
256.0291, 922.1260
256.5112, 917.2919
256.9933, 910.5931
257.4754, 905.0931
257.9575, 901.1956
258.4396, 898.4580
258.9218, 895.7677
259.4039, 893.0616
259.8860, 890.4840
260.3681, 888.1503
260.8502, 886.2623
261.3323, 883.8980
261.8145, 880.6193
262.2966, 877.1122
262.7787, 874.9513
263.2608, 874.6329
263.7429, 874.5511
264.2250, 873.8964
264.7072, 872.3011
265.1893, 871.6653
265.6714, 872.4561
266.1535, 873.7724
266.6356, 873.9627
267.1177, 872.7142
267.5999, 871.1279
268.0820, 869.5406
268.5641, 867.9181
269.0462, 866.5583
269.5283, 865.6924
270.0104, 864.8137
270.4926, 863.1172
270.9747, 860.4541
271.4568, 857.5227
271.9389, 854.4835
272.4210, 851.3172
272.9031, 848.3898
273.3853, 845.7200
273.8674, 843.2810
274.3495, 841.1302
274.8316, 839.2782
275.3137, 837.6369
275.7958, 836.4960
276.2780, 835.7115
276.7601, 832.9979
277.2422, 827.7001
277.7243, 822.1068
278.2064, 818.8486
278.6885, 818.2033
279.1707, 817.3951
279.6528, 815.7726
280.1349, 813.4662
280.6170, 811.2078
281.0991, 809.0866
281.5812, 806.6846
282.0634, 803.7411
282.5455, 800.2317
283.0276, 795.9657
283.5097, 790.3900
283.9918, 784.3461
284.4739, 780.8157
284.9561, 780.0719
285.4382, 779.8317
285.9203, 778.3619
286.4024, 775.7399
286.8845, 773.2026
287.3666, 771.1395
287.8488, 768.9900
288.3309, 764.8611
288.8130, 758.6711
289.2951, 753.5389
289.7772, 752.3066
290.2593, 754.2587
290.7415, 755.2562
291.2236, 754.9537
291.7057, 753.4432
292.1878, 749.9938
292.6699, 744.8351
293.1520, 740.7197
293.6342, 739.8555
294.1163, 741.3538
294.5984, 742.3936
295.0805, 742.8623
295.5626, 742.7867
296.0447, 742.0289
296.5269, 740.6881
297.0090, 739.2336
297.4911, 737.5543
297.9732, 735.9615
298.4553, 735.2510
298.9374, 735.4606
299.4196, 736.1373
299.9017, 736.6893
300.3838, 737.3094
300.8659, 738.5641
301.3480, 741.2134
301.8301, 744.3383
302.3123, 746.3882
302.7944, 747.4185
303.2765, 748.5121
303.7586, 751.0491
304.2407, 754.2187
304.7228, 756.5075
305.2050, 756.5558
305.6871, 756.4094
306.1692, 758.6430
306.6513, 762.9225
307.1334, 767.1395
307.6155, 769.9910
308.0977, 771.9725
308.5798, 773.5945
309.0619, 774.5949
309.5440, 775.9865
310.0261, 778.9539
310.5082, 783.0652
310.9904, 786.9955
311.4725, 790.0612
311.9546, 792.6445
312.4367, 794.9189
312.9188, 796.6369
313.4009, 798.8995
313.8831, 803.0988
314.3652, 808.2451
314.8473, 812.5348
315.3294, 814.9628
315.8115, 816.5201
316.2936, 817.7947
316.7758, 818.8641
317.2579, 819.5573
317.7400, 819.8062
318.2221, 819.6481
318.7042, 819.1383
319.1863, 818.2053
319.6685, 817.0111
320.1506, 815.4835
320.6327, 813.6168
321.1148, 811.9452
321.5969, 810.0848
322.0790, 808.7590
322.5612, 808.5314
323.0433, 811.2471
323.5254, 813.2712
324.0075, 812.9102
324.4896, 810.6236
324.9717, 809.9976
325.4539, 813.4676
325.9360, 817.4861
326.4181, 820.0082
326.9002, 818.3780
327.3823, 818.4245
327.8644, 822.1827
328.3466, 828.1131
328.8287, 831.4894
329.3108, 829.6519
329.7929, 827.4984
330.2750, 826.8209
330.7571, 828.4623
331.2393, 829.6211
331.7214, 830.0095
332.2035, 830.0164
332.6856, 830.2800
333.1677, 831.0610
333.6498, 831.7035
334.1320, 831.9581
334.6141, 831.7343
335.0962, 831.7653
335.5783, 832.0878
336.0604, 832.6292
336.5425, 833.2965
337.0247, 834.0159
337.5068, 835.0897
337.9889, 836.6834
338.4710, 838.7310
338.9531, 840.7019
339.4352, 842.6517
339.9173, 844.4542
340.3994, 845.9927
340.8816, 847.2741
341.3637, 848.2792
341.8458, 848.7716
342.3279, 849.1924
342.8100, 850.8125
343.2921, 853.7156
343.7743, 857.1751
344.2564, 860.9144
344.7385, 864.9379
345.2206, 868.7516
345.7027, 872.4064
346.1848, 875.7432
346.6670, 878.3551
347.1491, 880.2889
347.6312, 882.3079
348.1133, 884.9987
348.5954, 888.0524
349.0775, 890.1927
349.5597, 891.3229
350.0418, 892.6969
350.5239, 895.7238
351.0060, 900.0756
351.4881, 904.6466
351.9702, 909.1863
352.4524, 913.6819
352.9345, 917.7723
353.4166, 921.5533
353.8987, 925.8795
354.3808, 931.5709
354.8629, 938.1389
355.3451, 944.6723
355.8272, 950.8049
356.3093, 957.2484
356.7914, 964.8640
357.2735, 973.3770
357.7556, 981.8647
358.2378, 989.2028
358.7199, 996.5896
359.2020, 1004.822
359.6841, 1013.902
360.1662, 1024.332
360.6483, 1036.671
361.1305, 1050.464
361.6126, 1065.078
362.0947, 1080.769
362.5768, 1096.803
363.0589, 1112.602
363.5410, 1128.189
364.0232, 1145.223
364.5053, 1164.339
364.9874, 1185.088
365.4695, 1207.122
365.9516, 1230.042
366.4337, 1254.636
366.9159, 1281.614
367.3980, 1310.631
367.8801, 1340.437
368.3622, 1369.043
368.8443, 1399.508
369.3264, 1433.280
369.8086, 1472.575
370.2907, 1511.553
370.7728, 1550.369
371.2549, 1588.722
371.7370, 1626.018
372.2191, 1663.816
372.7013, 1698.648
373.1834, 1730.710
373.6655, 1761.024
374.1476, 1780.113
374.6297, 1785.793
375.1118, 1782.574
375.5940, 1774.532
376.0761, 1762.356
376.5582, 1743.263
377.0403, 1715.313
377.5224, 1680.403
378.0045, 1645.287
378.4867, 1610.778
378.9688, 1575.548
379.4509, 1538.031
379.9330, 1498.459
380.4151, 1460.686
380.8972, 1425.324
381.3794, 1391.879
381.8615, 1360.375
382.3436, 1330.411
382.8257, 1302.343
383.3078, 1275.793
383.7899, 1250.932
384.2721, 1227.181
384.7542, 1204.567
385.2363, 1184.089
385.7184, 1167.070
386.2005, 1153.029
386.6826, 1139.637
387.1648, 1126.182
387.6469, 1113.321
388.1290, 1101.469
388.6111, 1090.755
389.0932, 1081.581
389.5753, 1074.856
390.0575, 1069.491
390.5396, 1063.951
391.0217, 1057.641
391.5038, 1052.016
391.9859, 1048.018
392.4680, 1045.420
392.9502, 1043.764
393.4323, 1043.377
393.9144, 1043.477
394.3965, 1043.625
394.8786, 1043.776
395.3607, 1044.135
395.8429, 1044.335
396.3250, 1044.983
396.8071, 1046.615
397.2892, 1050.210
397.7713, 1053.880
398.2534, 1057.144
398.7356, 1060.115
399.2177, 1063.284
399.6998, 1066.410
400.1819, 1069.999
400.6640, 1074.359
401.1461, 1080.126
401.6283, 1085.350
402.1104, 1089.773
402.5925, 1093.758
403.0746, 1098.033
403.5567, 1103.244
404.0388, 1107.515
404.5210, 1110.031
405.0031, 1110.783
405.4852, 1112.609
405.9673, 1116.257
406.4494, 1119.580
406.9315, 1120.584
407.4137, 1119.027
407.8958, 1117.211
408.3779, 1115.586
408.8600, 1113.785
409.3421, 1111.125
409.8242, 1107.658
410.3064, 1102.676
410.7885, 1095.035
411.2706, 1085.283
411.7527, 1076.268
412.2348, 1068.096
412.7169, 1060.350
413.1991, 1053.140
413.6812, 1046.077
414.1633, 1038.099
414.6454, 1028.499
415.1275, 1018.025
415.6096, 1007.649
416.0918, 997.4022
416.5739, 986.8546
417.0560, 974.9470
417.5381, 962.8978
418.0202, 952.1815
418.5023, 943.4432
418.9845, 935.2204
419.4666, 926.6716
419.9487, 918.0365
420.4308, 909.9658
420.9129, 903.2856
421.3951, 896.6725
421.8772, 888.9198
422.3593, 879.9390
422.8414, 872.2568
423.3235, 867.4822
423.8056, 863.8531
424.2878, 860.0165
424.7699, 855.1312
425.2520, 850.7883
425.7341, 847.3389
426.2162, 844.6527
426.6983, 842.0918
427.1805, 839.6041
427.6626, 837.3345
428.1447, 835.3554
428.6268, 833.7767
429.1089, 832.0867
429.5910, 830.0678
430.0732, 828.1359
430.5553, 826.9991
431.0374, 827.0615
431.5195, 826.2142
432.0016, 823.5685
432.4837, 819.6652
432.9659, 817.0500
433.4480, 815.8168
433.9301, 815.2527
434.4122, 815.1907
434.8943, 815.4995
435.3764, 815.1541
435.8586, 813.9537
436.3407, 812.4129
436.8228, 811.0691
437.3049, 809.9526
437.7870, 809.2039
438.2691, 808.7995
438.7513, 808.8398
439.2334, 809.7930
439.7155, 811.5964
440.1976, 813.1131
440.6797, 813.2252
441.1618, 812.7004
441.6440, 812.4614
442.1261, 812.8153
442.6082, 813.3547
443.0903, 813.9291
443.5724, 814.5109
444.0545, 815.0421
444.5367, 815.9684
445.0188, 816.4219
445.5009, 815.6944
445.9830, 813.5233
446.4651, 811.9017
446.9472, 811.1565
447.4294, 811.1140
447.9115, 811.6371
448.3936, 813.4352
448.8757, 814.8851
449.3578, 815.7052
449.8399, 816.0851
450.3221, 816.7936
450.8042, 818.3246
451.2863, 819.4084
451.7684, 819.3519
452.2505, 817.8701
452.7326, 817.2754
453.2148, 817.9354
453.6969, 818.8600
454.1790, 818.8091
454.6611, 817.7435
455.1432, 816.5114
455.6253, 815.1114
456.1075, 813.8312
456.5896, 813.5535
457.0717, 814.2554
457.5538, 815.3331
458.0359, 816.5410
458.5180, 817.7934
459.0002, 818.9431
459.4823, 819.9675
459.9644, 820.8362
460.4465, 821.5494
460.9286, 822.0740
461.4107, 822.3332
461.8929, 822.2001
462.3750, 821.8897
462.8571, 821.4439
463.3392, 820.9246
463.8213, 820.6115
464.3034, 820.8968
464.7856, 821.2744
465.2677, 821.3610
465.7498, 820.9440
466.2319, 820.6960
466.7140, 820.6732
467.1961, 820.9415
467.6783, 821.5878
468.1604, 822.9427
468.6425, 824.3091
469.1246, 825.5944
469.6067, 826.7891
470.0888, 827.8434
470.5710, 828.6749
471.0531, 829.4623
471.5352, 830.3805
472.0173, 831.6383
472.4994, 832.1993
472.9815, 831.7966
473.4637, 831.0558
473.9458, 831.0409
474.4279, 831.8098
474.9100, 832.4413
475.3921, 832.5517
475.8742, 832.3672
476.3564, 832.4371
476.8385, 832.7664
477.3206, 833.6024
477.8027, 835.5974
478.2848, 838.1583
478.7669, 839.9007
479.2491, 840.4753
479.7312, 840.9157
480.2133, 842.1357
480.6954, 843.9209
481.1775, 845.8870
481.6596, 848.1957
482.1418, 850.3191
482.6239, 851.7310
483.1060, 852.5450
483.5881, 853.5493
484.0702, 855.4755
484.5523, 857.4001
485.0345, 858.7414
485.5166, 859.1954
485.9987, 859.5558
486.4808, 859.7130
486.9629, 859.9193
487.4450, 860.5236
487.9272, 861.9116
488.4093, 863.1720
488.8914, 863.9943
489.3735, 864.5075
489.8556, 865.7310
490.3377, 867.8755
490.8199, 870.3160
491.3020, 872.6689
491.7841, 874.9323
492.2662, 877.3889
492.7483, 880.0721
493.2304, 882.8464
493.7126, 885.4422
494.1947, 887.8912
494.6768, 890.2819
495.1589, 892.5245
495.6410, 894.7913
496.1231, 897.5904
496.6053, 900.8104
497.0874, 903.5136
497.5695, 904.1610
498.0516, 904.4537
498.5337, 906.7250
499.0158, 911.5565
499.4980, 916.2018
499.9801, 918.7864
500.4622, 920.3347
500.9443, 922.1164
501.4264, 924.9747
501.9085, 927.6006
502.3907, 929.1741
502.8728, 930.0961
503.3549, 932.0182
503.8370, 936.5380
504.3191, 940.8746
504.8012, 943.9564
505.2834, 945.4667
505.7655, 947.1381
506.2476, 948.8714
506.7297, 950.8725
507.2118, 953.4916
507.6939, 956.9422
508.1761, 960.0629
508.6582, 962.6879
509.1403, 964.8697
509.6224, 966.5945
510.1045, 967.8427
510.5866, 969.1779
511.0688, 971.2689
511.5509, 973.6528
512.0330, 974.6662
512.5151, 974.2783
512.9973, 973.8785
513.4794, 975.2678
513.9615, 977.2737
514.4436, 977.9122
514.9257, 976.3060
515.4078, 974.2687
515.8900, 972.8363
516.3721, 971.9551
516.8542, 971.5018
517.3363, 972.1082
517.8184, 972.5007
518.3005, 971.9555
518.7827, 970.4816
519.2648, 969.2656
519.7469, 968.9698
520.2290, 968.6324
520.7111, 967.7563
521.1932, 966.4113
521.6754, 964.3104
522.1575, 960.9343
522.6396, 957.1959
523.1217, 954.4088
523.6038, 952.7218
524.0859, 951.3880
524.5681, 950.2128
525.0502, 949.2693
525.5323, 949.0762
526.0144, 949.6910
526.4965, 949.9355
526.9786, 948.4587
527.4608, 946.0280
527.9429, 945.2977
528.4250, 946.5641
528.9071, 947.7635
529.3892, 946.3483
529.8713, 943.7068
530.3535, 942.1797
530.8356, 943.0214
531.3177, 944.3244
531.7998, 944.8865
532.2819, 944.9612
532.7640, 945.1311
533.2462, 945.2872
533.7283, 945.8600
534.2104, 947.4457
534.6925, 950.2371
535.1746, 951.7726
535.6567, 951.0378
536.1389, 949.6005
536.6210, 948.3231
537.1031, 946.9811
537.5852, 946.3004
538.0673, 946.5010
538.5494, 947.1682
539.0316, 947.7216
539.5137, 948.2095
539.9958, 948.2955
540.4779, 947.7668
540.9600, 946.8391
541.4421, 946.0499
541.9243, 945.4086
542.4064, 945.0591
542.8885, 945.4739
543.3706, 946.1497
543.8527, 946.1393
544.3348, 945.3358
544.8170, 944.1492
545.2991, 941.9759
545.7812, 939.9360
546.2633, 939.5352
546.7454, 943.0463
547.2275, 945.8182
547.7097, 945.2679
548.1918, 942.5646
548.6739, 940.4501
549.1560, 939.2903
549.6381, 938.9826
550.1202, 939.9531
550.6024, 942.2676
551.0845, 943.4718
551.5666, 943.0341
552.0487, 942.2035
552.5308, 941.7463
553.0129, 941.6993
553.4951, 941.7426
553.9772, 941.7883
554.4593, 942.0694
554.9414, 943.2906
555.4235, 945.3128
555.9056, 946.3342
556.3878, 945.0458
556.8699, 943.3790
557.3520, 945.6438
557.8341, 950.8152
558.3162, 954.4031
558.7983, 952.7082
559.2805, 948.8602
559.7626, 945.4239
560.2447, 942.6109
560.7268, 940.6247
561.2089, 940.0410
561.6910, 940.0256
562.1732, 939.9169
562.6553, 939.4752
563.1374, 939.1284
563.6195, 938.7195
564.1016, 938.5024
564.5837, 938.9260
565.0659, 940.5801
565.5480, 941.7729
566.0301, 941.9694
566.5122, 941.4207
566.9943, 941.4427
567.4764, 942.1577
567.9586, 942.8525
568.4407, 942.9565
568.9228, 942.6221
569.4049, 942.7424
569.8870, 943.3465
570.3691, 944.2170
570.8513, 945.7432
571.3334, 947.2873
571.8155, 947.2875
572.2976, 944.6303
572.7797, 942.2103
573.2618, 942.3994
573.7440, 944.3015
574.2261, 946.3122
574.7082, 948.2560
575.1903, 949.7828
575.6724, 950.5303
576.1545, 950.6012
576.6367, 950.8605
577.1188, 951.7728
577.6009, 952.5036
578.0830, 952.6080
578.5651, 951.8484
579.0472, 951.8148
579.5294, 952.7585
580.0115, 954.0021
580.4936, 954.9980
580.9757, 955.7595
581.4578, 955.9851
581.9399, 955.3508
582.4221, 954.8309
582.9042, 956.2311
583.3863, 959.1534
583.8684, 962.0616
584.3505, 964.7217
584.8326, 966.7074
585.3148, 966.9886
585.7969, 965.9684
586.2789, 965.5101
