##NAMES=Elbaite
##RRUFFID=R050119
##IDEAL CHEMISTRY=Na(Al_1.5_Li_1.5_)Al_6_(Si_6_O_18_)(BO_3_)_3_(OH)_3_OH
##LOCALITY=Cruziero mine, San Jose, Minas Gerais, Brazil
##OWNER=RRUFF
##SOURCE=Carlos and Paulo Vasconcelos
##DESCRIPTION=Red fragment
##STATUS=The identification of this mineral has been confirmed by X-ray diffraction and chemical analysis
##URL=rruff.info/R050119
##MEASURED CHEMISTRY=(Na_0.90_Ca_0.10_)(Al_0.56_Li_0.38_Mn_0.06_)_3_Al_6_(BO_3_)_3_(Si_0.89_B_0.11_)_6_O_18_(OH)_4_
91.72394, 0.0000000E+00
92.20605, 100.7450
92.68817, 102.0661
93.17029, 103.3427
93.65240, 103.3445
94.13452, 102.6599
94.61664, 100.9905
95.09875, 98.21152
95.58087, 94.95620
96.06299, 92.77123
96.54510, 92.74374
97.02721, 92.16938
97.50933, 90.23489
97.99145, 87.62885
98.47356, 85.33315
98.95568, 84.02387
99.43780, 83.59261
99.91991, 82.40359
100.4020, 79.88207
100.8841, 77.37088
101.3663, 75.17313
101.8484, 73.37879
102.3305, 72.14518
102.8126, 71.71597
103.2947, 72.34730
103.7768, 72.71076
104.2590, 72.74128
104.7411, 72.53624
105.2232, 72.19028
105.7053, 71.72122
106.1874, 71.10613
106.6695, 70.10289
107.1517, 68.71526
107.6338, 67.71022
108.1159, 67.77180
108.5980, 68.64594
109.0801, 68.98400
109.5622, 68.01939
110.0444, 66.77575
110.5265, 66.14816
111.0086, 66.21818
111.4907, 66.43594
111.9728, 66.06133
112.4549, 64.78575
112.9371, 64.00430
113.4192, 64.30211
113.9013, 64.95200
114.3834, 65.47823
114.8655, 65.69542
115.3476, 65.69601
115.8298, 65.72083
116.3119, 65.82243
116.7940, 65.88209
117.2761, 65.77783
117.7582, 65.64915
118.2403, 65.67982
118.7225, 65.98486
119.2046, 66.54333
119.6867, 67.11691
120.1688, 67.61256
120.6509, 68.20703
121.1330, 69.08263
121.6152, 70.15431
122.0973, 71.12823
122.5794, 71.78291
123.0615, 72.07919
123.5436, 72.22903
124.0257, 72.18315
124.5079, 72.01881
124.9900, 71.70515
125.4721, 71.18895
125.9542, 70.83885
126.4363, 71.24763
126.9184, 72.12718
127.4006, 72.80569
127.8827, 72.73759
128.3648, 72.23885
128.8469, 72.34997
129.3290, 73.59504
129.8111, 74.85926
130.2932, 75.45956
130.7754, 75.50185
131.2575, 75.37963
131.7396, 75.42402
132.2217, 75.66924
132.7038, 75.77332
133.1859, 75.49281
133.6681, 75.24400
134.1502, 75.23673
134.6323, 75.47697
135.1144, 75.81065
135.5965, 76.08614
136.0786, 76.51193
136.5608, 76.38760
137.0429, 75.28860
137.5250, 73.99915
138.0071, 73.13258
138.4892, 72.86597
138.9713, 72.92496
139.4535, 72.74828
139.9356, 72.01804
140.4177, 71.48560
140.8998, 71.40186
141.3819, 71.49027
141.8640, 71.31621
142.3462, 70.64285
142.8283, 69.71995
143.3104, 69.28828
143.7925, 69.53690
144.2746, 69.81802
144.7567, 69.89985
145.2388, 69.80340
145.7210, 69.58852
146.2031, 69.14405
146.6852, 68.69720
147.1673, 68.66985
147.6494, 69.29651
148.1315, 70.02305
148.6137, 70.28340
149.0958, 70.01028
149.5779, 69.74860
150.0600, 69.80516
150.5421, 69.99474
151.0242, 70.14990
151.5064, 70.19923
151.9885, 70.20641
152.4706, 70.32639
152.9527, 70.68832
153.4348, 70.91145
153.9169, 70.95345
154.3991, 70.80147
154.8812, 70.40198
155.3633, 69.68532
155.8454, 68.72285
156.3275, 67.95686
156.8096, 67.50450
157.2918, 67.16043
157.7739, 66.92947
158.2560, 66.77374
158.7381, 66.64395
159.2202, 66.50410
159.7023, 66.35352
160.1845, 66.21636
160.6666, 66.16811
161.1487, 66.06113
161.6308, 65.68820
162.1129, 65.16008
162.5950, 64.83370
163.0772, 65.04764
163.5593, 65.88927
164.0414, 66.67523
164.5235, 67.45339
165.0056, 68.14748
165.4877, 68.72720
165.9698, 69.18616
166.4520, 69.46629
166.9341, 69.38232
167.4162, 68.94067
167.8983, 68.86710
168.3804, 69.42075
168.8625, 70.31145
169.3447, 71.23122
169.8268, 72.16324
170.3089, 73.02459
170.7910, 73.67850
171.2731, 74.17332
171.7552, 74.66723
172.2374, 75.20824
172.7195, 75.79157
173.2016, 76.41271
173.6837, 77.10195
174.1658, 77.77963
174.6479, 78.51069
175.1301, 79.23292
175.6122, 79.70528
176.0943, 79.72194
176.5764, 79.29594
177.0585, 78.71385
177.5406, 77.82258
178.0228, 76.92301
178.5049, 76.16235
178.9870, 75.53043
179.4691, 74.95068
179.9512, 74.40079
180.4333, 73.94051
180.9155, 73.21729
181.3976, 71.71272
181.8797, 70.36582
182.3618, 69.64908
182.8439, 69.57742
183.3260, 69.85950
183.8082, 70.16001
184.2903, 70.49566
184.7724, 70.80514
185.2545, 71.03933
185.7366, 71.28770
186.2187, 71.57662
186.7009, 71.92390
187.1830, 72.36740
187.6651, 72.95928
188.1472, 73.74712
188.6293, 74.62351
189.1114, 75.66448
189.5936, 76.74130
190.0757, 77.73322
190.5578, 78.60481
191.0399, 79.42604
191.5220, 80.28955
192.0041, 81.15296
192.4863, 82.17760
192.9684, 83.59828
193.4505, 85.11477
193.9326, 86.29055
194.4147, 86.95506
194.8968, 87.43962
195.3790, 88.29998
195.8611, 89.52737
196.3432, 90.85982
196.8253, 92.29739
197.3074, 93.78429
197.7895, 95.16735
198.2717, 96.32577
198.7538, 97.51576
199.2359, 99.15385
199.7180, 101.2639
200.2001, 103.2221
200.6822, 104.4449
201.1644, 105.1463
201.6465, 106.4066
202.1286, 108.8141
202.6107, 111.4966
203.0928, 113.6366
203.5749, 115.2380
204.0571, 116.6544
204.5392, 117.9240
205.0213, 119.0588
205.5034, 120.8799
205.9855, 124.2938
206.4676, 127.8123
206.9497, 130.3973
207.4319, 132.0429
207.9140, 133.5656
208.3961, 135.7684
208.8782, 138.7403
209.3603, 141.8349
209.8424, 144.8547
210.3246, 148.1011
210.8067, 151.7018
211.2888, 155.6809
211.7709, 160.0080
212.2530, 164.7508
212.7351, 170.0884
213.2173, 175.1796
213.6994, 179.4789
214.1815, 183.9348
214.6636, 189.1227
215.1457, 195.0816
215.6278, 201.5025
216.1100, 207.9787
216.5921, 214.4455
217.0742, 221.1770
217.5563, 228.5283
218.0384, 235.8421
218.5205, 242.8921
219.0027, 249.5428
219.4848, 255.7199
219.9669, 261.3064
220.4490, 266.3930
220.9311, 270.4111
221.4132, 273.9102
221.8954, 276.1529
222.3775, 276.5411
222.8596, 274.9962
223.3417, 271.9032
223.8238, 267.6377
224.3059, 261.6626
224.7881, 255.8008
225.2702, 250.2257
225.7523, 244.6507
226.2344, 238.7225
226.7165, 232.3854
227.1986, 226.1387
227.6807, 220.6252
228.1629, 216.0347
228.6450, 211.4095
229.1271, 206.3587
229.6092, 201.4226
230.0913, 197.3104
230.5734, 194.1671
231.0556, 191.3855
231.5377, 188.2056
232.0198, 184.6334
232.5019, 181.7684
232.9840, 180.1418
233.4661, 179.1746
233.9483, 178.1935
234.4304, 177.1033
234.9125, 176.0456
235.3946, 175.0519
235.8767, 174.1578
236.3588, 173.6623
236.8410, 173.6799
237.3231, 174.1285
237.8052, 174.9797
238.2873, 176.3346
238.7694, 177.7466
239.2515, 178.8568
239.7337, 179.7563
240.2158, 180.6295
240.6979, 181.6563
241.1800, 182.6698
241.6621, 183.2593
242.1442, 183.2315
242.6264, 183.3049
243.1085, 184.2194
243.5906, 185.5123
244.0727, 186.4133
244.5548, 186.5175
245.0369, 186.0721
245.5191, 185.6257
246.0012, 185.2891
246.4833, 184.6711
246.9654, 183.4164
247.4475, 181.8373
247.9296, 180.3789
248.4117, 179.3599
248.8939, 178.4483
249.3760, 176.8027
249.8581, 174.0963
250.3402, 171.3277
250.8223, 168.6377
251.3044, 166.1640
251.7866, 164.1647
252.2687, 162.8362
252.7508, 161.8203
253.2329, 160.2330
253.7150, 157.7260
254.1971, 155.3662
254.6793, 153.2332
255.1614, 151.4259
255.6435, 150.1147
256.1256, 149.3957
256.6077, 148.9958
257.0898, 148.3332
257.5720, 147.2779
258.0541, 146.2038
258.5362, 144.9569
259.0183, 143.8319
259.5004, 143.1273
259.9825, 142.9408
260.4647, 143.0447
260.9468, 143.0252
261.4289, 142.8487
261.9110, 142.6010
262.3931, 142.2634
262.8752, 141.8872
263.3574, 141.3960
263.8395, 140.8104
264.3216, 140.3902
264.8037, 140.6502
265.2858, 142.3031
265.7679, 143.1785
266.2501, 142.9583
266.7322, 142.3119
267.2143, 141.5113
267.6964, 140.6962
268.1785, 140.0629
268.6606, 139.9276
269.1428, 140.6128
269.6249, 140.9534
270.1070, 141.2179
270.5891, 141.0149
271.0712, 139.8981
271.5533, 137.9526
272.0355, 135.7548
272.5176, 133.9091
272.9997, 132.4499
273.4818, 131.2910
273.9639, 130.9805
274.4460, 130.4426
274.9282, 128.9141
275.4103, 126.5448
275.8924, 124.0910
276.3745, 122.2179
276.8566, 120.9607
277.3387, 119.9883
277.8208, 119.7293
278.3029, 119.2786
278.7851, 118.1412
279.2672, 116.4465
279.7493, 114.6492
280.2314, 113.0760
280.7135, 111.7220
281.1956, 110.3481
281.6778, 108.9351
282.1599, 107.5231
282.6420, 106.0434
283.1241, 104.5726
283.6062, 103.2859
284.0883, 102.3057
284.5705, 101.5696
285.0526, 100.7558
285.5347, 99.77537
286.0168, 98.82809
286.4989, 98.00622
286.9810, 97.24181
287.4632, 96.41269
287.9453, 95.45534
288.4274, 94.41753
288.9095, 93.41797
289.3916, 92.41735
289.8737, 91.51025
290.3559, 90.83266
290.8380, 90.22649
291.3201, 89.46176
291.8022, 88.45261
292.2843, 87.33172
292.7664, 86.31626
293.2486, 85.42408
293.7307, 84.60897
294.2128, 83.85301
294.6949, 83.17928
295.1770, 82.67330
295.6591, 82.34972
296.1413, 82.01413
296.6234, 81.37634
297.1055, 80.29890
297.5876, 79.50327
298.0697, 79.18468
298.5518, 79.05080
299.0340, 78.83300
299.5161, 78.50739
299.9982, 78.24940
300.4803, 78.23159
300.9624, 78.48494
301.4445, 78.75326
301.9267, 79.14297
302.4088, 79.45995
302.8909, 79.49564
303.3730, 79.29414
303.8551, 79.14548
304.3372, 79.23547
304.8194, 79.56999
305.3015, 80.06056
305.7836, 80.70107
306.2657, 81.48421
306.7478, 82.51421
307.2299, 83.70340
307.7121, 84.78929
308.1942, 85.62012
308.6763, 86.26865
309.1584, 86.96511
309.6405, 87.61574
310.1227, 88.43494
310.6048, 89.56942
311.0869, 90.91012
311.5690, 92.30045
312.0511, 93.71744
312.5332, 95.02084
313.0154, 95.84294
313.4975, 96.02476
313.9796, 96.31605
314.4617, 97.05476
314.9438, 97.91123
315.4259, 98.47810
315.9081, 98.65456
316.3902, 98.55018
316.8723, 98.23323
317.3544, 97.65136
317.8365, 97.19625
318.3186, 97.01872
318.8007, 96.90700
319.2828, 96.59443
319.7650, 96.07397
320.2471, 95.66313
320.7292, 95.60757
321.2113, 95.94746
321.6934, 96.59289
322.1755, 98.02036
322.6577, 99.33625
323.1398, 99.80269
323.6219, 99.58711
324.1040, 99.54009
324.5861, 100.2400
325.0682, 101.5085
325.5504, 102.3798
326.0325, 102.5606
326.5146, 102.7410
326.9967, 103.1984
327.4788, 103.8285
327.9609, 104.4146
328.4431, 104.8589
328.9252, 105.2267
329.4073, 105.6845
329.8894, 106.3224
330.3715, 106.8447
330.8536, 107.1338
331.3358, 107.2991
331.8179, 107.4522
332.3000, 107.6213
332.7821, 107.8407
333.2642, 108.1708
333.7463, 108.6550
334.2285, 109.0951
334.7106, 109.4991
335.1927, 109.8452
335.6748, 110.0710
336.1569, 110.1896
336.6390, 110.3270
337.1212, 110.5649
337.6033, 110.9126
338.0854, 111.5266
338.5675, 112.4635
339.0496, 113.5813
339.5317, 114.9476
340.0139, 116.4592
340.4960, 117.8457
340.9781, 118.9492
341.4602, 119.8006
341.9423, 120.5219
342.4244, 120.9069
342.9066, 121.4265
343.3887, 122.1131
343.8708, 123.0098
344.3529, 124.2547
344.8350, 125.9033
345.3171, 127.7154
345.7993, 129.2334
346.2814, 130.3086
346.7635, 131.3041
347.2456, 132.2846
347.7277, 133.1400
348.2098, 133.5499
348.6920, 133.5622
349.1741, 133.8479
349.6562, 135.2676
350.1383, 138.2425
350.6204, 140.2114
351.1025, 140.3022
351.5847, 140.3652
352.0668, 141.3985
352.5489, 143.2213
353.0310, 145.1086
353.5131, 146.5391
353.9952, 147.5533
354.4774, 148.5965
354.9595, 149.3469
355.4416, 150.4922
355.9237, 152.2217
356.4058, 154.4061
356.8879, 156.9432
357.3701, 159.7863
357.8522, 162.8024
358.3343, 165.7251
358.8164, 168.6189
359.2985, 171.2922
359.7806, 173.1828
360.2627, 175.2373
360.7448, 178.1990
361.2270, 182.1927
361.7091, 186.7966
362.1912, 191.5429
362.6733, 196.3750
363.1554, 201.6350
363.6375, 207.3105
364.1197, 213.3745
364.6018, 219.6793
365.0839, 226.3872
365.5660, 233.7217
366.0481, 241.8633
366.5302, 250.7855
367.0124, 260.2722
367.4945, 270.0979
367.9766, 280.8947
368.4587, 293.3474
368.9408, 306.5207
369.4229, 319.4524
369.9051, 331.6938
370.3872, 343.3514
370.8693, 354.8352
371.3514, 366.7140
371.8335, 376.8045
372.3156, 385.2797
372.7978, 391.7607
373.2799, 396.3932
373.7620, 398.9541
374.2441, 398.6304
374.7262, 393.8335
375.2083, 384.3770
375.6905, 375.1686
376.1726, 367.5194
376.6547, 358.4895
377.1368, 346.1479
377.6189, 331.5692
378.1010, 317.1081
378.5832, 303.8799
379.0653, 291.6794
379.5474, 279.9038
380.0295, 268.5300
380.5116, 257.6662
380.9937, 247.1010
381.4759, 237.1575
381.9580, 228.2151
382.4401, 220.3807
382.9222, 213.4521
383.4043, 207.4730
383.8864, 202.4236
384.3686, 197.4487
384.8507, 192.2719
385.3328, 187.2388
385.8149, 182.5136
386.2970, 178.1330
386.7791, 174.1194
387.2613, 170.5182
387.7434, 167.3302
388.2255, 164.5334
388.7076, 162.1348
389.1897, 160.1376
389.6718, 158.8005
390.1540, 157.8521
390.6361, 156.7427
391.1182, 155.1030
391.6003, 153.5401
392.0824, 152.6624
392.5645, 152.4099
393.0467, 152.2983
393.5288, 152.1887
394.0109, 152.0530
394.4930, 151.7773
394.9751, 151.2470
395.4572, 151.0059
395.9394, 151.4158
396.4215, 152.2137
396.9036, 152.9515
397.3857, 153.5359
397.8678, 154.1377
398.3499, 154.9812
398.8321, 156.0833
399.3142, 157.0307
399.7963, 157.6942
400.2784, 158.2957
400.7605, 158.9841
401.2426, 159.7513
401.7247, 160.5523
402.2068, 161.3922
402.6890, 162.2143
403.1711, 162.7350
403.6532, 162.8557
404.1353, 162.8499
404.6174, 162.6860
405.0995, 162.4516
405.5817, 162.2804
406.0638, 162.2070
406.5459, 162.1250
407.0280, 161.9112
407.5101, 161.6451
407.9922, 160.9412
408.4744, 159.7847
408.9565, 158.2746
409.4386, 156.4107
409.9207, 154.2318
410.4028, 151.7737
410.8849, 148.9921
411.3671, 145.9710
411.8492, 143.2818
412.3313, 141.4192
412.8134, 139.2828
413.2955, 136.6219
413.7776, 133.6684
414.2598, 130.6152
414.7419, 127.5385
415.2240, 124.4992
415.7061, 121.6375
416.1882, 119.0468
416.6703, 116.2565
417.1525, 113.0019
417.6346, 109.7644
418.1167, 106.7154
418.5988, 103.8613
419.0809, 101.2133
419.5630, 98.78039
420.0452, 96.54510
420.5273, 94.37248
421.0094, 92.22285
421.4915, 90.25285
421.9736, 88.68818
422.4557, 87.26147
422.9379, 85.66497
423.4200, 83.79082
423.9021, 81.89876
424.3842, 80.19950
424.8663, 78.70066
425.3484, 77.54202
425.8306, 76.95039
426.3127, 76.46457
426.7948, 75.63235
427.2769, 74.50571
427.7590, 73.40898
428.2411, 72.42809
428.7233, 71.57690
429.2054, 70.91763
429.6875, 70.45728
430.1696, 70.03498
430.6517, 69.53094
431.1339, 69.00717
431.6160, 68.63482
432.0981, 68.48161
432.5802, 68.37322
433.0623, 68.23224
433.5444, 68.07380
434.0266, 67.94737
434.5087, 67.87797
434.9908, 67.77511
435.4729, 67.45630
435.9550, 66.79967
436.4371, 66.54020
436.9193, 67.10464
437.4014, 67.74854
437.8835, 68.03736
438.3656, 67.94286
438.8477, 67.51548
439.3298, 66.74751
439.8120, 65.72430
440.2941, 64.92414
440.7762, 64.19413
441.2583, 63.88924
441.7404, 64.40884
442.2225, 65.18641
442.7046, 65.66044
443.1867, 65.68749
443.6689, 65.49019
444.1510, 65.35304
444.6331, 65.31573
445.1152, 65.13599
445.5973, 64.64276
446.0794, 64.17608
446.5616, 63.87886
447.0437, 63.69482
447.5258, 63.51818
448.0079, 63.30804
448.4900, 63.02688
448.9721, 62.49761
449.4543, 61.50397
449.9364, 60.89069
450.4185, 61.35826
450.9006, 61.93640
451.3827, 61.87872
451.8648, 61.13438
452.3470, 60.30791
452.8291, 59.92548
453.3112, 59.87085
453.7933, 59.60421
454.2754, 58.98516
454.7575, 58.42532
455.2397, 58.22289
455.7218, 58.26226
456.2039, 58.40454
456.6860, 58.76727
457.1681, 59.01210
457.6502, 58.76286
458.1324, 58.11969
458.6145, 57.50317
459.0966, 57.00064
459.5787, 56.67863
460.0608, 56.73726
460.5429, 57.21342
461.0251, 57.53732
461.5072, 57.45435
461.9893, 57.28297
462.4714, 57.37388
462.9535, 57.69310
463.4356, 57.89359
463.9178, 57.72297
464.3999, 57.25690
464.8820, 56.90604
465.3641, 56.75448
465.8462, 56.60126
466.3283, 56.27629
466.8105, 56.00614
467.2926, 56.12706
467.7747, 56.67188
468.2568, 57.27436
468.7389, 57.48951
469.2210, 57.25328
469.7032, 57.06034
470.1853, 57.03159
470.6674, 56.91895
471.1495, 56.49442
471.6316, 55.96969
472.1137, 55.70632
472.5959, 55.88829
473.0780, 56.31252
473.5601, 56.58881
474.0422, 56.66543
474.5243, 56.81622
475.0064, 57.18018
475.4886, 57.55843
475.9707, 57.82288
476.4528, 57.98200
476.9349, 58.13091
477.4170, 58.32201
477.8991, 58.54297
478.3813, 58.78319
478.8634, 59.05218
479.3455, 59.27584
479.8276, 59.40308
480.3097, 59.46391
480.7918, 59.49345
481.2740, 59.44377
481.7561, 59.50378
482.2382, 59.93902
482.7203, 60.51017
483.2024, 60.62457
483.6845, 60.13622
484.1666, 59.81557
484.6487, 60.52031
485.1309, 62.29163
485.6130, 63.44891
486.0951, 63.60370
486.5772, 63.59858
487.0593, 63.66782
487.5414, 63.85134
488.0236, 64.23383
488.5057, 64.84882
488.9878, 65.52888
489.4699, 65.95201
489.9520, 65.91621
490.4341, 66.13132
490.9163, 66.78545
491.3984, 67.47041
491.8805, 68.00967
492.3626, 68.40447
492.8447, 68.67332
493.3268, 68.78109
493.8090, 68.86972
494.2911, 69.44382
494.7732, 70.79595
495.2553, 71.83440
495.7374, 72.11268
496.2195, 72.11176
496.7017, 71.97990
497.1838, 71.79601
497.6659, 71.93654
498.1480, 72.91866
498.6301, 74.40829
499.1122, 75.41170
499.5944, 75.79012
500.0765, 76.18472
500.5586, 77.01559
501.0407, 78.10014
501.5228, 79.05962
502.0049, 79.88354
502.4871, 80.56718
502.9692, 81.00173
503.4513, 81.32539
503.9334, 81.77993
504.4155, 82.41614
504.8976, 83.21557
505.3798, 84.22991
505.8619, 85.49245
506.3440, 86.31005
506.8261, 86.35719
507.3082, 86.37547
507.7903, 86.58286
508.2725, 86.95405
508.7546, 87.44885
509.2367, 88.04819
509.7188, 88.70834
510.2009, 89.43353
510.6830, 90.44748
511.1652, 90.76907
511.6473, 89.41553
512.1294, 88.34180
512.6115, 88.62270
513.0936, 89.72060
513.5757, 90.49733
514.0579, 90.35046
514.5400, 89.66940
515.0221, 89.15503
515.5042, 88.83773
515.9863, 88.43457
516.4684, 87.81367
516.9506, 87.14766
517.4327, 86.61279
517.9148, 86.18685
518.3969, 85.69743
518.8790, 85.07487
519.3611, 84.34486
519.8433, 83.52227
520.3254, 82.61153
520.8075, 81.67138
521.2896, 80.75779
521.7717, 79.79749
522.2538, 78.56721
522.7360, 76.84829
523.2181, 75.50022
523.7002, 74.82998
524.1823, 74.47976
524.6644, 74.23466
525.1465, 74.02805
525.6287, 73.77454
526.1108, 73.41240
526.5929, 72.95569
527.0750, 72.46073
527.5571, 71.84109
528.0392, 71.31724
528.5214, 71.00551
529.0035, 70.72298
529.4856, 70.20313
529.9677, 69.49268
530.4498, 69.01161
530.9319, 69.25594
531.4141, 70.07166
531.8962, 70.45963
532.3783, 70.17640
532.8604, 70.02725
533.3425, 70.56555
533.8246, 71.31586
534.3068, 71.80401
534.7889, 71.94406
535.2710, 71.93466
535.7531, 71.92033
536.2352, 71.84745
536.7173, 71.59377
537.1995, 71.14027
537.6816, 70.53817
538.1637, 69.75246
538.6458, 68.84716
539.1279, 68.20575
539.6100, 67.85995
540.0922, 67.70895
540.5743, 67.92899
541.0564, 68.23351
541.5385, 68.26456
542.0206, 67.95354
542.5027, 67.46085
542.9849, 66.94749
543.4670, 66.41456
543.9491, 65.80741
544.4312, 64.93085
544.9133, 64.22349
545.3954, 63.98254
545.8775, 63.85112
546.3596, 63.32880
546.8417, 62.31622
547.3239, 61.35381
547.8060, 61.13274
548.2881, 61.57958
548.7702, 61.84546
549.2523, 61.85760
549.7344, 61.76048
550.2166, 61.59435
550.6987, 61.38616
551.1808, 61.16335
551.6629, 60.90672
552.1450, 60.69326
552.6271, 60.71926
553.1093, 60.79516
553.5914, 60.45273
554.0735, 59.59027
554.5556, 58.63992
555.0377, 57.96987
555.5198, 57.57843
556.0020, 57.34539
556.4841, 57.38096
556.9662, 57.41594
557.4483, 57.48284
557.9304, 57.46163
558.4125, 57.13305
558.8947, 56.48248
559.3768, 55.81387
559.8589, 55.48846
560.3410, 55.51731
560.8231, 55.43738
561.3052, 55.14954
561.7874, 54.89647
562.2695, 54.75279
562.7516, 54.68153
563.2337, 54.66713
563.7158, 54.71228
564.1979, 54.70620
564.6801, 54.54228
565.1622, 54.25003
565.6443, 53.87998
566.1264, 53.39717
566.6085, 53.04836
567.0906, 53.06686
567.5728, 53.35395
568.0549, 53.50364
568.5370, 53.49335
569.0191, 53.38401
569.5012, 53.21120
569.9833, 52.94319
570.4655, 52.47371
570.9476, 51.82336
571.4297, 51.19434
571.9118, 50.76667
572.3939, 50.53302
572.8760, 50.42016
573.3582, 50.43465
573.8403, 50.57388
574.3224, 50.94685
574.8045, 51.36681
575.2866, 51.70638
575.7687, 51.93125
576.2509, 52.01692
576.7330, 51.85957
577.2151, 51.54679
577.6972, 51.43168
578.1793, 51.54930
578.6614, 51.71656
579.1436, 51.88473
579.6257, 52.03815
580.1078, 52.18288
580.5899, 52.34158
581.0720, 52.35713
581.5541, 51.89037
582.0363, 51.42300
582.5184, 51.61433
583.0005, 52.40086
583.4826, 53.16898
583.9647, 53.56590
584.4468, 53.67283
584.9290, 53.72340
585.4111, 53.60688
585.8932, 53.61177
