##NAMES=Elbaite
##RRUFFID=R050487
##IDEAL CHEMISTRY=Na(Al_1.5_Li_1.5_)Al_6_(Si_6_O_18_)(BO_3_)_3_(OH)_3_OH
##LOCALITY=White Queen mine, Pala, San Diego County, California, USA
##OWNER=RRUFF
##SOURCE=California Institute of Technology
##DESCRIPTION=Mass of blue acicular crystals
##STATUS=The identification of this mineral has been confirmed by X-ray diffraction and chemical analysis
##URL=rruff.info/R050487
##MEASURED CHEMISTRY=(Na_0.86_[box]_0.13_Ca_0.01_)(Al_0.42_Li_0.38_Fe^2+^_0.18_Mn_0.02_)_3_Al_6_(BO_3_)_3_Si_6_O_18_((OH)_0.85_F_0.15_)_4_
91.00781, 18.47188
91.48993, 19.00118
91.97205, 19.21340
92.45416, 18.85558
92.93628, 18.19226
93.41840, 17.84604
93.90051, 18.01569
94.38263, 18.36545
94.86475, 18.32271
95.34686, 17.89073
95.82898, 17.38194
96.31110, 16.95726
96.79321, 16.62809
97.27533, 16.58660
97.75745, 17.02600
98.23956, 17.76824
98.72168, 17.96690
99.20380, 17.49592
99.68591, 16.87073
100.1680, 16.68439
100.6501, 17.03149
101.1323, 17.35844
101.6144, 17.45745
102.0965, 17.29199
102.5786, 17.36444
103.0607, 17.76664
103.5428, 18.32606
104.0250, 18.75563
104.5071, 18.95871
104.9892, 19.18742
105.4713, 19.51890
105.9534, 19.91888
106.4355, 20.49727
106.9177, 21.31168
107.3998, 22.30578
107.8819, 23.33116
108.3640, 24.27781
108.8461, 25.33175
109.3282, 26.59706
109.8104, 28.20338
110.2925, 29.84152
110.7746, 31.49087
111.2567, 33.14619
111.7388, 34.83844
112.2209, 36.69155
112.7031, 38.49811
113.1852, 40.13544
113.6673, 41.30862
114.1494, 42.55088
114.6315, 44.10952
115.1136, 46.01991
115.5958, 47.72258
116.0779, 48.90520
116.5600, 49.83000
117.0421, 50.78682
117.5242, 51.90084
118.0063, 53.06308
118.4885, 54.13713
118.9706, 55.03834
119.4527, 56.25935
119.9348, 58.24314
120.4169, 60.72208
120.8990, 63.24123
121.3812, 65.47623
121.8633, 67.68077
122.3454, 70.17093
122.8275, 73.20796
123.3096, 76.03758
123.7917, 77.91608
124.2739, 78.99511
124.7560, 79.83149
125.2381, 80.54812
125.7202, 81.29705
126.2023, 82.33308
126.6844, 83.76488
127.1666, 85.44832
127.6487, 87.28507
128.1308, 89.26958
128.6129, 91.17227
129.0950, 92.85940
129.5771, 94.33702
130.0593, 95.63566
130.5414, 96.77412
131.0235, 97.72453
131.5056, 98.22240
131.9877, 97.87784
132.4698, 97.01949
132.9520, 96.41769
133.4341, 96.06847
133.9162, 96.01508
134.3983, 96.31245
134.8804, 96.92764
135.3625, 97.68993
135.8447, 98.63965
136.3268, 99.64479
136.8089, 100.4802
137.2910, 101.0953
137.7731, 101.8672
138.2552, 103.0830
138.7374, 104.8449
139.2195, 106.1755
139.7016, 107.1196
140.1837, 107.6273
140.6658, 107.4568
141.1479, 106.2937
141.6301, 105.1770
142.1122, 104.5718
142.5943, 104.5816
143.0764, 104.8173
143.5585, 105.4004
144.0406, 106.1839
144.5228, 106.6434
145.0049, 106.5494
145.4870, 106.4157
145.9691, 106.5515
146.4512, 107.3425
146.9333, 107.7674
147.4155, 107.5672
147.8976, 106.8389
148.3797, 106.5147
148.8618, 106.9312
149.3439, 107.5050
149.8260, 107.8585
150.3082, 107.4579
150.7903, 107.4325
151.2724, 108.1141
151.7545, 109.5262
152.2366, 110.4828
152.7188, 110.3832
153.2009, 110.0863
153.6830, 110.2820
154.1651, 111.7412
154.6472, 113.0037
155.1293, 113.7238
155.6115, 113.8636
156.0936, 113.7445
156.5757, 113.4092
157.0578, 112.8518
157.5399, 112.0691
158.0220, 110.6270
158.5042, 109.3312
158.9863, 108.4769
159.4684, 108.1040
159.9505, 108.0557
160.4326, 108.6493
160.9147, 109.4831
161.3969, 109.9583
161.8790, 109.4755
162.3611, 108.8673
162.8432, 108.6640
163.3253, 109.1372
163.8074, 109.3883
164.2896, 108.7381
164.7717, 107.5720
165.2538, 106.6608
165.7359, 106.5299
166.2180, 106.6778
166.7001, 106.7171
167.1823, 106.5130
167.6644, 106.3334
168.1465, 106.3815
168.6286, 106.5945
169.1107, 106.7972
169.5928, 106.8919
170.0750, 106.9284
170.5571, 106.9903
171.0392, 107.2068
171.5213, 107.2721
172.0034, 106.7430
172.4855, 105.7575
172.9677, 104.9369
173.4498, 104.7145
173.9319, 104.8861
174.4140, 105.1834
174.8961, 105.6305
175.3782, 106.0671
175.8604, 106.3118
176.3425, 106.3800
176.8246, 106.3934
177.3067, 106.3901
177.7888, 106.4004
178.2709, 106.5011
178.7531, 106.8310
179.2352, 107.1727
179.7173, 107.1886
180.1994, 106.8875
180.6815, 106.4408
181.1636, 105.8434
181.6458, 105.1938
182.1279, 104.8133
182.6100, 104.9045
183.0921, 105.2830
183.5742, 105.6304
184.0563, 105.9448
184.5385, 106.1543
185.0206, 106.0680
185.5027, 105.7616
185.9848, 105.6138
186.4669, 105.9002
186.9490, 106.4255
187.4312, 106.5996
187.9133, 106.3964
188.3954, 105.9974
188.8775, 105.4459
189.3596, 104.7864
189.8417, 104.4464
190.3239, 104.7962
190.8060, 105.6590
191.2881, 106.0648
191.7702, 105.9353
192.2523, 105.6470
192.7344, 105.7076
193.2166, 106.1174
193.6987, 106.4949
194.1808, 106.6662
194.6629, 106.6515
195.1450, 106.6864
195.6271, 106.7720
196.1093, 106.9048
196.5914, 107.0339
197.0735, 107.1434
197.5556, 107.4361
198.0377, 108.0746
198.5198, 109.0670
199.0020, 109.9294
199.4841, 110.6523
199.9662, 111.2614
200.4483, 111.7580
200.9304, 112.1074
201.4125, 112.5509
201.8947, 113.2304
202.3768, 114.1677
202.8589, 115.0699
203.3410, 115.9494
203.8231, 116.7797
204.3052, 117.4348
204.7874, 117.8427
205.2695, 118.3933
205.7516, 119.2953
206.2337, 120.5980
206.7158, 121.9276
207.1979, 123.3013
207.6801, 124.6868
208.1622, 126.0066
208.6443, 127.2802
209.1264, 128.4554
209.6085, 129.4308
210.0906, 130.0911
210.5728, 131.1096
211.0549, 132.5838
211.5370, 134.3520
212.0191, 136.0033
212.5012, 137.4957
212.9833, 139.0100
213.4655, 140.5659
213.9476, 142.0915
214.4297, 144.0149
214.9118, 146.5836
215.3939, 149.4290
215.8760, 151.6006
216.3581, 152.6937
216.8403, 153.9091
217.3224, 155.9050
217.8045, 159.0857
218.2866, 161.8284
218.7687, 163.9844
219.2508, 165.7135
219.7330, 167.4054
220.2151, 169.1492
220.6972, 170.6765
221.1793, 171.8404
221.6614, 172.6165
222.1435, 173.1143
222.6257, 173.3594
223.1078, 173.3222
223.5899, 172.9115
224.0720, 172.0498
224.5541, 170.9365
225.0362, 169.6550
225.5184, 168.2735
226.0005, 166.5562
226.4826, 164.2963
226.9647, 161.7536
227.4468, 159.5899
227.9289, 157.9524
228.4111, 156.4992
228.8932, 155.0887
229.3753, 153.7399
229.8574, 152.4000
230.3395, 151.0585
230.8216, 149.7410
231.3038, 148.4690
231.7859, 147.1371
232.2680, 146.0173
232.7501, 145.2578
233.2322, 145.0224
233.7143, 144.7705
234.1965, 144.4473
234.6786, 144.1135
235.1607, 143.9556
235.6428, 144.1061
236.1249, 144.2348
236.6070, 144.1598
237.0892, 143.6541
237.5713, 143.4534
238.0534, 143.6754
238.5355, 144.1697
239.0176, 144.5544
239.4997, 144.7970
239.9819, 144.9822
240.4640, 145.1402
240.9461, 145.2624
241.4282, 145.3582
241.9103, 145.2812
242.3924, 144.8278
242.8746, 145.5373
243.3567, 146.0303
243.8388, 146.3183
244.3209, 145.7878
244.8030, 146.3143
245.2851, 146.4172
245.7673, 146.5028
246.2494, 147.1780
246.7315, 146.7666
247.2136, 147.4325
247.6957, 147.6683
248.1778, 148.0764
248.6600, 149.6736
249.1421, 150.8612
249.6242, 151.5100
250.1063, 151.8275
250.5884, 152.2231
251.0705, 152.7930
251.5527, 153.2684
252.0348, 153.4212
252.5169, 152.9449
252.9990, 153.3156
253.4811, 154.8715
253.9632, 157.0585
254.4454, 158.8736
254.9275, 160.1675
255.4096, 161.4034
255.8917, 162.8403
256.3738, 164.6627
256.8560, 165.7742
257.3381, 166.0557
257.8202, 165.7388
258.3023, 165.2302
258.7844, 164.7613
259.2665, 163.6145
259.7487, 161.5166
260.2308, 158.4013
260.7129, 154.7559
261.1950, 150.3108
261.6771, 145.6466
262.1592, 141.5228
262.6414, 138.0036
263.1235, 134.9582
263.6056, 132.4467
264.0877, 130.4748
264.5698, 128.6227
265.0519, 126.8590
265.5341, 125.2636
266.0162, 123.9043
266.4983, 122.7882
266.9804, 121.9309
267.4625, 121.4080
267.9446, 121.2167
268.4268, 120.8223
268.9089, 120.1265
269.3910, 119.4152
269.8731, 119.0447
270.3552, 119.1466
270.8373, 119.0643
271.3195, 118.6369
271.8016, 117.8866
272.2837, 116.9844
272.7658, 115.8161
273.2479, 114.7266
273.7300, 114.0976
274.2122, 114.0285
274.6943, 113.8018
275.1764, 113.2149
275.6585, 112.3615
276.1406, 111.7925
276.6227, 111.6070
277.1049, 111.3819
277.5870, 110.6649
278.0691, 109.3908
278.5512, 108.4187
279.0333, 107.9961
279.5154, 107.9123
279.9976, 107.3894
280.4797, 106.3345
280.9618, 105.3110
281.4439, 104.8097
281.9260, 104.8399
282.4081, 104.5786
282.8903, 103.8648
283.3724, 102.8626
283.8545, 101.9257
284.3366, 101.0529
284.8187, 100.2537
285.3008, 99.55983
285.7830, 98.95923
286.2651, 98.38097
286.7472, 97.80904
287.2293, 97.26639
287.7114, 96.80299
288.1935, 96.41809
288.6757, 96.06096
289.1578, 95.75404
289.6399, 95.46627
290.1220, 95.01925
290.6041, 94.35966
291.0862, 93.67278
291.5684, 93.21490
292.0505, 92.97292
292.5326, 92.83853
293.0147, 92.90096
293.4968, 93.03460
293.9789, 92.78801
294.4611, 92.10381
294.9432, 91.33735
295.4253, 90.88770
295.9074, 90.71011
296.3895, 90.61710
296.8716, 90.52626
297.3538, 90.46664
297.8359, 90.51454
298.3180, 90.67415
298.8001, 90.86018
299.2822, 91.04311
299.7643, 91.19597
300.2465, 91.23981
300.7286, 91.04887
301.2107, 90.80016
301.6928, 90.72271
302.1749, 90.81332
302.6570, 91.01199
303.1392, 91.33363
303.6213, 91.72245
304.1034, 92.07310
304.5855, 92.34102
305.0676, 92.58167
305.5497, 92.93468
306.0319, 93.35239
306.5140, 93.60432
306.9961, 93.36485
307.4782, 92.93467
307.9603, 92.66047
308.4424, 92.62513
308.9246, 92.75943
309.4067, 93.06838
309.8888, 93.51148
310.3709, 93.98239
310.8530, 94.47508
311.3351, 94.93680
311.8173, 95.29768
312.2994, 95.50669
312.7815, 95.75282
313.2636, 96.27089
313.7457, 96.89315
314.2278, 97.31978
314.7100, 97.21027
315.1921, 97.01720
315.6742, 97.03821
316.1563, 97.34150
316.6384, 97.62002
317.1205, 97.75681
317.6027, 97.78673
318.0848, 97.75212
318.5669, 97.61472
319.0490, 97.46090
319.5311, 97.34128
320.0132, 97.26082
320.4954, 97.11836
320.9775, 96.69521
321.4596, 96.28867
321.9417, 96.15874
322.4238, 96.80856
322.9059, 97.27113
323.3881, 97.19151
323.8702, 96.62416
324.3523, 96.25605
324.8344, 96.28185
325.3165, 96.47242
325.7986, 96.69180
326.2808, 96.92802
326.7629, 97.19628
327.2450, 97.44590
327.7271, 97.71534
328.2092, 98.15871
328.6913, 99.11667
329.1735, 99.94826
329.6556, 100.3853
330.1377, 100.1070
330.6198, 100.0456
331.1019, 100.3187
331.5840, 100.7716
332.0662, 101.1067
332.5483, 101.1779
333.0304, 101.3416
333.5125, 101.7258
333.9946, 102.3815
334.4767, 103.0204
334.9589, 103.7109
335.4410, 104.3096
335.9231, 104.5811
336.4052, 104.3594
336.8873, 104.2466
337.3694, 104.4192
337.8516, 104.8581
338.3336, 105.2167
338.8158, 105.4480
339.2979, 105.7053
339.7800, 106.1781
340.2621, 106.9105
340.7442, 107.5362
341.2263, 107.9690
341.7085, 108.2570
342.1906, 108.4720
342.6727, 108.5814
343.1548, 108.8350
343.6369, 109.5805
344.1190, 110.7599
344.6012, 111.4883
345.0833, 111.5831
345.5654, 111.3461
346.0475, 111.2234
346.5296, 111.2166
347.0117, 111.3756
347.4939, 111.8701
347.9760, 112.5590
348.4581, 112.9310
348.9402, 112.9072
349.4223, 112.8755
349.9044, 113.3778
350.3866, 114.2662
350.8687, 115.0331
351.3508, 115.2420
351.8329, 115.3143
352.3150, 116.0103
352.7971, 117.3165
353.2793, 118.6357
353.7614, 119.2966
354.2435, 119.7195
354.7256, 120.6132
355.2077, 122.3900
355.6898, 124.4407
356.1720, 126.3228
356.6541, 128.0577
357.1362, 129.7269
357.6183, 131.2926
358.1004, 132.8778
358.5826, 134.5757
359.0647, 136.3740
359.5468, 138.3621
360.0289, 140.6939
360.5110, 143.2427
360.9931, 145.7778
361.4753, 148.1797
361.9574, 150.5371
362.4395, 152.7791
362.9216, 154.8201
363.4037, 157.2747
363.8858, 160.3210
364.3680, 163.8747
364.8501, 167.8642
365.3322, 172.7188
365.8143, 177.5033
366.2964, 181.9734
366.7785, 186.1502
367.2607, 190.2812
367.7428, 194.3649
368.2249, 198.4649
368.7070, 202.6469
369.1891, 207.5372
369.6712, 211.6385
370.1534, 214.9402
370.6355, 217.4429
371.1176, 219.1805
371.5997, 220.4229
372.0818, 220.5359
372.5639, 219.2167
373.0461, 216.2212
373.5282, 212.4696
374.0103, 207.8380
374.4924, 202.4878
374.9745, 196.6488
375.4566, 190.1383
375.9388, 183.5768
376.4209, 177.1067
376.9030, 170.6772
377.3851, 164.7846
377.8672, 159.3676
378.3493, 154.4452
378.8315, 150.2526
379.3136, 146.7704
379.7957, 143.2117
380.2778, 139.2726
380.7599, 135.2896
381.2420, 131.9737
381.7242, 129.3783
382.2063, 127.1337
382.6884, 125.0343
383.1705, 123.1070
383.6526, 121.6143
384.1347, 120.6704
384.6169, 119.7952
385.0990, 118.1729
385.5811, 116.0723
386.0632, 114.4452
386.5453, 114.1243
387.0274, 114.3497
387.5096, 114.1149
387.9917, 113.4109
388.4738, 112.6298
388.9559, 112.0013
389.4380, 111.5170
389.9201, 111.1638
390.4023, 110.9431
390.8844, 110.8562
391.3665, 110.9878
391.8486, 111.2793
392.3307, 111.5084
392.8128, 111.5301
393.2950, 111.4766
393.7771, 111.4004
394.2592, 111.2282
394.7413, 111.2484
395.2234, 111.7085
395.7055, 112.3868
396.1877, 112.9415
396.6698, 113.2757
397.1519, 113.4945
397.6340, 113.4846
398.1161, 113.1667
398.5982, 113.3566
399.0804, 114.6447
399.5625, 116.1370
400.0446, 117.1718
400.5267, 117.1812
401.0088, 117.5822
401.4909, 118.6511
401.9731, 120.2142
402.4552, 121.5751
402.9373, 122.7731
403.4194, 123.7085
403.9015, 124.2414
404.3836, 124.1817
404.8658, 124.5266
405.3479, 125.4383
405.8300, 126.5266
406.3121, 127.2008
406.7942, 127.4102
407.2763, 127.5471
407.7585, 127.7561
408.2406, 127.9967
408.7227, 128.0749
409.2048, 127.9977
409.6869, 127.6990
410.1690, 127.0969
410.6512, 126.2168
411.1333, 125.1497
411.6154, 123.8966
412.0975, 122.4917
412.5796, 120.9367
413.0617, 119.2474
413.5439, 117.4771
414.0260, 115.5659
414.5081, 113.6063
414.9902, 111.7896
415.4723, 110.1370
415.9544, 108.4435
416.4366, 106.3900
416.9187, 104.2346
417.4008, 102.3714
417.8829, 101.1184
418.3650, 100.0357
418.8471, 98.87912
419.3293, 97.66758
419.8114, 96.45585
420.2935, 95.19257
420.7756, 93.99075
421.2577, 92.96851
421.7398, 92.20926
422.2220, 91.46631
422.7041, 90.63033
423.1862, 89.77966
423.6683, 89.05111
424.1504, 88.55907
424.6325, 88.08237
425.1147, 87.56896
425.5968, 87.00692
426.0789, 86.44881
426.5610, 85.83277
427.0431, 85.27622
427.5252, 84.88577
428.0074, 84.70750
428.4895, 84.60145
428.9716, 84.61704
429.4537, 84.67426
429.9358, 84.47995
430.4179, 83.95958
430.9001, 83.45168
431.3822, 83.12105
431.8643, 82.96890
432.3464, 82.93741
432.8285, 83.06248
433.3106, 83.19148
433.7928, 83.14120
434.2749, 82.92094
434.7570, 82.58949
435.2391, 82.06943
435.7212, 81.52528
436.2033, 81.29294
436.6855, 81.35761
437.1676, 81.54708
437.6497, 81.90496
438.1318, 82.26152
438.6139, 82.31712
439.0960, 81.96520
439.5782, 81.52888
440.0603, 81.18052
440.5424, 80.94315
441.0245, 80.86331
441.5066, 81.14626
441.9887, 81.43674
442.4709, 81.51662
442.9530, 81.38451
443.4351, 81.21220
443.9172, 81.02540
444.3993, 80.84589
444.8814, 80.69205
445.3636, 80.57522
445.8457, 80.46935
446.3278, 80.34859
446.8099, 80.23655
447.2920, 80.18916
447.7741, 80.23287
448.2563, 80.31686
448.7384, 80.47301
449.2205, 80.74297
449.7026, 80.75623
450.1847, 80.38803
450.6668, 79.92265
451.1490, 79.63438
451.6311, 79.57848
452.1132, 79.48547
452.5953, 79.30894
453.0774, 79.07640
453.5595, 78.83316
454.0417, 78.57178
454.5238, 78.35957
455.0059, 78.31303
455.4880, 78.37006
455.9701, 78.14001
456.4522, 77.57177
456.9344, 76.98506
457.4165, 76.70779
457.8986, 76.68604
458.3807, 76.79049
458.8628, 77.05872
459.3449, 77.34469
459.8271, 77.54815
460.3092, 77.64661
460.7913, 77.55140
461.2734, 76.89909
461.7555, 76.22010
462.2376, 76.06605
462.7198, 76.66058
463.2019, 77.08267
463.6840, 76.60030
464.1661, 75.80314
464.6482, 75.40475
465.1303, 76.15668
465.6125, 76.73499
466.0946, 76.67429
466.5767, 76.04647
467.0588, 75.57655
467.5409, 75.39749
468.0230, 75.31660
468.5052, 75.27329
468.9873, 75.34646
469.4694, 75.23614
469.9515, 74.78065
470.4336, 74.28325
470.9157, 74.25358
471.3979, 74.89944
471.8800, 75.28699
472.3621, 75.08655
472.8442, 74.44978
473.3263, 74.10726
473.8084, 74.08679
474.2906, 74.14278
474.7727, 74.08302
475.2548, 73.94104
475.7369, 73.89644
476.2190, 73.98414
476.7011, 74.09998
477.1833, 74.12742
477.6654, 74.08256
478.1475, 74.00862
478.6296, 73.82768
479.1117, 73.69323
479.5938, 73.84083
480.0760, 74.22359
480.5581, 74.52149
481.0402, 74.52506
481.5223, 74.38692
482.0044, 74.18849
482.4865, 73.85537
482.9687, 73.71239
483.4508, 74.08701
483.9329, 74.66236
484.4150, 74.98196
484.8971, 74.51077
485.3792, 74.25783
485.8614, 74.64022
486.3435, 75.59092
486.8256, 76.09195
487.3077, 75.82045
487.7898, 75.47382
488.2719, 75.45474
488.7541, 75.92920
489.2362, 76.18703
489.7183, 76.17123
490.2004, 76.00843
490.6825, 75.83495
491.1646, 75.63329
491.6468, 75.60551
492.1289, 75.85860
492.6110, 76.30113
493.0931, 76.72788
493.5752, 77.13876
494.0573, 77.43812
494.5395, 77.50906
495.0216, 77.42982
495.5037, 77.34143
495.9858, 77.24931
496.4679, 77.22086
496.9500, 77.40505
497.4322, 77.68237
497.9143, 77.85105
498.3964, 77.66673
498.8785, 77.50089
499.3606, 77.64307
499.8427, 78.01705
500.3249, 78.25551
500.8070, 78.05405
501.2891, 77.82598
501.7712, 77.81309
502.2533, 78.15567
502.7354, 78.37989
503.2176, 78.41338
503.6997, 78.32913
504.1818, 78.18356
504.6639, 77.88476
505.1460, 77.70478
505.6281, 77.75362
506.1103, 77.93837
506.5924, 77.85323
507.0745, 77.40821
507.5566, 77.00746
508.0387, 76.92780
508.5208, 77.14387
509.0030, 77.12668
509.4851, 76.85239
509.9672, 76.47869
510.4493, 76.08643
510.9314, 75.72092
511.4135, 75.57471
511.8957, 75.82483
512.3778, 76.09504
512.8599, 75.84384
513.3420, 75.23427
513.8242, 74.74288
514.3063, 74.85935
514.7884, 75.01322
515.2705, 74.69055
515.7526, 73.85629
516.2347, 73.08524
516.7169, 72.68931
517.1990, 72.39690
517.6811, 71.99907
518.1632, 71.32337
518.6453, 70.72652
519.1274, 70.25179
519.6096, 69.87373
520.0917, 69.56792
520.5738, 69.42928
521.0559, 69.19675
521.5380, 68.72314
522.0201, 68.03958
522.5023, 67.75325
522.9844, 67.99261
523.4665, 68.26424
523.9486, 68.15736
524.4307, 67.69621
524.9128, 67.40395
525.3950, 67.35089
525.8771, 67.37765
526.3592, 67.33176
526.8413, 67.19980
527.3234, 66.91962
527.8055, 66.35667
528.2877, 65.74523
528.7698, 65.32457
529.2519, 65.08388
529.7340, 64.96079
530.2161, 64.91676
530.6982, 64.98096
531.1804, 65.25033
531.6625, 65.79534
532.1446, 66.15096
532.6267, 66.03597
533.1088, 65.72303
533.5909, 65.46543
534.0731, 65.31783
534.5552, 65.19738
535.0373, 65.04259
535.5194, 64.91801
536.0015, 65.02600
536.4836, 65.56648
536.9658, 65.92459
537.4479, 65.82604
537.9300, 65.29633
538.4121, 64.88204
538.8942, 64.58331
539.3763, 64.40774
539.8585, 64.45090
540.3406, 64.65556
540.8227, 64.65964
541.3048, 64.37285
541.7869, 64.03855
542.2690, 63.93554
542.7512, 64.02178
543.2333, 64.19482
543.7154, 64.57059
544.1975, 64.88364
544.6796, 64.78449
545.1617, 64.38633
545.6439, 64.19137
546.1260, 64.70031
546.6081, 65.27391
547.0902, 65.51698
547.5723, 65.30341
548.0544, 65.10345
548.5366, 64.86363
549.0187, 64.73420
549.5008, 64.86706
549.9829, 65.53796
550.4650, 65.95914
550.9471, 65.97981
551.4293, 65.75979
551.9114, 65.68552
552.3935, 65.79397
552.8756, 65.86829
553.3577, 65.79876
553.8398, 65.62856
554.3220, 65.53645
554.8041, 65.52164
555.2862, 65.61535
555.7683, 65.94007
556.2504, 66.37174
556.7325, 66.65726
557.2147, 66.74897
557.6968, 66.77218
558.1789, 66.75784
558.6610, 66.76085
559.1431, 66.86211
559.6252, 67.32922
560.1074, 67.65417
560.5895, 67.49808
561.0716, 67.01306
561.5537, 66.71226
562.0358, 66.83696
562.5179, 67.02558
563.0001, 67.19319
563.4822, 67.35428
563.9643, 67.31387
564.4464, 66.93736
564.9285, 66.54913
565.4106, 66.39356
565.8928, 66.49942
566.3749, 66.66197
566.8570, 66.88216
567.3391, 67.12293
567.8212, 67.40224
568.3033, 67.69110
568.7855, 67.73110
569.2676, 67.26293
569.7497, 66.67447
570.2318, 66.57096
570.7139, 66.87292
571.1960, 67.22424
571.6782, 67.50161
572.1603, 67.68208
572.6424, 67.70838
573.1245, 67.56655
573.6066, 67.44274
574.0887, 67.43040
574.5709, 67.45091
575.0530, 67.44276
575.5351, 67.08863
576.0172, 67.32771
576.4993, 67.44868
576.9814, 67.45789
577.4636, 67.02055
577.9457, 67.15983
578.4278, 67.06802
578.9099, 66.96674
579.3920, 67.18717
579.8741, 66.81479
580.3563, 67.03011
580.8384, 67.01083
581.3205, 67.09892
581.8026, 66.95451
582.2847, 66.88192
582.7668, 67.04190
583.2490, 67.07309
583.7311, 66.90192
