##NAMES=Elbaite
##RRUFFID=R050119
##IDEAL CHEMISTRY=Na(Al_1.5_Li_1.5_)Al_6_(Si_6_O_18_)(BO_3_)_3_(OH)_3_OH
##LOCALITY=Cruziero mine, San Jose, Minas Gerais, Brazil
##OWNER=RRUFF
##SOURCE=Carlos and Paulo Vasconcelos
##DESCRIPTION=Red fragment
##STATUS=The identification of this mineral has been confirmed by X-ray diffraction and chemical analysis
##URL=rruff.info/R050119
##MEASURED CHEMISTRY=(Na_0.90_Ca_0.10_)(Al_0.56_Li_0.38_Mn_0.06_)_3_Al_6_(BO_3_)_3_(Si_0.89_B_0.11_)_6_O_18_(OH)_4_
91.62726, 0.0000000E+00
92.10938, 3.183288
92.59149, 3.078315
93.07361, 3.090298
93.55573, 3.213837
94.03784, 3.386277
94.51996, 3.638526
95.00208, 3.917361
95.48419, 4.033029
95.96631, 3.845925
96.44843, 3.470220
96.93054, 3.227535
97.41266, 3.129080
97.89478, 3.115320
98.37689, 3.137561
98.85901, 3.195906
99.34113, 3.250238
99.82324, 3.286771
100.3054, 3.305215
100.7875, 3.306450
101.2696, 3.281559
101.7517, 3.251006
102.2338, 3.255205
102.7159, 3.302915
103.1981, 3.360532
103.6802, 3.405594
104.1623, 3.420644
104.6444, 3.491638
105.1265, 3.675686
105.6086, 3.914479
106.0908, 3.966523
106.5729, 3.643428
107.0550, 3.354262
107.5371, 3.349635
108.0192, 3.922544
108.5013, 4.340530
108.9835, 4.488557
109.4656, 4.375369
109.9477, 4.338409
110.4298, 4.428404
110.9119, 4.566897
111.3940, 4.702324
111.8762, 4.662692
112.3583, 4.791371
112.8404, 5.200051
113.3225, 5.917912
113.8046, 6.616167
114.2867, 7.350367
114.7689, 8.014651
115.2510, 8.489736
115.7331, 8.458021
116.2152, 8.481714
116.6973, 8.806219
117.1794, 9.519414
117.6616, 10.24806
118.1437, 10.89019
118.6258, 11.46187
119.1079, 11.96805
119.5900, 12.26938
120.0721, 12.60067
120.5543, 13.15080
121.0364, 14.03634
121.5185, 14.92296
122.0006, 15.54651
122.4827, 15.99607
122.9648, 16.53701
123.4470, 17.46348
123.9291, 18.50638
124.4112, 19.32673
124.8933, 19.71381
125.3754, 20.05747
125.8575, 20.70470
126.3397, 21.64400
126.8218, 22.80988
127.3039, 24.23795
127.7860, 25.84727
128.2681, 27.47320
128.7502, 29.12130
129.2324, 30.72969
129.7145, 32.15323
130.1966, 33.39846
130.6787, 34.55543
131.1608, 35.71798
131.6429, 36.86349
132.1251, 37.93380
132.6072, 38.89979
133.0893, 39.77065
133.5714, 40.61973
134.0535, 41.45509
134.5356, 42.23152
135.0178, 42.84814
135.4999, 43.29752
135.9820, 43.80054
136.4641, 44.54027
136.9462, 45.50447
137.4283, 46.08323
137.9105, 46.16582
138.3926, 46.06829
138.8747, 46.30616
139.3568, 46.92613
139.8389, 47.70069
140.3210, 48.61326
140.8032, 49.75256
141.2853, 50.52391
141.7674, 50.68975
142.2495, 50.62543
142.7316, 51.24022
143.2137, 52.63929
143.6959, 53.90405
144.1780, 54.86619
144.6601, 55.36229
145.1422, 56.03774
145.6243, 57.01412
146.1064, 58.18098
146.5886, 59.14925
147.0707, 59.81381
147.5528, 60.40440
148.0349, 61.04712
148.5170, 61.97181
148.9991, 62.59454
149.4813, 62.66273
149.9634, 62.27392
150.4455, 62.33830
150.9276, 63.40509
151.4097, 64.54335
151.8918, 65.16198
152.3740, 64.77848
152.8561, 64.45625
153.3382, 64.31570
153.8203, 64.35204
154.3024, 64.36519
154.7845, 64.64263
155.2667, 64.73692
155.7488, 64.31207
156.2309, 62.44767
156.7130, 60.94543
157.1951, 60.39363
157.6772, 60.85265
158.1594, 61.08591
158.6415, 60.51973
159.1236, 59.73342
159.6057, 59.29137
160.0878, 59.80373
160.5699, 60.26351
161.0521, 60.14318
161.5342, 59.30184
162.0163, 58.88191
162.4984, 59.73237
162.9805, 61.11426
163.4626, 62.09357
163.9448, 61.96323
164.4269, 61.63716
164.9090, 61.59261
165.3911, 61.90659
165.8732, 62.31537
166.3553, 62.63661
166.8375, 62.97003
167.3196, 63.48071
167.8017, 64.45153
168.2838, 65.49443
168.7659, 66.34177
169.2480, 66.94742
169.7302, 67.41409
170.2123, 67.68505
170.6944, 67.85987
171.1765, 68.15698
171.6586, 68.81190
172.1407, 69.58459
172.6229, 70.24464
173.1050, 70.74200
173.5871, 71.17098
174.0692, 71.62411
174.5513, 72.07678
175.0334, 72.44943
175.5156, 72.70248
175.9977, 72.84696
176.4798, 72.89306
176.9619, 72.84348
177.4440, 72.70280
177.9261, 72.51791
178.4083, 72.26628
178.8904, 71.84295
179.3725, 70.90633
179.8546, 69.78030
180.3367, 69.17359
180.8188, 69.40446
181.3010, 69.87272
181.7831, 69.60786
182.2652, 68.71243
182.7473, 67.97853
183.2294, 68.04374
183.7115, 68.72751
184.1937, 69.57099
184.6758, 70.59997
185.1579, 71.60912
185.6400, 72.18776
186.1221, 72.34853
186.6042, 72.52055
187.0864, 73.01033
187.5685, 73.79128
188.0506, 74.71796
188.5327, 75.75166
189.0148, 76.92669
189.4969, 78.52795
189.9791, 80.57423
190.4612, 82.48750
190.9433, 83.57851
191.4254, 83.96597
191.9075, 84.77251
192.3896, 86.36140
192.8718, 88.47054
193.3539, 90.34293
193.8360, 91.95686
194.3181, 93.64420
194.8002, 95.78389
195.2823, 98.38147
195.7645, 100.8722
196.2466, 103.0549
196.7287, 105.0471
197.2108, 107.3478
197.6929, 109.9903
198.1750, 112.7755
198.6572, 115.5129
199.1393, 118.1822
199.6214, 120.9143
200.1035, 123.6069
200.5856, 126.3680
201.0677, 129.8972
201.5499, 134.4087
202.0320, 139.0426
202.5141, 142.7695
202.9962, 145.4191
203.4783, 148.5307
203.9604, 152.5029
204.4426, 157.2626
204.9247, 162.2862
205.4068, 167.6171
205.8889, 172.9882
206.3710, 177.9968
206.8531, 182.4971
207.3353, 187.3984
207.8174, 192.9276
208.2995, 199.0618
208.7816, 205.5968
209.2637, 212.6369
209.7458, 219.7422
210.2280, 226.1562
210.7101, 231.3836
211.1922, 237.7841
211.6743, 246.2558
212.1564, 256.6392
212.6385, 266.3266
213.1207, 274.8310
213.6028, 283.2490
214.0849, 292.6519
214.5670, 302.9874
215.0491, 314.1931
215.5313, 326.4095
216.0134, 339.6847
216.4955, 352.9032
216.9776, 366.0977
217.4597, 379.7579
217.9418, 393.0314
218.4240, 407.2567
218.9061, 421.3260
219.3882, 435.3681
219.8703, 449.2744
220.3524, 461.9553
220.8345, 473.5688
221.3167, 483.5894
221.7988, 491.8045
222.2809, 498.7016
222.7630, 502.4848
223.2451, 502.6088
223.7272, 499.0532
224.2094, 493.0524
224.6915, 483.8282
225.1736, 472.9189
225.6557, 462.1694
226.1378, 451.9498
226.6199, 440.6511
227.1021, 427.5060
227.5842, 412.3871
228.0663, 398.8890
228.5484, 387.2384
229.0305, 376.7805
229.5126, 366.8579
229.9948, 357.3424
230.4769, 348.6481
230.9590, 340.7780
231.4411, 333.7669
231.9232, 327.5466
232.4053, 322.2942
232.8875, 317.5612
233.3696, 312.8783
233.8517, 307.8901
234.3338, 303.6690
234.8159, 300.5432
235.2980, 298.4690
235.7802, 296.3989
236.2623, 294.0013
236.7444, 291.9717
237.2265, 290.8780
237.7086, 290.8371
238.1907, 291.5529
238.6729, 293.3199
239.1550, 296.0403
239.6371, 297.9106
240.1192, 298.2308
240.6013, 298.4849
241.0834, 299.9130
241.5656, 303.1857
242.0477, 306.2835
242.5298, 309.0866
243.0119, 311.5555
243.4940, 313.2325
243.9761, 313.6630
244.4583, 313.8312
244.9404, 314.5553
245.4225, 316.6219
245.9046, 317.6206
246.3867, 317.0263
246.8688, 315.0654
247.3510, 313.3376
247.8331, 312.1871
248.3152, 310.8326
248.7973, 308.7451
249.2794, 305.6366
249.7615, 302.3827
250.2437, 299.0792
250.7258, 295.6904
251.2079, 292.0825
251.6900, 288.1484
252.1721, 284.1518
252.6542, 280.1875
253.1364, 276.1657
253.6185, 272.4766
254.1006, 269.2355
254.5827, 266.3529
255.0648, 263.5867
255.5469, 261.0739
256.0291, 258.5097
256.5112, 255.6635
256.9933, 252.2011
257.4754, 249.2850
257.9575, 247.0220
258.4396, 245.3014
258.9218, 243.9395
259.4039, 243.1193
259.8860, 242.3035
260.3681, 241.2153
260.8502, 239.7326
261.3323, 238.2951
261.8145, 236.8293
262.2966, 235.4586
262.7787, 234.4281
263.2608, 233.7428
263.7429, 233.3761
264.2250, 233.4058
264.7072, 233.9992
265.1893, 234.3093
265.6714, 234.3861
266.1535, 234.1189
266.6356, 233.1744
267.1177, 231.2028
267.5999, 229.4576
268.0820, 228.5626
268.5641, 228.7064
269.0462, 228.2446
269.5283, 227.1303
270.0104, 225.4665
270.4926, 223.2291
270.9747, 220.1635
271.4568, 217.4054
271.9389, 215.6585
272.4210, 214.9789
272.9031, 212.6205
273.3853, 208.0426
273.8674, 202.7616
274.3495, 198.9182
274.8316, 196.7842
275.3137, 194.5549
275.7958, 191.7026
276.2780, 188.2746
276.7601, 184.8298
277.2422, 181.4290
277.7243, 177.8461
278.2064, 173.6424
278.6885, 168.6886
279.1707, 164.2729
279.6528, 160.8874
280.1349, 158.2829
280.6170, 155.0887
281.0991, 151.1838
281.5812, 147.1710
282.0634, 143.6968
282.5455, 140.7324
283.0276, 137.6566
283.5097, 134.2728
283.9918, 130.7446
284.4739, 127.5043
284.9561, 124.5292
285.4382, 122.0018
285.9203, 120.2743
286.4024, 119.3010
286.8845, 118.0513
287.3666, 116.3310
287.8488, 114.3415
288.3309, 112.5148
288.8130, 110.8528
289.2951, 109.2271
289.7772, 107.4151
290.2593, 105.5187
290.7415, 104.1568
291.2236, 103.5680
291.7057, 103.1403
292.1878, 101.7394
292.6699, 99.44686
293.1520, 97.24626
293.6342, 95.70574
294.1163, 94.69920
294.5984, 93.91883
295.0805, 93.37794
295.5626, 92.90343
296.0447, 92.20519
296.5269, 91.34463
297.0090, 90.61707
297.4911, 90.25898
297.9732, 90.12007
298.4553, 89.80870
298.9374, 89.29259
299.4196, 88.91660
299.9017, 89.18720
300.3838, 89.90193
300.8659, 90.50670
301.3480, 90.62868
301.8301, 90.58737
302.3123, 90.87099
302.7944, 91.47331
303.2765, 92.16296
303.7586, 92.70210
304.2407, 93.20570
304.7228, 93.92235
305.2050, 95.13902
305.6871, 96.38728
306.1692, 96.88454
306.6513, 96.79855
307.1334, 97.05321
307.6155, 98.50373
308.0977, 100.5807
308.5798, 102.5395
309.0619, 104.1178
309.5440, 105.7391
310.0261, 107.8147
310.5082, 110.2334
310.9904, 112.6484
311.4725, 114.9879
311.9546, 117.2028
312.4367, 119.2412
312.9188, 121.0552
313.4009, 122.8016
313.8831, 124.6766
314.3652, 126.5222
314.8473, 128.0724
315.3294, 129.4088
315.8115, 130.2903
316.2936, 130.5077
316.7758, 129.9901
317.2579, 129.1836
317.7400, 128.0726
318.2221, 126.8424
318.7042, 125.7058
319.1863, 125.0249
319.6685, 124.1902
320.1506, 122.8098
320.6327, 120.8606
321.1148, 119.1415
321.5969, 117.5964
322.0790, 116.5338
322.5612, 116.1781
323.0433, 117.4590
323.5254, 118.5420
324.0075, 118.8079
324.4896, 118.3867
324.9717, 118.3031
325.4539, 118.9101
325.9360, 119.7728
326.4181, 120.6432
326.9002, 121.5133
327.3823, 122.3805
327.8644, 123.4500
328.3466, 124.5465
328.8287, 125.1296
329.3108, 124.6691
329.7929, 124.1494
330.2750, 123.9139
330.7571, 124.0428
331.2393, 124.2642
331.7214, 124.6057
332.2035, 125.0303
332.6856, 125.4894
333.1677, 126.1243
333.6498, 126.5900
334.1320, 126.7522
334.6141, 126.5620
335.0962, 126.3847
335.5783, 125.9892
336.0604, 125.8475
336.5425, 126.5730
337.0247, 128.6341
337.5068, 130.3725
337.9889, 131.3655
338.4710, 131.7240
338.9531, 132.4710
339.4352, 133.7229
339.9174, 135.1137
340.3995, 136.3530
340.8816, 137.4305
341.3637, 138.4669
341.8458, 139.4147
342.3279, 140.3894
342.8101, 141.8429
343.2922, 143.8341
343.7743, 145.8331
344.2564, 147.4473
344.7385, 148.7159
345.2206, 150.1166
345.7028, 151.6719
346.1849, 153.4089
346.6670, 155.4269
347.1491, 157.7126
347.6312, 160.0609
348.1133, 162.6404
348.5955, 165.2338
349.0776, 166.9261
349.5597, 167.6457
350.0418, 168.3701
350.5239, 170.1514
351.0060, 172.7742
351.4882, 175.5110
351.9703, 178.1580
352.4524, 180.7764
352.9345, 183.3089
353.4166, 185.7885
353.8987, 188.5198
354.3809, 191.6995
354.8630, 195.2649
355.3451, 198.9855
355.8272, 202.6428
356.3093, 206.8142
356.7914, 212.4159
357.2736, 219.0378
357.7557, 225.4348
358.2378, 230.3095
358.7199, 234.9848
359.2020, 240.6431
359.6841, 247.5469
360.1663, 254.6695
360.6484, 260.7799
361.1305, 266.8955
361.6126, 274.4449
362.0947, 285.1703
362.5768, 296.3843
363.0590, 306.7014
363.5411, 316.1031
364.0232, 326.3110
364.5053, 337.7397
364.9874, 350.2884
365.4695, 363.8791
365.9517, 378.7059
366.4338, 394.3572
366.9159, 410.6295
367.3980, 427.6840
367.8801, 446.2369
368.3622, 466.8400
368.8444, 488.3808
369.3265, 510.4616
369.8086, 533.8868
370.2907, 556.4994
370.7728, 577.7943
371.2549, 598.3830
371.7371, 619.3713
372.2192, 643.7722
372.7013, 664.5137
373.1834, 679.7664
373.6655, 689.5641
374.1476, 694.5318
374.6298, 694.5465
375.1119, 689.8363
375.5940, 680.2951
376.0761, 665.5519
376.5582, 647.3412
377.0403, 625.0057
377.5225, 599.6270
378.0046, 574.7628
378.4867, 550.9288
378.9688, 527.4333
379.4509, 503.3804
379.9330, 478.9183
380.4152, 456.6608
380.8973, 437.2302
381.3794, 419.6163
381.8615, 402.5702
382.3436, 385.8927
382.8257, 370.3923
383.3079, 356.1555
383.7900, 343.2056
384.2721, 331.2100
384.7542, 320.2471
385.2363, 310.0666
385.7184, 300.0240
386.2006, 290.5511
386.6827, 282.2930
387.1648, 275.7671
387.6469, 270.3802
388.1290, 265.5769
388.6111, 261.3067
389.0933, 257.1664
389.5754, 252.3712
390.0575, 247.7480
390.5396, 244.2799
391.0217, 242.3047
391.5038, 240.8792
391.9860, 239.4341
392.4681, 238.0620
392.9502, 236.9116
393.4323, 235.8907
393.9144, 235.2425
394.3965, 235.1883
394.8787, 235.7516
395.3608, 236.5001
395.8429, 237.3784
396.3250, 238.3282
396.8071, 239.3006
397.2892, 239.8818
397.7714, 240.9253
398.2535, 242.8649
398.7356, 245.5128
399.2177, 247.9193
399.6998, 249.9329
400.1819, 251.7325
400.6641, 253.3752
401.1462, 254.7318
401.6283, 256.2171
402.1104, 258.0984
402.5925, 259.9818
403.0746, 261.2620
403.5568, 261.6478
404.0389, 261.9486
404.5210, 262.3577
405.0031, 262.8741
405.4852, 263.4530
405.9673, 264.3364
406.4495, 264.8234
406.9316, 264.2508
407.4137, 262.5245
407.8958, 260.4879
408.3779, 258.2640
408.8600, 255.7987
409.3422, 252.8507
409.8243, 249.4072
410.3064, 245.9187
410.7885, 242.7712
411.2706, 239.8010
411.7527, 236.3292
412.2349, 232.3087
412.7170, 227.7909
413.1991, 222.5840
413.6812, 216.8790
414.1633, 211.5013
414.6454, 207.1117
415.1276, 202.9373
415.6097, 197.9454
416.0918, 192.2388
416.5739, 186.2507
417.0560, 179.9001
417.5381, 173.5893
418.0203, 167.7764
418.5024, 162.6422
418.9845, 157.8182
419.4666, 153.2559
419.9487, 148.8555
420.4308, 144.5381
420.9130, 140.1091
421.3951, 135.8468
421.8772, 131.8637
422.3593, 128.2553
422.8414, 124.6655
423.3235, 120.7169
423.8057, 116.9288
424.2878, 113.7621
424.7699, 111.8470
425.2520, 109.8983
425.7341, 107.7255
426.2162, 105.4268
426.6984, 103.2347
427.1805, 101.0340
427.6626, 99.10320
428.1447, 97.61317
428.6268, 96.78628
429.1089, 95.58918
429.5911, 93.81428
430.0732, 91.86922
430.5553, 90.19107
431.0374, 88.77043
431.5195, 87.68203
432.0016, 87.05111
432.4838, 86.74631
432.9659, 86.06137
433.4480, 84.92687
433.9301, 83.84462
434.4122, 83.30634
434.8943, 83.20901
435.3765, 82.73252
435.8586, 81.69712
436.3407, 80.58333
436.8228, 80.18750
437.3049, 80.34302
437.7870, 80.34386
438.2692, 79.70335
438.7513, 78.79940
439.2334, 78.15775
439.7155, 77.77030
440.1976, 77.47156
440.6797, 77.14823
441.1619, 76.84340
441.6440, 76.62592
442.1261, 76.59145
442.6082, 76.50365
443.0903, 76.14763
443.5724, 75.63789
444.0546, 75.22181
444.5367, 75.13430
445.0188, 75.04063
445.5009, 74.72966
445.9830, 74.14567
446.4651, 73.69435
446.9473, 73.54931
447.4294, 73.51390
447.9115, 73.42569
448.3936, 73.42825
448.8757, 73.17458
449.3578, 72.43845
449.8400, 71.42327
450.3221, 70.80704
450.8042, 70.83614
451.2863, 70.87345
451.7684, 70.66094
452.2505, 70.16405
452.7327, 69.60560
453.2148, 68.91512
453.6969, 68.30178
454.1790, 68.17910
454.6611, 68.59577
455.1432, 68.57982
455.6254, 67.70901
456.1075, 66.41666
456.5896, 65.96972
457.0717, 66.34566
457.5538, 66.76043
458.0359, 66.64526
458.5181, 66.19116
459.0002, 65.80289
459.4823, 65.50859
459.9644, 65.34423
460.4465, 65.48841
460.9286, 65.77899
461.4108, 65.90297
461.8929, 65.60027
462.3750, 65.20798
462.8571, 64.93949
463.3392, 64.78721
463.8214, 64.72678
464.3035, 64.69296
464.7856, 64.78313
465.2677, 65.12128
465.7498, 65.88492
466.2319, 66.44680
466.7141, 66.60646
467.1962, 66.49541
467.6783, 66.28249
468.1604, 65.79339
468.6425, 65.41569
469.1246, 65.22362
469.6068, 65.20739
470.0889, 65.25965
470.5710, 65.39161
471.0531, 65.57535
471.5352, 65.83845
472.0173, 66.27779
472.4995, 66.42035
472.9816, 66.16877
473.4637, 65.74648
473.9458, 65.48896
474.4279, 65.40051
474.9100, 65.39569
475.3922, 65.48997
475.8743, 65.63132
476.3564, 65.61143
476.8385, 65.43290
477.3206, 65.32127
477.8027, 65.43354
478.2849, 65.73799
478.7670, 66.23593
479.2491, 66.98733
479.7312, 67.66080
480.2133, 67.81799
480.6954, 67.68192
481.1776, 67.66912
481.6597, 68.02715
482.1418, 68.50386
482.6239, 68.95206
483.1060, 69.38000
483.5881, 69.84550
484.0703, 70.26353
484.5524, 70.80575
485.0345, 71.63186
485.5166, 72.99352
485.9987, 74.10770
486.4808, 74.74791
486.9630, 75.11329
487.4451, 75.46643
487.9272, 75.68445
488.4093, 76.07216
488.8914, 76.74487
489.3735, 77.67019
489.8557, 78.46696
490.3378, 79.06881
490.8199, 79.71864
491.3020, 80.63805
491.7841, 81.87798
492.2662, 82.74500
492.7484, 83.13331
493.2305, 83.35489
493.7126, 83.70055
494.1947, 84.19617
494.6768, 85.09513
495.1589, 86.70998
495.6411, 88.55452
496.1232, 89.62242
496.6053, 90.03506
497.0874, 90.49900
497.5695, 91.55321
498.0516, 92.87917
498.5338, 94.13103
499.0159, 95.24742
499.4980, 96.36242
499.9801, 97.53117
500.4622, 98.75919
500.9443, 100.0802
501.4265, 101.5452
501.9086, 103.0236
502.3907, 104.4793
502.8728, 105.9214
503.3549, 107.4047
503.8370, 109.1500
504.3192, 110.7591
504.8013, 112.0421
505.2834, 112.8852
505.7655, 113.9264
506.2476, 115.2823
506.7297, 116.7007
507.2119, 117.9185
507.6940, 118.8454
508.1761, 119.9532
508.6582, 121.4211
509.1403, 122.9975
509.6224, 124.0510
510.1046, 124.5722
510.5867, 124.9146
511.0688, 125.1850
511.5509, 125.4153
512.0330, 125.7377
512.5151, 126.1569
512.9973, 126.5146
513.4794, 126.6775
513.9615, 126.6945
514.4436, 126.6482
514.9257, 126.5754
515.4078, 126.4042
515.8900, 126.1082
516.3721, 125.6742
516.8542, 125.0786
517.3363, 124.3787
517.8184, 123.4513
518.3005, 122.1361
518.7827, 120.4442
519.2648, 118.8703
519.7469, 117.5842
520.2290, 116.3733
520.7111, 115.0946
521.1932, 113.5849
521.6754, 112.4053
522.1575, 111.8224
522.6396, 111.3414
523.1217, 110.1931
523.6038, 108.1922
524.0859, 106.1896
524.5681, 104.3658
525.0502, 102.7170
525.5323, 101.2262
526.0144, 99.89290
526.4965, 98.62963
526.9786, 97.16572
527.4608, 95.71358
527.9429, 95.10995
528.4250, 95.46568
528.9071, 95.84328
529.3892, 95.13570
529.8713, 93.90736
530.3535, 93.13619
530.8356, 93.48866
531.3177, 93.80779
531.7998, 93.07407
532.2819, 91.71455
532.7640, 90.78600
533.2462, 90.99925
533.7283, 91.38525
534.2104, 91.56770
534.6925, 91.50826
535.1746, 91.39585
535.6567, 91.32594
536.1389, 91.14214
536.6210, 90.70808
537.1031, 89.70861
537.5852, 89.21662
538.0673, 89.54089
538.5494, 90.09870
539.0316, 89.83810
539.5137, 88.62305
539.9958, 87.51496
540.4779, 86.88374
540.9600, 86.54969
541.4421, 85.92370
541.9243, 85.02324
542.4064, 84.18214
542.8885, 83.83096
543.3706, 83.64796
543.8527, 82.95304
544.3348, 81.65049
544.8170, 80.33235
545.2991, 79.44108
545.7812, 78.81931
546.2633, 78.26884
546.7454, 77.79910
547.2275, 77.30560
547.7097, 76.70827
548.1918, 76.05315
548.6739, 75.45811
549.1560, 74.81760
549.6381, 74.36498
550.1202, 74.27817
550.6024, 74.57420
551.0845, 74.63100
551.5666, 74.41452
552.0487, 74.00317
552.5308, 73.36706
553.0129, 72.39968
553.4951, 71.80229
553.9772, 71.67295
554.4593, 71.76453
554.9414, 71.80936
555.4235, 71.79723
555.9056, 71.58553
556.3878, 71.04700
556.8699, 70.38937
557.3520, 69.98032
557.8341, 69.77364
558.3162, 69.57819
558.7983, 69.28671
559.2805, 68.95106
559.7626, 68.53896
560.2447, 68.04809
560.7268, 67.80064
561.2089, 68.22269
561.6910, 68.78782
562.1732, 69.08695
562.6553, 69.05310
563.1374, 68.73508
563.6195, 67.81180
564.1016, 66.70651
564.5837, 66.06048
565.0659, 66.11126
565.5480, 66.17664
566.0301, 66.11900
566.5122, 65.96357
566.9943, 65.83124
567.4764, 65.72384
567.9586, 65.63569
568.4407, 65.57530
568.9228, 65.53574
569.4049, 65.43376
569.8870, 65.25414
570.3691, 65.17566
570.8513, 65.44480
571.3334, 65.93143
571.8155, 66.41504
572.2976, 66.94991
572.7797, 67.23586
573.2618, 66.75085
573.7440, 65.90373
574.2261, 65.42049
574.7082, 66.05256
575.1903, 66.63033
575.6724, 66.54900
576.1545, 65.90272
576.6367, 65.60271
577.1188, 66.09249
577.6009, 66.57756
578.0830, 66.68855
578.5651, 66.28117
579.0472, 66.31763
579.5294, 67.01850
580.0115, 67.77266
580.4936, 67.84917
580.9757, 67.22680
581.4578, 67.11736
581.9399, 67.83517
582.4221, 68.79414
582.9042, 69.02679
583.3863, 68.68600
583.8684, 68.40925
584.3505, 68.49781
584.8326, 68.76065
585.3148, 69.01528
585.7969, 69.27029
