##NAMES=Elbaite
##RRUFFID=R100137
##IDEAL CHEMISTRY=Na(Al_1.5_Li_1.5_)Al_6_(Si_6_O_18_)(BO_3_)_3_(OH)_3_OH
##LOCALITY=Nigeria
##OWNER=RRUFF
##SOURCE=William W. Pinch
##DESCRIPTION=Red cut gemstone
##STATUS=The identification of this mineral has been confirmed only by single crystal X-ray diffraction.
##URL=rruff.info/R100137
90.60547, 328.9289
91.08759, 349.5890
91.56970, 363.3348
92.05182, 359.1141
92.53394, 343.9673
93.01605, 327.4252
93.49817, 314.7759
93.98029, 305.5504
94.46240, 294.8068
94.94452, 280.2672
95.42664, 265.8456
95.90874, 253.6983
96.39086, 243.8594
96.87298, 235.5560
97.35509, 228.2466
97.83721, 222.4297
98.31933, 215.0340
98.80145, 203.9989
99.28356, 192.7537
99.76568, 183.6955
100.2478, 177.5460
100.7299, 173.3411
101.2120, 168.8130
101.6941, 162.0126
102.1763, 157.0779
102.6584, 155.3818
103.1405, 155.3838
103.6226, 154.9369
104.1047, 152.7737
104.5868, 149.1878
105.0690, 146.3024
105.5511, 144.4198
106.0332, 142.7471
106.5153, 140.9196
106.9974, 138.9474
107.4795, 137.0037
107.9617, 135.1880
108.4438, 133.5019
108.9259, 131.9440
109.4080, 130.3860
109.8901, 128.9903
110.3722, 128.0361
110.8544, 127.6554
111.3365, 127.4195
111.8186, 127.0620
112.3007, 126.6267
112.7828, 126.1956
113.2649, 125.7101
113.7471, 125.1968
114.2292, 125.0680
114.7113, 125.8024
115.1934, 126.4957
115.6755, 126.7061
116.1576, 126.5136
116.6397, 126.2976
117.1219, 126.5581
117.6040, 127.6891
118.0861, 128.0383
118.5682, 126.8094
119.0503, 125.5235
119.5324, 125.1762
120.0146, 125.9343
120.4967, 127.1811
120.9788, 127.8845
121.4609, 127.4301
121.9430, 127.3115
122.4251, 127.9091
122.9073, 128.7184
123.3894, 129.0687
123.8715, 128.6515
124.3536, 127.8381
124.8357, 127.6151
125.3178, 128.1335
125.8000, 128.7165
126.2821, 129.1534
126.7642, 129.4608
127.2463, 129.6736
127.7284, 129.7275
128.2105, 129.7551
128.6927, 130.0022
129.1748, 130.5958
129.6569, 131.2142
130.1390, 131.5038
130.6211, 131.4055
131.1032, 131.3347
131.5854, 131.3360
132.0675, 131.5116
132.5496, 132.0781
133.0317, 133.2645
133.5138, 134.6845
133.9959, 135.3888
134.4781, 134.9665
134.9602, 134.4250
135.4423, 133.9930
135.9244, 133.6473
136.4065, 133.3826
136.8886, 133.2260
137.3708, 133.1478
137.8529, 132.7565
138.3350, 132.0808
138.8171, 131.0355
139.2992, 129.2796
139.7813, 127.0916
140.2635, 125.0558
140.7456, 123.7059
141.2277, 123.1455
141.7098, 122.3280
142.1919, 121.3329
142.6740, 120.0868
143.1561, 118.2611
143.6383, 115.9548
144.1204, 113.8826
144.6025, 112.8251
145.0846, 112.9799
145.5667, 113.1773
146.0488, 113.7990
146.5310, 114.2559
147.0131, 113.7337
147.4952, 111.9570
147.9773, 109.8867
148.4594, 108.4522
148.9415, 107.5601
149.4237, 107.2787
149.9058, 108.1538
150.3879, 109.7060
150.8700, 110.5743
151.3521, 110.3809
151.8342, 109.6084
152.3164, 108.6997
152.7985, 107.6627
153.2806, 106.5206
153.7627, 105.1442
154.2448, 103.5169
154.7269, 102.3196
155.2091, 102.1426
155.6912, 102.0701
156.1733, 101.6161
156.6554, 100.7528
157.1375, 99.78981
157.6196, 99.08274
158.1018, 98.67533
158.5839, 98.41849
159.0660, 98.39083
159.5481, 98.42791
160.0302, 98.47921
160.5123, 98.51336
160.9945, 98.47065
161.4766, 98.21728
161.9587, 97.32552
162.4408, 96.88857
162.9229, 97.19247
163.4050, 97.78130
163.8871, 98.23146
164.3693, 98.38633
164.8514, 98.39143
165.3335, 98.60474
165.8156, 99.26759
166.2977, 99.80024
166.7798, 99.99133
167.2620, 100.0441
167.7441, 100.2940
168.2262, 100.9154
168.7083, 101.7532
169.1904, 102.3413
169.6725, 102.5049
170.1547, 102.7820
170.6368, 103.4371
171.1189, 104.3902
171.6010, 105.3678
172.0831, 106.2445
172.5652, 107.0777
173.0474, 108.0427
173.5295, 109.2877
174.0116, 110.3807
174.4937, 110.9045
174.9758, 110.8620
175.4579, 110.7980
175.9401, 111.0637
176.4222, 111.3614
176.9043, 111.3558
177.3864, 110.9430
177.8685, 110.3179
178.3506, 109.7510
178.8328, 109.3108
179.3149, 108.6682
179.7970, 107.4835
180.2791, 106.1563
180.7612, 105.0876
181.2433, 104.4572
181.7255, 103.9921
182.2076, 103.0308
182.6897, 101.0904
183.1718, 99.55326
183.6539, 98.64235
184.1360, 98.21566
184.6181, 98.23908
185.1003, 98.72301
185.5824, 99.47857
186.0645, 99.81758
186.5466, 99.17224
187.0287, 98.78957
187.5108, 99.06133
187.9930, 99.62392
188.4751, 99.95992
188.9572, 99.75880
189.4393, 99.17767
189.9214, 99.10838
190.4035, 100.1795
190.8857, 101.0639
191.3678, 101.2217
191.8499, 101.0461
192.3320, 101.2860
192.8141, 102.4481
193.2962, 104.3652
193.7784, 105.7409
194.2605, 106.3223
194.7426, 106.7809
195.2247, 107.4542
195.7068, 108.2115
196.1889, 108.5698
196.6711, 108.0391
197.1532, 106.9598
197.6353, 106.9756
198.1174, 108.9760
198.5995, 111.1332
199.0816, 112.5040
199.5638, 113.1541
200.0459, 113.4904
200.5280, 113.5521
201.0101, 113.5402
201.4922, 113.9700
201.9743, 115.0777
202.4565, 116.4151
202.9386, 117.6464
203.4207, 118.7730
203.9028, 119.8459
204.3849, 120.8266
204.8670, 121.7907
205.3492, 122.7925
205.8313, 123.6904
206.3134, 124.8284
206.7955, 126.6760
207.2776, 129.3257
207.7597, 132.2619
208.2419, 135.5507
208.7240, 138.9016
209.2061, 141.9312
209.6882, 144.3917
210.1703, 146.7403
210.6524, 149.8787
211.1346, 154.1664
211.6167, 158.2678
212.0988, 161.0720
212.5809, 163.7700
213.0630, 167.6074
213.5451, 173.1138
214.0273, 179.7638
214.5094, 186.3586
214.9915, 192.6696
215.4736, 199.3893
215.9557, 206.8375
216.4378, 214.6060
216.9200, 222.3683
217.4021, 229.9376
217.8842, 237.4048
218.3663, 244.9369
218.8484, 252.7092
219.3305, 260.2623
219.8127, 268.3219
220.2948, 275.8862
220.7769, 282.0242
221.2590, 286.3135
221.7411, 288.8508
222.2232, 289.9131
222.7054, 289.0543
223.1875, 286.9794
223.6696, 283.3849
224.1517, 278.7336
224.6338, 273.5410
225.1159, 268.0204
225.5980, 262.0995
226.0802, 255.5379
226.5623, 247.6269
227.0444, 239.9210
227.5265, 232.2084
228.0086, 224.8524
228.4907, 218.5655
228.9729, 213.6807
229.4550, 209.6727
229.9371, 205.2154
230.4192, 199.1184
230.9013, 194.4103
231.3834, 192.5961
231.8656, 192.2401
232.3477, 191.1513
232.8298, 188.4254
233.3119, 184.8867
233.7940, 182.3049
234.2761, 180.7890
234.7583, 179.6550
235.2404, 178.8600
235.7225, 178.3215
236.2046, 177.8889
236.6867, 177.5067
237.1688, 177.2248
237.6510, 177.0942
238.1331, 177.0434
238.6152, 177.3238
239.0973, 178.1325
239.5794, 179.3273
240.0615, 180.6771
240.5437, 182.2448
241.0258, 183.6992
241.5079, 184.5464
241.9900, 184.8138
242.4721, 184.9936
242.9542, 185.2922
243.4364, 185.6568
243.9185, 185.9640
244.4006, 186.2138
244.8827, 186.3510
245.3648, 186.3414
245.8469, 186.1952
246.3290, 185.9060
246.8112, 185.5443
247.2933, 185.0470
247.7754, 184.2107
248.2575, 183.0088
248.7396, 181.4278
249.2217, 179.2366
249.7039, 176.6351
250.1860, 174.3373
250.6681, 172.8979
251.1502, 172.1019
251.6323, 171.1664
252.1144, 170.1592
252.5966, 168.8230
253.0787, 166.8929
253.5608, 164.5699
254.0429, 162.2726
254.5250, 160.2242
255.0071, 158.3959
255.4893, 156.6135
255.9714, 154.6740
256.4535, 153.1679
256.9356, 152.3622
257.4177, 152.0781
257.8998, 152.0525
258.3820, 152.2281
258.8641, 152.5218
259.3462, 152.6409
259.8283, 152.5441
260.3104, 152.3183
260.7925, 151.8712
261.2747, 151.3677
261.7568, 151.0223
262.2389, 150.9430
262.7210, 151.0799
263.2031, 151.2955
263.6852, 151.6121
264.1674, 151.9793
264.6495, 152.4136
265.1316, 152.8707
265.6137, 153.3393
266.0958, 153.8239
266.5779, 154.2363
267.0601, 154.3193
267.5422, 153.7696
268.0243, 153.4395
268.5064, 153.5086
268.9885, 153.7823
269.4706, 154.1583
269.9528, 154.5900
270.4349, 154.9639
270.9170, 155.0474
271.3991, 154.6959
271.8812, 154.3182
272.3633, 154.2321
272.8455, 153.9633
273.3276, 152.9946
273.8097, 151.2656
274.2918, 149.3072
274.7739, 147.9743
275.2560, 147.7464
275.7382, 147.1239
276.2202, 145.8500
276.7024, 144.4588
277.1845, 143.3090
277.6666, 142.4293
278.1487, 141.5783
278.6308, 140.4170
279.1129, 138.7349
279.5951, 137.4986
280.0772, 137.2672
280.5593, 136.9198
281.0414, 135.7568
281.5235, 133.8525
282.0056, 131.7818
282.4878, 130.0903
282.9699, 128.8167
283.4520, 127.5987
283.9341, 126.3306
284.4162, 125.2029
284.8983, 124.3923
285.3805, 123.8039
285.8626, 123.2154
286.3447, 122.4766
286.8268, 121.5890
287.3089, 120.3697
287.7910, 118.3378
288.2732, 116.5194
288.7553, 115.3510
289.2374, 114.6103
289.7195, 113.9021
290.2016, 113.0044
290.6837, 111.9131
291.1659, 110.5532
291.6480, 108.4766
292.1301, 106.6647
292.6122, 105.2796
293.0943, 104.2546
293.5764, 103.5800
294.0586, 103.2626
294.5407, 103.1053
295.0228, 102.5719
295.5049, 101.1751
295.9870, 99.98267
296.4691, 99.12199
296.9513, 98.44494
297.4334, 97.77663
297.9155, 97.06649
298.3976, 96.41328
298.8797, 95.99528
299.3618, 96.00813
299.8440, 95.90273
300.3261, 95.56649
300.8082, 95.18602
301.2903, 94.90701
301.7724, 94.75813
302.2545, 94.66673
302.7367, 94.52404
303.2188, 94.24962
303.7009, 94.30362
304.1830, 94.84415
304.6651, 95.54787
305.1472, 96.27160
305.6294, 96.98016
306.1115, 97.62374
306.5936, 98.11356
307.0757, 98.42725
307.5578, 99.20068
308.0399, 101.0689
308.5221, 102.6892
309.0042, 103.2829
309.4863, 103.1244
309.9684, 102.9862
310.4505, 103.3726
310.9326, 104.1901
311.4148, 104.7736
311.8969, 104.9573
312.3790, 105.1421
312.8611, 105.3619
313.3432, 105.6556
313.8253, 106.1269
314.3075, 106.8375
314.7896, 107.6506
315.2717, 108.2219
315.7538, 108.6983
316.2359, 108.7123
316.7180, 107.8373
317.2001, 106.6580
317.6823, 105.7723
318.1644, 105.3556
318.6465, 105.2880
319.1286, 105.4150
319.6107, 105.8669
320.0928, 106.2037
320.5750, 106.1167
321.0571, 106.1281
321.5392, 106.9520
322.0213, 108.5049
322.5034, 109.6997
322.9855, 109.2482
323.4677, 106.7101
323.9498, 105.9444
324.4319, 108.3419
324.9140, 110.9272
325.3961, 112.2524
325.8782, 112.4670
326.3604, 112.3767
326.8425, 112.4861
327.3246, 112.8071
327.8067, 113.4982
328.2888, 114.9394
328.7709, 116.2672
329.2531, 117.2066
329.7352, 117.8957
330.2173, 118.6146
330.6994, 119.5078
331.1815, 120.4133
331.6636, 120.8907
332.1458, 120.1306
332.6279, 119.9472
333.1100, 120.8281
333.5921, 122.0946
334.0742, 123.1212
334.5563, 123.7173
335.0385, 124.0510
335.5206, 124.3501
336.0027, 124.6036
336.4848, 124.8466
336.9669, 125.0868
337.4490, 125.3132
337.9312, 125.4600
338.4133, 125.5620
338.8954, 125.7446
339.3775, 126.1011
339.8596, 126.6159
340.3417, 127.5313
340.8239, 129.5102
341.3060, 131.1501
341.7881, 131.7616
342.2702, 131.6606
342.7523, 131.4663
343.2344, 131.5315
343.7166, 131.8821
344.1987, 132.6517
344.6808, 134.3358
345.1629, 135.9041
345.6450, 137.3810
346.1271, 138.6402
346.6093, 139.4721
347.0914, 139.8114
347.5735, 139.9057
348.0556, 140.2134
348.5377, 140.8675
349.0198, 141.5135
349.5020, 142.2944
349.9841, 142.9674
350.4662, 143.3338
350.9483, 143.3913
351.4304, 143.2812
351.9125, 143.1011
352.3947, 142.7862
352.8768, 142.8446
353.3589, 143.4016
353.8410, 144.1999
354.3231, 145.3203
354.8052, 146.6118
355.2874, 147.8050
355.7695, 148.7005
356.2516, 149.3550
356.7337, 150.0816
357.2158, 150.4656
357.6979, 151.5541
358.1800, 153.9081
358.6621, 156.8504
359.1443, 159.6239
359.6264, 161.9525
360.1085, 164.1030
360.5906, 166.5647
361.0727, 169.3868
361.5548, 172.4162
362.0370, 175.3743
362.5191, 178.7033
363.0012, 182.7158
363.4833, 187.4459
363.9654, 192.6169
364.4475, 197.9487
364.9297, 203.4236
365.4118, 209.3393
365.8939, 215.4540
366.3760, 222.3647
366.8581, 230.7054
367.3402, 239.9419
367.8224, 248.9850
368.3045, 257.0072
368.7866, 264.4798
369.2687, 273.0237
369.7508, 283.4136
370.2329, 293.1005
370.7151, 301.3646
371.1972, 308.5281
371.6793, 315.0751
372.1614, 321.1468
372.6435, 326.1322
373.1256, 329.3774
373.6078, 330.8950
374.0899, 330.4930
374.5720, 327.6545
375.0541, 323.0774
375.5362, 317.2274
376.0183, 310.1475
376.5005, 302.1475
376.9826, 292.9619
377.4647, 282.9278
377.9468, 273.2623
378.4289, 264.1783
378.9110, 255.1492
379.3932, 245.3680
379.8753, 235.4012
380.3574, 226.4248
380.8395, 219.0174
381.3216, 212.5506
381.8037, 206.4124
382.2859, 200.5927
382.7680, 194.9798
383.2501, 189.4084
383.7322, 184.1423
384.2143, 179.5067
384.6964, 175.6594
385.1786, 171.9983
385.6607, 168.0042
386.1428, 163.9663
386.6249, 160.7339
387.1070, 158.6726
387.5891, 157.0170
388.0713, 154.7884
388.5534, 152.0528
389.0355, 149.6793
389.5176, 148.1929
389.9997, 146.9308
390.4818, 144.9563
390.9640, 142.2990
391.4461, 140.2582
391.9282, 139.8976
392.4103, 140.8953
392.8924, 141.3163
393.3745, 140.5915
393.8567, 139.9642
394.3388, 140.1536
394.8209, 140.7567
395.3030, 140.9293
395.7851, 140.3235
396.2672, 139.3737
396.7494, 138.8634
397.2315, 139.0845
397.7136, 139.0517
398.1957, 138.2332
398.6778, 137.4716
399.1599, 137.6098
399.6420, 138.6325
400.1241, 139.8266
400.6063, 140.5977
401.0884, 140.9459
401.5705, 140.9225
402.0526, 140.1873
402.5347, 139.5154
403.0168, 139.1978
403.4990, 139.0903
403.9811, 138.9084
404.4632, 138.5136
404.9453, 138.0639
405.4274, 137.9762
405.9095, 138.6832
406.3917, 139.0181
406.8738, 138.8897
407.3559, 138.4642
407.8380, 137.9134
408.3201, 137.2219
408.8022, 136.1653
409.2844, 134.3418
409.7665, 131.6629
410.2486, 129.7813
410.7307, 129.8093
411.2128, 129.4429
411.6949, 127.6509
412.1771, 125.0908
412.6592, 122.9250
413.1413, 121.8068
413.6234, 121.1140
414.1055, 119.3928
414.5876, 116.2016
415.0698, 113.3012
415.5519, 111.6718
416.0340, 110.1069
416.5161, 107.5303
416.9982, 103.8845
417.4803, 100.4613
417.9625, 98.54758
418.4446, 97.91531
418.9267, 96.88443
419.4088, 95.10164
419.8909, 93.36623
420.3730, 92.52708
420.8552, 92.09641
421.3373, 91.01225
421.8194, 88.42007
422.3015, 85.54175
422.7836, 83.96268
423.2657, 83.67069
423.7479, 83.41901
424.2300, 82.76236
424.7121, 81.84102
425.1942, 80.83119
425.6763, 79.67390
426.1584, 78.73331
426.6406, 78.18088
427.1227, 77.94138
427.6048, 77.93766
428.0869, 78.16785
428.5690, 78.50010
429.0511, 78.90376
429.5333, 79.35132
430.0154, 79.39664
430.4975, 78.66935
430.9796, 77.88626
431.4617, 77.50480
431.9438, 77.39437
432.4260, 77.15293
432.9081, 76.57079
433.3902, 75.83643
433.8723, 75.39292
434.3544, 75.27530
434.8365, 75.42451
435.3187, 76.21523
435.8008, 77.02232
436.2829, 77.18839
436.7650, 76.73441
437.2471, 76.26881
437.7292, 76.35281
438.2114, 76.99697
438.6935, 77.79794
439.1756, 79.01814
439.6577, 80.10707
440.1398, 80.90012
440.6219, 81.49860
441.1040, 82.01321
441.5862, 82.48974
442.0683, 82.96556
442.5504, 83.54409
443.0325, 84.34145
443.5146, 84.88878
443.9967, 85.14976
444.4789, 85.14464
444.9610, 84.69972
445.4431, 83.94577
445.9252, 83.29601
446.4073, 83.08500
446.8894, 83.21146
447.3716, 83.34406
447.8537, 83.59703
448.3358, 83.56493
448.8179, 82.63896
449.3000, 81.51805
449.7821, 81.05046
450.2643, 81.52670
450.7464, 82.10114
451.2285, 82.05162
451.7106, 81.46723
452.1927, 80.75097
452.6748, 79.90907
453.1570, 79.10967
453.6391, 78.50281
454.1212, 78.07083
454.6033, 77.82896
455.0854, 78.20896
455.5675, 78.46687
456.0497, 77.70042
456.5318, 76.07851
457.0139, 74.71149
457.4960, 74.25910
457.9781, 74.30408
458.4602, 73.59841
458.9424, 71.38311
459.4245, 70.10141
459.9066, 71.22627
460.3887, 72.90693
460.8708, 73.07902
461.3529, 71.53920
461.8351, 69.63276
462.3172, 68.60826
462.7993, 68.50304
463.2814, 68.31379
463.7635, 67.95006
464.2456, 67.61199
464.7278, 67.25363
465.2099, 66.98044
465.6920, 66.93610
466.1741, 67.17409
466.6562, 67.61832
467.1383, 68.24896
467.6205, 69.34011
468.1026, 69.76752
468.5847, 68.98183
469.0668, 67.97710
469.5489, 66.99036
470.0310, 66.14101
470.5132, 65.63931
470.9953, 65.70835
471.4774, 66.11938
471.9595, 66.23652
472.4416, 65.93516
472.9237, 65.81269
473.4059, 66.52180
473.8880, 67.22913
474.3701, 66.94655
474.8522, 65.52418
475.3343, 64.36046
475.8164, 64.55612
476.2986, 65.66650
476.7807, 66.73992
477.2628, 67.75024
477.7449, 68.24792
478.2270, 67.50003
478.7091, 65.90978
479.1913, 65.19533
479.6734, 65.94161
480.1555, 67.02287
480.6376, 68.20534
481.1197, 69.26797
481.6018, 69.61600
482.0839, 69.01860
482.5660, 68.11260
483.0482, 67.77882
483.5303, 68.19151
484.0124, 68.62022
484.4945, 68.96600
484.9766, 69.41695
485.4587, 70.23982
485.9409, 71.25151
486.4230, 72.03458
486.9051, 72.35793
487.3872, 72.30267
487.8693, 72.04843
488.3514, 71.22243
488.8336, 70.91901
489.3157, 71.61727
489.7978, 72.46208
490.2799, 72.77461
490.7620, 72.62279
491.2441, 72.62667
491.7263, 73.36857
492.2084, 74.67213
492.6905, 75.67551
493.1726, 76.28797
493.6547, 76.81369
494.1368, 77.48721
494.6190, 78.07826
495.1011, 78.25243
495.5832, 77.89585
496.0653, 77.56989
496.5474, 77.78215
497.0295, 78.36452
497.5117, 78.72147
497.9938, 78.66619
498.4759, 78.82212
498.9580, 79.93790
499.4401, 81.77679
499.9222, 83.03336
500.4044, 83.12850
500.8865, 83.14471
501.3686, 83.68092
501.8507, 84.53920
502.3328, 85.30652
502.8149, 85.83806
503.2971, 86.29041
503.7792, 86.87487
504.2613, 87.61281
504.7434, 88.44935
505.2255, 89.63398
505.7076, 90.66232
506.1898, 91.27602
506.6719, 91.55209
507.1540, 91.58679
507.6361, 91.40962
508.1182, 91.25105
508.6003, 91.74198
509.0825, 93.29398
509.5646, 94.39085
510.0467, 94.36584
510.5288, 94.29292
511.0109, 94.87905
511.4930, 95.97678
511.9752, 96.89715
512.4573, 97.12027
512.9394, 96.93700
513.4215, 97.06422
513.9036, 97.57381
514.3857, 97.92645
514.8679, 97.75308
515.3500, 97.44041
515.8321, 97.54673
516.3142, 98.14225
516.7963, 98.60500
517.2784, 98.61486
517.7606, 98.36064
518.2427, 98.13646
518.7248, 97.95849
519.2069, 97.59734
519.6890, 96.87688
520.1711, 95.85581
520.6533, 94.84604
521.1354, 94.04092
521.6175, 92.98577
522.0996, 91.12373
522.5817, 89.25635
523.0638, 88.34480
523.5460, 88.45130
524.0281, 88.82248
524.5102, 88.77873
524.9923, 88.32650
525.4744, 87.57954
525.9565, 86.23447
526.4387, 84.99187
526.9208, 83.94123
527.4029, 83.07902
527.8850, 82.39828
528.3671, 81.89704
528.8492, 81.58398
529.3314, 81.54078
529.8135, 81.73537
530.2956, 81.83043
530.7777, 81.73624
531.2598, 81.69093
531.7419, 81.76636
532.2241, 82.00469
532.7062, 82.56289
533.1883, 83.68114
533.6704, 84.68941
534.1525, 85.10116
534.6346, 85.06702
535.1168, 84.83508
535.5989, 84.42622
536.0810, 84.21037
536.5631, 84.63733
537.0452, 85.74708
537.5273, 86.53430
538.0095, 87.02837
538.4916, 87.20353
538.9737, 86.97055
539.4558, 86.44051
539.9379, 85.62950
540.4200, 84.58675
540.9022, 83.69470
541.3843, 83.58857
541.8664, 84.49019
542.3485, 84.92636
542.8306, 84.77223
543.3127, 84.24461
543.7948, 83.03039
544.2769, 81.59749
544.7590, 80.72105
545.2411, 80.74245
545.7233, 80.95138
546.2054, 80.35161
546.6875, 79.01298
547.1696, 78.03329
547.6517, 77.67814
548.1339, 77.51955
548.6160, 77.29224
549.0981, 76.98717
549.5802, 76.54208
550.0623, 75.82071
550.5444, 75.09102
551.0266, 74.55434
551.5087, 74.13508
551.9908, 73.65529
552.4729, 73.06049
552.9550, 72.39709
553.4371, 71.66370
553.9193, 70.75712
554.4014, 70.44920
554.8835, 71.56152
555.3656, 72.27767
555.8477, 71.51451
556.3298, 70.07761
556.8120, 69.29202
557.2941, 69.61433
557.7762, 70.23986
558.2583, 69.82457
558.7404, 68.13776
559.2225, 67.43148
559.7047, 68.72105
560.1868, 69.74638
560.6689, 69.22980
561.1510, 67.82906
561.6331, 66.64359
562.1152, 66.02220
562.5974, 65.64249
563.0795, 65.26846
563.5616, 64.89653
564.0437, 64.52015
564.5258, 64.14102
565.0079, 63.72889
565.4901, 63.20803
565.9722, 62.59980
566.4543, 62.20446
566.9364, 62.24136
567.4185, 62.23950
567.9006, 61.91555
568.3828, 61.48425
568.8649, 61.30865
569.3470, 61.45859
569.8291, 61.62089
570.3112, 61.39710
570.7933, 60.74980
571.2755, 60.40304
571.7576, 61.08079
572.2397, 61.12038
572.7218, 59.15543
573.2039, 56.84800
573.6860, 56.21476
574.1682, 57.72668
574.6503, 59.89434
575.1324, 61.73399
575.6145, 63.11541
576.0966, 63.25414
576.5787, 61.81794
577.0609, 60.23278
577.5430, 59.10266
578.0251, 58.53935
578.5072, 58.80342
578.9893, 60.43996
579.4714, 61.68561
579.9536, 61.59929
580.4357, 60.89446
580.9178, 60.35094
581.3999, 60.10017
581.8820, 60.03197
582.3641, 60.05794
582.8463, 60.20160
583.3284, 60.61590
583.8105, 61.83667
584.2926, 62.53792
584.7747, 62.41466
585.2568, 61.92556
585.7390, 61.26896
586.2211, 60.55883
586.7032, 60.01361
587.1853, 59.87548
587.6674, 59.95081
588.1495, 59.57780
588.6317, 58.60685
589.1138, 58.15593
