##NAMES=Elbaite
##RRUFFID=R060566
##IDEAL CHEMISTRY=Na(Al_1.5_Li_1.5_)Al_6_(Si_6_O_18_)(BO_3_)_3_(OH)_3_OH
##LOCALITY=unknown
##OWNER=RRUFF
##SOURCE=Gemological Institute of America
##DESCRIPTION=Pink part of a slice of a tourmaline crystal perpendicular to its c-axis showing pink, colorless and green zones, see also R070563 (white) and R070564 (green)
##STATUS=The identification of this mineral has been confirmed by X-ray diffraction and chemical analysis
##URL=rruff.info/R060566
##MEASURED CHEMISTRY=(Na_0.63_[box]_0.34_Ca_0.03_)_Σ=1_(Al_1.59_Li_1.28_Fe^2+^_0.10_Mn_0.03_)_Σ=3_Al_6.00_(BO_3_)_3_[Si_6.00_O_18_]((OH)_3.47_F_0.53_)_Σ=4_ ; B and Li not measured but estimated by stoichiometry and charge balance
91.62726, 0.0000000E+00
92.10938, 21.91594
92.59149, 22.01520
93.07361, 21.93911
93.55573, 21.70703
94.03784, 21.56654
94.51996, 21.90821
95.00208, 22.56263
95.48419, 22.93948
95.96631, 22.83054
96.44843, 22.32218
96.93054, 21.51591
97.41266, 20.34768
97.89478, 19.26480
98.37689, 18.86969
98.85901, 19.17527
99.34113, 19.63295
99.82324, 20.20947
100.3054, 20.90007
100.7875, 20.90554
101.2696, 19.97096
101.7517, 18.67990
102.2338, 18.16455
102.7159, 18.65687
103.1981, 19.27471
103.6802, 19.52196
104.1623, 19.12697
104.6444, 19.32914
105.1265, 20.59512
105.6086, 22.45976
106.0908, 23.04294
106.5729, 21.15106
107.0550, 19.37237
107.5371, 19.28683
108.0192, 22.67956
108.5013, 25.08972
108.9835, 25.86632
109.4656, 25.05618
109.9477, 24.49357
110.4298, 23.92630
110.9119, 23.74772
111.3940, 24.21755
111.8762, 25.69213
112.3583, 27.45889
112.8404, 29.44238
113.3225, 31.63372
113.8046, 34.00495
114.2867, 37.12656
114.7689, 40.26534
115.2510, 42.60221
115.7331, 42.54491
116.2152, 42.85805
116.6973, 44.78915
117.1794, 48.81919
117.6616, 52.86166
118.1437, 56.35490
118.6258, 59.37862
119.1079, 61.94781
119.5900, 63.35326
120.0721, 64.78851
120.5543, 67.11998
121.0364, 70.73094
121.5185, 74.62101
122.0006, 78.17212
122.4827, 81.52060
122.9648, 85.11490
123.4470, 89.62695
123.9291, 94.33936
124.4112, 98.28090
124.8933, 100.6789
125.3754, 103.0728
125.8575, 107.2686
126.3397, 113.0322
126.8218, 118.9512
127.3039, 123.1832
127.7860, 126.8020
128.2681, 132.0727
128.7502, 140.4324
129.2324, 150.2358
129.7145, 158.7371
130.1966, 165.9775
130.6787, 172.3771
131.1608, 178.2729
131.6429, 183.6145
132.1251, 188.4144
132.6072, 192.5344
133.0893, 196.0951
133.5714, 199.7170
134.0535, 203.4629
134.5356, 206.9816
135.0178, 209.8156
135.4999, 211.9418
135.9820, 213.7366
136.4641, 215.1549
136.9462, 216.2266
137.4283, 217.8679
137.9105, 220.2476
138.3926, 222.9247
138.8747, 225.0493
139.3568, 226.4769
139.8389, 228.0327
140.3210, 230.1963
140.8032, 233.1826
141.2853, 235.5716
141.7674, 236.8706
142.2495, 237.8536
142.7316, 240.3151
143.2137, 244.1189
143.6959, 246.8477
144.1780, 248.6468
144.6601, 248.8588
145.1422, 249.9429
145.6243, 252.2047
146.1064, 255.3606
146.5886, 258.5599
147.0707, 262.4762
147.5528, 265.6986
148.0349, 267.4345
148.5170, 267.5130
148.9991, 266.4760
149.4813, 263.5681
149.9634, 259.1025
150.4455, 256.2990
150.9276, 257.0179
151.4097, 258.0757
151.8918, 257.5243
152.3740, 253.7390
152.8561, 250.2227
153.3382, 247.2646
153.8203, 244.8647
154.3024, 242.7680
154.7845, 241.8165
155.2667, 240.7307
155.7488, 238.5271
156.2309, 233.6152
156.7130, 229.0901
157.1951, 225.5435
157.6772, 223.0090
158.1594, 221.2283
158.6415, 220.4202
159.1236, 220.2398
159.6057, 220.3505
160.0878, 221.3449
160.5699, 222.0140
161.0521, 221.5079
161.5342, 219.5441
162.0163, 218.5707
162.4984, 219.9798
162.9805, 222.7168
163.4626, 225.4509
163.9448, 227.8610
164.4269, 230.0382
164.9090, 232.0021
165.3911, 233.7197
165.8732, 235.4378
166.3553, 237.2352
166.8375, 239.1201
167.3196, 241.1054
167.8017, 243.0257
168.2838, 245.1497
168.7659, 247.8242
169.2480, 251.2493
169.7302, 254.5735
170.2123, 257.1715
170.6944, 259.2455
171.1765, 261.2062
171.6586, 263.0623
172.1407, 265.0167
172.6229, 267.3793
173.1050, 270.3303
173.5871, 273.2885
174.0692, 275.7202
174.5513, 277.7251
175.0334, 279.5635
175.5156, 281.6549
175.9977, 283.6139
176.4798, 284.9268
176.9619, 285.6551
177.4440, 285.4882
177.9261, 283.7969
178.4083, 280.7948
178.8904, 277.3875
179.3725, 274.2848
179.8546, 271.1935
180.3367, 267.4420
180.8188, 262.5089
181.3010, 257.5800
181.7831, 254.3775
182.2652, 252.7992
182.7473, 251.8326
183.2294, 250.4561
183.7115, 249.0939
184.1937, 249.1676
184.6758, 251.5499
185.1579, 254.7588
185.6400, 256.0384
186.1221, 255.4544
186.6042, 254.8524
187.0864, 255.4661
187.5685, 257.2371
188.0506, 260.0105
188.5327, 264.1921
189.0148, 268.9899
189.4969, 272.6930
189.9791, 275.2404
190.4612, 277.7041
190.9433, 281.1859
191.4254, 285.5215
191.9075, 289.5083
192.3896, 292.6075
192.8718, 295.2844
193.3539, 299.2479
193.8360, 304.7042
194.3181, 310.1144
194.8002, 313.7613
195.2823, 315.7271
195.7645, 318.2715
196.2466, 322.0411
196.7287, 326.7485
197.2108, 331.3148
197.6929, 335.7405
198.1750, 339.9921
198.6572, 344.0732
199.1393, 347.9699
199.6214, 351.4868
200.1035, 354.2188
200.5856, 356.4787
201.0677, 360.1974
201.5499, 365.6588
202.0320, 371.6903
202.5141, 377.0781
202.9962, 381.7065
203.4783, 386.5823
203.9604, 391.6849
204.4426, 397.1533
204.9247, 404.4846
205.4068, 414.1174
205.8889, 424.3538
206.3710, 433.3175
206.8531, 440.6786
207.3353, 448.4713
207.8174, 457.0329
208.2995, 466.3843
208.7816, 476.9237
209.2637, 488.7279
209.7458, 501.3433
210.2280, 514.0639
210.7101, 526.5152
211.1922, 540.4705
211.6743, 556.6701
212.1564, 574.9016
212.6385, 593.2118
213.1207, 611.2931
213.6028, 629.6108
214.0849, 648.6136
214.5670, 668.1223
215.0491, 688.1543
215.5313, 708.0203
216.0134, 727.8507
216.4955, 752.0833
216.9776, 782.4362
217.4597, 815.1019
217.9418, 846.7557
218.4240, 876.7077
218.9061, 906.6393
219.3882, 937.2182
219.8703, 968.1949
220.3524, 998.5556
220.8345, 1029.559
221.3167, 1057.973
221.7988, 1081.166
222.2809, 1099.290
222.7630, 1111.409
223.2451, 1117.284
223.7272, 1116.956
224.2094, 1110.173
224.6915, 1096.046
225.1736, 1076.299
225.6557, 1052.718
226.1378, 1023.560
226.6199, 993.3684
227.1021, 962.4506
227.5842, 930.5294
228.0663, 901.0684
228.5484, 874.2697
229.0305, 849.3109
229.5126, 825.2175
229.9948, 801.3854
230.4769, 779.7131
230.9590, 760.3868
231.4411, 743.4918
231.9232, 728.5137
232.4053, 715.7568
232.8875, 704.3938
233.3696, 693.5410
233.8517, 682.5175
234.3338, 673.3809
234.8159, 666.7891
235.2980, 662.6514
235.7802, 658.7886
236.2623, 654.4614
236.7444, 651.2198
237.2265, 650.5762
237.7086, 654.0458
238.1907, 657.1340
238.6729, 658.7970
239.1550, 659.1959
239.6371, 661.1266
240.1192, 664.9359
240.6013, 669.8749
241.0834, 675.4648
241.5656, 682.1332
242.0477, 688.4802
242.5298, 694.3823
243.0119, 699.8242
243.4940, 704.7455
243.9761, 709.3668
244.4583, 713.1917
244.9404, 715.8576
245.4225, 717.2217
245.9046, 717.7288
246.3867, 717.5905
246.8688, 716.6975
247.3510, 714.1957
247.8331, 709.5530
248.3152, 703.9939
248.7973, 698.3708
249.2794, 693.1891
249.7615, 686.8219
250.2437, 679.1276
250.7258, 670.1608
251.2079, 660.0955
251.6900, 648.0785
252.1721, 636.1832
252.6542, 625.6341
253.1364, 617.1049
253.6185, 608.5135
254.1006, 599.5805
254.5827, 590.5617
255.0648, 582.4590
255.5469, 575.3566
256.0291, 569.1747
256.5112, 563.9595
256.9933, 559.9362
257.4754, 556.2538
257.9575, 552.7599
258.4396, 549.6199
258.9218, 547.4955
259.4039, 546.7667
259.8860, 546.3281
260.3681, 545.5687
260.8502, 544.1041
261.3323, 543.4059
261.8145, 543.3893
262.2966, 544.1939
262.7787, 546.3343
263.2608, 550.4094
263.7429, 554.5313
264.2250, 557.7919
264.7072, 559.7136
265.1893, 562.6341
265.6714, 566.9635
266.1535, 571.8926
266.6356, 575.9000
267.1177, 578.6953
267.5999, 581.4128
268.0820, 584.4470
268.5641, 587.8572
269.0462, 591.4625
269.5283, 595.6541
270.0104, 599.6292
270.4926, 602.4005
270.9747, 604.0558
271.4568, 604.3260
271.9389, 602.8514
272.4210, 599.5770
272.9031, 596.6161
273.3853, 594.2129
273.8674, 591.7040
274.3495, 588.2939
274.8316, 583.8587
275.3137, 579.1215
275.7958, 574.3331
276.2780, 569.4484
276.7601, 563.5539
277.2422, 556.4227
277.7243, 548.8333
278.2064, 541.7929
278.6885, 535.4565
279.1707, 528.1837
279.6528, 519.2069
280.1349, 508.9859
280.6170, 499.9859
281.0991, 492.3827
281.5812, 485.2861
282.0634, 478.0364
282.5455, 470.5345
283.0276, 463.3101
283.5097, 456.5045
283.9918, 450.0181
284.4739, 443.4713
284.9561, 436.8228
285.4382, 430.4149
285.9203, 424.4698
286.4024, 419.0253
286.8845, 413.9412
287.3666, 409.3322
287.8488, 404.9714
288.3309, 400.3119
288.8130, 395.3357
289.2951, 390.6217
289.7772, 386.6908
290.2593, 383.4348
290.7415, 380.1005
291.2236, 376.7591
291.7057, 373.0704
292.1878, 368.0614
292.6699, 361.8739
293.1520, 356.1994
293.6342, 352.2269
294.1163, 349.5583
294.5984, 347.1626
295.0805, 345.0572
295.5626, 342.8252
296.0447, 339.5449
296.5269, 335.4867
297.0090, 331.9497
297.4911, 330.0487
297.9732, 329.0385
298.4553, 327.0841
298.9374, 324.0621
299.4196, 321.2887
299.9017, 320.2705
300.3838, 320.6120
300.8659, 321.2669
301.3480, 321.7693
301.8301, 322.3712
302.3123, 323.5360
302.7944, 325.2564
303.2765, 327.0735
303.7586, 328.2620
304.2407, 329.3376
304.7228, 331.3185
305.2050, 334.9575
305.6871, 339.1963
306.1692, 342.9747
306.6513, 346.3472
307.1334, 349.2878
307.6155, 351.2216
308.0977, 352.9420
308.5798, 355.4901
309.0619, 359.3266
309.5440, 363.7089
310.0261, 368.1561
310.5082, 372.6838
310.9904, 377.3217
311.4725, 382.3211
311.9546, 387.3604
312.4367, 392.2204
312.9188, 396.9037
313.4009, 401.2391
313.8831, 405.4934
314.3652, 409.2491
314.8473, 411.7978
315.3294, 411.9390
315.8115, 411.4585
316.2936, 411.5135
316.7758, 412.3225
317.2579, 412.9499
317.7400, 412.8937
318.2221, 412.4571
318.7042, 412.0263
319.1863, 411.2813
319.6685, 410.9643
320.1506, 411.3569
320.6327, 412.4740
321.1148, 414.1700
321.5969, 416.1120
322.0790, 418.7416
322.5612, 422.4756
323.0433, 428.5621
323.5254, 434.5154
324.0075, 439.5485
324.4896, 443.8321
324.9717, 448.5343
325.4539, 454.5523
325.9360, 460.6177
326.4181, 465.9478
326.9002, 469.5207
327.3823, 473.6286
327.8644, 479.1363
328.3466, 485.3836
328.8287, 490.3434
329.3108, 493.3944
329.7929, 495.6833
330.2750, 497.4767
330.7571, 498.4738
331.2393, 499.7293
331.7214, 501.6682
332.2035, 503.7089
332.6856, 504.9156
333.1677, 505.2677
333.6498, 504.8022
334.1320, 503.1931
334.6141, 500.1963
335.0962, 498.2188
335.5783, 497.5782
336.0604, 497.6287
336.5425, 497.8018
337.0247, 498.3310
337.5068, 498.3545
337.9889, 497.4308
338.4710, 495.7607
338.9531, 495.0218
339.4352, 495.2899
339.9174, 496.3059
340.3995, 498.1500
340.8816, 501.0848
341.3637, 503.1805
341.8458, 503.8957
342.3279, 503.9057
342.8101, 505.0652
343.2922, 507.4613
343.7743, 510.3608
344.2564, 513.5190
344.7385, 516.9298
345.2206, 519.9056
345.7028, 522.3832
346.1849, 524.5604
346.6670, 526.2916
347.1491, 527.6715
347.6312, 530.1786
348.1133, 535.2001
348.5955, 541.9047
349.0776, 547.5724
349.5597, 552.2051
350.0418, 556.2771
350.5239, 559.7224
351.0060, 562.9186
351.4882, 566.9919
351.9703, 572.9222
352.4524, 579.4066
352.9345, 584.0987
353.4166, 587.1892
353.8987, 590.3897
354.3809, 594.7902
354.8630, 600.1320
355.3451, 605.8193
355.8272, 611.4186
356.3093, 618.0036
356.7914, 627.2306
357.2736, 638.3713
357.7557, 649.2321
358.2378, 657.7615
358.7199, 665.9169
359.2020, 674.8143
359.6841, 684.2929
360.1663, 696.2287
360.6484, 713.4699
361.1305, 733.4099
361.6126, 752.3936
362.0947, 767.2895
362.5768, 782.4770
363.0590, 800.2003
363.5411, 820.5165
364.0232, 841.6258
364.5053, 862.3590
364.9874, 883.9696
365.4695, 907.4326
365.9517, 932.2498
366.4338, 959.7381
366.9159, 991.8542
367.3980, 1027.416
367.8801, 1061.857
368.3622, 1091.161
368.8444, 1121.562
369.3265, 1155.900
369.8086, 1197.234
370.2907, 1237.455
370.7728, 1276.554
371.2549, 1314.451
371.7371, 1350.983
372.2192, 1388.654
372.7013, 1421.667
373.1834, 1448.801
373.6655, 1470.436
374.1476, 1484.242
374.6298, 1490.384
375.1119, 1488.269
375.5940, 1476.538
376.0761, 1453.916
376.5582, 1426.180
377.0403, 1393.706
377.5225, 1357.057
378.0046, 1316.103
378.4867, 1270.568
378.9688, 1224.652
379.4509, 1181.184
379.9330, 1140.564
380.4152, 1099.784
380.8973, 1058.694
381.3794, 1017.929
381.8615, 978.8658
382.3436, 941.0604
382.8257, 906.6651
383.3079, 876.3680
383.7900, 849.8606
384.2721, 825.4454
384.7542, 803.3317
385.2363, 782.3885
385.7184, 760.5540
386.2006, 738.9639
386.6827, 719.5372
387.1648, 703.4503
387.6469, 689.5717
388.1290, 676.3268
388.6111, 663.8747
389.0933, 652.7809
389.5754, 643.3669
390.0575, 635.4596
390.5396, 628.8290
391.0217, 623.5984
391.5038, 618.9407
391.9860, 613.8947
392.4681, 609.0428
392.9502, 605.3821
393.4323, 604.1320
393.9144, 603.6212
394.3965, 602.7776
394.8787, 601.4817
395.3608, 600.8539
395.8429, 601.5021
396.3250, 602.8900
396.8071, 604.5372
397.2892, 606.6947
397.7714, 608.7234
398.2535, 610.1148
398.7356, 611.1241
399.2177, 612.9631
399.6998, 616.3453
400.1819, 620.1097
400.6641, 623.8868
401.1462, 628.2897
401.6283, 631.4224
402.1104, 632.8350
402.5925, 633.1785
403.0746, 633.4348
403.5568, 633.6083
404.0389, 633.6523
404.5210, 633.3845
405.0031, 632.7999
405.4852, 633.2311
405.9673, 635.3939
406.4495, 637.2219
406.9316, 636.8672
407.4137, 634.1400
407.8958, 630.7946
408.3779, 627.1355
408.8600, 622.9561
409.3422, 617.4980
409.8243, 610.7206
410.3064, 603.7495
410.7885, 597.6453
411.2706, 591.9443
411.7527, 584.3084
412.2349, 574.3964
412.7170, 563.7708
413.1991, 554.5549
413.6812, 546.2175
414.1633, 537.3027
414.6454, 527.1609
415.1276, 516.2603
415.6097, 505.2131
416.0918, 494.0758
416.5739, 482.5606
417.0560, 469.6868
417.5381, 456.6554
418.0203, 444.9252
418.5024, 435.1660
418.9845, 425.8221
419.4666, 416.0477
419.9487, 406.0415
420.4308, 396.4098
420.9130, 386.9588
421.3951, 378.2017
421.8772, 370.4799
422.3593, 364.0270
422.8414, 357.4508
423.3235, 349.6919
423.8057, 342.0824
424.2878, 335.7767
424.7699, 331.9399
425.2520, 328.2478
425.7341, 324.4399
426.2162, 320.6281
426.6984, 317.0089
427.1805, 313.3824
427.6626, 310.2238
428.1447, 307.7244
428.6268, 306.0269
429.1089, 304.5401
429.5911, 303.2882
430.0732, 302.2003
430.5553, 301.1197
431.0374, 299.9663
431.5195, 299.1183
432.0016, 298.6148
432.4838, 298.4826
432.9659, 299.0428
433.4480, 300.4317
433.9301, 301.6487
434.4122, 301.6822
434.8943, 300.7546
435.3765, 300.5362
435.8586, 301.2975
436.3407, 302.4688
436.8228, 303.3272
437.3049, 303.9292
437.7870, 304.4901
438.2692, 305.0172
438.7513, 305.6123
439.2334, 306.4651
439.7155, 307.5660
440.1976, 308.7101
440.6797, 309.4686
441.1619, 310.2943
441.6440, 311.8668
442.1261, 314.8963
442.6082, 317.6439
443.0903, 318.9627
443.5724, 319.2560
444.0546, 319.3952
444.5367, 319.4309
445.0188, 319.6134
445.5009, 320.2114
445.9830, 321.3326
446.4651, 322.0240
446.9473, 321.6876
447.4294, 321.0587
447.9115, 320.7578
448.3936, 321.1126
448.8757, 321.4401
449.3578, 321.8708
449.8400, 322.2520
450.3221, 322.0685
450.8042, 321.1926
451.2863, 319.9596
451.7684, 318.4561
452.2505, 316.6517
452.7327, 314.8013
453.2148, 312.9395
453.6969, 311.0033
454.1790, 308.9651
454.6611, 306.8051
455.1432, 304.6165
455.6254, 302.4626
456.1075, 300.2755
456.5896, 297.9454
457.0717, 295.4511
457.5538, 292.8395
458.0359, 289.8891
458.5181, 286.8721
459.0002, 284.4237
459.4823, 282.6569
459.9644, 281.1867
460.4465, 279.7926
460.9286, 278.4242
461.4108, 277.0145
461.8929, 275.5238
462.3750, 273.9964
462.8571, 272.3710
463.3392, 270.6957
463.8214, 269.2610
464.3035, 268.2577
464.7856, 267.4924
465.2677, 266.8900
465.7498, 266.5699
466.2319, 266.0463
466.7141, 264.7775
467.1962, 263.3787
467.6783, 262.6240
468.1604, 263.6989
468.6425, 264.2112
469.1246, 263.4709
469.6068, 261.6144
470.0889, 260.2935
470.5710, 259.5838
471.0531, 259.3009
471.5352, 259.4185
472.0173, 260.0875
472.4995, 260.6127
472.9816, 260.9671
473.4637, 261.2012
473.9458, 261.2727
474.4279, 261.1500
474.9100, 261.4095
475.3922, 262.3844
475.8743, 263.8117
476.3564, 264.8854
476.8385, 265.6093
477.3206, 266.2451
477.8027, 266.7581
478.2849, 267.3522
478.7670, 268.6063
479.2491, 270.7519
479.7312, 272.8581
480.2133, 273.7613
480.6954, 274.0128
481.1776, 274.6459
481.6597, 276.5094
482.1418, 278.5355
482.6239, 279.8886
483.1060, 280.7013
483.5881, 281.9000
484.0703, 284.1296
484.5524, 286.6703
485.0345, 289.2049
485.5166, 292.0531
485.9987, 294.0275
486.4808, 293.7204
486.9630, 292.8528
487.4451, 293.8106
487.9272, 298.3745
488.4093, 302.2563
488.8914, 304.5079
489.3735, 305.3575
489.8557, 306.6541
490.3378, 308.5338
490.8199, 310.6003
491.3020, 312.8226
491.7841, 315.3017
492.2662, 316.5569
492.7484, 316.1520
493.2305, 315.5392
493.7126, 316.8388
494.1947, 319.8492
494.6768, 323.0841
495.1589, 326.2879
495.6411, 329.2060
496.1232, 331.0338
496.6053, 331.9541
497.0874, 333.0174
497.5695, 335.2669
498.0516, 337.8738
498.5338, 339.7210
499.0159, 340.4903
499.4980, 341.6421
499.9801, 343.8176
500.4622, 346.9662
500.9443, 351.0892
501.4265, 357.4287
501.9086, 363.3193
502.3907, 367.9721
502.8728, 371.5424
503.3549, 374.7779
503.8370, 376.9278
504.3192, 379.6074
504.8013, 383.6163
505.2834, 389.4565
505.7655, 394.3851
506.2476, 398.0405
506.7297, 401.1823
507.2119, 404.5436
507.6940, 408.1248
508.1761, 411.9016
508.6582, 416.0104
509.1403, 420.1688
509.6224, 423.5590
510.1046, 426.1571
510.5867, 428.8282
511.0688, 432.2783
511.5509, 436.1289
512.0330, 439.0869
512.5151, 441.1413
512.9973, 443.1579
513.4794, 446.1733
513.9615, 449.5906
514.4436, 452.3396
514.9257, 453.7940
515.4078, 455.4273
515.8900, 459.4027
516.3721, 464.2144
516.8542, 467.0010
517.3363, 465.0318
517.8184, 462.4027
518.3005, 460.8990
518.7827, 460.5583
519.2648, 459.8620
519.7469, 458.9254
520.2290, 457.2751
520.7111, 454.6318
521.1932, 450.7299
521.6754, 446.3954
522.1575, 441.4076
522.6396, 436.1294
523.1217, 431.0846
523.6038, 426.3325
524.0859, 421.5124
524.5681, 416.3856
525.0502, 411.2390
525.5323, 407.2106
526.0144, 404.3462
526.4965, 401.5067
526.9786, 397.3275
527.4608, 392.5699
527.9429, 389.8393
528.4250, 389.3844
528.9071, 389.4681
529.3892, 388.3536
529.8713, 386.6995
530.3535, 385.6018
530.8356, 385.4900
531.3177, 385.8529
531.7998, 386.1935
532.2819, 386.7538
532.7640, 388.0872
533.2462, 390.8479
533.7283, 394.0096
534.2104, 397.2819
534.6925, 400.6346
535.1746, 403.8495
535.6567, 407.0420
536.1389, 409.9710
536.6210, 412.4727
537.1031, 414.7982
537.5852, 416.1293
538.0673, 416.0677
538.5494, 415.3939
539.0316, 415.6114
539.5137, 416.9723
539.9958, 417.4785
540.4779, 416.2850
540.9600, 413.9655
541.4421, 412.4134
541.9243, 411.5866
542.4064, 410.3171
542.8885, 407.2149
543.3706, 403.2951
543.8527, 400.7369
544.3348, 399.8528
544.8170, 398.6291
545.2991, 395.1705
545.7812, 390.5637
546.2633, 386.1026
546.7454, 382.3096
547.2275, 378.6035
547.7097, 374.5943
548.1918, 370.4805
548.6739, 366.7939
549.1560, 363.6194
549.6381, 360.8771
550.1202, 358.8441
550.6024, 357.5645
551.0845, 355.4655
551.5666, 352.0948
552.0487, 348.5012
552.5308, 345.4292
553.0129, 342.9909
553.4951, 340.2130
553.9772, 336.7773
554.4593, 333.5959
554.9414, 332.3997
555.4235, 332.9840
555.9056, 332.9268
556.3878, 331.4305
556.8699, 329.0087
557.3520, 326.1704
557.8341, 323.0582
558.3162, 320.3447
558.7983, 318.9520
559.2805, 317.8173
559.7626, 315.8198
560.2447, 312.8766
560.7268, 309.9657
561.2089, 307.2642
561.6910, 304.9324
562.1732, 303.1477
562.6553, 302.7150
563.1374, 301.6485
563.6195, 299.1577
564.1016, 296.0571
564.5837, 293.5141
565.0659, 291.5199
565.5480, 290.1295
566.0301, 289.7592
566.5122, 290.0157
566.9943, 288.6319
567.4764, 285.2537
567.9586, 281.9984
568.4407, 280.2912
568.9228, 279.8643
569.4049, 279.1537
569.8870, 278.1112
570.3691, 277.0688
570.8513, 276.6130
571.3334, 276.3518
571.8155, 275.4420
572.2976, 273.3771
572.7797, 271.3535
573.2618, 270.3349
573.7440, 269.9648
574.2261, 269.5796
574.7082, 268.5465
575.1903, 267.8401
575.6724, 268.1225
576.1545, 269.2496
576.6367, 269.9166
577.1188, 269.9150
577.6009, 269.5224
578.0830, 268.7711
578.5651, 267.5770
579.0472, 266.4879
579.5294, 265.4826
580.0115, 264.6028
