##NAMES=Elbaite
##RRUFFID=R060003
##IDEAL CHEMISTRY=Na(Al_1.5_Li_1.5_)Al_6_(Si_6_O_18_)(BO_3_)_3_(OH)_3_OH
##LOCALITY=Mount Begbie, Revelstoke, British Columbia, Canada
##OWNER=RRUFF
##SOURCE=Bob Downs
##DESCRIPTION=Pink crystal associated with trilithionite, R060004
##STATUS=The identification of this mineral has been confirmed by X-ray diffraction and chemical analysis
##URL=rruff.info/R060003
##MEASURED CHEMISTRY=(Na_0.58_[box]_0.42_)(Al_1.69_Li_1.27_Mn_0.04_)Al_6_(BO_3_)_3_[Si_6_O_18_](OH)_4_
123.2975, 225.8207
123.7796, 224.2708
124.2617, 225.0097
124.7438, 229.2425
125.2259, 234.6132
125.7081, 238.7976
126.1902, 241.9987
126.6723, 244.4451
127.1544, 247.5632
127.6365, 251.7317
128.1186, 256.0338
128.6008, 260.1540
129.0829, 264.3967
129.5650, 270.1319
130.0471, 277.1979
130.5292, 282.5928
131.0113, 282.5283
131.4935, 278.2918
131.9756, 275.2239
132.4577, 275.0112
132.9398, 276.8279
133.4219, 278.7569
133.9040, 280.8919
134.3862, 282.5497
134.8683, 282.4955
135.3504, 280.7728
135.8325, 279.7865
136.3146, 280.5308
136.7967, 282.8115
137.2789, 284.7404
137.7610, 286.2614
138.2431, 287.6094
138.7252, 289.3514
139.2073, 291.7431
139.6894, 293.3261
140.1716, 293.3345
140.6537, 291.4887
141.1358, 290.2365
141.6179, 289.7296
142.1000, 289.6323
142.5821, 289.0499
143.0643, 287.1331
143.5464, 286.4944
144.0285, 288.6429
144.5106, 295.4312
144.9927, 300.0938
145.4748, 301.9518
145.9570, 301.7985
146.4391, 301.7531
146.9212, 301.7018
147.4033, 301.8873
147.8854, 302.4083
148.3675, 303.1343
148.8497, 304.4067
149.3318, 306.6199
149.8139, 309.4947
150.2960, 311.6573
150.7781, 313.1639
151.2602, 313.9073
151.7424, 313.8125
152.2245, 311.8570
152.7066, 310.2375
153.1887, 309.0542
153.6708, 308.3152
154.1529, 307.9994
154.6351, 308.8748
155.1172, 309.7221
155.5993, 309.7288
156.0814, 308.0804
156.5635, 306.3318
157.0456, 304.6944
157.5278, 303.1924
158.0099, 301.9151
158.4920, 300.8673
158.9741, 300.0487
159.4562, 299.4535
159.9383, 298.6303
160.4205, 298.4389
160.9026, 299.5417
161.3847, 302.0592
161.8668, 304.1316
162.3489, 304.8139
162.8310, 304.8017
163.3132, 304.9038
163.7953, 304.7640
164.2774, 305.2869
164.7595, 307.2615
165.2416, 310.9751
165.7237, 314.4720
166.2059, 316.8667
166.6880, 318.4442
167.1701, 319.6389
167.6522, 320.0951
168.1343, 320.5729
168.6164, 321.6508
169.0985, 323.4693
169.5807, 325.5422
170.0628, 327.9634
170.5449, 330.4150
171.0270, 332.2477
171.5091, 332.6307
171.9912, 332.4991
172.4734, 332.7096
172.9555, 333.3812
173.4376, 334.4083
173.9197, 335.8556
174.4018, 337.6157
174.8839, 339.3852
175.3661, 340.6841
175.8482, 341.9717
176.3303, 344.1356
176.8124, 347.8400
177.2945, 351.1592
177.7766, 351.5694
178.2588, 349.6153
178.7409, 347.5358
179.2230, 346.5571
179.7051, 346.4309
180.1872, 346.8360
180.6693, 347.9621
181.1515, 349.1433
181.6336, 349.0721
182.1157, 347.9600
182.5978, 347.3146
183.0799, 348.1015
183.5620, 350.1565
184.0442, 353.0870
184.5263, 357.0507
185.0084, 361.5652
185.4905, 366.3683
185.9726, 371.3922
186.4547, 375.4986
186.9369, 376.1802
187.4190, 374.7106
187.9011, 376.7365
188.3832, 384.6432
188.8653, 395.6060
189.3474, 403.4558
189.8296, 408.1953
190.3117, 411.8318
190.7938, 415.1985
191.2759, 418.5332
191.7580, 423.8004
192.2401, 431.9405
192.7223, 442.0846
193.2044, 451.9798
193.6865, 461.7421
194.1686, 471.0959
194.6507, 479.0379
195.1328, 485.6833
195.6150, 494.0676
196.0971, 505.5046
196.5792, 519.0083
197.0613, 530.1186
197.5434, 538.1896
198.0255, 546.7820
198.5077, 559.7394
198.9898, 577.2972
199.4719, 594.3300
199.9540, 609.5574
200.4361, 623.2078
200.9182, 636.6224
201.4004, 649.3959
201.8825, 662.9565
202.3646, 678.8239
202.8467, 696.9616
203.3288, 716.6175
203.8109, 738.2203
204.2931, 761.3988
204.7752, 782.6058
205.2573, 801.1913
205.7394, 819.3759
206.2215, 839.5597
206.7036, 861.7998
207.1858, 884.6748
207.6679, 907.5539
208.1500, 930.5587
208.6321, 955.8293
209.1142, 983.8812
209.5963, 1013.225
210.0785, 1042.198
210.5606, 1070.190
211.0427, 1099.431
211.5248, 1130.850
212.0069, 1164.401
212.4890, 1197.951
212.9712, 1231.354
213.4533, 1265.148
213.9354, 1299.355
214.4175, 1334.094
214.8996, 1369.682
215.3817, 1405.903
215.8639, 1442.429
216.3460, 1483.871
216.8281, 1531.670
217.3102, 1582.664
217.7923, 1633.689
218.2744, 1686.998
218.7565, 1735.789
219.2387, 1777.947
219.7208, 1813.905
220.2029, 1843.463
220.6850, 1866.614
221.1671, 1883.044
221.6492, 1892.108
222.1314, 1893.833
222.6135, 1888.314
223.0956, 1875.770
223.5777, 1856.074
224.0598, 1828.815
224.5419, 1792.163
225.0241, 1749.765
225.5062, 1703.893
225.9883, 1652.257
226.4704, 1602.629
226.9525, 1557.926
227.4346, 1517.724
227.9168, 1477.998
228.3989, 1438.093
228.8810, 1399.361
229.3631, 1363.642
229.8452, 1330.071
230.3273, 1300.562
230.8095, 1275.982
231.2916, 1256.460
231.7737, 1238.415
232.2558, 1222.236
232.7379, 1207.132
233.2200, 1192.340
233.7022, 1176.942
234.1843, 1163.701
234.6664, 1153.283
235.1485, 1145.782
235.6306, 1140.163
236.1127, 1136.858
236.5949, 1134.917
237.0770, 1133.358
237.5591, 1131.627
238.0412, 1131.353
238.5233, 1133.035
239.0054, 1136.688
239.4876, 1140.889
239.9697, 1146.080
240.4518, 1151.388
240.9339, 1155.971
241.4160, 1159.254
241.8981, 1162.983
242.3803, 1167.813
242.8624, 1173.692
243.3445, 1178.086
243.8266, 1180.600
244.3087, 1182.118
244.7908, 1183.494
245.2730, 1185.550
245.7551, 1185.753
246.2372, 1183.396
246.7193, 1178.625
247.2014, 1173.652
247.6835, 1169.157
248.1657, 1163.656
248.6478, 1155.942
249.1299, 1144.974
249.6120, 1134.037
250.0941, 1124.044
250.5762, 1114.642
251.0584, 1102.419
251.5405, 1085.119
252.0226, 1068.186
252.5047, 1056.135
252.9868, 1051.878
253.4689, 1045.352
253.9511, 1034.320
254.4332, 1019.936
254.9153, 1009.252
255.3974, 1003.907
255.8795, 999.7719
256.3616, 994.3143
256.8438, 986.7853
257.3259, 979.8123
257.8080, 973.5009
258.2901, 967.9196
258.7722, 963.1058
259.2543, 959.0140
259.7365, 955.7263
260.2186, 953.3203
260.7007, 952.1135
261.1828, 950.8654
261.6649, 949.5331
262.1470, 948.0853
262.6292, 946.4290
263.1113, 944.6144
263.5934, 942.4612
264.0755, 939.5389
264.5576, 935.0870
265.0397, 932.8341
265.5219, 934.1976
266.0040, 936.9357
266.4861, 935.3611
266.9682, 927.8348
267.4503, 920.1389
267.9324, 915.3826
268.4146, 914.4603
268.8967, 912.2318
269.3788, 909.0052
269.8609, 904.1875
270.3430, 896.1785
270.8251, 884.0575
271.3073, 871.8776
271.7894, 861.7026
272.2715, 853.7803
272.7536, 845.0989
273.2357, 835.8413
273.7178, 825.6588
274.2000, 813.5681
274.6821, 799.2309
275.1642, 784.7091
275.6463, 770.7930
276.1284, 757.4816
276.6105, 743.5712
277.0927, 728.8967
277.5748, 713.9857
278.0569, 699.4645
278.5390, 685.4145
279.0211, 671.5638
279.5032, 657.8015
279.9854, 644.2962
280.4675, 631.3859
280.9496, 619.0585
281.4317, 607.3876
281.9138, 596.4720
282.3959, 586.3185
282.8781, 576.8650
283.3602, 568.4311
283.8423, 560.6033
284.3244, 551.4219
284.8065, 540.5546
285.2886, 530.1153
285.7708, 522.5303
286.2529, 517.6217
286.7350, 512.0277
287.2171, 504.8281
287.6992, 496.6087
288.1813, 488.7824
288.6635, 481.2664
289.1456, 474.8422
289.6277, 470.4410
290.1098, 467.8200
290.5919, 465.6320
291.0740, 463.9064
291.5562, 462.0941
292.0383, 458.8678
292.5204, 454.2705
293.0025, 449.8045
293.4846, 446.3833
293.9667, 443.8549
294.4489, 441.6434
294.9310, 439.6514
295.4131, 438.1126
295.8952, 437.7116
296.3773, 438.2775
296.8594, 438.6718
297.3416, 438.1011
297.8237, 436.9177
298.3058, 435.7643
298.7879, 434.5872
299.2700, 433.9120
299.7521, 434.7703
300.2343, 436.7505
300.7164, 438.4964
301.1985, 438.5004
301.6806, 438.1616
302.1627, 439.8435
302.6448, 443.7127
303.1270, 448.3613
303.6091, 452.6249
304.0912, 456.7039
304.5733, 461.2216
305.0554, 466.5495
305.5375, 472.3343
306.0197, 478.5036
306.5018, 484.9709
306.9839, 490.7038
307.4660, 493.9886
307.9481, 496.2182
308.4302, 499.3574
308.9124, 504.4116
309.3945, 510.2646
309.8766, 516.3386
310.3587, 522.5929
310.8408, 528.5062
311.3229, 533.1736
311.8051, 537.6565
312.2872, 543.1539
312.7693, 551.2437
313.2514, 558.2804
313.7335, 561.8602
314.2156, 562.6533
314.6978, 562.6918
315.1799, 563.0650
315.6620, 562.9431
316.1441, 561.7850
316.6262, 559.5472
317.1083, 556.1407
317.5905, 550.6321
318.0726, 544.0387
318.5547, 538.0505
319.0368, 532.8353
319.5189, 528.7461
320.0010, 526.3097
320.4832, 525.8738
320.9653, 525.3505
321.4474, 523.7379
321.9295, 521.8682
322.4116, 520.7159
322.8937, 520.4810
323.3759, 521.0132
323.8580, 522.6125
324.3401, 525.3363
324.8222, 527.6514
325.3043, 529.2026
325.7864, 530.3405
326.2686, 531.3343
326.7507, 532.3366
327.2328, 533.0571
327.7149, 532.7326
328.1970, 531.6174
328.6791, 532.4752
329.1613, 537.1922
329.6434, 542.3950
330.1255, 546.4165
330.6076, 549.0640
331.0897, 550.7554
331.5718, 550.7062
332.0540, 549.7241
332.5361, 550.1156
333.0182, 552.2740
333.5003, 555.3109
333.9824, 559.1171
334.4645, 564.4443
334.9467, 568.2711
335.4288, 570.0917
335.9109, 570.7499
336.3930, 571.3439
336.8751, 571.3481
337.3572, 572.5668
337.8394, 575.9047
338.3215, 581.4518
338.8036, 586.1910
339.2857, 589.6917
339.7678, 593.1486
340.2499, 598.1107
340.7320, 604.7443
341.2141, 611.3442
341.6963, 617.3387
342.1784, 622.9736
342.6605, 629.6204
343.1426, 637.5126
343.6247, 645.0402
344.1068, 649.7748
344.5890, 651.8807
345.0711, 657.3466
345.5532, 667.9236
346.0353, 680.9840
346.5174, 690.3644
346.9995, 696.2019
347.4817, 702.4192
347.9638, 711.3574
348.4459, 722.6243
348.9280, 735.3530
349.4101, 749.8383
349.8922, 764.0829
350.3744, 773.7921
350.8565, 780.3356
351.3386, 789.3209
351.8207, 805.1652
352.3028, 824.4142
352.7849, 841.0621
353.2671, 855.1313
353.7492, 870.1245
354.2313, 889.5309
354.7134, 911.8527
355.1955, 934.7723
355.6776, 956.9977
356.1598, 979.7489
356.6419, 1005.185
357.1240, 1032.797
357.6061, 1059.810
358.0882, 1082.183
358.5703, 1104.303
359.0525, 1130.297
359.5346, 1161.833
360.0167, 1195.989
360.4988, 1231.979
360.9809, 1269.162
361.4630, 1305.800
361.9452, 1340.883
362.4273, 1375.400
362.9094, 1408.872
363.3915, 1440.155
363.8736, 1475.691
364.3557, 1518.685
364.8379, 1566.369
365.3200, 1615.327
365.8021, 1665.269
366.2842, 1716.112
366.7663, 1767.503
367.2484, 1819.657
367.7306, 1871.969
368.2127, 1923.018
368.6948, 1974.998
369.1769, 2029.870
369.6590, 2097.136
370.1411, 2155.911
370.6233, 2205.374
371.1054, 2245.961
371.5875, 2279.499
372.0696, 2307.442
372.5517, 2326.193
373.0338, 2334.825
373.5160, 2334.343
373.9981, 2320.496
374.4802, 2291.843
374.9623, 2250.781
375.4444, 2200.655
375.9265, 2138.858
376.4087, 2073.688
376.8908, 2007.266
377.3729, 1939.342
377.8550, 1870.116
378.3371, 1799.517
378.8192, 1729.343
379.3014, 1662.009
379.7835, 1596.908
380.2656, 1535.399
380.7477, 1477.839
381.2298, 1424.057
381.7119, 1371.845
382.1941, 1321.562
382.6762, 1276.048
383.1583, 1239.354
383.6404, 1209.582
384.1225, 1180.655
384.6046, 1151.787
385.0868, 1124.469
385.5689, 1100.233
386.0510, 1078.954
386.5331, 1059.790
387.0152, 1042.523
387.4973, 1026.890
387.9795, 1012.478
388.4616, 999.2856
388.9437, 987.2050
389.4258, 975.6322
389.9079, 965.2230
390.3900, 957.2346
390.8722, 953.4108
391.3543, 950.4897
391.8364, 945.6641
392.3185, 939.6830
392.8006, 935.1410
393.2827, 932.7290
393.7649, 932.5596
394.2470, 935.6526
394.7291, 944.2767
395.2112, 950.1398
395.6933, 947.6151
396.1754, 941.0651
396.6576, 937.0266
397.1397, 938.1483
397.6218, 940.9712
398.1039, 945.0990
398.5860, 950.7018
399.0681, 954.9696
399.5503, 956.3497
400.0324, 957.0749
400.5145, 958.8474
400.9966, 964.2579
401.4787, 967.1087
401.9608, 966.1727
402.4430, 962.3094
402.9251, 958.7379
403.4072, 955.3138
403.8893, 952.4064
404.3714, 950.3631
404.8535, 949.5067
405.3357, 948.3540
405.8178, 947.5482
406.2999, 945.6088
406.7820, 940.0311
407.2641, 930.3105
407.7462, 919.8315
408.2284, 909.4224
408.7105, 899.1561
409.1926, 888.4767
409.6747, 877.3960
410.1568, 865.8493
410.6389, 853.7977
411.1211, 841.3156
411.6032, 828.1224
412.0853, 813.9745
412.5674, 799.4113
413.0495, 785.2841
413.5316, 771.2034
414.0138, 755.6339
414.4959, 735.8519
414.9780, 714.4994
415.4601, 695.8218
415.9422, 679.9413
416.4243, 665.6328
416.9065, 653.0221
417.3886, 640.9810
417.8707, 628.0910
418.3528, 613.0723
418.8349, 597.6419
419.3170, 582.1249
419.7992, 566.6476
420.2813, 552.6226
420.7634, 540.8014
421.2455, 530.1965
421.7276, 520.2288
422.2097, 510.8380
422.6919, 501.7755
423.1740, 492.8646
423.6561, 484.2350
424.1382, 475.8618
424.6203, 467.4945
425.1024, 459.8662
425.5846, 453.1220
426.0667, 447.2957
426.5488, 442.1789
427.0309, 438.1451
427.5130, 434.4352
427.9951, 430.4161
428.4773, 425.4407
428.9594, 421.6762
429.4415, 419.8475
429.9236, 419.0630
430.4057, 416.7708
430.8878, 412.3702
431.3700, 408.3800
431.8521, 406.2521
432.3342, 405.9891
432.8163, 404.3910
433.2984, 401.2022
433.7805, 397.5821
434.2627, 394.6071
434.7448, 392.2874
435.2269, 390.8256
435.7090, 390.5722
436.1911, 390.8684
436.6732, 390.5239
437.1554, 389.5552
437.6375, 388.1030
438.1196, 385.1557
438.6017, 382.0935
439.0838, 381.7138
439.5659, 384.8208
440.0480, 387.9082
440.5302, 387.6297
441.0123, 385.3829
441.4944, 383.5153
441.9765, 383.1919
442.4586, 383.3762
442.9407, 383.6069
443.4229, 383.8516
443.9050, 383.9486
444.3871, 384.1043
444.8692, 383.9164
445.3513, 383.0214
445.8334, 380.6528
446.3156, 378.8575
446.7977, 378.3513
447.2798, 378.5997
447.7619, 378.6755
448.2440, 378.6103
448.7261, 378.2529
449.2083, 377.4313
449.6904, 376.0992
450.1725, 375.1701
450.6546, 374.8250
451.1367, 374.6696
451.6188, 374.4889
452.1010, 374.4081
452.5831, 373.7510
453.0652, 372.1016
453.5473, 370.1746
454.0294, 369.9444
454.5115, 371.6998
454.9937, 372.7815
455.4758, 371.2018
455.9579, 367.7033
456.4400, 366.9407
456.9221, 369.1702
457.4042, 371.6425
457.8864, 371.0665
458.3685, 368.5129
458.8506, 367.1363
459.3327, 367.9537
459.8148, 369.8919
460.2969, 372.1369
460.7791, 374.5471
461.2612, 376.5829
461.7433, 378.0679
462.2254, 378.9828
462.7075, 379.1867
463.1896, 378.6365
463.6718, 377.8553
464.1539, 377.0327
464.6360, 376.1618
465.1181, 375.2484
465.6002, 374.5209
466.0823, 373.5108
466.5645, 372.0394
467.0466, 370.1802
467.5287, 368.2156
468.0108, 365.8597
468.4929, 363.6908
468.9750, 361.9783
469.4572, 360.9170
469.9393, 359.5521
470.4214, 357.5458
470.9035, 355.5487
471.3856, 354.2839
471.8677, 353.8923
472.3499, 353.8198
472.8320, 354.1237
473.3141, 354.6101
473.7962, 354.4546
474.2783, 353.5408
474.7604, 352.8461
475.2426, 352.9856
475.7247, 353.8705
476.2068, 355.0101
476.6889, 356.4290
477.1710, 357.8824
477.6531, 358.6765
478.1353, 359.2511
478.6174, 360.9943
479.0995, 365.6192
479.5816, 370.1760
480.0637, 370.5023
480.5458, 367.6318
481.0280, 365.4105
481.5101, 365.9968
481.9922, 368.1044
482.4743, 370.9788
482.9564, 374.7090
483.4385, 378.1599
483.9207, 380.9654
484.4028, 383.1907
484.8849, 384.8958
485.3670, 384.9019
485.8491, 385.6978
486.3312, 388.6035
486.8134, 392.9855
487.2955, 395.5377
487.7776, 394.2829
488.2597, 393.5310
488.7418, 395.2418
489.2239, 400.1104
489.7061, 403.8849
490.1882, 405.9979
490.6703, 407.8661
491.1524, 411.2413
491.6345, 416.3610
492.1166, 421.4750
492.5988, 426.5949
493.0809, 431.2731
493.5630, 433.7693
494.0451, 434.1754
494.5272, 434.9106
495.0093, 437.3309
495.4915, 441.1407
495.9736, 446.0269
496.4557, 452.0097
496.9378, 457.9338
497.4199, 462.6105
497.9020, 466.5602
498.3842, 470.4742
498.8663, 474.6248
499.3484, 478.7935
499.8305, 482.7156
500.3126, 486.5534
500.7947, 490.6949
501.2769, 495.8797
501.7590, 500.9500
502.2411, 505.0476
502.7232, 507.8763
503.2053, 511.8072
503.6874, 518.8456
504.1696, 525.9874
504.6517, 530.8687
505.1338, 531.6049
505.6159, 533.3756
506.0980, 536.7217
506.5801, 541.1287
507.0623, 545.6019
507.5444, 550.4709
508.0265, 554.4640
508.5086, 556.8663
508.9907, 557.9124
509.4728, 559.6552
509.9550, 562.1834
510.4371, 564.6713
510.9192, 566.3591
511.4013, 567.3832
511.8834, 568.1586
512.3655, 568.6895
512.8477, 569.2309
513.3298, 570.4260
513.8119, 571.8853
514.2940, 572.6712
514.7761, 571.8350
515.2582, 570.5755
515.7404, 570.2811
516.2225, 570.6792
516.7046, 569.7059
517.1867, 564.7173
517.6688, 559.2435
518.1509, 555.8406
518.6331, 556.2425
519.1152, 555.2904
519.5973, 551.3710
520.0794, 545.9332
520.5615, 540.9127
521.0436, 536.8182
521.5258, 532.2834
522.0079, 527.1024
522.4900, 521.3073
522.9721, 514.6988
523.4542, 506.7867
523.9363, 499.8605
524.4185, 495.8401
524.9006, 494.6836
525.3827, 491.3198
525.8648, 485.4013
526.3469, 479.0043
526.8290, 473.9691
527.3112, 470.3075
527.7933, 468.2639
528.2754, 468.7422
528.7575, 469.2668
529.2396, 466.2398
529.7217, 460.6940
530.2039, 455.7262
530.6860, 452.5991
531.1681, 450.8366
531.6502, 450.5859
532.1323, 451.7863
532.6144, 452.3660
533.0966, 450.9861
533.5787, 449.0213
534.0608, 447.4427
534.5429, 446.9293
535.0250, 445.9232
535.5071, 443.4652
535.9893, 440.7686
536.4714, 439.7873
536.9535, 441.7159
537.4356, 443.0926
537.9177, 443.3101
538.3998, 442.3747
538.8820, 440.0799
539.3641, 436.2457
539.8462, 432.0532
540.3283, 427.9571
540.8104, 424.0727
541.2925, 421.2706
541.7747, 419.7079
542.2568, 418.5365
542.7389, 417.1620
543.2210, 415.4723
543.7031, 413.2252
544.1852, 410.4506
544.6674, 406.9524
545.1495, 401.2347
545.6316, 394.5948
546.1137, 390.2728
546.5958, 392.4339
547.0779, 395.0032
547.5601, 394.4112
548.0422, 390.3812
548.5243, 386.9476
549.0064, 385.3273
549.4885, 384.3083
549.9706, 383.1718
550.4528, 382.0558
550.9349, 380.4752
551.4170, 378.0302
551.8991, 375.3981
552.3812, 373.7989
552.8633, 373.6990
553.3455, 372.6490
553.8276, 369.7676
554.3097, 365.6946
554.7918, 362.0649
555.2739, 358.9376
555.7560, 357.1806
556.2382, 358.7632
556.7203, 361.8497
557.2024, 362.0529
557.6845, 359.1188
558.1666, 355.5688
558.6487, 352.8742
559.1309, 351.0473
559.6130, 350.3188
560.0951, 351.4723
560.5772, 352.2676
561.0593, 351.1878
561.5414, 349.0876
562.0236, 347.4953
562.5057, 347.0601
562.9878, 346.8589
563.4699, 346.8546
563.9520, 346.9814
564.4341, 346.4980
564.9163, 344.9047
565.3984, 343.3972
565.8805, 342.5809
566.3626, 342.5663
566.8447, 342.6298
567.3268, 342.8742
567.8090, 342.9153
568.2911, 342.2392
568.7732, 340.9052
569.2553, 339.3293
569.7374, 337.2389
570.2195, 335.6620
570.7017, 336.6683
571.1838, 339.4853
571.6659, 341.6418
572.1480, 341.4944
572.6301, 340.5117
573.1122, 339.6438
573.5944, 338.9494
574.0765, 338.7280
574.5586, 339.6485
575.0407, 340.6828
575.5228, 341.0995
576.0049, 340.3528
576.4871, 340.2995
576.9692, 342.1325
577.4513, 344.0616
577.9334, 344.2269
578.4155, 341.3642
578.8976, 339.7729
579.3798, 340.2191
579.8619, 342.0125
580.3440, 343.6357
580.8261, 345.0930
581.3082, 346.2749
581.7903, 346.8963
582.2725, 347.2705
582.7546, 348.7621
583.2367, 351.2350
583.7188, 352.8307
584.2009, 350.9749
584.6830, 347.9137
585.1652, 346.8362
585.6473, 348.4297
586.1294, 350.0650
586.6115, 350.2644
587.0936, 349.6757
587.5757, 348.9732
588.0578, 347.6190
588.5399, 346.9951
589.0220, 347.8058
589.5042, 349.4858
589.9863, 350.7470
590.4684, 351.6370
590.9505, 351.9931
591.4326, 351.6552
591.9147, 350.7021
592.3969, 349.9244
592.8790, 349.4552
593.3611, 348.6065
593.8432, 346.3257
594.3253, 343.1156
594.8074, 341.8378
595.2896, 342.7657
595.7717, 344.0396
596.2538, 343.5982
596.7359, 342.2660
597.2180, 341.6373
597.7001, 342.5834
598.1823, 343.3343
598.6644, 342.4442
599.1465, 340.5974
599.6286, 338.9610
600.1107, 337.7778
600.5928, 337.0154
601.0750, 336.6013
601.5571, 336.5840
602.0392, 337.2677
602.5213, 339.5742
603.0034, 341.3314
603.4855, 341.4705
603.9677, 339.8409
604.4498, 338.6999
604.9319, 338.0883
605.4140, 337.7966
605.8961, 337.6907
606.3782, 337.7553
606.8604, 337.8621
607.3425, 337.9455
607.8246, 338.2682
608.3067, 339.5345
608.7888, 341.2552
609.2709, 342.3333
609.7531, 341.9981
610.2352, 341.3421
610.7173, 340.7537
611.1994, 340.3881
611.6815, 340.6493
612.1636, 342.2023
612.6458, 343.8962
613.1279, 345.1573
613.6100, 345.9326
614.0921, 347.5742
614.5742, 351.2762
615.0563, 354.2993
615.5385, 354.5718
616.0206, 351.1699
616.5027, 350.5631
616.9848, 353.0527
617.4669, 357.4137
