##NAMES=Elbaite
##RRUFFID=R060562
##IDEAL CHEMISTRY=Na(Al_1.5_Li_1.5_)Al_6_(Si_6_O_18_)(BO_3_)_3_(OH)_3_OH
##LOCALITY=unknown
##OWNER=RRUFF
##SOURCE=Gemological Institute of America
##DESCRIPTION=Blue colored polished fragment
##STATUS=The identification of this mineral has been confirmed by X-ray diffraction and chemical analysis
##URL=rruff.info/R060562
##MEASURED CHEMISTRY=(Na_0.68_Ca_0.20_[box]_0.12_)(Li_1.20_Al_1.12_Fe^2+^_0.50_Mn_0.18_)Al_6_(BO_3_)_3_[Si_6_O_18_]((OH)_0.80_F_0.20_)_4_
91.62726, 0.0000000E+00
92.10938, 4.722786
92.59149, 4.687984
93.07361, 4.673625
93.55573, 4.681913
94.03784, 4.744954
94.51996, 4.990175
95.00208, 5.338734
95.48419, 5.509806
95.96631, 5.329713
96.44843, 4.928053
96.93054, 4.679666
97.41266, 4.602503
97.89478, 4.594589
98.37689, 4.520805
98.85901, 4.380862
99.34113, 4.295969
99.82324, 4.352232
100.3054, 4.549085
100.7875, 4.637494
101.2696, 4.578326
101.7517, 4.461259
102.2338, 4.468660
102.7159, 4.646265
103.1981, 4.817639
103.6802, 4.886858
104.1623, 4.806837
104.6444, 4.786351
105.1265, 4.873175
105.6086, 5.021614
106.0908, 5.033803
106.5729, 4.721816
107.0550, 4.494649
107.5371, 4.607274
108.0192, 5.408950
108.5013, 6.028870
108.9835, 6.348480
109.4656, 6.375299
109.9477, 6.435666
110.4298, 6.481299
110.9119, 6.587711
111.3940, 6.808441
111.8762, 7.137856
112.3583, 7.586401
112.8404, 8.175932
113.3225, 8.912006
113.8046, 9.707983
114.2867, 10.68152
114.7689, 11.67545
115.2510, 12.51124
115.7331, 12.91498
116.2152, 13.35867
116.6973, 14.04879
117.1794, 15.06328
117.6616, 16.06687
118.1437, 16.99143
118.6258, 17.82858
119.1079, 18.53341
119.5900, 18.89791
120.0721, 19.25222
120.5543, 19.80166
121.0364, 20.57555
121.5185, 21.55282
122.0006, 22.89434
122.4827, 24.47002
122.9648, 25.92983
123.4470, 27.05105
123.9291, 27.94397
124.4112, 28.66497
124.8933, 29.02766
125.3754, 29.52105
125.8575, 30.68270
126.3397, 32.45393
126.8218, 34.48277
127.3039, 36.42413
127.7860, 38.42441
128.2681, 40.81652
128.7502, 43.99944
129.2324, 47.41294
129.7145, 49.95717
130.1966, 51.64332
130.6787, 53.13174
131.1608, 55.15029
131.6429, 57.55026
132.1251, 59.69429
132.6072, 61.35724
133.0893, 62.59351
133.5714, 63.65037
134.0535, 64.53869
134.5356, 65.19727
135.0178, 65.42458
135.4999, 65.20760
135.9820, 65.09044
136.4641, 65.30589
136.9462, 65.84740
137.4283, 66.43190
137.9105, 67.10650
138.3926, 67.75051
138.8747, 68.05714
139.3568, 67.90090
139.8389, 67.93807
140.3210, 68.56625
140.8032, 69.96777
141.2853, 70.95445
141.7674, 71.28609
142.2495, 71.33586
142.7316, 71.97800
143.2137, 73.20827
143.6959, 74.19191
144.1780, 74.92995
144.6601, 75.27015
145.1422, 75.81322
145.6243, 76.72057
146.1064, 77.84258
146.5886, 78.62451
147.0707, 78.88139
147.5528, 79.01861
148.0349, 79.25539
148.5170, 79.75788
148.9991, 80.10087
149.4813, 80.21379
149.9634, 80.12078
150.4455, 80.02808
150.9276, 79.81892
151.4097, 79.68302
151.8918, 79.73769
152.3740, 79.91203
152.8561, 80.33617
153.3382, 81.21834
153.8203, 82.53498
154.3024, 83.45710
154.7845, 83.85278
155.2667, 83.87276
155.7488, 83.63184
156.2309, 82.57055
156.7130, 81.82536
157.1951, 81.85676
157.6772, 82.71786
158.1594, 83.22743
158.6415, 82.96274
159.1236, 82.30378
159.6057, 81.61885
160.0878, 81.00911
160.5699, 80.39025
161.0521, 79.67264
161.5342, 78.82642
162.0163, 78.14208
162.4984, 77.88486
162.9805, 77.80447
163.4626, 77.58468
163.9448, 77.09003
164.4269, 76.44901
164.9090, 75.65720
165.3911, 74.66598
165.8732, 73.80578
166.3553, 73.32003
166.8375, 73.06480
167.3196, 72.80264
167.8017, 72.32043
168.2838, 71.85927
168.7659, 71.67361
169.2480, 71.89858
169.7302, 71.97578
170.2123, 71.26411
170.6944, 70.10031
171.1765, 69.25315
171.6586, 69.35419
172.1407, 69.83911
172.6229, 70.14458
173.1050, 70.14581
173.5871, 70.08306
174.0692, 70.11256
174.5513, 70.23603
175.0334, 70.46226
175.5156, 70.78400
175.9977, 71.21835
176.4798, 71.81591
176.9619, 72.66436
177.4440, 73.51875
177.9261, 74.02203
178.4083, 74.25379
178.8904, 74.54858
179.3725, 75.33873
179.8546, 76.32283
180.3367, 76.89132
180.8188, 76.86702
181.3010, 76.50844
181.7831, 76.05786
182.2652, 75.53654
182.7473, 75.08054
183.2294, 74.70081
183.7115, 74.45533
184.1937, 74.57922
184.6758, 75.29701
185.1579, 76.18439
185.6400, 76.41598
186.1221, 76.01639
186.6042, 75.62847
187.0864, 75.80164
187.5685, 76.43671
188.0506, 77.09684
188.5327, 77.71070
189.0148, 78.28332
189.4969, 78.84377
189.9791, 79.38890
190.4612, 79.94863
190.9433, 80.60070
191.4254, 81.32008
191.9075, 81.90479
192.3896, 82.18372
192.8718, 82.35934
193.3539, 83.15717
193.8360, 84.66103
194.3181, 86.18361
194.8002, 86.96640
195.2823, 87.03830
195.7645, 87.36360
196.2466, 88.15481
196.7287, 89.36512
197.2108, 90.91698
197.6929, 92.88248
198.1750, 94.84953
198.6572, 96.39870
199.1393, 97.50486
199.6214, 98.57461
200.1035, 99.67748
200.5856, 100.8156
201.0677, 101.9823
201.5499, 103.1965
202.0320, 104.3974
202.5141, 105.5250
202.9962, 106.5752
203.4783, 107.5783
203.9604, 108.4767
204.4426, 109.3135
204.9247, 110.4531
205.4068, 111.9077
205.8889, 113.6082
206.3710, 115.6083
206.8531, 118.0325
207.3353, 120.1031
207.8174, 121.4798
208.2995, 122.2470
208.7816, 123.5551
209.2637, 125.4571
209.7458, 127.7624
210.2280, 130.2913
210.7101, 133.0504
211.1922, 136.0142
211.6743, 139.2501
212.1564, 142.7179
212.6385, 146.0476
213.1207, 149.0888
213.6028, 152.1724
214.0849, 155.6311
214.5670, 159.4605
215.0491, 163.5679
215.5313, 167.9322
216.0134, 172.5737
216.4955, 177.4941
216.9776, 182.8346
217.4597, 188.3176
217.9418, 193.7664
218.4240, 199.1403
218.9061, 204.4512
219.3882, 209.7673
219.8703, 215.0457
220.3524, 220.0296
220.8345, 224.6873
221.3167, 229.0203
221.7988, 233.2129
222.2809, 237.6503
222.7630, 240.9580
223.2451, 242.7266
223.7272, 242.9577
224.2094, 242.5503
224.6915, 241.2810
225.1736, 239.6162
225.6557, 238.1111
226.1378, 237.0462
226.6199, 235.4710
227.1021, 233.0609
227.5842, 229.7901
228.0663, 226.8545
228.5484, 224.4508
229.0305, 222.1277
229.5126, 219.4425
229.9948, 216.2469
230.4769, 212.9846
230.9590, 209.5806
231.4411, 206.0503
231.9232, 203.0212
232.4053, 200.4499
232.8875, 198.3864
233.3696, 196.9628
233.8517, 196.6667
234.3338, 196.0396
234.8159, 194.7118
235.2980, 192.6940
235.7802, 191.0970
236.2623, 190.1339
236.7444, 189.3635
237.2265, 188.4236
237.7086, 187.2298
238.1907, 186.0363
238.6729, 184.8950
239.1550, 183.7994
239.6371, 182.6279
240.1192, 181.3609
240.6013, 180.0391
241.0834, 178.7118
241.5656, 177.4513
242.0477, 176.0582
242.5298, 174.4507
243.0119, 172.6561
243.4940, 171.0264
243.9761, 169.8973
244.4583, 168.5336
244.9404, 166.3260
245.4225, 162.6864
245.9046, 159.3904
246.3867, 156.7403
246.8688, 154.6191
247.3510, 152.2122
247.8331, 149.4298
248.3152, 146.4797
248.7973, 143.4549
249.2794, 140.1876
249.7615, 137.1936
250.2437, 134.6204
250.7258, 132.3621
251.2079, 129.9168
251.6900, 126.9776
252.1721, 124.2873
252.6542, 122.3619
253.1364, 121.7043
253.6185, 120.6384
254.1006, 118.8779
254.5827, 116.6661
255.0648, 114.9127
255.5469, 113.8131
256.0291, 112.8874
256.5112, 111.9124
256.9933, 110.8992
257.4754, 109.7839
257.9575, 108.4970
258.4396, 107.1250
258.9218, 105.9657
259.4039, 105.0869
259.8860, 104.2787
260.3681, 103.4454
260.8502, 102.5861
261.3323, 101.6711
261.8145, 100.6130
262.2966, 99.55267
262.7787, 98.79790
263.2608, 98.41895
263.7429, 98.19101
264.2250, 98.05546
264.7072, 98.06554
265.1893, 97.93552
265.6714, 97.61925
266.1535, 97.19820
266.6356, 96.81157
267.1177, 96.45181
267.5999, 96.13456
268.0820, 95.88492
268.5641, 95.71852
269.0462, 95.49113
269.5283, 95.20037
270.0104, 94.85142
270.4926, 94.40386
270.9747, 93.78833
271.4568, 93.31605
271.9389, 93.11504
272.4210, 93.19267
272.9031, 93.28691
273.3853, 93.41269
273.8674, 93.53183
274.3495, 93.63931
274.8316, 93.77772
275.3137, 93.68222
275.7958, 93.22424
276.2780, 92.43156
276.7601, 91.66519
277.2422, 90.91775
277.7243, 90.21044
278.2064, 89.56123
278.6885, 88.96829
279.1707, 88.46189
279.6528, 88.13683
280.1349, 87.90455
280.6170, 87.24978
281.0991, 86.10474
281.5812, 84.81142
282.0634, 83.65312
282.5455, 82.61592
283.0276, 81.68529
283.5097, 80.86484
283.9918, 80.14549
284.4739, 79.54333
284.9561, 79.08032
285.4382, 78.57285
285.9203, 77.83183
286.4024, 76.87988
286.8845, 75.99776
287.3666, 75.24479
287.8488, 74.56885
288.3309, 73.89998
288.8130, 73.23929
289.2951, 72.50471
289.7772, 71.49375
290.2593, 70.30603
290.7415, 69.50781
291.2236, 69.21777
291.7057, 69.20009
292.1878, 69.15498
292.6699, 69.07835
293.1520, 68.91241
293.6342, 68.50398
294.1163, 67.96711
294.5984, 67.74324
295.0805, 67.90134
295.5626, 68.16447
296.0447, 68.13555
296.5269, 67.88187
297.0090, 67.72940
297.4911, 67.90117
297.9732, 68.27299
298.4553, 68.57121
298.9374, 68.78526
299.4196, 68.98286
299.9017, 69.19238
300.3838, 69.43195
300.8659, 69.75275
301.3480, 70.18300
301.8301, 70.69891
302.3123, 71.28572
302.7944, 71.94590
303.2765, 72.61265
303.7586, 73.31872
304.2407, 73.98769
304.7228, 74.47265
305.2050, 74.52763
305.6871, 74.57677
306.1692, 75.16307
306.6513, 76.21248
307.1334, 77.25419
307.6155, 77.96215
308.0977, 78.49429
308.5798, 79.05545
309.0619, 79.71964
309.5440, 80.38912
310.0261, 81.05694
310.5082, 81.68168
310.9904, 82.13579
311.4725, 81.96340
311.9546, 81.80241
312.4367, 82.30398
312.9188, 83.74678
313.4009, 85.28511
313.8831, 86.57233
314.3652, 87.56900
314.8473, 88.22581
315.3294, 87.98013
315.8115, 87.78690
316.2936, 88.43344
316.7758, 90.16335
317.2579, 91.55318
317.7400, 91.85604
318.2221, 91.50755
318.7042, 91.07373
319.1863, 90.47469
319.6685, 90.05692
320.1506, 90.05677
320.6327, 90.48795
321.1148, 90.83860
321.5969, 90.85444
322.0790, 90.77564
322.5612, 90.80354
323.0433, 90.96765
323.5254, 91.25466
324.0075, 91.67909
324.4896, 92.23483
324.9717, 92.85938
325.4539, 93.68579
325.9360, 94.48759
326.4181, 95.12383
326.9002, 95.19189
327.3823, 95.59708
327.8644, 96.65411
328.3466, 98.12488
328.8287, 99.28028
329.3108, 100.1523
329.7929, 100.6655
330.2750, 100.6822
330.7571, 99.67990
331.2393, 99.38977
331.7214, 100.3566
332.2035, 101.8361
332.6856, 102.5803
333.1677, 102.0029
333.6498, 101.5489
334.1320, 101.6656
334.6141, 102.4476
335.0962, 103.0121
335.5783, 103.2316
336.0604, 103.3665
336.5425, 103.7232
337.0247, 104.4439
337.5068, 105.0112
337.9889, 105.2142
338.4710, 105.1383
338.9531, 105.6061
339.4352, 106.8377
339.9174, 108.1239
340.3995, 108.8749
340.8816, 109.0165
341.3637, 109.1242
341.8458, 109.2223
342.3279, 109.3664
342.8101, 109.7192
343.2922, 110.2897
343.7743, 110.9903
344.2564, 111.8216
344.7385, 112.7790
345.2206, 113.6662
345.7028, 114.5230
346.1849, 115.2017
346.6670, 115.3538
347.1491, 115.0153
347.6312, 114.7456
348.1133, 114.7979
348.5955, 115.1107
349.0776, 115.5343
349.5597, 116.0869
350.0418, 116.5888
350.5239, 116.7065
351.0060, 116.5956
351.4882, 116.7573
351.9703, 117.5006
352.4524, 118.4761
352.9345, 119.0515
353.4166, 119.2833
353.8987, 119.6777
354.3809, 120.5227
354.8630, 121.7875
355.3451, 123.4031
355.8272, 125.3308
356.3093, 127.6587
356.7914, 130.6778
357.2736, 134.2079
357.7557, 137.6893
358.2378, 140.7803
358.7199, 143.6841
359.2020, 146.4168
359.6841, 148.8813
360.1663, 151.7656
360.6484, 155.3630
361.1305, 159.6407
361.6126, 164.5534
362.0947, 170.6047
362.5768, 176.8318
363.0590, 182.5989
363.5411, 187.9102
364.0232, 194.0031
364.5053, 201.4934
364.9874, 209.8186
365.4695, 218.5418
365.9517, 227.6693
366.4338, 237.0911
366.9159, 246.5275
367.3980, 256.2032
367.8801, 267.0545
368.3622, 279.5326
368.8444, 292.8213
369.3265, 306.5927
369.8086, 321.1001
370.2907, 335.7405
370.7728, 351.1688
371.2549, 366.4953
371.7371, 380.3011
372.2192, 393.7083
372.7013, 404.0761
373.1834, 410.5841
373.6655, 413.1755
374.1476, 412.9118
374.6298, 409.7154
375.1119, 403.8236
375.5940, 395.1577
376.0761, 383.2605
376.5582, 370.2785
377.0403, 356.1848
377.5225, 341.3813
378.0046, 326.9008
378.4867, 313.0003
378.9688, 299.4777
379.4509, 286.1094
379.9330, 272.9932
380.4152, 260.6389
380.8973, 249.1870
381.3794, 238.5264
381.8615, 228.7640
382.3436, 219.7757
382.8257, 211.5556
383.3079, 203.9848
383.7900, 197.0833
384.2721, 190.6980
384.7542, 184.8695
385.2363, 179.4738
385.7184, 174.3104
386.2006, 169.4852
386.6827, 164.9904
387.1648, 160.8690
387.6469, 157.1192
388.1290, 153.7090
388.6111, 150.6471
389.0933, 147.8962
389.5754, 145.4564
390.0575, 143.2845
390.5396, 141.2760
391.0217, 139.3709
391.5038, 137.6992
391.9860, 136.3060
392.4681, 135.2122
392.9502, 134.4386
393.4323, 134.3145
393.9144, 134.2726
394.3965, 133.9068
394.8787, 133.1688
395.3608, 132.6275
395.8429, 132.6295
396.3250, 132.8457
396.8071, 132.9815
397.2892, 132.5803
397.7714, 132.5166
398.2535, 133.0849
398.7356, 134.1880
399.2177, 135.3451
399.6998, 136.3972
400.1819, 137.5865
400.6641, 139.0237
401.1462, 140.7875
401.6283, 142.6362
402.1104, 144.5684
402.5925, 146.5819
403.0746, 148.6960
403.5568, 150.8576
404.0389, 153.2314
404.5210, 156.0012
405.0031, 159.1678
405.4852, 161.7689
405.9673, 163.7357
406.4495, 165.2771
406.9316, 166.5337
407.4137, 167.4963
407.8958, 168.3660
408.3779, 169.3140
408.8600, 170.0503
409.3422, 169.8781
409.8243, 168.7873
410.3064, 166.9253
410.7885, 164.1887
411.2706, 160.6802
411.7527, 156.9380
412.2349, 152.9483
412.7170, 148.8051
413.1991, 144.6165
413.6812, 140.3695
414.1633, 136.1630
414.6454, 132.1176
415.1276, 128.0707
415.6097, 123.7244
416.0918, 119.1610
416.5739, 114.7023
417.0560, 110.3945
417.5381, 106.3912
418.0203, 102.9233
418.5024, 100.2220
418.9845, 97.59504
419.4666, 94.49281
419.9487, 91.17957
420.4308, 88.22574
420.9130, 85.89326
421.3951, 83.91013
421.8772, 82.19845
422.3593, 80.80248
422.8414, 79.35484
423.3235, 77.71654
423.8057, 76.02065
424.2878, 74.39148
424.7699, 72.53237
425.2520, 71.10367
425.7341, 70.43607
426.2162, 70.32079
426.6984, 69.97073
427.1805, 69.24971
427.6626, 68.45412
428.1447, 67.66966
428.6268, 66.87837
429.1089, 66.19907
429.5911, 65.70654
430.0732, 65.23763
430.5553, 64.50744
431.0374, 63.38262
431.5195, 62.54447
432.0016, 62.23514
432.4838, 62.31981
432.9659, 62.13173
433.4480, 61.63462
433.9301, 61.09065
434.4122, 60.72014
434.8943, 60.48849
435.3765, 60.10168
435.8586, 59.47714
436.3407, 58.86356
436.8228, 58.69526
437.3049, 58.87180
437.7870, 58.96521
438.2692, 58.60303
438.7513, 58.12736
439.2334, 58.09059
439.7155, 58.46981
440.1976, 58.86077
440.6797, 58.93517
441.1619, 58.86837
441.6440, 58.88716
442.1261, 59.12661
442.6082, 59.31183
443.0903, 59.18166
443.5724, 58.88036
444.0546, 58.71938
444.5367, 58.98331
445.0188, 59.27225
445.5009, 59.38700
445.9830, 59.28888
446.4651, 59.19042
446.9473, 58.98454
447.4294, 58.87044
447.9115, 59.01769
448.3936, 59.76930
448.8757, 60.37112
449.3578, 60.77658
449.8400, 60.99483
450.3221, 61.07518
450.8042, 60.99847
451.2863, 60.81400
451.7684, 60.51486
452.2505, 60.07352
452.7327, 59.69970
453.2148, 59.40791
453.6969, 59.16467
454.1790, 58.92850
454.6611, 58.69352
455.1432, 58.52954
455.6254, 58.45534
456.1075, 58.46159
456.5896, 58.57185
457.0717, 58.78286
457.5538, 58.93467
458.0359, 58.86320
458.5181, 58.66065
459.0002, 58.58315
459.4823, 58.68063
459.9644, 58.70605
460.4465, 58.22847
460.9286, 57.51831
461.4108, 57.10553
461.8929, 57.56438
462.3750, 58.07640
462.8571, 57.93744
463.3392, 57.27848
463.8214, 56.71261
464.3035, 56.52708
464.7856, 56.53268
465.2677, 56.67514
465.7498, 57.11736
466.2319, 57.21104
466.7141, 56.38574
467.1962, 55.25930
467.6783, 54.61435
468.1604, 55.11599
468.6425, 55.47969
469.1246, 55.43263
469.6068, 55.01255
470.0889, 54.67164
470.5710, 54.41671
471.0531, 54.23063
471.5352, 54.11335
472.0173, 54.08221
472.4995, 54.05864
472.9816, 54.05387
473.4637, 54.03877
473.9458, 53.92918
474.4279, 53.71165
474.9100, 53.61370
475.3922, 53.74880
475.8743, 54.03816
476.3564, 54.23271
476.8385, 54.33378
477.3206, 54.44828
477.8027, 54.67982
478.2849, 54.97884
478.7670, 55.24910
479.2491, 55.48266
479.7312, 55.66189
480.2133, 55.68174
480.6954, 55.64265
481.1776, 55.73289
481.6597, 56.00439
482.1418, 56.45139
482.6239, 57.21973
483.1060, 58.24112
483.5881, 59.03054
484.0703, 59.11626
484.5524, 59.11698
485.0345, 59.44032
485.5166, 60.33236
485.9987, 61.11654
486.4808, 61.66064
486.9630, 62.05529
487.4451, 62.41963
487.9272, 62.69385
488.4093, 63.02886
488.8914, 63.49649
489.3735, 64.07391
489.8557, 64.48408
490.3378, 64.63535
490.8199, 64.84004
491.3020, 65.34387
491.7841, 66.18828
492.2662, 66.82587
492.7484, 67.22110
493.2305, 67.44398
493.7126, 67.48058
494.1947, 67.36989
494.6768, 67.43704
495.1589, 67.90813
495.6411, 68.50368
496.1232, 68.64307
496.6053, 68.39551
497.0874, 68.21023
497.5695, 68.57243
498.0516, 69.05801
498.5338, 69.11018
499.0159, 68.59187
499.4980, 68.10164
499.9801, 67.99823
500.4622, 68.12773
500.9443, 68.30713
501.4265, 68.60607
501.9086, 68.81058
502.3907, 68.85880
502.8728, 68.76217
503.3549, 68.57320
503.8370, 68.02560
504.3192, 67.64244
504.8013, 67.67670
505.2834, 68.28166
505.7655, 68.62471
506.2476, 68.63878
506.7297, 68.46819
507.2119, 68.24454
507.6940, 67.97433
508.1761, 67.60220
508.6582, 67.05456
509.1403, 66.46371
509.6224, 66.17619
510.1046, 66.19758
510.5867, 66.28545
511.0688, 66.39339
511.5509, 66.47151
512.0330, 66.37777
512.5151, 66.11034
512.9973, 65.68188
513.4794, 65.02202
513.9615, 64.22702
514.4436, 63.41240
514.9257, 62.52193
515.4078, 61.81583
515.8900, 61.76980
516.3721, 62.02763
516.8542, 61.90668
517.3363, 60.79531
517.8184, 59.58470
518.3005, 58.58249
518.7827, 57.80565
519.2648, 57.26342
519.7469, 57.41873
520.2290, 57.45758
520.7111, 56.89531
521.1932, 55.30048
521.6754, 53.99953
522.1575, 53.00245
522.6396, 52.27806
523.1217, 51.82925
523.6038, 51.73339
524.0859, 51.62163
524.5681, 51.39632
525.0502, 51.09617
525.5323, 50.87934
526.0144, 50.75250
526.4965, 50.56856
526.9786, 50.15421
527.4608, 49.60711
527.9429, 49.24877
528.4250, 49.10669
528.9071, 49.00674
529.3892, 48.71955
529.8713, 48.37757
530.3535, 48.21992
530.8356, 48.45679
531.3177, 48.68854
531.7998, 48.64479
532.2819, 48.39466
532.7640, 48.10754
533.2462, 47.74999
533.7283, 47.44746
534.2104, 47.24821
534.6925, 47.15995
535.1746, 47.14219
535.6567, 47.33997
536.1389, 47.48883
536.6210, 47.40929
537.1031, 46.93050
537.5852, 46.62819
538.0673, 46.61906
538.5494, 46.68688
539.0316, 46.42159
539.5137, 45.75618
539.9958, 45.19848
540.4779, 44.89398
540.9600, 44.80474
541.4421, 44.88975
541.9243, 45.13909
542.4064, 45.33050
542.8885, 45.27885
543.3706, 45.07311
543.8527, 44.80453
544.3348, 44.46073
544.8170, 44.30748
545.2991, 44.83992
545.7812, 45.58301
546.2633, 45.93590
546.7454, 45.43582
547.2275, 44.88872
547.7097, 44.51393
548.1918, 44.33633
548.6739, 44.41694
549.1560, 45.07587
549.6381, 45.68658
550.1202, 46.05564
550.6024, 46.17909
551.0845, 46.21695
551.5666, 46.13263
552.0487, 46.01175
552.5308, 45.89985
553.0129, 45.78918
553.4951, 45.72536
553.9772, 45.71206
554.4593, 45.74099
554.9414, 45.84728
555.4235, 46.01618
555.9056, 46.05298
556.3878, 45.81178
556.8699, 45.51193
557.3520, 45.56647
557.8341, 45.90799
558.3162, 46.24563
558.7983, 46.44608
559.2805, 46.53943
559.7626, 46.51056
560.2447, 46.35710
560.7268, 46.25368
561.2089, 46.44984
561.6910, 46.63223
562.1732, 46.52601
562.6553, 45.70440
563.1374, 45.18735
563.6195, 45.32799
564.1016, 45.77548
564.5837, 46.00810
565.0659, 45.89694
565.5480, 45.81761
566.0301, 45.88545
566.5122, 46.04815
566.9943, 46.01171
567.4764, 45.73653
567.9586, 45.45478
568.4407, 45.32226
568.9228, 45.30930
569.4049, 45.22484
569.8870, 45.05714
570.3691, 44.91847
570.8513, 44.90585
571.3334, 45.00393
571.8155, 45.20876
572.2976, 45.58829
572.7797, 45.91172
573.2618, 45.90543
573.7440, 45.73743
574.2261, 45.71052
574.7082, 46.17330
575.1903, 46.56654
575.6724, 46.55882
576.1545, 46.21252
576.6367, 46.11374
577.1188, 46.63487
577.6009, 47.08846
578.0830, 47.15961
578.5651, 46.73096
579.0472, 46.53953
579.5294, 46.63296
580.0115, 46.87726
580.4936, 47.14705
580.9757, 47.44371
581.4578, 47.86541
581.9399, 48.49989
582.4221, 49.08997
582.9042, 49.13530
583.3863, 48.75767
583.8684, 48.46148
584.3505, 48.63801
584.8326, 48.86586
585.3148, 48.48427
585.7969, 47.66996
