##NAMES=Elbaite
##RRUFFID=R060003
##IDEAL CHEMISTRY=Na(Al_1.5_Li_1.5_)Al_6_(Si_6_O_18_)(BO_3_)_3_(OH)_3_OH
##LOCALITY=Mount Begbie, Revelstoke, British Columbia, Canada
##OWNER=RRUFF
##SOURCE=Bob Downs
##DESCRIPTION=Pink crystal associated with trilithionite, R060004
##STATUS=The identification of this mineral has been confirmed by X-ray diffraction and chemical analysis
##URL=rruff.info/R060003
##MEASURED CHEMISTRY=(Na_0.58_[box]_0.42_)(Al_1.69_Li_1.27_Mn_0.04_)Al_6_(BO_3_)_3_[Si_6_O_18_](OH)_4_
107.5272, 64.07970
108.0093, 64.15241
108.4915, 64.34616
108.9736, 64.69671
109.4557, 65.26297
109.9378, 65.92973
110.4199, 66.36059
110.9020, 66.29755
111.3841, 66.35491
111.8663, 66.71667
112.3484, 67.27869
112.8305, 67.90092
113.3126, 68.49738
113.7947, 69.07307
114.2768, 69.52689
114.7590, 69.84730
115.2411, 70.07380
115.7232, 70.14491
116.2053, 70.10610
116.6874, 70.09869
117.1695, 70.27721
117.6517, 70.70860
118.1338, 71.04662
118.6159, 71.07679
119.0980, 71.13876
119.5801, 71.61141
120.0622, 72.59465
120.5444, 73.68996
121.0265, 74.26470
121.5086, 74.31187
121.9907, 74.49245
122.4728, 75.24116
122.9549, 76.27895
123.4371, 76.84288
123.9192, 76.50163
124.4013, 75.90134
124.8834, 75.79492
125.3655, 76.20177
125.8476, 76.71483
126.3298, 77.02148
126.8119, 77.10620
127.2940, 77.15586
127.7761, 77.23859
128.2582, 77.28613
128.7403, 77.18116
129.2225, 76.89137
129.7046, 76.62758
130.1867, 76.77801
130.6688, 77.59592
131.1509, 78.37879
131.6330, 79.12449
132.1152, 79.75691
132.5973, 80.18885
133.0794, 80.37282
133.5615, 80.36341
134.0436, 80.38326
134.5257, 80.54161
135.0079, 80.61043
135.4900, 80.51509
135.9721, 80.31100
136.4542, 80.08614
136.9363, 79.89151
137.4184, 79.72922
137.9006, 79.62141
138.3827, 79.66479
138.8648, 79.66292
139.3469, 79.52489
139.8290, 79.25446
140.3111, 78.88897
140.7933, 78.39308
141.2754, 77.80709
141.7575, 77.42570
142.2396, 77.52962
142.7217, 77.71537
143.2038, 77.44302
143.6860, 76.56261
144.1681, 75.75973
144.6502, 75.75687
145.1323, 76.27757
145.6144, 76.76756
146.0965, 76.94507
146.5787, 76.91270
147.0608, 77.02032
147.5429, 77.43346
148.0250, 77.76882
148.5071, 77.76541
148.9892, 77.50806
149.4714, 77.23900
149.9535, 77.21291
150.4356, 77.46597
150.9177, 77.47575
151.3998, 76.89182
151.8819, 76.32836
152.3641, 76.02771
152.8462, 75.98502
153.3283, 76.03637
153.8104, 76.00386
154.2925, 75.87875
154.7746, 75.68296
155.2568, 75.40327
155.7389, 75.07956
156.2210, 74.68505
156.7031, 74.23710
157.1852, 73.83690
157.6673, 73.65932
158.1495, 74.01009
158.6316, 74.05038
159.1137, 73.45937
159.5958, 72.70791
160.0779, 72.30753
160.5600, 72.43974
161.0422, 72.84171
161.5243, 72.95076
162.0064, 72.58184
162.4885, 72.38701
162.9706, 72.71291
163.4527, 73.30190
163.9349, 73.59283
164.4170, 73.26150
164.8991, 72.69563
165.3812, 72.65785
165.8633, 73.28846
166.3454, 73.94576
166.8276, 74.23461
167.3097, 74.20127
167.7918, 74.20515
168.2739, 74.39187
168.7560, 74.68155
169.2381, 74.97539
169.7203, 75.26527
170.2024, 75.55619
170.6845, 75.83504
171.1666, 76.08595
171.6487, 76.41368
172.1308, 77.01441
172.6130, 77.62832
173.0951, 78.03421
173.5772, 78.15099
174.0593, 78.11292
174.5414, 78.14114
175.0235, 78.22944
175.5057, 78.40909
175.9878, 78.83086
176.4699, 79.26563
176.9520, 79.45193
177.4341, 79.25533
177.9162, 78.84620
178.3984, 78.77029
178.8805, 79.49629
179.3626, 79.96397
179.8447, 79.89684
180.3268, 79.55004
180.8089, 79.23434
181.2911, 79.12392
181.7732, 79.18369
182.2553, 79.21565
182.7374, 79.09058
183.2195, 79.08066
183.7016, 79.25956
184.1838, 79.59039
184.6659, 80.01799
185.1480, 80.52336
185.6301, 81.09302
186.1122, 81.57741
186.5943, 81.88394
187.0764, 82.21690
187.5586, 82.54871
188.0407, 82.94240
188.5228, 83.63371
189.0049, 84.88399
189.4870, 86.56347
189.9691, 87.83160
190.4513, 88.27708
190.9334, 88.67412
191.4155, 89.58671
191.8976, 90.98604
192.3797, 92.39394
192.8618, 93.47373
193.3440, 94.31759
193.8261, 95.20517
194.3082, 96.13561
194.7903, 97.13850
195.2724, 98.26464
195.7545, 99.52847
196.2367, 100.8080
196.7188, 101.9747
197.2009, 103.1190
197.6830, 104.3758
198.1651, 105.8198
198.6472, 107.3726
199.1294, 108.8722
199.6115, 110.2229
200.0936, 111.7700
200.5757, 113.9224
201.0578, 116.2905
201.5399, 118.3551
202.0221, 119.7403
202.5042, 120.7457
202.9863, 122.3062
203.4684, 124.7399
203.9505, 127.2251
204.4326, 129.5609
204.9148, 131.7646
205.3969, 133.8641
205.8790, 135.8746
206.3611, 137.8037
206.8432, 139.7182
207.3253, 141.3546
207.8075, 143.3302
208.2896, 145.9636
208.7717, 148.9694
209.2538, 151.9243
209.7359, 154.5164
210.2180, 156.8313
210.7002, 159.5639
211.1823, 163.2534
211.6644, 166.8304
212.1465, 169.9077
212.6286, 172.7421
213.1107, 175.7854
213.5929, 179.3398
214.0750, 183.3876
214.5571, 187.5596
215.0392, 192.0191
215.5213, 196.4468
216.0034, 200.6454
216.4856, 204.7259
216.9677, 208.8742
217.4498, 213.2360
217.9319, 217.7784
218.4140, 222.4738
218.8961, 227.9674
219.3783, 232.9002
219.8604, 236.7617
220.3425, 239.6350
220.8246, 241.9134
221.3067, 243.9385
221.7888, 245.5103
222.2710, 245.7229
222.7531, 244.3068
223.2352, 242.0043
223.7173, 239.0422
224.1994, 235.4595
224.6815, 231.3286
225.1637, 226.5307
225.6458, 221.2316
226.1279, 216.1839
226.6100, 211.6784
227.0921, 207.1370
227.5742, 201.8815
228.0564, 196.0404
228.5385, 190.7332
229.0206, 186.7341
229.5027, 183.6873
229.9848, 180.7384
230.4669, 177.7704
230.9491, 174.9635
231.4312, 172.4492
231.9133, 170.2220
232.3954, 168.2644
232.8775, 166.5449
233.3596, 165.1499
233.8418, 164.2304
234.3239, 163.9229
234.8060, 163.8327
235.2881, 163.5769
235.7702, 163.1467
236.2523, 162.6266
236.7345, 161.7701
237.2166, 160.9919
237.6987, 160.7558
238.1808, 161.2317
238.6629, 161.9205
239.1451, 162.1523
239.6272, 161.8056
240.1093, 161.6554
240.5914, 162.2043
241.0735, 162.8862
241.5556, 163.3702
242.0378, 163.5824
242.5199, 163.4988
243.0020, 163.0028
243.4841, 161.9587
243.9662, 161.0085
244.4483, 160.1504
244.9305, 159.4934
245.4126, 159.2560
245.8947, 159.4522
246.3768, 159.6750
246.8589, 159.3706
247.3410, 158.4321
247.8231, 157.2758
248.3053, 155.8196
248.7874, 154.2578
249.2695, 152.5873
249.7516, 150.8592
250.2337, 149.2878
250.7158, 148.2583
251.1980, 148.1384
251.6801, 147.5526
252.1622, 146.1639
252.6443, 144.6089
253.1264, 143.1658
253.6085, 141.9098
254.0907, 140.8255
254.5728, 139.9215
255.0549, 139.2656
255.5370, 138.5774
256.0191, 137.8990
256.5013, 137.1604
256.9834, 136.1482
257.4655, 134.9578
257.9476, 134.0209
258.4297, 133.8832
258.9118, 134.8664
259.3940, 135.3223
259.8761, 135.0262
260.3582, 134.5188
260.8403, 133.9160
261.3224, 133.3216
261.8045, 132.9374
262.2867, 133.0002
262.7688, 133.6232
263.2509, 133.9075
263.7330, 133.6515
264.2151, 133.3229
264.6972, 133.0342
265.1794, 132.8476
265.6615, 132.8837
266.1436, 133.2884
266.6257, 134.0930
267.1078, 134.5333
267.5899, 134.4538
268.0721, 134.2583
268.5542, 134.1154
269.0363, 134.0056
269.5184, 133.8172
270.0005, 133.4558
270.4826, 132.9403
270.9648, 132.5705
271.4469, 132.6648
271.9290, 132.5450
272.4111, 131.9428
272.8932, 130.9305
273.3753, 129.6724
273.8575, 128.2396
274.3396, 126.6619
274.8217, 125.0870
275.3038, 123.0993
275.7859, 121.5625
276.2680, 121.2874
276.7502, 121.6457
277.2323, 121.2161
277.7144, 119.2062
278.1965, 116.2442
278.6786, 114.2379
279.1607, 113.6020
279.6428, 112.9288
280.1249, 111.7349
280.6071, 110.2548
281.0892, 108.8777
281.5713, 107.7111
282.0534, 106.7881
282.5355, 106.3455
283.0176, 106.6907
283.4998, 106.4471
283.9819, 104.8091
284.4640, 102.4946
284.9461, 100.5663
285.4282, 99.30515
285.9103, 98.49299
286.3925, 97.95347
286.8746, 97.72195
287.3567, 97.34154
287.8388, 96.68456
288.3209, 95.83897
288.8030, 94.86328
289.2852, 93.74149
289.7673, 92.66322
290.2494, 91.87733
290.7315, 91.36337
291.2136, 90.82155
291.6957, 90.08562
292.1779, 89.36263
292.6600, 88.93984
293.1421, 88.85246
293.6242, 88.77706
294.1063, 88.45011
294.5884, 87.90156
295.0706, 87.33694
295.5527, 86.65017
296.0348, 86.04067
296.5169, 85.71594
296.9990, 85.67123
297.4811, 85.71037
297.9633, 85.77877
298.4454, 85.82102
298.9275, 85.68843
299.4096, 85.13979
299.8917, 84.67950
300.3738, 84.68325
300.8560, 85.11178
301.3381, 85.71494
301.8202, 86.49815
302.3023, 87.29640
302.7844, 87.78752
303.2665, 87.83463
303.7487, 87.90118
304.2308, 88.22866
304.7129, 88.78402
305.1950, 89.47308
305.6771, 90.31129
306.1592, 91.21207
306.6414, 92.08748
307.1235, 92.96164
307.6056, 93.69157
308.0877, 94.12249
308.5698, 94.37194
309.0519, 94.67603
309.5341, 95.03883
310.0162, 95.57975
310.4983, 96.58666
310.9804, 97.98314
311.4625, 99.18877
311.9446, 99.90414
312.4268, 100.3557
312.9089, 100.9835
313.3910, 101.9135
313.8731, 102.5975
314.3552, 102.2723
314.8373, 101.2754
315.3195, 100.6941
315.8016, 100.9011
316.2837, 101.5271
316.7658, 102.3085
317.2479, 103.2495
317.7300, 104.0107
318.2122, 104.3493
318.6943, 104.3547
319.1764, 104.2617
319.6585, 103.9022
320.1406, 103.6824
320.6227, 103.9746
321.1049, 104.7246
321.5870, 105.5516
322.0691, 106.3228
322.5512, 107.0582
323.0333, 107.8225
323.5154, 108.6548
323.9976, 109.3857
324.4797, 109.7774
324.9618, 109.9758
325.4439, 110.4491
325.9260, 111.3953
326.4081, 112.5320
326.8903, 113.5614
327.3724, 114.4934
327.8545, 115.2411
328.3366, 115.6370
328.8187, 115.8608
329.3008, 116.2675
329.7830, 116.9617
330.2651, 117.5865
330.7472, 117.6400
331.2293, 117.2523
331.7114, 117.1610
332.1935, 117.8362
332.6757, 118.6715
333.1578, 118.9840
333.6399, 118.7424
334.1220, 118.4399
334.6041, 118.4319
335.0862, 118.6137
335.5684, 118.5739
336.0505, 117.9102
336.5326, 117.4219
337.0147, 117.8465
337.4968, 118.9773
337.9789, 119.8509
338.4611, 119.9718
338.9432, 119.6373
339.4253, 119.5019
339.9074, 119.5611
340.3895, 119.7817
340.8716, 120.1898
341.3538, 120.7466
341.8359, 121.4259
342.3180, 122.2654
342.8001, 123.0690
343.2822, 123.4512
343.7643, 123.3445
344.2465, 123.5448
344.7286, 124.3037
345.2107, 125.3904
345.6928, 126.6469
346.1749, 128.0503
346.6570, 129.3606
347.1392, 130.2824
347.6213, 130.8130
348.1034, 131.6860
348.5855, 133.2706
349.0676, 134.8927
349.5497, 135.9666
350.0319, 136.6256
350.5140, 137.5587
350.9961, 139.2400
351.4782, 141.4966
351.9603, 143.4738
352.4424, 144.7986
352.9246, 146.3471
353.4067, 148.5176
353.8888, 151.0833
354.3709, 153.6413
354.8530, 156.0424
355.3351, 158.3553
355.8173, 160.6783
356.2994, 162.9008
356.7815, 165.4314
357.2636, 168.4987
357.7457, 171.7846
358.2278, 175.0180
358.7100, 178.1350
359.1921, 181.1865
359.6742, 184.1811
360.1563, 187.1102
360.6384, 190.0688
361.1205, 192.6396
361.6027, 195.6021
362.0848, 199.6865
362.5669, 204.5855
363.0490, 209.3435
363.5311, 213.2419
364.0132, 216.4318
364.4954, 220.0968
364.9775, 224.2229
365.4596, 228.7866
365.9417, 234.0565
366.4238, 239.6714
366.9059, 245.1249
367.3881, 250.2363
367.8702, 255.1873
368.3523, 260.3861
368.8344, 266.1639
369.3165, 271.6318
369.7986, 277.0768
370.2808, 282.0678
370.7629, 286.1565
371.2450, 289.3678
371.7271, 292.2376
372.2092, 295.4486
372.6913, 299.3150
373.1735, 301.5657
373.6556, 302.4205
374.1377, 301.5597
374.6198, 298.4574
375.1019, 293.5228
375.5840, 287.5270
376.0662, 280.9216
376.5483, 273.7230
377.0304, 266.0941
377.5125, 257.4956
377.9946, 249.2655
378.4767, 241.8182
378.9589, 234.7634
379.4410, 227.6944
379.9231, 220.4803
380.4052, 213.3228
380.8873, 206.4319
381.3694, 199.7478
381.8516, 193.6061
382.3337, 188.1213
382.8158, 183.1051
383.2979, 178.5587
383.7800, 174.4335
384.2621, 170.5907
384.7443, 166.8718
385.2264, 163.3144
385.7085, 160.2137
386.1906, 157.6833
386.6727, 155.4940
387.1548, 153.7038
387.6370, 152.1132
388.1191, 150.4319
388.6012, 148.5033
389.0833, 146.4705
389.5654, 144.5172
390.0475, 142.5741
390.5297, 141.0322
391.0118, 140.2151
391.4939, 139.7481
391.9760, 139.3862
392.4581, 139.0960
392.9402, 138.8948
393.4224, 138.9137
393.9045, 139.0830
394.3866, 138.9229
394.8687, 138.1725
395.3508, 137.4052
395.8329, 137.1199
396.3151, 137.2006
396.7972, 137.2888
397.2793, 137.2901
397.7614, 137.2045
398.2435, 136.9771
398.7256, 136.5936
399.2078, 136.2887
399.6899, 136.1787
400.1720, 136.2592
400.6541, 136.5061
401.1362, 137.0389
401.6183, 137.5126
402.1004, 137.7340
402.5826, 137.7366
403.0647, 137.6511
403.5468, 137.5632
404.0289, 137.2694
404.5110, 136.2641
404.9931, 134.4462
405.4753, 133.1246
405.9574, 133.0495
406.4395, 133.2595
406.9216, 132.8065
407.4037, 131.6312
407.8858, 130.2436
408.3680, 129.0335
408.8501, 127.9703
409.3322, 126.7305
409.8143, 125.3053
410.2964, 123.7354
410.7785, 121.9769
411.2607, 120.0923
411.7428, 118.1566
412.2249, 116.2097
412.7070, 114.2572
413.1891, 112.3147
413.6712, 110.4128
414.1534, 108.4761
414.6355, 106.5044
415.1176, 104.5004
415.5997, 102.4039
416.0818, 100.2581
416.5639, 98.24586
417.0461, 96.56106
417.5282, 95.21301
418.0103, 93.69776
418.4924, 91.75752
418.9745, 89.93136
419.4566, 88.37481
419.9388, 86.98977
420.4209, 85.63377
420.9030, 84.25509
421.3851, 82.85611
421.8672, 81.40611
422.3493, 79.72845
422.8315, 78.45581
423.3136, 77.83842
423.7957, 77.45689
424.2778, 77.14404
424.7599, 76.84534
425.2420, 76.50149
425.7242, 76.05208
426.2063, 75.50502
426.6884, 74.94754
427.1705, 74.35363
427.6526, 73.79659
428.1347, 73.26501
428.6169, 72.79424
429.0990, 72.44853
429.5811, 72.27341
430.0632, 72.17160
430.5453, 72.01299
431.0274, 71.79553
431.5096, 71.62543
431.9917, 71.53822
432.4738, 71.50945
432.9559, 71.52990
433.4380, 71.59834
433.9201, 71.61662
434.4023, 71.53732
434.8844, 71.37756
435.3665, 71.08575
435.8486, 70.62231
436.3307, 70.35819
436.8128, 70.66724
437.2950, 71.41511
437.7771, 71.96739
438.2592, 72.25882
438.7413, 72.40495
439.2234, 72.39194
439.7055, 72.27985
440.1877, 72.23326
440.6698, 72.32545
441.1519, 72.44182
441.6340, 72.37320
442.1161, 72.00328
442.5982, 71.79766
443.0804, 71.99108
443.5625, 72.19710
444.0446, 72.05110
444.5267, 71.60227
445.0088, 71.20931
445.4909, 71.15586
445.9731, 71.39989
446.4552, 71.52898
446.9373, 71.47654
447.4194, 71.38706
447.9015, 71.28120
448.3836, 71.14819
448.8658, 70.95266
449.3479, 70.69230
449.8300, 70.43478
450.3121, 70.31577
450.7942, 70.43211
451.2763, 70.32085
451.7585, 69.68486
452.2406, 69.09550
452.7227, 68.86889
453.2048, 68.86567
453.6869, 68.72540
454.1690, 68.18486
454.6512, 67.44231
455.1333, 67.03811
455.6154, 67.10649
456.0975, 67.11363
456.5796, 66.76684
457.0617, 66.36656
457.5439, 66.13719
458.0260, 66.11182
458.5081, 66.18049
458.9902, 66.37758
459.4723, 66.61691
459.9544, 66.51542
460.4366, 65.89877
460.9187, 65.31227
461.4008, 65.18801
461.8829, 65.41298
462.3650, 65.75894
462.8471, 66.40002
463.3293, 66.92986
463.8114, 67.03360
464.2935, 66.76735
464.7756, 66.26706
465.2577, 65.50709
465.7398, 64.73186
466.2220, 64.41063
466.7041, 64.66478
467.1862, 64.82708
467.6683, 64.80619
468.1504, 64.67899
468.6325, 64.42767
469.1147, 64.10300
469.5968, 63.89823
470.0789, 63.96432
470.5610, 64.25516
471.0431, 64.45976
471.5252, 64.46848
472.0074, 64.52589
472.4895, 64.75465
472.9716, 64.99249
473.4537, 65.02476
473.9358, 64.82856
474.4179, 64.61944
474.9001, 64.67479
475.3822, 65.03255
475.8643, 65.33481
476.3464, 65.48846
476.8285, 65.68608
477.3106, 66.03234
477.7928, 66.45377
478.2749, 66.82236
478.7570, 67.07258
479.2391, 67.28001
479.7212, 67.57124
480.2033, 67.95747
480.6855, 68.34090
481.1676, 68.72234
481.6497, 69.07444
482.1318, 69.37233
482.6139, 69.62121
483.0960, 69.85423
483.5782, 70.06254
484.0603, 70.27570
484.5424, 70.55974
485.0245, 70.91883
485.5066, 71.26488
485.9887, 71.56738
486.4709, 71.81194
486.9530, 71.94640
487.4351, 71.85126
487.9172, 71.91197
488.3993, 72.38362
488.8814, 73.03629
489.3636, 73.58586
489.8457, 73.97376
490.3278, 74.21581
490.8099, 74.27898
491.2920, 74.14156
491.7741, 74.35769
492.2563, 75.23159
492.7384, 76.04630
493.2205, 76.49564
493.7026, 76.77978
494.1847, 77.22671
494.6668, 77.94965
495.1490, 78.73591
495.6311, 79.21780
496.1132, 79.24567
496.5953, 79.44946
497.0774, 80.04688
497.5595, 80.61829
498.0417, 80.94724
498.5238, 81.12223
499.0059, 81.34423
499.4880, 81.70892
499.9701, 82.20366
500.4522, 82.87754
500.9344, 83.79629
501.4165, 84.46961
501.8986, 84.52570
502.3807, 84.48238
502.8628, 84.81606
503.3449, 85.52562
503.8271, 86.32047
504.3092, 87.12395
504.7913, 87.90390
505.2734, 88.63624
505.7555, 89.31898
506.2376, 89.83624
506.7198, 90.05529
507.2019, 90.09907
507.6840, 90.35728
508.1661, 90.93393
508.6482, 91.49554
509.1303, 91.99715
509.6125, 92.41782
510.0946, 92.69908
510.5767, 92.84660
511.0588, 92.96889
511.5409, 93.17626
512.0230, 93.46727
512.5051, 93.63091
512.9872, 93.43050
513.4694, 93.38337
513.9515, 93.85856
514.4336, 94.41181
514.9157, 94.44691
515.3978, 93.82649
515.8799, 93.05502
516.3621, 92.81135
516.8442, 93.16287
517.3263, 93.34602
517.8084, 93.40714
518.2905, 93.20856
518.7726, 92.59457
519.2548, 91.73384
519.7369, 90.90295
520.2190, 90.19147
520.7011, 89.53865
521.1832, 88.93642
521.6653, 88.36089
522.1475, 87.55827
522.6296, 86.32039
523.1117, 85.13858
523.5938, 84.71867
524.0759, 84.94195
524.5580, 84.92951
525.0402, 84.43198
525.5223, 83.74576
526.0044, 82.99118
526.4865, 82.21861
526.9686, 81.53379
527.4507, 80.98698
527.9329, 80.54269
528.4150, 80.12790
528.8971, 79.67004
529.3792, 79.43887
529.8613, 79.51058
530.3434, 79.72169
530.8256, 80.07458
531.3077, 80.48911
531.7898, 80.82206
532.2719, 80.99072
532.7540, 81.01802
533.2361, 80.90993
533.7183, 80.52357
534.2004, 80.40734
534.6825, 81.11245
535.1646, 81.75285
535.6467, 81.71021
536.1288, 81.07526
536.6110, 80.42561
537.0931, 80.02818
537.5752, 79.86771
538.0573, 80.10375
538.5394, 80.77460
539.0215, 80.96387
539.5037, 80.02159
539.9858, 78.63209
540.4679, 78.01416
540.9500, 78.30259
541.4321, 78.40755
541.9142, 77.92236
542.3964, 77.17850
542.8785, 76.42887
543.3606, 75.72331
543.8427, 75.11851
544.3248, 74.65857
544.8069, 74.31991
545.2891, 74.01824
545.7712, 73.91081
546.2533, 73.61425
546.7354, 72.99989
547.2175, 72.28945
547.6996, 71.55364
548.1818, 70.86641
548.6639, 70.38223
549.1460, 70.28065
549.6281, 70.44348
550.1102, 70.38084
550.5923, 70.04710
551.0745, 69.60486
551.5566, 69.02000
552.0387, 68.38945
552.5208, 67.73963
553.0029, 67.08217
553.4850, 66.55685
553.9672, 66.37587
554.4493, 66.32923
554.9314, 65.97740
555.4135, 65.29707
555.8956, 64.69296
556.3777, 64.39491
556.8599, 64.31624
557.3420, 64.25326
557.8241, 64.27334
558.3062, 64.15566
558.7883, 63.87370
559.2704, 63.42651
559.7526, 62.62974
560.2347, 61.60974
560.7168, 60.90163
561.1989, 60.94537
561.6810, 61.52134
562.1631, 61.60317
562.6453, 60.77985
563.1274, 60.15804
563.6095, 59.87508
564.0916, 59.79473
564.5737, 59.94790
565.0558, 60.24884
565.5380, 60.39551
566.0201, 60.12536
566.5022, 59.57172
566.9843, 59.06223
567.4664, 58.59421
567.9485, 58.17044
568.4307, 57.74453
568.9128, 57.41434
569.3949, 57.35279
569.8770, 57.59090
570.3591, 57.72224
570.8412, 57.54747
571.3234, 57.24678
571.8055, 56.96478
572.2876, 56.72264
572.7697, 56.58236
573.2518, 56.60692
573.7339, 56.66751
574.2161, 56.41811
574.6982, 55.44895
575.1803, 54.88957
575.6624, 55.01600
576.1445, 55.28497
576.6266, 55.38449
577.1088, 55.34001
577.5909, 55.30784
578.0730, 55.37476
578.5551, 55.52496
579.0372, 55.78052
579.5193, 56.20109
580.0015, 56.38659
580.4836, 56.14760
580.9657, 55.75420
581.4478, 55.30989
581.9299, 54.86979
582.4120, 54.66357
582.8942, 55.01351
583.3763, 55.43818
583.8584, 55.36793
584.3405, 54.94894
584.8226, 54.77821
585.3047, 55.09959
585.7869, 55.53711
586.2690, 55.54425
586.7511, 54.97960
587.2332, 54.68392
587.7153, 55.02063
588.1974, 55.21737
588.6796, 54.75185
589.1617, 53.98647
589.6438, 53.52002
590.1259, 53.57104
590.6080, 53.87522
591.0901, 54.14151
591.5723, 54.39807
592.0544, 54.30711
592.5365, 53.60221
593.0186, 52.93169
593.5007, 52.56242
593.9828, 52.42619
594.4650, 52.46412
594.9471, 52.71684
595.4292, 52.93183
595.9113, 52.80124
596.3934, 52.50616
596.8755, 52.58661
597.3577, 53.14339
597.8398, 53.51494
598.3219, 53.10673
598.8040, 52.07059
599.2861, 51.44808
599.7682, 51.51013
600.2504, 51.55838
600.7325, 51.45839
601.2146, 51.31527
601.6967, 51.22764
