##NAMES=Elbaite
##RRUFFID=R060560
##IDEAL CHEMISTRY=Na(Al_1.5_Li_1.5_)Al_6_(Si_6_O_18_)(BO_3_)_3_(OH)_3_OH
##LOCALITY=California, USA
##OWNER=RRUFF
##SOURCE=Gemological Institute of America
##DESCRIPTION=Pink fragment
##STATUS=The identification of this mineral has been confirmed by X-ray diffraction and chemical analysis
##URL=rruff.info/R060560
##MEASURED CHEMISTRY=(Na_0.56_Ca_0.12_[box]_0.32_)(Al_1.60_Li_1.40_)Al_6_(BO_3_)_3_[Si_6_O_18_](OH)_4_
92.10938, 3.095884
92.59149, 3.011933
93.07361, 3.021121
93.55573, 3.119216
94.03784, 3.257321
94.51996, 3.448606
95.00208, 3.659686
95.48419, 3.774142
95.96631, 3.726631
96.44843, 3.563432
96.93054, 3.394547
97.41266, 3.213897
97.89478, 3.068440
98.37689, 3.038584
98.85901, 3.126282
99.34113, 3.210193
99.82324, 3.243171
100.3054, 3.224984
100.7875, 3.189164
101.2696, 3.117837
101.7517, 3.052090
102.2338, 3.089886
102.7159, 3.276714
103.1981, 3.436135
103.6802, 3.446778
104.1623, 3.204571
104.6444, 3.171784
105.1265, 3.477072
105.6086, 3.994614
106.0908, 4.231820
106.5729, 3.964553
107.0550, 3.677182
107.5371, 3.659186
108.0192, 4.175827
108.5013, 4.562722
108.9835, 4.692550
109.4656, 4.576388
109.9477, 4.620627
110.4298, 4.970006
110.9119, 5.400507
111.3940, 5.766802
111.8762, 5.901158
112.3583, 6.133072
112.8404, 6.522577
113.3225, 7.077018
113.8046, 7.720708
114.2867, 8.640674
114.7689, 9.587071
115.2510, 10.28161
115.7331, 10.33939
116.2152, 10.41294
116.6973, 10.78893
117.1794, 11.57254
117.6616, 12.31390
118.1437, 12.80847
118.6258, 13.16236
119.1079, 13.53448
119.5900, 13.91152
120.0721, 14.38144
120.5543, 15.00839
121.0364, 15.82124
121.5185, 16.74137
122.0006, 17.84094
122.4827, 19.03817
122.9648, 20.11785
123.4470, 20.90147
123.9291, 21.51153
124.4112, 22.05886
124.8933, 22.50326
125.3754, 22.99012
125.8575, 23.65829
126.3397, 24.49940
126.8218, 25.46625
127.3039, 26.47532
127.7860, 27.57940
128.2681, 28.90810
128.7502, 30.67304
129.2324, 32.56057
129.7145, 33.96788
130.1966, 34.90141
130.6787, 35.69133
131.1608, 36.72751
131.6429, 37.92035
132.1251, 38.85476
132.6072, 39.13544
133.0893, 39.05796
133.5714, 39.81585
134.0535, 41.55556
134.5356, 43.45795
135.0178, 44.43726
135.4999, 44.46813
135.9820, 44.44271
136.4641, 44.60943
136.9462, 44.97490
137.4283, 45.73098
137.9105, 46.97190
138.3926, 48.44874
138.8747, 49.73502
139.3568, 50.80804
139.8389, 51.83447
140.3210, 52.92654
140.8032, 54.15035
141.2853, 55.06361
141.7674, 55.44731
142.2495, 55.64746
142.7316, 56.52906
143.2137, 58.27705
143.6959, 59.67937
144.1780, 60.43492
144.6601, 60.23313
145.1422, 60.23926
145.6243, 60.48861
146.1064, 60.95984
146.5886, 61.64412
147.0707, 62.88388
147.5528, 63.95171
148.0349, 64.42491
148.5170, 63.92984
148.9991, 63.45374
149.4813, 62.92778
149.9634, 62.39091
150.4455, 62.29557
150.9276, 63.28949
151.4097, 64.27705
151.8918, 64.57204
152.3740, 63.33080
152.8561, 62.37847
153.3382, 62.04226
153.8203, 62.30263
154.3024, 62.31075
154.7845, 61.92902
155.2667, 61.32133
155.7488, 60.60198
156.2309, 59.68800
156.7130, 58.77714
157.1951, 57.85701
157.6772, 56.92280
158.1594, 56.17882
158.6415, 55.69105
159.1236, 55.40659
159.6057, 55.27333
160.0878, 55.62143
160.5699, 55.81506
161.0521, 55.53263
161.5342, 54.69237
162.0163, 53.96023
162.4984, 53.46934
162.9805, 53.24065
163.4626, 53.30164
163.9448, 53.94759
164.4269, 54.66661
164.9090, 55.21419
165.3911, 55.56354
165.8732, 55.77029
166.3553, 55.69098
166.8375, 55.50510
167.3196, 55.50941
167.8017, 55.99467
168.2838, 56.61766
168.7659, 57.13860
169.2480, 57.51732
169.7302, 57.83809
170.2123, 58.10808
170.6944, 58.35930
171.1765, 58.65893
171.6586, 59.08158
172.1407, 59.55079
172.6229, 60.01499
173.1050, 60.48914
173.5871, 60.89006
174.0692, 61.05450
174.5513, 61.06274
175.0334, 61.15184
175.5156, 61.61549
175.9977, 62.20449
176.4798, 62.54477
176.9619, 62.54419
177.4440, 62.37304
177.9261, 62.17440
178.4083, 61.95347
178.8904, 61.73402
179.3725, 61.57921
179.8546, 61.43292
180.3367, 61.16065
180.8188, 60.66670
181.3010, 60.16266
181.7831, 59.95687
182.2652, 60.02757
182.7473, 60.19275
183.2294, 60.24793
183.7115, 60.28680
184.1937, 60.61168
184.6758, 61.41716
185.1579, 62.37286
185.6400, 62.82988
186.1221, 62.80677
186.6042, 62.85635
187.0864, 63.40575
187.5685, 64.39974
188.0506, 65.59559
188.5327, 67.03139
189.0148, 68.56989
189.4969, 69.96272
189.9791, 71.19852
190.4612, 72.40910
190.9433, 73.69689
191.4254, 75.05198
191.9075, 76.48957
192.3896, 78.00037
192.8718, 79.58918
193.3539, 81.33820
193.8360, 83.27868
194.3181, 85.26213
194.8002, 86.99187
195.2823, 88.49938
195.7645, 90.57837
196.2466, 93.66647
196.7287, 97.41239
197.2108, 100.2278
197.6929, 101.9235
198.1750, 103.5482
198.6572, 106.1681
199.1393, 109.8138
199.6214, 113.4853
200.1035, 116.9054
200.5856, 120.1476
201.0677, 123.5734
201.5499, 127.2487
202.0320, 130.9485
202.5141, 134.3777
202.9962, 137.4764
203.4783, 140.7969
203.9604, 144.5198
204.4426, 148.5962
204.9247, 152.5797
205.4068, 156.3586
205.8889, 160.2304
206.3710, 164.5093
206.8531, 169.2614
207.3353, 174.0995
207.8174, 178.9476
208.2995, 183.8097
208.7816, 188.6578
209.2637, 193.2955
209.7458, 198.1985
210.2280, 203.8974
210.7101, 210.5519
211.1922, 217.4206
211.6743, 224.4267
212.1564, 231.5033
212.6385, 238.4232
213.1207, 244.8719
213.6028, 251.5414
214.0849, 259.1474
214.5670, 267.7126
215.0491, 276.9161
215.5313, 286.7763
216.0134, 297.3341
216.4955, 307.9474
216.9776, 318.5621
217.4597, 329.4291
217.9418, 341.0241
218.4239, 353.3757
218.9061, 366.0920
219.3882, 379.2905
219.8703, 392.8641
220.3524, 406.2308
220.8345, 419.9455
221.3166, 432.5833
221.7988, 442.8717
222.2809, 450.5048
222.7630, 456.3376
223.2451, 460.7369
223.7272, 463.7602
224.2093, 463.5439
224.6915, 459.5134
225.1736, 452.8664
225.6557, 444.7714
226.1378, 434.5869
226.6199, 424.0479
227.1020, 413.5530
227.5842, 403.0144
228.0663, 391.8884
228.5484, 379.5032
229.0305, 367.1052
229.5126, 355.7669
229.9947, 345.5562
230.4769, 336.3091
230.9590, 328.0287
231.4411, 320.7504
231.9232, 313.8419
232.4053, 307.1341
232.8874, 300.8845
233.3696, 295.2740
233.8517, 290.2560
234.3338, 285.9747
234.8159, 282.5067
235.2980, 279.8204
235.7801, 277.6938
236.2623, 276.2277
236.7444, 275.2161
237.2265, 274.5100
237.7086, 274.1730
238.1907, 274.0188
238.6728, 273.9883
239.1550, 274.0932
239.6371, 274.4953
240.1192, 274.9972
240.6013, 276.0122
241.0834, 277.9850
241.5655, 281.5765
242.0477, 284.7682
242.5298, 287.3015
243.0119, 289.2022
243.4940, 290.7274
243.9761, 291.7151
244.4582, 292.5120
244.9404, 293.3853
245.4225, 294.5066
245.9046, 295.3716
246.3867, 296.0197
246.8688, 296.4031
247.3509, 296.2414
247.8331, 295.7839
248.3152, 294.4677
248.7973, 291.8183
249.2794, 287.1729
249.7615, 282.5639
250.2436, 278.1964
250.7258, 273.9961
251.2079, 269.7321
251.6900, 265.5493
252.1721, 261.1026
252.6542, 256.0552
253.1363, 249.9367
253.6185, 244.4525
254.1006, 239.9417
254.5827, 236.1389
255.0648, 232.1388
255.5469, 227.8235
256.0291, 223.5742
256.5112, 219.5312
256.9933, 215.4953
257.4754, 212.1832
257.9575, 209.8515
258.4396, 208.1775
258.9218, 206.3486
259.4039, 204.3475
259.8860, 202.1961
260.3681, 199.7290
260.8502, 196.4847
261.3323, 194.3121
261.8145, 193.5137
262.2966, 193.6262
262.7787, 193.6142
263.2608, 193.2802
263.7429, 193.2371
264.2250, 193.9394
264.7072, 195.7910
265.1893, 196.6077
265.6714, 195.9752
266.1535, 194.6430
266.6356, 193.9303
267.1177, 193.9336
267.5999, 194.2944
268.0820, 195.0766
268.5641, 196.4518
269.0462, 196.9262
269.5283, 196.2157
270.0104, 194.9686
270.4926, 194.0840
270.9747, 193.5889
271.4568, 193.3793
271.9389, 193.6345
272.4210, 194.3955
272.9031, 194.2129
273.3853, 192.8325
273.8674, 190.9720
274.3495, 189.5808
274.8316, 188.7445
275.3137, 187.9085
275.7958, 187.0398
276.2780, 186.0957
276.7601, 184.4493
277.2422, 182.0159
277.7243, 179.0893
278.2064, 175.9565
278.6885, 172.6244
279.1707, 168.9903
279.6528, 164.9298
280.1349, 160.5484
280.6170, 156.4152
281.0991, 152.5742
281.5812, 148.7958
282.0634, 144.8946
282.5455, 140.8139
283.0276, 136.8888
283.5097, 133.1047
283.9918, 129.5602
284.4739, 126.7286
284.9561, 124.7033
285.4382, 122.7000
285.9203, 119.9962
286.4024, 116.6663
286.8845, 113.5350
287.3666, 110.6958
287.8488, 108.1944
288.3309, 106.2633
288.8130, 104.9114
289.2951, 103.7071
289.7772, 102.4277
290.2593, 101.0792
290.7415, 99.60567
291.2236, 97.99063
291.7057, 96.31584
292.1878, 94.57845
292.6699, 92.81154
293.1520, 91.41088
293.6342, 90.82093
294.1163, 90.80332
294.5984, 90.57722
295.0805, 90.07565
295.5626, 89.47403
296.0447, 88.92564
296.5269, 88.44144
297.0090, 88.07313
297.4911, 88.01805
297.9732, 88.07187
298.4553, 87.61633
298.9374, 86.58575
299.4196, 85.72751
299.9017, 85.98109
300.3838, 87.04479
300.8659, 88.10632
301.3480, 88.88186
301.8301, 89.44551
302.3123, 89.81844
302.7944, 90.01235
303.2765, 90.26822
303.7586, 90.90276
304.2407, 91.72376
304.7228, 92.37277
305.2050, 92.51943
305.6871, 92.66326
306.1692, 93.42739
306.6513, 94.73226
307.1334, 96.06213
307.6155, 96.92612
308.0977, 97.67788
308.5798, 98.78156
309.0619, 100.4404
309.5440, 102.3287
310.0261, 104.1799
310.5082, 106.0447
310.9904, 108.0697
311.4725, 110.5969
311.9546, 113.1999
312.4367, 115.5145
312.9188, 117.4554
313.4009, 119.1725
313.8831, 120.8116
314.3652, 122.2640
314.8473, 123.3545
315.3294, 123.9793
315.8115, 124.2521
316.2936, 124.3105
316.7758, 124.2153
317.2579, 123.5861
317.7400, 121.7364
318.2221, 119.4051
318.7042, 117.4953
319.1863, 116.7877
319.6685, 116.1183
320.1506, 114.8135
320.6327, 112.8340
321.1148, 111.3871
321.5969, 111.1968
322.0790, 111.5088
322.5612, 111.6871
323.0433, 111.4126
323.5254, 111.1838
324.0075, 111.0955
324.4896, 111.1444
324.9717, 111.2935
325.4539, 111.5667
325.9360, 111.9185
326.4181, 112.3201
326.9002, 112.7453
327.3823, 113.2532
327.8644, 113.9197
328.3466, 114.6823
328.8287, 115.3499
329.3108, 116.1316
329.7929, 116.6315
330.2750, 116.6707
330.7571, 116.0326
331.2393, 115.4223
331.7214, 114.7373
332.2035, 114.1155
332.6856, 113.8152
333.1677, 114.1507
333.6498, 114.3440
334.1320, 114.1225
334.6141, 113.4125
335.0962, 112.8782
335.5783, 112.4467
336.0604, 112.2673
336.5425, 112.5864
337.0247, 113.7224
337.5068, 114.5294
337.9889, 114.6282
338.4710, 114.1501
338.9531, 114.2976
339.4352, 115.2667
339.9173, 116.4198
340.3994, 117.1890
340.8816, 117.4747
341.3637, 118.0731
341.8458, 119.1441
342.3279, 120.5380
342.8100, 121.9676
343.2921, 123.4343
343.7743, 124.8508
344.2564, 126.0724
344.7385, 127.1285
345.2206, 128.4447
345.7027, 130.1345
346.1848, 131.8919
346.6670, 133.1322
347.1491, 133.8982
347.6312, 134.8515
348.1133, 136.3138
348.5954, 138.1981
349.0775, 140.2605
349.5597, 142.5253
350.0418, 144.9032
350.5239, 147.2914
351.0060, 149.7193
351.4881, 152.1658
351.9702, 154.5428
352.4524, 157.0089
352.9345, 159.7974
353.4166, 162.8878
353.8987, 166.1030
354.3808, 168.9470
354.8629, 171.9075
355.3451, 175.7150
355.8272, 180.7198
356.3093, 186.1979
356.7914, 191.5867
357.2735, 196.9650
357.7556, 202.4228
358.2378, 207.5605
358.7199, 213.0137
359.2020, 219.3640
359.6841, 226.7544
360.1662, 234.5780
360.6483, 242.6384
361.1305, 250.8838
361.6126, 259.2426
362.0947, 267.5243
362.5768, 276.0526
363.0589, 284.8884
363.5410, 294.0479
364.0232, 304.0259
364.5053, 315.3315
364.9874, 327.3380
365.4695, 339.5590
365.9516, 351.4359
366.4337, 364.0391
366.9159, 377.3499
367.3980, 391.5318
367.8801, 407.2944
368.3622, 426.0028
368.8443, 445.1160
369.3264, 463.4659
369.8086, 480.2888
370.2907, 497.7827
370.7728, 516.4275
371.2549, 535.5469
371.7370, 554.0378
372.2191, 572.9308
372.7013, 589.8622
373.1834, 604.4080
373.6655, 616.8111
374.1476, 625.3524
374.6297, 629.9600
375.1118, 630.6295
375.5940, 627.0729
376.0761, 618.9205
376.5582, 607.8248
377.0403, 593.6218
377.5224, 576.7976
378.0045, 558.5590
378.4867, 539.0999
378.9688, 518.8140
379.4509, 497.5329
379.9330, 475.3974
380.4151, 454.1336
380.8972, 434.0426
381.3794, 414.9040
381.8615, 396.7647
382.3436, 379.4028
382.8257, 363.2359
383.3078, 348.0172
383.7899, 333.9461
384.2721, 321.2276
384.7542, 309.9464
385.2363, 299.8384
385.7184, 290.7511
386.2005, 282.6540
386.6826, 274.8939
387.1648, 267.0868
387.6469, 259.8719
388.1290, 254.2520
388.6111, 250.0533
389.0932, 246.1420
389.5753, 241.3421
390.0575, 236.5714
390.5396, 232.8232
391.0217, 230.2758
391.5038, 228.6393
391.9859, 228.3169
392.4680, 228.7041
392.9502, 228.6912
393.4323, 227.1648
393.9144, 225.5858
394.3965, 224.8036
394.8786, 224.8828
395.3607, 225.3242
395.8429, 226.1461
396.3250, 227.1558
396.8071, 228.1836
397.2892, 228.8146
397.7713, 229.8733
398.2534, 231.7965
398.7356, 234.3917
399.2177, 236.6851
399.6998, 238.6384
400.1819, 240.2211
400.6640, 241.3908
401.1461, 241.9155
401.6283, 242.5015
402.1104, 243.0942
402.5925, 243.7715
403.0746, 244.7342
403.5567, 246.3951
404.0388, 247.5594
404.5210, 247.6616
405.0031, 246.6977
405.4852, 246.8454
405.9673, 248.7384
406.4494, 250.5527
406.9315, 250.5970
407.4137, 248.6623
407.8958, 246.6374
408.3779, 244.8100
408.8600, 243.0279
409.3421, 240.9763
409.8242, 238.6739
410.3064, 235.9515
410.7885, 232.6542
411.2706, 228.8129
411.7527, 224.6470
412.2348, 220.1292
412.7169, 215.3579
413.1991, 210.4807
413.6812, 205.4557
414.1633, 200.2954
414.6454, 194.9172
415.1275, 189.4763
415.6096, 184.2237
416.0918, 179.1738
416.5739, 174.0956
417.0560, 168.9818
417.5381, 163.6961
418.0202, 157.9380
418.5023, 151.4021
418.9845, 145.0783
419.4666, 139.6535
419.9487, 134.9102
420.4308, 130.5683
420.9129, 126.5182
421.3951, 122.7896
421.8772, 119.3965
422.3593, 116.4172
422.8414, 113.5058
423.3235, 110.6423
423.8056, 107.7952
424.2878, 104.9704
424.7699, 101.9378
425.2520, 99.19495
425.7341, 96.92872
426.2162, 95.05248
426.6983, 93.13980
427.1805, 91.13998
427.6626, 89.18351
428.1447, 87.24743
428.6268, 85.22525
429.1089, 83.70777
429.5910, 82.92703
430.0732, 82.38746
430.5553, 81.35967
431.0374, 79.63126
431.5195, 78.28157
432.0016, 77.66574
432.4837, 77.60196
432.9659, 77.19485
433.4480, 76.40063
433.9301, 75.53575
434.4122, 74.77983
434.8943, 74.13625
435.3764, 73.65718
435.8586, 73.37902
436.3407, 73.16780
436.8228, 72.82204
437.3049, 72.37348
437.7870, 71.96560
438.2691, 71.70071
438.7513, 71.49447
439.2334, 71.28828
439.7155, 71.07282
440.1976, 70.68897
440.6797, 69.65248
441.1618, 68.52129
441.6440, 68.02352
442.1261, 68.62810
442.6082, 69.36159
443.0903, 69.74525
443.5724, 69.84409
444.0545, 69.79839
444.5367, 69.59336
445.0188, 69.31064
445.5009, 68.95448
445.9830, 68.51235
446.4651, 68.12984
446.9472, 67.75380
447.4294, 67.48852
447.9115, 67.42661
448.3936, 67.98247
448.8757, 68.22440
449.3578, 67.90083
449.8399, 67.21132
450.3221, 66.84386
450.8042, 67.03568
451.2863, 67.17059
451.7684, 66.95177
452.2505, 66.29005
452.7326, 65.88018
453.2148, 65.81776
453.6969, 65.84153
454.1790, 65.59986
454.6611, 65.06998
455.1432, 64.66633
455.6253, 64.53477
456.1075, 64.55424
456.5896, 64.37740
457.0717, 64.00767
457.5538, 63.67782
458.0359, 63.70005
458.5180, 63.85762
459.0002, 63.51668
459.4823, 62.54517
459.9644, 61.64273
460.4465, 61.62925
460.9286, 62.17749
461.4107, 62.67122
461.8929, 63.01745
462.3750, 63.09505
462.8571, 62.63676
463.3392, 61.76083
463.8213, 61.03669
464.3034, 60.74287
464.7856, 60.68083
465.2677, 60.76283
465.7498, 61.07825
466.2319, 61.24662
466.7140, 61.01815
467.1961, 60.64238
467.6783, 60.43653
468.1604, 60.56012
468.6425, 60.72667
469.1246, 60.97033
469.6067, 61.26394
470.0888, 61.26127
470.5710, 60.77080
471.0531, 60.24422
471.5352, 59.91805
472.0173, 59.81594
472.4994, 59.85105
472.9815, 60.10196
473.4637, 60.37665
473.9458, 60.29383
474.4279, 59.82076
474.9100, 59.52321
475.3921, 59.64809
475.8742, 60.04881
476.3564, 60.30013
476.8385, 60.40301
477.3206, 60.42126
477.8027, 60.25138
478.2848, 60.05247
478.7669, 60.23339
479.2491, 60.92713
479.7312, 61.65015
480.2133, 61.95760
480.6954, 61.96257
481.1775, 61.87599
481.6596, 61.50244
482.1418, 61.30377
482.6239, 61.62081
483.1060, 62.40925
483.5881, 63.32162
484.0702, 64.43873
484.5523, 65.48913
485.0345, 66.29949
485.5166, 66.76042
485.9987, 67.15659
486.4808, 67.40871
486.9629, 67.65291
487.4450, 68.08102
487.9272, 68.93307
488.4093, 69.62759
488.8914, 69.99693
489.3735, 70.09570
489.8556, 70.36312
490.3377, 70.80490
490.8199, 71.40907
491.3020, 72.19358
491.7841, 73.17542
492.2662, 74.18245
492.7483, 75.21939
493.2304, 76.23610
493.7126, 77.13355
494.1947, 77.92471
494.6768, 78.63432
495.1589, 79.19093
495.6410, 79.73472
496.1231, 80.44218
496.6053, 81.33321
497.0874, 82.46181
497.5695, 84.09135
498.0516, 85.88372
498.5337, 87.49815
499.0158, 88.88242
499.4980, 90.08072
499.9801, 90.91045
500.4622, 91.65104
500.9443, 92.65380
501.4264, 94.05643
501.9085, 95.67723
502.3907, 97.70634
502.8728, 99.98076
503.3549, 101.8591
503.8370, 102.9566
504.3191, 103.9414
504.8012, 105.0417
505.2834, 106.2743
505.7655, 107.5632
506.2476, 108.9593
506.7297, 110.3498
507.2118, 111.6709
507.6939, 112.9520
508.1761, 113.9704
508.6582, 114.5863
509.1403, 115.0253
509.6224, 115.8216
510.1045, 116.9790
510.5866, 118.3194
511.0688, 120.0481
511.5509, 121.8828
512.0330, 122.7765
512.5151, 122.7087
512.9973, 122.6337
513.4794, 123.4906
513.9615, 124.8482
514.4436, 126.0606
514.9257, 127.0317
515.4078, 127.7060
515.8900, 127.9637
516.3721, 127.8917
516.8542, 127.6626
517.3363, 127.1928
517.8184, 126.7169
518.3005, 126.3740
518.7827, 126.1624
519.2648, 125.8393
519.7469, 125.3553
520.2290, 124.7543
520.7111, 124.0743
521.1932, 123.4284
521.6754, 122.4808
522.1575, 121.2049
522.6396, 119.6421
523.1217, 117.7654
523.6038, 115.4295
524.0859, 113.3021
524.5681, 111.5449
525.0502, 110.1313
525.5323, 109.0982
526.0144, 108.4730
526.4965, 107.6457
526.9786, 106.0148
527.4608, 103.8662
527.9429, 102.0459
528.4250, 100.5883
528.9071, 99.43530
529.3892, 98.65752
529.8713, 98.11195
530.3535, 97.58345
530.8356, 96.99746
531.3177, 96.41781
531.7998, 95.79037
532.2819, 95.19672
532.7640, 94.85815
533.2462, 95.16267
533.7283, 95.44273
534.2104, 95.44466
534.6925, 95.14460
535.1746, 94.63874
535.6567, 93.50655
536.1389, 92.51134
536.6210, 92.17482
537.1031, 92.92941
537.5852, 93.35393
538.0673, 93.37254
538.5494, 93.09533
539.0316, 92.69308
539.5137, 92.16275
539.9958, 91.48089
540.4779, 90.52714
540.9600, 89.47823
541.4421, 89.06055
541.9243, 89.23911
542.4064, 89.15208
542.8885, 87.93168
543.3706, 86.12093
543.8527, 84.68382
544.3348, 83.70776
544.8170, 83.00896
545.2991, 82.66845
545.7812, 82.44140
546.2633, 82.01279
546.7454, 81.18053
547.2275, 80.27935
547.7097, 79.41553
548.1918, 78.58097
548.6739, 77.77194
549.1560, 76.89835
549.6381, 76.13187
550.1202, 75.57246
550.6024, 75.22750
551.0845, 74.81020
551.5666, 74.24509
552.0487, 73.70762
552.5308, 73.35435
553.0129, 73.24722
553.4951, 72.94324
553.9772, 72.36308
554.4593, 71.71583
554.9414, 71.38072
555.4235, 71.31658
555.9056, 71.00528
556.3878, 70.16372
556.8699, 69.15089
557.3520, 68.56432
557.8341, 68.34712
558.3162, 68.26922
558.7983, 68.36625
559.2805, 68.43318
559.7626, 68.24382
560.2447, 67.77988
560.7268, 67.27602
561.2089, 66.78631
561.6910, 66.33305
562.1732, 65.93617
562.6553, 65.65623
563.1374, 65.35055
563.6195, 64.95882
564.1016, 64.54435
564.5837, 64.20121
565.0659, 63.95088
565.5480, 63.72355
566.0301, 63.48684
566.5122, 63.26228
566.9943, 63.18765
567.4764, 63.29179
567.9586, 63.40950
568.4407, 63.45715
568.9228, 63.43805
569.4049, 63.36675
569.8870, 63.24303
570.3691, 63.07747
570.8513, 62.84121
571.3334, 62.57611
571.8155, 62.37199
572.2976, 62.24811
572.7797, 62.18097
573.2618, 62.20661
573.7440, 62.26774
574.2261, 62.26184
574.7082, 62.05762
575.1903, 61.87042
575.6724, 61.72979
576.1545, 61.65364
576.6367, 61.78823
577.1188, 62.33092
577.6009, 62.90120
578.0830, 63.39932
578.5651, 63.86504
579.0472, 63.96386
579.5294, 63.47467
580.0115, 63.01678
580.4936, 63.37268
580.9757, 64.57204
581.4578, 65.17709
581.9399, 64.84355
582.4221, 64.17046
582.9042, 64.10838
583.3863, 64.52847
583.8684, 64.90072
584.3505, 64.97137
584.8326, 64.90353
585.3148, 64.78401
585.7969, 64.64818
586.2789, 64.66587
586.7610, 65.01898
587.2432, 65.48551
