##NAMES=Ellenbergerite
##RRUFFID=R070395
##IDEAL CHEMISTRY=Mg_6_(Mg,Ti^4+^,Zr^4+^,[box])_2_(Al,Mg)_6_Si_8_O_28_(OH)_10_
##LOCALITY=Case Parigi, Martiniana Po, Varaita Valley, Dora Maira Massif, Cuneo Province, Piedmont, Italy
##OWNER=RRUFF
##SOURCE=Michael Scott
##DESCRIPTION=Purple grain associated with a white platy chlorite mineral
##STATUS=The identification of this mineral has been confirmed by single-crystal X-ray diffraction.
##URL=rruff.info/R070395
148.6976, 26879.42
149.1797, 27259.55
149.6618, 27678.41
150.1439, 28072.36
150.6261, 28414.78
151.1082, 28751.69
151.5903, 29091.38
152.0724, 29434.14
152.5545, 29777.98
153.0366, 30142.03
153.5188, 30504.67
154.0009, 30822.13
154.4830, 31065.70
154.9651, 31282.73
155.4472, 31496.19
155.9293, 31710.67
156.4115, 31918.32
156.8936, 32124.13
157.3757, 32324.09
157.8578, 32507.74
158.3399, 32673.67
158.8221, 32821.05
159.3042, 32950.90
159.7863, 33037.88
160.2684, 33132.17
160.7505, 33258.99
161.2326, 33414.26
161.7148, 33557.44
162.1969, 33638.53
162.6790, 33712.62
163.1611, 33831.63
163.6432, 34064.63
164.1253, 34306.57
164.6075, 34499.35
165.0896, 34640.80
165.5717, 34774.83
166.0538, 34913.08
166.5359, 35061.72
167.0180, 35229.54
167.5002, 35443.90
167.9823, 35665.38
168.4644, 35863.89
168.9465, 36035.65
169.4286, 36195.45
169.9107, 36354.51
170.3929, 36508.86
170.8750, 36654.27
171.3571, 36802.18
171.8392, 36932.46
172.3213, 37009.73
172.8034, 37011.54
173.2856, 37017.10
173.7677, 37114.80
174.2498, 37283.18
174.7319, 37446.58
175.2140, 37566.38
175.6961, 37651.07
176.1783, 37708.84
176.6604, 37732.40
177.1425, 37744.01
177.6246, 37759.20
178.1067, 37780.61
178.5888, 37826.78
179.0710, 37931.81
179.5531, 38070.79
180.0352, 38186.21
180.5173, 38257.11
180.9994, 38304.28
181.4815, 38352.33
181.9637, 38402.02
182.4458, 38463.70
182.9279, 38559.18
183.4100, 38677.95
183.8921, 38780.91
184.3742, 38847.32
184.8564, 38895.16
185.3385, 38965.84
185.8206, 39061.29
186.3027, 39163.51
186.7848, 39255.54
187.2669, 39338.46
187.7491, 39424.22
188.2312, 39525.98
188.7133, 39633.84
189.1954, 39708.02
189.6775, 39743.48
190.1596, 39765.65
190.6418, 39801.16
191.1239, 39849.92
191.6060, 39911.66
192.0881, 39996.54
192.5702, 40099.92
193.0524, 40178.13
193.5345, 40226.38
194.0166, 40261.49
194.4987, 40308.07
194.9808, 40366.89
195.4629, 40425.86
195.9451, 40470.35
196.4272, 40501.68
196.9093, 40568.81
197.3914, 40684.64
197.8735, 40818.45
198.3556, 40908.36
198.8378, 40947.99
199.3199, 40982.52
199.8020, 41041.32
200.2841, 41126.98
200.7662, 41187.01
201.2483, 41208.87
201.7305, 41212.13
202.2126, 41247.96
202.6947, 41323.51
203.1768, 41404.98
203.6589, 41473.61
204.1410, 41527.86
204.6232, 41574.01
205.1053, 41607.32
205.5874, 41635.17
206.0695, 41685.82
206.5516, 41767.42
207.0337, 41850.43
207.5159, 41917.35
207.9980, 41967.16
208.4801, 41996.72
208.9622, 41992.48
209.4443, 41967.87
209.9264, 41994.99
210.4086, 42092.61
210.8907, 42204.66
211.3728, 42288.79
211.8549, 42342.02
212.3370, 42377.82
212.8191, 42389.35
213.3013, 42381.96
213.7834, 42405.31
214.2655, 42472.04
214.7476, 42549.48
215.2297, 42605.09
215.7118, 42625.02
216.1940, 42663.86
216.6761, 42735.80
217.1582, 42839.38
217.6403, 42938.41
218.1224, 43039.52
218.6045, 43125.81
219.0867, 43177.93
219.5688, 43183.74
220.0509, 43182.50
220.5330, 43179.09
221.0151, 43173.21
221.4972, 43177.15
221.9794, 43195.86
222.4615, 43218.84
222.9436, 43229.84
223.4257, 43206.98
223.9078, 43219.43
224.3899, 43294.88
224.8721, 43441.85
225.3542, 43550.57
225.8363, 43607.05
226.3184, 43639.54
226.8005, 43684.93
227.2827, 43759.72
227.7648, 43814.38
228.2469, 43827.82
228.7290, 43790.75
229.2111, 43785.64
229.6932, 43825.36
230.1754, 43886.64
230.6575, 43937.72
231.1396, 43962.82
231.6217, 44006.32
232.1038, 44093.21
232.5859, 44242.94
233.0681, 44325.21
233.5502, 44298.41
234.0323, 44233.95
234.5144, 44241.08
234.9965, 44369.48
235.4786, 44485.54
235.9608, 44545.81
236.4429, 44536.11
236.9250, 44533.09
237.4071, 44535.04
237.8892, 44544.85
238.3713, 44568.34
238.8535, 44612.50
239.3356, 44658.66
239.8177, 44701.09
240.2998, 44738.96
240.7819, 44776.17
241.2640, 44811.29
241.7462, 44847.14
242.2283, 44890.43
242.7104, 44950.47
243.1925, 45002.31
243.6746, 45032.73
244.1567, 45027.68
244.6389, 45053.85
245.1210, 45135.46
245.6031, 45233.79
246.0852, 45275.65
246.5673, 45229.74
247.0494, 45180.50
247.5316, 45156.21
248.0137, 45160.76
248.4958, 45177.66
248.9779, 45208.55
249.4600, 45250.91
249.9421, 45301.07
250.4243, 45366.20
250.9064, 45426.89
251.3885, 45473.92
251.8706, 45500.32
252.3527, 45536.88
252.8348, 45584.59
253.3170, 45641.66
253.7991, 45707.18
254.2812, 45788.94
254.7633, 45862.99
255.2454, 45921.39
255.7275, 45963.70
256.2097, 45986.96
256.6918, 45977.34
257.1739, 45957.92
257.6560, 45977.09
258.1381, 46058.36
258.6202, 46129.63
259.1024, 46157.64
259.5845, 46125.13
260.0666, 46119.77
260.5487, 46145.04
261.0308, 46194.96
261.5129, 46268.37
261.9951, 46383.79
262.4772, 46476.73
262.9593, 46514.76
263.4414, 46484.23
263.9235, 46464.98
264.4056, 46458.20
264.8878, 46461.45
265.3699, 46466.99
265.8520, 46468.40
266.3341, 46490.77
266.8162, 46551.09
267.2983, 46657.13
267.7805, 46750.40
268.2626, 46834.48
268.7447, 46900.76
269.2268, 46930.64
269.7089, 46917.06
270.1910, 46892.11
270.6732, 46861.50
271.1553, 46822.53
271.6374, 46806.20
272.1195, 46812.83
272.6016, 46841.70
273.0837, 46898.70
273.5659, 46991.12
274.0480, 47075.70
274.5301, 47137.59
275.0122, 47176.17
275.4943, 47195.18
275.9764, 47186.69
276.4586, 47173.56
276.9407, 47192.88
277.4228, 47247.60
277.9049, 47306.77
278.3870, 47363.22
278.8691, 47416.31
279.3513, 47447.68
279.8334, 47452.71
280.3155, 47447.93
280.7976, 47452.40
281.2798, 47466.04
281.7619, 47491.09
282.2440, 47537.63
282.7261, 47600.25
283.2082, 47627.91
283.6903, 47610.66
284.1725, 47595.08
284.6546, 47652.95
285.1367, 47780.55
285.6188, 47892.93
286.1009, 47957.66
286.5830, 47982.55
287.0652, 47997.40
287.5473, 48000.89
288.0294, 48001.39
288.5115, 48004.81
288.9936, 48011.86
289.4757, 48027.50
289.9579, 48050.25
290.4400, 48083.49
290.9221, 48145.62
291.4042, 48239.04
291.8863, 48331.21
292.3684, 48389.87
292.8506, 48419.04
293.3327, 48437.13
293.8148, 48447.67
294.2969, 48452.16
294.7790, 48446.27
295.2611, 48429.98
295.7433, 48427.21
296.2254, 48479.52
296.7075, 48564.55
297.1896, 48615.93
297.6717, 48599.13
298.1538, 48553.67
298.6360, 48533.96
299.1181, 48539.09
299.6002, 48560.45
300.0823, 48600.63
300.5644, 48651.47
301.0465, 48697.33
301.5287, 48730.29
302.0108, 48761.35
302.4929, 48809.63
302.9750, 48870.93
303.4571, 48918.36
303.9392, 48917.33
304.4214, 48896.83
304.9035, 48898.23
305.3856, 48942.25
305.8677, 48993.06
306.3498, 49022.32
306.8319, 49032.51
307.3141, 49032.68
307.7962, 48999.42
308.2783, 48971.98
308.7604, 49000.05
309.2425, 49125.84
309.7246, 49236.11
310.2068, 49230.30
310.6889, 49149.00
311.1710, 49097.67
311.6531, 49149.40
312.1352, 49236.96
312.6173, 49314.93
313.0995, 49377.96
313.5816, 49422.89
314.0637, 49431.73
314.5458, 49422.52
315.0279, 49429.38
315.5100, 49492.46
315.9922, 49554.60
316.4743, 49578.62
316.9564, 49547.95
317.4385, 49530.14
317.9206, 49550.23
318.4027, 49595.89
318.8849, 49649.84
319.3670, 49742.76
319.8491, 49812.18
320.3312, 49812.29
320.8133, 49718.52
321.2954, 49687.93
321.7776, 49809.31
322.2597, 49985.94
322.7418, 50114.68
323.2239, 50166.87
323.7060, 50183.73
324.1881, 50159.48
324.6703, 50089.21
325.1524, 50042.73
325.6345, 50035.22
326.1166, 50048.37
326.5987, 50067.26
327.0808, 50078.28
327.5630, 50111.22
328.0451, 50184.65
328.5272, 50295.32
329.0093, 50372.98
329.4914, 50405.26
329.9735, 50414.26
330.4557, 50410.60
330.9378, 50372.25
331.4199, 50361.58
331.9020, 50399.91
332.3841, 50472.35
332.8662, 50501.51
333.3484, 50458.40
333.8305, 50415.51
334.3126, 50415.82
334.7947, 50476.74
335.2768, 50526.46
335.7589, 50557.33
336.2411, 50577.26
336.7232, 50611.75
337.2053, 50670.57
337.6874, 50714.58
338.1695, 50713.47
338.6516, 50657.60
339.1338, 50648.33
339.6159, 50703.72
340.0980, 50780.25
340.5801, 50793.46
341.0622, 50735.19
341.5443, 50690.50
342.0265, 50696.57
342.5086, 50748.91
342.9907, 50811.69
343.4728, 50887.62
343.9549, 50961.19
344.4370, 51016.78
344.9192, 51053.86
345.4013, 51066.86
345.8834, 51037.33
346.3655, 50986.56
346.8476, 50971.67
347.3297, 50993.09
347.8119, 51035.48
348.2940, 51099.07
348.7761, 51174.16
349.2582, 51230.64
349.7403, 51260.37
350.2225, 51268.78
350.7046, 51251.90
351.1867, 51213.73
351.6688, 51186.49
352.1509, 51207.15
352.6331, 51249.95
353.1152, 51272.18
353.5973, 51250.21
354.0794, 51232.21
354.5615, 51271.71
355.0436, 51352.83
355.5258, 51427.25
356.0079, 51476.32
356.4900, 51502.69
356.9721, 51504.42
357.4542, 51474.96
357.9363, 51442.22
358.4185, 51404.00
358.9006, 51374.97
359.3827, 51380.49
359.8648, 51470.45
360.3469, 51565.81
360.8290, 51624.07
361.3112, 51637.70
361.7933, 51643.49
362.2754, 51653.83
362.7575, 51662.30
363.2396, 51661.93
363.7217, 51612.63
364.2039, 51592.81
364.6860, 51645.03
365.1681, 51770.68
365.6502, 51853.50
366.1323, 51847.58
366.6144, 51815.28
367.0966, 51799.16
367.5787, 51788.08
368.0608, 51809.89
368.5429, 51896.18
369.0250, 52026.48
369.5071, 52092.23
369.9893, 52051.82
370.4714, 51995.29
370.9535, 51962.84
371.4356, 51953.24
371.9177, 51974.68
372.3998, 52046.12
372.8820, 52139.29
373.3641, 52185.51
373.8462, 52165.49
374.3283, 52148.58
374.8104, 52165.44
375.2925, 52220.00
375.7747, 52261.76
376.2568, 52285.97
376.7389, 52307.49
377.2210, 52354.67
377.7031, 52430.95
378.1852, 52481.89
378.6674, 52480.19
379.1495, 52440.50
379.6316, 52421.81
380.1137, 52424.18
380.5958, 52448.44
381.0779, 52511.87
381.5601, 52604.36
382.0422, 52670.69
382.5243, 52695.59
383.0064, 52694.20
383.4885, 52682.89
383.9706, 52663.79
384.4528, 52653.41
384.9349, 52672.93
385.4170, 52705.95
385.8991, 52723.81
386.3812, 52718.95
386.8633, 52710.08
387.3455, 52715.75
387.8276, 52730.85
388.3097, 52743.83
388.7918, 52735.84
389.2739, 52731.65
389.7560, 52756.55
390.2382, 52814.97
390.7203, 52871.59
391.2024, 52902.98
391.6845, 52923.39
392.1666, 52949.61
392.6487, 52990.36
393.1309, 53034.77
393.6130, 53076.41
394.0951, 53116.20
394.5772, 53163.83
395.0593, 53241.59
395.5414, 53315.56
396.0236, 53363.77
396.5057, 53375.55
396.9878, 53370.59
397.4699, 53330.06
397.9520, 53271.17
398.4341, 53248.76
398.9163, 53297.11
399.3984, 53346.36
399.8805, 53368.02
400.3626, 53344.18
400.8447, 53345.73
401.3268, 53375.42
401.8090, 53428.49
402.2911, 53505.14
402.7732, 53620.13
403.2553, 53717.93
403.7374, 53781.21
404.2195, 53811.62
404.7017, 53837.55
405.1838, 53857.60
405.6659, 53877.23
406.1480, 53903.89
406.6301, 53937.91
407.1122, 53961.52
407.5944, 53964.43
408.0765, 53962.59
408.5586, 54004.94
409.0407, 54090.61
409.5228, 54164.58
410.0049, 54169.38
410.4871, 54133.39
410.9692, 54142.09
411.4513, 54211.32
411.9334, 54296.65
412.4155, 54342.30
412.8976, 54362.82
413.3798, 54398.18
413.8619, 54492.84
414.3440, 54597.06
414.8261, 54656.57
415.3082, 54670.42
415.7903, 54673.82
416.2725, 54683.25
416.7546, 54697.71
417.2367, 54716.38
417.7188, 54740.44
418.2009, 54766.71
418.6830, 54787.29
419.1652, 54807.13
419.6473, 54843.51
420.1294, 54932.93
420.6115, 55018.05
421.0937, 55068.34
421.5758, 55069.51
422.0579, 55055.52
422.5400, 55000.96
423.0221, 54939.93
423.5042, 54927.72
423.9864, 54992.86
424.4685, 55078.01
424.9506, 55201.27
425.4327, 55373.54
425.9148, 55408.22
426.3969, 55214.17
426.8791, 54986.48
427.3612, 54904.59
427.8433, 55019.09
428.3254, 55122.75
428.8075, 55192.57
429.2896, 55229.89
429.7718, 55232.45
430.2539, 55195.39
430.7360, 55150.20
431.2181, 55108.29
431.7002, 55070.92
432.1823, 55056.47
432.6645, 55066.25
433.1466, 55097.84
433.6287, 55172.26
434.1108, 55275.36
434.5929, 55335.07
435.0750, 55301.53
435.5572, 55213.98
436.0393, 55123.81
436.5214, 55032.58
437.0035, 54973.13
437.4856, 54995.02
437.9677, 55058.12
438.4499, 55105.84
438.9320, 55115.86
439.4141, 55120.74
439.8962, 55140.62
440.3783, 55173.05
440.8604, 55212.27
441.3426, 55268.81
441.8247, 55321.05
442.3068, 55359.04
442.7889, 55383.05
443.2710, 55386.04
443.7531, 55340.43
444.2353, 55282.84
444.7174, 55252.96
445.1995, 55292.73
445.6816, 55321.20
446.1637, 55316.17
446.6458, 55282.09
447.1280, 55266.99
447.6101, 55278.51
448.0922, 55300.65
448.5743, 55327.06
449.0564, 55365.40
449.5385, 55385.06
450.0207, 55373.42
450.5028, 55353.45
450.9849, 55374.01
451.4670, 55443.44
451.9491, 55510.64
452.4312, 55560.23
452.9134, 55591.69
453.3955, 55600.43
453.8776, 55584.92
454.3597, 55557.77
454.8418, 55525.98
455.3239, 55491.57
455.8061, 55464.27
456.2882, 55446.79
456.7703, 55436.04
457.2524, 55418.30
457.7345, 55400.06
458.2166, 55407.98
458.6988, 55503.29
459.1809, 55610.38
459.6630, 55632.13
460.1451, 55547.13
460.6272, 55464.95
461.1093, 55466.00
461.5915, 55507.09
462.0736, 55534.67
462.5557, 55524.64
463.0378, 55504.38
463.5199, 55470.57
464.0020, 55428.63
464.4842, 55415.55
464.9663, 55480.81
465.4484, 55546.21
465.9305, 55568.60
466.4126, 55509.49
466.8947, 55472.71
467.3769, 55464.66
467.8590, 55476.09
468.3411, 55492.97
468.8232, 55517.23
469.3053, 55543.85
469.7874, 55576.78
470.2696, 55614.42
470.7517, 55619.83
471.2338, 55581.27
471.7159, 55546.55
472.1980, 55563.82
472.6801, 55631.89
473.1623, 55691.38
473.6444, 55733.30
474.1265, 55765.11
474.6086, 55806.73
475.0907, 55853.85
475.5728, 55878.50
476.0550, 55832.38
476.5371, 55765.96
477.0192, 55775.02
477.5013, 55863.65
477.9834, 55950.79
478.4655, 55969.38
478.9477, 55950.37
479.4298, 55930.88
479.9119, 55833.19
480.3940, 55959.96
480.8761, 56038.80
481.3582, 56072.27
481.8404, 55924.50
482.3225, 56010.76
482.8046, 56003.23
483.2867, 55991.86
483.7688, 56111.07
484.2509, 55989.66
484.7331, 56106.79
485.2152, 56128.71
485.6973, 56194.20
486.1794, 56182.88
486.6615, 56249.49
487.1436, 56269.47
487.6258, 56254.17
488.1079, 56259.01
488.5900, 56290.94
489.0721, 56323.76
489.5542, 56339.38
490.0363, 56337.61
490.5185, 56353.25
491.0006, 56392.00
491.4827, 56431.73
491.9648, 56432.38
492.4470, 56403.20
492.9291, 56395.71
493.4112, 56434.62
493.8933, 56498.61
494.3754, 56569.59
494.8575, 56643.12
495.3397, 56687.09
495.8218, 56653.61
496.3039, 56592.99
496.7860, 56560.60
497.2681, 56568.12
497.7502, 56587.93
498.2324, 56613.19
498.7145, 56639.62
499.1966, 56661.87
499.6787, 56669.85
500.1608, 56681.74
500.6429, 56704.85
501.1251, 56738.54
501.6072, 56770.89
502.0893, 56802.82
502.5714, 56832.12
503.0535, 56856.04
503.5356, 56865.28
504.0178, 56894.26
504.4999, 56958.67
504.9820, 57028.20
505.4641, 57056.17
505.9462, 57037.38
506.4283, 57001.11
506.9105, 56940.78
507.3926, 56872.83
507.8747, 56874.83
508.3568, 56950.31
508.8389, 57031.79
509.3210, 57070.14
509.8032, 57076.53
510.2853, 57075.99
510.7674, 57066.36
511.2495, 57072.70
511.7316, 57146.72
512.2137, 57254.64
512.6959, 57326.77
513.1780, 57311.97
513.6601, 57271.01
514.1422, 57230.18
514.6243, 57192.79
515.1064, 57177.00
515.5886, 57212.34
516.0707, 57255.87
516.5528, 57277.58
517.0349, 57248.42
517.5170, 57250.65
517.9991, 57318.64
518.4813, 57411.82
518.9634, 57478.75
519.4455, 57504.56
519.9276, 57530.19
520.4097, 57568.34
520.8918, 57613.91
521.3740, 57633.78
521.8561, 57621.46
522.3382, 57604.90
522.8203, 57607.71
523.3024, 57627.63
523.7845, 57616.66
524.2667, 57562.65
524.7488, 57514.14
525.2309, 57544.16
525.7130, 57632.14
526.1951, 57705.25
526.6772, 57730.07
527.1594, 57736.46
527.6415, 57758.25
528.1236, 57792.00
528.6057, 57823.07
529.0878, 57848.77
529.5699, 57864.57
530.0521, 57863.47
530.5342, 57840.11
531.0163, 57820.44
531.4984, 57815.55
531.9805, 57817.20
532.4626, 57816.60
532.9448, 57795.30
533.4269, 57793.02
533.9090, 57822.30
534.3911, 57874.69
534.8732, 57915.61
535.3553, 57940.06
535.8375, 57963.24
536.3196, 57991.75
536.8017, 58026.30
537.2838, 58059.57
537.7659, 58092.87
538.2480, 58121.55
538.7302, 58146.23
539.2123, 58164.61
539.6944, 58153.41
540.1765, 58092.16
540.6586, 58027.52
541.1407, 58033.42
541.6229, 58093.93
542.1050, 58151.59
542.5871, 58172.95
543.0692, 58179.40
543.5513, 58184.79
544.0334, 58190.09
544.5156, 58205.36
544.9977, 58247.74
545.4798, 58294.91
545.9619, 58327.57
546.4440, 58317.91
546.9261, 58329.65
547.4083, 58399.33
547.8904, 58490.39
548.3725, 58535.02
548.8546, 58507.81
549.3367, 58475.25
549.8188, 58445.45
550.3010, 58420.84
550.7831, 58438.78
551.2652, 58512.88
551.7473, 58584.30
552.2294, 58603.20
552.7115, 58575.73
553.1937, 58563.79
553.6758, 58574.57
554.1579, 58591.22
554.6400, 58595.30
555.1221, 58588.53
555.6042, 58575.08
556.0864, 58546.16
556.5685, 58521.48
557.0506, 58504.93
557.5327, 58504.54
558.0148, 58551.31
558.4969, 58747.77
558.9791, 58930.47
559.4612, 58981.53
559.9433, 58859.59
560.4254, 58759.69
560.9075, 58726.65
561.3896, 58725.88
561.8718, 58726.07
562.3539, 58728.59
562.8360, 58728.68
563.3181, 58719.63
563.8002, 58710.94
564.2823, 58732.66
564.7645, 58794.62
565.2466, 58841.99
565.7287, 58851.84
566.2108, 58829.14
566.6929, 58787.39
567.1750, 58725.54
567.6572, 58676.54
568.1393, 58662.14
568.6214, 58682.14
569.1035, 58750.82
569.5856, 58886.83
570.0677, 59005.85
570.5499, 59025.38
571.0320, 58985.38
571.5141, 58949.56
571.9962, 58926.98
572.4783, 58927.11
572.9604, 58985.25
573.4426, 59081.28
573.9247, 59113.61
574.4068, 58972.20
574.8889, 58849.92
575.3710, 58829.73
575.8531, 58937.22
576.3353, 59010.75
576.8174, 59034.61
577.2995, 59046.77
577.7816, 59091.45
578.2637, 59174.26
578.7458, 59223.39
579.2280, 59221.49
579.7101, 59194.27
580.1922, 59176.72
580.6743, 59170.86
581.1564, 59187.98
581.6385, 59254.62
582.1207, 59335.88
582.6028, 59390.72
583.0849, 59419.06
583.5670, 59424.22
584.0491, 59379.46
584.5313, 59330.50
585.0134, 59316.72
585.4955, 59356.32
585.9776, 59390.65
586.4597, 59397.84
586.9418, 59395.02
587.4240, 59400.90
587.9061, 59409.38
588.3882, 59439.48
588.8703, 59514.79
589.3524, 59607.19
589.8345, 59621.74
590.3167, 59534.82
590.7988, 59461.12
591.2809, 59459.77
591.7630, 59514.55
592.2451, 59543.66
592.7272, 59546.49
593.2094, 59538.56
593.6915, 59527.48
594.1736, 59515.91
594.6557, 59504.54
595.1378, 59489.07
595.6199, 59493.96
596.1021, 59566.14
596.5842, 59662.81
597.0663, 59723.16
597.5485, 59677.05
598.0306, 59643.19
598.5127, 59666.12
598.9948, 59734.45
599.4769, 59798.09
599.9590, 59882.48
600.4412, 59927.43
600.9233, 59894.57
601.4054, 59774.43
601.8875, 59732.14
602.3696, 59791.73
602.8517, 59871.13
603.3339, 59893.13
603.8160, 59863.63
604.2981, 59862.80
604.7802, 59906.32
605.2623, 59955.89
605.7444, 59954.61
606.2266, 59918.80
606.7087, 59892.73
607.1908, 59903.08
607.6729, 59918.17
608.1550, 59900.96
608.6371, 59865.44
609.1193, 59856.53
609.6014, 59915.15
610.0835, 59985.22
610.5656, 60042.51
611.0477, 60085.19
611.5298, 60116.34
612.0120, 60135.93
612.4941, 60144.34
612.9762, 60136.72
613.4583, 60101.38
613.9404, 60097.74
614.4225, 60141.93
614.9047, 60194.12
615.3868, 60185.23
615.8689, 60121.18
616.3510, 60082.72
616.8331, 60102.38
617.3152, 60147.88
617.7974, 60176.29
618.2795, 60188.82
618.7616, 60191.94
619.2437, 60184.80
619.7258, 60172.88
620.2079, 60146.69
620.6901, 60107.01
621.1722, 60108.33
621.6543, 60234.88
622.1364, 60363.01
622.6185, 60403.30
623.1006, 60285.57
623.5828, 60228.80
624.0649, 60258.34
624.5470, 60325.61
625.0291, 60376.80
625.5112, 60411.73
625.9933, 60426.80
626.4755, 60409.44
626.9576, 60387.75
627.4397, 60432.54
627.9218, 60535.05
628.4039, 60628.51
628.8860, 60682.92
629.3682, 60707.91
629.8503, 60704.31
630.3324, 60676.68
630.8145, 60657.86
631.2966, 60668.43
631.7787, 60693.82
632.2609, 60728.88
632.7430, 60779.88
633.2251, 60812.56
633.7072, 60800.94
634.1893, 60779.77
634.6714, 60778.68
635.1536, 60810.59
635.6357, 60834.59
636.1178, 60848.25
636.5999, 60851.97
637.0820, 60837.24
637.5641, 60802.44
638.0463, 60792.24
638.5284, 60825.09
639.0105, 60887.77
639.4926, 60969.74
639.9747, 61065.09
640.4568, 61137.48
640.9390, 61146.20
641.4211, 61134.99
641.9032, 61145.63
642.3853, 61180.97
642.8674, 61214.87
643.3495, 61244.37
643.8317, 61263.69
