##NAMES=Ellenbergerite
##RRUFFID=R070395
##IDEAL CHEMISTRY=Mg_6_(Mg,Ti^4+^,Zr^4+^,[box])_2_(Al,Mg)_6_Si_8_O_28_(OH)_10_
##LOCALITY=Case Parigi, Martiniana Po, Varaita Valley, Dora Maira Massif, Cuneo Province, Piedmont, Italy
##OWNER=RRUFF
##SOURCE=Michael Scott
##DESCRIPTION=Purple grain associated with a white platy chlorite mineral
##STATUS=The identification of this mineral has been confirmed by single-crystal X-ray diffraction.
##URL=rruff.info/R070395
165.8563, 21390.74
166.3384, 21610.75
166.8205, 21804.13
167.3026, 21988.33
167.7847, 22166.26
168.2668, 22341.50
168.7490, 22528.90
169.2311, 22745.82
169.7132, 22935.52
170.1953, 23056.44
170.6774, 23135.31
171.1595, 23212.97
171.6417, 23317.44
172.1238, 23428.74
172.6059, 23495.26
173.0880, 23505.86
173.5701, 23490.69
174.0522, 23442.68
174.5344, 23384.54
175.0165, 23352.67
175.4986, 23374.83
175.9807, 23428.28
176.4628, 23446.96
176.9449, 23408.35
177.4271, 23375.86
177.9092, 23367.28
178.3913, 23379.85
178.8734, 23411.65
179.3555, 23464.97
179.8376, 23534.41
180.3197, 23605.74
180.8019, 23682.39
181.2840, 23754.46
181.7661, 23818.08
182.2482, 23876.59
182.7303, 23932.68
183.2124, 23986.58
183.6946, 24040.75
184.1767, 24103.89
184.6588, 24184.52
185.1409, 24258.30
185.6230, 24317.67
186.1051, 24367.99
186.5873, 24414.61
187.0694, 24459.26
187.5515, 24503.68
188.0336, 24554.24
188.5157, 24615.21
188.9978, 24674.48
189.4800, 24724.13
189.9621, 24772.66
190.4442, 24832.05
190.9263, 24908.22
191.4084, 24991.24
191.8905, 25056.28
192.3727, 25094.25
192.8548, 25129.47
193.3369, 25170.35
193.8190, 25209.32
194.3011, 25235.77
194.7832, 25245.20
195.2654, 25249.22
195.7475, 25273.00
196.2296, 25324.66
196.7117, 25382.96
197.1938, 25463.88
197.6759, 25539.28
198.1581, 25580.35
198.6402, 25578.22
199.1223, 25552.82
199.6044, 25536.64
200.0865, 25515.55
200.5686, 25536.43
201.0508, 25636.31
201.5329, 25751.19
202.0150, 25833.08
202.4971, 25868.70
202.9792, 25874.33
203.4613, 25872.63
203.9435, 25854.14
204.4256, 25850.40
204.9077, 25874.08
205.3898, 25902.72
205.8719, 25918.91
206.3540, 25920.27
206.8362, 25919.29
207.3183, 25937.11
207.8004, 25990.97
208.2825, 26018.11
208.7646, 25997.53
209.2467, 25969.65
209.7289, 25959.61
210.2110, 25969.01
210.6931, 25980.68
211.1752, 25971.60
211.6573, 25930.95
212.1395, 25910.04
212.6216, 25933.46
213.1037, 25954.42
213.5858, 25940.38
214.0679, 25897.79
214.5500, 25860.98
215.0322, 25865.15
215.5143, 25916.00
215.9964, 25970.89
216.4785, 26059.39
216.9606, 26124.92
217.4427, 26123.63
217.9249, 26076.07
218.4070, 26043.59
218.8891, 26085.78
219.3712, 26206.26
219.8533, 26269.86
220.3354, 26211.98
220.8176, 26157.01
221.2997, 26138.64
221.7818, 26149.02
222.2639, 26166.03
222.7460, 26173.84
223.2281, 26174.27
223.7103, 26186.05
224.1924, 26213.00
224.6745, 26248.92
225.1566, 26314.85
225.6387, 26384.74
226.1208, 26416.54
226.6030, 26381.95
227.0851, 26300.17
227.5672, 26253.01
228.0493, 26274.28
228.5314, 26286.15
229.0135, 26263.33
229.4957, 26229.04
229.9778, 26208.84
230.4599, 26214.18
230.9420, 26240.45
231.4241, 26279.62
231.9062, 26349.76
232.3884, 26400.35
232.8705, 26419.29
233.3526, 26422.26
233.8347, 26418.88
234.3168, 26413.00
234.7989, 26410.65
235.2811, 26423.00
235.7632, 26455.40
236.2453, 26490.58
236.7274, 26529.79
237.2095, 26569.27
237.6916, 26608.32
238.1738, 26646.05
238.6559, 26679.73
239.1380, 26704.85
239.6201, 26718.62
240.1022, 26734.22
240.5843, 26767.03
241.0665, 26789.56
241.5486, 26778.59
242.0307, 26739.43
242.5128, 26702.46
242.9949, 26703.10
243.4770, 26746.53
243.9592, 26765.19
244.4413, 26742.83
244.9234, 26708.79
245.4055, 26665.87
245.8876, 26619.26
246.3697, 26579.32
246.8519, 26555.70
247.3340, 26545.95
247.8161, 26528.18
248.2982, 26489.96
248.7803, 26460.71
249.2624, 26455.22
249.7446, 26463.64
250.2267, 26469.01
250.7088, 26459.88
251.1909, 26444.40
251.6730, 26449.46
252.1551, 26491.14
252.6373, 26520.36
253.1194, 26515.86
253.6015, 26494.64
254.0836, 26472.55
254.5657, 26454.11
255.0478, 26441.34
255.5300, 26436.53
256.0121, 26438.86
256.4942, 26452.64
256.9763, 26499.00
257.4584, 26545.93
257.9406, 26563.64
258.4227, 26544.83
258.9048, 26524.50
259.3869, 26549.35
259.8690, 26622.53
260.3511, 26666.86
260.8333, 26640.73
261.3154, 26604.88
261.7975, 26605.55
262.2796, 26642.73
262.7617, 26683.64
263.2438, 26701.77
263.7260, 26702.10
264.2081, 26716.41
264.6902, 26761.38
265.1723, 26799.29
265.6544, 26797.59
266.1365, 26766.05
266.6187, 26736.29
267.1008, 26720.80
267.5829, 26717.55
268.0650, 26725.19
268.5471, 26747.30
269.0292, 26768.37
269.5114, 26773.52
269.9935, 26770.57
270.4756, 26773.43
270.9577, 26795.51
271.4398, 26816.79
271.9219, 26810.09
272.4041, 26774.51
272.8862, 26741.26
273.3683, 26730.04
273.8504, 26728.82
274.3325, 26712.43
274.8146, 26668.10
275.2968, 26629.71
275.7789, 26626.30
276.2610, 26649.86
276.7431, 26665.16
277.2252, 26653.81
277.7073, 26637.20
278.1895, 26655.63
278.6716, 26716.97
279.1537, 26768.61
279.6358, 26785.34
280.1179, 26781.43
280.6000, 26776.34
281.0822, 26772.27
281.5643, 26780.52
282.0464, 26823.04
282.5285, 26903.84
283.0106, 26964.25
283.4927, 26978.05
283.9749, 26981.08
284.4570, 27011.78
284.9391, 27070.85
285.4212, 27123.04
285.9033, 27134.82
286.3854, 27107.39
286.8676, 27109.45
287.3497, 27156.73
287.8318, 27215.20
288.3139, 27283.51
288.7960, 27351.28
289.2781, 27389.80
289.7603, 27379.37
290.2424, 27334.26
290.7245, 27314.92
291.2066, 27338.48
291.6887, 27364.51
292.1708, 27395.61
292.6530, 27422.93
293.1351, 27428.74
293.6172, 27407.55
294.0993, 27382.03
294.5814, 27395.16
295.0635, 27490.88
295.5457, 27540.89
296.0278, 27526.63
296.5099, 27483.76
296.9920, 27432.22
297.4741, 27376.84
297.9562, 27315.83
298.4384, 27242.77
298.9205, 27150.70
299.4026, 27096.08
299.8847, 27125.69
300.3668, 27144.95
300.8489, 27108.09
301.3310, 27035.25
301.8131, 26975.53
302.2953, 26964.52
302.7774, 26989.08
303.2595, 26979.77
303.7416, 26904.56
304.2237, 26841.91
304.7058, 26814.47
305.1880, 26803.62
305.6701, 26790.58
306.1522, 26768.50
306.6343, 26740.21
307.1164, 26710.75
307.5985, 26681.68
308.0807, 26646.07
308.5628, 26586.33
309.0449, 26531.30
309.5270, 26503.48
310.0091, 26502.95
310.4912, 26506.78
310.9734, 26490.00
311.4555, 26455.85
311.9376, 26443.42
312.4197, 26472.25
312.9018, 26498.80
313.3839, 26487.25
313.8661, 26451.72
314.3482, 26429.73
314.8303, 26452.45
315.3124, 26492.77
315.7945, 26494.99
316.2766, 26450.44
316.7588, 26419.05
317.2409, 26443.37
317.7230, 26498.71
318.2051, 26544.76
318.6872, 26575.88
319.1693, 26598.47
319.6515, 26611.64
320.1336, 26618.31
320.6157, 26631.51
321.0978, 26655.27
321.5799, 26687.99
322.0620, 26730.63
322.5442, 26785.10
323.0263, 26834.50
323.5084, 26871.65
323.9905, 26902.29
324.4726, 26936.36
324.9547, 26975.60
325.4369, 27007.44
325.9190, 27015.64
326.4011, 26996.97
326.8832, 27000.93
327.3653, 27044.70
327.8474, 27094.36
328.3296, 27132.74
328.8117, 27161.21
329.2938, 27187.30
329.7759, 27215.71
330.2580, 27245.11
330.7401, 27268.77
331.2223, 27287.38
331.7044, 27299.36
332.1865, 27304.25
332.6686, 27302.58
333.1507, 27293.36
333.6328, 27276.76
334.1150, 27256.68
334.5971, 27238.41
335.0792, 27221.60
335.5613, 27208.01
336.0434, 27201.62
336.5255, 27194.59
337.0077, 27185.79
337.4898, 27173.26
337.9719, 27152.17
338.4540, 27115.96
338.9361, 27067.44
339.4182, 27031.68
339.9004, 27012.46
340.3825, 27002.03
340.8646, 27003.55
341.3467, 27009.33
341.8288, 27013.15
342.3109, 27014.88
342.7931, 27003.62
343.2752, 26955.39
343.7573, 26863.18
344.2394, 26782.54
344.7215, 26720.81
345.2036, 26681.53
345.6858, 26676.59
346.1679, 26704.93
346.6500, 26726.36
347.1321, 26711.26
347.6142, 26670.05
348.0963, 26627.44
348.5785, 26581.41
349.0606, 26547.69
349.5427, 26548.29
350.0248, 26572.46
350.5069, 26588.90
350.9890, 26594.96
351.4712, 26589.15
351.9533, 26562.09
352.4354, 26518.69
352.9175, 26484.80
353.3996, 26473.79
353.8817, 26478.38
354.3639, 26483.63
354.8460, 26506.85
355.3281, 26496.89
355.8102, 26403.21
356.2923, 26287.92
356.7744, 26235.82
357.2566, 26261.61
357.7387, 26303.69
358.2208, 26290.72
358.7029, 26207.77
359.1850, 26152.23
359.6671, 26128.91
360.1493, 26123.64
360.6314, 26155.82
361.1135, 26200.17
361.5956, 26201.02
362.0777, 26121.10
362.5598, 25988.74
363.0420, 25908.81
363.5241, 25919.83
364.0062, 25923.74
364.4883, 25905.68
364.9704, 25878.52
365.4525, 25848.39
365.9347, 25818.53
366.4168, 25797.18
366.8989, 25797.58
367.3810, 25821.37
367.8631, 25839.94
368.3452, 25856.49
368.8274, 25861.60
369.3095, 25845.21
369.7916, 25814.75
370.2737, 25787.76
370.7558, 25771.66
371.2379, 25764.30
371.7201, 25765.13
372.2022, 25775.35
372.6843, 25781.73
373.1664, 25775.14
373.6485, 25763.63
374.1306, 25761.04
374.6128, 25771.43
375.0949, 25777.54
375.5770, 25767.91
376.0591, 25748.12
376.5412, 25725.68
377.0233, 25700.69
377.5055, 25685.19
377.9876, 25698.38
378.4697, 25744.40
378.9518, 25760.25
379.4339, 25727.31
379.9160, 25680.05
380.3982, 25627.50
380.8803, 25576.75
381.3624, 25544.38
381.8445, 25540.43
382.3266, 25556.89
382.8087, 25569.68
383.2909, 25580.59
383.7730, 25584.53
384.2551, 25580.87
384.7372, 25570.69
385.2193, 25552.53
385.7014, 25527.49
386.1836, 25500.56
386.6657, 25474.43
387.1478, 25448.38
387.6299, 25439.76
388.1120, 25467.83
388.5941, 25491.51
389.0763, 25489.52
389.5584, 25476.37
390.0405, 25479.56
390.5226, 25516.85
391.0047, 25557.59
391.4868, 25539.02
391.9690, 25450.99
392.4511, 25403.52
392.9332, 25455.50
393.4153, 25533.25
393.8974, 25563.98
394.3795, 25547.26
394.8617, 25529.46
395.3438, 25530.94
395.8259, 25546.57
396.3080, 25572.73
396.7901, 25610.02
397.2722, 25640.47
397.7544, 25646.84
398.2365, 25635.51
398.7186, 25641.39
399.2007, 25701.66
399.6828, 25737.40
400.1649, 25685.64
400.6471, 25596.76
401.1292, 25557.91
401.6113, 25597.87
402.0934, 25678.44
402.5755, 25746.23
403.0576, 25801.54
403.5398, 25839.81
404.0219, 25851.91
404.5040, 25858.32
404.9861, 25874.42
405.4682, 25893.96
405.9503, 25895.67
406.4325, 25862.01
406.9146, 25809.84
407.3967, 25803.88
407.8788, 25874.05
408.3609, 25929.09
408.8430, 25936.23
409.3252, 25932.80
409.8073, 25950.06
410.2894, 25991.96
410.7715, 26036.14
411.2536, 26063.28
411.7357, 26076.12
412.2179, 26087.32
412.7000, 26096.95
413.1821, 26106.56
413.6642, 26114.44
414.1463, 26123.24
414.6284, 26139.16
415.1106, 26166.81
415.5927, 26197.73
416.0748, 26229.03
416.5569, 26258.97
417.0390, 26280.61
417.5211, 26290.28
418.0033, 26295.63
418.4854, 26310.29
418.9675, 26342.37
419.4496, 26353.88
419.9317, 26324.68
420.4138, 26289.88
420.8960, 26270.34
421.3781, 26266.25
421.8602, 26273.28
422.3423, 26291.01
422.8244, 26312.46
423.3065, 26307.04
423.7887, 26257.50
424.2708, 26206.44
424.7529, 26160.74
425.2350, 26113.84
425.7171, 26053.35
426.1992, 25981.07
426.6814, 25920.50
427.1635, 25907.46
427.6456, 25935.27
428.1277, 25919.80
428.6098, 25835.32
429.0919, 25756.96
429.5741, 25747.72
430.0562, 25762.58
430.5383, 25728.78
431.0204, 25609.92
431.5025, 25481.11
431.9846, 25409.03
432.4668, 25379.45
432.9489, 25341.02
433.4310, 25279.46
433.9131, 25209.97
434.3952, 25151.21
434.8773, 25105.18
435.3595, 25050.90
435.8416, 24961.63
436.3237, 24887.17
436.8058, 24874.03
437.2879, 24901.04
437.7701, 24912.82
438.2522, 24880.88
438.7343, 24817.32
439.2164, 24750.96
439.6985, 24667.58
440.1806, 24608.33
440.6628, 24578.23
441.1449, 24565.04
441.6270, 24576.86
442.1091, 24601.68
442.5912, 24602.23
443.0733, 24537.99
443.5555, 24432.51
444.0376, 24388.03
444.5197, 24436.66
445.0018, 24455.84
445.4839, 24351.83
445.9660, 24219.22
446.4482, 24157.03
446.9303, 24185.38
447.4124, 24221.64
447.8945, 24216.63
448.3766, 24183.51
448.8587, 24149.09
449.3409, 24116.92
449.8230, 24080.47
450.3051, 24032.23
450.7872, 23973.92
451.2693, 23923.95
451.7514, 23874.14
452.2336, 23841.28
452.7157, 23856.41
453.1978, 23882.73
453.6799, 23860.54
454.1620, 23775.48
454.6441, 23674.32
455.1263, 23619.26
455.6084, 23620.56
456.0905, 23610.22
456.5726, 23578.15
457.0547, 23544.36
457.5368, 23512.05
458.0190, 23482.66
458.5011, 23455.72
458.9832, 23429.64
459.4653, 23412.78
459.9474, 23433.17
460.4295, 23492.01
460.9117, 23495.65
461.3938, 23395.35
461.8759, 23276.50
462.3580, 23215.59
462.8401, 23203.51
463.3222, 23195.54
463.8044, 23179.57
464.2865, 23162.53
464.7686, 23153.03
465.2507, 23148.52
465.7328, 23139.24
466.2149, 23121.37
466.6971, 23095.22
467.1792, 23061.81
467.6613, 23020.63
468.1434, 22971.69
468.6255, 22885.80
469.1076, 22817.32
469.5898, 22822.82
470.0719, 22877.67
470.5540, 22906.33
471.0361, 22857.06
471.5182, 22760.82
472.0003, 22710.49
472.4825, 22726.08
472.9646, 22733.90
473.4467, 22708.35
473.9288, 22677.28
474.4109, 22662.86
474.8930, 22663.54
475.3752, 22654.17
475.8573, 22604.81
476.3394, 22542.43
476.8215, 22519.23
477.3036, 22536.76
477.7857, 22551.79
478.2679, 22547.58
478.7500, 22523.31
479.2321, 22468.12
479.7142, 22353.15
480.1963, 22283.11
480.6784, 22309.23
481.1606, 22367.74
481.6427, 22406.37
482.1248, 22419.25
482.6069, 22420.00
483.0890, 22417.96
483.5711, 22413.42
484.0533, 22407.02
484.5354, 22389.50
485.0175, 22386.20
485.4996, 22410.72
485.9817, 22441.90
486.4638, 22467.15
486.9460, 22483.16
487.4281, 22486.05
487.9102, 22458.64
488.3923, 22416.41
488.8744, 22413.84
489.3565, 22459.35
489.8387, 22498.13
490.3208, 22502.65
490.8029, 22482.22
491.2850, 22454.08
491.7671, 22405.47
492.2492, 22385.33
492.7314, 22444.09
493.2135, 22521.16
493.6956, 22541.87
494.1777, 22503.51
494.6598, 22455.24
495.1419, 22433.37
495.6241, 22434.41
496.1062, 22435.66
496.5883, 22446.15
497.0704, 22443.34
497.5525, 22415.26
498.0346, 22380.41
498.5168, 22346.08
498.9989, 22317.74
499.4810, 22310.72
499.9631, 22352.90
500.4452, 22426.00
500.9273, 22458.50
501.4095, 22444.55
501.8916, 22411.98
502.3737, 22345.08
502.8558, 22283.79
503.3379, 22296.48
503.8200, 22404.44
504.3022, 22500.84
504.7843, 22547.24
505.2664, 22560.07
505.7485, 22546.40
506.2306, 22512.61
506.7127, 22483.36
507.1949, 22474.56
507.6770, 22483.96
508.1591, 22502.68
508.6412, 22553.85
509.1233, 22579.52
509.6054, 22556.64
510.0876, 22523.95
510.5697, 22506.42
511.0518, 22506.67
511.5339, 22518.06
512.0161, 22542.94
512.4982, 22570.99
512.9803, 22572.26
513.4624, 22543.77
513.9445, 22504.07
514.4266, 22442.64
514.9088, 22388.21
515.3909, 22387.01
515.8730, 22444.93
516.3551, 22478.15
516.8372, 22452.20
517.3193, 22397.42
517.8015, 22327.45
518.2836, 22251.64
518.7657, 22194.80
519.2478, 22171.01
519.7299, 22171.08
520.2120, 22174.71
520.6942, 22191.37
521.1763, 22192.88
521.6584, 22159.32
522.1405, 22130.97
522.6226, 22143.35
523.1047, 22178.81
523.5869, 22187.86
524.0690, 22136.90
524.5511, 22063.81
525.0332, 22029.03
525.5153, 22032.40
525.9974, 22051.96
526.4796, 22095.80
526.9617, 22132.75
527.4438, 22122.21
527.9259, 22070.06
528.4080, 22020.98
528.8901, 21978.18
529.3723, 21942.92
529.8544, 21910.33
530.3365, 21886.79
530.8186, 21891.15
531.3007, 21928.89
531.7828, 21972.79
532.2650, 21980.29
532.7471, 21939.38
533.2292, 21938.55
533.7113, 22049.12
534.1934, 22116.92
534.6755, 22073.07
535.1577, 21968.14
535.6398, 21864.76
536.1219, 21778.45
536.6040, 21714.35
537.0861, 21684.07
537.5682, 21680.13
538.0504, 21685.60
538.5325, 21702.16
539.0146, 21699.00
539.4967, 21645.44
539.9788, 21554.47
540.4609, 21492.53
540.9431, 21480.57
541.4252, 21464.66
541.9073, 21414.80
542.3894, 21368.44
542.8715, 21372.34
543.3536, 21422.25
543.8358, 21470.16
544.3179, 21478.54
544.8000, 21453.42
545.2821, 21417.04
545.7642, 21359.63
546.2463, 21317.83
546.7285, 21307.90
547.2106, 21312.70
547.6926, 21324.50
548.1747, 21341.38
548.6569, 21351.53
549.1390, 21350.55
549.6211, 21339.64
550.1032, 21316.70
550.5853, 21284.05
551.0674, 21248.83
551.5496, 21211.84
552.0317, 21182.66
552.5138, 21178.16
552.9959, 21207.95
553.4780, 21230.24
553.9601, 21250.81
554.4423, 21259.04
554.9244, 21244.25
555.4065, 21216.28
555.8886, 21186.20
556.3707, 21157.47
556.8528, 21140.95
557.3350, 21168.20
557.8171, 21228.68
558.2992, 21225.93
558.7813, 21131.56
559.2634, 21036.02
559.7455, 21000.71
560.2277, 21010.28
560.7098, 21011.69
561.1919, 21008.32
561.6740, 20990.16
562.1561, 20937.98
562.6382, 20879.27
563.1204, 20847.67
563.6025, 20842.19
564.0846, 20834.60
564.5667, 20803.16
565.0488, 20755.14
565.5309, 20717.69
566.0131, 20689.82
566.4952, 20675.14
566.9773, 20696.39
567.4594, 20713.07
567.9415, 20693.15
568.4236, 20643.37
568.9058, 20599.55
569.3879, 20579.76
569.8700, 20569.59
570.3521, 20561.86
570.8342, 20552.17
571.3163, 20519.63
571.7985, 20455.64
572.2806, 20390.27
572.7627, 20362.90
573.2448, 20379.71
573.7269, 20375.15
574.2090, 20329.88
574.6912, 20287.38
575.1733, 20255.02
575.6554, 20232.88
576.1375, 20223.16
576.6196, 20225.18
577.1017, 20229.23
577.5839, 20226.97
578.0660, 20219.68
578.5481, 20207.79
579.0302, 20189.35
579.5123, 20186.36
579.9944, 20219.30
580.4766, 20264.39
580.9587, 20269.94
581.4408, 20224.10
581.9229, 20196.24
582.4050, 20215.28
582.8871, 20237.65
583.3693, 20238.07
583.8514, 20218.29
584.3335, 20181.09
584.8156, 20127.54
585.2977, 20078.32
585.7798, 20076.70
586.2620, 20129.82
586.7441, 20141.88
587.2262, 20079.46
587.7083, 20023.35
588.1904, 20028.14
588.6725, 20067.10
589.1547, 20100.86
589.6368, 20129.21
590.1189, 20139.18
590.6010, 20118.90
591.0831, 20079.77
591.5652, 20027.48
592.0474, 19968.03
592.5295, 19922.28
593.0116, 19905.02
593.4937, 19909.10
593.9758, 19913.59
594.4579, 19921.88
594.9401, 19922.43
595.4222, 19917.50
595.9043, 19901.22
596.3864, 19862.33
596.8685, 19809.73
597.3506, 19764.64
597.8328, 19734.04
598.3149, 19715.48
598.7970, 19705.98
599.2791, 19706.80
599.7612, 19731.21
600.2433, 19782.00
600.7255, 19814.81
601.2076, 19788.85
601.6897, 19711.65
602.1718, 19644.57
602.6539, 19581.90
603.1360, 19538.55
603.6182, 19533.13
604.1003, 19533.33
604.5824, 19520.40
605.0645, 19490.84
605.5466, 19441.51
606.0287, 19353.78
606.5109, 19267.85
606.9930, 19259.83
607.4751, 19318.10
607.9572, 19346.35
608.4393, 19315.47
608.9214, 19270.70
609.4036, 19260.52
609.8857, 19285.04
610.3678, 19281.19
610.8499, 19214.17
611.3320, 19165.63
611.8141, 19173.22
612.2963, 19196.42
612.7784, 19195.04
613.2605, 19164.88
613.7426, 19125.92
614.2247, 19092.07
614.7068, 19061.08
615.1890, 19024.75
615.6711, 18982.41
616.1532, 18948.70
616.6353, 18924.63
617.1174, 18917.11
617.5995, 18946.76
618.0817, 19014.53
618.5638, 19039.89
619.0459, 18981.27
619.5280, 18924.31
620.0101, 18898.08
620.4922, 18894.05
620.9744, 18907.65
621.4565, 18933.39
621.9386, 18953.10
622.4207, 18949.88
622.9028, 18927.83
623.3849, 18900.82
623.8671, 18867.43
624.3492, 18836.69
624.8313, 18807.21
625.3134, 18786.19
625.7955, 18788.80
626.2776, 18813.41
626.7598, 18826.94
627.2419, 18820.68
627.7240, 18806.81
628.2061, 18786.01
628.6882, 18763.64
629.1703, 18745.03
629.6525, 18732.47
630.1346, 18730.50
630.6167, 18750.05
631.0988, 18783.00
631.5809, 18778.27
632.0630, 18723.41
632.5452, 18678.87
633.0273, 18660.18
633.5094, 18662.39
633.9915, 18687.74
634.4736, 18734.46
634.9557, 18765.80
635.4379, 18772.81
635.9200, 18764.18
636.4021, 18729.25
636.8842, 18687.59
637.3663, 18669.44
637.8484, 18681.40
638.3306, 18709.89
638.8127, 18747.44
639.2948, 18788.71
639.7769, 18795.46
640.2590, 18756.23
640.7411, 18723.49
641.2233, 18716.50
641.7054, 18718.08
642.1875, 18712.00
642.6696, 18698.52
643.1517, 18680.30
643.6339, 18649.59
644.1160, 18623.12
644.5981, 18608.69
645.0802, 18604.95
645.5623, 18616.70
646.0444, 18641.06
646.5266, 18655.16
647.0087, 18633.70
647.4908, 18586.68
647.9729, 18563.97
648.4550, 18573.04
648.9371, 18576.25
649.4193, 18555.50
649.9014, 18535.04
650.3835, 18545.13
650.8656, 18580.05
651.3477, 18598.66
651.8298, 18576.52
652.3120, 18556.73
652.7941, 18567.48
653.2762, 18588.72
653.7583, 18595.87
654.2404, 18583.89
654.7225, 18555.90
655.2047, 18509.66
655.6868, 18455.88
656.1689, 18436.08
656.6510, 18457.83
657.1331, 18465.50
657.6152, 18439.44
658.0974, 18407.93
658.5795, 18400.77
659.0616, 18411.29
659.5437, 18409.44
660.0258, 18380.24
660.5079, 18353.61
660.9901, 18340.99
