##NAMES=Elpasolite
##RRUFFID=R061029
##IDEAL CHEMISTRY=K_2_NaAlF_6_
##LOCALITY=Le Cetine mine, Rosia, Siena Province, Tuscany, Italy
##OWNER=RRUFF
##SOURCE=Michael Scott
##DESCRIPTION=Colorless cubic crystals associated with colorless blades of gypsum
##STATUS=The identification of this mineral has been confirmed only by single crystal X-ray diffraction.
##URL=rruff.info/R061029
117.1840, 256.3529
117.6661, 271.9623
118.1482, 291.4632
118.6303, 312.1831
119.1124, 331.1293
119.5946, 350.3043
120.0767, 373.1817
120.5588, 402.1852
121.0409, 435.0031
121.5230, 468.6038
122.0051, 498.7007
122.4873, 537.2347
122.9694, 598.6832
123.4515, 678.5130
123.9336, 758.6519
124.4157, 825.6177
124.8979, 885.7565
125.3800, 948.3200
125.8621, 1013.604
126.3442, 1084.438
126.8263, 1165.323
127.3084, 1255.490
127.7905, 1353.014
128.2727, 1458.303
128.7548, 1569.453
129.2369, 1679.014
129.7190, 1783.093
130.2011, 1883.772
130.6832, 1983.620
131.1654, 2081.505
131.6475, 2186.539
132.1296, 2314.648
132.6117, 2465.013
133.0938, 2615.945
133.5759, 2778.618
134.0581, 2946.931
134.5402, 3047.771
135.0223, 3083.511
135.5044, 3044.445
135.9865, 2891.012
136.4686, 2609.916
136.9508, 2302.283
137.4329, 2012.239
137.9150, 1738.811
138.3971, 1515.419
138.8792, 1350.870
139.3613, 1237.670
139.8434, 1145.488
140.3256, 1077.479
140.8077, 1022.314
141.2898, 970.9704
141.7719, 923.3661
142.2540, 880.9277
142.7361, 843.3636
143.2183, 810.4373
143.7004, 788.1838
144.1825, 780.8884
144.6646, 780.0448
145.1467, 776.8092
145.6288, 766.8560
146.1110, 761.1663
146.5931, 763.7759
147.0752, 777.8298
147.5573, 785.9882
148.0394, 786.7635
148.5215, 782.1624
149.0037, 774.9606
149.4858, 762.3951
149.9679, 750.0226
150.4500, 738.8058
150.9321, 726.8811
151.4142, 719.9939
151.8964, 722.7287
152.3785, 730.6049
152.8606, 733.6355
153.3427, 724.2988
153.8248, 715.4633
154.3069, 712.6688
154.7890, 723.4182
155.2712, 730.9120
155.7533, 731.6351
156.2354, 726.9570
156.7175, 722.3016
157.1996, 717.8193
157.6817, 714.1736
158.1639, 711.7476
158.6460, 711.1598
159.1281, 711.2112
159.6102, 711.5079
160.0923, 712.0586
160.5744, 713.2435
161.0566, 715.8414
161.5387, 718.7941
162.0208, 721.1465
162.5029, 720.5490
162.9850, 720.9273
163.4671, 725.6864
163.9493, 735.0789
164.4314, 741.5446
164.9135, 739.8864
165.3956, 733.5347
165.8777, 726.9480
166.3598, 719.6764
166.8420, 714.3018
167.3241, 712.9984
167.8062, 716.3621
168.2883, 721.3412
168.7704, 728.1032
169.2525, 735.1198
169.7346, 739.4830
170.2168, 736.2968
170.6989, 731.4988
171.1810, 731.2896
171.6631, 737.7672
172.1452, 744.9161
172.6273, 748.3006
173.1095, 748.4006
173.5916, 746.7323
174.0737, 742.3694
174.5558, 737.2438
175.0379, 733.7297
175.5201, 731.6637
176.0022, 732.3516
176.4843, 740.6968
176.9664, 754.7908
177.4485, 764.9612
177.9306, 759.2977
178.4128, 745.3329
178.8949, 738.2224
179.3770, 744.8432
179.8591, 756.5057
180.3412, 760.0379
180.8233, 755.8687
181.3055, 750.3745
181.7876, 748.4571
182.2697, 749.3489
182.7518, 750.7910
183.2339, 752.5880
183.7160, 754.2820
184.1981, 754.1978
184.6803, 752.2056
185.1624, 750.9399
185.6445, 755.2515
186.1266, 763.5194
186.6087, 767.5471
187.0908, 762.3700
187.5730, 750.8717
188.0551, 741.5348
188.5372, 734.0650
189.0193, 729.8371
189.5014, 731.2510
189.9835, 738.0031
190.4657, 746.0068
190.9478, 755.5328
191.4299, 765.7000
191.9120, 769.7692
192.3941, 766.7551
192.8762, 760.7276
193.3584, 757.0444
193.8405, 755.7387
194.3226, 755.2685
194.8047, 754.1268
195.2868, 752.5369
195.7689, 755.9377
196.2511, 766.6056
196.7332, 778.4917
197.2153, 779.3686
197.6974, 768.1735
198.1795, 755.9266
198.6616, 746.6000
199.1437, 739.9876
199.6259, 741.8483
200.1080, 755.9510
200.5901, 774.7874
201.0722, 779.0681
201.5543, 765.7066
202.0364, 752.5573
202.5186, 751.5573
203.0007, 764.4499
203.4828, 773.1188
203.9649, 775.0731
204.4470, 772.5856
204.9291, 772.9144
205.4113, 777.2307
205.8934, 780.5172
206.3755, 778.8276
206.8576, 770.9774
207.3397, 764.3322
207.8218, 759.3357
208.3040, 756.1759
208.7861, 756.3049
209.2682, 761.1188
209.7503, 766.0465
210.2324, 766.9869
210.7145, 762.1613
211.1967, 760.4841
211.6788, 763.4246
212.1609, 770.5441
212.6430, 780.2891
213.1251, 795.5215
213.6072, 808.1564
214.0894, 810.5518
214.5715, 798.5784
215.0536, 788.8845
215.5357, 784.7140
216.0178, 785.4940
216.4999, 785.0880
216.9820, 783.0701
217.4642, 780.4120
217.9463, 777.7719
218.4284, 774.8917
218.9105, 772.5908
219.3926, 770.5577
219.8747, 768.8593
220.3569, 770.1398
220.8390, 775.5516
221.3211, 782.5911
221.8032, 789.9965
222.2853, 800.5083
222.7674, 804.8686
223.2496, 799.2663
223.7317, 783.2097
224.2138, 771.5195
224.6959, 764.5426
225.1780, 761.4871
225.6601, 762.2175
226.1423, 769.9259
226.6244, 774.7889
227.1065, 773.0770
227.5886, 763.6791
228.0707, 760.5139
228.5528, 767.4620
229.0350, 777.1961
229.5171, 780.9296
229.9992, 776.4650
230.4813, 770.0393
230.9634, 762.0778
231.4455, 751.7469
231.9276, 745.5738
232.4098, 743.4545
232.8919, 745.5878
233.3740, 753.0383
233.8561, 770.1013
234.3382, 784.8752
234.8203, 794.6299
235.3025, 798.9983
235.7846, 799.6806
236.2667, 794.0093
236.7488, 786.6199
237.2309, 784.0494
237.7130, 788.6750
238.1952, 794.1875
238.6773, 799.7844
239.1594, 806.3958
239.6415, 807.9331
240.1236, 802.1094
240.6057, 792.7330
241.0879, 784.9578
241.5700, 778.2586
242.0521, 774.1658
242.5342, 773.0218
243.0163, 774.7531
243.4984, 780.3479
243.9806, 793.3206
244.4627, 807.8510
244.9448, 814.4859
245.4269, 807.8671
245.9090, 802.1895
246.3911, 802.3290
246.8732, 810.3687
247.3554, 814.7032
247.8375, 814.0602
248.3196, 810.5058
248.8017, 807.0174
249.2838, 803.2966
249.7659, 800.2345
250.2481, 798.1683
250.7302, 797.2963
251.2123, 796.9378
251.6944, 798.7542
252.1765, 799.9778
252.6586, 795.4160
253.1408, 780.0922
253.6229, 768.2350
254.1050, 764.7988
254.5871, 771.5807
255.0692, 778.3273
255.5513, 786.4137
256.0334, 793.4321
256.5156, 794.6248
256.9977, 784.9885
257.4798, 779.5086
257.9619, 784.8799
258.4440, 804.6473
258.9261, 815.9631
259.4083, 816.9861
259.8904, 811.2162
260.3725, 802.4601
260.8546, 786.5742
261.3367, 776.8294
261.8188, 779.6495
262.3010, 798.0510
262.7831, 808.9739
263.2652, 810.8588
263.7473, 806.9420
264.2294, 800.5430
264.7115, 789.0845
265.1937, 782.0796
265.6758, 784.2751
266.1579, 796.8508
266.6400, 804.9290
267.1221, 807.0643
267.6042, 806.4446
268.0864, 807.9140
268.5685, 812.8244
269.0506, 815.5981
269.5327, 813.4551
270.0148, 805.9677
270.4969, 802.6077
270.9791, 804.9316
271.4612, 808.9318
271.9433, 808.9466
272.4254, 804.0359
272.9075, 799.0685
273.3896, 794.5034
273.8718, 790.4113
274.3539, 792.8204
274.8360, 804.1753
275.3181, 817.2595
275.8002, 822.3483
276.2823, 818.0842
276.7645, 814.0785
277.2466, 813.5032
277.7287, 816.0526
278.2108, 817.0660
278.6929, 816.5695
279.1750, 814.4582
279.6572, 809.0413
280.1393, 799.7178
280.6214, 794.5051
281.1035, 797.5012
281.5856, 806.9518
282.0677, 811.4030
282.5499, 810.2298
283.0320, 806.4334
283.5141, 802.4753
283.9962, 798.3523
284.4783, 795.0311
284.9604, 792.3856
285.4425, 790.7966
285.9247, 792.6687
286.4068, 798.4567
286.8889, 804.5582
287.3710, 807.0753
287.8531, 806.3336
288.3352, 806.1321
288.8174, 807.8232
289.2995, 810.5368
289.7816, 811.3203
290.2637, 810.0219
290.7458, 809.0314
291.2279, 812.9584
291.7101, 820.0529
292.1922, 820.0708
292.6743, 806.8965
293.1564, 788.5997
293.6385, 782.7139
294.1206, 789.1240
294.6028, 798.8891
295.0849, 806.2795
295.5670, 811.6425
296.0491, 815.7614
296.5312, 818.0010
297.0133, 820.1639
297.4955, 826.5101
297.9776, 836.3590
298.4597, 844.5156
298.9418, 844.2241
299.4239, 839.7242
299.9060, 840.2485
300.3882, 848.7659
300.8703, 860.5276
301.3524, 871.5765
301.8345, 881.3115
302.3166, 887.0244
302.7987, 881.9702
303.2809, 873.2150
303.7630, 871.9276
304.2451, 881.4531
304.7272, 894.4359
305.2093, 904.5778
305.6914, 912.4079
306.1736, 919.1003
306.6557, 925.4460
307.1378, 931.1132
307.6199, 934.6893
308.1020, 934.8529
308.5841, 937.7385
309.0663, 947.6528
309.5484, 963.9158
310.0305, 984.6149
310.5126, 1012.142
310.9947, 1041.892
311.4768, 1068.183
311.9590, 1089.041
312.4411, 1115.480
312.9232, 1153.222
313.4053, 1200.921
313.8874, 1255.578
314.3695, 1309.523
314.8516, 1376.190
315.3337, 1467.559
315.8159, 1585.948
316.2980, 1706.723
316.7801, 1822.760
317.2622, 1935.246
317.7443, 2046.617
318.2264, 2157.568
318.7086, 2266.229
319.1907, 2370.797
319.6728, 2471.296
320.1549, 2572.230
320.6370, 2664.280
321.1191, 2762.577
321.6013, 2880.403
322.0834, 3030.127
322.5655, 3188.179
323.0476, 3344.816
323.5297, 3501.723
324.0118, 3678.914
324.4940, 3910.086
324.9761, 4143.343
325.4582, 4346.372
325.9403, 4594.068
326.4224, 4721.406
326.9045, 4710.146
327.3867, 4565.673
327.8688, 4316.831
328.3509, 3864.277
328.8330, 3386.902
329.3151, 2957.133
329.7972, 2564.494
330.2794, 2235.310
330.7615, 1977.172
331.2436, 1779.709
331.7257, 1620.027
332.2078, 1508.818
332.6899, 1419.973
333.1721, 1344.778
333.6542, 1286.292
334.1363, 1234.270
334.6184, 1187.065
335.1005, 1147.052
335.5826, 1119.139
336.0648, 1108.898
336.5469, 1098.573
337.0290, 1081.238
337.5111, 1055.480
337.9932, 1034.480
338.4753, 1018.897
338.9575, 1007.051
339.4396, 996.4815
339.9217, 986.7029
340.4038, 980.7645
340.8859, 982.0239
341.3680, 988.8943
341.8502, 985.2882
342.3323, 969.3347
342.8144, 949.9293
343.2965, 934.5618
343.7786, 923.1291
344.2607, 917.7227
344.7429, 921.0202
345.2250, 929.4051
345.7071, 931.4328
346.1892, 926.7744
346.6713, 921.8464
347.1534, 923.6389
347.6355, 930.0616
348.1176, 930.7727
348.5998, 921.8068
349.0819, 909.9137
349.5640, 906.8802
350.0461, 911.6970
350.5282, 916.9180
351.0103, 918.1282
351.4925, 916.3989
351.9746, 912.9716
352.4567, 907.2325
352.9388, 902.6240
353.4209, 903.7130
353.9030, 909.0045
354.3852, 914.4310
354.8673, 920.1486
355.3494, 923.8206
355.8315, 922.4165
356.3136, 915.5176
356.7957, 906.6644
357.2779, 894.2154
357.7600, 882.2705
358.2421, 877.1614
358.7242, 886.4004
359.2063, 899.1169
359.6884, 910.0266
360.1706, 918.9028
360.6527, 924.8007
361.1348, 927.2945
361.6169, 926.5753
362.0990, 922.8182
362.5811, 911.2914
363.0633, 901.5626
363.5454, 896.6710
364.0275, 896.1223
364.5096, 897.4873
364.9917, 900.9265
365.4738, 905.5607
365.9560, 911.2120
366.4381, 921.2883
366.9202, 927.1658
367.4023, 919.9051
367.8844, 907.5579
368.3665, 910.1596
368.8487, 954.8719
369.3308, 991.0001
369.8129, 999.6119
370.2950, 967.8384
370.7771, 945.3876
371.2592, 932.8118
371.7414, 929.3105
372.2235, 934.9449
372.7056, 957.1602
373.1877, 975.3018
373.6698, 981.5417
374.1519, 975.3702
374.6341, 979.6453
375.1162, 998.2036
375.5983, 1020.926
376.0804, 1037.805
376.5625, 1046.979
377.0446, 1058.763
377.5267, 1076.876
378.0089, 1098.444
378.4910, 1108.419
378.9731, 1104.193
379.4552, 1102.466
379.9373, 1118.620
380.4194, 1151.402
380.9016, 1176.950
381.3837, 1191.359
381.8658, 1200.627
382.3479, 1214.244
382.8300, 1232.063
383.3121, 1253.262
383.7943, 1281.068
384.2764, 1311.428
384.7585, 1332.025
385.2406, 1340.372
385.7227, 1350.367
386.2048, 1389.415
386.6870, 1442.182
387.1691, 1472.129
387.6512, 1449.169
388.1333, 1403.331
388.6154, 1364.500
389.0975, 1332.636
389.5797, 1301.614
390.0618, 1265.949
390.5439, 1229.507
391.0260, 1197.286
391.5081, 1170.561
391.9902, 1148.692
392.4724, 1133.814
392.9545, 1124.081
393.4366, 1112.779
393.9187, 1094.615
394.4008, 1075.905
394.8829, 1060.317
395.3651, 1049.794
395.8472, 1039.469
396.3293, 1028.320
396.8114, 1016.565
397.2935, 1004.555
397.7756, 985.6619
398.2578, 972.8143
398.7399, 972.8542
399.2220, 990.2742
399.7041, 998.1022
400.1862, 990.8098
400.6683, 977.2142
401.1505, 964.8530
401.6326, 953.1931
402.1147, 943.5176
402.5968, 935.1133
403.0789, 928.5026
403.5610, 928.1512
404.0432, 936.8606
404.5253, 946.8217
405.0074, 954.1373
405.4895, 959.3665
405.9716, 958.0402
406.4537, 946.9642
406.9359, 932.7859
407.4180, 929.9696
407.9001, 939.6225
408.3822, 950.7941
408.8643, 959.6288
409.3464, 966.0513
409.8285, 968.9622
410.3106, 967.9503
410.7928, 965.4852
411.2749, 963.2204
411.7570, 961.5263
412.2391, 962.1702
412.7212, 966.9881
413.2033, 973.4647
413.6855, 978.2278
414.1676, 981.1970
414.6497, 981.8159
415.1318, 977.0267
415.6139, 970.4385
416.0960, 967.7242
416.5782, 971.9518
417.0603, 975.6671
417.5424, 971.1642
418.0245, 961.7271
418.5066, 954.8033
418.9887, 951.0082
419.4709, 952.7256
419.9530, 965.5054
420.4351, 992.4940
420.9172, 1010.091
421.3993, 1005.217
421.8814, 988.5424
422.3636, 971.1833
422.8457, 948.0852
423.3278, 932.2747
423.8099, 929.4298
424.2920, 938.6323
424.7741, 946.9319
425.2563, 956.0551
425.7384, 962.2555
426.2205, 962.7348
426.7026, 948.9054
427.1847, 945.5077
427.6668, 958.3957
428.1490, 979.4310
428.6311, 991.4136
429.1132, 992.1335
429.5953, 988.9335
430.0774, 982.7220
430.5595, 973.3196
431.0417, 970.7157
431.5238, 976.9943
432.0059, 984.7644
432.4880, 985.3170
432.9701, 978.7218
433.4522, 972.1255
433.9344, 965.9576
434.4165, 961.8599
434.8986, 964.8799
435.3807, 974.7519
435.8628, 985.4559
436.3449, 994.4726
436.8271, 1001.067
437.3092, 1002.741
437.7913, 998.2091
438.2734, 992.5552
438.7555, 990.4522
439.2376, 991.0658
439.7197, 992.5526
440.2018, 995.5280
440.6840, 997.9809
441.1661, 997.1642
441.6482, 993.1404
442.1303, 991.1250
442.6124, 996.6426
443.0945, 1003.966
443.5767, 1007.801
444.0588, 1002.916
444.5409, 999.2355
445.0230, 998.4626
445.5051, 1000.754
445.9872, 1006.576
446.4694, 1023.996
446.9515, 1037.949
447.4336, 1041.197
447.9157, 1028.272
448.3978, 1021.681
448.8799, 1025.891
449.3621, 1033.537
449.8442, 1035.538
450.3263, 1029.026
450.8084, 1023.340
451.2905, 1020.137
451.7726, 1019.277
452.2548, 1019.862
452.7369, 1022.044
453.2190, 1025.172
453.7011, 1030.169
454.1832, 1036.937
454.6653, 1038.465
455.1475, 1032.800
455.6296, 1024.810
456.1117, 1021.786
456.5938, 1023.382
457.0759, 1026.931
457.5580, 1032.413
458.0402, 1038.663
458.5223, 1044.031
459.0044, 1048.544
459.4865, 1051.028
459.9686, 1050.606
460.4507, 1047.606
460.9329, 1041.855
461.4150, 1030.019
461.8971, 1020.631
462.3792, 1021.796
462.8613, 1030.011
463.3434, 1035.835
463.8256, 1032.540
464.3077, 1027.931
464.7898, 1026.015
465.2719, 1027.573
465.7540, 1030.353
466.2361, 1037.570
466.7183, 1044.205
467.2004, 1044.936
467.6825, 1029.128
468.1646, 1020.021
468.6467, 1023.693
469.1288, 1037.538
469.6109, 1044.853
470.0930, 1043.489
470.5752, 1039.145
471.0573, 1033.768
471.5394, 1026.338
472.0215, 1023.105
472.5036, 1025.323
472.9857, 1029.765
473.4679, 1030.624
473.9500, 1027.735
474.4321, 1028.401
474.9142, 1037.800
475.3963, 1051.389
475.8784, 1055.357
476.3606, 1049.870
476.8427, 1042.659
477.3248, 1038.493
477.8069, 1037.223
478.2890, 1038.807
478.7711, 1043.550
479.2533, 1050.282
479.7354, 1059.962
480.2175, 1070.823
480.6996, 1079.175
481.1817, 1081.773
481.6638, 1082.450
482.1460, 1083.471
482.6281, 1084.895
483.1102, 1085.307
483.5923, 1081.120
484.0744, 1077.474
484.5565, 1078.209
485.0387, 1092.697
485.5208, 1100.453
486.0029, 1094.943
486.4850, 1081.957
486.9671, 1073.873
487.4492, 1071.835
487.9314, 1073.210
488.4135, 1077.467
488.8956, 1084.672
489.3777, 1095.471
489.8598, 1113.405
490.3419, 1128.204
490.8241, 1127.062
491.3062, 1108.500
491.7883, 1098.038
492.2704, 1101.814
492.7525, 1112.858
493.2346, 1117.534
493.7168, 1116.133
494.1989, 1112.807
494.6810, 1108.571
495.1631, 1104.260
495.6452, 1102.009
496.1273, 1102.014
496.6095, 1101.313
497.0916, 1094.564
497.5737, 1086.446
498.0558, 1083.681
498.5379, 1093.403
499.0201, 1102.601
499.5022, 1101.436
499.9843, 1093.685
500.4664, 1090.030
500.9485, 1101.301
501.4306, 1111.532
501.9127, 1112.252
502.3948, 1099.948
502.8770, 1090.404
503.3591, 1085.015
503.8412, 1082.834
504.3233, 1083.029
504.8054, 1084.980
505.2875, 1090.850
505.7697, 1103.041
506.2518, 1118.857
506.7339, 1125.394
507.2160, 1117.348
507.6981, 1118.951
508.1802, 1155.266
508.6624, 1222.466
509.1445, 1240.647
509.6266, 1203.597
510.1087, 1150.815
510.5908, 1120.966
511.0729, 1110.458
511.5551, 1107.268
512.0372, 1110.130
512.5193, 1116.048
513.0014, 1122.566
513.4835, 1129.292
513.9656, 1134.782
514.4478, 1141.746
514.9299, 1144.786
515.4120, 1134.848
515.8941, 1108.745
516.3762, 1093.859
516.8583, 1111.952
517.3405, 1141.442
517.8226, 1162.617
518.3047, 1163.792
518.7868, 1165.712
519.2689, 1174.579
519.7510, 1186.526
520.2332, 1188.665
520.7153, 1170.451
521.1974, 1158.267
521.6795, 1164.335
522.1616, 1191.195
522.6437, 1206.406
523.1259, 1206.100
523.6080, 1202.883
524.0901, 1210.912
524.5722, 1230.191
525.0543, 1243.464
525.5364, 1246.157
526.0186, 1244.825
526.5007, 1252.086
526.9828, 1266.292
527.4649, 1278.865
527.9470, 1283.130
528.4291, 1284.065
528.9113, 1287.625
529.3934, 1293.985
529.8755, 1302.749
530.3576, 1315.309
530.8397, 1329.320
531.3218, 1342.864
531.8040, 1356.395
532.2861, 1367.738
532.7682, 1372.688
533.2503, 1375.219
533.7324, 1382.798
534.2145, 1403.123
534.6967, 1421.730
535.1788, 1433.764
535.6609, 1438.964
536.1430, 1449.554
536.6251, 1466.838
537.1072, 1487.235
537.5894, 1506.674
538.0715, 1523.445
538.5536, 1551.298
539.0357, 1593.345
539.5178, 1642.052
539.9999, 1683.899
540.4821, 1719.654
540.9642, 1763.772
541.4463, 1821.664
541.9284, 1891.613
542.4105, 1970.946
542.8926, 2059.363
543.3748, 2158.298
543.8569, 2270.121
544.3390, 2390.980
544.8211, 2515.595
545.3032, 2641.710
545.7853, 2783.790
546.2675, 2955.457
546.7495, 3145.006
547.2316, 3338.545
547.7137, 3522.970
548.1959, 3721.225
548.6780, 3939.271
549.1601, 4177.014
549.6422, 4435.440
550.1243, 4720.556
550.6064, 5018.213
551.0886, 5322.315
551.5707, 5631.789
552.0528, 5957.779
552.5349, 6297.939
553.0170, 6652.403
553.4991, 7016.926
553.9813, 7392.145
554.4634, 7794.661
554.9455, 8233.550
555.4276, 8691.438
555.9097, 9147.460
556.3918, 9595.092
556.8740, 10017.36
557.3561, 10450.94
557.8382, 10826.11
558.3203, 11099.88
558.8024, 11266.70
559.2845, 11255.26
559.7667, 11009.97
560.2488, 10583.50
560.7309, 10002.95
561.2130, 9211.064
561.6951, 8384.502
562.1772, 7478.498
562.6594, 6575.165
563.1415, 5790.018
563.6236, 5150.508
564.1057, 4601.507
564.5878, 4139.912
565.0699, 3761.663
565.5521, 3421.808
566.0342, 3118.674
566.5163, 2857.345
566.9984, 2643.634
567.4805, 2476.157
567.9626, 2327.952
568.4448, 2197.913
568.9269, 2082.957
569.4090, 1978.732
569.8911, 1886.060
570.3732, 1804.395
570.8553, 1735.768
571.3375, 1675.793
571.8196, 1625.428
572.3017, 1581.614
572.7838, 1539.106
573.2659, 1488.766
573.7480, 1444.679
574.2302, 1416.130
574.7123, 1404.045
575.1944, 1389.871
575.6765, 1369.809
576.1586, 1347.257
576.6407, 1323.752
577.1229, 1296.222
577.6050, 1274.407
578.0871, 1260.645
578.5692, 1250.149
579.0513, 1234.487
579.5334, 1212.121
580.0156, 1197.415
580.4977, 1196.223
580.9798, 1203.033
581.4619, 1205.254
581.9440, 1203.103
582.4261, 1198.672
582.9083, 1192.867
583.3904, 1185.726
583.8725, 1176.791
584.3546, 1166.003
584.8367, 1155.125
585.3188, 1143.332
585.8010, 1132.839
586.2831, 1125.874
586.7652, 1124.108
587.2473, 1124.023
587.7294, 1125.714
588.2115, 1128.319
588.6937, 1130.293
589.1758, 1131.891
589.6579, 1132.584
590.1400, 1133.344
590.6221, 1133.490
591.1042, 1125.817
591.5864, 1106.896
592.0685, 1091.339
592.5506, 1091.823
593.0327, 1106.236
593.5148, 1107.496
593.9969, 1093.002
594.4791, 1078.225
594.9612, 1081.870
595.4433, 1097.025
595.9254, 1109.160
596.4075, 1115.203
596.8896, 1115.952
597.3718, 1107.406
597.8539, 1094.313
598.3360, 1086.382
598.8181, 1090.925
599.3002, 1098.032
599.7823, 1105.154
600.2645, 1112.026
600.7466, 1115.178
601.2287, 1111.796
601.7108, 1107.273
602.1929, 1103.467
602.6750, 1099.651
603.1572, 1100.610
603.6393, 1108.707
604.1214, 1117.051
604.6035, 1116.074
605.0856, 1106.109
605.5677, 1100.661
606.0499, 1102.997
606.5320, 1109.647
607.0141, 1116.650
607.4962, 1123.569
607.9783, 1129.065
608.4604, 1134.424
608.9425, 1136.568
609.4246, 1127.965
609.9067, 1110.869
610.3889, 1102.749
610.8710, 1123.001
611.3531, 1145.593
611.8352, 1153.492
612.3173, 1137.169
612.7994, 1129.942
613.2816, 1141.276
613.7637, 1155.814
614.2458, 1158.034
