##NAMES=Elpasolite
##RRUFFID=R061029
##IDEAL CHEMISTRY=K_2_NaAlF_6_
##LOCALITY=Le Cetine mine, Rosia, Siena Province, Tuscany, Italy
##OWNER=RRUFF
##SOURCE=Michael Scott
##DESCRIPTION=Colorless cubic crystals associated with colorless blades of gypsum
##STATUS=The identification of this mineral has been confirmed only by single crystal X-ray diffraction.
##URL=rruff.info/R061029
180.3460, 5649.788
180.8281, 5676.986
181.3103, 5730.234
181.7924, 5796.371
182.2745, 5836.468
182.7566, 5827.887
183.2387, 5835.453
183.7208, 5892.820
184.2030, 5977.813
184.6851, 6045.936
185.1672, 6076.315
185.6493, 6084.917
186.1314, 6113.740
186.6135, 6170.940
187.0957, 6227.541
187.5778, 6271.352
188.0599, 6308.571
188.5420, 6350.463
189.0241, 6399.973
189.5062, 6459.542
189.9884, 6541.046
190.4705, 6668.078
190.9526, 6765.786
191.4347, 6790.142
191.9168, 6770.062
192.3989, 6763.232
192.8811, 6791.559
193.3632, 6843.038
193.8453, 6895.367
194.3274, 6954.487
194.8095, 7002.458
195.2916, 7023.882
195.7738, 7031.123
196.2559, 7050.566
196.7380, 7094.168
197.2201, 7147.574
197.7022, 7179.439
198.1843, 7183.160
198.6665, 7190.853
199.1486, 7216.497
199.6307, 7251.928
200.1128, 7282.813
200.5949, 7304.144
201.0770, 7319.445
201.5592, 7335.050
202.0413, 7353.057
202.5234, 7365.009
203.0055, 7368.369
203.4876, 7364.057
203.9697, 7352.431
204.4519, 7332.482
204.9340, 7308.554
205.4161, 7287.754
205.8982, 7270.385
206.3803, 7253.058
206.8624, 7238.568
207.3446, 7222.625
207.8267, 7196.145
208.3088, 7154.988
208.7909, 7110.928
209.2730, 7083.585
209.7551, 7076.062
210.2373, 7062.480
210.7194, 7032.257
211.2015, 6994.724
211.6836, 6962.292
212.1657, 6937.647
212.6478, 6917.724
213.1300, 6899.087
213.6121, 6881.522
214.0942, 6866.437
214.5763, 6856.162
215.0584, 6847.642
215.5405, 6837.623
216.0227, 6825.531
216.5048, 6812.384
216.9869, 6800.561
217.4690, 6790.913
217.9511, 6773.750
218.4332, 6733.086
218.9154, 6692.789
219.3975, 6682.942
219.8796, 6707.098
220.3617, 6733.691
220.8438, 6731.844
221.3259, 6697.681
221.8081, 6662.931
222.2902, 6619.582
222.7723, 6581.984
223.2544, 6566.018
223.7365, 6571.447
224.2186, 6579.636
224.7008, 6575.016
225.1829, 6556.374
225.6650, 6538.632
226.1471, 6519.252
226.6292, 6502.641
227.1113, 6493.818
227.5935, 6491.759
228.0756, 6489.830
228.5577, 6483.571
229.0398, 6472.771
229.5219, 6458.933
230.0040, 6431.339
230.4862, 6410.723
230.9683, 6414.897
231.4504, 6437.333
231.9325, 6454.025
232.4146, 6448.484
232.8967, 6423.827
233.3789, 6407.668
233.8610, 6403.671
234.3431, 6402.462
234.8252, 6404.537
235.3073, 6406.965
235.7894, 6402.129
236.2716, 6384.436
236.7537, 6358.448
237.2358, 6344.560
237.7179, 6348.388
238.2000, 6355.649
238.6821, 6364.894
239.1643, 6375.352
239.6464, 6386.337
240.1285, 6397.700
240.6106, 6408.616
241.0927, 6416.640
241.5748, 6427.635
242.0570, 6428.458
242.5391, 6405.902
243.0212, 6377.392
243.5033, 6366.503
243.9854, 6381.252
244.4675, 6406.104
244.9497, 6411.546
245.4318, 6374.240
245.9139, 6353.112
246.3960, 6361.234
246.8781, 6377.805
247.3602, 6384.636
247.8424, 6377.660
248.3245, 6365.422
248.8066, 6359.852
249.2887, 6365.024
249.7708, 6367.079
250.2529, 6361.530
250.7351, 6356.434
251.2172, 6356.560
251.6993, 6362.456
252.1814, 6372.602
252.6635, 6386.532
253.1456, 6406.762
253.6278, 6417.557
254.1099, 6409.556
254.5920, 6401.786
255.0741, 6403.210
255.5562, 6412.638
256.0384, 6424.197
256.5205, 6434.020
257.0026, 6442.230
257.4847, 6442.252
257.9668, 6421.458
258.4489, 6404.956
258.9311, 6400.082
259.4132, 6404.213
259.8953, 6411.880
260.3774, 6420.080
260.8595, 6428.626
261.3416, 6436.895
261.8238, 6449.007
262.3059, 6454.828
262.7880, 6444.533
263.2701, 6429.718
263.7522, 6426.547
264.2343, 6443.824
264.7165, 6470.740
265.1986, 6481.162
265.6807, 6469.359
266.1628, 6452.334
266.6449, 6426.371
267.1270, 6401.260
267.6092, 6384.612
268.0913, 6378.689
268.5734, 6383.161
269.0555, 6403.813
269.5376, 6448.285
270.0197, 6473.996
270.5019, 6453.309
270.9840, 6423.564
271.4661, 6405.370
271.9482, 6401.512
272.4303, 6402.914
272.9124, 6399.206
273.3946, 6390.680
273.8767, 6394.542
274.3588, 6428.155
274.8409, 6457.165
275.3230, 6451.953
275.8051, 6418.599
276.2873, 6392.518
276.7694, 6399.756
277.2515, 6431.603
277.7336, 6459.769
278.2157, 6484.639
278.6978, 6501.692
279.1800, 6505.049
279.6621, 6498.536
280.1442, 6490.275
280.6263, 6481.672
281.1084, 6473.508
281.5905, 6465.464
282.0727, 6456.813
282.5548, 6453.893
283.0369, 6462.860
283.5190, 6480.192
284.0011, 6498.110
284.4832, 6521.915
284.9654, 6539.524
285.4475, 6537.939
285.9296, 6519.718
286.4117, 6499.970
286.8938, 6482.132
287.3759, 6470.279
287.8581, 6473.988
288.3402, 6501.709
288.8223, 6526.148
289.3044, 6538.080
289.7865, 6538.715
290.2686, 6527.186
290.7508, 6501.008
291.2329, 6471.576
291.7150, 6458.263
292.1971, 6465.382
292.6792, 6473.012
293.1613, 6483.485
293.6435, 6490.712
294.1256, 6483.236
294.6077, 6460.421
295.0898, 6440.322
295.5719, 6443.396
296.0540, 6475.283
296.5362, 6502.361
297.0183, 6523.042
297.5004, 6540.435
297.9825, 6558.100
298.4646, 6574.481
298.9467, 6582.872
299.4289, 6576.358
299.9110, 6556.364
300.3931, 6553.414
300.8752, 6590.001
301.3573, 6617.896
301.8394, 6618.762
302.3216, 6605.462
302.8037, 6597.151
303.2858, 6603.264
303.7679, 6621.303
304.2500, 6644.852
304.7321, 6679.938
305.2143, 6711.306
305.6964, 6741.970
306.1785, 6766.325
306.6606, 6779.300
307.1427, 6779.830
307.6248, 6771.366
308.1070, 6755.809
308.5891, 6728.929
309.0712, 6711.744
309.5533, 6710.602
310.0354, 6715.718
310.5175, 6725.644
310.9997, 6738.721
311.4818, 6750.634
311.9639, 6753.102
312.4460, 6748.632
312.9281, 6763.703
313.4102, 6813.853
313.8924, 6859.692
314.3745, 6872.324
314.8566, 6868.234
315.3387, 6878.754
315.8208, 6918.528
316.3029, 6979.468
316.7851, 7052.650
317.2672, 7140.423
317.7493, 7225.780
318.2314, 7297.438
318.7135, 7364.013
319.1956, 7436.121
319.6778, 7513.473
320.1599, 7600.212
320.6420, 7702.734
321.1241, 7818.825
321.6062, 7937.034
322.0883, 8050.904
322.5705, 8170.064
323.0526, 8315.052
323.5347, 8492.092
324.0168, 8651.872
324.4989, 8809.086
324.9810, 8928.959
325.4632, 8965.972
325.9453, 8912.795
326.4274, 8786.416
326.9095, 8590.744
327.3916, 8315.201
327.8737, 8063.369
328.3559, 7832.191
328.8380, 7627.821
329.3201, 7458.061
329.8022, 7319.943
330.2843, 7204.779
330.7664, 7108.456
331.2486, 7030.219
331.7307, 6966.475
332.2128, 6920.083
332.6949, 6885.690
333.1770, 6870.571
333.6591, 6864.244
334.1413, 6857.389
334.6234, 6846.260
335.1055, 6828.463
335.5876, 6797.050
336.0697, 6737.813
336.5518, 6697.483
337.0340, 6688.491
337.5161, 6686.833
337.9982, 6680.069
338.4803, 6666.877
338.9624, 6651.496
339.4445, 6636.242
339.9267, 6621.196
340.4088, 6612.555
340.8909, 6616.069
341.3730, 6618.308
341.8551, 6609.780
342.3372, 6596.818
342.8194, 6591.611
343.3015, 6603.421
343.7836, 6620.752
344.2657, 6621.125
344.7478, 6600.870
345.2299, 6585.744
345.7121, 6590.823
346.1942, 6603.221
346.6763, 6607.313
347.1584, 6599.958
347.6405, 6591.890
348.1227, 6589.403
348.6048, 6591.770
349.0869, 6597.057
349.5690, 6605.329
350.0511, 6615.165
350.5332, 6627.087
351.0154, 6641.377
351.4975, 6647.899
351.9796, 6637.882
352.4617, 6624.013
352.9438, 6619.333
353.4259, 6623.610
353.9081, 6626.480
354.3902, 6619.760
354.8723, 6604.810
355.3544, 6597.047
355.8365, 6604.026
356.3186, 6608.047
356.8008, 6605.192
357.2829, 6595.998
357.7650, 6577.030
358.2471, 6546.889
358.7292, 6517.923
359.2113, 6516.500
359.6935, 6570.395
360.1756, 6601.030
360.6577, 6599.353
361.1398, 6585.153
361.6219, 6567.740
362.1040, 6549.731
362.5862, 6531.757
363.0683, 6512.551
363.5504, 6492.308
364.0325, 6484.011
364.5146, 6492.321
364.9967, 6507.277
365.4789, 6536.386
365.9610, 6566.610
366.4431, 6575.252
366.9252, 6547.263
367.4073, 6505.508
367.8894, 6485.712
368.3716, 6490.004
368.8537, 6494.646
369.3358, 6487.567
369.8179, 6481.539
370.3000, 6490.833
370.7821, 6516.934
371.2643, 6548.200
371.7464, 6585.520
372.2285, 6622.286
372.7106, 6643.874
373.1927, 6647.168
373.6748, 6640.738
374.1570, 6629.232
374.6391, 6612.970
375.1212, 6602.185
375.6033, 6594.903
376.0854, 6595.302
376.5675, 6610.137
377.0497, 6635.354
377.5318, 6660.039
378.0139, 6679.179
378.4960, 6692.556
378.9781, 6699.400
379.4602, 6693.143
379.9424, 6688.362
380.4245, 6687.911
380.9066, 6687.595
381.3887, 6681.274
381.8708, 6669.168
382.3529, 6659.438
382.8351, 6660.786
383.3172, 6673.671
383.7993, 6694.829
384.2814, 6747.816
384.7635, 6784.419
385.2456, 6776.501
385.7278, 6742.537
386.2099, 6717.826
386.6920, 6722.538
387.1741, 6741.634
387.6562, 6745.637
388.1383, 6732.700
388.6205, 6713.098
389.1026, 6682.076
389.5847, 6651.125
390.0668, 6633.688
390.5489, 6632.136
391.0310, 6629.369
391.5132, 6609.507
391.9953, 6581.528
392.4774, 6567.443
392.9595, 6571.909
393.4416, 6582.746
393.9237, 6592.063
394.4059, 6599.189
394.8880, 6599.016
395.3701, 6582.031
395.8522, 6566.252
396.3343, 6563.683
396.8164, 6570.665
397.2986, 6576.378
397.7807, 6575.258
398.2628, 6572.184
398.7449, 6579.264
399.2270, 6611.225
399.7091, 6631.682
400.1913, 6645.519
400.6734, 6644.936
401.1555, 6614.694
401.6376, 6559.777
402.1197, 6507.141
402.6018, 6481.456
403.0840, 6482.185
403.5661, 6488.612
404.0482, 6508.912
404.5303, 6523.868
405.0124, 6524.477
405.4945, 6517.858
405.9767, 6514.561
406.4588, 6519.748
406.9409, 6524.167
407.4230, 6511.398
407.9051, 6481.737
408.3872, 6464.520
408.8694, 6471.208
409.3515, 6487.599
409.8336, 6501.570
410.3157, 6513.071
410.7978, 6517.124
411.2799, 6502.788
411.7621, 6485.149
412.2442, 6483.326
412.7263, 6497.460
413.2084, 6515.021
413.6905, 6529.396
414.1726, 6540.214
414.6548, 6545.718
415.1369, 6535.436
415.6190, 6533.573
416.1011, 6557.315
416.5832, 6586.615
417.0653, 6592.898
417.5475, 6570.644
418.0296, 6543.527
418.5117, 6543.119
418.9938, 6577.104
419.4759, 6600.436
419.9580, 6603.880
420.4402, 6605.726
420.9223, 6615.562
421.4044, 6627.865
421.8865, 6630.476
422.3686, 6615.103
422.8507, 6591.687
423.3329, 6580.265
423.8150, 6582.815
424.2971, 6584.841
424.7792, 6582.384
425.2613, 6577.729
425.7434, 6572.971
426.2256, 6568.209
426.7077, 6563.265
427.1898, 6553.107
427.6719, 6544.604
428.1540, 6554.935
428.6361, 6585.762
429.1183, 6606.717
429.6004, 6591.435
430.0825, 6547.489
430.5646, 6527.109
431.0467, 6549.605
431.5288, 6569.784
432.0110, 6572.636
432.4931, 6566.284
432.9752, 6561.945
433.4573, 6562.839
433.9394, 6564.341
434.4215, 6559.386
434.9037, 6544.918
435.3858, 6537.035
435.8679, 6537.927
436.3500, 6543.240
436.8321, 6558.075
437.3142, 6575.522
437.7964, 6581.262
438.2785, 6565.033
438.7606, 6540.849
439.2427, 6538.180
439.7248, 6561.343
440.2069, 6575.105
440.6891, 6563.431
441.1712, 6544.298
441.6533, 6534.156
442.1354, 6533.167
442.6175, 6538.228
443.0996, 6557.075
443.5818, 6576.671
444.0639, 6573.611
444.5460, 6548.027
445.0281, 6529.196
445.5102, 6538.759
445.9923, 6569.339
446.4745, 6584.132
446.9566, 6576.345
447.4387, 6564.218
447.9208, 6545.479
448.4029, 6526.816
448.8850, 6516.166
449.3672, 6514.708
449.8493, 6516.886
450.3314, 6517.711
450.8135, 6517.618
451.2956, 6510.435
451.7777, 6485.088
452.2599, 6466.433
452.7420, 6468.434
453.2241, 6479.582
453.7062, 6482.425
454.1883, 6469.540
454.6704, 6452.160
455.1526, 6441.703
455.6347, 6438.101
456.1168, 6442.877
456.5989, 6460.739
457.0811, 6479.483
457.5632, 6485.765
458.0453, 6481.292
458.5274, 6474.968
459.0095, 6465.310
459.4916, 6457.001
459.9738, 6454.430
460.4559, 6456.411
460.9380, 6460.853
461.4201, 6467.891
461.9022, 6471.908
462.3843, 6458.836
462.8665, 6403.669
463.3486, 6376.262
463.8307, 6392.454
464.3128, 6421.291
464.7949, 6451.845
465.2770, 6478.018
465.7592, 6490.329
466.2413, 6479.412
466.7234, 6451.786
467.2055, 6427.949
467.6876, 6405.060
468.1697, 6394.602
468.6519, 6416.306
469.1340, 6442.558
469.6161, 6444.775
470.0982, 6418.892
470.5803, 6396.647
471.0624, 6403.516
471.5446, 6422.939
472.0267, 6424.457
472.5088, 6405.130
472.9909, 6381.893
473.4730, 6363.478
473.9551, 6351.018
474.4373, 6352.729
474.9194, 6375.782
475.4015, 6401.145
475.8836, 6436.200
476.3657, 6465.995
476.8478, 6470.188
477.3300, 6447.285
477.8121, 6417.230
478.2942, 6402.132
478.7763, 6402.399
479.2584, 6391.717
479.7405, 6354.960
480.2227, 6329.333
480.7048, 6334.349
481.1869, 6353.261
481.6690, 6363.977
482.1511, 6359.216
482.6332, 6353.104
483.1154, 6359.470
483.5975, 6375.567
484.0796, 6392.574
484.5617, 6410.857
485.0438, 6422.505
485.5259, 6417.379
486.0081, 6396.524
486.4902, 6383.766
486.9723, 6381.088
487.4544, 6384.652
487.9365, 6399.179
488.4186, 6416.981
488.9008, 6424.182
489.3829, 6416.559
489.8650, 6404.545
490.3471, 6403.265
490.8292, 6415.423
491.3113, 6424.829
491.7935, 6431.988
492.2756, 6435.591
492.7577, 6435.276
493.2398, 6431.094
493.7219, 6421.308
494.2040, 6402.882
494.6862, 6386.970
495.1683, 6393.645
495.6504, 6419.168
496.1325, 6428.134
496.6146, 6409.401
497.0967, 6381.387
497.5789, 6360.371
498.0610, 6346.035
498.5431, 6336.101
499.0252, 6333.941
499.5073, 6332.604
499.9894, 6327.336
500.4716, 6320.156
500.9537, 6314.838
501.4358, 6312.841
501.9179, 6314.194
502.4000, 6318.937
502.8821, 6327.003
503.3643, 6338.831
503.8464, 6370.995
504.3285, 6390.165
504.8106, 6373.492
505.2927, 6336.644
505.7748, 6309.142
506.2570, 6304.165
506.7391, 6311.417
507.2212, 6321.845
507.7033, 6334.681
508.1854, 6339.505
508.6675, 6330.980
509.1497, 6320.647
509.6318, 6322.420
510.1139, 6335.552
510.5960, 6342.598
511.0781, 6333.173
511.5602, 6326.053
512.0424, 6336.810
512.5245, 6356.297
513.0066, 6363.785
513.4887, 6351.772
513.9708, 6335.908
514.4529, 6342.832
514.9351, 6381.799
515.4172, 6405.165
515.8993, 6397.918
516.3814, 6389.941
516.8635, 6394.290
517.3456, 6404.786
517.8278, 6409.829
518.3099, 6404.403
518.7920, 6394.523
519.2741, 6385.253
519.7562, 6376.841
520.2383, 6369.440
520.7205, 6361.969
521.2026, 6359.813
521.6847, 6370.570
522.1668, 6394.356
522.6489, 6410.868
523.1310, 6416.929
523.6132, 6419.139
524.0953, 6416.810
524.5774, 6413.471
525.0595, 6414.601
525.5416, 6421.651
526.0237, 6430.680
526.5059, 6437.817
526.9880, 6443.439
527.4701, 6442.309
527.9522, 6428.974
528.4343, 6416.836
528.9164, 6405.471
529.3986, 6400.472
529.8807, 6415.015
530.3628, 6459.145
530.8449, 6493.847
531.3270, 6476.055
531.8091, 6429.730
532.2913, 6409.650
532.7734, 6424.615
533.2555, 6450.534
533.7376, 6470.011
534.2197, 6483.415
534.7018, 6494.571
535.1840, 6503.106
535.6661, 6509.884
536.1482, 6515.377
536.6303, 6518.771
537.1124, 6515.757
537.5945, 6507.925
538.0767, 6505.467
538.5588, 6517.244
539.0409, 6542.024
539.5230, 6577.623
540.0051, 6630.344
540.4872, 6671.944
540.9694, 6685.617
541.4515, 6685.602
541.9336, 6686.407
542.4157, 6686.385
542.8978, 6702.387
543.3799, 6747.190
543.8621, 6806.966
544.3442, 6868.145
544.8263, 6930.342
545.3084, 6996.580
545.7905, 7067.534
546.2726, 7147.182
546.7548, 7246.141
547.2369, 7371.134
547.7190, 7502.851
548.2011, 7622.533
548.6832, 7764.741
549.1653, 7954.300
549.6475, 8182.388
550.1296, 8420.893
550.6117, 8651.710
551.0938, 8890.033
551.5759, 9155.031
552.0580, 9445.996
552.5402, 9746.129
553.0223, 10049.28
553.5044, 10364.00
553.9865, 10701.99
554.4686, 11065.19
554.9507, 11428.94
555.4329, 11820.46
555.9150, 12181.08
556.3971, 12514.61
556.8792, 12792.86
557.3613, 12985.37
557.8434, 13080.63
558.3256, 13072.51
558.8077, 12954.36
559.2898, 12726.06
559.7719, 12377.20
560.2540, 11865.25
560.7361, 11311.89
561.2183, 10742.85
561.7004, 10179.30
562.1825, 9652.863
562.6646, 9156.524
563.1467, 8728.973
563.6288, 8405.313
564.1110, 8149.002
564.5931, 7915.214
565.0752, 7696.948
565.5573, 7498.297
566.0394, 7321.447
566.5215, 7167.056
567.0037, 7039.761
567.4858, 6949.758
567.9679, 6870.918
568.4500, 6800.995
568.9321, 6740.504
569.4142, 6689.492
569.8964, 6648.612
570.3785, 6621.661
570.8606, 6620.990
571.3427, 6623.105
571.8248, 6587.414
572.3069, 6520.145
572.7891, 6467.733
573.2712, 6445.843
573.7533, 6434.773
574.2354, 6410.629
574.7175, 6370.354
575.1996, 6345.354
575.6818, 6350.772
576.1639, 6353.271
576.6460, 6334.202
577.1281, 6308.236
577.6102, 6297.227
578.0923, 6306.109
578.5745, 6318.907
579.0566, 6317.279
579.5387, 6303.186
580.0208, 6294.145
580.5029, 6291.506
580.9850, 6289.389
581.4672, 6285.270
581.9493, 6279.798
582.4314, 6273.455
582.9135, 6264.649
583.3956, 6260.814
583.8777, 6269.028
584.3599, 6279.324
584.8420, 6281.342
585.3241, 6277.060
585.8062, 6276.765
586.2883, 6286.642
586.7704, 6299.091
587.2526, 6296.467
587.7347, 6274.314
588.2168, 6254.064
588.6989, 6231.654
589.1810, 6218.479
589.6631, 6226.924
590.1453, 6248.028
590.6274, 6260.333
591.1095, 6253.114
591.5916, 6245.064
592.0737, 6253.294
592.5558, 6268.476
593.0380, 6272.596
593.5201, 6262.703
594.0022, 6246.620
594.4843, 6229.348
594.9664, 6212.175
595.4485, 6206.146
595.9307, 6219.621
596.4128, 6231.085
596.8949, 6233.211
597.3770, 6236.058
597.8591, 6253.836
598.3412, 6282.016
598.8234, 6295.229
599.3055, 6266.841
599.7876, 6226.113
600.2697, 6216.780
600.7518, 6232.474
601.2339, 6237.063
601.7161, 6217.381
602.1982, 6193.717
602.6803, 6191.163
603.1624, 6212.684
603.6445, 6231.748
604.1266, 6250.569
604.6088, 6264.576
605.0909, 6269.520
605.5730, 6270.682
606.0551, 6274.610
606.5372, 6282.397
607.0193, 6289.043
607.5015, 6288.023
607.9836, 6282.825
608.4657, 6284.257
608.9478, 6292.765
609.4299, 6300.108
609.9120, 6303.545
610.3942, 6302.536
610.8763, 6294.274
611.3584, 6272.580
611.8405, 6264.013
612.3226, 6284.320
612.8047, 6302.535
613.2869, 6298.801
613.7690, 6283.003
614.2511, 6274.030
614.7332, 6278.829
615.2153, 6286.942
615.6974, 6285.101
616.1796, 6274.824
616.6617, 6266.337
617.1438, 6259.642
617.6259, 6257.537
618.1080, 6264.284
618.5901, 6275.458
619.0723, 6278.987
619.5544, 6269.869
620.0365, 6266.335
620.5186, 6277.624
621.0007, 6290.082
621.4828, 6293.283
621.9650, 6289.176
622.4471, 6284.810
622.9292, 6283.758
623.4113, 6283.289
623.8934, 6278.300
624.3755, 6268.808
624.8577, 6261.208
625.3398, 6256.280
625.8219, 6252.803
626.3040, 6247.670
626.7861, 6243.958
627.2682, 6250.494
627.7504, 6273.536
628.2325, 6295.648
628.7146, 6319.529
629.1967, 6335.130
629.6788, 6327.736
630.1609, 6302.490
630.6431, 6278.530
631.1252, 6267.173
631.6073, 6264.069
632.0894, 6261.165
632.5715, 6258.490
633.0536, 6255.087
633.5358, 6249.169
634.0179, 6245.544
634.5000, 6252.117
634.9821, 6263.881
635.4642, 6264.038
635.9464, 6237.364
636.4285, 6220.259
636.9106, 6238.618
637.3927, 6263.028
637.8748, 6254.220
638.3569, 6218.363
638.8391, 6200.618
639.3212, 6234.611
639.8033, 6293.469
640.2854, 6309.185
640.7675, 6276.256
641.2496, 6250.203
641.7318, 6240.985
642.2139, 6238.868
642.6960, 6239.562
643.1781, 6241.569
643.6602, 6239.059
644.1423, 6223.289
644.6245, 6214.264
645.1066, 6223.109
645.5887, 6239.309
646.0708, 6257.036
646.5529, 6272.008
647.0350, 6271.393
647.5172, 6241.307
647.9993, 6203.134
648.4814, 6220.895
648.9635, 6303.133
649.4456, 6349.057
649.9277, 6331.263
650.4099, 6290.361
650.8920, 6250.884
651.3741, 6214.898
651.8562, 6191.264
652.3383, 6183.284
652.8204, 6184.146
653.3026, 6195.521
653.7847, 6212.349
654.2668, 6235.160
654.7489, 6259.373
655.2310, 6270.986
655.7131, 6258.655
656.1953, 6232.798
656.6774, 6212.939
657.1595, 6198.933
657.6416, 6197.469
658.1237, 6214.033
658.6058, 6233.943
659.0880, 6249.549
659.5701, 6258.828
660.0522, 6253.060
660.5343, 6213.260
661.0164, 6184.005
661.4985, 6173.541
661.9807, 6178.141
662.4628, 6205.626
662.9449, 6246.310
663.4270, 6271.136
663.9091, 6259.841
664.3912, 6232.351
664.8734, 6224.689
665.3555, 6234.441
665.8376, 6230.270
666.3197, 6203.345
666.8018, 6176.994
667.2839, 6169.186
667.7661, 6176.715
668.2482, 6182.760
668.7303, 6197.962
669.2124, 6196.762
669.6945, 6155.851
670.1766, 6115.995
670.6588, 6110.405
671.1409, 6130.529
671.6230, 6147.394
672.1051, 6147.329
672.5872, 6138.593
673.0693, 6126.745
673.5515, 6114.294
674.0336, 6112.889
674.5157, 6124.599
674.9978, 6136.744
675.4799, 6140.168
675.9620, 6138.513
676.4442, 6144.328
676.9263, 6170.777
677.4084, 6182.173
