##NAMES=Elpidite
##RRUFFID=R060064
##IDEAL CHEMISTRY=Na_2_Zr^4+^Si_6_O_15_&#183;3H_2_O
##LOCALITY=Narsarsuk, Greenland
##OWNER=RRUFF
##SOURCE=University of Arizona Mineral Museum
##DESCRIPTION=Tan colored elongated prismatic crystals
##STATUS=The identification of this mineral has been confirmed by X-ray diffraction and chemical analysis
##URL=rruff.info/R060064
90.26367, 35.50319
90.74579, 35.40935
91.22791, 35.45789
91.71002, 35.63197
92.19214, 35.78297
92.67426, 35.73436
93.15637, 35.56072
93.63850, 35.45912
94.12061, 35.49089
94.60273, 35.63768
95.08485, 35.93726
95.56696, 36.42096
96.04908, 36.82745
96.53120, 36.76463
97.01331, 36.25594
97.49543, 35.75011
97.97755, 35.40090
98.45966, 35.21060
98.94178, 35.19615
99.42390, 35.40693
99.90602, 35.72196
100.3881, 35.46382
100.8703, 34.07905
101.3524, 34.13781
101.8345, 37.88290
102.3166, 46.79102
102.7987, 52.89137
103.2808, 55.34220
103.7630, 54.59315
104.2451, 52.23500
104.7272, 47.04707
105.2093, 41.83301
105.6914, 38.33294
106.1735, 37.09131
106.6557, 36.71852
107.1378, 37.39521
107.6199, 39.17395
108.1020, 40.39368
108.5841, 40.36912
109.0662, 40.15337
109.5484, 40.68956
110.0305, 42.80968
110.5126, 44.86077
110.9947, 46.40086
111.4768, 47.20458
111.9590, 48.59159
112.4411, 51.09912
112.9232, 54.16820
113.4053, 57.00511
113.8874, 58.78511
114.3695, 60.88994
114.8517, 63.83827
115.3338, 67.82502
115.8159, 72.30217
116.2980, 77.11604
116.7801, 82.35313
117.2622, 88.14309
117.7444, 94.53486
118.2265, 101.5440
118.7086, 109.0829
119.1907, 116.8705
119.6728, 125.7298
120.1549, 136.0387
120.6371, 147.7861
121.1192, 160.9841
121.6013, 176.3203
122.0834, 192.7651
122.5655, 209.1094
123.0477, 224.8813
123.5298, 240.5007
124.0119, 256.6301
124.4940, 273.1972
124.9761, 289.2475
125.4582, 303.7253
125.9404, 317.0405
126.4225, 329.8651
126.9046, 342.4984
127.3867, 354.7886
127.8688, 366.0830
128.3509, 376.2430
128.8331, 386.7577
129.3152, 398.9332
129.7973, 412.8193
130.2794, 428.2993
130.7615, 445.7938
131.2436, 464.9277
131.7258, 484.0659
132.2079, 502.9915
132.6900, 522.3791
133.1721, 543.5403
133.6542, 566.4037
134.1364, 589.6984
134.6185, 613.2598
135.1006, 637.1466
135.5827, 660.1426
136.0648, 682.3369
136.5469, 703.6400
137.0291, 723.9695
137.5112, 743.2616
137.9933, 761.2847
138.4754, 778.0521
138.9575, 793.3785
139.4396, 807.6122
139.9218, 820.3316
140.4039, 831.9249
140.8860, 844.0433
141.3681, 856.6584
141.8502, 869.7209
142.3323, 882.9838
142.8145, 896.9332
143.2966, 910.2374
143.7787, 922.1423
144.2608, 932.7965
144.7429, 944.8152
145.2251, 958.4114
145.7072, 973.3351
146.1893, 989.5339
146.6714, 1007.992
147.1535, 1026.202
147.6356, 1043.295
148.1178, 1058.860
148.5999, 1075.650
149.0820, 1093.775
149.5641, 1113.026
150.0462, 1132.997
150.5283, 1154.662
151.0105, 1175.825
151.4926, 1185.207
151.9747, 1191.664
152.4568, 1197.892
152.9389, 1204.434
153.4210, 1210.679
153.9032, 1215.860
154.3853, 1218.542
154.8674, 1221.290
155.3495, 1225.026
155.8316, 1230.509
156.3138, 1235.411
156.7959, 1239.518
157.2780, 1242.809
157.7601, 1245.223
158.2422, 1244.824
158.7243, 1244.962
159.2065, 1247.416
159.6886, 1253.828
160.1707, 1260.042
160.6528, 1264.433
161.1349, 1267.647
161.6170, 1271.416
162.0992, 1277.016
162.5813, 1282.953
163.0634, 1288.189
163.5455, 1291.853
164.0276, 1295.650
164.5097, 1300.604
164.9919, 1306.418
165.4740, 1311.938
165.9561, 1316.562
166.4382, 1320.663
166.9203, 1324.609
167.4025, 1328.176
167.8846, 1331.966
168.3667, 1336.541
168.8488, 1341.802
169.3309, 1347.091
169.8130, 1352.001
170.2952, 1356.723
170.7773, 1361.423
171.2594, 1366.051
171.7415, 1370.779
172.2236, 1376.016
172.7057, 1381.701
173.1879, 1387.064
173.6700, 1390.971
174.1521, 1394.211
174.6342, 1398.135
175.1163, 1404.362
175.5984, 1411.009
176.0806, 1415.395
176.5627, 1417.519
177.0448, 1419.545
177.5269, 1423.795
178.0090, 1429.432
178.4911, 1434.591
178.9733, 1437.987
179.4554, 1440.526
179.9375, 1443.794
180.4196, 1447.854
180.9017, 1451.988
181.3839, 1455.460
181.8660, 1458.370
182.3481, 1461.155
182.8302, 1463.919
183.3123, 1466.725
183.7944, 1469.706
184.2766, 1472.930
184.7587, 1476.255
185.2408, 1479.682
185.7229, 1483.150
186.2050, 1486.432
186.6871, 1489.471
187.1693, 1492.249
187.6514, 1494.343
188.1335, 1495.594
188.6156, 1496.696
189.0977, 1498.543
189.5798, 1501.107
190.0620, 1504.304
190.5441, 1508.713
191.0262, 1513.991
191.5083, 1517.803
191.9904, 1519.821
192.4725, 1520.926
192.9547, 1522.428
193.4368, 1524.339
193.9189, 1526.750
194.4010, 1530.030
194.8831, 1534.106
195.3652, 1537.448
195.8474, 1539.602
196.3295, 1541.580
196.8116, 1545.615
197.2937, 1551.866
197.7758, 1558.499
198.2579, 1564.225
198.7401, 1569.005
199.2222, 1574.585
199.7043, 1581.131
200.1864, 1588.350
200.6685, 1595.866
201.1507, 1603.766
201.6328, 1611.275
202.1149, 1617.623
202.5970, 1622.616
203.0791, 1628.436
203.5612, 1635.426
204.0434, 1643.156
204.5255, 1650.395
205.0076, 1657.083
205.4897, 1663.530
205.9718, 1669.917
206.4539, 1676.266
206.9361, 1682.488
207.4182, 1688.516
207.9003, 1694.449
208.3824, 1700.820
208.8645, 1707.791
209.3466, 1714.856
209.8288, 1722.180
210.3109, 1730.309
210.7930, 1736.261
211.2751, 1739.386
211.7572, 1740.244
212.2393, 1740.814
212.7215, 1740.898
213.2036, 1741.093
213.6857, 1741.865
214.1678, 1743.469
214.6499, 1744.780
215.1321, 1745.796
215.6142, 1746.428
216.0963, 1746.311
216.5784, 1745.360
217.0605, 1743.813
217.5426, 1741.662
218.0248, 1738.586
218.5069, 1735.921
218.9890, 1733.821
219.4711, 1732.234
219.9532, 1731.024
220.4353, 1730.755
220.9175, 1729.954
221.3996, 1727.434
221.8817, 1722.260
222.3638, 1717.898
222.8459, 1714.762
223.3280, 1712.693
223.8102, 1711.205
224.2923, 1710.714
224.7744, 1710.110
225.2565, 1708.564
225.7386, 1705.424
226.2208, 1702.954
226.7029, 1701.869
227.1850, 1701.671
227.6671, 1699.706
228.1492, 1694.903
228.6313, 1689.849
229.1135, 1686.289
229.5956, 1685.291
230.0777, 1683.315
230.5598, 1679.845
231.0419, 1675.167
231.5240, 1670.453
232.0062, 1665.185
232.4883, 1660.622
232.9704, 1657.799
233.4525, 1658.186
233.9346, 1657.056
234.4167, 1653.400
234.8989, 1647.889
235.3810, 1643.721
235.8631, 1641.422
236.3452, 1639.679
236.8273, 1637.788
237.3095, 1635.918
237.7916, 1633.432
238.2737, 1629.912
238.7558, 1625.688
239.2379, 1622.168
239.7200, 1619.713
240.2022, 1617.436
240.6843, 1614.882
241.1664, 1612.125
241.6485, 1608.952
242.1306, 1605.437
242.6127, 1601.509
243.0949, 1596.870
243.5770, 1590.805
244.0591, 1585.069
244.5412, 1580.842
245.0233, 1579.421
245.5054, 1576.536
245.9876, 1571.229
246.4697, 1564.525
246.9518, 1559.615
247.4339, 1557.592
247.9160, 1555.724
248.3981, 1552.572
248.8803, 1547.086
249.3624, 1542.807
249.8445, 1540.303
250.3266, 1538.878
250.8087, 1536.536
251.2909, 1532.582
251.7730, 1528.796
252.2551, 1526.032
252.7372, 1524.581
253.2193, 1523.337
253.7014, 1522.476
254.1836, 1521.744
254.6657, 1520.475
255.1478, 1518.224
255.6299, 1516.230
256.1120, 1515.090
256.5941, 1515.197
257.0763, 1514.988
257.5584, 1514.493
258.0405, 1513.685
258.5226, 1512.388
259.0047, 1510.170
259.4868, 1508.357
259.9690, 1507.615
260.4511, 1508.292
260.9332, 1508.386
261.4153, 1507.473
261.8974, 1506.348
262.3795, 1506.455
262.8617, 1508.255
263.3438, 1510.164
263.8259, 1511.656
264.3080, 1512.651
264.7901, 1513.651
265.2722, 1514.540
265.7544, 1515.553
266.2365, 1517.204
266.7186, 1519.886
267.2007, 1521.941
267.6829, 1522.510
268.1650, 1521.456
268.6471, 1521.672
269.1292, 1523.449
269.6113, 1526.051
270.0934, 1528.890
270.5756, 1532.365
271.0577, 1534.587
271.5398, 1534.568
272.0219, 1532.409
272.5040, 1531.581
272.9861, 1532.275
273.4683, 1533.887
273.9504, 1535.981
274.4325, 1538.653
274.9146, 1541.204
275.3967, 1543.518
275.8788, 1545.588
276.3610, 1547.318
276.8431, 1548.796
277.3252, 1549.624
277.8073, 1549.174
278.2894, 1547.328
278.7715, 1545.769
279.2537, 1545.133
279.7358, 1544.990
280.2179, 1543.257
280.7000, 1539.662
281.1821, 1535.744
281.6642, 1532.839
282.1464, 1530.959
282.6285, 1528.663
283.1106, 1525.657
283.5927, 1522.130
284.0748, 1518.480
284.5569, 1514.647
285.0391, 1510.983
285.5212, 1507.633
286.0033, 1504.583
286.4854, 1501.996
286.9675, 1500.097
287.4496, 1498.305
287.9318, 1495.182
288.4139, 1490.672
288.8960, 1486.405
289.3781, 1483.279
289.8602, 1481.179
290.3424, 1479.639
290.8245, 1478.803
291.3066, 1478.097
291.7887, 1476.570
292.2708, 1474.299
292.7530, 1471.916
293.2351, 1469.808
293.7172, 1467.875
294.1993, 1465.696
294.6814, 1463.122
295.1635, 1460.864
295.6457, 1460.056
296.1278, 1460.427
296.6099, 1460.867
297.0920, 1460.885
297.5741, 1460.604
298.0562, 1460.165
298.5384, 1459.549
299.0205, 1459.052
299.5026, 1458.953
299.9847, 1459.211
300.4668, 1459.727
300.9489, 1460.981
301.4311, 1462.215
301.9132, 1461.877
302.3953, 1460.050
302.8774, 1458.675
303.3595, 1459.827
303.8416, 1462.440
304.3238, 1464.674
304.8059, 1465.821
305.2880, 1466.427
305.7701, 1466.541
306.2522, 1466.339
306.7343, 1466.910
307.2165, 1470.049
307.6986, 1474.011
308.1807, 1476.535
308.6628, 1476.550
309.1449, 1475.850
309.6270, 1475.340
310.1092, 1475.138
310.5913, 1475.665
311.0734, 1477.707
311.5555, 1480.259
312.0376, 1482.484
312.5197, 1484.275
313.0019, 1485.586
313.4840, 1486.279
313.9661, 1486.500
314.4482, 1486.563
314.9304, 1486.375
315.4125, 1486.252
315.8946, 1486.485
316.3767, 1487.220
316.8588, 1487.808
317.3409, 1488.270
317.8231, 1488.382
318.3052, 1487.850
318.7873, 1486.456
319.2694, 1484.523
319.7515, 1481.961
320.2336, 1478.714
320.7158, 1475.737
321.1979, 1473.563
321.6800, 1471.677
322.1621, 1469.623
322.6442, 1466.824
323.1263, 1464.327
323.6085, 1462.674
324.0906, 1461.776
324.5727, 1460.266
325.0548, 1456.996
325.5369, 1453.694
326.0190, 1451.418
326.5012, 1451.723
326.9833, 1451.361
327.4654, 1450.265
327.9475, 1448.379
328.4296, 1445.446
328.9117, 1439.274
329.3939, 1433.995
329.8760, 1431.377
330.3581, 1433.327
330.8402, 1434.398
331.3223, 1434.392
331.8044, 1433.528
332.2866, 1432.259
332.7687, 1430.602
333.2508, 1428.453
333.7329, 1425.685
334.2150, 1422.150
334.6971, 1418.518
335.1793, 1414.615
335.6614, 1410.744
336.1435, 1407.291
336.6256, 1404.162
337.1077, 1401.755
337.5899, 1400.514
338.0720, 1400.357
338.5541, 1399.445
339.0362, 1397.615
339.5183, 1395.490
340.0005, 1393.719
340.4826, 1392.391
340.9647, 1390.745
341.4468, 1388.442
341.9289, 1385.857
342.4110, 1384.218
342.8932, 1383.607
343.3753, 1383.400
343.8574, 1383.338
344.3395, 1383.370
344.8216, 1382.961
345.3037, 1381.916
345.7859, 1380.613
346.2680, 1379.709
346.7501, 1379.167
347.2322, 1378.749
347.7143, 1378.466
348.1964, 1378.204
348.6786, 1377.543
349.1607, 1376.410
349.6428, 1375.162
350.1249, 1374.198
350.6070, 1373.452
351.0891, 1372.685
351.5713, 1371.674
352.0534, 1370.679
352.5355, 1370.237
353.0176, 1370.338
353.4997, 1370.294
353.9818, 1369.079
354.4640, 1367.490
354.9461, 1366.817
355.4282, 1368.019
355.9103, 1369.531
356.3924, 1369.866
356.8745, 1369.290
357.3567, 1368.844
357.8388, 1369.270
358.3209, 1370.002
358.8030, 1370.488
359.2851, 1370.443
359.7672, 1370.662
360.2494, 1371.776
360.7315, 1373.441
361.2136, 1375.002
361.6957, 1376.334
362.1779, 1377.413
362.6600, 1378.276
363.1421, 1378.950
363.6242, 1379.146
364.1063, 1378.022
364.5884, 1376.661
365.0706, 1376.178
365.5527, 1377.802
366.0348, 1379.245
366.5169, 1379.656
366.9990, 1379.122
367.4811, 1379.381
367.9633, 1381.890
368.4454, 1384.340
368.9275, 1385.373
369.4096, 1383.275
369.8917, 1382.121
370.3738, 1382.515
370.8560, 1383.879
371.3381, 1384.615
371.8202, 1384.566
372.3023, 1384.105
372.7844, 1383.175
373.2665, 1381.398
373.7487, 1380.844
374.2308, 1382.184
374.7129, 1384.082
375.1950, 1384.609
375.6771, 1383.278
376.1592, 1382.162
376.6414, 1381.905
377.1235, 1382.402
377.6056, 1382.463
378.0877, 1381.984
378.5698, 1381.443
379.0519, 1381.459
379.5341, 1382.046
380.0162, 1381.799
380.4983, 1380.072
380.9804, 1377.871
381.4625, 1377.670
381.9446, 1379.428
382.4268, 1381.690
382.9089, 1384.058
383.3910, 1386.258
383.8731, 1387.209
384.3553, 1386.605
384.8374, 1385.765
385.3195, 1386.377
385.8016, 1388.039
386.2837, 1389.592
386.7658, 1390.362
387.2480, 1390.801
387.7301, 1391.575
388.2122, 1392.662
388.6943, 1393.553
389.1764, 1393.397
389.6585, 1392.976
390.1407, 1393.397
390.6228, 1395.819
391.1049, 1397.932
391.5870, 1397.734
392.0691, 1395.889
392.5512, 1394.400
393.0334, 1393.431
393.5155, 1393.638
393.9976, 1395.943
394.4797, 1401.384
394.9618, 1405.717
395.4439, 1406.898
395.9261, 1406.392
396.4082, 1406.151
396.8903, 1407.245
397.3724, 1408.006
397.8545, 1407.746
398.3366, 1406.406
398.8188, 1405.522
399.3009, 1406.094
399.7830, 1406.556
400.2651, 1405.845
400.7472, 1402.199
401.2293, 1400.041
401.7115, 1400.085
402.1936, 1401.692
402.6757, 1403.056
403.1578, 1404.469
403.6399, 1405.105
404.1220, 1404.276
404.6042, 1401.510
405.0863, 1400.251
405.5684, 1401.232
406.0505, 1402.561
406.5326, 1401.282
407.0147, 1396.916
407.4969, 1393.608
407.9790, 1392.580
408.4611, 1393.424
408.9432, 1394.941
409.4254, 1397.250
409.9075, 1398.956
410.3896, 1398.391
410.8717, 1396.135
411.3538, 1394.769
411.8359, 1394.744
412.3181, 1395.579
412.8002, 1397.050
413.2823, 1398.925
413.7644, 1400.387
414.2465, 1400.323
414.7286, 1399.877
415.2108, 1400.944
415.6929, 1403.645
416.1750, 1406.004
416.6571, 1406.448
417.1392, 1405.637
417.6213, 1404.412
418.1035, 1401.758
418.5856, 1400.163
419.0677, 1401.814
419.5498, 1405.963
420.0319, 1409.736
420.5140, 1412.463
420.9962, 1414.150
421.4783, 1414.627
421.9604, 1413.360
422.4425, 1412.289
422.9246, 1411.854
423.4067, 1411.855
423.8889, 1412.016
424.3710, 1412.128
424.8531, 1412.591
425.3352, 1413.572
425.8173, 1415.068
426.2994, 1416.572
426.7816, 1418.104
427.2637, 1419.609
427.7458, 1421.074
428.2279, 1422.609
428.7100, 1423.843
429.1921, 1424.640
429.6743, 1425.191
430.1564, 1425.953
430.6385, 1427.012
431.1206, 1427.940
431.6028, 1428.377
432.0849, 1428.374
432.5670, 1429.215
433.0491, 1431.075
433.5312, 1433.082
434.0133, 1434.267
434.4955, 1434.745
434.9776, 1435.253
435.4597, 1435.934
435.9418, 1436.807
436.4239, 1437.956
436.9060, 1439.346
437.3882, 1440.787
437.8703, 1442.294
438.3524, 1443.714
438.8345, 1444.717
439.3166, 1445.185
439.7987, 1445.720
440.2809, 1446.669
440.7630, 1448.013
441.2451, 1449.714
441.7272, 1452.636
442.2093, 1455.109
442.6914, 1455.904
443.1736, 1455.261
443.6557, 1454.838
444.1378, 1455.064
444.6199, 1455.842
445.1020, 1457.158
445.5841, 1459.234
446.0663, 1461.450
446.5484, 1463.995
447.0305, 1466.607
447.5126, 1468.839
447.9947, 1470.056
448.4768, 1471.628
448.9590, 1473.818
449.4411, 1476.614
449.9232, 1479.944
450.4053, 1483.982
450.8874, 1488.308
451.3695, 1492.515
451.8517, 1496.492
452.3338, 1500.900
452.8159, 1505.888
453.2980, 1511.133
453.7801, 1515.851
454.2622, 1519.917
454.7444, 1524.634
455.2265, 1530.564
455.7086, 1537.627
456.1907, 1545.625
456.6729, 1554.775
457.1550, 1563.428
457.6371, 1569.372
458.1192, 1573.808
458.6013, 1580.038
459.0834, 1589.493
459.5656, 1599.729
460.0477, 1607.650
460.5298, 1614.088
461.0119, 1621.078
461.4940, 1630.613
461.9761, 1640.674
462.4583, 1649.724
462.9404, 1657.685
463.4225, 1665.137
463.9046, 1672.294
464.3867, 1679.162
464.8688, 1685.581
465.3510, 1692.654
465.8331, 1698.104
466.3152, 1700.756
466.7973, 1701.259
467.2794, 1701.930
467.7615, 1703.283
468.2437, 1704.498
468.7258, 1705.592
469.2079, 1706.995
469.6900, 1706.201
470.1721, 1702.539
470.6542, 1697.389
471.1364, 1692.148
471.6185, 1686.906
472.1006, 1681.162
472.5827, 1674.738
473.0648, 1667.810
473.5469, 1661.092
474.0291, 1654.666
474.5112, 1647.549
474.9933, 1638.706
475.4754, 1628.610
475.9575, 1618.970
476.4396, 1609.736
476.9218, 1601.820
477.4039, 1597.299
477.8860, 1594.885
478.3681, 1591.571
478.8503, 1585.861
479.3324, 1579.512
479.8145, 1573.954
480.2966, 1569.100
480.7787, 1564.894
481.2608, 1561.695
481.7430, 1558.718
482.2251, 1555.344
482.7072, 1551.392
483.1893, 1547.664
483.6714, 1544.161
484.1535, 1541.146
484.6357, 1538.879
485.1178, 1538.196
485.5999, 1537.366
486.0820, 1535.881
486.5641, 1534.037
487.0462, 1532.824
487.5284, 1532.197
488.0105, 1532.323
488.4926, 1533.445
488.9747, 1535.766
489.4568, 1537.754
489.9389, 1539.271
490.4211, 1540.681
490.9032, 1542.366
491.3853, 1544.344
491.8674, 1546.219
492.3495, 1547.616
492.8316, 1549.172
493.3138, 1552.662
493.7959, 1557.919
494.2780, 1563.061
494.7601, 1566.695
495.2422, 1569.499
495.7243, 1572.730
496.2065, 1576.499
496.6886, 1580.143
497.1707, 1582.712
497.6528, 1585.032
498.1349, 1588.294
498.6170, 1593.450
499.0992, 1598.748
499.5813, 1603.412
500.0634, 1607.530
500.5455, 1611.379
501.0276, 1614.628
501.5097, 1617.988
501.9919, 1622.014
502.4740, 1626.925
502.9561, 1630.997
503.4382, 1633.945
503.9203, 1636.180
504.4025, 1637.977
504.8846, 1639.305
505.3667, 1640.247
505.8488, 1640.830
506.3309, 1641.018
506.8130, 1640.655
507.2952, 1639.671
507.7773, 1638.506
508.2594, 1637.315
508.7415, 1636.098
509.2236, 1634.813
509.7057, 1633.479
510.1879, 1631.916
510.6700, 1630.170
511.1521, 1628.080
511.6342, 1624.949
512.1163, 1620.483
512.5984, 1615.780
513.0806, 1611.981
513.5627, 1608.813
514.0448, 1605.706
514.5269, 1602.312
515.0090, 1598.958
515.4911, 1596.150
515.9733, 1593.701
516.4554, 1590.569
516.9375, 1585.400
517.4196, 1580.064
517.9017, 1575.782
518.3839, 1573.367
518.8660, 1570.312
519.3481, 1565.674
519.8302, 1560.593
520.3123, 1556.360
520.7944, 1553.275
521.2766, 1550.478
521.7587, 1547.887
522.2408, 1545.525
522.7229, 1543.447
523.2050, 1541.823
523.6871, 1539.968
524.1693, 1537.169
524.6514, 1533.632
525.1335, 1531.277
525.6156, 1530.177
526.0977, 1529.793
526.5798, 1530.072
527.0620, 1530.644
527.5441, 1530.304
528.0262, 1528.468
528.5083, 1526.210
528.9904, 1524.294
529.4725, 1522.825
529.9547, 1522.104
530.4368, 1523.349
530.9189, 1524.511
531.4010, 1524.124
531.8831, 1522.137
532.3652, 1519.960
532.8474, 1518.044
533.3295, 1516.055
533.8116, 1513.726
534.2937, 1510.635
534.7758, 1507.935
535.2579, 1505.867
535.7401, 1504.129
536.2222, 1502.523
536.7043, 1501.629
537.1865, 1499.424
537.6686, 1494.984
538.1507, 1488.981
538.6328, 1484.688
539.1149, 1482.222
539.5970, 1480.601
540.0792, 1479.473
540.5613, 1478.738
541.0434, 1477.943
541.5255, 1477.037
542.0076, 1476.346
542.4897, 1476.572
542.9719, 1477.177
543.4540, 1476.997
543.9361, 1475.212
544.4182, 1473.391
544.9003, 1472.857
545.3824, 1473.208
545.8646, 1473.569
546.3467, 1473.214
546.8288, 1473.098
547.3109, 1474.071
547.7930, 1476.176
548.2751, 1477.163
548.7573, 1475.583
549.2394, 1473.664
549.7215, 1472.656
550.2036, 1473.227
550.6857, 1473.180
551.1678, 1472.132
551.6500, 1470.890
552.1321, 1470.487
552.6142, 1470.928
553.0963, 1472.451
553.5784, 1475.822
554.0605, 1479.728
554.5427, 1480.372
555.0248, 1477.900
555.5069, 1474.845
555.9890, 1472.295
556.4711, 1470.314
556.9532, 1468.994
557.4354, 1468.334
557.9175, 1468.439
558.3996, 1470.354
558.8817, 1472.627
559.3638, 1473.459
559.8459, 1471.367
560.3281, 1469.948
560.8102, 1471.624
561.2923, 1474.676
561.7744, 1476.397
562.2565, 1474.541
562.7386, 1473.261
563.2208, 1473.882
563.7029, 1476.021
564.1850, 1476.914
564.6671, 1476.035
565.1492, 1474.853
565.6313, 1474.004
566.1135, 1473.504
566.5956, 1473.240
567.0777, 1473.207
567.5598, 1473.429
568.0419, 1474.032
568.5240, 1474.933
569.0062, 1475.784
569.4883, 1476.510
569.9704, 1477.141
570.4525, 1477.608
570.9346, 1478.001
571.4167, 1478.530
571.8989, 1479.475
572.3810, 1480.452
572.8631, 1481.217
573.3452, 1481.781
573.8273, 1482.287
574.3094, 1483.018
574.7916, 1483.530
575.2737, 1483.374
575.7558, 1481.925
576.2379, 1481.755
576.7200, 1483.802
577.2021, 1486.397
577.6843, 1488.036
578.1664, 1488.299
578.6485, 1488.785
579.1306, 1489.698
579.6127, 1490.851
580.0948, 1491.942
580.5770, 1492.958
581.0591, 1493.900
581.5412, 1494.716
582.0233, 1495.474
582.5054, 1496.483
582.9875, 1497.661
583.4697, 1498.483
583.9518, 1498.062
584.4340, 1497.374
584.9161, 1497.625
585.3982, 1499.060
585.8803, 1500.414
586.3624, 1501.308
586.8445, 1501.712
587.3267, 1501.594
587.8088, 1500.111
