##NAMES=Elpidite
##RRUFFID=R060200
##IDEAL CHEMISTRY=Na_2_Zr^4+^Si_6_O_15_&#183;3H_2_O
##LOCALITY=Poudrette Quarry, Mont Saint-Hilaire, Rouville County, Quebec, Canada
##OWNER=RRUFF
##SOURCE=Royal Ontario Museum
##DESCRIPTION=Tan colored columnar aggregate of elongated prismatic fibers
##STATUS=The identification of this mineral has been confirmed by single-crystal X-ray diffraction.
##URL=rruff.info/R060200
92.07813, 15.12167
92.56024, 15.21787
93.04236, 15.18602
93.52448, 15.04396
94.00659, 14.85771
94.48871, 14.65046
94.97083, 14.42710
95.45294, 14.18447
95.93506, 13.91122
96.41718, 13.64571
96.89929, 13.39158
97.38141, 13.14833
97.86353, 13.09947
98.34564, 13.65651
98.82776, 14.75876
99.30988, 15.15736
99.79199, 14.40445
100.2741, 12.88796
100.7562, 12.19944
101.2383, 12.60631
101.7205, 13.09450
102.2026, 12.53266
102.6847, 10.48900
103.1668, 9.093472
103.6489, 8.909667
104.1310, 9.966038
104.6132, 11.04974
105.0953, 12.41774
105.5774, 13.55940
106.0595, 13.77315
106.5416, 12.54355
107.0237, 11.16324
107.5059, 9.791040
107.9880, 8.127624
108.4701, 7.467012
108.9522, 8.586329
109.4343, 10.55692
109.9164, 11.71317
110.3986, 10.92722
110.8807, 10.25591
111.3628, 10.39793
111.8449, 12.35281
112.3270, 13.51062
112.8091, 13.19061
113.2913, 11.88843
113.7734, 11.00251
114.2555, 10.78885
114.7376, 11.01764
115.2197, 11.57967
115.7018, 12.88278
116.1840, 14.03193
116.6661, 14.59159
117.1482, 14.70188
117.6303, 15.08928
118.1124, 16.26164
118.5945, 17.73046
119.0767, 19.06451
119.5588, 19.96221
120.0409, 20.84413
120.5230, 21.96585
121.0051, 23.31046
121.4872, 24.62920
121.9694, 25.28871
122.4515, 25.90926
122.9336, 27.35785
123.4157, 30.70200
123.8978, 34.61808
124.3799, 37.81939
124.8621, 40.20475
125.3442, 42.55329
125.8263, 45.45520
126.3084, 48.82951
126.7905, 52.49424
127.2726, 56.69753
127.7548, 61.02345
128.2369, 64.64066
128.7190, 67.35820
129.2011, 69.87540
129.6832, 73.49953
130.1653, 77.93119
130.6474, 81.57845
131.1296, 82.28851
131.6117, 81.19753
132.0938, 82.70650
132.5759, 87.95969
133.0580, 94.90157
133.5401, 99.41830
134.0223, 101.4772
134.5044, 103.2324
134.9865, 106.0316
135.4686, 109.8953
135.9507, 114.2728
136.4328, 119.1721
136.9150, 124.5701
137.3971, 130.3722
137.8792, 136.6960
138.3613, 143.0891
138.8434, 149.1752
139.3255, 154.8635
139.8077, 160.5619
140.2898, 166.3719
140.7719, 172.2489
141.2540, 178.3996
141.7361, 185.0249
142.2182, 191.4804
142.7004, 197.0942
143.1825, 201.5717
143.6646, 205.8414
144.1467, 210.1115
144.6288, 214.4890
145.1109, 218.0070
145.5931, 220.2700
146.0752, 222.0155
146.5573, 224.0683
147.0394, 225.9180
147.5215, 228.8322
148.0036, 233.4278
148.4858, 240.5317
148.9679, 246.2636
149.4500, 249.5519
149.9321, 251.8295
150.4142, 255.1468
150.8963, 259.8225
151.3785, 265.3183
151.8606, 271.5923
152.3427, 279.3548
152.8248, 286.4800
153.3069, 292.4132
153.7890, 297.7636
154.2712, 302.6697
154.7533, 306.4069
155.2354, 309.9951
155.7175, 313.2793
156.1996, 316.0093
156.6817, 318.7685
157.1639, 321.9872
157.6460, 325.3076
158.1281, 327.8759
158.6102, 328.6354
159.0923, 329.2566
159.5744, 330.6933
160.0566, 334.1768
160.5387, 336.7364
161.0208, 336.8330
161.5029, 335.2620
161.9850, 334.3263
162.4671, 335.5404
162.9493, 337.2334
163.4314, 338.2334
163.9135, 337.4635
164.3956, 337.0008
164.8777, 337.6398
165.3598, 339.2860
165.8420, 341.5891
166.3241, 345.6239
166.8062, 349.6664
167.2883, 352.1433
167.7704, 351.6668
168.2525, 350.4766
168.7346, 349.7793
169.2168, 349.5171
169.6989, 349.3617
170.1810, 349.6238
170.6631, 349.7296
171.1452, 348.9940
171.6273, 347.1992
172.1095, 344.4956
172.5916, 340.3616
173.0737, 334.9574
173.5558, 330.1529
174.0379, 327.9207
174.5201, 327.0997
175.0022, 325.7845
175.4843, 323.1301
175.9664, 319.6926
176.4485, 316.0970
176.9306, 312.3148
177.4128, 308.4425
177.8949, 304.4850
178.3770, 300.5108
178.8591, 296.5817
179.3412, 292.4545
179.8233, 288.4720
180.3055, 285.4526
180.7876, 283.4349
181.2697, 281.2837
181.7518, 277.2622
182.2339, 272.0331
182.7160, 267.5970
183.1982, 265.3387
183.6803, 264.4265
184.1624, 262.9430
184.6445, 260.7889
185.1266, 258.7589
185.6087, 258.1328
186.0909, 258.6105
186.5730, 258.6242
187.0551, 257.1182
187.5372, 254.5777
188.0193, 252.6071
188.5014, 251.2906
188.9836, 250.2710
189.4657, 249.0459
189.9478, 247.6482
190.4299, 246.3585
190.9120, 245.3074
191.3941, 244.4800
191.8763, 243.8354
192.3584, 243.4214
192.8405, 243.0511
193.3226, 242.2606
193.8047, 241.0496
194.2868, 240.2522
194.7690, 240.4952
195.2511, 241.6818
195.7332, 242.4750
196.2153, 242.8311
196.6974, 242.8458
197.1795, 242.5754
197.6617, 241.9980
198.1438, 241.4501
198.6259, 241.1383
199.1080, 241.0641
199.5901, 240.7898
200.0722, 240.1772
200.5544, 239.5697
201.0365, 239.6457
201.5186, 240.4728
202.0007, 241.5156
202.4828, 242.7013
202.9649, 244.0824
203.4471, 244.7579
203.9292, 244.4918
204.4113, 243.7866
204.8934, 243.6740
205.3755, 244.2822
205.8576, 244.9519
206.3398, 245.4900
206.8219, 245.9621
207.3040, 245.6867
207.7861, 244.2138
208.2682, 242.4272
208.7503, 242.2851
209.2325, 244.1274
209.7146, 246.5270
210.1967, 249.2196
210.6788, 252.6279
211.1609, 254.1111
211.6430, 252.9448
212.1252, 250.3671
212.6073, 249.1990
213.0894, 249.8030
213.5715, 250.8604
214.0536, 251.9128
214.5357, 253.1042
215.0179, 253.6794
215.5000, 253.3132
215.9821, 252.5412
216.4642, 252.7679
216.9463, 254.6879
217.4284, 256.1093
217.9105, 255.8690
218.3927, 253.2278
218.8748, 251.3658
219.3569, 250.3289
219.8390, 250.0439
220.3211, 250.4895
220.8032, 252.1959
221.2854, 253.6391
221.7675, 254.0968
222.2496, 253.1043
222.7317, 252.5770
223.2138, 252.6996
223.6959, 253.1940
224.1781, 253.4674
224.6602, 253.4650
225.1423, 253.3270
225.6244, 252.9831
226.1065, 252.0554
226.5886, 252.1102
227.0708, 253.6974
227.5529, 255.9946
228.0350, 257.1930
228.5171, 256.4924
228.9992, 256.0590
229.4813, 256.8807
229.9635, 259.6373
230.4456, 261.4914
230.9277, 262.0634
231.4098, 261.9156
231.8919, 262.0696
232.3740, 262.4330
232.8562, 263.2537
233.3383, 264.6756
233.8204, 266.8697
234.3025, 269.1218
234.7846, 271.4590
235.2667, 273.8472
235.7489, 276.1797
236.2310, 278.4507
236.7131, 280.6740
237.1952, 282.9271
237.6773, 285.2742
238.1594, 287.1948
238.6416, 288.0146
239.1237, 288.8201
239.6058, 291.5836
240.0879, 297.9923
240.5700, 303.6666
241.0521, 306.9270
241.5343, 306.8932
242.0164, 308.2371
242.4985, 311.4098
242.9806, 315.6449
243.4627, 319.9724
243.9448, 324.9323
244.4270, 329.0369
244.9091, 331.6834
245.3912, 332.5497
245.8733, 333.6638
246.3554, 335.0144
246.8375, 336.6164
247.3197, 338.6572
247.8018, 341.9594
248.2839, 344.1880
248.7660, 344.4343
249.2481, 342.3521
249.7302, 341.1182
250.2124, 341.3060
250.6945, 341.8134
251.1766, 341.2498
251.6587, 338.8052
252.1408, 336.9060
252.6229, 336.2894
253.1051, 337.0737
253.5872, 337.4234
254.0693, 337.5710
254.5514, 337.0553
255.0335, 335.2877
255.5156, 331.8055
255.9978, 328.1266
256.4799, 324.5505
256.9620, 321.0549
257.4441, 317.2509
257.9262, 313.0542
258.4083, 308.6559
258.8904, 304.2532
259.3726, 299.7307
259.8547, 295.4205
260.3368, 291.5383
260.8189, 287.9868
261.3010, 283.9879
261.7831, 279.2820
262.2653, 274.5493
262.7474, 270.3531
263.2295, 266.6702
263.7116, 263.5211
264.1937, 261.0283
264.6758, 259.0870
265.1580, 256.9270
265.6401, 254.4265
266.1222, 251.9683
266.6043, 249.7821
267.0864, 247.8160
267.5685, 246.3207
268.0507, 245.6082
268.5328, 245.3092
269.0149, 243.8663
269.4970, 240.8037
269.9791, 237.6922
270.4612, 235.4075
270.9434, 234.0970
271.4255, 233.0141
271.9076, 232.1831
272.3897, 231.4881
272.8718, 230.5250
273.3539, 229.1287
273.8361, 227.9911
274.3182, 227.6666
274.8003, 228.3319
275.2824, 228.3381
275.7645, 227.4160
276.2466, 226.0543
276.7288, 225.1699
277.2109, 224.7904
277.6930, 224.7448
278.1751, 225.0281
278.6572, 225.6560
279.1393, 226.3475
279.6215, 227.1698
280.1036, 227.9351
280.5857, 228.2668
281.0678, 228.1136
281.5499, 228.0547
282.0320, 228.4307
282.5142, 229.1898
282.9963, 229.5220
283.4784, 229.3433
283.9605, 228.9998
284.4426, 228.9267
284.9247, 229.1284
285.4069, 229.3338
285.8890, 229.3596
286.3711, 229.3050
286.8532, 229.8494
287.3353, 231.1216
287.8174, 232.2775
288.2996, 232.4851
288.7817, 231.7780
289.2638, 230.3700
289.7459, 227.8327
290.2280, 224.8804
290.7101, 223.7339
291.1923, 224.4871
291.6744, 225.4687
292.1565, 225.1889
292.6386, 223.8636
293.1207, 222.5629
293.6028, 221.4570
294.0850, 220.5515
294.5671, 219.9342
295.0492, 219.5803
295.5313, 219.1101
296.0134, 218.1861
296.4955, 216.9256
296.9777, 215.5588
297.4598, 213.9562
297.9419, 212.6572
298.4240, 212.7641
298.9061, 214.0424
299.3882, 215.2702
299.8704, 215.5641
300.3525, 215.3257
300.8346, 215.2658
301.3167, 215.4270
301.7988, 215.9221
302.2809, 217.3785
302.7631, 219.3693
303.2452, 220.6636
303.7273, 220.1435
304.2094, 218.7437
304.6915, 217.8213
305.1736, 217.4938
305.6558, 216.9659
306.1379, 215.3254
306.6200, 212.9955
307.1021, 210.7826
307.5842, 208.9591
308.0663, 207.4209
308.5485, 206.0385
309.0306, 204.8170
309.5127, 203.8101
309.9948, 203.4031
310.4769, 203.1276
310.9590, 202.3819
311.4412, 200.6743
311.9233, 198.7082
312.4054, 196.6637
312.8875, 194.6399
313.3696, 193.2533
313.8517, 193.4080
314.3339, 194.0766
314.8160, 194.3566
315.2981, 193.8048
315.7802, 193.1896
316.2623, 193.0122
316.7444, 193.0904
317.2266, 192.9244
317.7087, 192.2045
318.1908, 191.2483
318.6729, 190.1513
319.1550, 188.7245
319.6371, 187.7137
320.1193, 187.4974
320.6014, 187.8365
321.0835, 188.3419
321.5656, 189.5224
322.0477, 190.3117
322.5298, 190.0331
323.0120, 188.3427
323.4941, 187.1619
323.9762, 187.3280
324.4583, 188.0301
324.9404, 188.3922
325.4225, 187.4765
325.9047, 187.0111
326.3868, 187.8357
326.8689, 190.0288
327.3510, 191.2392
327.8331, 190.6218
328.3152, 189.3844
328.7974, 188.3581
329.2795, 187.2146
329.7616, 186.7026
330.2437, 187.2164
330.7258, 188.5320
331.2079, 189.4091
331.6901, 189.3913
332.1722, 189.3846
332.6543, 189.8833
333.1364, 191.5192
333.6185, 192.4579
334.1006, 192.3581
334.5828, 191.6404
335.0649, 191.3172
335.5470, 191.6227
336.0291, 191.8966
336.5112, 191.7982
336.9933, 191.1503
337.4755, 191.1131
337.9576, 191.9764
338.4397, 193.1170
338.9218, 193.5903
339.4039, 193.1219
339.8860, 193.0092
340.3681, 193.9049
340.8503, 195.6651
341.3324, 196.0607
341.8145, 194.7992
342.2966, 193.0113
342.7787, 191.5635
343.2608, 190.4623
343.7430, 189.8517
344.2251, 189.8753
344.7072, 190.3346
345.1893, 190.8005
345.6714, 191.3070
346.1535, 191.4393
346.6357, 190.5440
347.1178, 188.8638
347.5999, 188.0073
348.0820, 188.3598
348.5641, 189.0728
349.0462, 188.5715
349.5284, 187.0446
350.0105, 185.9018
350.4926, 186.1537
350.9747, 187.2834
351.4568, 188.1000
351.9389, 188.5131
352.4211, 188.9872
352.9032, 190.3647
353.3853, 192.1902
353.8674, 193.3488
354.3495, 192.7754
354.8316, 191.7061
355.3138, 191.6914
355.7959, 192.6419
356.2780, 193.6048
356.7601, 194.0108
357.2422, 194.0174
357.7243, 193.7420
358.2065, 192.7841
358.6886, 192.2215
359.1707, 193.3110
359.6528, 195.5033
360.1349, 197.1413
360.6170, 196.8235
361.0992, 196.0349
361.5813, 195.8410
362.0634, 196.5394
362.5455, 197.3731
363.0276, 198.3292
363.5097, 199.1697
363.9919, 199.5416
364.4740, 198.5648
364.9561, 197.7972
365.4382, 197.9509
365.9203, 199.1395
366.4024, 200.2599
366.8846, 201.2251
367.3667, 201.9751
367.8488, 202.4616
368.3309, 202.5682
368.8130, 202.5383
369.2951, 202.2483
369.7773, 201.7764
370.2594, 201.6431
370.7415, 202.0669
371.2236, 202.6306
371.7057, 203.1561
372.1878, 203.6258
372.6700, 204.0896
373.1521, 204.4800
373.6342, 204.8903
374.1163, 205.5228
374.5984, 206.4937
375.0805, 207.4634
375.5627, 208.4759
376.0448, 209.6050
376.5269, 209.7074
377.0090, 208.3622
377.4911, 206.7215
377.9732, 206.2501
378.4554, 207.2405
378.9375, 207.4338
379.4196, 206.0440
379.9017, 203.6401
380.3838, 202.4116
380.8659, 202.5101
381.3481, 202.6832
381.8302, 201.6855
382.3123, 199.7730
382.7944, 198.9930
383.2765, 199.8291
383.7586, 201.1714
384.2408, 201.1386
384.7229, 199.9622
385.2050, 199.0577
385.6871, 199.2474
386.1692, 200.1752
386.6513, 201.4285
387.1335, 203.0169
387.6156, 204.2053
388.0977, 203.9239
388.5798, 202.7985
389.0619, 201.9931
389.5440, 202.1826
390.0262, 202.5733
390.5083, 202.4194
390.9904, 201.8123
391.4725, 201.1942
391.9546, 200.8940
392.4367, 200.6545
392.9189, 200.2459
393.4010, 199.5952
393.8831, 198.8485
394.3652, 198.1626
394.8473, 197.4254
395.3294, 196.4417
395.8116, 194.8834
396.2937, 193.3076
396.7758, 191.8124
397.2579, 190.3634
397.7400, 189.4781
398.2221, 189.7906
398.7043, 190.4359
399.1864, 190.7116
399.6685, 190.4144
400.1506, 189.9012
400.6327, 189.1501
401.1148, 188.1948
401.5970, 187.1779
402.0791, 186.0098
402.5612, 184.8944
403.0433, 183.8373
403.5254, 182.5533
404.0075, 182.2081
404.4897, 183.2296
404.9718, 184.8238
405.4539, 185.8146
405.9360, 186.1350
406.4181, 186.0522
406.9002, 185.5003
407.3824, 184.5596
407.8645, 183.9365
408.3466, 183.6423
408.8287, 183.6174
409.3108, 183.8471
409.7929, 184.3236
410.2751, 184.9529
410.7572, 185.7831
411.2393, 186.6551
411.7214, 187.3003
412.2035, 187.7215
412.6856, 187.9258
413.1678, 187.2321
413.6499, 186.4349
414.1320, 187.6445
414.6141, 191.1307
415.0962, 194.7830
415.5783, 196.6430
416.0605, 197.2771
416.5426, 197.7593
417.0247, 198.0250
417.5068, 198.7094
417.9889, 200.9314
418.4710, 204.2799
418.9532, 206.9025
419.4353, 206.7146
419.9174, 205.9899
420.3995, 206.7539
420.8816, 210.1552
421.3637, 212.9823
421.8459, 213.5417
422.3280, 212.8309
422.8101, 212.3732
423.2922, 212.5868
423.7743, 213.0679
424.2564, 214.0396
424.7386, 215.5924
425.2207, 216.0535
425.7028, 214.1885
426.1849, 211.8989
426.6670, 210.4163
427.1491, 210.1618
427.6313, 210.0716
428.1134, 210.2081
428.5955, 210.4624
429.0776, 210.5120
429.5597, 210.2354
430.0418, 210.0014
430.5240, 209.9223
431.0061, 209.9922
431.4882, 210.3689
431.9703, 211.2019
432.4524, 212.0046
432.9345, 212.1311
433.4167, 211.5603
433.8988, 211.0306
434.3809, 210.6111
434.8630, 210.4343
435.3451, 211.1690
435.8272, 212.7712
436.3094, 213.9527
436.7915, 213.3591
437.2736, 211.7387
437.7557, 211.0202
438.2378, 211.4719
438.7199, 212.1825
439.2020, 212.1763
439.6841, 211.7510
440.1663, 211.5161
440.6484, 212.1505
441.1305, 212.7684
441.6126, 212.4387
442.0947, 211.3203
442.5768, 210.3919
443.0590, 210.1866
443.5411, 210.3643
444.0232, 210.6987
444.5053, 211.2478
444.9874, 211.7211
445.4695, 211.9198
445.9517, 211.9971
446.4338, 212.2034
446.9159, 212.5070
447.3980, 213.0232
447.8801, 213.9240
448.3622, 215.2564
448.8444, 216.2158
449.3265, 216.6617
449.8086, 216.8601
450.2907, 216.8945
450.7728, 216.3356
451.2549, 216.6667
451.7371, 218.4041
452.2192, 220.7997
452.7013, 222.0952
453.1834, 221.9953
453.6655, 221.8380
454.1476, 221.9815
454.6298, 222.4565
455.1119, 223.9391
455.5940, 226.6127
456.0761, 229.2449
456.5582, 230.2520
457.0403, 229.9902
457.5225, 230.4215
458.0046, 232.0911
458.4867, 234.3168
458.9688, 236.1176
459.4509, 237.5850
459.9330, 239.0252
460.4152, 240.5766
460.8973, 242.2360
461.3794, 244.1091
461.8615, 246.2352
462.3436, 248.0705
462.8257, 248.7291
463.3079, 249.1326
463.7900, 250.3218
464.2721, 252.9753
464.7542, 256.0285
465.2363, 259.2160
465.7184, 262.4959
466.2006, 265.7484
466.6827, 268.4454
467.1648, 271.5479
467.6469, 275.6443
468.1290, 281.2209
468.6111, 285.9590
469.0933, 289.5511
469.5754, 292.5031
470.0575, 295.2212
470.5396, 297.2579
471.0217, 299.9964
471.5038, 303.8965
471.9860, 308.5566
472.4681, 312.9760
472.9502, 317.5639
473.4323, 320.5379
473.9144, 320.4918
474.3965, 317.5416
474.8787, 315.4048
475.3608, 314.3774
475.8429, 312.8030
476.3250, 308.3442
476.8071, 301.5375
477.2892, 295.1188
477.7714, 290.0591
478.2535, 285.4318
478.7356, 279.6592
479.2177, 273.0364
479.6998, 266.9832
480.1819, 262.4024
480.6641, 258.6763
481.1462, 255.1594
481.6283, 251.7536
482.1104, 249.0078
482.5925, 247.2411
483.0746, 246.3002
483.5568, 246.0280
484.0389, 246.9830
484.5210, 247.9504
485.0031, 248.9866
485.4852, 249.8316
485.9673, 249.7102
486.4495, 247.2023
486.9316, 244.9262
487.4137, 243.7079
487.8958, 243.6439
488.3779, 244.2276
488.8600, 245.9878
489.3422, 247.8408
489.8243, 248.7926
490.3064, 248.6027
490.7885, 248.3118
491.2706, 248.0835
491.7527, 247.8009
492.2349, 247.0412
492.7170, 245.7574
493.1991, 244.6249
493.6812, 244.0194
494.1633, 243.8542
494.6454, 243.9691
495.1276, 244.4007
495.6097, 244.4423
496.0918, 243.1999
496.5739, 241.1053
497.0560, 239.0936
497.5381, 237.3164
498.0203, 235.7373
498.5024, 234.3530
498.9845, 233.1304
499.4666, 231.9594
499.9487, 230.4977
500.4308, 229.3283
500.9130, 228.8998
501.3951, 229.2241
501.8772, 229.5998
502.3593, 230.2595
502.8414, 230.6080
503.3235, 230.2287
503.8057, 228.1851
504.2878, 226.7114
504.7699, 226.1693
505.2520, 226.1151
505.7341, 225.7649
506.2162, 224.7835
506.6984, 224.1682
507.1805, 224.2206
507.6626, 224.8859
508.1447, 225.7315
508.6268, 226.8221
509.1089, 227.8419
509.5911, 228.5969
510.0732, 229.0893
510.5553, 229.3928
511.0374, 229.5538
511.5195, 229.3692
512.0016, 228.0085
512.4838, 225.9768
512.9659, 225.0629
513.4480, 226.9292
513.9301, 229.1982
514.4122, 228.7720
514.8943, 226.2214
515.3765, 223.9565
515.8586, 223.4493
516.3407, 223.6821
516.8228, 223.8966
517.3049, 223.9573
517.7870, 224.2444
518.2692, 224.6433
518.7513, 225.4416
519.2334, 226.9170
519.7155, 230.2488
520.1976, 232.8791
520.6797, 233.9431
521.1619, 234.1446
521.6440, 235.5687
522.1261, 238.9206
522.6082, 242.1994
523.0903, 244.5287
523.5724, 245.8771
524.0546, 248.2334
524.5367, 251.8280
525.0188, 255.6743
525.5009, 258.8343
525.9830, 261.4005
526.4651, 264.2662
526.9473, 267.5830
527.4294, 271.2333
527.9115, 275.0032
528.3936, 278.9099
528.8757, 283.1025
529.3578, 288.0528
529.8400, 293.0001
530.3221, 297.1227
530.8042, 300.4529
531.2863, 303.4805
531.7684, 307.3112
532.2505, 310.3603
532.7327, 311.2202
533.2148, 309.1988
533.6969, 306.6524
534.1790, 304.6510
534.6611, 302.2679
535.1432, 298.4913
535.6254, 292.1696
536.1075, 285.7343
536.5896, 279.7315
537.0717, 273.7913
537.5538, 266.7107
538.0359, 257.6563
538.5181, 249.2847
539.0002, 242.8246
539.4823, 238.2619
539.9644, 233.3240
540.4465, 227.9331
540.9286, 222.5562
541.4108, 217.4773
541.8929, 212.7201
542.3750, 208.6389
542.8571, 205.3515
543.3392, 202.5781
543.8214, 200.2572
544.3035, 198.1868
544.7856, 195.7959
545.2677, 192.0779
545.7498, 188.5497
546.2319, 186.6471
546.7141, 186.1127
547.1962, 185.3618
547.6783, 183.6240
548.1604, 181.5881
548.6425, 179.5336
549.1246, 177.3788
549.6068, 175.5973
550.0889, 174.3665
550.5710, 173.4383
551.0531, 172.6350
551.5352, 172.1529
552.0173, 171.3230
552.4995, 169.8562
552.9816, 168.1434
553.4637, 167.3203
553.9458, 167.5402
554.4279, 167.5666
554.9100, 166.6105
555.3922, 165.0613
555.8743, 164.6072
556.3564, 165.2531
556.8385, 166.0502
557.3206, 166.3790
557.8027, 166.3079
558.2849, 165.9281
558.7670, 165.2264
559.2491, 164.3430
559.7312, 162.8485
560.2133, 161.3979
560.6954, 160.8956
561.1776, 162.9767
561.6597, 164.6683
562.1418, 164.5611
562.6239, 163.1714
563.1060, 162.4003
563.5881, 163.3260
564.0703, 164.0722
564.5524, 163.9694
565.0345, 162.9268
565.5166, 162.2254
565.9987, 161.8846
566.4808, 161.8532
566.9630, 162.2244
567.4451, 163.0512
567.9272, 163.5142
568.4093, 163.5043
568.8914, 163.2485
569.3735, 162.9482
569.8557, 162.6500
570.3378, 162.5703
570.8199, 162.8552
571.3020, 163.3231
571.7841, 163.8940
572.2662, 164.4843
572.7484, 164.7845
573.2305, 164.2440
573.7126, 163.6429
574.1947, 163.5841
574.6768, 164.1430
575.1589, 164.6725
575.6411, 165.2008
576.1232, 165.4686
576.6053, 165.2533
577.0874, 163.9831
577.5695, 163.1570
578.0516, 163.0227
578.5338, 163.1762
579.0159, 163.0527
579.4980, 162.6345
579.9801, 161.9630
580.4622, 160.8981
580.9443, 159.6808
581.4265, 159.0608
581.9086, 159.0379
582.3907, 159.4254
582.8728, 160.4315
583.3549, 161.7006
583.8370, 162.5989
584.3192, 163.1090
584.8013, 163.1106
585.2834, 162.1669
585.7655, 160.8274
586.2476, 159.6304
586.7297, 158.5593
587.2118, 157.9941
587.6939, 158.3627
588.1760, 159.2257
