##NAMES=Elpidite
##RRUFFID=R060214
##IDEAL CHEMISTRY=Na_2_Zr^4+^Si_6_O_15_&#183;3H_2_O
##LOCALITY=Mont Saint-Hilaire, Rouville County, Quebec, Canada
##OWNER=RRUFF
##SOURCE=Royal Ontario Museum
##DESCRIPTION=White columnar aggregate of elongated acicular crystals
##STATUS=The identification of this mineral has been confirmed by X-ray diffraction.
##URL=rruff.info/R060214
123.1647, 499.6703
123.6468, 505.9608
124.1290, 512.0038
124.6111, 518.1718
125.0932, 524.0933
125.5753, 526.5727
126.0574, 526.1774
126.5395, 522.9014
127.0217, 515.9143
127.5038, 505.6388
127.9859, 494.0815
128.4680, 482.3164
128.9501, 470.3359
129.4323, 458.2375
129.9144, 444.8968
130.3965, 431.9382
130.8786, 420.8866
131.3607, 411.8351
131.8428, 404.5270
132.3250, 398.9909
132.8071, 394.9420
133.2892, 392.4485
133.7713, 391.9544
134.2534, 393.0971
134.7355, 394.6226
135.2177, 396.4240
135.6998, 398.8497
136.1819, 401.7587
136.6640, 405.2829
137.1461, 409.7096
137.6282, 415.4877
138.1104, 422.7450
138.5925, 429.9273
139.0746, 436.7085
139.5567, 443.6912
140.0388, 451.0979
140.5209, 458.9378
141.0031, 467.2010
141.4852, 475.8983
141.9673, 485.2347
142.4494, 494.5555
142.9315, 504.5627
143.4136, 514.0714
143.8958, 522.6898
144.3779, 530.1728
144.8600, 536.1980
145.3421, 540.1367
145.8242, 540.9222
146.3063, 541.3541
146.7885, 541.4999
147.2706, 541.3564
147.7527, 540.6643
148.2348, 539.1778
148.7169, 537.6881
149.1990, 537.9987
149.6812, 540.2540
150.1633, 542.9586
150.6454, 545.4808
151.1275, 547.9998
151.6096, 551.0012
152.0917, 554.5518
152.5739, 558.9161
153.0560, 564.3749
153.5381, 571.2080
154.0202, 578.1658
154.5023, 584.5870
154.9844, 590.4892
155.4665, 595.0389
155.9487, 596.7496
156.4308, 597.4307
156.9129, 598.4613
157.3950, 600.2109
157.8771, 602.1370
158.3592, 603.4376
158.8414, 603.9390
159.3235, 604.1977
159.8056, 604.0562
160.2877, 603.9064
160.7698, 603.9418
161.2519, 604.2084
161.7341, 604.9769
162.2162, 607.1263
162.6983, 612.2471
163.1804, 616.6859
163.6625, 619.6740
164.1446, 621.8030
164.6268, 623.7549
165.1089, 625.9205
165.5910, 628.2576
166.0731, 630.5534
166.5552, 633.9857
167.0373, 636.1152
167.5195, 636.2569
168.0016, 634.7250
168.4837, 632.1711
168.9658, 629.0203
169.4479, 625.2031
169.9300, 620.3554
170.4122, 615.2902
170.8943, 608.7283
171.3764, 599.5616
171.8585, 588.1788
172.3406, 576.1457
172.8227, 564.4961
173.3049, 553.2442
173.7870, 541.8656
174.2691, 530.9748
174.7512, 519.4749
175.2333, 505.9817
175.7154, 490.3545
176.1976, 474.9604
176.6797, 461.8859
177.1618, 450.3704
177.6439, 439.0054
178.1260, 427.2713
178.6081, 415.5779
179.0903, 404.4145
179.5724, 393.8754
180.0545, 383.7499
180.5366, 373.6854
181.0187, 363.9329
181.5008, 355.0921
181.9830, 347.4469
182.4651, 340.9116
182.9472, 335.2882
183.4293, 331.1902
183.9114, 327.1345
184.3935, 322.8395
184.8757, 318.1356
185.3578, 312.6023
185.8399, 305.6039
186.3220, 297.3810
186.8041, 290.7015
187.2862, 286.8776
187.7684, 283.3442
188.2505, 279.2841
188.7326, 274.9330
189.2147, 270.8885
189.6968, 267.7054
190.1789, 265.4142
190.6611, 262.7708
191.1432, 259.1960
191.6253, 255.8056
192.1074, 252.8452
192.5895, 250.3756
193.0716, 248.5000
193.5538, 247.4769
194.0359, 247.5774
194.5180, 246.0840
195.0001, 241.3678
195.4822, 236.9046
195.9643, 234.5667
196.4465, 234.1642
196.9286, 234.2093
197.4107, 233.3628
197.8928, 231.4748
198.3749, 229.7119
198.8570, 228.2883
199.3392, 226.8183
199.8213, 224.6490
200.3034, 221.8619
200.7855, 219.7717
201.2676, 220.0041
201.7497, 222.6888
202.2319, 223.7129
202.7140, 221.9626
203.1961, 219.0505
203.6782, 216.0666
204.1603, 213.0686
204.6424, 210.8373
205.1246, 210.5982
205.6067, 211.9129
206.0888, 212.7653
206.5709, 212.5081
207.0530, 211.6726
207.5351, 210.9563
208.0173, 210.4227
208.4994, 209.9262
208.9815, 209.2838
209.4636, 208.5842
209.9457, 208.0364
210.4278, 207.7964
210.9100, 207.7488
211.3921, 207.6982
211.8742, 207.7700
212.3563, 207.5429
212.8384, 206.3066
213.3205, 204.6404
213.8027, 203.6365
214.2848, 204.0049
214.7669, 205.4574
215.2490, 207.0432
215.7311, 209.1128
216.2132, 210.7317
216.6954, 211.3136
217.1775, 211.2692
217.6596, 211.3155
218.1417, 211.9354
218.6238, 213.0040
219.1059, 213.7667
219.5881, 214.0115
220.0702, 214.1774
220.5523, 214.2912
221.0344, 214.4339
221.5165, 214.7428
221.9986, 215.3437
222.4808, 216.1889
222.9629, 216.8049
223.4450, 216.0070
223.9271, 216.2957
224.4092, 218.9901
224.8913, 223.0601
225.3735, 226.7295
225.8556, 228.7821
226.3377, 229.3892
226.8198, 230.6663
227.3019, 233.0766
227.7840, 235.6909
228.2662, 238.2995
228.7483, 240.9791
229.2304, 243.9249
229.7125, 247.3132
230.1946, 251.0735
230.6767, 254.3475
231.1589, 256.7239
231.6410, 259.1046
232.1231, 261.3214
232.6052, 263.7198
233.0873, 266.9973
233.5694, 271.6539
234.0516, 277.4752
234.5337, 282.9178
235.0158, 288.1996
235.4979, 293.0056
235.9800, 296.6480
236.4621, 299.7220
236.9443, 303.6241
237.4264, 309.2460
237.9085, 316.1505
238.3906, 322.3256
238.8727, 326.4325
239.3548, 331.4018
239.8370, 338.9368
240.3191, 348.1361
240.8012, 356.6774
241.2833, 363.2741
241.7654, 368.6425
242.2475, 374.9869
242.7297, 382.6339
243.2118, 390.5025
243.6939, 398.5282
244.1760, 406.4442
244.6581, 413.5442
245.1402, 419.7301
245.6224, 424.5818
246.1045, 427.5623
246.5866, 428.6193
247.0687, 428.3369
247.5508, 426.6264
248.0329, 423.7251
248.5151, 420.4113
248.9972, 416.7917
249.4793, 412.9977
249.9614, 409.3971
250.4435, 406.1048
250.9256, 402.2880
251.4078, 396.7655
251.8899, 390.0960
252.3720, 384.7628
252.8541, 382.2103
253.3362, 380.2276
253.8183, 376.5918
254.3005, 371.3285
254.7826, 365.1877
255.2647, 358.3041
255.7468, 350.8264
256.2289, 343.6234
256.7110, 337.4083
257.1931, 330.6978
257.6753, 322.0119
258.1574, 311.6599
258.6395, 301.5947
259.1216, 293.1705
259.6037, 286.1572
260.0858, 279.0865
260.5680, 271.3702
261.0501, 264.3341
261.5322, 258.6547
262.0143, 254.1723
262.4964, 250.3942
262.9785, 247.1478
263.4607, 244.3994
263.9428, 241.8628
264.4249, 239.5060
264.9070, 237.4709
265.3891, 236.3243
265.8712, 235.4971
266.3534, 233.8126
266.8355, 230.2444
267.3176, 225.3096
267.7997, 221.2639
268.2818, 218.8435
268.7639, 216.1977
269.2461, 212.3388
269.7282, 207.9212
270.2103, 203.9066
270.6924, 200.8348
271.1745, 198.4694
271.6566, 196.1136
272.1388, 193.8479
272.6209, 191.4652
273.1030, 188.7063
273.5851, 185.8869
274.0672, 183.3350
274.5493, 181.1575
275.0315, 179.4327
275.5136, 178.4897
275.9957, 179.0015
276.4778, 179.0166
276.9599, 178.2977
277.4420, 176.9720
277.9242, 174.8015
278.4063, 171.7163
278.8884, 168.6446
279.3705, 167.4258
279.8526, 169.0261
280.3347, 170.5126
280.8169, 171.5426
281.2990, 172.3960
281.7811, 173.3396
282.2632, 174.4127
282.7453, 175.3612
283.2274, 175.7187
283.7096, 175.0677
284.1917, 174.8781
284.6738, 174.9286
285.1559, 175.5588
285.6380, 177.3908
286.1201, 180.2474
286.6023, 183.0858
287.0844, 184.6069
287.5665, 184.3180
288.0486, 184.6233
288.5307, 186.3036
289.0128, 187.8297
289.4950, 188.2547
289.9771, 187.7974
290.4592, 187.4955
290.9413, 188.5021
291.4234, 191.0557
291.9055, 191.7007
292.3877, 188.4444
292.8698, 185.3012
293.3519, 183.6987
293.8340, 183.2384
294.3161, 182.7312
294.7982, 181.2421
295.2804, 178.9362
295.7625, 178.0428
296.2446, 180.7605
296.7267, 182.5752
297.2088, 181.6534
297.6909, 179.4835
298.1731, 178.4174
298.6552, 179.7920
299.1373, 182.8946
299.6194, 185.0033
300.1015, 184.5837
300.5836, 184.9908
301.0658, 187.2619
301.5479, 190.1606
302.0300, 192.3877
302.5121, 193.4230
302.9942, 193.6268
303.4763, 193.7746
303.9585, 194.3974
304.4406, 194.0556
304.9227, 191.9672
305.4048, 189.4706
305.8869, 187.9152
306.3690, 187.4850
306.8512, 187.0020
307.3333, 184.7696
307.8154, 180.0331
308.2975, 175.4323
308.7796, 170.5183
309.2617, 166.0335
309.7439, 162.5680
310.2260, 160.0528
310.7081, 157.9614
311.1902, 155.8072
311.6723, 153.5461
312.1544, 151.4294
312.6366, 149.6314
313.1187, 147.7760
313.6008, 145.6235
314.0829, 143.2761
314.5650, 140.9487
315.0471, 138.7669
315.5293, 136.7603
316.0114, 135.3483
316.4935, 135.2477
316.9756, 134.9333
317.4577, 133.8383
317.9398, 132.3867
318.4220, 131.1933
318.9041, 130.5683
319.3862, 130.4384
319.8683, 130.5896
320.3504, 131.7246
320.8326, 132.2253
321.3147, 131.6376
321.7968, 130.5764
322.2789, 129.5926
322.7610, 128.8835
323.2431, 128.3358
323.7253, 127.7623
324.2074, 127.0947
324.6895, 126.5421
325.1716, 125.6391
325.6537, 125.1596
326.1358, 126.0455
326.6180, 128.1514
327.1001, 130.1815
327.5822, 130.6239
328.0643, 129.0037
328.5464, 128.2366
329.0285, 128.9914
329.5107, 129.8340
329.9928, 130.2240
330.4749, 130.1949
330.9570, 129.9247
331.4391, 129.4648
331.9212, 128.8804
332.4034, 129.1572
332.8855, 131.2593
333.3676, 133.2251
333.8497, 134.7797
334.3318, 135.9463
334.8139, 136.8159
335.2961, 137.4321
335.7782, 137.7474
336.2603, 137.5826
336.7424, 136.5381
337.2245, 135.5794
337.7066, 134.8671
338.1888, 134.2107
338.6709, 133.4139
339.1530, 132.4314
339.6351, 131.4153
340.1172, 130.6563
340.5993, 130.4630
341.0815, 129.7218
341.5636, 127.6412
342.0457, 125.7458
342.5278, 125.1611
343.0099, 125.6948
343.4920, 126.1762
343.9742, 125.3687
344.4563, 123.1505
344.9384, 121.9185
345.4205, 123.1513
345.9026, 123.9646
346.3847, 123.1464
346.8669, 121.4082
347.3490, 120.1751
347.8311, 120.4188
348.3132, 121.6133
348.7953, 121.5379
349.2774, 118.7680
349.7596, 116.9590
350.2417, 116.9939
350.7238, 118.0792
351.2059, 119.7781
351.6880, 121.9113
352.1701, 123.7489
352.6523, 123.6892
353.1344, 120.6047
353.6165, 119.1109
354.0986, 121.1282
354.5807, 123.7094
355.0628, 125.3397
355.5450, 125.8429
356.0271, 125.7764
356.5092, 125.4626
356.9913, 124.8775
357.4734, 124.7760
357.9555, 125.3367
358.4377, 126.2428
358.9198, 127.9552
359.4019, 129.8739
359.8840, 130.7504
360.3661, 129.5641
360.8482, 127.0489
361.3304, 125.4734
361.8125, 125.2794
362.2946, 125.0797
362.7767, 124.2725
363.2588, 123.2669
363.7409, 122.4043
364.2231, 121.7497
364.7052, 121.4579
365.1873, 121.8997
365.6694, 123.1839
366.1515, 124.2159
366.6336, 124.7798
367.1158, 124.9483
367.5979, 124.5890
368.0800, 123.7579
368.5621, 123.0624
369.0442, 123.0746
369.5263, 123.6345
370.0085, 123.8975
370.4906, 123.4928
370.9727, 123.3633
371.4548, 124.5219
371.9369, 126.4164
372.4190, 127.7958
372.9012, 127.8468
373.3833, 127.3424
373.8654, 127.5033
374.3475, 128.4229
374.8296, 129.1805
375.3117, 128.9754
375.7939, 128.5148
376.2760, 128.9365
376.7581, 130.6662
377.2402, 132.4336
377.7223, 133.3852
378.2044, 133.6136
378.6866, 133.4671
379.1687, 132.9206
379.6508, 132.2238
380.1329, 131.7219
380.6150, 131.4120
381.0971, 130.9886
381.5793, 129.9574
382.0614, 128.9150
382.5435, 128.8454
383.0256, 129.8947
383.5077, 131.1585
383.9898, 132.0453
384.4720, 132.5278
384.9541, 132.7288
385.4362, 131.9184
385.9183, 131.4902
386.4004, 132.7653
386.8825, 135.2365
387.3647, 137.1193
387.8468, 137.4669
388.3289, 136.8787
388.8110, 136.9365
389.2931, 138.1599
389.7752, 138.8022
390.2574, 138.0708
390.7395, 136.7617
391.2216, 135.9840
391.7037, 135.9535
392.1858, 135.7682
392.6679, 134.2515
393.1501, 130.9557
393.6322, 128.6898
394.1143, 128.3237
394.5964, 128.0945
395.0785, 126.9281
395.5606, 125.0382
396.0428, 123.2223
396.5249, 121.9514
397.0070, 121.2192
397.4891, 120.9766
397.9712, 120.9392
398.4533, 121.7800
398.9355, 124.3838
399.4176, 127.5357
399.8997, 130.0195
400.3818, 131.4322
400.8639, 132.0849
401.3460, 132.3428
401.8282, 131.8683
402.3103, 131.9585
402.7924, 132.1241
403.2745, 133.1948
403.7566, 136.3134
404.2387, 140.8226
404.7209, 144.8500
405.2030, 146.8303
405.6851, 147.1084
406.1672, 148.2645
406.6493, 151.0601
407.1314, 153.6589
407.6136, 155.2333
408.0957, 156.5823
408.5778, 158.5648
409.0599, 161.4808
409.5420, 165.0655
410.0241, 169.1893
410.5063, 174.0542
410.9884, 178.2806
411.4705, 181.1467
411.9526, 183.7119
412.4347, 186.2655
412.9168, 188.9512
413.3990, 192.1803
413.8811, 196.2872
414.3632, 201.1586
414.8453, 206.4715
415.3274, 212.4209
415.8095, 218.3289
416.2917, 223.9822
416.7738, 229.3349
417.2559, 234.3010
417.7380, 238.9130
418.2201, 243.0303
418.7022, 246.2090
419.1844, 248.5842
419.6665, 251.5930
420.1486, 256.1233
420.6307, 260.8082
421.1128, 264.2403
421.5949, 266.5391
422.0771, 267.1743
422.5592, 265.4923
423.0413, 262.2545
423.5234, 258.3111
424.0055, 253.7621
424.4876, 248.7760
424.9698, 243.3368
425.4519, 237.5552
425.9340, 232.1434
426.4161, 227.3439
426.8982, 222.6477
427.3803, 217.8292
427.8625, 212.9580
428.3446, 208.1516
428.8267, 203.4139
429.3088, 198.9127
429.7909, 194.8979
430.2730, 191.2443
430.7552, 188.5523
431.2373, 187.7920
431.7194, 187.2820
432.2015, 185.6350
432.6836, 182.9626
433.1657, 180.3620
433.6479, 178.7363
434.1300, 178.0080
434.6121, 177.1109
435.0942, 176.2323
435.5763, 174.9434
436.0584, 173.0143
436.5406, 170.7075
437.0227, 168.1779
437.5048, 165.5190
437.9869, 162.9941
438.4690, 160.9471
438.9511, 159.2831
439.4333, 158.4257
439.9154, 159.5431
440.3975, 160.4201
440.8796, 160.1169
441.3617, 158.7269
441.8438, 156.6450
442.3260, 153.8306
442.8081, 150.7261
443.2902, 149.0984
443.7723, 149.6777
444.2544, 149.8827
444.7365, 147.7482
445.2187, 145.3994
445.7008, 145.1048
446.1829, 147.4106
446.6650, 150.0363
447.1471, 150.6252
447.6292, 149.6469
448.1114, 149.8751
448.5935, 152.1804
449.0756, 154.8242
449.5577, 156.0305
450.0398, 156.3229
450.5219, 157.3218
451.0041, 159.8425
451.4862, 162.9711
451.9683, 165.7182
452.4504, 168.1982
452.9325, 171.1889
453.4146, 175.0597
453.8968, 179.6171
454.3789, 184.3735
454.8610, 188.9176
455.3431, 194.6675
455.8252, 202.9877
456.3073, 212.0980
456.7895, 220.0707
457.2716, 226.6689
457.7537, 232.8868
458.2358, 239.5338
458.7179, 246.6246
459.2000, 254.2041
459.6822, 262.9827
460.1643, 271.3625
460.6464, 278.1530
461.1285, 284.5298
461.6106, 292.2545
462.0927, 301.9552
462.5748, 312.5605
463.0569, 322.2151
463.5391, 330.1790
464.0212, 339.0598
464.5033, 349.9185
464.9854, 360.6184
465.4675, 369.9646
465.9496, 378.3288
466.4318, 386.7021
466.9139, 395.5213
467.3960, 405.0770
467.8781, 416.4877
468.3602, 430.4124
468.8423, 444.5970
469.3245, 459.2269
469.8066, 473.4362
470.2887, 486.5512
470.7708, 498.4676
471.2529, 509.2204
471.7350, 519.6047
472.2172, 528.9840
472.6993, 535.1042
473.1814, 538.2116
473.6635, 536.7763
474.1456, 528.7036
474.6277, 515.2028
475.1099, 498.3558
475.5920, 477.3879
476.0741, 454.6520
476.5562, 431.4488
477.0383, 407.8678
477.5204, 383.2731
478.0026, 357.3720
478.4847, 331.5171
478.9668, 307.6483
479.4489, 285.7010
479.9310, 266.1874
480.4131, 249.5865
480.8953, 235.1369
481.3774, 222.6376
481.8595, 211.9390
482.3416, 202.9411
482.8237, 195.6441
483.3058, 189.6606
483.7880, 183.6051
484.2701, 177.0814
484.7522, 171.1001
485.2343, 165.4453
485.7164, 160.4634
486.1985, 156.4109
486.6807, 153.3012
487.1628, 151.0500
487.6449, 149.7210
488.1270, 149.2298
488.6091, 148.3579
489.0912, 146.9245
489.5734, 145.3739
490.0555, 143.6576
490.5376, 141.9952
491.0197, 140.5990
491.5018, 139.5208
491.9839, 138.8153
492.4661, 138.5297
492.9482, 138.6656
493.4303, 139.3380
493.9124, 140.8235
494.3945, 142.3506
494.8766, 142.9778
495.3588, 143.1200
495.8409, 143.9540
496.3230, 146.6100
496.8051, 149.2686
497.2872, 149.7718
497.7693, 148.8407
498.2515, 149.4548
498.7336, 153.0701
499.2157, 157.6601
499.6978, 159.7619
500.1799, 158.2828
500.6620, 158.5627
501.1442, 162.8285
501.6263, 167.3766
502.1084, 169.2949
502.5905, 169.1221
503.0726, 169.1219
503.5547, 170.6309
504.0369, 173.4710
504.5190, 177.0793
505.0011, 182.2322
505.4832, 186.9624
505.9653, 190.6446
506.4474, 194.3164
506.9296, 198.9449
507.4117, 204.4228
507.8938, 209.7551
508.3759, 213.9653
508.8580, 217.3461
509.3401, 221.5678
509.8223, 227.1706
510.3044, 232.4450
510.7865, 236.6764
511.2686, 240.3374
511.7507, 243.6670
512.2328, 246.6665
512.7150, 249.9931
513.1971, 254.9002
513.6792, 260.5216
514.1613, 264.0504
514.6434, 264.7782
515.1255, 265.2249
515.6077, 267.0052
516.0898, 270.1026
516.5719, 274.0322
517.0540, 279.1912
517.5361, 284.6772
518.0182, 289.8335
518.5004, 295.1138
518.9825, 301.3124
519.4646, 308.6693
519.9467, 316.7765
520.4288, 325.2312
520.9109, 334.1206
521.3931, 342.8471
521.8752, 351.5926
522.3573, 360.1119
522.8394, 367.7558
523.3215, 375.2608
523.8036, 383.3569
524.2858, 392.3154
524.7679, 402.8680
525.2500, 416.5271
525.7321, 434.0239
526.2142, 450.8310
526.6964, 466.3930
527.1785, 481.4184
527.6606, 495.8878
528.1427, 510.0924
528.6248, 524.7518
529.1069, 540.3942
529.5891, 556.2111
530.0712, 571.8274
530.5533, 587.0867
531.0354, 599.2848
531.5175, 607.5361
531.9996, 612.6449
532.4818, 616.1149
532.9639, 618.0263
533.4460, 614.8390
533.9281, 604.8572
534.4102, 590.3715
534.8923, 572.2979
535.3745, 551.1287
535.8566, 527.2922
536.3387, 500.8993
536.8208, 473.0740
537.3029, 446.3989
537.7850, 420.7426
538.2672, 396.1903
538.7493, 372.3124
539.2314, 349.9257
539.7135, 329.3263
540.1956, 310.4947
540.6777, 293.0366
541.1599, 276.6948
541.6420, 261.6541
542.1241, 248.5208
542.6062, 237.5566
543.0883, 227.4646
543.5704, 218.3876
544.0526, 209.9140
544.5347, 201.6238
545.0168, 193.6284
545.4989, 186.7390
545.9810, 181.9143
546.4631, 178.0875
546.9453, 173.4866
547.4274, 168.1370
547.9095, 163.3773
548.3916, 160.0110
548.8737, 157.2219
549.3558, 153.4497
549.8380, 148.4969
550.3201, 144.1322
550.8022, 141.1327
551.2843, 138.5318
551.7664, 135.3530
552.2485, 131.8089
552.7307, 128.7751
553.2128, 126.7122
553.6949, 125.5907
554.1770, 125.4644
554.6591, 127.9370
555.1412, 128.4681
555.6234, 125.7529
556.1055, 122.3917
556.5876, 119.8163
557.0697, 117.9866
557.5518, 116.1790
558.0339, 113.8013
558.5161, 111.3794
558.9982, 110.2627
559.4803, 110.6618
559.9624, 111.1376
560.4445, 111.4249
560.9266, 111.5340
561.4088, 111.5422
561.8909, 111.4343
562.3730, 111.0418
562.8551, 109.9775
563.3372, 108.8261
563.8193, 108.2801
564.3015, 108.2505
564.7836, 108.2556
565.2657, 108.1339
565.7478, 107.7790
566.2299, 106.9211
566.7120, 105.0970
567.1942, 103.9461
567.6763, 104.1786
568.1584, 104.4268
568.6405, 103.6243
569.1226, 102.2217
569.6047, 101.4047
570.0869, 101.8208
570.5690, 102.8581
571.0511, 103.3418
571.5332, 103.2976
572.0153, 102.5804
572.4974, 100.4148
572.9796, 98.32613
573.4617, 97.02763
573.9438, 96.43816
574.4259, 96.30820
574.9080, 96.69733
575.3901, 97.26414
575.8723, 97.91790
576.3544, 98.51391
576.8365, 98.00753
577.3186, 95.80252
577.8007, 93.35256
578.2828, 92.37235
578.7650, 92.96291
579.2471, 93.31738
579.7292, 93.50907
580.2113, 93.33273
580.6934, 92.34440
581.1755, 91.02412
581.6577, 90.12402
582.1398, 89.90152
582.6219, 90.09650
583.1040, 90.47191
583.5861, 91.13268
584.0682, 91.13215
584.5504, 89.91398
585.0325, 88.67469
585.5146, 87.85219
585.9967, 87.18616
586.4788, 86.22383
586.9609, 84.80795
587.4431, 83.59672
587.9252, 83.15148
588.4073, 83.42020
588.8894, 84.46297
589.3715, 86.55186
589.8536, 88.16551
590.3358, 88.15166
590.8179, 86.87989
591.3000, 85.75517
591.7821, 84.44713
592.2642, 83.84302
592.7463, 84.74275
593.2285, 86.19136
593.7106, 87.34656
594.1927, 87.99194
594.6748, 87.88734
595.1569, 86.70093
595.6390, 84.76698
596.1212, 83.93307
596.6033, 85.08234
597.0854, 85.80030
597.5675, 85.25832
598.0496, 84.66145
598.5317, 84.99936
599.0139, 86.16407
599.4960, 87.27172
599.9781, 87.74694
600.4602, 87.82424
600.9423, 87.86064
601.4244, 87.85342
601.9066, 88.08681
602.3887, 88.77818
602.8708, 89.57690
603.3529, 89.86994
603.8350, 89.64178
604.3171, 89.85852
604.7993, 91.38733
605.2814, 92.70618
605.7635, 92.30267
606.2456, 91.03032
606.7277, 90.94702
607.2098, 92.80556
607.6920, 95.27581
608.1741, 96.27784
608.6562, 95.47897
609.1383, 95.02068
609.6204, 94.79370
610.1025, 95.07473
610.5847, 95.90249
611.0668, 97.29961
611.5489, 99.57894
612.0310, 102.8934
612.5131, 105.8683
612.9952, 106.9169
613.4774, 106.5984
613.9595, 106.6835
614.4416, 107.3449
614.9237, 108.3364
615.4058, 109.6323
615.8879, 111.1095
616.3701, 112.4103
616.8522, 113.6630
617.3343, 114.5237
617.8164, 114.9808
618.2985, 114.9805
618.7806, 114.2996
619.2628, 113.0797
619.7449, 111.7913
620.2270, 110.7360
