##NAMES=Elpidite
##RRUFFID=R060214
##IDEAL CHEMISTRY=Na_2_Zr^4+^Si_6_O_15_&#183;3H_2_O
##LOCALITY=Mont Saint-Hilaire, Rouville County, Quebec, Canada
##OWNER=RRUFF
##SOURCE=Royal Ontario Museum
##DESCRIPTION=White columnar aggregate of elongated acicular crystals
##STATUS=The identification of this mineral has been confirmed by X-ray diffraction.
##URL=rruff.info/R060214
129.6832, 82.09196
130.1653, 81.74749
130.6474, 81.37594
131.1296, 81.55698
131.6117, 82.21322
132.0938, 83.03097
132.5759, 83.89745
133.0580, 85.05319
133.5401, 86.93729
134.0223, 89.56037
134.5044, 92.70157
134.9865, 96.26490
135.4686, 100.2827
135.9507, 104.5465
136.4328, 109.0229
136.9150, 113.8136
137.3971, 119.1095
137.8792, 124.9178
138.3613, 131.2985
138.8434, 138.3436
139.3255, 146.0404
139.8077, 154.2911
140.2898, 163.3142
140.7719, 172.9396
141.2540, 182.3392
141.7361, 191.2661
142.2182, 200.2007
142.7004, 209.6983
143.1825, 220.0017
143.6646, 230.1938
144.1467, 240.4114
144.6288, 250.9850
145.1109, 258.4798
145.5931, 262.5769
146.0752, 263.9164
146.5573, 263.0953
147.0394, 258.7603
147.5215, 254.1833
148.0036, 249.9920
148.4858, 245.8919
148.9679, 243.0977
149.4500, 241.7751
149.9321, 241.6989
150.4142, 242.5442
150.8963, 244.3162
151.3785, 247.0411
151.8606, 250.7286
152.3427, 255.5825
152.8248, 261.0280
153.3069, 267.3096
153.7890, 274.1701
154.2712, 280.2941
154.7533, 284.5352
155.2354, 288.5594
155.7175, 292.5780
156.1996, 296.9109
156.6817, 300.5103
157.1639, 302.8594
157.6460, 304.4096
158.1281, 306.0641
158.6102, 308.1602
159.0923, 310.3029
159.5744, 312.2939
160.0566, 313.9346
160.5387, 315.6551
161.0208, 317.4058
161.5029, 319.2869
161.9850, 321.5961
162.4671, 324.5330
162.9493, 327.8722
163.4314, 331.4885
163.9135, 335.6288
164.3956, 339.6991
164.8777, 343.2134
165.3598, 346.3747
165.8420, 350.0337
166.3241, 354.8679
166.8062, 360.2374
167.2883, 365.6158
167.7704, 371.4954
168.2525, 376.6813
168.7346, 380.2213
169.2168, 382.3056
169.6989, 384.1451
170.1810, 387.0459
170.6631, 389.9388
171.1452, 391.5529
171.6273, 391.2496
172.1095, 389.6796
172.5916, 387.3102
173.0737, 384.1471
173.5558, 380.1529
174.0379, 375.2893
174.5201, 369.6065
175.0022, 363.0889
175.4843, 355.4135
175.9664, 347.0204
176.4485, 338.7304
176.9306, 330.4668
177.4128, 321.7192
177.8949, 311.5807
178.3770, 300.6534
178.8591, 290.0399
179.3412, 279.9181
179.8233, 270.4576
180.3055, 261.9868
180.7876, 254.4497
181.2697, 247.5162
181.7518, 240.9228
182.2339, 234.6496
182.7160, 228.3950
183.1982, 221.7493
183.6803, 215.1175
184.1624, 209.6235
184.6445, 205.4057
185.1266, 201.5834
185.6087, 197.0065
186.0909, 191.8297
186.5730, 187.1291
187.0551, 183.5969
187.5372, 180.9168
188.0193, 177.7557
188.5014, 173.9602
188.9836, 170.3136
189.4657, 167.8591
189.9478, 166.5266
190.4299, 165.3012
190.9120, 163.7117
191.3941, 161.8401
191.8763, 160.0502
192.3584, 158.3196
192.8405, 156.7746
193.3226, 155.6245
193.8047, 154.8765
194.2868, 154.1638
194.7690, 153.2294
195.2511, 152.1126
195.7332, 151.3419
196.2153, 151.0106
196.6974, 150.8475
197.1795, 150.3608
197.6617, 149.5190
198.1438, 148.7627
198.6259, 148.3887
199.1080, 148.3980
199.5901, 148.0993
200.0722, 147.3326
200.5544, 146.4885
201.0365, 146.4079
201.5186, 147.2138
202.0007, 147.9745
202.4828, 148.2709
202.9649, 148.0843
203.4471, 147.6188
203.9292, 146.7271
204.4113, 145.7340
204.8934, 145.3965
205.3755, 145.9104
205.8576, 146.2932
206.3398, 145.9954
206.8219, 144.8858
207.3040, 144.0341
207.7861, 143.6300
208.2682, 143.3328
208.7503, 142.3232
209.2325, 140.3760
209.7146, 138.4715
210.1967, 137.0752
210.6788, 136.2752
211.1609, 135.5477
211.6430, 134.8376
212.1252, 134.2335
212.6073, 134.0012
213.0894, 134.2863
213.5715, 134.5650
214.0536, 134.5369
214.5357, 134.0296
215.0179, 133.9008
215.5000, 134.3211
215.9821, 135.0116
216.4642, 135.3140
216.9463, 135.0572
217.4284, 134.7714
217.9105, 134.6539
218.3927, 134.6885
218.8748, 134.9554
219.3569, 135.5131
219.8390, 136.2685
220.3211, 137.0114
220.8032, 137.6557
221.2854, 138.4563
221.7675, 139.5842
222.2496, 141.1890
222.7317, 142.5779
223.2138, 143.5295
223.6959, 144.3704
224.1781, 145.9134
224.6602, 148.5164
225.1423, 151.1776
225.6244, 153.4319
226.1065, 155.1773
226.5886, 156.9129
227.0708, 158.6498
227.5529, 160.3851
228.0350, 162.1243
228.5171, 163.9010
228.9992, 165.6591
229.4813, 167.4036
229.9635, 169.1882
230.4456, 170.7700
230.9277, 172.0608
231.4098, 173.1801
231.8919, 174.3308
232.3740, 175.3279
232.8562, 176.6451
233.3383, 178.4515
233.8204, 180.7924
234.3025, 183.4655
234.7846, 186.4046
235.2667, 189.7159
235.7489, 193.5474
236.2310, 198.0060
236.7131, 202.7887
237.1952, 207.8468
237.6773, 213.0536
238.1594, 218.7002
238.6416, 224.6309
239.1237, 231.0981
239.6058, 238.5517
240.0879, 247.5721
240.5700, 256.7820
241.0521, 265.7464
241.5343, 274.2076
242.0164, 283.2201
242.4985, 293.0170
242.9806, 303.2037
243.4627, 313.3380
243.9448, 323.9987
244.4270, 333.6013
244.9091, 341.5766
245.3912, 347.6982
245.8733, 353.5675
246.3554, 359.7516
246.8375, 365.2739
247.3197, 368.8231
247.8018, 369.9849
248.2839, 369.9056
248.7660, 368.7968
249.2481, 366.6168
249.7302, 363.6103
250.2124, 359.3438
250.6945, 354.6427
251.1766, 350.3761
251.6587, 346.6542
252.1408, 343.1734
252.6229, 339.9273
253.1051, 336.9121
253.5872, 333.9224
254.0693, 331.2270
254.5514, 328.2185
255.0335, 324.2764
255.5156, 319.4018
255.9978, 313.7070
256.4799, 307.3378
256.9620, 300.2504
257.4441, 291.5533
257.9262, 280.6426
258.4083, 268.9167
258.8904, 257.6448
259.3726, 246.5406
259.8547, 236.3895
260.3368, 227.5050
260.8189, 219.7545
261.3010, 212.4918
261.7831, 205.6315
262.2653, 199.4039
262.7474, 194.1096
263.2295, 189.8161
263.7116, 186.1323
264.1937, 182.9785
264.6758, 180.3846
265.1580, 178.5441
265.6401, 177.9760
266.1222, 177.2118
266.6043, 175.1397
267.0864, 171.3505
267.5685, 167.6726
268.0507, 164.3198
268.5328, 161.1741
269.0149, 157.7159
269.4970, 153.7824
269.9791, 149.8330
270.4612, 145.9632
270.9434, 142.1057
271.4255, 138.7825
271.9076, 136.0740
272.3897, 133.8515
272.8718, 131.7404
273.3539, 129.6993
273.8361, 127.8973
274.3182, 126.3987
274.8003, 125.1972
275.2824, 124.4560
275.7645, 124.4032
276.2466, 124.5571
276.7288, 123.7897
277.2109, 121.8682
277.6930, 120.1803
278.1751, 119.4640
278.6572, 119.7601
279.1393, 120.0617
279.6215, 120.3413
280.1036, 120.6824
280.5857, 121.1905
281.0678, 121.8590
281.5499, 122.7485
282.0320, 123.9695
282.5142, 125.4902
282.9963, 126.7275
283.4784, 127.5892
283.9605, 128.4514
284.4426, 129.7858
284.9247, 131.5975
285.4069, 133.6222
285.8890, 135.8776
286.3711, 138.2748
286.8532, 140.4109
287.3353, 142.2316
287.8174, 144.0963
288.2996, 146.5305
288.7817, 149.4696
289.2638, 152.0552
289.7459, 154.0792
290.2280, 155.5806
290.7101, 156.7997
291.1923, 157.7576
291.6744, 158.1189
292.1565, 157.4195
292.6386, 155.8101
293.1207, 154.0437
293.6028, 152.2431
294.0850, 150.4016
294.5671, 148.2993
295.0492, 145.9618
295.5313, 143.8379
296.0134, 142.3244
296.4955, 141.2943
296.9777, 140.3484
297.4598, 139.3394
297.9419, 138.6043
298.4240, 138.6922
298.9061, 139.5279
299.3882, 140.7336
299.8704, 142.1626
300.3525, 143.7886
300.8346, 145.6224
301.3167, 147.6794
301.7988, 149.8418
302.2809, 152.2143
302.7631, 154.6377
303.2452, 156.7108
303.7273, 158.5589
304.2094, 159.7915
304.6915, 159.6902
305.1736, 158.1587
305.6558, 156.0338
306.1379, 154.0753
306.6200, 152.0439
307.1021, 149.5020
307.5842, 146.1261
308.0663, 142.2246
308.5485, 137.8609
309.0306, 133.0711
309.5127, 128.3113
309.9948, 123.7603
310.4769, 119.4628
310.9590, 115.4853
311.4412, 111.6704
311.9233, 108.2999
312.4054, 105.8516
312.8875, 104.1309
313.3696, 102.2333
313.8517, 99.29700
314.3339, 96.17364
314.8160, 93.60227
315.2981, 92.02448
315.7802, 90.65739
316.2623, 89.14117
316.7444, 87.54552
317.2266, 86.02522
317.7087, 84.46049
318.1908, 83.13765
318.6729, 82.25721
319.1550, 81.96733
319.6371, 81.80188
320.1193, 81.77181
320.6014, 81.74047
321.0835, 81.48203
321.5656, 80.56161
322.0477, 79.71450
322.5298, 79.32571
323.0120, 79.54720
323.4941, 79.55941
323.9762, 79.01073
324.4583, 78.23690
324.9404, 77.60123
325.4225, 77.12038
325.9047, 76.82150
326.3868, 76.86313
326.8689, 77.26416
327.3510, 77.33627
327.8331, 76.69389
328.3152, 75.91120
328.7974, 75.38518
329.2795, 75.29115
329.7616, 75.25695
330.2437, 75.30738
330.7258, 75.41561
331.2079, 75.41066
331.6901, 74.92542
332.1722, 74.68971
332.6543, 75.10519
333.1364, 76.69884
333.6185, 77.96273
334.1006, 78.74850
334.5828, 79.23207
335.0649, 79.81043
335.5470, 80.56335
336.0291, 81.28037
336.5112, 81.90341
336.9933, 82.46287
337.4755, 82.78036
337.9576, 82.79888
338.4397, 82.63920
338.9218, 82.41161
339.4039, 82.05354
339.8860, 81.87325
340.3681, 82.03383
340.8503, 82.49808
341.3324, 82.72143
341.8145, 82.66714
342.2966, 82.48312
342.7787, 82.18824
343.2608, 81.76216
343.7430, 81.74070
344.2251, 82.35716
344.7072, 83.35661
345.1893, 84.00532
345.6714, 84.29809
346.1535, 84.37473
346.6357, 84.02000
347.1178, 83.40549
347.5999, 83.71711
348.0820, 85.31179
348.5641, 87.33276
349.0462, 88.31129
349.5284, 88.39262
350.0105, 88.70661
350.4926, 89.92797
350.9747, 91.79617
351.4568, 93.86635
351.9389, 96.14904
352.4211, 98.28566
352.9032, 99.68714
353.3853, 100.6220
353.8674, 101.7425
354.3495, 103.4881
354.8316, 105.4371
355.3138, 107.1595
355.7959, 108.6578
356.2780, 109.9426
356.7601, 111.0583
357.2422, 111.9664
357.7243, 112.6077
358.2065, 112.8552
358.6886, 112.9920
359.1707, 113.4801
359.6528, 114.0679
360.1349, 113.9956
360.6170, 112.2865
361.0992, 110.1711
361.5813, 108.5216
362.0634, 107.5902
362.5455, 106.7743
363.0276, 105.8208
363.5097, 104.8354
363.9919, 103.9756
364.4740, 103.2912
364.9561, 102.7366
365.4382, 102.3017
365.9203, 101.9857
366.4024, 101.7682
366.8846, 101.6737
367.3667, 101.6581
367.8488, 101.6856
368.3309, 101.7568
368.8130, 101.8674
369.2951, 102.1152
369.7773, 102.4508
370.2594, 102.5260
370.7415, 101.8718
371.2236, 101.3927
371.7057, 101.5119
372.1878, 102.5368
372.6700, 103.5896
373.1521, 104.7199
373.6342, 105.8491
374.1163, 106.8165
374.5984, 107.5814
375.0805, 108.2412
375.5627, 108.7806
376.0448, 109.1759
376.5269, 109.7844
377.0090, 110.6833
377.4911, 111.6668
377.9732, 112.5802
378.4554, 113.4455
378.9375, 114.0312
379.4196, 114.1968
379.9017, 114.0866
380.3838, 114.2519
380.8659, 114.7156
381.3481, 115.2687
381.8302, 115.7226
382.3123, 116.1090
382.7944, 116.6643
383.2765, 117.4402
383.7586, 118.3408
384.2408, 119.2696
384.7229, 120.2146
385.2050, 121.1504
385.6871, 121.9375
386.1692, 122.7239
386.6513, 123.9395
387.1335, 125.6051
387.6156, 127.2166
388.0977, 128.3733
388.5798, 129.1250
389.0619, 129.5631
389.5440, 129.5827
390.0262, 129.4244
390.5083, 129.5613
390.9904, 129.8199
391.4725, 129.3820
391.9546, 127.6592
392.4367, 125.1016
392.9189, 121.9406
393.4010, 117.9581
393.8831, 114.0928
394.3652, 110.7656
394.8473, 107.9005
395.3294, 105.3534
395.8116, 103.4501
396.2937, 101.5633
396.7758, 99.22631
397.2579, 96.30318
397.7400, 94.10171
398.2221, 93.32725
398.7043, 93.16394
399.1864, 92.95468
399.6685, 92.78807
400.1506, 92.39567
400.6327, 91.53726
401.1148, 90.36695
401.5970, 89.63029
402.0791, 89.62338
402.5612, 89.71426
403.0433, 89.57284
403.5254, 88.92524
404.0075, 88.85375
404.4897, 89.60233
404.9718, 90.71765
405.4539, 91.46277
405.9360, 91.66917
406.4181, 92.05204
406.9002, 92.85999
407.3824, 94.04219
407.8645, 95.13265
408.3466, 96.06969
408.8287, 97.14880
409.3108, 98.55786
409.7929, 100.2996
410.2751, 102.6588
410.7572, 105.9414
411.2393, 109.4512
411.7214, 111.6293
412.2035, 112.6205
412.6856, 113.6892
413.1678, 115.6542
413.6499, 118.1963
414.1320, 120.5288
414.6141, 122.5917
415.0962, 124.9468
415.5783, 128.3682
416.0605, 132.4499
416.5426, 136.4952
417.0247, 140.2557
417.5068, 143.8912
417.9889, 147.6078
418.4710, 151.3429
418.9532, 154.9018
419.4353, 158.0938
419.9174, 161.0787
420.3995, 163.9648
420.8816, 166.8869
421.3637, 169.4857
421.8459, 171.4393
422.3280, 173.0113
422.8101, 174.6312
423.2922, 177.2652
423.7743, 179.1162
424.2564, 179.2862
424.7386, 177.6305
425.2207, 176.2637
425.7028, 175.6816
426.1849, 175.2477
426.6670, 174.5281
427.1491, 173.0252
427.6313, 172.0438
428.1134, 171.7994
428.5955, 172.0978
429.0776, 172.4137
429.5597, 172.7143
430.0418, 173.1047
430.5240, 173.5163
431.0061, 173.8918
431.4882, 175.1542
431.9703, 177.5985
432.4524, 180.2653
432.9345, 182.0468
433.4167, 182.9181
433.8988, 183.6857
434.3809, 184.6677
434.8630, 185.5228
435.3451, 185.3336
435.8272, 184.1181
436.3094, 182.4267
436.7915, 180.4575
437.2736, 178.2902
437.7557, 176.1660
438.2378, 174.1074
438.7199, 172.0171
439.2020, 169.8590
439.6841, 167.5950
440.1663, 165.1464
440.6484, 162.7353
441.1305, 159.9271
441.6126, 156.1087
442.0947, 151.4379
442.5768, 146.9728
443.0590, 143.0334
443.5411, 139.6611
444.0232, 136.8717
444.5053, 134.6128
444.9874, 133.0512
445.4695, 132.9937
445.9517, 133.5405
446.4338, 133.2366
446.9159, 130.9421
447.3980, 128.6243
447.8801, 126.7209
448.3622, 125.2303
448.8444, 124.2912
449.3265, 124.2019
449.8086, 124.4048
450.2907, 124.5260
450.7728, 124.4142
451.2549, 124.5468
451.7371, 124.8841
452.2192, 125.5177
452.7013, 126.7067
453.1834, 128.5342
453.6655, 130.5693
454.1476, 132.5595
454.6298, 134.5413
455.1119, 136.9825
455.5940, 139.8170
456.0761, 143.3515
456.5582, 148.0342
457.0403, 153.7230
457.5225, 159.6193
458.0046, 165.4452
458.4867, 171.3957
458.9688, 177.3067
459.4509, 183.3988
459.9330, 190.3302
460.4152, 199.4493
460.8973, 209.2413
461.3794, 217.5168
461.8615, 224.2367
462.3436, 231.1646
462.8257, 239.6228
463.3079, 248.9535
463.7900, 258.3987
464.2721, 267.4317
464.7542, 277.0652
465.2363, 287.8309
465.7184, 299.5326
466.2006, 311.6139
466.6827, 323.5312
467.1648, 336.1619
467.6469, 349.7907
468.1290, 364.5337
468.6111, 379.8536
469.0933, 396.2167
469.5754, 412.9369
470.0575, 429.7946
470.5396, 447.5239
471.0217, 463.8929
471.5038, 478.9117
471.9860, 492.4378
472.4681, 504.4958
472.9502, 515.5089
473.4323, 523.6765
473.9144, 528.6953
474.3965, 530.5262
474.8787, 526.3687
475.3608, 516.0286
475.8429, 500.8023
476.3250, 481.5449
476.8071, 458.5347
477.2892, 432.7359
477.7714, 403.6261
478.2535, 373.4689
478.7356, 344.9071
479.2177, 317.9611
479.6998, 293.3946
480.1819, 271.6167
480.6641, 252.0667
481.1462, 234.4919
481.6283, 218.7809
482.1104, 204.8042
482.5925, 192.6447
483.0746, 182.1137
483.5568, 172.9810
484.0389, 165.9391
484.5210, 159.5926
485.0031, 153.6947
485.4852, 148.2523
485.9673, 143.0851
486.4495, 137.8412
486.9316, 133.2556
487.4137, 129.6225
487.8958, 127.0678
488.3779, 124.8140
488.8600, 122.9078
489.3422, 121.2290
489.8243, 119.6581
490.3064, 118.2231
490.7885, 116.8249
491.2706, 115.3873
491.7527, 114.0327
492.2349, 113.0275
492.7170, 112.3872
493.1991, 112.0111
493.6812, 111.8260
494.1633, 111.8658
494.6454, 112.3546
495.1276, 113.3057
495.6097, 114.3872
496.0918, 115.2204
496.5739, 115.9666
497.0560, 116.9295
497.5381, 118.2175
498.0203, 119.6888
498.5024, 121.1866
498.9845, 122.7769
499.4666, 124.6462
499.9487, 127.1605
500.4308, 129.7305
500.9130, 131.8967
501.3951, 133.6385
501.8772, 135.7082
502.3593, 138.7127
502.8414, 141.8453
503.3235, 144.5919
503.8057, 146.2592
504.2878, 148.4232
504.7699, 150.9082
505.2520, 153.9811
505.7341, 158.2248
506.2162, 164.3672
506.6984, 170.1974
507.1805, 174.9908
507.6626, 178.8782
508.1447, 183.1339
508.6268, 187.8246
509.1089, 192.6248
509.5911, 197.3583
510.0732, 202.0179
510.5553, 206.6489
511.0374, 211.3625
511.5195, 215.6220
512.0016, 218.6341
512.4838, 220.6086
512.9659, 222.1982
513.4480, 223.8371
513.9301, 225.0634
514.4122, 225.0983
514.8943, 224.1746
515.3765, 223.2722
515.8586, 222.6729
516.3407, 222.4899
516.8228, 222.6996
517.3049, 223.1981
517.7870, 224.6462
518.2692, 227.0935
518.7513, 230.6650
519.2334, 235.4798
519.7155, 242.5552
520.1976, 249.7038
520.6797, 256.3952
521.1619, 262.9794
521.6440, 270.4005
522.1261, 278.5998
522.6082, 287.6018
523.0903, 297.4647
523.5724, 308.1973
524.0546, 319.3848
524.5367, 330.8818
525.0188, 343.0716
525.5009, 356.1998
525.9830, 370.3770
526.4651, 386.2928
526.9473, 404.4991
527.4294, 423.5646
527.9115, 441.3006
528.3936, 457.9127
528.8757, 474.4620
529.3578, 491.5356
529.8400, 508.4787
530.3221, 524.9811
530.8042, 540.7700
531.2863, 555.1567
531.7684, 568.5746
532.2505, 579.7313
532.7327, 587.7860
533.2148, 593.0023
533.6969, 593.7631
534.1790, 589.4716
534.6611, 580.5318
535.1432, 567.4384
535.6254, 548.6384
536.1075, 527.3395
536.5896, 503.4514
537.0717, 477.3272
537.5538, 451.2238
538.0359, 424.6408
538.5181, 398.7280
539.0002, 373.3865
539.4823, 348.7522
539.9644, 326.1257
540.4465, 305.5192
540.9286, 286.8337
541.4108, 270.4188
541.8929, 255.8680
542.3750, 242.0071
542.8571, 228.4981
543.3392, 216.0286
543.8214, 205.5124
544.3035, 196.6440
544.7856, 188.3013
545.2677, 179.9498
545.7498, 171.9789
546.2319, 164.6340
546.7141, 157.9526
547.1962, 152.1246
547.6783, 147.7340
548.1604, 143.8551
548.6425, 139.9042
549.1246, 135.8004
549.6068, 131.7676
550.0889, 127.7439
550.5710, 123.8442
551.0531, 120.1566
551.5352, 116.6088
552.0173, 113.4280
552.4995, 110.7212
552.9816, 108.3745
553.4637, 106.1572
553.9458, 104.0719
554.4279, 102.0925
554.9100, 100.1148
555.3922, 98.23874
555.8743, 97.02532
556.3564, 96.48559
556.8385, 95.88425
557.3206, 94.44034
557.8027, 92.59459
558.2849, 91.12044
558.7670, 90.20186
559.2491, 89.32082
559.7312, 87.93075
560.2133, 86.38615
560.6954, 85.17418
561.1776, 84.64102
561.6597, 84.29386
562.1418, 84.11550
562.6239, 84.02062
563.1060, 83.71326
563.5881, 82.98647
564.0703, 82.20227
564.5524, 81.44424
565.0345, 80.71702
565.5166, 80.02445
565.9987, 79.31734
566.4808, 78.72788
566.9630, 78.44883
567.4451, 78.52748
567.9272, 78.23649
568.4093, 77.42960
568.8914, 76.47579
569.3735, 75.90453
569.8557, 75.65366
570.3378, 75.39588
570.8199, 75.00281
571.3020, 74.56712
571.7841, 74.20193
572.2662, 73.89931
572.7484, 73.63151
573.2305, 73.49003
573.7126, 73.29534
574.1947, 72.89757
574.6768, 72.28005
575.1589, 71.62014
575.6411, 70.79317
576.1232, 70.07003
576.6053, 69.66520
577.0874, 69.85435
577.5695, 69.94241
578.0516, 69.98521
578.5338, 69.88932
579.0159, 69.41348
579.4980, 68.35479
579.9801, 67.70486
580.4622, 67.84525
580.9443, 68.44286
581.4265, 68.43900
581.9086, 67.83538
582.3907, 67.10859
582.8728, 66.36358
583.3549, 65.72386
583.8370, 65.52985
584.3192, 65.77676
584.8013, 66.01476
585.2834, 65.90287
585.7655, 65.60405
586.2476, 65.29094
586.7297, 64.98782
587.2118, 64.69980
587.6939, 64.42866
588.1760, 64.17065
588.6581, 63.92109
589.1403, 63.54799
589.6224, 63.34484
590.1045, 63.45094
590.5866, 63.75372
591.0687, 63.88270
591.5508, 63.80855
592.0330, 63.61787
592.5151, 63.28713
592.9972, 62.84138
593.4793, 62.57012
593.9614, 62.47740
594.4435, 62.53001
594.9257, 62.81794
595.4078, 63.23297
595.8899, 63.42979
596.3720, 63.34917
596.8541, 63.19237
597.3362, 63.15344
597.8184, 63.15984
598.3005, 63.09515
598.7826, 62.84210
599.2647, 62.62095
599.7468, 62.43240
600.2289, 62.35366
600.7111, 62.55663
601.1932, 63.56813
601.6753, 64.34688
602.1574, 64.44674
602.6395, 63.93775
603.1216, 63.87255
603.6038, 64.47063
604.0859, 65.10777
604.5680, 65.40622
605.0501, 65.33060
605.5322, 65.46201
606.0143, 65.79006
606.4965, 66.37673
606.9786, 67.67287
607.4607, 69.31931
607.9428, 69.95088
608.4249, 68.95796
608.9070, 67.93434
609.3892, 68.86601
609.8713, 70.89550
610.3534, 72.44524
610.8355, 72.44150
611.3176, 72.18935
611.7997, 72.07629
612.2819, 72.16603
612.7640, 72.66342
613.2461, 74.05598
613.7282, 75.41886
614.2103, 76.42879
614.6924, 77.04742
615.1746, 77.77701
615.6567, 78.65269
616.1388, 79.55977
616.6209, 80.44960
617.1030, 81.31998
617.5851, 82.15665
618.0673, 82.99403
618.5494, 83.64023
619.0315, 83.78802
619.5136, 83.54504
619.9957, 83.21058
620.4778, 82.86520
620.9600, 82.43870
621.4421, 81.75905
621.9242, 80.95321
622.4063, 80.29051
622.8884, 80.02983
623.3705, 79.77310
623.8527, 79.31119
624.3348, 78.68114
624.8169, 78.16452
625.2990, 77.91159
625.7811, 77.64359
626.2632, 77.28561
626.7454, 76.83927
