##NAMES=Elpidite
##RRUFFID=R060200
##IDEAL CHEMISTRY=Na_2_Zr^4+^Si_6_O_15_&#183;3H_2_O
##LOCALITY=Poudrette Quarry, Mont Saint-Hilaire, Rouville County, Quebec, Canada
##OWNER=RRUFF
##SOURCE=Royal Ontario Museum
##DESCRIPTION=Tan colored columnar aggregate of elongated prismatic fibers
##STATUS=The identification of this mineral has been confirmed by single-crystal X-ray diffraction.
##URL=rruff.info/R060200
91.82715, 125.0263
92.30927, 126.3941
92.79138, 126.3867
93.27350, 123.8807
93.75562, 120.3092
94.23773, 116.5151
94.71985, 112.7085
95.20197, 108.7955
95.68408, 104.6313
96.16620, 100.5268
96.64832, 96.69685
97.13043, 93.08903
97.61255, 90.03194
98.09467, 88.14841
98.57678, 87.93308
99.05890, 87.25540
99.54102, 85.63334
100.0231, 83.69249
100.5052, 82.01801
100.9874, 80.91374
101.4695, 80.19434
101.9516, 78.99174
102.4337, 75.68507
102.9158, 73.50683
103.3979, 73.39408
103.8801, 74.78596
104.3622, 76.68777
104.8443, 78.40250
105.3264, 79.97803
105.8085, 80.65768
106.2906, 80.58076
106.7728, 79.71837
107.2549, 77.53508
107.7370, 74.14624
108.2191, 70.86385
108.7012, 69.33304
109.1833, 69.68380
109.6655, 69.74018
110.1476, 68.74721
110.6297, 67.41768
111.1118, 66.99049
111.5939, 68.07008
112.0760, 69.34164
112.5582, 69.20241
113.0403, 67.78910
113.5224, 66.47609
114.0045, 66.15266
114.4866, 66.77730
114.9688, 67.55412
115.4509, 68.66513
115.9330, 69.62027
116.4151, 70.05435
116.8972, 69.92259
117.3793, 69.56943
117.8615, 69.46165
118.3436, 69.74665
118.8257, 69.91924
119.3078, 69.82453
119.7899, 69.66599
120.2720, 69.68480
120.7542, 69.96888
121.2363, 70.30992
121.7184, 70.10585
122.2005, 68.07038
122.6826, 66.89366
123.1647, 67.52685
123.6468, 69.00394
124.1290, 69.87565
124.6111, 69.24583
125.0932, 67.35446
125.5753, 66.24858
126.0574, 66.35867
126.5395, 66.60526
127.0217, 66.71500
127.5038, 66.63875
127.9859, 66.19892
128.4680, 65.05709
128.9501, 63.40097
129.4323, 62.31951
129.9144, 62.40563
130.3965, 62.78429
130.8786, 62.40527
131.3607, 61.05482
131.8428, 59.79691
132.3250, 59.67887
132.8071, 60.22446
133.2892, 60.63586
133.7713, 60.47337
134.2534, 59.89869
134.7355, 59.43769
135.2177, 58.99540
135.6998, 58.84361
136.1819, 59.15395
136.6640, 59.82869
137.1461, 60.62756
137.6282, 61.40921
138.1104, 62.18274
138.5925, 62.83373
139.0746, 63.04151
139.5567, 63.39186
140.0388, 64.18615
140.5209, 65.38582
141.0031, 66.73208
141.4852, 67.93786
141.9673, 69.00871
142.4494, 69.89001
142.9315, 70.66225
143.4136, 71.23524
143.8958, 71.47646
144.3779, 71.37673
144.8600, 71.14365
145.3421, 71.13786
145.8242, 71.75018
146.3063, 71.81390
146.7885, 70.36468
147.2706, 68.63311
147.7527, 68.38246
148.2348, 70.41236
148.7169, 73.45335
149.1990, 74.86658
149.6812, 74.48926
150.1633, 73.80294
150.6454, 72.98244
151.1275, 72.20438
151.6096, 72.13282
152.0917, 73.36299
152.5739, 75.10947
153.0560, 76.13847
153.5381, 76.31444
154.0202, 76.18653
154.5023, 76.06979
154.9844, 75.95447
155.4665, 76.05086
155.9487, 76.60775
156.4308, 77.33712
156.9129, 78.07441
157.3950, 78.80839
157.8771, 79.42077
158.3592, 79.60709
158.8414, 79.00047
159.3235, 78.92698
159.8056, 80.41076
160.2877, 82.17454
160.7698, 82.95348
161.2519, 82.14417
161.7341, 80.40723
162.2162, 79.72020
162.6983, 81.13479
163.1804, 82.25477
163.6625, 82.69340
164.1446, 82.67343
164.6268, 82.40587
165.1089, 81.98479
165.5910, 81.48735
166.0731, 81.42079
166.5552, 82.46915
167.0373, 83.20407
167.5195, 83.23385
168.0016, 82.73856
168.4837, 82.05257
168.9658, 81.35339
169.4479, 80.66257
169.9300, 80.31983
170.4122, 80.90230
170.8943, 81.21662
171.3764, 80.71117
171.8585, 79.44753
172.3406, 77.72122
172.8227, 75.50719
173.3049, 72.98666
173.7870, 71.30940
174.2691, 71.01820
174.7512, 71.17451
175.2333, 71.16478
175.7154, 70.97072
176.1976, 70.48851
176.6797, 69.60485
177.1618, 68.35554
177.6439, 66.82053
178.1260, 64.62861
178.6081, 62.29662
179.0903, 60.58511
179.5724, 59.60383
180.0545, 58.96370
180.5366, 58.68475
181.0187, 58.54185
181.5008, 58.14838
181.9830, 57.14501
182.4651, 55.78734
182.9472, 54.93766
183.4293, 55.08022
183.9114, 54.97792
184.3935, 53.71087
184.8757, 51.89735
185.3578, 50.63193
185.8399, 50.82306
186.3220, 52.28852
186.8041, 53.04777
187.2862, 52.28871
187.7684, 51.63389
188.2505, 51.89934
188.7326, 52.64040
189.2147, 52.87112
189.6968, 51.66102
190.1789, 48.91393
190.6611, 47.29241
191.1432, 47.94343
191.6253, 48.59361
192.1074, 48.49659
192.5895, 47.76448
193.0716, 46.84539
193.5538, 46.06752
194.0359, 45.35630
194.5180, 45.48817
195.0001, 47.25269
195.4822, 48.94372
195.9643, 49.71852
196.4465, 49.62441
196.9286, 49.22314
197.4107, 49.01355
197.8928, 49.03225
198.3749, 48.94550
198.8570, 48.68916
199.3392, 48.38814
199.8213, 47.94941
200.3034, 47.42236
200.7855, 47.27881
201.2676, 48.17090
201.7497, 50.15235
202.2319, 51.29353
202.7140, 50.96871
203.1961, 50.09736
203.6782, 49.49531
204.1603, 49.25102
204.6424, 49.10945
205.1246, 48.84286
205.6067, 48.48240
206.0888, 48.17921
206.5709, 47.79802
207.0530, 47.55349
207.5351, 47.81395
208.0173, 48.70335
208.4994, 49.73077
208.9815, 50.53176
209.4636, 51.18367
209.9457, 51.82823
210.4278, 52.87466
210.9100, 53.90916
211.3921, 53.82656
211.8742, 52.05501
212.3563, 50.34883
212.8384, 49.66073
213.3205, 49.74742
213.8027, 50.26534
214.2848, 51.31567
214.7669, 52.65466
215.2490, 53.28559
215.7311, 52.57716
216.2132, 52.14329
216.6954, 53.05499
217.1775, 54.63509
217.6596, 55.69012
218.1417, 55.35646
218.6238, 53.90381
219.1059, 52.90625
219.5881, 52.38285
220.0702, 52.39190
220.5523, 53.47920
221.0344, 55.00650
221.5165, 55.91220
221.9986, 55.35880
222.4808, 53.56766
222.9629, 52.63501
223.4450, 53.65041
223.9271, 54.44128
224.4092, 54.25965
224.8913, 53.57071
225.3735, 53.21056
225.8556, 53.76228
226.3377, 55.13260
226.8198, 56.31043
227.3019, 57.55822
227.7840, 58.31147
228.2662, 57.86068
228.7483, 56.86076
229.2304, 56.55504
229.7125, 57.84338
230.1946, 60.48383
230.6767, 61.77022
231.1589, 60.54461
231.6410, 59.35634
232.1231, 58.67157
232.6052, 58.48061
233.0873, 58.72670
233.5694, 59.42431
234.0516, 60.48602
234.5337, 61.26795
235.0158, 61.25147
235.4979, 61.57781
235.9800, 63.02166
236.4621, 65.07187
236.9443, 66.61412
237.4264, 66.99537
237.9085, 66.43542
238.3906, 65.94431
238.8727, 64.86164
239.3548, 64.53252
239.8370, 66.08966
240.3191, 68.80908
240.8012, 70.83568
241.2833, 71.11418
241.7654, 70.25796
242.2475, 70.12193
242.7297, 70.98337
243.2118, 71.96786
243.6939, 72.86990
244.1760, 73.62753
244.6581, 73.98352
245.1402, 73.67213
245.6224, 73.08846
246.1045, 73.03259
246.5866, 73.61910
247.0687, 74.33092
247.5508, 75.32774
248.0329, 76.33867
248.5151, 76.25126
248.9972, 74.19155
249.4793, 71.44313
249.9614, 69.98672
250.4435, 69.99203
250.9256, 70.01165
251.4078, 69.01696
251.8899, 67.28476
252.3720, 66.03721
252.8541, 65.75253
253.3362, 65.87751
253.8183, 65.90093
254.3005, 65.82783
254.7826, 65.44762
255.2647, 64.42631
255.7468, 62.91172
256.2289, 61.69538
256.7110, 61.13054
257.1931, 60.60700
257.6753, 59.62787
258.1574, 58.24129
258.6395, 56.74931
259.1216, 55.23341
259.6037, 53.73599
260.0858, 52.50927
260.5680, 51.77485
261.0501, 51.05936
261.5322, 50.01788
262.0143, 48.73936
262.4964, 47.49628
262.9785, 46.39590
263.4607, 45.45721
263.9428, 44.79351
264.4249, 44.57848
264.9070, 44.40985
265.3891, 44.19801
265.8712, 43.88383
266.3534, 43.30135
266.8355, 42.06986
267.3176, 40.52036
267.7997, 40.26717
268.2818, 42.67877
268.7639, 44.27185
269.2461, 43.12774
269.7282, 40.62207
270.2103, 38.80127
270.6924, 38.84666
271.1745, 40.18525
271.6566, 40.94490
272.1388, 40.80194
272.6209, 40.58607
273.1030, 40.56376
273.5851, 40.59148
274.0672, 40.48354
274.5493, 40.14365
275.0315, 39.68423
275.5136, 39.38799
275.9957, 39.32628
276.4778, 39.30345
276.9599, 39.42894
277.4420, 39.49779
277.9242, 39.20840
278.4063, 38.46033
278.8884, 37.63270
279.3705, 37.44275
279.8526, 38.11098
280.3347, 38.99817
280.8169, 40.40093
281.2990, 41.72898
281.7811, 42.50716
282.2632, 42.63540
282.7453, 42.39252
283.2274, 42.17763
283.7096, 42.04995
284.1917, 41.79470
284.6738, 41.18906
285.1559, 40.63749
285.6380, 40.33170
286.1201, 40.31905
286.6023, 40.59583
287.0844, 41.30125
287.5665, 42.76013
288.0486, 43.28801
288.5307, 42.27260
289.0128, 40.96135
289.4950, 39.62678
289.9771, 38.44829
290.4592, 37.71431
290.9413, 37.77127
291.4234, 38.70943
291.9055, 39.23301
292.3877, 38.90015
292.8698, 38.60193
293.3519, 38.57593
293.8340, 38.81205
294.3161, 39.31987
294.7982, 40.19812
295.2804, 41.34711
295.7625, 41.41782
296.2446, 38.97575
296.7267, 36.94989
297.2088, 35.85189
297.6909, 35.52713
298.1731, 35.83675
298.6552, 36.74078
299.1373, 37.99276
299.6194, 38.64305
300.1015, 38.04737
300.5836, 37.57931
301.0658, 37.14104
301.5479, 36.96899
302.0300, 37.56154
302.5121, 39.07722
302.9942, 40.81510
303.4763, 41.25658
303.9585, 38.83177
304.4406, 37.45398
304.9227, 38.12061
305.4048, 39.17584
305.8869, 39.19277
306.3690, 37.89322
306.8512, 36.10741
307.3333, 34.96673
307.8154, 34.65571
308.2975, 34.57744
308.7796, 34.97541
309.2617, 35.37031
309.7439, 35.47041
310.2260, 35.26725
310.7081, 34.93480
311.1902, 34.66563
311.6723, 34.50897
312.1544, 34.01266
312.6366, 32.63802
313.1187, 31.49659
313.6008, 31.09734
314.0829, 31.30165
314.5650, 31.68926
315.0471, 31.95409
315.5293, 32.12040
316.0114, 32.51378
316.4935, 33.88323
316.9756, 34.64568
317.4577, 34.11211
317.9398, 32.83337
318.4220, 31.55491
318.9041, 30.64380
319.3862, 30.10641
319.8683, 29.96826
320.3504, 30.59352
320.8326, 31.19772
321.3147, 31.97002
321.7968, 32.59338
322.2789, 32.65619
322.7610, 32.05389
323.2431, 31.16919
323.7253, 30.65412
324.2074, 30.66374
324.6895, 30.77570
325.1716, 30.95835
325.6537, 31.24929
326.1358, 31.77334
326.6180, 32.48600
327.1001, 33.14521
327.5822, 33.48829
328.0643, 33.47134
328.5464, 33.34456
329.0285, 32.99327
329.5107, 32.65705
329.9928, 32.38057
330.4749, 32.19915
330.9570, 32.15456
331.4391, 32.26856
331.9212, 32.54698
332.4034, 33.08244
332.8855, 34.65503
333.3676, 35.63531
333.8497, 35.15983
334.3318, 34.03572
334.8139, 33.51718
335.2961, 34.25410
335.7782, 35.66253
336.2603, 35.97010
336.7424, 34.00319
337.2245, 32.66026
337.7066, 32.29517
338.1888, 32.49900
338.6709, 33.02046
339.1530, 33.75069
339.6351, 34.55890
340.1172, 35.34807
340.5993, 36.45311
341.0815, 36.62712
341.5636, 34.96381
342.0457, 33.25260
342.5278, 32.42033
343.0099, 32.50362
343.4920, 33.07203
343.9742, 33.81369
344.4563, 34.75404
344.9384, 35.39323
345.4205, 35.71825
345.9026, 35.71474
346.3847, 35.00368
346.8669, 33.99218
347.3490, 33.46420
347.8311, 33.99675
348.3132, 35.17822
348.7953, 35.25797
349.2774, 33.06345
349.7596, 31.59577
350.2417, 31.85691
350.7238, 32.79952
351.2059, 33.34124
351.6880, 33.11716
352.1701, 32.64594
352.6523, 32.89814
353.1344, 34.28813
353.6165, 35.12059
354.0986, 34.61684
354.5807, 33.98758
355.0628, 34.04808
355.5450, 34.77736
356.0271, 35.47212
356.5092, 35.40906
356.9913, 34.56247
357.4734, 33.73701
357.9555, 32.66970
358.4377, 31.95536
358.9198, 31.98539
359.4019, 32.52472
359.8840, 33.09029
360.3661, 33.38200
360.8482, 33.51983
361.3304, 33.95083
361.8125, 34.96132
362.2946, 35.61231
362.7767, 35.65969
363.2588, 35.18520
363.7409, 33.98141
364.2231, 31.83554
364.7052, 29.84882
365.1873, 29.72811
365.6694, 31.72245
366.1515, 33.27209
366.6336, 33.61919
367.1158, 33.43831
367.5979, 33.14054
368.0800, 32.76293
368.5621, 32.33601
369.0442, 31.72382
369.5263, 31.03450
370.0085, 30.87844
370.4906, 31.59914
370.9727, 32.31649
371.4548, 32.35804
371.9369, 31.95219
372.4190, 31.58134
372.9012, 31.26341
373.3833, 31.18506
373.8654, 31.90527
374.3475, 33.57556
374.8296, 34.70326
375.3117, 34.18262
375.7939, 32.82733
376.2760, 31.81140
376.7581, 31.23025
377.2402, 31.01022
377.7223, 31.39246
378.2044, 32.17791
378.6866, 32.41637
379.1687, 31.62811
379.6508, 30.56951
380.1329, 30.30084
380.6150, 30.79476
381.0971, 31.07883
381.5793, 30.44749
382.0614, 29.58801
382.5435, 29.62792
383.0256, 30.73439
383.5077, 31.86741
383.9898, 32.17598
384.4720, 31.74967
384.9541, 31.50054
385.4362, 31.53891
385.9183, 31.68415
386.4004, 31.93673
386.8825, 32.22811
387.3647, 32.30266
387.8468, 31.98905
388.3289, 31.46821
388.8110, 31.23832
389.2931, 31.51089
389.7752, 31.56368
390.2574, 31.06085
390.7395, 30.34302
391.2216, 29.73800
391.7037, 29.33225
392.1858, 29.22208
392.6679, 29.59560
393.1501, 30.62407
393.6322, 31.21391
394.1143, 31.37288
394.5964, 31.13517
395.0785, 30.25016
395.5606, 28.94507
396.0428, 27.79963
396.5249, 27.17159
397.0070, 27.01835
397.4891, 27.10799
397.9712, 27.85575
398.4533, 28.34416
398.9355, 28.28481
399.4176, 28.00511
399.8997, 27.89295
400.3818, 28.05755
400.8639, 28.27746
401.3460, 28.21631
401.8282, 27.79479
402.3103, 27.29889
402.7924, 26.13843
403.2745, 25.43141
403.7566, 26.09594
404.2387, 27.77324
404.7209, 29.36457
405.2030, 30.04670
405.6851, 29.90849
406.1672, 29.56178
406.6493, 28.81234
407.1314, 28.13136
407.6136, 27.47720
408.0957, 27.00461
408.5778, 26.91020
409.0599, 27.26685
409.5420, 27.90014
410.0241, 28.76144
410.5063, 30.04359
410.9884, 30.48778
411.4705, 29.19484
411.9526, 27.57395
412.4347, 26.01795
412.9168, 24.73721
413.3990, 24.30282
413.8811, 25.58698
414.3632, 28.08050
414.8453, 29.94670
415.3274, 31.19569
415.8095, 31.77806
416.2917, 30.98282
416.7738, 29.70915
417.2559, 29.24677
417.7380, 30.21241
418.2201, 31.41100
418.7022, 31.51484
419.1844, 30.66333
419.6665, 30.26318
420.1486, 30.99051
420.6307, 31.98684
421.1128, 32.03878
421.5949, 31.15549
422.0771, 30.53287
422.5592, 30.74676
423.0413, 31.40293
423.5234, 32.03751
424.0055, 32.60137
424.4876, 33.04289
424.9698, 33.30346
425.4519, 33.39259
425.9340, 33.44898
426.4161, 33.43975
426.8982, 33.43354
427.3803, 33.52729
427.8625, 33.64088
428.3446, 33.60735
428.8267, 33.36312
429.3088, 32.95109
429.7909, 32.40348
430.2730, 31.47012
430.7552, 31.02608
431.2373, 31.60422
431.7194, 32.27929
432.2015, 32.34672
432.6836, 31.82559
433.1657, 31.10655
433.6479, 30.42179
434.1300, 29.82380
434.6121, 30.04121
435.0942, 32.60182
435.5763, 34.20873
436.0584, 33.56972
436.5406, 32.03087
437.0227, 31.21488
437.5048, 31.66222
437.9869, 32.59524
438.4690, 32.72195
438.9511, 31.63665
439.4333, 31.06606
439.9154, 31.90906
440.3975, 32.48855
440.8796, 31.60959
441.3617, 29.78215
441.8438, 28.47793
442.3260, 28.77430
442.8081, 30.22643
443.2902, 31.46178
443.7723, 32.64489
444.2544, 33.19373
444.7365, 32.19356
445.2187, 30.85549
445.7008, 30.30301
446.1829, 30.77890
446.6650, 31.63045
447.1471, 32.45371
447.6292, 33.21238
448.1114, 33.72681
448.5935, 33.99963
449.0756, 33.95487
449.5577, 33.33693
450.0398, 32.32723
450.5219, 31.44531
451.0041, 30.74974
451.4862, 30.29990
451.9683, 30.15720
452.4504, 30.31524
452.9325, 30.74426
453.4146, 31.44607
453.8968, 32.39449
454.3789, 33.68578
454.8610, 35.63655
455.3431, 36.90521
455.8252, 36.64161
456.3073, 35.84225
456.7895, 35.46704
457.2716, 35.68544
457.7537, 36.41660
458.2358, 37.70670
458.7179, 39.55873
459.2000, 40.77359
459.6822, 40.86025
460.1643, 40.98936
460.6464, 41.58054
461.1285, 42.37993
461.6106, 42.95355
462.0927, 43.15052
462.5748, 43.26568
463.0569, 43.81677
463.5391, 44.99136
464.0212, 46.08905
464.5033, 47.20946
464.9854, 48.16446
465.4675, 48.69002
465.9496, 48.96983
466.4318, 49.46974
466.9139, 50.54696
467.3960, 51.98495
467.8781, 53.14932
468.3602, 54.08483
468.8423, 54.63228
469.3245, 54.21978
469.8066, 53.73177
470.2887, 53.97094
470.7708, 55.03791
471.2529, 56.18510
471.7350, 57.04229
472.2172, 57.53799
472.6993, 57.20226
473.1814, 55.67619
473.6635, 54.25724
474.1456, 54.30718
474.6277, 55.11457
475.1099, 55.05128
475.5920, 53.34123
476.0741, 51.37656
476.5562, 50.23781
477.0383, 49.63802
477.5204, 48.68879
478.0026, 47.09167
478.4847, 45.11992
478.9668, 43.10580
479.4489, 40.99556
479.9310, 39.10575
480.4131, 37.27296
480.8953, 35.82431
481.3774, 35.11015
481.8595, 35.00251
482.3416, 35.13860
482.8237, 35.33979
483.3058, 35.51924
483.7880, 35.38258
484.2701, 34.86743
484.7522, 34.08548
485.2343, 32.61506
485.7164, 31.19149
486.1985, 30.38496
486.6807, 30.23548
487.1628, 30.42471
487.6449, 30.69034
488.1270, 31.03642
488.6091, 31.55571
489.0912, 32.58983
489.5734, 33.23454
490.0555, 33.26750
490.5376, 32.80762
491.0197, 31.72370
491.5018, 29.92117
491.9839, 28.46148
492.4661, 28.76621
492.9482, 30.60996
493.4303, 32.02840
493.9124, 32.84360
494.3945, 33.02454
494.8766, 32.01285
495.3588, 30.30424
495.8409, 29.28096
496.3230, 29.82444
496.8051, 30.65574
497.2872, 30.59824
497.7693, 29.89960
498.2515, 29.47549
498.7336, 29.67471
499.2157, 30.27192
499.6978, 30.94485
500.1799, 31.70520
500.6620, 32.50428
501.1442, 34.01600
501.6263, 35.00643
502.1084, 34.04921
502.5905, 31.72112
503.0726, 29.96538
503.5547, 30.02040
504.0369, 31.33870
504.5190, 32.00079
505.0011, 31.28684
505.4832, 31.05592
505.9653, 31.61004
506.4474, 32.47807
506.9296, 33.43109
507.4117, 34.38107
507.8938, 35.25194
508.3759, 36.06354
508.8580, 36.74176
509.3401, 36.77385
509.8223, 35.91771
510.3044, 34.94080
510.7865, 33.36521
511.2686, 32.20326
511.7507, 32.95753
512.2328, 36.05605
512.7150, 38.76556
513.1971, 38.42995
513.6792, 36.11920
514.1613, 35.07935
514.6434, 35.90025
515.1255, 36.98332
515.6077, 37.07531
516.0898, 36.43595
516.5719, 36.25669
517.0540, 36.71034
517.5361, 37.46668
518.0182, 38.66496
518.5004, 39.99310
518.9825, 40.87015
519.4646, 41.14606
519.9467, 41.17814
520.4288, 41.35933
520.9109, 41.67714
521.3931, 42.25311
521.8752, 43.26784
522.3573, 44.30668
522.8394, 45.31617
523.3215, 46.22681
523.8036, 46.96105
524.2858, 47.48329
524.7679, 47.81031
525.2500, 47.87825
525.7321, 47.57742
526.2142, 47.56293
526.6964, 47.83513
527.1785, 48.46694
527.6606, 49.76667
528.1427, 51.42002
528.6248, 52.72439
529.1069, 53.23989
529.5891, 53.52419
530.0712, 54.56750
530.5533, 56.28399
531.0354, 57.12318
531.5175, 56.40376
531.9996, 55.05140
532.4818, 54.23574
532.9639, 53.90882
533.4460, 53.13147
533.9281, 50.93032
534.4102, 48.86684
534.8923, 48.61120
535.3745, 49.61105
535.8566, 49.87206
536.3387, 48.42136
536.8208, 45.96022
537.3029, 43.92163
537.7850, 42.44598
538.2672, 41.10686
538.7493, 40.08254
539.2314, 39.02878
539.7135, 37.61725
540.1956, 36.00035
540.6777, 34.57797
541.1599, 33.59547
541.6420, 32.93204
542.1241, 32.34121
542.6062, 31.91980
543.0883, 31.24217
543.5704, 29.77851
544.0526, 28.41324
544.5347, 27.88485
545.0168, 28.02938
545.4989, 27.97058
545.9810, 27.10926
546.4631, 25.84776
546.9453, 24.68026
547.4274, 23.61233
547.9095, 23.01852
548.3916, 23.22313
548.8737, 23.77439
549.3558, 23.85165
549.8380, 23.39771
550.3201, 23.00712
550.8022, 23.05691
551.2843, 23.00546
551.7664, 22.17107
552.2485, 20.78362
552.7307, 19.71132
553.2128, 19.45007
553.6949, 19.80334
554.1770, 20.25155
554.6591, 21.05265
555.1412, 21.46829
555.6234, 21.23731
556.1055, 20.88535
556.5876, 20.82371
557.0697, 20.93525
557.5518, 20.74304
558.0339, 19.83243
558.5161, 18.62810
558.9982, 18.17085
559.4803, 18.58235
559.9624, 19.01342
560.4445, 19.18793
560.9266, 19.35430
561.4088, 19.86010
561.8909, 20.65425
562.3730, 21.15158
562.8551, 20.93504
563.3372, 20.45949
563.8193, 20.09252
564.3015, 19.87148
564.7836, 20.00757
565.2657, 20.70032
565.7478, 21.46810
566.2299, 21.35620
566.7120, 19.73085
567.1942, 18.77869
567.6763, 18.83654
568.1584, 19.25321
568.6405, 19.90498
569.1226, 20.59390
569.6047, 20.96800
570.0869, 20.82820
570.5690, 20.42731
571.0511, 20.27008
571.5332, 20.38320
572.0153, 20.65043
572.4974, 21.48469
572.9796, 22.03193
573.4617, 21.57872
573.9438, 20.48462
574.4259, 19.71461
574.9080, 19.78238
575.3901, 20.15164
575.8723, 20.32695
576.3544, 20.29699
576.8365, 19.97260
577.3186, 19.30001
577.8007, 18.39916
578.2828, 17.26045
578.7650, 15.86243
579.2471, 15.08803
579.7292, 14.88305
580.2113, 15.39323
580.6934, 17.44838
581.1755, 20.04246
581.6577, 21.53210
582.1398, 21.37789
582.6219, 20.38060
583.1040, 19.51300
583.5861, 18.73915
584.0682, 18.39812
584.5504, 19.07275
585.0325, 19.47595
585.5146, 18.68335
585.9967, 17.63053
586.4788, 17.68462
586.9609, 19.27585
587.4431, 21.06988
587.9252, 21.98103
