##NAMES=Emeleusite
##RRUFFID=R061034
##IDEAL CHEMISTRY=Na_2_LiFe^3+^Si_6_O_15_
##LOCALITY=Igdlutalig, Ilimaussaq, Greenland
##OWNER=RRUFF
##SOURCE=Michael Scott
##DESCRIPTION=Light pink massive associated with albite and aegirine, co-type specimen
##STATUS=The identification of this mineral has been confirmed by X-ray diffraction and chemical analysis
##URL=rruff.info/R061034
##MEASURED CHEMISTRY=(Na_1.57_K_0.43_)_Σ=2_Li_1.00_(Fe^3+^_0.77_Al_0.18_Ti_0.02_Mg_0.02_)_Σ=1_Si_6.00_O_15_; (lighter areas) Li estimated by difference; dark: albite
145.1515, 3953.652
145.6336, 4103.398
146.1157, 4256.511
146.5979, 4413.498
147.0800, 4567.692
147.5621, 4711.632
148.0442, 4849.642
148.5263, 4966.880
149.0084, 5068.734
149.4906, 5150.287
149.9727, 5206.351
150.4548, 5236.482
150.9369, 5245.956
151.4190, 5241.271
151.9011, 5213.459
152.3833, 5187.178
152.8654, 5161.207
153.3475, 5137.667
153.8296, 5118.420
154.3117, 5103.987
154.7938, 5093.630
155.2760, 5086.059
155.7581, 5079.994
156.2402, 5079.402
156.7223, 5081.887
157.2044, 5090.375
157.6865, 5106.506
158.1687, 5130.917
158.6508, 5165.006
159.1329, 5211.350
159.6150, 5281.115
160.0971, 5350.326
160.5792, 5420.882
161.0614, 5489.855
161.5435, 5554.102
162.0256, 5612.131
162.5077, 5664.691
162.9898, 5713.280
163.4719, 5751.118
163.9541, 5792.523
164.4362, 5838.473
164.9183, 5887.842
165.4004, 5940.450
165.8825, 5996.713
166.3646, 6053.322
166.8468, 6102.351
167.3289, 6140.072
167.8110, 6174.851
168.2931, 6203.318
168.7752, 6230.342
169.2573, 6266.016
169.7395, 6316.037
170.2216, 6369.693
170.7037, 6396.469
171.1858, 6373.343
171.6679, 6356.292
172.1500, 6358.673
172.6322, 6371.066
173.1143, 6379.328
173.5964, 6377.284
174.0785, 6368.214
174.5606, 6360.632
175.0427, 6347.896
175.5249, 6345.118
176.0070, 6362.732
176.4891, 6391.212
176.9712, 6414.724
177.4533, 6426.004
177.9354, 6429.196
178.4176, 6435.265
178.8997, 6439.025
179.3818, 6451.884
179.8639, 6484.351
180.3460, 6527.102
180.8281, 6561.329
181.3103, 6577.388
181.7924, 6583.844
182.2745, 6606.223
182.7566, 6657.102
183.2387, 6699.624
183.7208, 6714.742
184.2030, 6714.622
184.6851, 6722.873
185.1672, 6749.904
185.6493, 6789.004
186.1314, 6824.457
186.6135, 6858.143
187.0957, 6885.912
187.5778, 6903.848
188.0599, 6915.077
188.5420, 6927.221
189.0241, 6944.720
189.5062, 6961.957
189.9884, 6963.518
190.4705, 6943.352
190.9526, 6924.593
191.4347, 6912.160
191.9168, 6906.329
192.3989, 6908.728
192.8811, 6921.410
193.3632, 6939.926
193.8453, 6954.367
194.3274, 6962.506
194.8095, 6973.152
195.2916, 6992.511
195.7738, 7016.083
196.2559, 7035.239
196.7380, 7047.031
197.2201, 7053.034
197.7022, 7053.360
198.1843, 7042.372
198.6665, 7042.010
199.1486, 7067.390
199.6307, 7106.687
200.1128, 7137.680
200.5949, 7151.540
201.0770, 7157.995
201.5592, 7174.861
202.0413, 7203.247
202.5234, 7233.066
203.0055, 7261.666
203.4876, 7289.790
203.9697, 7320.379
204.4519, 7355.676
204.9340, 7389.332
205.4161, 7406.902
205.8982, 7404.063
206.3803, 7409.213
206.8624, 7442.005
207.3446, 7483.894
207.8267, 7502.801
208.3088, 7487.748
208.7909, 7460.570
209.2730, 7453.390
209.7551, 7468.448
210.2373, 7483.317
210.7194, 7503.259
211.2015, 7517.154
211.6836, 7501.902
212.1657, 7449.085
212.6478, 7392.586
213.1300, 7381.237
213.6121, 7421.202
214.0942, 7451.171
214.5763, 7448.702
215.0584, 7437.391
215.5405, 7447.034
216.0227, 7483.697
216.5048, 7527.865
216.9869, 7558.433
217.4690, 7574.234
217.9511, 7587.033
218.4332, 7594.473
218.9154, 7601.428
219.3975, 7613.670
219.8796, 7631.929
220.3617, 7650.868
220.8438, 7664.392
221.3259, 7671.711
221.8081, 7684.422
222.2902, 7709.993
222.7723, 7736.318
223.2544, 7754.054
223.7365, 7762.414
224.2186, 7764.488
224.7008, 7760.465
225.1829, 7750.079
225.6650, 7749.301
226.1471, 7763.761
226.6292, 7782.948
227.1113, 7802.529
227.5935, 7821.269
228.0756, 7835.262
228.5577, 7839.684
229.0398, 7835.314
229.5219, 7840.154
230.0040, 7859.035
230.4862, 7881.596
230.9683, 7904.555
231.4504, 7927.084
231.9325, 7946.987
232.4146, 7962.093
232.8967, 7973.430
233.3789, 7990.737
233.8610, 8027.798
234.3431, 8055.291
234.8252, 8051.063
235.3073, 8028.799
235.7894, 8022.421
236.2716, 8053.159
236.7537, 8109.410
237.2358, 8139.563
237.7179, 8116.061
238.2000, 8102.784
238.6821, 8122.048
239.1643, 8159.014
239.6464, 8190.751
240.1285, 8207.221
240.6106, 8211.863
241.0927, 8213.530
241.5748, 8194.922
242.0570, 8195.247
242.5391, 8239.080
243.0212, 8295.296
243.5033, 8323.717
243.9854, 8310.672
244.4675, 8278.926
244.9497, 8271.007
245.4318, 8308.722
245.9139, 8338.710
246.3960, 8352.996
246.8781, 8364.110
247.3602, 8384.605
247.8424, 8416.568
248.3245, 8450.877
248.8066, 8474.688
249.2887, 8482.259
249.7708, 8491.814
250.2529, 8500.947
250.7351, 8513.223
251.2172, 8530.775
251.6993, 8553.679
252.1814, 8581.277
252.6635, 8614.146
253.1456, 8655.396
253.6278, 8685.452
254.1099, 8694.900
254.5920, 8703.021
255.0741, 8716.967
255.5562, 8737.086
256.0384, 8761.726
256.5205, 8790.999
257.0026, 8825.165
257.4847, 8849.186
257.9668, 8852.242
258.4489, 8855.591
258.9311, 8863.488
259.4132, 8875.784
259.8953, 8890.560
260.3774, 8905.934
260.8595, 8923.460
261.3416, 8953.226
261.8238, 9014.791
262.3059, 9062.200
262.7880, 9078.250
263.2701, 9078.015
263.7522, 9079.222
264.2343, 9089.781
264.7165, 9107.429
265.1986, 9127.686
265.6807, 9153.837
266.1628, 9175.725
266.6449, 9184.120
267.1270, 9191.815
267.6092, 9213.480
268.0913, 9253.833
268.5734, 9296.108
269.0555, 9312.853
269.5376, 9296.407
270.0197, 9289.530
270.5019, 9310.396
270.9840, 9336.940
271.4661, 9356.906
271.9482, 9368.592
272.4303, 9377.722
272.9124, 9392.105
273.3946, 9411.427
273.8767, 9419.047
274.3588, 9406.781
274.8409, 9388.343
275.3230, 9362.298
275.8051, 9333.921
276.2873, 9328.874
276.7694, 9381.669
277.2515, 9472.143
277.7336, 9528.170
278.2157, 9532.886
278.6978, 9530.287
279.1800, 9552.721
279.6621, 9591.539
280.1442, 9627.083
280.6263, 9641.245
281.1084, 9653.019
281.5905, 9695.132
282.0727, 9771.703
282.5548, 9849.204
283.0369, 9910.147
283.5190, 9957.658
284.0011, 9997.543
284.4832, 10022.72
284.9654, 10049.19
285.4475, 10092.56
285.9296, 10150.30
286.4117, 10205.37
286.8938, 10250.15
287.3759, 10287.28
287.8581, 10324.56
288.3402, 10368.82
288.8223, 10400.34
289.3044, 10401.32
289.7865, 10384.70
290.2686, 10378.74
290.7508, 10394.29
291.2329, 10415.92
291.7150, 10417.89
292.1971, 10396.08
292.6792, 10370.44
293.1613, 10343.27
293.6435, 10313.51
294.1256, 10275.66
294.6077, 10229.86
295.0898, 10189.04
295.5719, 10166.92
296.0540, 10166.35
296.5362, 10174.58
297.0183, 10197.46
297.5004, 10222.89
297.9825, 10247.89
298.4646, 10269.92
298.9467, 10282.23
299.4289, 10277.29
299.9110, 10256.88
300.3931, 10258.99
300.8752, 10307.42
301.3573, 10350.97
301.8394, 10372.29
302.3216, 10382.56
302.8037, 10402.62
303.2858, 10443.63
303.7679, 10493.52
304.2500, 10516.66
304.7321, 10490.22
305.2143, 10472.55
305.6964, 10468.54
306.1785, 10474.92
306.6606, 10493.21
307.1427, 10522.43
307.6248, 10551.72
308.1070, 10562.92
308.5891, 10548.66
309.0712, 10546.08
309.5533, 10572.24
310.0354, 10598.89
310.5175, 10611.81
310.9997, 10611.88
311.4818, 10609.54
311.9639, 10611.81
312.4460, 10618.60
312.9281, 10630.08
313.4102, 10652.67
313.8924, 10669.89
314.3745, 10667.27
314.8566, 10654.89
315.3387, 10652.88
315.8208, 10678.02
316.3029, 10711.91
316.7851, 10716.79
317.2672, 10685.60
317.7493, 10670.39
318.2314, 10711.64
318.7135, 10776.72
319.1956, 10817.61
319.6778, 10820.52
320.1599, 10818.03
320.6420, 10836.78
321.1241, 10871.44
321.6062, 10895.79
322.0883, 10896.29
322.5705, 10891.76
323.0526, 10913.03
323.5347, 10961.79
324.0168, 11011.86
324.4989, 11060.83
324.9810, 11104.64
325.4632, 11136.91
325.9453, 11156.68
326.4274, 11169.13
326.9095, 11176.22
327.3916, 11176.63
327.8737, 11192.87
328.3559, 11245.64
328.8380, 11295.20
329.3201, 11316.00
329.8022, 11313.34
330.2843, 11307.32
330.7664, 11310.45
331.2486, 11320.79
331.7307, 11326.94
332.2128, 11322.32
332.6949, 11321.65
333.1770, 11326.76
333.6591, 11337.07
334.1413, 11354.66
334.6234, 11379.86
335.1055, 11405.23
335.5876, 11414.52
336.0697, 11389.52
336.5518, 11390.79
337.0340, 11441.75
337.5161, 11498.33
337.9982, 11538.10
338.4803, 11558.39
338.9624, 11565.83
339.4445, 11562.14
339.9267, 11547.83
340.4088, 11543.41
340.8909, 11555.66
341.3730, 11569.02
341.8551, 11569.16
342.3372, 11566.77
342.8194, 11583.43
343.3015, 11638.10
343.7836, 11704.25
344.2657, 11730.17
344.7478, 11707.63
345.2299, 11694.15
345.7121, 11717.65
346.1942, 11758.48
346.6763, 11794.86
347.1584, 11824.97
347.6405, 11850.67
348.1227, 11874.47
348.6048, 11895.05
349.0869, 11906.54
349.5690, 11904.94
350.0511, 11901.11
350.5332, 11907.25
351.0154, 11922.81
351.4975, 11944.57
351.9796, 11980.57
352.4617, 12016.99
352.9438, 12039.75
353.4259, 12049.05
353.9081, 12054.74
354.3902, 12063.37
354.8723, 12074.67
355.3544, 12085.39
355.8365, 12096.05
356.3186, 12105.74
356.8008, 12116.97
357.2829, 12126.42
357.7650, 12126.77
358.2471, 12115.07
358.7292, 12100.07
359.2113, 12099.69
359.6935, 12126.95
360.1756, 12145.44
360.6577, 12147.07
361.1398, 12147.59
361.6219, 12156.51
362.1040, 12174.63
362.5862, 12198.21
363.0683, 12227.20
363.5504, 12261.28
364.0325, 12277.82
364.5146, 12257.64
364.9967, 12245.69
365.4789, 12263.59
365.9610, 12298.06
366.4431, 12326.66
366.9252, 12336.67
367.4073, 12344.03
367.8894, 12378.50
368.3716, 12443.37
368.8537, 12498.92
369.3358, 12529.67
369.8179, 12546.32
370.3000, 12557.97
370.7821, 12563.52
371.2643, 12576.71
371.7464, 12612.31
372.2285, 12659.42
372.7106, 12695.34
373.1927, 12716.00
373.6748, 12729.39
374.1570, 12741.63
374.6391, 12752.63
375.1212, 12762.48
375.6033, 12765.76
376.0854, 12772.72
376.5675, 12794.52
377.0497, 12825.89
377.5318, 12850.69
378.0139, 12860.25
378.4960, 12858.87
378.9781, 12859.47
379.4602, 12866.33
379.9424, 12869.76
380.4245, 12863.09
380.9066, 12856.88
381.3887, 12861.00
381.8708, 12876.88
382.3529, 12899.14
382.8351, 12925.93
383.3172, 12960.85
383.7993, 12969.88
384.2814, 12915.00
384.7635, 12872.94
385.2456, 12874.47
385.7278, 12906.01
386.2099, 12940.68
386.6920, 12965.00
387.1741, 12985.34
387.6562, 13017.14
388.1383, 13064.36
388.6205, 13103.30
389.1026, 13118.03
389.5847, 13126.29
390.0668, 13146.55
390.5489, 13181.27
391.0310, 13214.51
391.5132, 13233.76
391.9953, 13244.65
392.4774, 13258.79
392.9595, 13277.31
393.4416, 13302.57
393.9237, 13340.64
394.4059, 13390.14
394.8880, 13428.50
395.3701, 13444.11
395.8522, 13458.01
396.3343, 13481.02
396.8164, 13511.95
397.2986, 13549.10
397.7807, 13593.08
398.2628, 13636.98
398.7449, 13664.14
399.2270, 13660.96
399.7091, 13659.52
400.1913, 13662.67
400.6734, 13665.41
401.1555, 13660.36
401.6376, 13649.37
402.1197, 13644.03
402.6018, 13656.55
403.0840, 13686.59
403.5661, 13712.35
404.0482, 13733.07
404.5303, 13750.76
405.0124, 13761.83
405.4945, 13772.32
405.9767, 13793.01
406.4588, 13831.03
406.9409, 13867.96
407.4230, 13872.94
407.9051, 13846.55
408.3872, 13839.61
408.8694, 13876.76
409.3515, 13922.08
409.8336, 13931.20
410.3157, 13906.46
410.7978, 13897.97
411.2799, 13930.46
411.7621, 13983.50
412.2442, 14035.63
412.7263, 14085.07
413.2084, 14135.50
413.6905, 14191.09
414.1726, 14249.02
414.6548, 14295.47
415.1369, 14323.86
415.6190, 14350.62
416.1011, 14380.27
416.5832, 14409.41
417.0653, 14434.08
417.5475, 14453.24
418.0296, 14468.20
418.5117, 14481.24
418.9938, 14493.68
419.4759, 14497.88
419.9580, 14470.26
420.4402, 14458.39
420.9223, 14483.52
421.4044, 14535.90
421.8865, 14597.69
422.3686, 14662.72
422.8507, 14725.79
423.3329, 14775.38
423.8150, 14809.95
424.2971, 14840.70
424.7792, 14862.36
425.2613, 14888.18
425.7434, 14930.96
426.2256, 14991.02
426.7077, 15058.03
427.1898, 15137.11
427.6719, 15215.58
428.1540, 15268.35
428.6361, 15292.85
429.1183, 15317.87
429.6004, 15363.15
430.0825, 15426.68
430.5646, 15493.15
431.0467, 15582.18
431.5288, 15650.85
432.0110, 15675.86
432.4931, 15677.06
432.9752, 15683.00
433.4573, 15701.43
433.9394, 15716.59
434.4215, 15706.33
434.9037, 15664.83
435.3858, 15621.98
435.8679, 15551.59
436.3500, 15506.20
436.8321, 15526.04
437.3142, 15583.02
437.7964, 15622.10
438.2785, 15613.76
438.7606, 15577.48
439.2427, 15542.24
439.7248, 15504.83
440.2069, 15492.01
440.6891, 15525.95
441.1712, 15574.85
441.6533, 15609.16
442.1354, 15628.48
442.6175, 15638.66
443.0996, 15623.20
443.5818, 15609.10
444.0639, 15643.42
444.5460, 15725.93
445.0281, 15803.48
445.5102, 15841.59
445.9923, 15846.97
446.4745, 15852.26
446.9566, 15854.81
447.4387, 15860.63
447.9208, 15871.74
448.4029, 15886.31
448.8850, 15902.59
449.3672, 15920.25
449.8493, 15940.42
450.3314, 15965.63
450.8135, 15997.01
451.2956, 16020.46
451.7777, 16025.60
452.2599, 16035.83
452.7420, 16065.79
453.2241, 16102.83
453.7062, 16127.24
454.1884, 16130.04
454.6705, 16127.06
455.1526, 16142.07
455.6347, 16172.66
456.1168, 16183.16
456.5989, 16155.58
457.0811, 16123.76
457.5632, 16127.59
458.0453, 16161.08
458.5274, 16186.79
459.0095, 16194.12
459.4916, 16193.41
459.9738, 16183.37
460.4559, 16170.69
460.9380, 16178.94
461.4201, 16222.02
461.9022, 16280.99
462.3843, 16312.23
462.8665, 16280.11
463.3486, 16283.45
463.8307, 16356.67
464.3128, 16434.41
464.7949, 16471.65
465.2770, 16473.75
465.7592, 16473.68
466.2413, 16494.66
466.7234, 16531.21
467.2055, 16562.41
467.6876, 16582.94
468.1697, 16614.07
468.6519, 16678.19
469.1340, 16746.75
469.6161, 16788.63
470.0982, 16799.03
470.5803, 16819.21
471.0624, 16876.29
471.5446, 16956.74
472.0267, 17042.33
472.5088, 17131.41
472.9909, 17208.47
473.4730, 17256.40
473.9551, 17283.77
474.4373, 17346.25
474.9194, 17490.94
475.4015, 17604.92
475.8836, 17644.77
476.3657, 17654.66
476.8478, 17679.73
477.3300, 17730.16
477.8121, 17794.43
478.2942, 17870.52
478.7763, 17960.27
479.2584, 17980.23
479.7405, 17887.63
480.2227, 17784.15
480.7048, 17700.55
481.1869, 17627.80
481.6690, 17553.04
482.1511, 17470.44
482.6332, 17397.20
483.1154, 17354.20
483.5975, 17334.93
484.0796, 17314.19
484.5617, 17286.99
485.0438, 17260.43
485.5259, 17235.70
486.0081, 17215.14
486.4902, 17219.08
486.9723, 17268.11
487.4544, 17319.60
487.9365, 17365.01
488.4186, 17397.78
488.9008, 17399.06
489.3829, 17364.43
489.8650, 17326.81
490.3471, 17336.42
490.8292, 17406.46
491.3113, 17457.57
491.7935, 17473.20
492.2756, 17486.23
492.7577, 17507.33
493.2398, 17533.19
493.7219, 17557.95
494.2040, 17579.71
494.6862, 17598.51
495.1683, 17607.19
495.6504, 17608.96
496.1325, 17636.00
496.6146, 17703.51
497.0967, 17778.49
497.5789, 17820.29
498.0610, 17832.95
498.5431, 17872.46
499.0252, 17969.43
499.5073, 18069.62
499.9894, 18136.52
500.4716, 18184.77
500.9537, 18247.13
501.4358, 18336.06
501.9179, 18434.55
502.4000, 18512.68
502.8821, 18555.54
503.3643, 18629.40
503.8464, 18773.74
504.3285, 18910.10
504.8106, 19008.35
505.2927, 19078.51
505.7748, 19144.78
506.2570, 19218.86
506.7391, 19287.44
507.2212, 19337.16
507.7033, 19367.69
508.1854, 19371.13
508.6675, 19345.24
509.1497, 19292.73
509.6318, 19206.13
510.1139, 19086.97
510.5960, 18981.68
511.0781, 18884.47
511.5602, 18811.71
512.0424, 18789.76
512.5245, 18795.41
513.0066, 18784.23
513.4887, 18739.62
513.9708, 18680.34
514.4529, 18634.31
514.9351, 18603.41
515.4172, 18577.66
515.8993, 18547.14
516.3814, 18533.08
516.8635, 18557.93
517.3456, 18601.30
517.8278, 18627.76
518.3099, 18622.15
518.7920, 18602.07
519.2741, 18577.43
519.7562, 18552.30
520.2383, 18551.46
520.7205, 18585.35
521.2026, 18624.65
521.6847, 18639.28
522.1668, 18628.85
522.6489, 18631.69
523.1310, 18663.33
523.6132, 18690.98
524.0953, 18697.33
524.5774, 18693.11
525.0595, 18693.71
525.5416, 18703.99
526.0237, 18719.48
526.5059, 18734.76
526.9880, 18749.79
527.4701, 18767.79
527.9522, 18792.83
528.4343, 18815.56
528.9164, 18831.04
529.3986, 18842.98
529.8807, 18857.41
530.3628, 18877.44
530.8449, 18893.67
531.3270, 18889.63
531.8091, 18878.22
532.2913, 18891.56
532.7734, 18934.91
533.2555, 18984.68
533.7376, 19022.03
534.2197, 19048.47
534.7018, 19080.23
535.1840, 19123.89
535.6661, 19163.32
536.1482, 19192.86
536.6303, 19218.38
537.1124, 19247.77
537.5945, 19280.51
538.0767, 19306.42
538.5588, 19313.14
539.0409, 19305.46
539.5230, 19310.06
540.0051, 19331.63
540.4872, 19349.12
540.9694, 19344.91
541.4515, 19338.79
541.9336, 19356.52
542.4157, 19401.37
542.8978, 19453.50
543.3799, 19525.82
543.8621, 19589.01
544.3442, 19601.18
544.8263, 19570.62
545.3084, 19544.27
545.7905, 19549.07
546.2726, 19575.68
546.7548, 19600.13
547.2369, 19631.59
547.7190, 19641.95
548.2011, 19599.45
548.6832, 19565.09
549.1653, 19581.94
549.6475, 19636.26
550.1296, 19682.90
550.6117, 19692.41
551.0938, 19692.94
551.5759, 19730.96
552.0580, 19801.44
552.5402, 19855.39
553.0223, 19877.99
553.5044, 19885.01
553.9865, 19887.91
554.4686, 19885.16
554.9507, 19907.45
555.4329, 19980.31
555.9150, 20050.74
556.3971, 20096.61
556.8792, 20126.10
557.3613, 20154.51
557.8434, 20186.06
558.3256, 20210.30
558.8077, 20207.00
559.2898, 20175.37
559.7719, 20171.59
560.2540, 20208.58
560.7361, 20248.72
561.2183, 20270.68
561.7004, 20285.88
562.1825, 20309.36
562.6646, 20345.14
563.1467, 20381.06
563.6288, 20416.37
564.1110, 20445.88
564.5931, 20460.35
565.0752, 20460.50
565.5573, 20456.15
566.0394, 20452.86
566.5215, 20452.06
567.0037, 20460.17
567.4858, 20486.16
567.9679, 20505.33
568.4500, 20509.35
568.9321, 20512.88
569.4142, 20525.03
569.8964, 20545.24
570.3785, 20568.75
570.8606, 20596.48
571.3427, 20622.53
571.8248, 20634.79
572.3069, 20635.78
572.7891, 20644.82
573.2712, 20670.08
573.7533, 20695.06
574.2354, 20694.00
574.7175, 20659.72
575.1996, 20670.06
575.6818, 20764.93
576.1639, 20855.95
576.6460, 20909.02
577.1281, 20941.09
577.6102, 20973.97
578.0923, 21014.40
578.5745, 21059.91
579.0566, 21116.09
579.5387, 21178.92
580.0208, 21205.76
580.5029, 21182.86
580.9850, 21170.27
581.4672, 21205.31
581.9493, 21263.34
582.4314, 21295.52
582.9135, 21290.97
583.3956, 21299.56
583.8777, 21354.35
584.3599, 21413.61
584.8420, 21439.57
585.3241, 21435.39
585.8062, 21419.62
586.2883, 21400.97
586.7704, 21386.99
587.2526, 21396.93
587.7347, 21438.91
588.2168, 21472.80
588.6989, 21485.79
589.1810, 21501.85
589.6631, 21543.35
590.1453, 21596.94
590.6274, 21629.87
591.1095, 21621.68
591.5916, 21612.47
592.0737, 21635.05
592.5558, 21674.40
593.0380, 21700.64
593.5201, 21709.03
594.0022, 21717.72
594.4843, 21743.92
594.9664, 21783.51
595.4485, 21801.74
595.9307, 21767.09
596.4128, 21761.91
596.8949, 21816.93
597.3770, 21886.15
597.8591, 21941.93
598.3412, 21980.06
598.8234, 22000.92
599.3055, 21986.61
599.7876, 21969.73
600.2697, 22001.60
600.7518, 22073.47
601.2339, 22138.81
601.7161, 22182.98
602.1982, 22217.59
602.6803, 22256.17
603.1624, 22299.16
603.6445, 22342.87
604.1266, 22405.05
604.6088, 22446.86
605.0909, 22431.20
605.5730, 22403.93
606.0551, 22422.70
606.5372, 22496.89
607.0193, 22580.87
607.5015, 22644.14
607.9836, 22685.62
608.4657, 22691.72
608.9478, 22659.83
609.4299, 22648.50
609.9120, 22686.40
610.3942, 22753.91
610.8763, 22821.52
611.3584, 22900.54
611.8405, 22940.13
612.3226, 22907.91
612.8047, 22867.94
613.2869, 22844.21
613.7690, 22838.57
614.2511, 22850.96
614.7332, 22881.48
615.2153, 22923.69
615.6974, 22976.63
616.1796, 23037.34
616.6617, 23078.68
617.1438, 23093.76
617.6259, 23115.83
618.1080, 23173.39
618.5901, 23245.51
619.0723, 23274.94
619.5544, 23237.97
620.0365, 23222.09
620.5186, 23259.72
621.0007, 23307.42
621.4828, 23328.45
621.9650, 23332.75
622.4471, 23354.63
622.9292, 23412.60
623.4113, 23480.15
623.8934, 23510.10
624.3755, 23502.58
624.8577, 23507.28
625.3398, 23532.24
625.8219, 23561.94
626.3040, 23584.37
626.7861, 23604.62
627.2682, 23638.09
627.7504, 23697.67
628.2325, 23747.97
628.7146, 23779.15
629.1967, 23797.40
629.6788, 23799.03
630.1609, 23791.90
630.6431, 23798.10
631.1252, 23831.89
631.6073, 23881.20
632.0894, 23920.30
632.5715, 23947.43
633.0536, 23988.64
633.5358, 24063.27
634.0179, 24122.91
634.5000, 24112.91
634.9821, 24058.56
635.4642, 24042.13
635.9464, 24086.49
636.4285, 24142.39
636.9106, 24218.66
637.3927, 24282.03
637.8748, 24286.14
