##NAMES=Emeleusite
##RRUFFID=R061034
##IDEAL CHEMISTRY=Na_2_LiFe^3+^Si_6_O_15_
##LOCALITY=Igdlutalig, Ilimaussaq, Greenland
##OWNER=RRUFF
##SOURCE=Michael Scott
##DESCRIPTION=Light pink massive associated with albite and aegirine, co-type specimen
##STATUS=The identification of this mineral has been confirmed by X-ray diffraction and chemical analysis
##URL=rruff.info/R061034
##MEASURED CHEMISTRY=(Na_1.57_K_0.43_)_Σ=2_Li_1.00_(Fe^3+^_0.77_Al_0.18_Ti_0.02_Mg_0.02_)_Σ=1_Si_6.00_O_15_; (lighter areas) Li estimated by difference; dark: albite
128.7548, 4373.575
129.2369, 4527.160
129.7190, 4677.003
130.2011, 4821.710
130.6832, 4954.840
131.1654, 5075.136
131.6475, 5192.654
132.1296, 5321.549
132.6117, 5461.583
133.0938, 5600.690
133.5759, 5730.821
134.0581, 5853.607
134.5402, 5981.683
135.0223, 6116.343
135.5044, 6256.812
135.9865, 6400.055
136.4686, 6545.363
136.9508, 6693.523
137.4329, 6842.684
137.9150, 6990.010
138.3971, 7153.710
138.8792, 7344.619
139.3613, 7551.407
139.8434, 7729.436
140.3256, 7873.889
140.8077, 8003.385
141.2898, 8130.378
141.7719, 8247.803
142.2540, 8380.576
142.7361, 8532.385
143.2183, 8704.483
143.7004, 8886.502
144.1825, 9083.263
144.6646, 9285.014
145.1467, 9479.234
145.6288, 9670.117
146.1110, 9849.094
146.5931, 10010.10
147.0752, 10148.48
147.5573, 10295.38
148.0394, 10468.04
148.5215, 10641.73
149.0037, 10782.41
149.4858, 10874.93
149.9679, 10947.28
150.4500, 11013.23
150.9321, 11104.79
151.4142, 11127.17
151.8964, 11060.93
152.3785, 10926.22
152.8606, 10767.65
153.3427, 10563.57
153.8248, 10354.35
154.3069, 10156.30
154.7890, 9960.534
155.2712, 9787.390
155.7533, 9639.708
156.2354, 9517.802
156.7175, 9417.082
157.1996, 9336.553
157.6817, 9275.806
158.1639, 9234.163
158.6460, 9221.187
159.1281, 9216.979
159.6102, 9214.231
160.0923, 9213.479
160.5744, 9223.932
161.0566, 9260.537
161.5387, 9304.010
162.0208, 9336.959
162.5029, 9360.482
162.9850, 9366.004
163.4671, 9346.713
163.9493, 9302.021
164.4314, 9245.083
164.9135, 9183.541
165.3956, 9113.295
165.8777, 9029.073
166.3598, 8897.355
166.8420, 8772.550
167.3241, 8690.629
167.8062, 8656.566
168.2883, 8653.691
168.7704, 8692.078
169.2525, 8753.751
169.7346, 8804.576
170.2168, 8828.207
170.6989, 8832.931
171.1810, 8826.812
171.6631, 8812.179
172.1452, 8783.063
172.6273, 8722.990
173.1095, 8641.854
173.5916, 8567.078
174.0737, 8503.986
174.5558, 8459.627
175.0379, 8444.561
175.5201, 8461.813
176.0022, 8505.858
176.4843, 8574.544
176.9664, 8665.883
177.4485, 8772.188
177.9306, 8889.639
178.4128, 9017.587
178.8949, 9158.579
179.3770, 9319.273
179.8591, 9487.405
180.3412, 9644.421
180.8233, 9792.249
181.3055, 9938.958
181.7876, 10100.42
182.2697, 10268.03
182.7518, 10421.45
183.2339, 10551.13
183.7160, 10663.44
184.1982, 10774.42
184.6803, 10885.00
185.1624, 10972.31
185.6445, 11019.44
186.1266, 11025.91
186.6087, 10991.35
187.0908, 10910.20
187.5730, 10787.73
188.0551, 10637.04
188.5372, 10452.66
189.0193, 10259.01
189.5014, 10087.05
189.9835, 9932.938
190.4657, 9765.590
190.9478, 9566.585
191.4299, 9340.149
191.9120, 9120.524
192.3941, 8906.834
192.8762, 8703.050
193.3584, 8515.585
193.8405, 8345.306
194.3226, 8184.672
194.8047, 8032.098
195.2868, 7887.665
195.7689, 7749.530
196.2511, 7612.103
196.7332, 7488.091
197.2153, 7400.973
197.6974, 7351.366
198.1795, 7327.949
198.6616, 7332.484
199.1438, 7366.200
199.6259, 7392.890
200.1080, 7405.191
200.5901, 7416.192
201.0722, 7457.432
201.5543, 7533.334
202.0364, 7618.839
202.5186, 7696.354
203.0007, 7762.856
203.4828, 7848.247
203.9649, 7956.732
204.4470, 8084.418
204.9291, 8223.492
205.4113, 8381.413
205.8934, 8528.210
206.3755, 8641.701
206.8576, 8716.220
207.3397, 8789.299
207.8218, 8873.604
208.3040, 8957.566
208.7861, 8997.904
209.2682, 8997.938
209.7503, 8947.174
210.2324, 8833.204
210.7145, 8649.732
211.1967, 8433.020
211.6788, 8180.745
212.1609, 7898.344
212.6430, 7612.718
213.1251, 7316.318
213.6072, 7035.049
214.0894, 6787.973
214.5715, 6580.353
215.0536, 6389.112
215.5357, 6209.011
216.0178, 6040.863
216.4999, 5908.759
216.9820, 5825.044
217.4642, 5760.734
217.9463, 5689.182
218.4284, 5604.492
218.9105, 5528.858
219.3926, 5465.632
219.8747, 5415.220
220.3569, 5376.541
220.8390, 5355.798
221.3211, 5339.450
221.8032, 5313.901
222.2853, 5276.593
222.7674, 5236.496
223.2496, 5194.160
223.7317, 5149.065
224.2138, 5111.298
224.6959, 5083.866
225.1780, 5060.526
225.6601, 5033.347
226.1423, 4999.084
226.6244, 4968.060
227.1065, 4942.889
227.5886, 4923.576
228.0707, 4907.383
228.5528, 4895.841
229.0350, 4885.595
229.5171, 4872.056
229.9992, 4850.381
230.4813, 4833.757
230.9634, 4825.964
231.4455, 4827.963
231.9276, 4831.359
232.4098, 4838.177
232.8919, 4844.816
233.3740, 4846.086
233.8561, 4838.859
234.3382, 4831.876
234.8203, 4825.929
235.3025, 4819.812
235.7846, 4823.063
236.2667, 4839.775
236.7488, 4862.964
237.2309, 4882.861
237.7130, 4896.603
238.1952, 4911.704
238.6773, 4930.013
239.1594, 4951.653
239.6415, 4974.864
240.1236, 4992.817
240.6057, 5017.227
241.0879, 5067.441
241.5700, 5157.109
242.0521, 5248.459
242.5342, 5327.918
243.0163, 5389.003
243.4984, 5470.194
243.9806, 5582.604
244.4627, 5707.748
244.9448, 5815.191
245.4269, 5886.131
245.9090, 5970.626
246.3911, 6088.151
246.8732, 6248.892
247.3554, 6395.054
247.8375, 6517.341
248.3196, 6630.708
248.8017, 6760.189
249.2838, 6916.106
249.7659, 7067.959
250.2481, 7208.815
250.7302, 7339.164
251.2123, 7461.291
251.6944, 7597.736
252.1765, 7710.516
252.6586, 7741.189
253.1408, 7668.620
253.6229, 7552.908
254.1050, 7400.844
254.5871, 7201.429
255.0692, 7028.266
255.5513, 6882.085
256.0334, 6761.729
256.5156, 6662.209
256.9977, 6579.658
257.4798, 6525.215
257.9619, 6505.396
258.4440, 6524.877
258.9261, 6552.804
259.4083, 6591.134
259.8904, 6636.129
260.3725, 6678.171
260.8546, 6706.456
261.3367, 6756.743
261.8188, 6845.274
262.3010, 6980.051
262.7831, 7103.670
263.2652, 7211.962
263.7473, 7314.170
264.2294, 7426.702
264.7115, 7552.105
265.1937, 7679.195
265.6758, 7810.819
266.1579, 7949.214
266.6400, 8047.356
267.1221, 8091.735
267.6042, 8111.908
268.0864, 8149.916
268.5685, 8214.151
269.0506, 8272.392
269.5327, 8320.451
270.0148, 8359.859
270.4969, 8359.068
270.9791, 8308.719
271.4612, 8233.774
271.9433, 8163.070
272.4254, 8094.315
272.9075, 8040.351
273.3896, 8004.600
273.8718, 7987.355
274.3539, 7990.563
274.8360, 8015.889
275.3181, 8058.503
275.8002, 8110.521
276.2823, 8169.908
276.7645, 8249.739
277.2466, 8351.263
277.7287, 8475.764
278.2108, 8638.337
278.6929, 8841.525
279.1750, 9077.438
279.6572, 9336.053
280.1393, 9616.479
280.6214, 9929.584
281.1035, 10282.49
281.5856, 10671.42
282.0677, 11075.87
282.5499, 11497.57
283.0320, 11927.32
283.5141, 12356.10
283.9962, 12783.84
284.4783, 13212.53
284.9604, 13636.87
285.4425, 14065.14
285.9247, 14530.22
286.4068, 15035.00
286.8889, 15543.65
287.3710, 16019.55
287.8531, 16464.87
288.3352, 16909.81
288.8174, 17389.94
289.2995, 17862.04
289.7816, 18221.30
290.2637, 18463.38
290.7458, 18567.23
291.2279, 18517.84
291.7101, 18314.01
292.1922, 17939.90
292.6743, 17368.72
293.1564, 16651.58
293.6385, 15853.31
294.1206, 14979.17
294.6028, 14125.95
295.0849, 13356.51
295.5670, 12662.29
296.0491, 12012.07
296.5312, 11401.04
297.0133, 10840.00
297.4955, 10349.65
297.9776, 9936.238
298.4597, 9575.741
298.9418, 9260.603
299.4239, 8990.201
299.9060, 8770.837
300.3882, 8616.695
300.8703, 8493.063
301.3524, 8359.345
301.8345, 8219.330
302.3166, 8092.153
302.7987, 7994.307
303.2809, 7914.482
303.7630, 7832.353
304.2451, 7742.062
304.7272, 7657.514
305.2093, 7598.239
305.6914, 7557.426
306.1736, 7517.513
306.6557, 7459.305
307.1378, 7400.150
307.6199, 7362.719
308.1020, 7354.756
308.5841, 7348.414
309.0663, 7320.706
309.5484, 7278.629
310.0305, 7237.867
310.5126, 7192.816
310.9947, 7159.937
311.4768, 7158.087
311.9590, 7193.104
312.4411, 7231.390
312.9232, 7254.856
313.4053, 7268.195
313.8874, 7278.361
314.3695, 7272.858
314.8517, 7277.026
315.3337, 7311.074
315.8159, 7378.576
316.2980, 7444.016
316.7801, 7491.728
317.2622, 7529.675
317.7443, 7567.545
318.2264, 7589.513
318.7086, 7628.833
319.1907, 7705.977
319.6728, 7821.378
320.1549, 7934.576
320.6370, 8036.461
321.1191, 8129.764
321.6013, 8217.108
322.0834, 8288.522
322.5655, 8363.449
323.0476, 8440.848
323.5297, 8522.063
324.0118, 8622.096
324.4940, 8744.271
324.9761, 8885.208
325.4582, 9042.783
325.9403, 9236.312
326.4224, 9424.034
326.9045, 9602.627
327.3867, 9772.902
327.8688, 9939.697
328.3509, 10141.15
328.8330, 10308.83
329.3151, 10414.74
329.7972, 10453.81
330.2794, 10437.10
330.7615, 10342.63
331.2436, 10193.34
331.7257, 10051.93
332.2078, 9911.041
332.6899, 9786.183
333.1721, 9682.982
333.6542, 9603.564
334.1363, 9541.783
334.6184, 9494.121
335.1005, 9466.074
335.5826, 9469.368
336.0648, 9514.915
336.5469, 9568.920
337.0290, 9623.766
337.5111, 9681.012
337.9932, 9724.796
338.4753, 9751.757
338.9575, 9769.718
339.4396, 9788.639
339.9217, 9809.193
340.4038, 9827.434
340.8859, 9846.483
341.3680, 9863.920
341.8502, 9854.592
342.3323, 9813.847
342.8144, 9764.149
343.2965, 9733.199
343.7786, 9720.771
344.2607, 9693.033
344.7429, 9642.442
345.2250, 9571.385
345.7071, 9478.772
346.1892, 9362.048
346.6713, 9250.046
347.1534, 9167.591
347.6355, 9108.681
348.1176, 9045.049
348.5998, 8970.871
349.0819, 8889.159
349.5640, 8805.380
350.0461, 8717.657
350.5282, 8623.087
351.0103, 8506.744
351.4925, 8383.676
351.9746, 8282.017
352.4567, 8208.236
352.9388, 8147.996
353.4209, 8091.110
353.9030, 8036.399
354.3852, 7980.623
354.8673, 7916.737
355.3494, 7854.099
355.8315, 7802.881
356.3136, 7764.513
356.7957, 7733.371
357.2779, 7705.983
357.7600, 7683.690
358.2421, 7668.716
358.7242, 7663.470
359.2063, 7664.402
359.6884, 7670.202
360.1706, 7680.699
360.6527, 7693.958
361.1348, 7707.696
361.6169, 7724.328
362.0990, 7745.840
362.5811, 7775.740
363.0633, 7807.471
363.5454, 7839.712
364.0275, 7872.187
364.5096, 7903.970
364.9917, 7936.366
365.4738, 7966.883
365.9560, 7994.765
366.4381, 8025.555
366.9202, 8045.010
367.4023, 8043.285
367.8844, 8029.216
368.3665, 8024.640
368.8487, 8043.694
369.3308, 8060.851
369.8129, 8069.570
370.2950, 8072.536
370.7771, 8059.155
371.2592, 8021.304
371.7414, 7971.437
372.2235, 7926.671
372.7056, 7893.721
373.1877, 7853.313
373.6698, 7797.896
374.1519, 7727.083
374.6341, 7663.801
375.1162, 7610.932
375.5983, 7561.647
376.0804, 7510.695
376.5625, 7459.226
377.0446, 7401.245
377.5267, 7331.859
378.0089, 7256.447
378.4910, 7201.402
378.9731, 7169.682
379.4552, 7143.738
379.9373, 7112.397
380.4194, 7075.856
380.9016, 7039.536
381.3837, 7003.753
381.8658, 6968.731
382.3479, 6930.817
382.8300, 6891.323
383.3121, 6862.002
383.7943, 6860.732
384.2764, 6873.982
384.7585, 6864.596
385.2406, 6827.984
385.7227, 6786.698
386.2048, 6763.763
386.6870, 6755.306
387.1691, 6752.458
387.6512, 6759.184
388.1333, 6764.962
388.6154, 6751.640
389.0975, 6720.639
389.5797, 6699.010
390.0618, 6713.572
390.5439, 6744.870
391.0260, 6770.734
391.5081, 6782.489
391.9902, 6790.558
392.4724, 6801.415
392.9545, 6813.834
393.4366, 6823.300
393.9187, 6822.168
394.4008, 6821.894
394.8829, 6829.417
395.3651, 6846.986
395.8472, 6869.934
396.3293, 6901.687
396.8114, 6937.306
397.2935, 6968.768
397.7756, 6994.994
398.2578, 7016.402
398.7399, 7034.766
399.2220, 7051.727
399.7041, 7055.636
400.1862, 7036.491
400.6683, 7010.333
401.1505, 6991.202
401.6326, 6981.054
402.1147, 6974.588
402.5968, 6969.265
403.0789, 6966.426
403.5610, 6975.371
404.0432, 6996.882
404.5253, 7028.990
405.0074, 7071.773
405.4895, 7127.086
405.9716, 7187.260
406.4537, 7255.444
406.9359, 7323.688
407.4180, 7373.724
407.9001, 7404.130
408.3822, 7430.068
408.8643, 7466.741
409.3464, 7509.091
409.8285, 7511.110
410.3106, 7466.545
410.7928, 7414.622
411.2749, 7391.172
411.7570, 7395.548
412.2391, 7425.843
412.7212, 7491.291
413.2033, 7574.833
413.6855, 7643.254
414.1676, 7699.297
414.6497, 7769.861
415.1318, 7885.587
415.6139, 8023.525
416.0960, 8152.703
416.5782, 8271.483
417.0603, 8372.050
417.5424, 8437.209
418.0245, 8478.340
418.5066, 8521.068
418.9887, 8556.140
419.4709, 8612.138
419.9530, 8707.663
420.4351, 8845.237
420.9172, 9011.658
421.3993, 9204.384
421.8814, 9421.982
422.3636, 9662.970
422.8457, 9923.856
423.3278, 10211.66
423.8099, 10528.53
424.2920, 10876.19
424.7741, 11239.68
425.2563, 11619.33
425.7384, 12016.38
426.2205, 12421.97
426.7026, 12813.16
427.1847, 13260.55
427.6668, 13788.08
428.1490, 14359.52
428.6311, 14895.71
429.1132, 15389.35
429.5953, 15879.88
430.0774, 16390.35
430.5595, 16922.54
431.0417, 17392.33
431.5238, 17808.09
432.0059, 18130.56
432.4880, 18310.42
432.9701, 18348.16
433.4522, 18297.65
433.9344, 18170.68
434.4165, 17963.35
434.8986, 17638.52
435.3807, 17200.34
435.8628, 16736.38
436.3449, 16289.78
436.8271, 15864.39
437.3092, 15466.37
437.7913, 15099.91
438.2734, 14763.02
438.7555, 14441.17
439.2376, 14148.30
439.7197, 13915.34
440.2018, 13783.68
440.6840, 13698.46
441.1661, 13612.62
441.6482, 13526.16
442.1303, 13475.43
442.6124, 13482.50
443.0945, 13532.13
443.5767, 13610.47
444.0588, 13721.02
444.5409, 13851.79
445.0230, 14005.97
445.5051, 14179.83
445.9872, 14358.67
446.4694, 14570.34
446.9515, 14759.98
447.4336, 14902.58
447.9157, 14982.34
448.3978, 15067.59
448.8799, 15191.21
449.3621, 15298.20
449.8442, 15315.86
450.3263, 15208.36
450.8084, 15095.79
451.2905, 15014.58
451.7726, 14951.32
452.2548, 14805.69
452.7369, 14562.26
453.2190, 14281.61
453.7011, 13995.69
454.1832, 13705.67
454.6653, 13418.19
455.1475, 13131.97
455.6296, 12846.96
456.1117, 12551.62
456.5938, 12251.07
457.0759, 11961.72
457.5580, 11692.52
458.0402, 11442.19
458.5223, 11207.30
459.0044, 10986.03
459.4865, 10787.64
459.9686, 10620.63
460.4507, 10478.92
460.9329, 10348.15
461.4150, 10215.17
461.8971, 10111.36
462.3792, 10066.93
462.8613, 10068.65
463.3434, 10079.34
463.8256, 10073.23
464.3077, 10080.14
464.7898, 10119.90
465.2719, 10201.39
465.7540, 10285.00
466.2361, 10343.45
466.7183, 10409.13
467.2004, 10514.65
467.6825, 10678.18
468.1646, 10862.19
468.6467, 11072.15
469.1288, 11303.63
469.6110, 11523.17
470.0930, 11710.94
470.5752, 11919.43
471.0573, 12183.90
471.5394, 12516.85
472.0215, 12836.92
472.5036, 13129.79
472.9857, 13431.04
473.4679, 13805.49
473.9500, 14251.55
474.4321, 14699.52
474.9142, 15126.06
475.3963, 15537.82
475.8784, 15959.64
476.3606, 16391.35
476.8427, 16806.85
477.3248, 17219.73
477.8069, 17593.53
478.2890, 17868.13
478.7711, 18050.85
479.2533, 18080.68
479.7354, 17892.60
480.2175, 17510.72
480.6996, 16982.85
481.1817, 16245.96
481.6638, 15443.17
482.1460, 14631.64
482.6281, 13822.12
483.1102, 13065.21
483.5923, 12365.17
484.0744, 11732.73
484.5565, 11173.48
485.0387, 10699.46
485.5208, 10293.14
486.0029, 9967.690
486.4850, 9705.509
486.9671, 9471.108
487.4492, 9262.601
487.9314, 9088.693
488.4135, 8953.063
488.8956, 8857.324
489.3777, 8791.010
489.8598, 8751.750
490.3419, 8746.247
490.8241, 8785.150
491.3062, 8870.780
491.7883, 8971.392
492.2704, 9079.865
492.7525, 9205.011
493.2346, 9368.165
493.7168, 9565.953
494.1989, 9792.477
494.6810, 10041.68
495.1631, 10316.54
495.6452, 10626.55
496.1273, 10969.09
496.6095, 11355.03
497.0916, 11796.72
497.5737, 12276.64
498.0558, 12774.83
498.5379, 13270.00
499.0201, 13794.64
499.5022, 14358.17
499.9843, 14963.82
500.4664, 15607.92
500.9485, 16278.52
501.4306, 16989.95
501.9127, 17744.09
502.3948, 18540.92
502.8770, 19372.45
503.3591, 20248.28
503.8412, 21144.34
504.3233, 22058.25
504.8054, 23038.61
505.2875, 23946.29
505.7697, 24805.91
506.2518, 25580.70
506.7339, 26144.55
507.2160, 26526.98
507.6981, 26589.94
508.1802, 26236.04
508.6624, 25475.62
509.1445, 24466.03
509.6266, 23185.00
510.1087, 21776.66
510.5908, 20328.23
511.0729, 18870.29
511.5551, 17505.57
512.0372, 16250.57
512.5193, 15113.37
513.0014, 14121.56
513.4835, 13265.71
513.9656, 12530.81
514.4478, 11956.10
514.9299, 11466.94
515.4120, 11007.85
515.8941, 10572.14
516.3762, 10177.16
516.8583, 9841.389
517.3405, 9547.751
517.8226, 9282.224
518.3047, 9046.560
518.7868, 8833.753
519.2689, 8648.913
519.7510, 8486.766
520.2332, 8331.709
520.7153, 8183.153
521.1974, 8047.629
521.6795, 7929.189
522.1616, 7828.888
522.6437, 7735.010
523.1259, 7649.433
523.6080, 7568.384
524.0901, 7488.976
524.5722, 7410.613
525.0543, 7333.560
525.5364, 7254.866
526.0186, 7180.415
526.5007, 7123.405
526.9828, 7081.691
527.4649, 7040.973
527.9470, 6996.034
528.4291, 6946.725
528.9113, 6886.927
529.3934, 6817.338
529.8755, 6754.668
530.3576, 6712.683
530.8397, 6681.832
531.3218, 6652.607
531.8040, 6625.628
532.2861, 6595.792
532.7682, 6557.497
533.2503, 6515.978
533.7324, 6482.477
534.2145, 6468.202
534.6967, 6451.930
535.1788, 6427.436
535.6609, 6394.847
536.1430, 6363.392
536.6251, 6330.460
537.1072, 6303.699
537.5894, 6292.196
538.0715, 6299.824
538.5536, 6296.398
539.0357, 6278.024
539.5178, 6251.613
539.9999, 6225.211
540.4821, 6199.399
540.9642, 6177.678
541.4463, 6161.982
541.9284, 6150.362
542.4105, 6139.033
542.8926, 6128.211
543.3748, 6119.661
543.8569, 6120.047
544.3390, 6120.536
544.8211, 6109.162
545.3032, 6080.462
545.7853, 6056.767
546.2675, 6061.029
546.7495, 6072.296
547.2316, 6065.698
547.7137, 6007.566
548.1959, 5962.069
548.6780, 5947.211
549.1601, 5957.408
549.6422, 5964.530
550.1243, 5972.519
550.6064, 5971.949
551.0886, 5955.035
551.5707, 5917.690
552.0528, 5899.093
552.5349, 5904.536
553.0170, 5916.502
553.4991, 5915.694
553.9813, 5902.868
554.4634, 5894.916
554.9455, 5897.043
555.4276, 5901.386
555.9097, 5894.389
556.3918, 5878.183
556.8740, 5860.869
557.3561, 5842.734
557.8382, 5828.068
558.3203, 5821.094
558.8024, 5821.920
559.2845, 5829.219
559.7667, 5852.070
560.2488, 5875.164
560.7309, 5886.027
561.2130, 5875.798
561.6951, 5866.266
562.1772, 5861.803
562.6594, 5860.208
563.1415, 5857.704
563.6236, 5848.279
564.1057, 5847.001
564.5878, 5858.276
565.0699, 5880.030
565.5521, 5903.984
566.0342, 5933.644
566.5163, 5953.776
566.9984, 5944.738
567.4805, 5911.325
567.9626, 5918.173
568.4448, 5972.486
568.9269, 6030.167
569.4090, 6033.805
569.8911, 6004.878
570.3732, 5998.782
570.8553, 6041.997
571.3375, 6093.581
571.8196, 6108.689
572.3017, 6102.457
572.7838, 6109.722
573.2659, 6162.078
573.7480, 6217.063
574.2302, 6252.987
574.7123, 6268.061
575.1944, 6283.731
575.6765, 6303.656
576.1586, 6325.318
576.6407, 6348.135
577.1229, 6378.081
577.6050, 6396.306
578.0871, 6399.102
578.5692, 6394.403
579.0513, 6394.215
579.5334, 6399.644
580.0156, 6401.934
580.4977, 6400.415
580.9798, 6393.012
581.4619, 6375.208
581.9440, 6347.110
582.4261, 6308.395
582.9083, 6244.155
583.3904, 6175.669
583.8725, 6136.682
584.3546, 6129.388
584.8367, 6125.294
585.3188, 6109.605
585.8010, 6085.920
586.2831, 6056.593
586.7652, 6011.780
587.2473, 5978.145
587.7294, 5970.699
588.2115, 5977.133
588.6937, 5974.672
589.1758, 5953.518
589.6579, 5936.123
590.1400, 5928.732
590.6221, 5929.643
591.1042, 5925.839
591.5864, 5916.842
592.0685, 5904.921
592.5506, 5886.492
593.0327, 5863.439
593.5148, 5861.286
593.9969, 5883.454
594.4791, 5908.288
594.9612, 5914.600
595.4433, 5906.675
595.9254, 5892.542
596.4075, 5871.221
596.8896, 5850.181
597.3718, 5830.699
597.8539, 5816.444
598.3360, 5815.148
598.8181, 5846.452
599.3002, 5875.618
599.7823, 5885.791
600.2645, 5877.468
600.7466, 5872.989
601.2287, 5877.691
601.7108, 5882.771
602.1929, 5882.957
602.6750, 5874.884
603.1572, 5877.178
603.6393, 5893.844
604.1214, 5913.191
604.6035, 5921.234
605.0856, 5918.282
605.5677, 5916.691
606.0499, 5919.020
606.5320, 5923.377
607.0141, 5926.242
607.4962, 5928.438
607.9783, 5932.872
608.4604, 5942.483
608.9425, 5953.791
609.4246, 5960.309
609.9067, 5963.730
610.3889, 5976.696
610.8710, 6017.155
611.3531, 6059.386
611.8352, 6087.291
612.3173, 6093.992
612.7994, 6102.795
613.2816, 6118.614
613.7637, 6134.235
614.2458, 6140.969
614.7279, 6132.186
615.2100, 6136.207
615.6921, 6156.834
616.1743, 6191.199
616.6564, 6240.888
617.1385, 6304.968
617.6206, 6353.102
618.1027, 6363.026
618.5848, 6355.598
619.0670, 6370.474
619.5491, 6404.853
620.0312, 6440.675
620.5133, 6464.245
620.9954, 6485.796
621.4775, 6515.778
