##NAMES=Emmonsite
##RRUFFID=R060802
##IDEAL CHEMISTRY=Fe^3+^_2_(Te^4+^O_3_)_3_&#183;2H_2_O
##LOCALITY=Moctezuma mine, Moctezuma, Sonora, Mexico
##OWNER=RRUFF
##SOURCE=Michael Scott
##DESCRIPTION=Spray of green globular aggregates associated with pale yellow schmitterite, R060524
##STATUS=The identification of this mineral is confirmed by single-crystal X-ray diffraction and chemical analysis.
##URL=rruff.info/R060802
##MEASURED CHEMISTRY=(Fe^3+^_1.89_Al_0.11_)_Σ=2_(Te^4+^_1.00_O_3_)_3_·2.01H_2_O; H_2_O estimated by difference
141.9265, 2134.283
142.4086, 2186.731
142.8907, 2229.983
143.3728, 2264.085
143.8550, 2289.397
144.3371, 2300.719
144.8192, 2294.309
145.3013, 2276.962
145.7834, 2258.728
146.2655, 2238.997
146.7477, 2218.972
147.2298, 2197.958
147.7119, 2173.468
148.1940, 2155.473
148.6761, 2144.423
149.1582, 2139.775
149.6404, 2140.711
150.1225, 2148.353
150.6046, 2160.320
151.0867, 2175.906
151.5688, 2199.073
152.0509, 2220.157
152.5331, 2239.872
153.0152, 2257.723
153.4973, 2271.676
153.9794, 2283.691
154.4615, 2290.061
154.9436, 2289.215
155.4258, 2277.234
155.9079, 2262.412
156.3900, 2243.996
156.8721, 2222.769
157.3542, 2202.145
157.8363, 2181.977
158.3185, 2163.350
158.8006, 2146.770
159.2827, 2130.578
159.7648, 2118.444
160.2469, 2111.233
160.7290, 2108.886
161.2112, 2110.805
161.6933, 2116.854
162.1754, 2127.056
162.6575, 2141.424
163.1396, 2160.429
163.6217, 2183.153
164.1039, 2209.557
164.5860, 2239.590
165.0681, 2272.224
165.5502, 2306.525
166.0323, 2343.182
166.5145, 2383.444
166.9966, 2430.216
167.4787, 2478.813
167.9608, 2526.159
168.4429, 2571.995
168.9250, 2618.965
169.4071, 2668.867
169.8893, 2720.963
170.3714, 2774.186
170.8535, 2831.847
171.3356, 2888.698
171.8177, 2939.812
172.2998, 2984.381
172.7820, 3026.910
173.2641, 3072.399
173.7462, 3118.484
174.2283, 3160.362
174.7104, 3195.336
175.1925, 3225.472
175.6747, 3252.922
176.1568, 3278.318
176.6389, 3299.997
177.1210, 3314.392
177.6031, 3323.197
178.0852, 3331.953
178.5674, 3343.351
179.0495, 3356.804
179.5316, 3371.129
180.0137, 3385.637
180.4958, 3402.719
180.9779, 3425.274
181.4601, 3453.226
181.9422, 3485.397
182.4243, 3523.852
182.9064, 3565.771
183.3885, 3605.821
183.8706, 3643.887
184.3528, 3678.600
184.8349, 3712.779
185.3170, 3744.991
185.7991, 3764.087
186.2812, 3763.284
186.7633, 3742.937
187.2455, 3704.274
187.7276, 3646.522
188.2097, 3571.523
188.6918, 3478.332
189.1739, 3367.332
189.6560, 3247.503
190.1382, 3120.043
190.6203, 2987.026
191.1024, 2857.428
191.5845, 2731.476
192.0666, 2611.815
192.5487, 2502.326
193.0309, 2403.621
193.5130, 2315.128
193.9951, 2236.875
194.4772, 2168.663
194.9593, 2105.389
195.4414, 2045.194
195.9236, 1988.863
196.4057, 1941.423
196.8878, 1903.276
197.3699, 1871.345
197.8520, 1843.465
198.3341, 1819.281
198.8163, 1798.935
199.2984, 1782.321
199.7805, 1769.344
200.2626, 1760.174
200.7447, 1755.264
201.2268, 1752.404
201.7090, 1749.297
202.1911, 1745.680
202.6732, 1744.360
203.1553, 1746.172
203.6374, 1750.857
204.1195, 1756.907
204.6017, 1764.513
205.0838, 1773.013
205.5659, 1782.023
206.0480, 1791.727
206.5301, 1800.884
207.0122, 1808.676
207.4944, 1815.392
207.9765, 1824.101
208.4586, 1835.314
208.9407, 1847.449
209.4228, 1858.673
209.9049, 1868.507
210.3871, 1879.379
210.8692, 1892.059
211.3513, 1906.401
211.8334, 1920.148
212.3155, 1932.712
212.7976, 1945.665
213.2798, 1960.676
213.7619, 1978.006
214.2440, 1996.805
214.7261, 2017.115
215.2082, 2038.767
215.6903, 2062.101
216.1725, 2087.532
216.6546, 2113.697
217.1367, 2139.060
217.6188, 2163.689
218.1009, 2187.460
218.5830, 2210.383
219.0651, 2232.595
219.5473, 2254.736
220.0294, 2278.177
220.5115, 2300.351
220.9936, 2317.845
221.4757, 2329.575
221.9578, 2339.437
222.4400, 2348.744
222.9221, 2357.776
223.4042, 2362.950
223.8863, 2363.802
224.3684, 2361.452
224.8505, 2356.997
225.3327, 2350.108
225.8148, 2341.906
226.2969, 2332.234
226.7790, 2320.717
227.2611, 2311.203
227.7432, 2304.341
228.2254, 2298.711
228.7075, 2292.414
229.1896, 2283.991
229.6717, 2277.708
230.1538, 2274.255
230.6359, 2273.613
231.1181, 2276.595
231.6002, 2284.563
232.0823, 2294.841
232.5644, 2304.237
233.0465, 2311.512
233.5286, 2320.366
234.0108, 2331.601
234.4929, 2345.393
234.9750, 2360.549
235.4571, 2377.328
235.9392, 2394.907
236.4213, 2412.740
236.9035, 2431.397
237.3856, 2449.011
237.8677, 2464.802
238.3498, 2478.739
238.8319, 2493.433
239.3140, 2508.887
239.7962, 2525.135
240.2783, 2542.323
240.7604, 2560.073
241.2425, 2579.630
241.7246, 2602.261
242.2067, 2628.539
242.6889, 2650.523
243.1710, 2666.191
243.6531, 2679.468
244.1352, 2694.683
244.6173, 2714.016
245.0994, 2731.054
245.5816, 2744.542
246.0637, 2754.443
246.5458, 2762.178
247.0279, 2767.587
247.5100, 2771.012
247.9921, 2772.777
248.4743, 2773.099
248.9564, 2771.369
249.4385, 2767.096
249.9206, 2760.349
250.4027, 2753.501
250.8848, 2746.502
251.3670, 2739.464
251.8491, 2732.328
252.3312, 2724.074
252.8133, 2717.788
253.2954, 2713.974
253.7775, 2712.564
254.2597, 2712.555
254.7418, 2713.921
255.2239, 2716.688
255.7060, 2720.989
256.1881, 2727.326
256.6702, 2733.944
257.1523, 2740.293
257.6345, 2746.586
258.1166, 2754.839
258.5987, 2765.307
259.0808, 2777.196
259.5629, 2789.813
260.0450, 2802.244
260.5272, 2817.292
261.0093, 2835.327
261.4914, 2856.192
261.9735, 2878.838
262.4556, 2903.276
262.9377, 2929.168
263.4199, 2956.073
263.9020, 2983.990
264.3841, 3012.840
264.8662, 3042.864
265.3483, 3073.847
265.8304, 3106.410
266.3126, 3140.864
266.7947, 3175.756
267.2768, 3209.976
267.7589, 3244.179
268.2410, 3277.063
268.7231, 3309.600
269.2053, 3340.839
269.6874, 3368.342
270.1695, 3392.266
270.6516, 3412.777
271.1337, 3430.827
271.6158, 3447.643
272.0980, 3456.062
272.5801, 3454.988
273.0622, 3446.051
273.5443, 3433.349
274.0264, 3417.498
274.5085, 3395.504
274.9907, 3365.499
275.4728, 3326.981
275.9549, 3283.875
276.4370, 3235.411
276.9191, 3183.536
277.4012, 3131.961
277.8834, 3081.097
278.3655, 3028.601
278.8476, 2972.836
279.3297, 2913.205
279.8118, 2855.861
280.2939, 2801.823
280.7761, 2749.420
281.2582, 2695.666
281.7403, 2640.184
282.2224, 2587.930
282.7045, 2541.014
283.1866, 2499.192
283.6688, 2460.137
284.1509, 2424.019
284.6330, 2389.628
285.1151, 2354.177
285.5972, 2317.638
286.0793, 2284.216
286.5615, 2256.101
287.0436, 2232.288
287.5257, 2208.004
288.0078, 2182.916
288.4899, 2158.700
288.9720, 2136.859
289.4542, 2117.285
289.9363, 2098.784
290.4184, 2080.890
290.9005, 2063.950
291.3826, 2048.799
291.8647, 2035.476
292.3469, 2022.552
292.8290, 2008.196
293.3111, 1992.934
293.7932, 1978.640
294.2753, 1966.047
294.7574, 1954.329
295.2396, 1941.748
295.7217, 1928.335
296.2038, 1915.638
296.6859, 1905.365
297.1680, 1896.898
297.6501, 1888.276
298.1323, 1878.839
298.6144, 1869.676
299.0965, 1861.826
299.5786, 1855.311
300.0607, 1850.629
300.5428, 1848.628
301.0250, 1848.465
301.5071, 1848.348
301.9892, 1847.734
302.4713, 1847.974
302.9534, 1850.920
303.4355, 1856.045
303.9177, 1861.786
304.3998, 1866.683
304.8819, 1871.795
305.3640, 1878.479
305.8461, 1887.015
306.3282, 1896.474
306.8104, 1905.978
307.2925, 1915.868
307.7746, 1926.640
308.2567, 1938.360
308.7388, 1951.181
309.2209, 1965.888
309.7031, 1982.557
310.1852, 1999.181
310.6673, 2014.005
311.1494, 2028.157
311.6315, 2043.258
312.1136, 2060.428
312.5958, 2078.541
313.0779, 2097.367
313.5600, 2116.727
314.0421, 2135.988
314.5242, 2154.079
315.0063, 2171.928
315.4885, 2190.398
315.9706, 2210.951
316.4527, 2231.118
316.9348, 2250.008
317.4169, 2267.709
317.8990, 2284.689
318.3812, 2301.563
318.8633, 2317.583
319.3454, 2332.127
319.8275, 2345.489
320.3096, 2356.878
320.7917, 2367.240
321.2739, 2375.708
321.7560, 2380.019
322.2381, 2376.919
322.7202, 2371.678
323.2023, 2366.984
323.6844, 2364.343
324.1666, 2359.374
324.6487, 2352.405
325.1308, 2342.461
325.6129, 2328.023
326.0950, 2304.109
326.5771, 2280.019
327.0593, 2259.096
327.5414, 2242.891
328.0235, 2223.616
328.5056, 2197.842
328.9877, 2170.089
329.4698, 2145.493
329.9520, 2128.450
330.4341, 2109.149
330.9162, 2084.592
331.3983, 2054.502
331.8804, 2028.226
332.3625, 2007.643
332.8447, 1989.605
333.3268, 1971.752
333.8089, 1954.024
334.2910, 1936.520
334.7731, 1918.510
335.2552, 1900.465
335.7374, 1885.577
336.2195, 1874.926
336.7016, 1865.475
337.1837, 1855.052
337.6658, 1842.680
338.1479, 1833.072
338.6301, 1827.446
339.1122, 1824.047
339.5943, 1818.434
340.0764, 1809.542
340.5585, 1802.031
341.0406, 1798.639
341.5227, 1799.616
342.0049, 1799.813
342.4870, 1798.937
342.9691, 1797.883
343.4512, 1798.025
343.9333, 1799.436
344.4154, 1801.065
344.8976, 1802.235
345.3797, 1803.308
345.8618, 1805.987
346.3439, 1810.380
346.8260, 1815.874
347.3081, 1822.431
347.7903, 1829.840
348.2724, 1836.675
348.7545, 1842.024
349.2366, 1847.161
349.7187, 1855.165
350.2008, 1865.918
350.6830, 1876.532
351.1651, 1883.651
351.6472, 1889.161
352.1293, 1897.602
352.6114, 1910.230
353.0935, 1924.349
353.5757, 1937.120
354.0578, 1948.842
354.5399, 1960.744
355.0220, 1972.785
355.5041, 1985.726
355.9862, 2000.799
356.4684, 2018.222
356.9505, 2035.823
357.4326, 2052.276
357.9147, 2067.664
358.3968, 2082.071
358.8789, 2094.897
359.3611, 2107.373
359.8432, 2120.121
360.3253, 2133.227
360.8074, 2147.020
361.2895, 2161.830
361.7716, 2177.445
362.2538, 2193.701
362.7359, 2211.431
363.2180, 2228.852
363.7001, 2244.547
364.1822, 2259.303
364.6643, 2275.573
365.1465, 2296.181
365.6286, 2317.181
366.1107, 2336.452
366.5928, 2353.061
367.0749, 2369.408
367.5570, 2385.048
368.0392, 2400.887
368.5213, 2418.551
369.0034, 2441.736
369.4855, 2463.072
369.9676, 2479.343
370.4497, 2488.530
370.9319, 2501.998
371.4140, 2522.918
371.8961, 2546.027
372.3782, 2565.905
372.8603, 2579.966
373.3424, 2594.932
373.8246, 2611.575
374.3067, 2629.782
374.7888, 2650.101
375.2709, 2673.261
375.7530, 2697.466
376.2351, 2721.971
376.7173, 2746.680
377.1994, 2771.526
377.6815, 2795.933
378.1636, 2821.484
378.6457, 2851.325
379.1278, 2886.081
379.6100, 2923.379
380.0921, 2963.331
380.5742, 3005.685
381.0563, 3047.296
381.5384, 3087.555
382.0205, 3128.821
382.5027, 3172.910
382.9848, 3220.133
383.4669, 3269.878
383.9490, 3323.278
384.4311, 3378.887
384.9132, 3433.787
385.3954, 3487.768
385.8775, 3542.552
386.3596, 3599.485
386.8417, 3657.437
387.3238, 3715.185
387.8059, 3772.406
388.2881, 3828.448
388.7702, 3883.271
389.2523, 3936.443
389.7344, 3986.459
390.2165, 4031.206
390.6986, 4073.649
391.1808, 4117.647
391.6629, 4164.589
392.1450, 4208.394
392.6271, 4244.587
393.1092, 4275.246
393.5913, 4302.753
394.0735, 4326.839
394.5556, 4349.444
395.0377, 4372.743
395.5198, 4396.333
396.0019, 4415.454
396.4840, 4426.183
396.9662, 4433.481
397.4483, 4440.628
397.9304, 4449.489
398.4125, 4456.395
398.8946, 4460.438
399.3767, 4462.085
399.8589, 4462.525
400.3410, 4463.125
400.8231, 4461.112
401.3052, 4455.388
401.7873, 4445.269
402.2694, 4433.881
402.7516, 4421.945
403.2337, 4408.153
403.7158, 4390.600
404.1979, 4366.891
404.6800, 4344.658
405.1621, 4326.175
405.6443, 4310.505
406.1264, 4290.683
406.6085, 4265.185
407.0906, 4239.465
407.5727, 4218.383
408.0548, 4202.631
408.5370, 4182.391
409.0191, 4156.122
409.5012, 4127.067
409.9833, 4101.232
410.4654, 4078.565
410.9475, 4056.786
411.4297, 4035.813
411.9118, 4015.027
412.3939, 3991.059
412.8760, 3963.907
413.3581, 3938.894
413.8402, 3923.196
414.3224, 3913.969
414.8045, 3903.808
415.2866, 3890.826
415.7687, 3875.718
416.2508, 3857.678
416.7329, 3837.574
417.2151, 3818.867
417.6972, 3803.935
418.1793, 3791.140
418.6614, 3778.794
419.1435, 3766.849
419.6256, 3755.099
420.1078, 3742.692
420.5899, 3730.673
421.0720, 3720.115
421.5541, 3712.106
422.0362, 3705.145
422.5183, 3698.101
423.0005, 3691.054
423.4826, 3686.249
423.9647, 3685.202
424.4468, 3685.985
424.9289, 3687.362
425.4110, 3688.258
425.8932, 3690.854
426.3753, 3695.115
426.8574, 3701.011
427.3395, 3708.751
427.8216, 3719.219
428.3037, 3730.135
428.7859, 3740.571
429.2680, 3750.234
429.7501, 3761.008
430.2322, 3772.678
430.7143, 3785.649
431.1964, 3800.392
431.6786, 3817.140
432.1607, 3834.832
432.6428, 3854.518
433.1249, 3874.382
433.6070, 3888.093
434.0891, 3895.410
434.5713, 3900.137
435.0534, 3904.363
435.5355, 3908.084
436.0176, 3911.331
436.4997, 3914.304
436.9818, 3916.166
437.4640, 3917.080
437.9461, 3916.307
438.4282, 3911.367
438.9103, 3899.269
439.3924, 3883.716
439.8745, 3869.427
440.3566, 3856.180
440.8387, 3841.318
441.3209, 3823.589
441.8030, 3803.086
442.2851, 3779.256
442.7672, 3750.064
443.2493, 3721.694
443.7314, 3698.575
444.2136, 3678.427
444.6957, 3657.692
445.1778, 3635.420
445.6599, 3611.911
446.1420, 3586.557
446.6241, 3558.967
447.1063, 3533.090
447.5884, 3510.504
448.0705, 3488.945
448.5526, 3466.883
449.0347, 3441.330
449.5168, 3419.370
449.9990, 3403.410
450.4811, 3390.847
450.9632, 3374.470
451.4453, 3352.860
451.9274, 3329.987
452.4095, 3307.084
452.8917, 3284.582
453.3738, 3261.782
453.8559, 3239.019
454.3380, 3215.786
454.8201, 3191.469
455.3022, 3166.282
455.7844, 3140.845
456.2665, 3116.179
456.7486, 3090.820
457.2307, 3059.663
457.7128, 3023.430
458.1949, 2987.929
458.6771, 2958.443
459.1592, 2932.164
459.6413, 2903.750
460.1234, 2872.513
460.6055, 2841.661
461.0876, 2813.727
461.5698, 2787.918
462.0519, 2762.807
462.5340, 2737.910
463.0161, 2713.268
463.4982, 2688.251
463.9803, 2663.094
464.4625, 2639.085
464.9446, 2615.647
465.4267, 2593.786
465.9088, 2574.368
466.3909, 2558.056
466.8730, 2542.055
467.3552, 2524.516
467.8373, 2507.401
468.3194, 2493.246
468.8015, 2484.597
469.2836, 2475.873
469.7657, 2465.654
470.2479, 2454.195
470.7300, 2445.366
471.2121, 2440.599
471.6942, 2436.145
472.1763, 2429.787
472.6584, 2421.199
473.1406, 2412.626
473.6227, 2403.917
474.1048, 2395.722
474.5869, 2389.849
475.0690, 2386.393
475.5511, 2381.112
476.0333, 2372.361
476.5154, 2361.091
476.9975, 2349.111
477.4796, 2336.467
477.9617, 2323.716
478.4438, 2311.374
478.9260, 2299.189
479.4081, 2286.771
479.8902, 2274.070
480.3723, 2260.856
480.8544, 2247.985
481.3365, 2234.162
481.8187, 2217.173
482.3008, 2193.622
482.7829, 2168.793
483.2650, 2144.688
483.7471, 2121.365
484.2292, 2099.678
484.7114, 2081.654
485.1935, 2063.814
485.6756, 2044.170
486.1577, 2021.120
486.6398, 1998.856
487.1219, 1978.296
487.6041, 1958.341
488.0862, 1938.224
488.5683, 1917.929
489.0504, 1896.911
489.5325, 1874.802
490.0146, 1851.800
490.4968, 1830.309
490.9789, 1810.840
491.4610, 1792.027
491.9431, 1772.878
492.4252, 1753.690
492.9073, 1735.141
493.3895, 1717.284
493.8716, 1699.918
494.3537, 1682.566
494.8358, 1665.348
495.3179, 1647.829
495.8000, 1629.328
496.2822, 1611.142
496.7643, 1595.784
497.2464, 1582.752
497.7285, 1569.996
498.2106, 1555.617
498.6927, 1540.998
499.1749, 1527.383
499.6570, 1515.119
500.1391, 1503.275
500.6212, 1491.127
501.1033, 1479.204
501.5854, 1467.977
502.0676, 1458.621
502.5497, 1449.006
503.0318, 1438.190
503.5139, 1426.416
503.9960, 1415.239
504.4781, 1404.145
504.9603, 1394.050
505.4424, 1385.455
505.9245, 1378.641
506.4066, 1371.996
506.8887, 1365.786
507.3708, 1359.481
507.8530, 1352.192
508.3351, 1343.746
508.8172, 1335.933
509.2993, 1329.114
509.7814, 1323.072
510.2635, 1317.625
510.7457, 1312.706
511.2278, 1307.305
511.7099, 1300.124
512.1920, 1292.148
512.6741, 1285.586
513.1563, 1280.498
513.6384, 1276.302
514.1205, 1272.549
514.6026, 1269.366
515.0847, 1267.193
515.5668, 1267.267
516.0490, 1266.345
516.5311, 1261.129
517.0132, 1253.558
517.4953, 1247.543
517.9774, 1246.023
518.4595, 1244.886
518.9417, 1242.487
519.4238, 1238.683
519.9059, 1234.815
520.3880, 1230.195
520.8701, 1226.162
521.3522, 1223.563
521.8344, 1223.739
522.3165, 1222.446
522.7986, 1218.840
523.2807, 1214.412
523.7628, 1211.919
524.2449, 1211.743
524.7271, 1211.315
525.2092, 1209.868
525.6913, 1207.639
526.1734, 1205.443
526.6555, 1203.290
527.1376, 1200.869
527.6198, 1197.189
528.1019, 1193.200
528.5840, 1191.354
529.0661, 1192.085
529.5482, 1193.386
530.0303, 1193.989
530.5125, 1193.826
530.9946, 1192.745
531.4767, 1189.842
531.9588, 1187.014
532.4409, 1185.243
532.9230, 1184.348
533.4052, 1183.767
533.8873, 1184.094
534.3694, 1184.020
534.8515, 1182.699
535.3336, 1179.672
535.8157, 1177.698
536.2979, 1177.293
536.7800, 1177.536
537.2621, 1177.939
537.7442, 1179.020
538.2263, 1178.860
538.7084, 1177.034
539.1906, 1174.226
539.6727, 1171.422
540.1548, 1168.490
540.6369, 1166.948
541.1190, 1168.156
541.6011, 1170.853
542.0833, 1170.707
542.5654, 1167.858
543.0475, 1165.280
543.5296, 1165.706
544.0117, 1167.612
544.4938, 1168.564
544.9760, 1168.148
545.4581, 1167.474
545.9402, 1167.293
546.4223, 1167.336
546.9044, 1167.266
547.3865, 1166.983
547.8687, 1166.523
548.3508, 1165.688
548.8329, 1164.644
549.3150, 1163.943
549.7971, 1164.462
550.2792, 1164.553
550.7614, 1163.490
551.2435, 1161.135
551.7256, 1159.676
552.2077, 1159.563
552.6898, 1159.749
553.1719, 1159.478
553.6541, 1158.741
554.1362, 1157.629
554.6183, 1155.909
555.1004, 1154.348
555.5825, 1154.363
556.0646, 1155.758
556.5468, 1157.407
557.0289, 1159.391
557.5110, 1160.948
557.9931, 1160.432
558.4752, 1158.200
558.9573, 1156.205
559.4395, 1155.484
559.9216, 1155.580
560.4037, 1156.258
560.8858, 1157.557
561.3679, 1158.811
561.8500, 1160.479
562.3322, 1161.601
562.8143, 1161.364
563.2964, 1157.614
563.7785, 1155.071
564.2606, 1154.410
564.7427, 1155.020
565.2249, 1155.853
565.7070, 1157.251
566.1891, 1158.071
566.6712, 1157.705
567.1533, 1156.436
567.6354, 1156.227
568.1176, 1157.217
568.5997, 1158.411
569.0818, 1159.444
569.5639, 1160.165
570.0460, 1159.640
570.5281, 1157.653
571.0103, 1155.860
571.4924, 1156.173
571.9745, 1157.783
572.4566, 1159.318
572.9387, 1160.479
573.4208, 1161.275
573.9030, 1161.472
574.3851, 1161.324
574.8672, 1161.389
575.3493, 1161.979
575.8314, 1162.677
576.3135, 1163.654
576.7957, 1164.887
577.2778, 1164.818
577.7599, 1161.836
578.2420, 1159.280
578.7241, 1159.125
579.2062, 1162.207
579.6884, 1164.240
580.1705, 1165.063
580.6526, 1165.205
581.1347, 1165.171
581.6168, 1164.975
582.0989, 1164.842
582.5811, 1164.777
583.0632, 1164.898
583.5453, 1165.440
584.0274, 1166.346
584.5095, 1167.381
584.9916, 1168.454
585.4738, 1169.577
585.9559, 1170.814
586.4380, 1172.129
586.9201, 1173.332
587.4022, 1173.864
587.8843, 1174.594
588.3664, 1176.104
588.8485, 1178.600
589.3306, 1181.421
589.8127, 1185.885
590.2949, 1189.786
590.7770, 1190.945
591.2591, 1187.858
591.7412, 1185.459
592.2233, 1184.051
592.7054, 1183.751
593.1876, 1185.082
593.6697, 1188.166
594.1518, 1191.528
594.6339, 1194.653
595.1160, 1197.608
595.5981, 1200.648
596.0803, 1203.718
596.5624, 1206.246
597.0445, 1207.489
597.5266, 1208.150
598.0087, 1208.662
598.4908, 1208.976
598.9730, 1210.611
599.4551, 1216.110
599.9372, 1222.430
600.4193, 1226.601
600.9014, 1225.615
601.3835, 1226.053
601.8657, 1230.276
602.3478, 1236.008
602.8299, 1239.801
603.3120, 1240.257
603.7941, 1241.594
604.2762, 1245.168
604.7584, 1250.184
605.2405, 1253.184
605.7226, 1253.865
606.2047, 1254.942
606.6868, 1258.051
607.1689, 1262.732
607.6511, 1267.603
608.1332, 1272.685
608.6153, 1277.935
609.0974, 1283.531
609.5795, 1289.266
610.0616, 1294.930
610.5438, 1300.501
611.0259, 1305.866
611.5080, 1310.314
611.9901, 1314.688
612.4722, 1320.055
612.9543, 1328.067
613.4365, 1335.389
613.9186, 1340.397
614.4007, 1344.380
614.8828, 1350.488
615.3649, 1359.597
615.8470, 1368.948
616.3292, 1378.041
616.8113, 1386.743
617.2934, 1393.871
617.7755, 1399.213
618.2576, 1405.401
618.7397, 1414.734
619.2219, 1426.277
619.7040, 1437.573
620.1861, 1448.390
620.6682, 1459.647
621.1503, 1473.039
621.6324, 1486.889
622.1146, 1499.100
622.5967, 1507.664
623.0788, 1517.804
623.5609, 1533.285
624.0430, 1551.323
624.5251, 1567.932
625.0073, 1580.586
625.4894, 1594.012
625.9715, 1608.563
626.4536, 1624.375
626.9357, 1642.432
627.4178, 1663.141
627.9000, 1684.697
628.3821, 1706.378
628.8642, 1728.371
629.3463, 1751.160
629.8284, 1774.612
630.3105, 1799.137
630.7927, 1824.745
631.2748, 1851.608
631.7569, 1880.409
632.2390, 1911.307
632.7211, 1942.800
633.2032, 1972.425
633.6854, 2002.486
634.1675, 2035.013
634.6496, 2071.457
635.1317, 2109.186
