##NAMES=Emmonsite
##RRUFFID=R060802
##IDEAL CHEMISTRY=Fe^3+^_2_(Te^4+^O_3_)_3_&#183;2H_2_O
##LOCALITY=Moctezuma mine, Moctezuma, Sonora, Mexico
##OWNER=RRUFF
##SOURCE=Michael Scott
##DESCRIPTION=Spray of green globular aggregates associated with pale yellow schmitterite, R060524
##STATUS=The identification of this mineral is confirmed by single-crystal X-ray diffraction and chemical analysis.
##URL=rruff.info/R060802
##MEASURED CHEMISTRY=(Fe^3+^_1.89_Al_0.11_)_Σ=2_(Te^4+^_1.00_O_3_)_3_·2.01H_2_O; H_2_O estimated by difference
147.4850, 1472.457
147.9671, 1473.564
148.4492, 1477.648
148.9313, 1482.906
149.4134, 1487.387
149.8955, 1490.948
150.3777, 1498.723
150.8598, 1516.960
151.3419, 1534.439
151.8240, 1548.278
152.3061, 1558.112
152.7882, 1564.603
153.2704, 1568.535
153.7525, 1570.152
154.2346, 1567.792
154.7167, 1560.150
155.1988, 1550.514
155.6809, 1540.023
156.1631, 1529.162
156.6452, 1518.618
157.1273, 1509.268
157.6094, 1501.135
158.0915, 1494.587
158.5736, 1488.986
159.0558, 1485.225
159.5379, 1484.110
160.0200, 1485.867
160.5021, 1490.311
160.9842, 1497.379
161.4663, 1506.665
161.9485, 1518.884
162.4306, 1535.447
162.9127, 1554.986
163.3948, 1575.015
163.8769, 1594.522
164.3590, 1614.666
164.8412, 1637.274
165.3233, 1662.802
165.8054, 1688.600
166.2875, 1713.280
166.7696, 1736.995
167.2517, 1760.030
167.7339, 1781.995
168.2160, 1803.689
168.6981, 1825.642
169.1802, 1847.881
169.6623, 1870.275
170.1444, 1893.130
170.6266, 1916.804
171.1087, 1938.398
171.5908, 1956.092
172.0729, 1971.758
172.5550, 1986.813
173.0371, 2001.680
173.5193, 2015.118
174.0014, 2024.810
174.4835, 2028.564
174.9656, 2033.105
175.4477, 2043.596
175.9298, 2053.361
176.4120, 2055.670
176.8941, 2047.689
177.3762, 2033.174
177.8583, 2022.632
178.3404, 2020.252
178.8225, 2016.615
179.3047, 2009.601
179.7868, 2001.279
180.2689, 1993.786
180.7510, 1988.235
181.2331, 1984.528
181.7152, 1982.434
182.1973, 1985.733
182.6795, 1986.353
183.1616, 1982.938
183.6437, 1975.922
184.1258, 1966.477
184.6079, 1955.521
185.0900, 1942.398
185.5722, 1922.804
186.0543, 1898.367
186.5364, 1867.760
187.0185, 1829.054
187.5006, 1783.598
187.9827, 1734.229
188.4649, 1682.191
188.9470, 1627.676
189.4291, 1573.010
189.9112, 1515.790
190.3933, 1460.182
190.8754, 1409.151
191.3576, 1362.428
191.8397, 1319.260
192.3218, 1279.346
192.8039, 1242.904
193.2860, 1209.329
193.7681, 1178.387
194.2503, 1150.463
194.7324, 1126.035
195.2145, 1105.093
195.6966, 1087.067
196.1787, 1072.655
196.6608, 1060.748
197.1430, 1050.467
197.6251, 1041.572
198.1072, 1034.158
198.5893, 1028.566
199.0714, 1025.164
199.5535, 1022.657
200.0357, 1020.156
200.5178, 1018.217
200.9999, 1017.673
201.4820, 1019.135
201.9641, 1021.934
202.4462, 1024.214
202.9284, 1025.794
203.4105, 1027.109
203.8926, 1027.465
204.3747, 1027.892
204.8568, 1029.807
205.3389, 1034.138
205.8211, 1040.313
206.3032, 1045.687
206.7853, 1050.222
207.2674, 1053.866
207.7495, 1055.563
208.2316, 1056.638
208.7138, 1058.939
209.1959, 1063.630
209.6780, 1070.409
210.1601, 1076.948
210.6422, 1083.524
211.1243, 1089.543
211.6065, 1094.059
212.0886, 1098.037
212.5707, 1102.980
213.0528, 1109.845
213.5349, 1118.488
214.0170, 1127.503
214.4992, 1136.953
214.9813, 1146.609
215.4634, 1156.761
215.9455, 1167.037
216.4276, 1176.694
216.9097, 1185.053
217.3918, 1192.377
217.8740, 1201.117
218.3561, 1213.333
218.8382, 1224.492
219.3203, 1232.457
219.8024, 1237.868
220.2845, 1242.700
220.7667, 1248.216
221.2488, 1254.091
221.7309, 1258.650
222.2130, 1261.452
222.6951, 1263.556
223.1772, 1265.449
223.6594, 1267.093
224.1415, 1268.246
224.6236, 1268.649
225.1057, 1268.479
225.5878, 1268.448
226.0699, 1268.299
226.5521, 1268.559
227.0342, 1269.582
227.5163, 1271.348
227.9984, 1273.625
228.4805, 1276.326
228.9626, 1279.534
229.4448, 1283.230
229.9269, 1287.302
230.4090, 1292.012
230.8911, 1297.685
231.3732, 1304.299
231.8553, 1311.473
232.3375, 1319.259
232.8196, 1327.425
233.3017, 1335.559
233.7838, 1343.486
234.2659, 1351.677
234.7480, 1360.660
235.2302, 1370.504
235.7123, 1380.515
236.1944, 1390.759
236.6765, 1400.899
237.1586, 1410.654
237.6407, 1419.974
238.1229, 1428.891
238.6050, 1437.390
239.0871, 1445.383
239.5692, 1453.227
240.0513, 1461.049
240.5334, 1468.761
241.0156, 1476.470
241.4977, 1484.161
241.9798, 1491.525
242.4619, 1498.059
242.9440, 1503.642
243.4261, 1508.882
243.9083, 1514.588
244.3904, 1519.504
244.8725, 1522.812
245.3546, 1524.351
245.8367, 1524.434
246.3188, 1523.247
246.8010, 1520.355
247.2831, 1517.512
247.7652, 1515.304
248.2473, 1512.853
248.7294, 1509.625
249.2115, 1505.543
249.6937, 1500.927
250.1758, 1496.096
250.6579, 1490.801
251.1400, 1485.913
251.6221, 1481.273
252.1042, 1477.069
252.5863, 1473.093
253.0685, 1469.487
253.5506, 1467.010
254.0327, 1466.744
254.5148, 1469.585
254.9969, 1471.843
255.4790, 1473.223
255.9612, 1474.390
256.4433, 1475.341
256.9254, 1476.290
257.4075, 1477.756
257.8896, 1480.188
258.3718, 1483.375
258.8539, 1488.665
259.3360, 1497.499
259.8181, 1506.691
260.3002, 1514.422
260.7823, 1520.857
261.2645, 1527.400
261.7466, 1535.378
262.2287, 1544.972
262.7108, 1554.751
263.1929, 1564.237
263.6750, 1574.259
264.1572, 1585.873
264.6393, 1598.622
265.1214, 1610.878
265.6035, 1621.330
266.0856, 1629.875
266.5677, 1639.015
267.0499, 1650.978
267.5320, 1661.337
268.0141, 1667.755
268.4962, 1670.918
268.9783, 1673.240
269.4604, 1676.498
269.9425, 1680.422
270.4247, 1681.419
270.9068, 1678.963
271.3889, 1674.896
271.8710, 1670.343
272.3531, 1664.748
272.8352, 1656.740
273.3174, 1645.527
273.7995, 1631.301
274.2816, 1614.731
274.7637, 1595.362
275.2458, 1574.818
275.7279, 1553.648
276.2101, 1531.613
276.6922, 1508.149
277.1743, 1482.633
277.6564, 1456.027
278.1385, 1430.440
278.6206, 1406.336
279.1028, 1382.407
279.5849, 1357.920
280.0670, 1333.541
280.5491, 1310.399
281.0312, 1288.958
281.5133, 1268.671
281.9955, 1248.480
282.4776, 1228.204
282.9597, 1208.525
283.4418, 1188.950
283.9239, 1170.065
284.4060, 1152.859
284.8882, 1137.591
285.3703, 1123.702
285.8524, 1110.746
286.3345, 1098.673
286.8166, 1086.794
287.2987, 1074.975
287.7809, 1063.314
288.2630, 1051.612
288.7451, 1039.799
289.2272, 1028.995
289.7093, 1021.315
290.1914, 1016.497
290.6736, 1010.496
291.1557, 1001.277
291.6378, 991.3449
292.1199, 983.3842
292.6020, 977.7018
293.0841, 973.0506
293.5663, 968.7082
294.0484, 964.6370
294.5305, 960.6414
295.0126, 956.2365
295.4947, 952.2324
295.9768, 949.5452
296.4590, 948.1488
296.9411, 946.9241
297.4232, 945.0183
297.9053, 942.8400
298.3874, 941.5144
298.8695, 941.1011
299.3517, 941.5082
299.8338, 942.8419
300.3159, 945.0294
300.7980, 947.5551
301.2801, 950.0560
301.7622, 952.9017
302.2444, 956.7084
302.7265, 961.7257
303.2086, 967.0876
303.6907, 972.2655
304.1728, 977.3951
304.6549, 982.9357
305.1371, 989.2325
305.6192, 995.7802
306.1013, 1001.472
306.5834, 1006.053
307.0655, 1011.757
307.5476, 1020.624
308.0298, 1031.277
308.5119, 1040.315
308.9940, 1046.552
309.4761, 1052.259
309.9582, 1060.374
310.4403, 1070.560
310.9225, 1080.142
311.4046, 1087.462
311.8867, 1093.977
312.3688, 1102.235
312.8509, 1112.814
313.3330, 1123.406
313.8152, 1131.532
314.2973, 1137.933
314.7794, 1144.810
315.2615, 1153.403
315.7436, 1162.241
316.2257, 1169.495
316.7079, 1175.111
317.1900, 1180.658
317.6721, 1187.600
318.1542, 1194.977
318.6363, 1200.608
319.1184, 1203.962
319.6006, 1205.957
320.0827, 1207.490
320.5648, 1208.421
321.0469, 1207.620
321.5290, 1204.344
322.0111, 1199.104
322.4933, 1193.207
322.9754, 1186.682
323.4575, 1179.476
323.9396, 1171.573
324.4217, 1162.947
324.9038, 1153.581
325.3860, 1143.391
325.8681, 1132.486
326.3502, 1120.850
326.8323, 1108.394
327.3144, 1096.203
327.7965, 1084.973
328.2787, 1074.144
328.7608, 1062.741
329.2429, 1050.515
329.7250, 1038.316
330.2071, 1027.063
330.6892, 1016.632
331.1714, 1006.339
331.6535, 995.8370
332.1356, 985.5456
332.6177, 976.0055
333.0998, 967.2441
333.5819, 958.8625
334.0641, 950.4733
334.5462, 942.3491
335.0283, 935.0717
335.5104, 928.8406
335.9925, 923.3041
336.4746, 918.5170
336.9568, 914.3292
337.4389, 910.0697
337.9210, 905.1591
338.4031, 900.2288
338.8852, 896.6918
339.3673, 894.7299
339.8495, 893.4387
340.3315, 892.5511
340.8137, 892.0922
341.2958, 892.1887
341.7779, 892.9445
342.2600, 894.0253
342.7421, 894.9355
343.2242, 895.6215
343.7064, 896.5710
344.1885, 897.9548
344.6706, 899.6100
345.1527, 901.1584
345.6348, 902.5636
346.1169, 904.5903
346.5991, 908.1380
347.0812, 913.3230
347.5633, 917.9649
348.0454, 921.4794
348.5275, 924.9770
349.0096, 929.2805
349.4918, 934.2863
349.9739, 939.2281
350.4560, 943.5661
350.9381, 947.5321
351.4202, 952.3105
351.9023, 958.5262
352.3845, 964.6448
352.8666, 970.0062
353.3487, 975.0004
353.8308, 980.2131
354.3129, 985.8419
354.7950, 991.9744
355.2772, 998.9548
355.7593, 1007.442
356.2414, 1015.280
356.7235, 1021.717
357.2056, 1027.719
357.6877, 1034.226
358.1699, 1041.415
358.6520, 1048.781
359.1341, 1055.789
359.6162, 1062.307
360.0983, 1069.206
360.5804, 1076.655
361.0626, 1084.297
361.5447, 1092.234
362.0268, 1100.300
362.5089, 1107.906
362.9910, 1114.488
363.4731, 1120.326
363.9553, 1127.782
364.4374, 1138.824
364.9195, 1149.160
365.4016, 1157.485
365.8837, 1164.701
366.3658, 1172.174
366.8480, 1180.488
367.3301, 1189.026
367.8122, 1196.339
368.2943, 1200.661
368.7764, 1206.526
369.2585, 1214.403
369.7407, 1223.357
370.2228, 1232.892
370.7049, 1242.827
371.1870, 1253.044
371.6691, 1263.516
372.1512, 1274.314
372.6334, 1284.584
373.1155, 1292.805
373.5976, 1301.950
374.0797, 1313.507
374.5618, 1326.827
375.0439, 1340.552
375.5261, 1353.833
376.0082, 1366.750
376.4903, 1379.759
376.9724, 1392.245
377.4545, 1405.871
377.9366, 1421.266
378.4188, 1437.691
378.9009, 1454.386
379.3830, 1471.065
379.8651, 1488.189
380.3472, 1506.366
380.8293, 1526.150
381.3115, 1545.562
381.7936, 1563.134
382.2757, 1581.335
382.7578, 1602.096
383.2399, 1625.110
383.7220, 1648.247
384.2042, 1669.738
384.6863, 1689.753
385.1684, 1710.128
385.6505, 1731.609
386.1326, 1752.631
386.6147, 1772.623
387.0969, 1791.870
387.5790, 1810.999
388.0611, 1830.800
388.5432, 1850.076
389.0253, 1866.224
389.5074, 1878.452
389.9896, 1891.375
390.4717, 1908.372
390.9538, 1925.599
391.4359, 1939.483
391.9180, 1949.442
392.4001, 1958.262
392.8823, 1968.630
393.3644, 1980.033
393.8465, 1989.444
394.3286, 1996.174
394.8107, 2000.952
395.2928, 2004.008
395.7750, 2005.672
396.2571, 2006.998
396.7392, 2008.671
397.2213, 2010.109
397.7034, 2010.383
398.1855, 2009.428
398.6677, 2008.092
399.1498, 2007.290
399.6319, 2006.195
400.1140, 2003.129
400.5961, 1997.488
401.0782, 1990.810
401.5604, 1983.581
402.0425, 1975.951
402.5246, 1968.431
403.0067, 1961.358
403.4888, 1953.962
403.9709, 1944.782
404.4531, 1933.572
404.9352, 1922.768
405.4173, 1913.033
405.8994, 1903.729
406.3815, 1894.332
406.8636, 1884.783
407.3458, 1875.226
407.8279, 1866.000
408.3100, 1857.007
408.7921, 1846.989
409.2742, 1835.411
409.7563, 1823.613
410.2385, 1811.493
410.7206, 1799.638
411.2027, 1789.160
411.6848, 1780.539
412.1669, 1773.374
412.6490, 1766.931
413.1311, 1761.949
413.6133, 1756.469
414.0954, 1749.723
414.5775, 1743.065
415.0596, 1737.909
415.5417, 1734.094
416.0238, 1729.968
416.5060, 1723.831
416.9881, 1715.627
417.4702, 1708.546
417.9523, 1703.609
418.4344, 1698.686
418.9165, 1692.542
419.3987, 1686.325
419.8808, 1681.776
420.3629, 1679.747
420.8450, 1679.250
421.3271, 1678.302
421.8092, 1676.778
422.2914, 1675.112
422.7735, 1672.899
423.2556, 1670.906
423.7377, 1669.411
424.2198, 1668.547
424.7019, 1668.559
425.1841, 1669.866
425.6662, 1672.362
426.1483, 1674.940
426.6304, 1677.663
427.1125, 1680.356
427.5946, 1682.642
428.0768, 1684.940
428.5589, 1687.822
429.0410, 1691.476
429.5231, 1695.856
430.0052, 1701.415
430.4873, 1708.212
430.9695, 1713.898
431.4516, 1717.537
431.9337, 1719.940
432.4158, 1721.833
432.8979, 1723.213
433.3800, 1725.093
433.8622, 1729.302
434.3443, 1733.941
434.8264, 1735.341
435.3085, 1732.907
435.7906, 1729.215
436.2727, 1726.080
436.7549, 1723.184
437.2370, 1719.260
437.7191, 1714.063
438.2012, 1708.024
438.6833, 1701.478
439.1654, 1694.240
439.6476, 1685.846
440.1297, 1676.127
440.6118, 1665.149
441.0939, 1652.889
441.5760, 1638.857
442.0581, 1624.803
442.5403, 1609.780
443.0224, 1595.496
443.5045, 1583.893
443.9866, 1574.598
444.4687, 1565.509
444.9508, 1554.995
445.4330, 1543.225
445.9151, 1531.545
446.3972, 1521.419
446.8793, 1509.681
447.3614, 1493.598
447.8435, 1476.641
448.3257, 1463.112
448.8078, 1454.225
449.2899, 1447.270
449.7720, 1438.245
450.2541, 1426.380
450.7362, 1415.201
451.2184, 1405.973
451.7005, 1396.267
452.1826, 1384.323
452.6647, 1371.082
453.1468, 1358.787
453.6289, 1349.110
454.1111, 1340.880
454.5932, 1330.918
455.0753, 1318.620
455.5574, 1306.170
456.0395, 1294.281
456.5216, 1282.541
457.0038, 1270.676
457.4859, 1258.544
457.9680, 1246.543
458.4501, 1235.030
458.9322, 1223.854
459.4143, 1212.617
459.8965, 1201.244
460.3786, 1189.941
460.8607, 1178.654
461.3428, 1167.566
461.8249, 1157.223
462.3070, 1147.825
462.7892, 1139.106
463.2713, 1130.843
463.7534, 1123.105
464.2355, 1116.353
464.7176, 1110.906
465.1997, 1106.093
465.6819, 1100.652
466.1640, 1094.328
466.6461, 1088.515
467.1282, 1083.635
467.6103, 1079.129
468.0924, 1074.513
468.5746, 1069.807
469.0567, 1065.241
469.5388, 1060.974
470.0209, 1057.044
470.5030, 1053.633
470.9851, 1052.058
471.4673, 1049.394
471.9494, 1044.795
472.4315, 1039.226
472.9136, 1033.396
473.3957, 1027.606
473.8778, 1022.150
474.3600, 1017.564
474.8421, 1014.070
475.3242, 1009.792
475.8063, 1004.402
476.2884, 998.4626
476.7705, 991.9865
477.2527, 985.1123
477.7348, 978.1176
478.2169, 971.2052
478.6990, 963.9389
479.1811, 955.6330
479.6632, 946.2025
480.1454, 936.1320
480.6275, 925.0046
481.1096, 913.7120
481.5917, 903.1647
482.0738, 893.2816
482.5559, 883.0529
483.0380, 871.8287
483.5201, 859.9791
484.0023, 847.9102
484.4844, 835.6172
484.9665, 823.9258
485.4486, 813.4958
485.9307, 803.9261
486.4128, 794.0843
486.8950, 784.3825
487.3771, 773.6642
487.8592, 760.1930
488.3413, 746.0345
488.8234, 734.0978
489.3055, 724.8395
489.7877, 716.5823
490.2698, 707.8048
490.7519, 698.4540
491.2340, 688.9380
491.7161, 678.9411
492.1982, 669.0608
492.6804, 658.9153
493.1625, 649.1354
493.6446, 640.8914
494.1267, 634.5324
494.6088, 628.7963
495.0909, 621.4874
495.5731, 611.8276
496.0552, 603.0757
496.5373, 595.8360
497.0194, 588.9573
497.5015, 581.8923
497.9836, 574.8657
498.4658, 568.4891
498.9479, 563.2197
499.4300, 558.5483
499.9121, 553.4922
500.3942, 548.0700
500.8763, 542.2946
501.3585, 535.6024
501.8406, 529.0747
502.3227, 523.7476
502.8048, 519.6049
503.2869, 515.5427
503.7690, 510.7452
504.2512, 505.8194
504.7333, 501.9789
505.2154, 499.2529
505.6975, 496.2653
506.1796, 492.0740
506.6617, 487.1047
507.1439, 482.6954
507.6260, 478.7017
508.1081, 475.3470
508.5902, 473.2187
509.0723, 471.4906
509.5544, 469.1044
510.0366, 465.9522
510.5187, 462.7357
511.0008, 460.1315
511.4829, 458.1378
511.9650, 455.9660
512.4471, 453.3289
512.9293, 450.8564
513.4114, 448.7432
513.8935, 446.8275
514.3756, 445.0287
514.8577, 443.2824
515.3398, 441.2989
515.8220, 438.3946
516.3041, 434.3729
516.7862, 431.6747
517.2683, 431.3051
517.7504, 431.0309
518.2325, 429.7404
518.7147, 427.8795
519.1968, 426.2491
519.6789, 425.2041
520.1610, 424.2742
520.6431, 422.9438
521.1252, 421.2504
521.6074, 419.3866
522.0895, 417.1748
522.5716, 415.2700
523.0537, 414.6783
523.5358, 415.2044
524.0179, 415.4659
524.5001, 415.3996
524.9822, 414.8526
525.4643, 413.5030
525.9464, 411.5596
526.4285, 409.5980
526.9106, 407.8431
527.3928, 406.2574
527.8749, 404.7349
528.3570, 402.9904
528.8391, 402.0195
529.3212, 402.6905
529.8033, 403.2790
530.2855, 402.6415
530.7676, 401.1089
531.2497, 399.6772
531.7318, 398.9371
532.2139, 398.6528
532.6960, 398.1867
533.1782, 397.4078
533.6603, 396.8222
534.1424, 397.1599
534.6245, 397.1937
535.1066, 395.7948
535.5887, 393.2793
536.0709, 391.2102
536.5530, 390.8331
537.0351, 391.3242
537.5172, 391.1449
537.9993, 390.2692
538.4814, 389.2971
538.9636, 388.4136
539.4457, 387.6235
539.9278, 386.9529
540.4099, 386.4357
540.8920, 385.8356
541.3741, 384.8115
541.8563, 383.8545
542.3384, 383.5576
542.8205, 383.8590
543.3026, 384.2439
543.7847, 384.4188
544.2668, 384.3732
544.7490, 384.0691
545.2311, 383.7211
545.7132, 382.7598
546.1953, 380.0449
546.6774, 377.5828
547.1595, 377.2323
547.6417, 378.7236
548.1238, 380.2436
548.6059, 380.4067
549.0880, 379.5285
549.5701, 378.8263
550.0522, 378.2773
550.5344, 377.9745
551.0165, 378.3260
551.4986, 378.6931
551.9807, 378.5042
552.4628, 377.7368
552.9449, 376.9590
553.4271, 376.6348
553.9092, 376.4682
554.3913, 375.7768
554.8734, 374.5281
555.3555, 373.6526
555.8376, 373.7920
556.3198, 374.5187
556.8019, 374.7346
557.2840, 374.3656
557.7661, 373.7923
558.2482, 372.8526
558.7303, 371.9043
559.2125, 371.1564
559.6946, 370.6856
560.1767, 370.7006
560.6588, 371.4396
561.1409, 372.5942
561.6230, 372.7631
562.1052, 370.9038
562.5873, 369.8504
563.0694, 370.5861
563.5515, 371.5568
564.0336, 371.4671
564.5157, 370.4531
564.9979, 369.7463
565.4800, 370.5540
565.9621, 372.0776
566.4442, 371.9609
566.9263, 369.8716
567.4084, 368.4413
567.8906, 369.0211
568.3727, 370.4304
568.8548, 371.1985
569.3369, 371.3252
569.8190, 370.9798
570.3011, 369.6797
570.7833, 368.3032
571.2654, 367.8549
571.7475, 368.2280
572.2296, 368.7411
572.7117, 369.1064
573.1938, 369.1687
573.6760, 368.4760
574.1581, 365.7943
574.6402, 364.7022
575.1223, 366.4814
575.6044, 368.5785
576.0865, 369.5480
576.5687, 369.5518
577.0508, 369.3699
577.5329, 369.4202
578.0150, 369.6366
578.4971, 369.9085
578.9792, 370.2564
579.4614, 370.5299
579.9435, 370.6803
580.4256, 370.7666
580.9077, 370.8326
581.3898, 370.8763
581.8719, 370.8832
582.3541, 370.6760
582.8362, 370.5894
583.3183, 371.2894
583.8004, 372.4575
584.2825, 372.7555
584.7646, 371.6508
585.2468, 370.0450
585.7289, 368.9930
586.2110, 368.5160
586.6931, 368.7061
587.1752, 370.1064
587.6573, 371.5391
588.1394, 372.5536
588.6215, 373.2845
589.1036, 373.9127
589.5858, 374.5205
590.0679, 375.2435
590.5500, 376.4020
591.0321, 378.0890
591.5142, 379.1870
591.9963, 379.4298
592.4785, 379.4488
592.9606, 379.1618
593.4427, 378.9661
593.9248, 379.5356
594.4069, 381.1626
594.8890, 382.8751
595.3712, 383.9622
595.8533, 384.6090
596.3354, 385.2243
596.8175, 385.8620
597.2996, 386.4900
597.7817, 386.9614
598.2639, 387.4238
598.7460, 388.7044
599.2281, 391.8999
599.7102, 394.3154
600.1923, 394.9982
600.6744, 395.1129
601.1566, 395.5991
601.6387, 396.5708
602.1208, 397.6976
602.6029, 398.6960
603.0850, 399.6994
603.5671, 401.2892
604.0493, 403.6936
604.5314, 406.0819
605.0135, 408.4166
605.4956, 410.5659
605.9777, 412.1540
606.4598, 413.3417
606.9420, 415.0829
607.4241, 418.4425
607.9062, 422.1641
608.3883, 424.4837
608.8704, 425.6839
609.3525, 427.3103
609.8347, 429.9593
610.3168, 433.0526
610.7989, 435.7596
611.2810, 437.9264
611.7631, 440.5812
612.2452, 443.9983
612.7274, 447.5834
613.2095, 451.3046
613.6916, 454.9630
614.1737, 458.1116
614.6558, 460.6402
615.1379, 463.2137
615.6201, 466.6917
616.1022, 471.0702
616.5843, 475.7882
617.0664, 481.0507
617.5485, 486.2263
618.0306, 490.7984
618.5128, 495.1808
618.9949, 499.9306
619.4770, 505.1270
619.9591, 510.5580
620.4412, 516.1011
620.9233, 521.8099
621.4055, 527.6855
621.8876, 533.7617
622.3697, 540.0607
622.8518, 546.5378
623.3339, 553.3612
623.8160, 561.0365
624.2982, 569.9913
624.7803, 579.1643
625.2624, 588.3598
625.7445, 597.9537
626.2266, 608.3849
626.7087, 619.3819
627.1909, 630.1034
627.6730, 639.9976
628.1551, 649.7546
628.6372, 660.3427
629.1193, 671.7806
629.6014, 684.0914
630.0836, 697.4436
630.5657, 711.2996
631.0478, 725.2805
631.5299, 739.3691
632.0120, 753.6580
632.4941, 767.7521
632.9763, 782.5696
633.4584, 798.5208
633.9405, 815.5172
634.4226, 833.4396
634.9047, 852.2155
635.3868, 871.5838
635.8690, 891.3909
636.3511, 911.5572
636.8332, 931.5320
637.3153, 951.2684
637.7974, 970.9067
638.2795, 989.6769
638.7617, 1008.884
639.2438, 1029.762
639.7259, 1052.054
640.2080, 1074.156
640.6901, 1095.029
