##NAMES=Emplectite
##RRUFFID=R070307
##IDEAL CHEMISTRY=Cu^1+^Bi^3+^S^2-^_2_
##LOCALITY=Schwarzenberg District, Erzgebirge, Saxony, Germany
##OWNER=RRUFF
##SOURCE=James Shigley
##DESCRIPTION=Pale yellow metallic prisms associated with siderite and quartz
##STATUS=The identification of this mineral is confirmed by single-crystal X-ray diffraction and chemical analysis.
##URL=rruff.info/R070307
##MEASURED CHEMISTRY=Cu^1+^_1.00_Bi_1.00_S_2.00_
134.7162, 702.0835
135.1983, 724.6333
135.6804, 749.8380
136.1626, 778.8567
136.6447, 808.5447
137.1268, 831.8243
137.6089, 846.7424
138.0910, 861.5158
138.5731, 880.4144
139.0553, 904.8033
139.5374, 928.6983
140.0195, 954.4253
140.5016, 978.9511
140.9837, 986.6680
141.4658, 966.6143
141.9480, 947.1144
142.4301, 949.4139
142.9122, 986.6896
143.3943, 1017.565
143.8764, 1035.608
144.3585, 1040.974
144.8407, 1048.921
145.3228, 1061.487
145.8049, 1075.034
146.2870, 1085.976
146.7691, 1091.658
147.2512, 1098.016
147.7334, 1105.691
148.2155, 1114.514
148.6976, 1125.841
149.1797, 1143.978
149.6618, 1163.411
150.1439, 1176.733
150.6261, 1170.645
151.1082, 1170.229
151.5903, 1184.266
152.0724, 1223.996
152.5545, 1253.167
153.0366, 1262.209
153.5188, 1259.065
154.0009, 1259.351
154.4830, 1271.439
154.9651, 1282.830
155.4472, 1288.136
155.9293, 1284.954
156.4115, 1278.177
156.8936, 1266.660
157.3757, 1251.736
157.8578, 1237.875
158.3399, 1226.495
158.8221, 1216.538
159.3042, 1207.166
159.7863, 1193.814
160.2684, 1185.305
160.7505, 1188.515
161.2326, 1201.628
161.7148, 1210.368
162.1969, 1205.375
162.6790, 1194.388
163.1611, 1184.964
163.6432, 1180.994
164.1253, 1178.017
164.6075, 1173.343
165.0896, 1166.863
165.5717, 1161.285
166.0538, 1157.684
166.5359, 1156.021
167.0180, 1156.200
167.5002, 1159.985
167.9823, 1164.459
168.4644, 1168.113
168.9465, 1171.115
169.4286, 1171.355
169.9107, 1163.399
170.3929, 1151.388
170.8750, 1143.842
171.3571, 1151.307
171.8392, 1162.860
172.3213, 1165.572
172.8034, 1155.689
173.2856, 1143.935
173.7677, 1139.469
174.2498, 1141.269
174.7319, 1145.856
175.2140, 1155.144
175.6961, 1164.973
176.1783, 1167.891
176.6604, 1159.919
177.1425, 1149.338
177.6246, 1147.167
178.1067, 1152.296
178.5888, 1157.357
179.0710, 1154.920
179.5531, 1148.455
180.0352, 1145.922
180.5173, 1150.453
180.9994, 1158.564
181.4815, 1165.404
181.9637, 1171.014
182.4458, 1174.775
182.9279, 1175.406
183.4100, 1173.566
183.8921, 1171.700
184.3742, 1170.221
184.8564, 1169.286
185.3385, 1169.573
185.8206, 1171.167
186.3027, 1172.985
186.7848, 1173.660
187.2669, 1173.397
187.7491, 1173.885
188.2312, 1177.347
188.7133, 1182.088
189.1954, 1180.765
189.6775, 1172.412
190.1596, 1162.330
190.6418, 1156.633
191.1239, 1155.288
191.6060, 1155.491
192.0881, 1156.747
192.5702, 1158.876
193.0524, 1160.029
193.5345, 1159.840
194.0166, 1159.612
194.4987, 1161.699
194.9808, 1166.259
195.4629, 1170.758
195.9451, 1175.877
196.4272, 1181.550
196.9093, 1177.925
197.3914, 1161.288
197.8735, 1140.709
198.3556, 1134.034
198.8378, 1142.761
199.3199, 1155.781
199.8020, 1168.816
200.2841, 1182.012
200.7662, 1191.061
201.2483, 1194.880
201.7305, 1195.176
202.2126, 1196.366
202.6947, 1199.016
203.1768, 1200.450
203.6589, 1198.060
204.1410, 1190.956
204.6232, 1186.358
205.1053, 1184.656
205.5874, 1185.971
206.0695, 1191.723
206.5516, 1203.617
207.0337, 1215.467
207.5159, 1222.018
207.9980, 1221.277
208.4801, 1225.058
208.9622, 1238.356
209.4443, 1257.208
209.9264, 1259.365
210.4086, 1237.195
210.8907, 1213.601
211.3728, 1208.800
211.8549, 1230.195
212.3370, 1244.640
212.8191, 1245.628
213.3013, 1234.912
213.7834, 1226.406
214.2655, 1218.567
214.7476, 1215.432
215.2297, 1222.511
215.7118, 1245.579
216.1940, 1262.766
216.6761, 1268.509
217.1582, 1263.479
217.6403, 1261.666
218.1224, 1263.284
218.6045, 1267.840
219.0867, 1275.754
219.5688, 1289.459
220.0509, 1300.664
220.5330, 1307.572
221.0151, 1310.251
221.4972, 1309.154
221.9794, 1300.741
222.4615, 1292.487
222.9436, 1293.817
223.4257, 1312.165
223.9078, 1324.571
224.3899, 1323.491
224.8721, 1307.347
225.3542, 1298.716
225.8363, 1300.938
226.3184, 1307.423
226.8005, 1309.870
227.2827, 1304.537
227.7648, 1302.397
228.2469, 1307.329
228.7290, 1320.659
229.2111, 1330.322
229.6932, 1334.154
230.1754, 1335.959
230.6575, 1341.543
231.1396, 1355.519
231.6217, 1364.862
232.1038, 1364.189
232.5859, 1350.413
233.0681, 1343.445
233.5502, 1345.647
234.0323, 1352.943
234.5144, 1359.816
234.9965, 1366.601
235.4786, 1372.232
235.9608, 1375.484
236.4429, 1374.767
236.9250, 1379.378
237.4071, 1393.259
237.8892, 1409.990
238.3713, 1419.003
238.8535, 1416.327
239.3356, 1412.583
239.8177, 1411.378
240.2998, 1413.975
240.7819, 1414.301
241.2640, 1412.360
241.7462, 1408.153
242.2283, 1400.907
242.7104, 1386.716
243.1925, 1375.912
243.6746, 1372.112
244.1567, 1376.705
244.6389, 1384.199
245.1210, 1397.167
245.6031, 1411.491
246.0852, 1419.532
246.5673, 1418.769
247.0494, 1415.988
247.5316, 1413.241
248.0137, 1410.297
248.4958, 1408.276
248.9779, 1407.870
249.4600, 1408.008
249.9421, 1406.731
250.4243, 1403.709
250.9064, 1399.818
251.3885, 1394.654
251.8706, 1386.480
252.3527, 1383.358
252.8348, 1388.083
253.3170, 1396.119
253.7991, 1397.819
254.2812, 1388.222
254.7633, 1381.832
255.2454, 1386.414
255.7275, 1408.030
256.2097, 1416.550
256.6918, 1404.600
257.1739, 1384.529
257.6560, 1380.728
258.1381, 1401.430
258.6202, 1421.413
259.1024, 1429.807
259.5845, 1422.031
260.0666, 1421.909
260.5487, 1432.702
261.0308, 1448.676
261.5129, 1458.206
261.9951, 1456.161
262.4772, 1459.862
262.9593, 1479.563
263.4414, 1521.978
263.9235, 1547.701
264.4056, 1550.887
264.8878, 1543.079
265.3699, 1545.163
265.8520, 1560.412
266.3341, 1576.186
266.8162, 1585.144
267.2983, 1583.942
267.7805, 1598.590
268.2626, 1634.512
268.7447, 1680.173
269.2268, 1714.388
269.7089, 1733.227
270.1910, 1754.559
270.6732, 1785.451
271.1553, 1826.353
271.6374, 1871.345
272.1195, 1920.045
272.6016, 1973.515
273.0837, 2032.257
273.5659, 2097.037
274.0480, 2164.309
274.5301, 2233.601
275.0122, 2304.629
275.4943, 2375.846
275.9764, 2444.776
276.4586, 2518.561
276.9407, 2610.003
277.4228, 2719.319
277.9049, 2833.843
278.3870, 2947.775
278.8691, 3061.322
279.3513, 3178.482
279.8334, 3298.436
280.3155, 3424.114
280.7976, 3559.576
281.2798, 3703.670
281.7619, 3857.224
282.2440, 4025.738
282.7261, 4206.094
283.2082, 4370.107
283.6903, 4513.138
284.1725, 4656.914
284.6546, 4833.462
285.1367, 5040.081
285.6188, 5246.057
286.1009, 5444.562
286.5830, 5633.835
287.0652, 5803.695
287.5473, 5950.666
288.0294, 6089.729
288.5115, 6236.971
288.9936, 6391.749
289.4757, 6544.259
289.9579, 6711.030
290.4400, 6869.225
290.9221, 6956.892
291.4042, 6971.995
291.8863, 6941.922
292.3684, 6888.834
292.8506, 6812.337
293.3327, 6711.453
293.8148, 6588.905
294.2969, 6439.586
294.7790, 6242.390
295.2611, 5996.282
295.7433, 5735.813
296.2254, 5484.912
296.7075, 5238.642
297.1896, 4992.145
297.6717, 4732.996
298.1538, 4475.778
298.6360, 4243.485
299.1181, 4033.969
299.6002, 3846.972
300.0823, 3683.426
300.5644, 3540.083
301.0465, 3409.458
301.5287, 3290.414
302.0108, 3182.339
302.4929, 3089.392
302.9750, 3009.392
303.4571, 2935.120
303.9392, 2860.308
304.4214, 2788.041
304.9035, 2721.179
305.3856, 2663.543
305.8677, 2608.927
306.3498, 2552.355
306.8319, 2495.134
307.3141, 2440.601
307.7962, 2393.689
308.2783, 2349.865
308.7604, 2304.566
309.2425, 2258.935
309.7246, 2209.251
310.2068, 2148.934
310.6889, 2081.994
311.1710, 2018.195
311.6531, 1962.544
312.1352, 1911.551
312.6173, 1863.083
313.0995, 1817.032
313.5816, 1774.390
314.0637, 1735.855
314.5458, 1700.854
315.0279, 1667.957
315.5100, 1637.012
315.9922, 1607.730
316.4743, 1580.648
316.9564, 1556.707
317.4385, 1531.303
317.9206, 1497.582
318.4027, 1462.698
318.8849, 1436.650
319.3670, 1430.198
319.8491, 1425.934
320.3312, 1416.541
320.8133, 1400.008
321.2954, 1387.201
321.7776, 1385.272
322.2597, 1386.072
322.7418, 1380.916
323.2239, 1363.732
323.7060, 1345.295
324.1881, 1326.628
324.6703, 1307.421
325.1524, 1292.774
325.6345, 1285.758
326.1166, 1282.177
326.5987, 1278.582
327.0808, 1273.105
327.5630, 1269.844
328.0451, 1271.538
328.5272, 1277.706
329.0093, 1277.364
329.4914, 1263.668
329.9735, 1249.692
330.4557, 1244.466
330.9378, 1255.110
331.4199, 1262.219
331.9020, 1264.552
332.3841, 1262.267
332.8662, 1255.135
333.3484, 1238.903
333.8305, 1224.380
334.3126, 1218.183
334.7947, 1223.676
335.2768, 1227.475
335.7589, 1229.321
336.2411, 1228.884
336.7232, 1223.954
337.2053, 1212.036
337.6874, 1203.035
338.1695, 1203.542
338.6516, 1215.268
339.1338, 1220.967
339.6159, 1218.849
340.0980, 1212.949
340.5801, 1209.459
341.0622, 1208.370
341.5443, 1209.586
342.0265, 1213.949
342.5086, 1221.017
342.9907, 1227.791
343.4728, 1234.767
343.9549, 1239.266
344.4370, 1235.907
344.9192, 1225.619
345.4013, 1217.055
345.8834, 1213.596
346.3655, 1214.031
346.8476, 1215.954
347.3297, 1219.399
347.8119, 1223.094
348.2940, 1227.441
348.7761, 1231.274
349.2582, 1230.582
349.7403, 1221.344
350.2225, 1210.028
350.7046, 1206.620
351.1867, 1210.271
351.6688, 1214.649
352.1509, 1215.739
352.6331, 1214.506
353.1152, 1212.196
353.5973, 1208.572
354.0794, 1204.908
354.5615, 1201.948
355.0436, 1199.801
355.5258, 1198.797
356.0079, 1201.490
356.4900, 1204.090
356.9721, 1202.058
357.4542, 1192.508
357.9363, 1185.744
358.4185, 1190.939
358.9006, 1202.473
359.3827, 1210.620
359.8648, 1206.601
360.3469, 1202.174
360.8290, 1206.287
361.3112, 1221.969
361.7933, 1229.183
362.2754, 1213.443
362.7575, 1189.079
363.2396, 1171.591
363.7217, 1169.946
364.2039, 1170.270
364.6860, 1168.919
365.1681, 1165.755
365.6502, 1164.343
366.1323, 1167.851
366.6144, 1171.557
367.0966, 1172.171
367.5787, 1164.570
368.0608, 1160.097
368.5429, 1161.761
369.0250, 1167.845
369.5071, 1169.177
369.9893, 1160.843
370.4714, 1153.470
370.9535, 1153.073
371.4356, 1165.566
371.9177, 1171.277
372.3998, 1167.657
372.8820, 1158.277
373.3641, 1150.723
373.8462, 1144.969
374.3283, 1141.167
374.8104, 1140.204
375.2925, 1142.499
375.7747, 1142.319
376.2568, 1139.043
376.7389, 1134.520
377.2210, 1131.355
377.7031, 1129.664
378.1852, 1127.588
378.6674, 1123.841
379.1495, 1119.283
379.6316, 1117.524
380.1137, 1118.675
380.5958, 1121.725
381.0779, 1127.420
381.5601, 1134.840
382.0422, 1138.883
382.5243, 1137.746
383.0064, 1133.680
383.4885, 1130.095
383.9706, 1126.887
384.4528, 1123.539
384.9349, 1118.791
385.4170, 1113.872
385.8991, 1110.881
386.3812, 1110.430
386.8633, 1110.863
387.3455, 1111.920
387.8276, 1112.746
388.3097, 1111.368
388.7918, 1102.730
389.2739, 1094.099
389.7560, 1091.958
390.2382, 1097.232
390.7203, 1103.829
391.2024, 1112.716
391.6845, 1119.677
392.1666, 1119.908
392.6487, 1102.203
393.1309, 1086.403
393.6130, 1080.858
394.0951, 1085.015
394.5772, 1091.412
395.0593, 1101.524
395.5414, 1111.150
396.0236, 1117.562
396.5057, 1118.389
396.9878, 1118.368
397.4699, 1118.224
397.9520, 1117.558
398.4341, 1115.052
398.9163, 1107.265
399.3984, 1101.215
399.8805, 1099.735
400.3626, 1104.529
400.8447, 1108.926
401.3268, 1113.136
401.8090, 1116.787
402.2911, 1119.411
402.7732, 1120.892
403.2553, 1121.493
403.7374, 1120.690
404.2195, 1118.670
404.7017, 1119.283
405.1838, 1123.286
405.6659, 1127.896
406.1480, 1130.712
406.6301, 1131.738
407.1122, 1131.917
407.5944, 1131.382
408.0765, 1130.125
408.5586, 1126.703
409.0407, 1121.188
409.5228, 1118.770
410.0049, 1128.196
410.4871, 1143.500
410.9692, 1145.258
411.4513, 1128.563
411.9334, 1110.221
412.4155, 1112.714
412.8976, 1129.664
413.3798, 1142.511
413.8619, 1139.485
414.3440, 1130.217
414.8261, 1123.382
415.3082, 1119.235
415.7903, 1118.424
416.2725, 1124.103
416.7546, 1132.285
417.2367, 1138.632
417.7188, 1142.025
418.2009, 1142.869
418.6830, 1139.511
419.1652, 1133.216
419.6473, 1128.758
420.1294, 1128.377
420.6115, 1129.735
421.0937, 1131.748
421.5758, 1134.756
422.0579, 1137.303
422.5400, 1139.288
423.0221, 1140.690
423.5042, 1141.524
423.9864, 1142.469
424.4685, 1142.002
424.9506, 1137.930
425.4327, 1129.448
425.9148, 1129.380
426.3969, 1143.667
426.8791, 1159.592
427.3612, 1165.458
427.8433, 1158.004
428.3254, 1150.533
428.8075, 1144.303
429.2896, 1139.522
429.7718, 1138.176
430.2539, 1141.310
430.7360, 1142.410
431.2181, 1134.093
431.7002, 1117.619
432.1823, 1114.183
432.6645, 1127.993
433.1466, 1144.324
433.6287, 1137.783
434.1108, 1113.563
434.5929, 1097.802
435.0750, 1107.863
435.5572, 1130.396
436.0393, 1142.172
436.5214, 1143.560
437.0035, 1142.375
437.4856, 1144.108
437.9677, 1147.241
438.4499, 1149.822
438.9320, 1151.899
439.4141, 1152.382
439.8962, 1148.357
440.3783, 1141.937
440.8604, 1138.457
441.3426, 1140.110
441.8247, 1145.543
442.3068, 1155.902
442.7889, 1173.378
443.2710, 1185.700
443.7531, 1184.024
444.2353, 1177.681
444.7174, 1176.961
445.1995, 1193.421
445.6816, 1204.497
446.1637, 1202.449
446.6458, 1189.104
447.1280, 1184.221
447.6101, 1192.765
448.0922, 1204.337
448.5743, 1213.395
449.0564, 1219.467
449.5385, 1224.220
450.0207, 1226.787
450.5028, 1228.872
450.9849, 1234.478
451.4670, 1244.575
451.9491, 1252.972
452.4312, 1256.627
452.9134, 1256.219
453.3955, 1257.111
453.8776, 1259.358
454.3597, 1262.457
454.8418, 1266.847
455.3239, 1271.928
455.8061, 1274.391
456.2882, 1271.591
456.7703, 1268.881
457.2524, 1275.762
457.7345, 1290.067
458.2166, 1303.140
458.6988, 1307.755
459.1809, 1309.378
459.6630, 1313.867
460.1451, 1322.141
460.6272, 1331.271
461.1093, 1340.599
461.5915, 1349.308
462.0736, 1356.186
462.5557, 1360.235
463.0378, 1362.988
463.5199, 1364.712
464.0020, 1365.476
464.4842, 1365.750
464.9663, 1364.327
465.4484, 1363.397
465.9305, 1364.094
466.4126, 1366.717
466.8947, 1370.649
467.3769, 1377.687
467.8590, 1385.235
468.3411, 1389.238
468.8232, 1389.465
469.3053, 1386.328
469.7874, 1378.909
470.2696, 1367.534
470.7517, 1358.766
471.2338, 1353.606
471.7159, 1348.055
472.1980, 1338.379
472.6801, 1324.620
473.1623, 1310.538
473.6444, 1296.073
474.1265, 1282.464
474.6086, 1272.610
475.0907, 1265.986
475.5728, 1259.201
476.0550, 1250.024
476.5371, 1239.657
477.0192, 1230.064
477.5013, 1221.266
477.9834, 1213.037
478.4655, 1203.284
478.9477, 1194.568
479.4298, 1190.652
479.9119, 1197.050
480.3940, 1202.857
480.8761, 1200.242
481.3582, 1192.243
481.8404, 1187.621
482.3225, 1196.043
482.8046, 1202.873
483.2867, 1199.541
483.7688, 1180.291
484.2509, 1168.406
484.7331, 1171.982
485.2152, 1180.665
485.6973, 1185.209
486.1794, 1185.598
486.6615, 1181.368
487.1436, 1169.427
487.6258, 1152.646
488.1079, 1145.152
488.5900, 1148.961
489.0721, 1156.683
489.5542, 1166.941
490.0363, 1179.889
490.5185, 1182.266
491.0006, 1171.458
491.4827, 1157.601
491.9648, 1155.515
492.4470, 1162.940
492.9291, 1167.747
493.4112, 1166.206
493.8933, 1159.392
494.3754, 1143.639
494.8575, 1121.228
495.3397, 1107.443
495.8218, 1120.031
496.3039, 1142.661
496.7860, 1156.871
497.2681, 1158.219
497.7502, 1158.706
498.2324, 1167.004
498.7145, 1177.685
499.1966, 1183.521
499.6787, 1175.783
500.1608, 1169.457
500.6429, 1170.606
501.1251, 1178.694
501.6072, 1183.687
502.0893, 1184.857
502.5714, 1182.879
503.0535, 1176.995
503.5356, 1161.953
504.0178, 1156.348
504.4999, 1164.751
504.9820, 1178.491
505.4641, 1184.158
505.9462, 1180.330
506.4283, 1175.831
506.9105, 1173.402
507.3926, 1172.189
507.8747, 1167.440
508.3568, 1158.820
508.8389, 1152.732
509.3210, 1156.356
509.8032, 1166.112
510.2853, 1171.910
510.7674, 1172.022
511.2495, 1170.169
511.7316, 1169.982
512.2137, 1170.655
512.6959, 1170.559
513.1780, 1166.359
513.6601, 1163.365
514.1422, 1167.169
514.6243, 1176.472
515.1064, 1182.311
515.5886, 1176.320
516.0707, 1169.186
516.5528, 1167.921
517.0349, 1177.381
517.5170, 1184.363
517.9991, 1187.641
518.4813, 1187.726
518.9634, 1184.402
519.4455, 1172.216
519.9276, 1166.440
520.4097, 1173.493
520.8918, 1190.275
521.3740, 1195.162
521.8561, 1184.396
522.3382, 1174.192
522.8203, 1177.487
523.3024, 1193.160
523.7845, 1201.703
524.2667, 1201.164
524.7488, 1196.935
525.2309, 1195.588
525.7130, 1196.142
526.1951, 1194.973
526.6772, 1188.025
527.1594, 1181.395
527.6415, 1184.340
528.1236, 1194.719
528.6057, 1203.194
529.0878, 1204.459
529.5699, 1201.686
530.0521, 1195.746
530.5342, 1185.074
531.0163, 1178.758
531.4984, 1183.531
531.9805, 1192.432
532.4626, 1198.069
532.9448, 1192.516
533.4269, 1192.251
533.9090, 1203.843
534.3911, 1222.576
534.8732, 1228.721
535.3553, 1215.944
535.8375, 1202.466
536.3196, 1196.396
536.8017, 1198.002
537.2838, 1199.402
537.7659, 1200.367
538.2480, 1201.927
538.7302, 1206.295
539.2123, 1212.830
539.6944, 1216.634
540.1765, 1216.067
540.6586, 1213.385
541.1407, 1211.008
541.6229, 1209.049
542.1050, 1207.872
542.5871, 1208.512
543.0692, 1209.472
543.5513, 1209.586
544.0334, 1208.783
544.5156, 1207.067
544.9977, 1201.238
545.4798, 1196.335
545.9619, 1196.520
546.4440, 1205.417
546.9261, 1215.182
547.4083, 1229.578
547.8904, 1243.198
548.3725, 1245.519
548.8546, 1228.001
549.3367, 1213.068
549.8188, 1205.253
550.3010, 1204.513
550.7831, 1213.730
551.2652, 1237.706
551.7473, 1255.624
552.2294, 1245.090
552.7115, 1210.232
553.1937, 1195.573
553.6758, 1207.738
554.1579, 1227.218
554.6400, 1229.628
555.1221, 1219.705
555.6042, 1210.962
556.0864, 1208.493
556.5685, 1208.912
557.0506, 1210.723
557.5327, 1213.147
558.0148, 1213.237
558.4969, 1207.055
558.9791, 1199.961
559.4612, 1194.137
559.9433, 1188.935
560.4254, 1189.700
560.9075, 1204.576
561.3896, 1221.808
561.8718, 1231.046
562.3539, 1226.372
562.8360, 1224.065
563.3181, 1227.693
563.8002, 1233.289
564.2823, 1230.384
564.7645, 1217.285
565.2466, 1203.192
565.7287, 1190.035
566.2108, 1178.780
566.6929, 1175.964
567.1750, 1181.887
567.6572, 1189.932
568.1393, 1193.871
568.6214, 1195.989
569.1035, 1201.859
569.5856, 1213.859
570.0677, 1223.664
570.5499, 1221.949
571.0320, 1214.068
571.5141, 1208.503
571.9962, 1207.572
572.4783, 1210.316
572.9604, 1220.128
573.4426, 1234.687
573.9247, 1242.482
574.4068, 1234.433
574.8889, 1225.759
575.3710, 1222.327
575.8531, 1225.201
576.3353, 1228.156
576.8174, 1232.007
577.2995, 1234.689
577.7816, 1233.109
578.2637, 1226.588
578.7458, 1223.834
579.2280, 1227.419
579.7101, 1232.896
580.1922, 1230.547
580.6743, 1222.033
581.1564, 1216.741
581.6385, 1222.450
582.1207, 1231.995
582.6028, 1235.083
583.0849, 1232.565
583.5670, 1231.337
584.0491, 1236.662
584.5313, 1244.136
585.0134, 1249.725
585.4955, 1251.120
585.9776, 1256.173
586.4597, 1276.169
586.9418, 1296.874
587.4240, 1301.283
587.9061, 1273.566
588.3882, 1254.094
588.8703, 1250.078
589.3524, 1256.270
589.8345, 1256.653
590.3167, 1249.314
590.7988, 1243.513
591.2809, 1243.665
591.7630, 1248.759
592.2451, 1255.531
592.7272, 1264.212
593.2094, 1268.875
593.6915, 1260.852
594.1736, 1246.056
594.6557, 1236.042
595.1378, 1233.617
595.6199, 1232.783
596.1021, 1227.511
596.5842, 1221.450
597.0663, 1219.801
597.5485, 1230.531
598.0306, 1239.386
598.5127, 1240.860
598.9948, 1236.427
599.4769, 1232.699
599.9590, 1230.094
600.4412, 1228.248
600.9233, 1227.493
601.4054, 1228.010
601.8875, 1226.115
602.3696, 1220.457
602.8517, 1215.745
603.3339, 1217.288
603.8160, 1224.473
604.2981, 1228.940
604.7802, 1229.354
605.2623, 1228.195
605.7444, 1231.375
606.2266, 1235.718
606.7087, 1232.084
607.1908, 1205.176
607.6729, 1181.398
608.1550, 1189.549
608.6371, 1219.536
609.1193, 1238.834
609.6014, 1223.495
610.0835, 1203.621
610.5656, 1193.389
611.0477, 1194.863
611.5298, 1197.434
612.0120, 1206.196
612.4941, 1210.491
612.9762, 1200.549
613.4583, 1168.781
613.9404, 1150.789
614.4225, 1150.014
614.9047, 1160.003
615.3868, 1176.319
615.8689, 1197.976
616.3510, 1209.098
616.8331, 1200.495
617.3152, 1185.009
617.7974, 1183.016
618.2795, 1191.650
618.7616, 1199.588
619.2437, 1200.374
619.7258, 1198.253
620.2079, 1196.212
620.6901, 1194.425
621.1722, 1191.768
621.6543, 1185.986
622.1364, 1180.503
622.6185, 1177.678
623.1006, 1178.507
623.5828, 1180.074
624.0649, 1183.141
624.5470, 1186.245
625.0291, 1187.493
625.5112, 1186.556
625.9933, 1185.344
626.4755, 1183.803
626.9576, 1182.721
627.4397, 1184.088
627.9218, 1187.659
628.4039, 1191.578
628.8860, 1197.903
629.3682, 1202.489
629.8503, 1195.277
630.3324, 1178.473
