##NAMES=Enargite
##RRUFFID=R050442
##IDEAL CHEMISTRY=Cu_3_AsS_4_
##LOCALITY=Butte, Silver Bow County, Montana, USA
##OWNER=RRUFF
##SOURCE=University of Arizona Mineral Museum
##DESCRIPTION=Black prismatic crystals associated with pyrite
##STATUS=The identification of this mineral has been confirmed by X-ray diffraction and chemical analysis
##URL=rruff.info/R050442
##MEASURED CHEMISTRY=Cu_2.98_As_0.97_Sb_0.03_S_4_
92.35352, 12.37150
92.83563, 12.66806
93.31775, 12.79481
93.79987, 12.56921
94.28198, 12.14971
94.76410, 12.02590
95.24622, 12.38878
95.72833, 12.99924
96.21045, 13.30105
96.69257, 13.27585
97.17468, 13.25870
97.65680, 13.61966
98.13892, 14.35057
98.62103, 14.96713
99.10315, 15.30072
99.58527, 15.40066
100.0674, 15.49629
100.5495, 15.48362
101.0316, 15.69501
101.5137, 16.66468
101.9958, 18.64693
102.4780, 20.50638
102.9601, 21.78265
103.4422, 22.32752
103.9243, 23.27621
104.4064, 24.74502
104.8885, 26.54741
105.3707, 28.40058
105.8528, 30.32785
106.3349, 32.24971
106.8170, 34.09264
107.2991, 35.64339
107.7813, 37.52975
108.2634, 39.98529
108.7455, 42.82108
109.2276, 45.31334
109.7097, 47.33482
110.1918, 49.12426
110.6740, 50.78293
111.1561, 52.17914
111.6382, 53.59531
112.1203, 54.90682
112.6024, 56.19197
113.0845, 57.85581
113.5667, 60.27012
114.0488, 62.90555
114.5309, 65.43358
115.0130, 67.37225
115.4951, 69.55922
115.9772, 72.42595
116.4594, 75.97717
116.9415, 79.33514
117.4236, 82.09698
117.9057, 84.52699
118.3878, 86.89787
118.8699, 89.03630
119.3521, 91.36840
119.8342, 94.13634
120.3163, 97.35666
120.7984, 100.9944
121.2805, 105.2975
121.7626, 109.9872
122.2448, 114.5865
122.7269, 119.7419
123.2090, 124.2786
123.6911, 126.7876
124.1732, 126.8275
124.6553, 126.0662
125.1375, 125.6774
125.6196, 125.6667
126.1017, 126.0512
126.5838, 126.9426
127.0659, 128.2243
127.5480, 129.7014
128.0302, 131.3723
128.5123, 133.1918
128.9944, 135.1722
129.4765, 137.2939
129.9586, 139.3716
130.4407, 141.2684
130.9229, 143.0082
131.4050, 144.6885
131.8871, 146.2601
132.3692, 147.7998
132.8513, 149.3685
133.3334, 150.7112
133.8156, 151.6186
134.2977, 152.4609
134.7798, 153.7527
135.2619, 155.3944
135.7440, 157.5670
136.2261, 160.0504
136.7083, 161.7594
137.1904, 162.4327
137.6725, 163.1960
138.1546, 165.7658
138.6367, 170.7679
139.1188, 174.1629
139.6010, 174.6432
140.0831, 172.2177
140.5652, 170.0423
141.0473, 168.0672
141.5294, 166.3537
142.0115, 165.0126
142.4937, 164.0633
142.9758, 163.3768
143.4579, 162.8853
143.9400, 162.5513
144.4221, 162.5754
144.9042, 163.0326
145.3864, 163.7869
145.8685, 164.6130
146.3506, 165.5914
146.8327, 166.5368
147.3148, 167.4403
147.7969, 168.4734
148.2791, 169.0603
148.7612, 168.9143
149.2433, 168.3559
149.7254, 168.1176
150.2075, 168.3114
150.6896, 168.7290
151.1718, 169.3073
151.6539, 170.2450
152.1360, 171.0580
152.6181, 171.4751
153.1002, 171.7207
153.5823, 172.4634
154.0645, 174.9787
154.5466, 177.1193
155.0287, 177.8690
155.5108, 175.6331
155.9929, 173.8115
156.4750, 173.0391
156.9572, 173.1214
157.4393, 173.3090
157.9214, 173.7997
158.4035, 174.1307
158.8856, 174.0172
159.3677, 172.4064
159.8499, 171.3343
160.3320, 171.6350
160.8141, 173.1034
161.2962, 174.5417
161.7783, 175.7157
162.2604, 176.5863
162.7426, 177.1218
163.2247, 177.2558
163.7068, 177.1086
164.1889, 176.6232
164.6710, 175.8286
165.1531, 175.0504
165.6353, 174.2968
166.1174, 173.6919
166.5995, 173.3693
167.0816, 173.9370
167.5637, 174.3851
168.0458, 173.8550
168.5280, 172.3453
169.0101, 170.9403
169.4922, 170.5092
169.9743, 170.5861
170.4564, 170.5257
170.9385, 170.1244
171.4207, 169.4389
171.9028, 168.3086
172.3849, 166.7016
172.8670, 165.3696
173.3491, 165.2028
173.8312, 165.7073
174.3134, 165.9378
174.7955, 165.2186
175.2776, 164.1040
175.7597, 163.1974
176.2418, 162.5198
176.7239, 162.0676
177.2061, 162.0625
177.6882, 162.3055
178.1703, 162.2576
178.6524, 161.3805
179.1345, 160.1129
179.6166, 159.1682
180.0988, 158.5791
180.5809, 158.2968
181.0630, 158.5313
181.5451, 159.1192
182.0272, 159.3957
182.5093, 158.6494
182.9915, 157.3536
183.4736, 156.6941
183.9557, 156.8038
184.4378, 157.3295
184.9199, 158.0193
185.4020, 158.8077
185.8842, 159.3188
186.3663, 159.2641
186.8484, 158.7444
187.3305, 158.0907
187.8126, 157.2880
188.2947, 156.4463
188.7769, 155.6276
189.2590, 154.8448
189.7411, 154.3719
190.2232, 154.5994
190.7053, 155.3804
191.1874, 155.6812
191.6696, 155.2732
192.1517, 154.6410
192.6338, 154.8240
193.1159, 155.8560
193.5980, 156.7950
194.0801, 156.9523
194.5623, 156.3935
195.0444, 156.0889
195.5265, 156.1983
196.0086, 156.4964
196.4907, 156.4230
196.9728, 155.9168
197.4550, 155.5403
197.9371, 155.7491
198.4192, 156.5556
198.9013, 157.1325
199.3834, 157.3753
199.8655, 157.3833
200.3477, 157.3672
200.8298, 157.3139
201.3119, 157.2991
201.7940, 157.4169
202.2761, 157.6928
202.7582, 157.7821
203.2404, 157.5503
203.7225, 157.1922
204.2046, 157.3556
204.6867, 158.2177
205.1688, 159.0003
205.6509, 159.1336
206.1331, 158.4992
206.6152, 157.9866
207.0973, 157.6146
207.5794, 157.4403
208.0615, 157.7223
208.5436, 158.6172
209.0258, 159.5575
209.5079, 160.1916
209.9900, 160.4753
210.4721, 160.6255
210.9542, 160.5682
211.4363, 160.4178
211.9185, 160.5768
212.4006, 161.1093
212.8827, 161.8137
213.3648, 162.6385
213.8469, 163.7322
214.3290, 164.4112
214.8112, 164.5055
215.2933, 164.1717
215.7754, 163.9585
216.2575, 163.8721
216.7396, 163.8916
217.2217, 163.9634
217.7038, 163.9819
218.1860, 164.4346
218.6681, 165.6485
219.1502, 167.2741
219.6323, 167.8530
220.1144, 166.7141
220.5965, 165.6737
221.0787, 165.9221
221.5608, 168.1611
222.0429, 169.7301
222.5250, 170.1549
223.0071, 169.8322
223.4892, 170.2736
223.9714, 171.9649
224.4535, 173.6648
224.9356, 174.6555
225.4177, 174.5148
225.8998, 174.6686
226.3819, 175.2025
226.8641, 176.0768
227.3462, 177.1963
227.8283, 178.8066
228.3104, 180.2835
228.7925, 181.2268
229.2746, 181.2690
229.7568, 181.6275
230.2389, 182.3675
230.7210, 183.4476
231.2031, 184.7685
231.6852, 186.5752
232.1673, 188.2559
232.6495, 189.3761
233.1316, 189.2613
233.6137, 190.1553
234.0958, 192.5658
234.5779, 195.9109
235.0600, 198.4909
235.5422, 199.9322
236.0243, 201.1921
236.5064, 202.7136
236.9885, 204.6992
237.4706, 206.4756
237.9527, 207.8524
238.4349, 209.0499
238.9170, 210.5697
239.3991, 212.3150
239.8812, 214.5265
240.3633, 217.3722
240.8454, 221.1435
241.3276, 224.8582
241.8097, 228.6630
242.2918, 232.3076
242.7739, 235.1096
243.2560, 236.4589
243.7381, 237.9107
244.2203, 240.1119
244.7024, 243.4207
245.1845, 246.4655
245.6666, 249.1545
246.1487, 251.6184
246.6308, 254.1942
247.1130, 257.0896
247.5951, 259.7586
248.0772, 261.8498
248.5593, 263.0219
249.0414, 264.9493
249.5235, 268.0107
250.0057, 271.5824
250.4878, 274.6852
250.9699, 277.1158
251.4520, 279.4352
251.9341, 281.6976
252.4162, 283.7915
252.8984, 286.4760
253.3805, 290.0455
253.8626, 294.0070
254.3447, 297.5399
254.8268, 300.5696
255.3089, 303.4390
255.7911, 306.2657
256.2732, 309.1125
256.7553, 311.4623
257.2374, 313.0651
257.7195, 314.4260
258.2017, 316.2284
258.6838, 318.7946
259.1659, 321.1381
259.6480, 323.2614
260.1301, 325.1948
260.6122, 325.5948
261.0944, 323.9059
261.5765, 321.3654
262.0586, 319.3817
262.5407, 318.4175
263.0228, 316.7346
263.5049, 313.8298
263.9871, 309.7311
264.4692, 305.8599
264.9513, 302.4406
265.4334, 298.8408
265.9155, 294.2413
266.3976, 288.3401
266.8798, 282.7336
267.3619, 277.7562
267.8440, 273.3264
268.3261, 269.1486
268.8082, 265.2197
269.2903, 261.5619
269.7725, 258.3489
270.2546, 255.7895
270.7367, 252.8521
271.2188, 249.2354
271.7009, 245.1916
272.1830, 241.7618
272.6652, 239.1281
273.1473, 236.6769
273.6294, 233.9324
274.1115, 230.8239
274.5936, 227.8918
275.0757, 225.2377
275.5579, 222.7299
276.0400, 219.9381
276.5221, 216.7013
277.0042, 213.8244
277.4863, 212.0000
277.9684, 211.3349
278.4506, 210.2270
278.9327, 208.5257
279.4148, 206.3855
279.8969, 203.9931
280.3790, 201.2845
280.8611, 198.7855
281.3433, 196.9513
281.8254, 195.7670
282.3075, 193.9776
282.7896, 191.2900
283.2717, 188.5359
283.7538, 187.2497
284.2360, 187.4886
284.7181, 187.7217
285.2002, 187.2732
285.6823, 186.2060
286.1644, 185.0011
286.6465, 183.6097
287.1287, 182.2950
287.6108, 181.4018
288.0929, 180.9182
288.5750, 180.6574
289.0571, 180.6285
289.5392, 180.7685
290.0214, 180.7475
290.5035, 180.5256
290.9856, 180.4629
291.4677, 181.1611
291.9498, 182.4713
292.4319, 183.4249
292.9141, 183.5773
293.3962, 183.2782
293.8783, 183.3288
294.3604, 183.7342
294.8425, 184.2793
295.3246, 184.6455
295.8068, 184.9825
296.2889, 185.8459
296.7710, 187.6356
297.2531, 189.7119
297.7352, 190.8216
298.2173, 191.0721
298.6995, 191.4250
299.1816, 192.8277
299.6637, 194.8119
300.1458, 196.2982
300.6279, 196.9524
301.1100, 197.3854
301.5922, 198.3765
302.0743, 199.8118
302.5564, 201.2321
303.0385, 202.7554
303.5206, 203.9738
304.0027, 204.0747
304.4849, 202.6849
304.9670, 201.2714
305.4491, 201.4030
305.9312, 202.6190
306.4133, 203.8143
306.8954, 204.4919
307.3776, 204.8575
307.8597, 204.9953
308.3418, 204.8854
308.8239, 204.9265
309.3060, 205.3939
309.7881, 206.2170
310.2703, 207.2646
310.7524, 208.5102
311.2345, 209.9527
311.7166, 211.4940
312.1987, 213.1461
312.6808, 215.2039
313.1630, 217.9780
313.6451, 221.2093
314.1272, 224.6436
314.6093, 228.1274
315.0914, 231.8094
315.5735, 235.6425
316.0557, 239.6640
316.5378, 244.0810
317.0199, 249.0885
317.5020, 254.4393
317.9841, 260.0558
318.4662, 265.9589
318.9484, 271.8941
319.4305, 277.8471
319.9126, 283.7724
320.3947, 289.5491
320.8768, 294.7451
321.3589, 300.0861
321.8411, 306.0513
322.3232, 313.0137
322.8053, 319.6721
323.2874, 325.2397
323.7695, 330.4458
324.2516, 336.4449
324.7338, 343.9295
325.2159, 351.7540
325.6980, 359.5543
326.1801, 367.2723
326.6622, 375.2584
327.1443, 383.3506
327.6265, 391.8502
328.1086, 401.1007
328.5907, 411.4146
329.0728, 422.0144
329.5549, 432.5352
330.0370, 443.0157
330.5192, 454.7756
331.0013, 469.1631
331.4834, 483.7755
331.9655, 497.1312
332.4476, 508.9782
332.9297, 520.0934
333.4119, 530.8353
333.8940, 540.8935
334.3761, 548.8549
334.8582, 554.9960
335.3403, 558.3625
335.8224, 558.4636
336.3046, 555.2380
336.7867, 548.8508
337.2688, 539.2214
337.7509, 526.4772
338.2330, 510.2582
338.7151, 490.0674
339.1973, 468.2923
339.6794, 445.2796
340.1615, 421.1630
340.6436, 397.0863
341.1257, 372.9953
341.6078, 349.6154
342.0899, 327.7608
342.5721, 307.8104
343.0542, 289.2198
343.5363, 271.8314
344.0184, 255.8915
344.5005, 242.2488
344.9826, 231.1113
345.4648, 221.5562
345.9469, 213.1787
346.4290, 205.8155
346.9111, 199.0726
347.3932, 192.7740
347.8753, 187.0754
348.3575, 182.5280
348.8396, 179.0957
349.3217, 176.1895
349.8038, 173.4548
350.2859, 170.9794
350.7680, 169.0139
351.2502, 167.6239
351.7323, 166.5988
352.2144, 165.6825
352.6965, 164.9234
353.1786, 164.4965
353.6607, 164.5037
354.1429, 164.8854
354.6250, 165.7468
355.1071, 167.1121
355.5892, 168.3297
356.0713, 168.4948
356.5534, 168.2769
357.0356, 168.6669
357.5177, 170.3039
357.9998, 172.4498
358.4819, 174.4126
358.9640, 176.3187
359.4461, 178.8449
359.9283, 182.8625
360.4104, 187.3739
360.8925, 191.4942
361.3746, 194.6257
361.8567, 198.0316
362.3388, 202.4447
362.8210, 207.4948
363.3031, 212.4431
363.7852, 216.9712
364.2673, 221.4060
364.7494, 225.8629
365.2315, 230.3155
365.7137, 234.9503
366.1958, 239.7547
366.6779, 244.7275
367.1600, 249.9110
367.6421, 255.9954
368.1242, 261.5797
368.6064, 266.3333
369.0885, 270.2381
369.5706, 273.7935
370.0527, 276.9456
370.5348, 279.8154
371.0169, 282.4947
371.4991, 284.7185
371.9812, 287.1612
372.4633, 289.9217
372.9454, 292.9445
373.4275, 295.9368
373.9096, 298.7713
374.3918, 301.8635
374.8739, 305.3929
375.3560, 309.5125
375.8381, 313.6063
376.3202, 317.7558
376.8023, 321.7133
377.2845, 325.3165
377.7666, 328.7204
378.2487, 330.7649
378.7308, 331.0822
379.2129, 329.7003
379.6950, 326.7471
380.1772, 322.1864
380.6593, 316.1055
381.1414, 308.1264
381.6235, 298.4603
382.1056, 288.3643
382.5877, 278.1481
383.0699, 267.6830
383.5520, 256.4957
384.0341, 244.5890
384.5162, 233.0337
384.9983, 222.2203
385.4804, 212.1765
385.9626, 202.8628
386.4447, 194.2799
386.9268, 186.3986
387.4089, 179.0648
387.8910, 172.3714
388.3731, 166.7010
388.8553, 162.4743
389.3374, 159.1638
389.8195, 156.5857
390.3016, 154.7159
390.7837, 152.8142
391.2658, 150.1929
391.7480, 147.4281
392.2301, 145.1368
392.7122, 143.7457
393.1943, 142.5063
393.6764, 141.0318
394.1585, 139.4333
394.6407, 138.0522
395.1228, 137.0257
395.6049, 136.2194
396.0870, 135.5997
396.5691, 135.2397
397.0512, 134.8298
397.5334, 134.3772
398.0155, 133.8194
398.4976, 133.0858
398.9797, 131.9984
399.4618, 130.9075
399.9439, 129.7484
400.4261, 128.5224
400.9082, 127.7949
401.3903, 127.9402
401.8724, 128.2248
402.3545, 128.1580
402.8366, 127.4854
403.3188, 127.0339
403.8009, 126.9669
404.2830, 127.0967
404.7651, 126.9636
405.2472, 126.5629
405.7293, 125.9154
406.2115, 124.9184
406.6936, 123.5628
407.1757, 122.5243
407.6578, 121.8481
408.1399, 121.3639
408.6220, 120.9257
409.1042, 120.5308
409.5863, 120.0233
410.0684, 119.2972
410.5505, 118.4846
411.0326, 117.8305
411.5147, 117.3339
411.9969, 117.0219
412.4790, 117.1801
412.9611, 117.5168
413.4432, 117.2146
413.9253, 116.0206
414.4074, 114.7408
414.8896, 114.2791
415.3717, 114.4020
415.8538, 114.5682
416.3359, 114.5041
416.8180, 114.3775
417.3001, 114.3937
417.7823, 114.5463
418.2644, 114.5640
418.7465, 114.1355
419.2286, 113.5663
419.7107, 113.1543
420.1928, 113.0004
420.6750, 112.9736
421.1571, 112.9827
421.6392, 113.0756
422.1213, 113.3793
422.6034, 114.4105
423.0855, 115.2442
423.5677, 115.4039
424.0498, 114.5930
424.5319, 114.0483
425.0140, 113.9693
425.4961, 114.1496
425.9782, 114.4112
426.4604, 115.1834
426.9425, 115.3761
427.4246, 114.4400
427.9067, 112.6507
428.3888, 112.1093
428.8709, 113.4512
429.3531, 114.9170
429.8352, 115.4807
430.3173, 114.9254
430.7994, 114.5206
431.2815, 114.3165
431.7636, 114.2416
432.2458, 114.2428
432.7279, 114.3310
433.2100, 114.2678
433.6921, 113.8268
434.1742, 113.1882
434.6563, 113.1082
435.1385, 113.6006
435.6206, 114.1651
436.1027, 114.4534
436.5848, 114.4825
437.0669, 114.2243
437.5490, 113.5473
438.0312, 112.9028
438.5133, 112.8879
438.9954, 113.3322
439.4775, 113.7606
439.9596, 114.1460
440.4417, 114.2720
440.9239, 113.7450
441.4060, 112.5434
441.8881, 111.5587
442.3702, 111.4199
442.8523, 111.6996
443.3344, 111.9971
443.8166, 112.5291
444.2987, 112.6822
444.7808, 111.8868
445.2629, 110.5169
445.7450, 109.6646
446.2271, 110.1253
446.7093, 110.6589
447.1914, 110.7743
447.6735, 110.2963
448.1556, 109.9070
448.6377, 109.5655
449.1198, 109.3427
449.6020, 109.3447
450.0841, 109.7462
450.5662, 109.9957
451.0483, 109.9394
451.5304, 109.6715
452.0125, 109.6862
452.4947, 110.1317
452.9768, 110.4031
453.4589, 109.9872
453.9410, 108.8533
454.4231, 108.3083
454.9052, 108.4615
455.3874, 108.9118
455.8695, 109.1801
456.3516, 109.2888
456.8337, 109.4184
457.3158, 109.7462
457.7979, 110.0308
458.2801, 109.7179
458.7622, 108.8871
459.2443, 108.0798
459.7264, 107.6075
460.2085, 107.4107
460.6906, 107.5230
461.1728, 108.0471
461.6549, 108.4191
462.1370, 108.0459
462.6191, 107.2998
463.1012, 106.7329
463.5833, 106.4241
464.0655, 106.4538
464.5476, 107.1335
465.0297, 108.3429
465.5118, 109.1288
465.9939, 108.8886
466.4760, 108.3913
466.9582, 108.0723
467.4403, 108.2423
467.9224, 108.0703
468.4045, 107.1176
468.8866, 105.9961
469.3687, 105.6180
469.8509, 106.4449
470.3330, 107.1970
470.8151, 107.6037
471.2972, 107.6871
471.7793, 107.6125
472.2614, 107.2904
472.7436, 107.0562
473.2257, 107.2383
473.7078, 107.8480
474.1899, 108.1921
474.6720, 108.1816
475.1541, 108.0028
475.6363, 107.9207
476.1184, 107.9176
476.6005, 107.8842
477.0826, 107.7959
477.5647, 107.6391
478.0468, 107.2786
478.5290, 106.7538
479.0111, 106.4219
479.4932, 106.7951
479.9753, 107.3911
480.4574, 107.6040
480.9395, 107.2295
481.4217, 106.7874
481.9038, 106.5141
482.3859, 106.3986
482.8680, 106.4314
483.3501, 106.7597
483.8322, 107.0878
484.3144, 107.3322
484.7965, 107.4858
485.2786, 107.5470
485.7607, 107.4547
486.2428, 107.3132
486.7249, 107.1693
487.2071, 107.0080
487.6892, 106.8899
488.1713, 106.9013
488.6534, 106.8973
489.1355, 106.6031
489.6176, 105.8353
490.0998, 105.3462
490.5819, 105.4365
491.0640, 105.9382
491.5461, 105.9297
492.0282, 105.3511
492.5103, 104.7242
492.9925, 104.4085
493.4746, 104.3568
493.9567, 104.3921
494.4388, 104.5308
494.9209, 104.5933
495.4030, 104.1659
495.8852, 103.4908
496.3673, 103.1921
496.8494, 103.8623
497.3315, 104.6624
497.8136, 104.7305
498.2957, 104.2069
498.7779, 103.6702
499.2600, 103.3556
499.7421, 103.1782
500.2242, 103.0915
500.7063, 103.1000
501.1884, 103.1495
501.6706, 103.2527
502.1527, 103.3785
502.6348, 103.4941
503.1169, 103.7479
503.5990, 103.8089
504.0811, 103.5666
504.5633, 103.1019
505.0454, 102.6881
505.5275, 102.2850
506.0096, 102.0164
506.4917, 101.9589
506.9738, 102.1302
507.4560, 102.3075
507.9381, 102.5198
508.4202, 102.6584
508.9023, 102.5937
509.3844, 102.3337
509.8665, 101.9973
510.3487, 101.5595
510.8308, 101.1422
511.3129, 101.0062
511.7950, 101.0962
512.2772, 101.1526
512.7593, 100.9591
513.2414, 100.6992
513.7235, 100.5905
514.2056, 100.6345
514.6877, 100.7467
515.1699, 100.9398
515.6520, 101.1402
516.1341, 101.2778
516.6162, 101.3167
517.0983, 101.3293
517.5804, 101.2045
518.0626, 101.0937
518.5447, 101.2461
519.0268, 102.2932
519.5089, 102.9657
519.9910, 102.8280
520.4731, 101.9446
520.9553, 101.2974
521.4374, 100.8676
521.9195, 100.7114
522.4016, 100.9548
522.8837, 101.7248
523.3658, 102.2197
523.8480, 102.4156
524.3301, 102.3759
524.8122, 102.0582
525.2943, 101.4928
525.7764, 101.1512
526.2585, 101.1976
526.7407, 101.4996
527.2228, 101.9091
527.7049, 102.3978
528.1870, 102.7863
528.6691, 103.0245
529.1512, 103.0775
529.6334, 102.7862
530.1155, 102.1215
530.5976, 101.6252
531.0797, 101.7553
531.5618, 102.1429
532.0439, 102.4193
532.5261, 102.3945
533.0082, 102.3942
533.4903, 102.5691
533.9724, 102.8188
534.4545, 102.9319
534.9366, 102.7516
535.4188, 102.5941
535.9009, 102.5767
536.3830, 102.6928
536.8651, 102.6027
537.3472, 102.2374
537.8293, 101.8073
538.3115, 101.3833
538.7936, 100.9451
539.2757, 100.8972
539.7578, 101.3622
540.2399, 101.9312
540.7220, 102.0401
541.2042, 101.7487
541.6863, 101.4035
542.1684, 101.0699
542.6505, 100.7786
543.1326, 100.5310
543.6147, 100.3493
544.0969, 100.3196
544.5790, 100.5997
545.0611, 100.9814
545.5432, 101.3705
546.0253, 101.7687
546.5074, 101.9080
546.9896, 101.4209
547.4717, 100.7684
547.9538, 100.3261
548.4359, 100.3993
548.9180, 100.3536
549.4001, 100.0215
549.8823, 99.57809
550.3644, 99.30815
550.8465, 99.19540
551.3286, 99.30531
551.8107, 99.77773
552.2928, 100.5199
552.7750, 100.7882
553.2571, 100.5154
553.7392, 100.1137
554.2213, 99.78654
554.7034, 99.54472
555.1855, 99.44820
555.6677, 99.50607
556.1498, 99.65874
556.6319, 99.92790
557.1140, 100.2354
557.5961, 100.4129
558.0782, 100.3791
558.5604, 100.2546
559.0425, 100.0698
559.5246, 99.86833
560.0067, 99.74946
560.4888, 99.93921
560.9709, 100.0533
561.4531, 99.83850
561.9352, 99.28967
562.4173, 98.89661
562.8994, 98.74571
563.3815, 98.75485
563.8636, 98.91370
564.3458, 99.33803
564.8279, 99.59731
565.3100, 99.66821
565.7921, 99.60862
566.2742, 99.43507
566.7563, 99.11842
567.2385, 99.01042
567.7206, 99.30466
568.2027, 99.70248
568.6848, 99.35709
569.1669, 98.38543
569.6490, 97.69994
570.1312, 98.06322
570.6133, 98.87588
571.0954, 99.23964
571.5775, 99.16618
572.0596, 99.08321
572.5417, 99.30205
573.0239, 99.61400
573.5060, 99.83940
573.9881, 99.93893
574.4702, 99.97867
574.9523, 99.79195
575.4344, 99.62576
575.9166, 99.80052
576.3987, 100.9207
576.8808, 101.5912
577.3629, 101.4443
577.8450, 100.7678
578.3271, 100.5548
578.8093, 100.9777
579.2914, 101.3418
579.7735, 101.2696
580.2556, 100.8515
580.7377, 100.8778
581.2198, 101.3880
581.7020, 101.8992
582.1841, 102.0092
582.6662, 101.8158
583.1483, 101.4849
583.6304, 100.9967
584.1125, 100.6303
584.5947, 100.7380
585.0768, 101.1013
585.5589, 101.4016
586.0410, 101.5403
586.5231, 101.5878
587.0052, 101.3920
587.4873, 101.1175
587.9694, 101.2042
588.4515, 102.2900
