##NAMES=Enargite
##RRUFFID=R050373
##IDEAL CHEMISTRY=Cu_3_AsS_4_
##LOCALITY=Butte, Silver Bow County, Montana, USA
##OWNER=RRUFF
##SOURCE=Eugene Schlepp
##DESCRIPTION=Black tabular crystals associated with quartz
##STATUS=The identification of this mineral is confirmed by single-crystal X-ray diffraction and chemical analysis.
##URL=rruff.info/R050373
##MEASURED CHEMISTRY=Cu_2.97_As_0.96_Sb_0.01_S_4_
92.35352, 10.36536
92.83563, 10.23437
93.31775, 10.17885
93.79987, 10.19279
94.28198, 10.28146
94.76410, 10.51052
95.24622, 11.01783
95.72833, 11.54295
96.21045, 11.25056
96.69257, 10.07062
97.17468, 9.148870
97.65680, 9.830235
98.13892, 12.07839
98.62103, 13.96344
99.10315, 14.86049
99.58527, 14.93492
100.0674, 15.22252
100.5495, 15.74688
101.0316, 16.42768
101.5137, 17.06912
101.9958, 17.53195
102.4780, 18.47616
102.9601, 20.30556
103.4422, 23.25565
103.9243, 25.48643
104.4064, 26.75757
104.8885, 27.47640
105.3707, 28.36986
105.8528, 29.33634
106.3349, 30.61486
106.8170, 32.41288
107.2991, 35.61380
107.7813, 37.63869
108.2634, 37.88987
108.7455, 36.88277
109.2276, 36.34283
109.7097, 36.41844
110.1918, 36.85481
110.6740, 37.54782
111.1561, 38.69030
111.6382, 39.87010
112.1203, 41.01352
112.6024, 42.15434
113.0845, 43.43575
113.5667, 44.53426
114.0488, 45.96415
114.5309, 48.08924
115.0130, 52.01083
115.4951, 55.65519
115.9772, 58.27549
116.4594, 59.91080
116.9415, 61.56426
117.4236, 63.93517
117.9057, 66.41373
118.3878, 68.33932
118.8699, 68.94006
119.3521, 69.33925
119.8342, 70.05085
120.3163, 71.08594
120.7984, 72.67784
121.2805, 75.25124
121.7626, 78.46037
122.2448, 81.71406
122.7269, 85.61927
123.2090, 89.00797
123.6911, 90.44693
124.1732, 89.46534
124.6553, 87.87397
125.1375, 87.11217
125.6196, 87.06624
126.1017, 87.37607
126.5838, 87.63355
127.0659, 88.13832
127.5480, 89.56188
128.0302, 92.26191
128.5123, 95.36890
128.9944, 97.72925
129.4765, 99.38880
129.9586, 100.7764
130.4407, 102.2180
130.9229, 103.6518
131.4050, 104.7956
131.8871, 105.4613
132.3692, 105.8980
132.8513, 106.6700
133.3334, 107.6293
133.8156, 108.2028
134.2977, 108.1909
134.7798, 107.9866
135.2619, 108.1437
135.7440, 108.8258
136.2261, 109.9480
136.7083, 111.2461
137.1904, 112.7707
137.6725, 114.3323
138.1546, 115.9651
138.6367, 117.8565
139.1188, 118.8866
139.6010, 118.7372
140.0831, 117.4201
140.5652, 115.4506
141.0473, 112.4430
141.5294, 109.2852
142.0115, 107.2410
142.4937, 106.6935
142.9758, 106.2667
143.4579, 105.4520
143.9400, 104.0273
144.4221, 103.3157
144.9042, 103.5352
145.3864, 104.3196
145.8685, 105.0709
146.3506, 105.9053
146.8327, 106.5590
147.3148, 106.9508
147.7969, 107.0333
148.2791, 106.9531
148.7612, 106.5604
149.2433, 106.0219
149.7254, 105.7090
150.2075, 105.2633
150.6896, 105.3513
151.1718, 106.2862
151.6539, 109.4286
152.1360, 111.4395
152.6181, 111.4995
153.1002, 110.2764
153.5823, 109.7629
154.0645, 110.9231
154.5466, 112.2138
155.0287, 112.9192
155.5108, 112.6460
155.9929, 112.1814
156.4750, 111.4381
156.9572, 110.5279
157.4393, 109.9320
157.9214, 109.9750
158.4035, 110.2189
158.8856, 110.3898
159.3677, 110.3041
159.8499, 110.2639
160.3320, 110.3478
160.8141, 110.5471
161.2962, 110.8190
161.7783, 110.9088
162.2604, 111.1749
162.7426, 111.9127
163.2247, 114.4027
163.7068, 116.3419
164.1889, 116.2581
164.6710, 114.2984
165.1531, 112.6207
165.6353, 112.4597
166.1174, 113.0707
166.5995, 113.6522
167.0816, 114.2159
167.5637, 114.4380
168.0458, 113.9294
168.5280, 112.6955
169.0101, 111.4775
169.4922, 110.7577
169.9743, 110.3527
170.4564, 110.0130
170.9385, 109.9490
171.4207, 109.7218
171.9028, 108.7947
172.3849, 107.1226
172.8670, 105.4270
173.3491, 104.2521
173.8312, 103.4390
174.3134, 102.6809
174.7955, 101.5931
175.2776, 100.5988
175.7597, 100.4088
176.2418, 101.1582
176.7239, 101.8648
177.2061, 101.3450
177.6882, 100.0117
178.1703, 98.99662
178.6524, 99.23866
179.1345, 100.0432
179.6166, 100.1739
180.0988, 99.48225
180.5809, 98.55241
181.0630, 98.00164
181.5451, 97.76672
182.0272, 97.61893
182.5093, 97.39936
182.9915, 97.17776
183.4736, 97.15498
183.9557, 97.37432
184.4378, 97.67833
184.9199, 97.83253
185.4020, 97.86004
185.8842, 97.94955
186.3663, 98.40304
186.8484, 99.04123
187.3305, 99.12255
187.8126, 98.49008
188.2947, 97.56149
188.7769, 96.99665
189.2590, 96.78015
189.7411, 96.58971
190.2232, 96.09480
190.7053, 95.39714
191.1874, 95.16927
191.6696, 95.52885
192.1517, 96.25101
192.6338, 97.05978
193.1159, 97.96839
193.5980, 98.63168
194.0801, 98.73172
194.5623, 98.31181
195.0444, 97.98391
195.5265, 97.81874
196.0086, 97.74798
196.4907, 97.66479
196.9728, 97.57935
197.4550, 97.39279
197.9371, 96.93353
198.4192, 96.19221
198.9013, 95.74453
199.3834, 95.64037
199.8655, 95.85313
200.3477, 96.42973
200.8298, 97.46019
201.3119, 98.44194
201.7940, 99.13900
202.2761, 99.56074
202.7582, 99.55043
203.2404, 98.94820
203.7225, 98.01538
204.2046, 97.47747
204.6867, 97.39017
205.1688, 97.50697
205.6509, 97.71533
206.1331, 98.03619
206.6152, 98.30862
207.0973, 98.48336
207.5794, 98.61951
208.0615, 98.92449
208.5436, 99.45702
209.0258, 100.0053
209.5079, 100.5151
209.9900, 101.0729
210.4721, 101.1108
210.9542, 100.3152
211.4363, 99.05856
211.9185, 98.63980
212.4006, 99.25964
212.8827, 100.2878
213.3648, 101.4840
213.8469, 103.1022
214.3290, 103.9670
214.8112, 103.7683
215.2933, 102.8000
215.7754, 102.0463
216.2575, 101.4316
216.7396, 101.1717
217.2217, 101.4839
217.7038, 102.6063
218.1860, 103.5652
218.6681, 104.2695
219.1502, 104.7643
219.6323, 105.1997
220.1144, 105.5813
220.5965, 105.8900
221.0787, 106.1302
221.5608, 106.3551
222.0429, 106.3390
222.5250, 105.8973
223.0071, 105.2234
223.4892, 105.0877
223.9714, 105.7678
224.4535, 106.5479
224.9356, 107.0042
225.4177, 106.8671
225.8998, 107.0698
226.3819, 107.7673
226.8641, 108.8239
227.3462, 109.7236
227.8283, 110.2981
228.3104, 110.9688
228.7925, 112.0068
229.2746, 113.7817
229.7568, 115.0826
230.2389, 115.6526
230.7210, 115.7650
231.2031, 116.2856
231.6852, 117.3926
232.1673, 118.6393
232.6495, 119.8194
233.1316, 120.9520
233.6137, 121.9687
234.0958, 122.8170
234.5779, 123.5476
235.0600, 124.2551
235.5422, 124.7829
236.0243, 125.5282
236.5064, 126.7161
236.9885, 128.6350
237.4706, 130.3471
237.9527, 131.7268
238.4349, 132.9120
238.9170, 134.1943
239.3991, 135.4282
239.8812, 136.9770
240.3633, 139.0909
240.8454, 142.2058
241.3276, 144.7789
241.8097, 146.5591
242.2918, 147.8568
242.7739, 149.3300
243.2560, 151.0803
243.7381, 152.8480
244.2203, 154.4921
244.7024, 155.8445
245.1845, 157.5811
245.6666, 159.9461
246.1487, 162.5748
246.6308, 164.8286
247.1130, 166.6713
247.5951, 168.1959
248.0772, 169.2968
248.5593, 169.7058
249.0414, 170.7368
249.5235, 172.7316
250.0057, 175.1292
250.4878, 176.9648
250.9699, 177.7449
251.4520, 178.8470
251.9341, 180.7261
252.4162, 183.5173
252.8984, 186.4938
253.3805, 189.8489
253.8626, 193.2644
254.3447, 196.1340
254.8268, 198.2068
255.3089, 200.3396
255.7911, 202.8140
256.2732, 205.7165
256.7553, 208.2815
257.2374, 210.2664
257.7195, 212.1641
258.2017, 214.6862
258.6838, 218.3072
259.1659, 221.5124
259.6480, 223.8652
260.1301, 225.3108
260.6122, 226.9120
261.0944, 228.8467
261.5765, 230.7257
262.0586, 232.2122
262.5407, 233.4062
263.0228, 233.9356
263.5049, 233.6957
263.9871, 232.6935
264.4692, 231.0764
264.9513, 228.5858
265.4334, 225.8755
265.9155, 223.5885
266.3976, 222.0204
266.8798, 219.9964
267.3619, 217.2218
267.8440, 213.7753
268.3261, 210.4889
268.8082, 207.3911
269.2903, 204.4050
269.7725, 201.4912
270.2546, 198.6807
270.7367, 195.9236
271.2188, 193.0934
271.7009, 190.3579
272.1830, 188.5347
272.6652, 187.9363
273.1473, 187.4290
273.6294, 186.2183
274.1115, 184.2082
274.5936, 182.0347
275.0757, 179.6925
275.5579, 177.2532
276.0400, 175.0011
276.5221, 172.9637
277.0042, 170.9975
277.4863, 169.0372
277.9684, 167.0853
278.4506, 165.1125
278.9327, 163.1441
279.4148, 161.1214
279.8969, 158.8301
280.3790, 156.2116
280.8611, 153.7458
281.3433, 151.7411
281.8254, 150.1872
282.3075, 148.6170
282.7896, 147.0125
283.2717, 145.3774
283.7538, 143.7634
284.2360, 142.1785
284.7181, 140.4257
285.2002, 138.2132
285.6823, 135.6423
286.1644, 133.6955
286.6465, 132.4711
287.1287, 131.5744
287.6108, 130.4984
288.0929, 129.2592
288.5750, 128.1731
289.0571, 127.3560
289.5392, 126.7822
290.0214, 126.3705
290.5035, 126.1218
290.9856, 126.0304
291.4677, 126.1928
291.9498, 126.5586
292.4319, 126.7887
292.9141, 126.6545
293.3962, 126.3902
293.8783, 126.6009
294.3604, 127.2930
294.8425, 128.0896
295.3246, 128.5116
295.8068, 128.7522
296.2889, 129.4819
296.7710, 131.0255
297.2531, 132.9514
297.7352, 134.4517
298.2173, 135.5803
298.6995, 136.8704
299.1816, 138.9168
299.6637, 141.3797
300.1458, 143.4657
300.6279, 144.9651
301.1100, 146.2330
301.5922, 147.7934
302.0743, 149.5285
302.5564, 150.9609
303.0385, 151.6613
303.5206, 151.9381
304.0027, 152.3035
304.4849, 152.8868
304.9670, 153.2696
305.4491, 152.9293
305.9312, 152.0648
306.4133, 151.1535
306.8954, 150.4590
307.3776, 149.8229
307.8597, 149.1376
308.3418, 148.3999
308.8239, 147.5131
309.3060, 146.2167
309.7881, 144.7453
310.2703, 143.5097
310.7524, 142.6943
311.2345, 142.1428
311.7166, 141.7053
312.1987, 141.3879
312.6808, 141.4143
313.1630, 141.7552
313.6451, 142.5632
314.1272, 144.0140
314.6093, 146.8270
315.0914, 149.6476
315.5735, 151.6365
316.0557, 152.9576
316.5378, 154.4873
317.0199, 156.2809
317.5020, 158.5985
317.9841, 161.7066
318.4662, 165.9599
318.9484, 170.4791
319.4305, 175.0723
319.9126, 179.7214
320.3947, 184.3781
320.8768, 188.6810
321.3589, 193.2523
321.8411, 198.5122
322.3232, 204.8073
322.8053, 210.9281
323.2874, 216.5018
323.7695, 221.7843
324.2516, 227.1816
324.7338, 232.5202
325.2159, 238.1967
325.6980, 244.2996
326.1801, 250.8382
326.6622, 257.8777
327.1443, 265.7495
327.6265, 274.0241
328.1086, 282.3009
328.5907, 290.2348
329.0728, 298.4419
329.5549, 306.6867
330.0370, 314.9984
330.5192, 324.8179
331.0013, 336.7910
331.4834, 349.7910
331.9655, 363.2422
332.4476, 377.5982
332.9297, 391.6872
333.4119, 405.2413
333.8940, 418.3857
334.3761, 431.7154
334.8582, 445.8871
335.3403, 458.7471
335.8224, 469.4336
336.3046, 478.5302
336.7867, 483.7047
337.2688, 484.7748
337.7509, 482.0624
338.2330, 476.1899
338.7151, 467.2267
339.1973, 454.9960
339.6794, 439.0407
340.1615, 419.4340
340.6436, 397.3885
341.1257, 372.5614
341.6078, 346.5744
342.0899, 320.9038
342.5721, 295.8903
343.0542, 272.4505
343.5363, 250.9976
344.0184, 231.5873
344.5005, 214.0471
344.9826, 198.5499
345.4648, 184.6933
345.9469, 172.5314
346.4290, 161.8505
346.9111, 152.2982
347.3932, 143.7917
347.8753, 136.2346
348.3575, 129.7229
348.8396, 124.2500
349.3217, 119.4577
349.8038, 115.2317
350.2859, 111.5505
350.7680, 108.4314
351.2502, 105.9397
351.7323, 103.7621
352.2144, 101.5611
352.6965, 99.37062
353.1786, 97.35825
353.6607, 95.45273
354.1429, 93.84109
354.6250, 92.78677
355.1071, 92.30728
355.5892, 92.19693
356.0713, 92.46204
356.5534, 92.96066
357.0356, 93.48269
357.5177, 93.95016
357.9998, 94.41940
358.4819, 94.80629
358.9640, 95.16721
359.4461, 95.81623
359.9283, 96.86791
360.4104, 98.30373
360.8925, 100.1386
361.3746, 102.5377
361.8567, 105.0518
362.3388, 107.5611
362.8210, 110.0404
363.3031, 112.4924
363.7852, 114.7090
364.2673, 117.0608
364.7494, 119.7081
365.2315, 122.6735
365.7137, 125.9261
366.1958, 129.4710
366.6779, 133.2617
367.1600, 137.2759
367.6421, 141.2999
368.1242, 145.7634
368.6064, 150.9152
369.0885, 156.8166
369.5706, 162.5244
370.0527, 168.0715
370.5348, 173.4346
371.0169, 178.6354
371.4991, 183.2570
371.9812, 188.3434
372.4633, 194.1165
372.9454, 200.4233
373.4275, 206.7098
373.9096, 213.4545
374.3918, 219.4702
374.8739, 224.0036
375.3560, 226.8339
375.8381, 229.4644
376.3202, 231.9718
376.8023, 234.1421
377.2845, 235.6549
377.7666, 236.4914
378.2487, 236.6797
378.7308, 236.1099
379.2129, 234.8617
379.6950, 233.6682
380.1772, 232.6354
380.6593, 231.0528
381.1414, 228.0509
381.6235, 223.7715
382.1056, 219.3432
382.5877, 215.2178
383.0699, 210.8060
383.5520, 204.9073
384.0341, 197.5542
384.5162, 189.6342
384.9983, 181.6077
385.4804, 173.3617
385.9626, 164.3350
386.4447, 154.2894
386.9268, 144.4512
387.4089, 135.9130
387.8910, 128.4943
388.3731, 121.9912
388.8553, 116.3645
389.3374, 111.5471
389.8195, 107.7483
390.3016, 104.9649
390.7837, 102.4292
391.2658, 99.54594
391.7480, 96.75754
392.2301, 94.54850
392.7122, 93.34946
393.1943, 92.34423
393.6764, 91.14517
394.1585, 89.84294
394.6407, 88.71641
395.1228, 87.98727
395.6049, 87.35055
396.0870, 86.63902
396.5691, 85.79746
397.0512, 85.01602
397.5334, 84.53959
398.0155, 84.07236
398.4976, 83.25239
398.9797, 81.20170
399.4618, 79.69034
399.9439, 79.27938
400.4261, 79.96091
400.9082, 80.27420
401.3903, 80.19630
401.8724, 79.76949
402.3545, 78.91035
402.8366, 77.07890
403.3188, 76.07310
403.8009, 76.37672
404.2830, 77.39701
404.7651, 77.55952
405.2472, 76.58632
405.7293, 75.55130
406.2115, 74.98035
406.6936, 74.90413
407.1757, 74.24055
407.6578, 72.76327
408.1399, 71.30982
408.6220, 71.13913
409.1042, 72.21125
409.5863, 72.62019
410.0684, 71.59524
410.5505, 69.79798
411.0326, 68.76371
411.5147, 68.47188
411.9969, 68.37804
412.4790, 68.11065
412.9611, 67.74570
413.4432, 67.49973
413.9253, 67.43501
414.4074, 67.35044
414.8896, 67.01923
415.3717, 66.50037
415.8538, 65.93176
416.3359, 65.39680
416.8180, 64.83361
417.3001, 64.07169
417.7823, 63.11804
418.2644, 62.45750
418.7465, 62.57861
419.2286, 63.01337
419.7107, 63.30801
420.1928, 63.27715
420.6750, 63.18195
421.1571, 63.14878
421.6392, 63.12844
422.1213, 62.99415
422.6034, 62.50850
423.0855, 62.07749
423.5677, 61.88586
424.0498, 62.01885
424.5319, 62.14274
425.0140, 62.26371
425.4961, 62.35162
425.9782, 62.36555
426.4604, 62.12353
426.9425, 62.08781
427.4246, 62.45131
427.9067, 63.12407
428.3888, 63.42334
428.8709, 63.18528
429.3531, 62.86443
429.8352, 62.69981
430.3173, 62.71262
430.7994, 62.77866
431.2815, 62.87934
431.7636, 63.05404
432.2458, 63.48979
432.7279, 64.22095
433.2100, 64.60332
433.6921, 64.24967
434.1742, 63.39385
434.6563, 62.89903
435.1385, 62.76426
435.6206, 62.78873
436.1027, 62.90445
436.5848, 63.04751
437.0669, 63.01208
437.5490, 62.70000
438.0312, 62.35012
438.5133, 62.20424
438.9954, 62.23618
439.4775, 62.37225
439.9596, 62.82639
440.4417, 63.20991
440.9239, 63.09024
441.4060, 62.44306
441.8881, 61.77287
442.3702, 61.30775
442.8523, 60.99382
443.3344, 60.78226
443.8166, 60.89137
444.2987, 60.82868
444.7808, 60.22956
445.2629, 59.31430
445.7450, 58.72517
446.2271, 58.94314
446.7093, 59.21667
447.1914, 59.21443
447.6735, 58.75385
448.1556, 58.59969
448.6377, 59.04395
449.1198, 59.59914
449.6020, 59.75234
450.0841, 59.28926
450.5662, 58.86814
451.0483, 58.59188
451.5304, 58.43128
452.0125, 58.28000
452.4947, 58.16085
452.9768, 57.97694
453.4589, 57.58189
453.9410, 56.96175
454.4231, 56.69088
454.9052, 56.82043
455.3874, 57.15606
455.8695, 57.61128
456.3516, 58.12981
456.8337, 58.26760
457.3158, 57.70689
457.7979, 56.83032
458.2801, 56.24883
458.7622, 55.95659
459.2443, 55.90322
459.7264, 56.22741
460.2085, 56.70739
460.6906, 57.09246
461.1728, 57.37704
461.6549, 57.42580
462.1370, 56.82384
462.6191, 55.98970
463.1012, 55.55158
463.5833, 56.20327
464.0655, 56.87001
464.5476, 57.04741
465.0297, 56.77473
465.5118, 56.47591
465.9939, 56.21509
466.4760, 55.99598
466.9582, 55.81849
467.4403, 55.65147
467.9224, 55.57715
468.4045, 55.55719
468.8866, 55.64422
469.3687, 55.97584
469.8509, 56.91468
470.3330, 57.40512
470.8151, 57.02820
471.2972, 55.90456
471.7793, 55.34266
472.2614, 55.48157
472.7436, 55.79043
473.2257, 55.93189
473.7078, 55.90454
474.1899, 55.77809
474.6720, 55.52750
475.1541, 55.26081
475.6363, 55.11958
476.1184, 55.09967
476.6005, 55.18455
477.0826, 55.48363
477.5647, 55.81358
478.0468, 55.84069
478.5290, 55.58892
479.0111, 55.27563
479.4932, 54.94243
479.9753, 54.68176
480.4574, 54.68638
480.9395, 55.13085
481.4217, 55.36943
481.9038, 54.64122
482.3859, 53.53417
482.8680, 52.92260
483.3501, 53.55018
483.8322, 54.27787
484.3144, 54.75914
484.7965, 54.98112
485.2786, 55.03330
485.7607, 54.77738
486.2428, 54.46976
486.7249, 54.24843
487.2071, 54.22351
487.6892, 54.02705
488.1713, 53.42971
488.6534, 52.82237
489.1355, 52.88741
489.6176, 53.99803
490.0998, 54.66685
490.5819, 54.43108
491.0640, 53.48485
491.5461, 52.73211
492.0282, 52.14834
492.5103, 51.90089
492.9925, 52.45427
493.4746, 53.55770
493.9567, 53.71551
494.4388, 52.68304
494.9209, 51.46054
495.4030, 51.13920
495.8852, 51.51697
496.3673, 52.11399
496.8494, 53.19170
497.3315, 53.98283
497.8136, 53.32910
498.2957, 51.60325
498.7779, 50.36779
499.2600, 50.80085
499.7421, 51.75551
500.2242, 52.52364
500.7063, 53.06441
501.1884, 53.22486
501.6706, 52.64854
502.1527, 51.80872
502.6348, 51.19137
503.1169, 50.94107
503.5990, 50.81919
504.0811, 50.76233
504.5633, 50.80928
505.0454, 51.18554
505.5275, 52.27899
506.0096, 53.01225
506.4917, 52.77809
506.9738, 51.44314
507.4560, 50.82213
507.9381, 51.08925
508.4202, 51.59925
508.9023, 51.64213
509.3844, 51.25193
509.8665, 51.07031
510.3487, 51.32048
510.8308, 51.63978
511.3129, 51.25993
511.7950, 50.34218
512.2772, 49.63863
512.7593, 49.65425
513.2414, 50.04552
513.7235, 50.51800
514.2056, 51.04657
514.6877, 51.36937
515.1699, 51.14350
515.6520, 50.72577
516.1341, 50.45641
516.6162, 50.50457
517.0983, 50.51712
517.5804, 50.26526
518.0626, 49.92471
518.5447, 49.78396
519.0268, 50.05927
519.5089, 50.35984
519.9910, 50.64928
520.4731, 50.91882
520.9553, 50.96754
521.4374, 50.56799
521.9195, 50.28617
522.4016, 50.54631
522.8837, 51.53465
523.3658, 52.03080
523.8480, 51.91742
524.3301, 51.54110
524.8122, 51.37399
525.2943, 51.40000
525.7764, 51.30822
526.2585, 50.90343
526.7407, 50.46360
527.2228, 50.59548
527.7049, 51.20921
528.1870, 51.77180
528.6691, 51.99710
529.1512, 51.98119
529.6334, 51.75785
530.1155, 51.31904
530.5976, 50.96818
531.0797, 50.94098
531.5618, 51.06049
532.0439, 51.15902
532.5261, 51.26406
533.0082, 51.24534
533.4903, 50.83362
533.9724, 50.29456
534.4545, 50.19414
534.9366, 51.09943
535.4188, 51.85747
535.9009, 52.20021
536.3830, 52.13507
536.8651, 51.93865
537.3472, 51.55336
537.8293, 51.15364
538.3115, 50.83439
538.7936, 50.59290
539.2757, 50.50192
539.7578, 50.59040
540.2399, 50.76141
540.7220, 50.91593
541.2042, 51.04736
541.6863, 51.11864
542.1684, 51.06188
542.6505, 51.00730
543.1326, 51.20692
543.6147, 51.59046
544.0969, 51.89537
544.5790, 51.92739
545.0611, 51.83601
545.5432, 51.72771
546.0253, 51.61143
546.5074, 51.49166
546.9896, 51.51795
547.4717, 51.45886
547.9538, 51.11469
548.4359, 49.90675
548.9180, 49.16371
549.4001, 49.26427
549.8823, 49.79782
550.3644, 50.07319
550.8465, 49.97498
551.3286, 49.84340
551.8107, 49.78010
552.2928, 49.75976
552.7750, 49.53817
553.2571, 49.04919
553.7392, 48.67717
554.2213, 48.72522
554.7034, 49.12797
555.1855, 49.56176
555.6677, 50.03170
556.1498, 50.37833
556.6319, 50.45192
557.1140, 50.27402
557.5961, 49.85171
558.0782, 49.04382
558.5604, 48.23254
559.0425, 47.59332
559.5246, 47.18901
560.0067, 47.17102
560.4888, 48.03672
560.9709, 48.90907
561.4531, 49.43077
561.9352, 49.58788
562.4173, 49.48331
562.8994, 48.72886
563.3815, 48.04451
563.8636, 47.82652
564.3458, 48.34227
564.8279, 48.60378
565.3100, 48.55268
565.7921, 48.32556
566.2742, 47.97232
566.7563, 47.42859
567.2385, 47.45189
567.7206, 48.44944
568.2027, 49.79847
568.6848, 49.93517
569.1669, 49.01927
569.6490, 48.22560
570.1312, 48.29811
570.6133, 48.81444
571.0954, 49.28532
571.5775, 49.68889
572.0596, 49.81814
572.5417, 49.22032
573.0239, 48.48089
573.5060, 48.13632
573.9881, 48.39286
574.4702, 48.72585
574.9523, 49.13667
575.4344, 49.48428
575.9166, 49.58051
576.3987, 48.97071
576.8808, 48.72342
577.3629, 49.18690
577.8450, 50.06845
578.3271, 50.34914
578.8093, 49.82415
579.2914, 49.29768
579.7735, 49.03859
580.2556, 49.05147
580.7377, 49.52303
581.2198, 50.50606
581.7020, 51.33688
582.1841, 51.37189
582.6662, 50.84612
583.1483, 50.20361
583.6304, 49.43790
584.1125, 48.97417
584.5947, 49.47710
585.0768, 50.45086
585.5589, 51.17137
586.0410, 51.35361
586.5231, 51.28047
587.0052, 50.90065
587.4873, 50.34220
587.9694, 49.95410
588.4515, 49.87853
588.9337, 49.90163
