##NAMES=Enargite
##RRUFFID=R050435
##IDEAL CHEMISTRY=Cu_3_AsS_4_
##LOCALITY=Longfellow mine, Red Mountain Pass, Ouray, Colorado, USA
##OWNER=RRUFF
##SOURCE=University of Arizona Mineral Museum
##DESCRIPTION=Grayish black prismatic crystals
##STATUS=The identification of this mineral has been confirmed by X-ray diffraction and chemical analysis
##URL=rruff.info/R050435
##MEASURED CHEMISTRY=Cu_2.97_As_0.95_Sb_0.02_S_4_
92.35352, 13.28810
92.83563, 13.01478
93.31775, 12.89870
93.79987, 12.94436
94.28198, 13.14797
94.76410, 13.53214
95.24622, 14.17713
95.72833, 14.92503
96.21045, 15.42028
96.69257, 15.65695
97.17468, 15.78423
97.65680, 15.83084
98.13892, 15.80237
98.62103, 16.05005
99.10315, 16.82251
99.58527, 17.99014
100.0674, 18.53111
100.5495, 18.26804
101.0316, 17.75744
101.5137, 17.66971
101.9958, 18.07682
102.4780, 18.64544
102.9601, 19.23185
103.4422, 19.78301
103.9243, 20.72756
104.4064, 22.22274
104.8885, 24.01548
105.3707, 25.66638
105.8528, 26.97230
106.3349, 28.40450
106.8170, 30.21353
107.2991, 33.04932
107.7813, 35.01207
108.2634, 35.61396
108.7455, 35.27769
109.2276, 35.40152
109.7097, 36.35265
110.1918, 37.50264
110.6740, 38.59312
111.1561, 39.67329
111.6382, 40.63141
112.1203, 41.26883
112.6024, 41.68710
113.0845, 42.46981
113.5667, 43.76619
114.0488, 45.41948
114.5309, 47.34161
115.0130, 49.67364
115.4951, 52.10670
115.9772, 54.68235
116.4594, 57.40891
116.9415, 59.87406
117.4236, 61.88208
117.9057, 63.56745
118.3878, 65.06784
118.8699, 66.07907
119.3521, 67.19585
119.8342, 68.80531
120.3163, 70.95740
120.7984, 73.31005
121.2805, 75.63247
121.7626, 78.01579
122.2448, 80.61580
122.7269, 84.68322
123.2090, 88.43345
123.6911, 89.79997
124.1732, 88.18748
124.6553, 85.77347
125.1375, 83.98907
125.6196, 82.91511
126.1017, 82.80709
126.5838, 84.32334
127.0659, 86.83653
127.5480, 89.28565
128.0302, 91.59988
128.5123, 93.66588
128.9944, 95.19444
129.4765, 96.23388
129.9586, 97.23586
130.4407, 98.63267
130.9229, 100.2968
131.4050, 101.6833
131.8871, 102.5531
132.3692, 103.1721
132.8513, 104.0374
133.3334, 104.9772
133.8156, 105.7739
134.2977, 106.8712
134.7798, 108.6024
135.2619, 109.8364
135.7440, 110.0367
136.2261, 109.5612
136.7083, 108.7322
137.1904, 112.5011
137.6725, 115.1024
138.1546, 116.5794
138.6367, 114.6510
139.1188, 116.2889
139.6010, 115.9894
140.0831, 115.2627
140.5652, 116.3654
141.0473, 113.0659
141.5294, 113.4083
142.0115, 112.7316
142.4937, 115.5236
142.9758, 117.6954
143.4579, 117.8352
143.9400, 115.2630
144.4221, 114.0205
144.9042, 114.5778
145.3864, 116.1586
145.8685, 117.5033
146.3506, 118.9425
146.8327, 119.7247
147.3148, 118.0986
147.7969, 119.9226
148.2791, 120.9898
148.7612, 121.3405
149.2433, 118.8456
149.7254, 120.0122
150.2075, 119.7035
150.6896, 119.3288
151.1718, 120.9945
151.6539, 118.8844
152.1360, 120.5063
152.6181, 120.6305
153.1002, 121.4319
153.5823, 120.7489
154.0645, 120.5171
154.5466, 121.7586
155.0287, 122.1755
155.5108, 121.2997
155.9929, 122.1105
156.4750, 119.8920
156.9572, 120.3211
157.4393, 121.8893
157.9214, 121.0595
158.4035, 121.8690
158.8856, 122.0463
159.3677, 119.3708
159.8499, 121.6411
160.3320, 121.7644
160.8141, 119.6833
161.2962, 121.7670
161.7783, 119.9777
162.2604, 119.5631
162.7426, 120.1817
163.2247, 119.7117
163.7068, 120.9434
164.1889, 120.5245
164.6710, 119.9531
165.1531, 120.0173
165.6353, 118.4067
166.1174, 117.1674
166.5995, 116.3686
167.0816, 116.7571
167.5637, 117.1720
168.0458, 116.6709
168.5280, 115.2503
169.0101, 114.0024
169.4922, 113.7836
169.9743, 114.1457
170.4564, 114.4672
170.9385, 114.8615
171.4207, 114.8905
171.9028, 113.9304
172.3849, 111.9193
172.8670, 109.9060
173.3491, 108.6339
173.8312, 107.9230
174.3134, 107.4285
174.7955, 107.0332
175.2776, 106.7566
175.7597, 106.7596
176.2418, 107.1076
176.7239, 107.2566
177.2061, 106.4251
177.6882, 104.9442
178.1703, 103.7301
178.6524, 103.3379
179.1345, 103.4545
179.6166, 103.6730
180.0988, 104.0285
180.5809, 104.1873
181.0630, 103.4746
181.5451, 102.1270
182.0272, 101.1253
182.5093, 101.3475
182.9915, 102.2648
183.4736, 102.4583
183.9557, 101.6755
184.4378, 100.7426
184.9199, 100.9182
185.4020, 102.0542
185.8842, 103.1289
186.3663, 103.6435
186.8484, 103.6507
187.3305, 103.2333
187.8126, 102.2979
188.2947, 101.1946
188.7769, 100.4768
189.2590, 100.1310
189.7411, 99.87577
190.2232, 99.36655
190.7053, 98.72282
191.1874, 98.83980
191.6696, 100.0216
192.1517, 101.5500
192.6338, 101.9394
193.1159, 101.1473
193.5980, 100.3763
194.0801, 100.5518
194.5623, 101.5766
195.0444, 101.9913
195.5265, 101.5064
196.0086, 100.5732
196.4907, 100.1372
196.9728, 100.2351
197.4550, 100.5103
197.9371, 100.8337
198.4192, 101.2094
198.9013, 101.3463
199.3834, 101.1278
199.8655, 100.7506
200.3477, 100.6925
200.8298, 100.9876
201.3119, 101.4569
201.7940, 102.1459
202.2761, 103.1180
202.7582, 103.5478
203.2404, 103.1994
203.7225, 102.3882
204.2046, 102.0022
204.6867, 102.1241
205.1688, 102.3891
205.6509, 102.4953
206.1331, 102.3555
206.6152, 102.6677
207.0973, 103.6259
207.5794, 105.0043
208.0615, 106.1452
208.5436, 107.0599
209.0258, 107.7122
209.5079, 108.0102
209.9900, 107.8661
210.4721, 107.7942
210.9542, 107.8966
211.4363, 108.0769
211.9185, 107.9745
212.4006, 107.4751
212.8827, 106.9345
213.3648, 106.5216
213.8469, 106.1599
214.3290, 106.2136
214.8112, 106.8769
215.2933, 107.9365
215.7754, 108.6663
216.2575, 109.0327
216.7396, 109.1321
217.2217, 108.9170
217.7038, 108.1463
218.1860, 107.8211
218.6681, 108.1347
219.1502, 108.9222
219.6323, 109.5936
220.1144, 110.1191
220.5965, 110.5721
221.0787, 110.9244
221.5608, 110.9850
222.0429, 111.5151
222.5250, 112.8377
223.0071, 114.6357
223.4892, 115.6017
223.9714, 115.2348
224.4535, 114.8426
224.9356, 115.1923
225.4177, 116.6934
225.8998, 117.9423
226.3819, 118.8106
226.8641, 119.3919
227.3462, 119.9437
227.8283, 120.3370
228.3104, 120.8935
228.7925, 121.8104
229.2746, 123.3313
229.7568, 124.6670
230.2389, 125.6504
230.7210, 126.4626
231.2031, 127.7032
231.6852, 129.7052
232.1673, 131.6379
232.6495, 133.0027
233.1316, 133.2932
233.6137, 134.1712
234.0958, 135.8764
234.5779, 138.1392
235.0600, 140.1748
235.5422, 141.8824
236.0243, 143.5439
236.5064, 145.3017
236.9885, 147.2584
237.4706, 149.0605
237.9527, 150.5221
238.4349, 151.8578
238.9170, 153.5935
239.3991, 155.8380
239.8812, 158.3206
240.3633, 161.0132
240.8454, 164.2147
241.3276, 166.8376
241.8097, 168.5240
242.2918, 169.7301
242.7739, 171.4357
243.2560, 173.8011
243.7381, 176.4230
244.2203, 179.2431
244.7024, 182.5280
245.1845, 185.2013
245.6666, 186.8357
246.1487, 188.0591
246.6308, 190.2491
247.1130, 194.2948
247.5951, 197.8535
248.0772, 199.8811
248.5593, 199.7624
249.0414, 200.4172
249.5235, 202.0674
250.0057, 204.3481
250.4878, 206.6537
250.9699, 208.7243
251.4520, 211.3101
251.9341, 214.8340
252.4162, 219.6783
252.8984, 223.6044
253.3805, 226.2476
253.8626, 228.2736
254.3447, 230.5852
254.8268, 233.3449
255.3089, 236.1167
255.7911, 238.6554
256.2732, 240.8789
256.7553, 243.7227
257.2374, 247.5429
257.7195, 251.6474
258.2017, 255.2647
258.6838, 258.5238
259.1659, 261.0721
259.6480, 262.8001
260.1301, 263.6816
260.6122, 264.1863
261.0944, 264.5193
261.5765, 264.2165
262.0586, 262.6922
262.5407, 259.6393
263.0228, 256.2482
263.5049, 252.8369
263.9871, 249.3590
264.4692, 245.3844
264.9513, 240.8312
265.4334, 235.8624
265.9155, 230.4732
266.3976, 224.6756
266.8798, 218.7168
267.3619, 212.5705
267.8440, 206.2654
268.3261, 200.4515
268.8082, 195.1089
269.2903, 190.3157
269.7725, 186.4135
270.2546, 183.7686
270.7367, 180.4903
271.2188, 176.0877
271.7009, 170.9317
272.1830, 166.4546
272.6652, 162.7343
273.1473, 159.5714
273.6294, 156.9898
274.1115, 155.1531
274.5936, 152.8412
275.0757, 149.7415
275.5579, 146.2007
276.0400, 143.3361
276.5221, 141.2543
277.0042, 139.4144
277.4863, 137.5338
277.9684, 135.6090
278.4506, 133.6498
278.9327, 131.5840
279.4148, 129.5766
279.8969, 128.0094
280.3790, 126.9211
280.8611, 126.0057
281.3433, 125.0731
281.8254, 124.1230
282.3075, 123.5171
282.7896, 123.3639
283.2717, 123.3317
283.7538, 122.7900
284.2360, 121.7141
284.7181, 120.7880
285.2002, 120.3487
285.6823, 120.3523
286.1644, 120.4059
286.6465, 120.5043
287.1287, 120.6668
287.6108, 120.9762
288.0929, 121.4193
288.5750, 121.7680
289.0571, 121.9256
289.5392, 121.9202
290.0214, 121.7893
290.5035, 121.5053
290.9856, 121.3216
291.4677, 121.6004
291.9498, 122.2681
292.4319, 122.8432
292.9141, 123.0943
293.3962, 123.2111
293.8783, 123.6305
294.3604, 124.3543
294.8425, 125.2614
295.3246, 126.4765
295.8068, 127.8428
296.2889, 128.7429
296.7710, 128.7948
297.2531, 128.6093
297.7352, 129.2829
298.2173, 130.7329
298.6995, 132.2932
299.1816, 133.4746
299.6637, 134.4115
300.1458, 135.2757
300.6279, 135.9629
301.1100, 136.9002
301.5922, 138.9510
302.0743, 141.8308
302.5564, 144.3845
303.0385, 145.7339
303.5206, 146.4100
304.0027, 147.1969
304.4849, 148.2070
304.9670, 149.2344
305.4491, 150.0538
305.9312, 150.7273
306.4133, 151.4040
306.8954, 152.1758
307.3776, 152.9826
307.8597, 153.7610
308.3418, 154.5167
308.8239, 155.2367
309.3060, 155.7242
309.7881, 156.2080
310.2703, 157.0305
310.7524, 158.7288
311.2345, 160.5346
311.7166, 161.4628
312.1987, 161.5727
312.6808, 162.6391
313.1630, 166.2285
313.6451, 171.1005
314.1272, 175.9550
314.6093, 180.2343
315.0914, 184.4570
315.5735, 188.4107
316.0557, 192.2955
316.5378, 197.1807
317.0199, 203.8489
317.5020, 211.4688
317.9841, 219.5835
318.4662, 228.1220
318.9484, 236.8495
319.4305, 245.9301
319.9126, 255.1602
320.3947, 264.0045
320.8768, 271.8197
321.3589, 279.5816
321.8411, 287.8182
322.3232, 296.6472
322.8053, 305.6115
323.2874, 314.8180
323.7695, 324.0663
324.2516, 333.0403
324.7338, 341.1098
325.2159, 349.4298
325.6980, 358.2943
326.1801, 367.7381
326.6622, 377.7758
327.1443, 388.0943
327.6265, 399.1971
328.1086, 411.6457
328.5907, 425.6212
329.0728, 440.5865
329.5549, 456.3764
330.0370, 473.0626
330.5192, 491.0390
331.0013, 511.2728
331.4834, 532.1070
331.9655, 552.5295
332.4476, 571.5670
332.9297, 592.0903
333.4119, 615.3533
333.8940, 640.3285
334.3761, 662.4395
334.8582, 681.7730
335.3403, 697.3865
335.8224, 708.9764
336.3046, 717.1954
336.7867, 719.5133
337.2688, 716.1143
337.7509, 706.6716
338.2330, 689.9967
338.7151, 665.4862
339.1973, 635.9352
339.6794, 601.2165
340.1615, 561.4258
340.6436, 520.7112
341.1257, 478.8893
341.6078, 437.4825
342.0899, 397.7323
342.5721, 360.1711
343.0542, 326.1036
343.5363, 296.3825
344.0184, 270.8097
344.5005, 248.1106
344.9826, 228.5462
345.4648, 211.2881
345.9469, 195.8999
346.4290, 182.2371
346.9111, 170.9517
347.3932, 162.5004
347.8753, 155.8295
348.3575, 149.1263
348.8396, 142.4742
349.3217, 136.5247
349.8038, 131.7781
350.2859, 128.1141
350.7680, 125.3643
351.2502, 123.6186
351.7323, 122.3572
352.2144, 120.9181
352.6965, 119.4492
353.1786, 118.4410
353.6607, 118.5166
354.1429, 119.0128
354.6250, 119.0064
355.1071, 118.4415
355.5892, 118.0102
356.0713, 118.2354
356.5534, 118.9424
357.0356, 119.8703
357.5177, 120.7660
357.9998, 121.9892
358.4819, 123.7724
358.9640, 126.0961
359.4461, 128.8282
359.9283, 131.8513
360.4104, 135.2777
360.8925, 139.2595
361.3746, 144.1595
361.8567, 149.0443
362.3388, 153.0715
362.8210, 156.7734
363.3031, 161.4499
363.7852, 168.0935
364.2673, 175.3259
364.7494, 182.6686
365.2315, 190.2477
365.7137, 197.3011
366.1958, 203.3049
366.6779, 208.7616
367.1600, 214.3166
367.6421, 220.2254
368.1242, 226.0451
368.6064, 232.1004
369.0885, 238.4783
369.5706, 243.1609
370.0527, 245.8279
370.5348, 247.0871
371.0169, 247.2540
371.4991, 245.4707
371.9812, 244.0425
372.4633, 243.0893
372.9454, 242.5973
373.4275, 242.4422
373.9096, 242.2804
374.3918, 243.0573
374.8739, 245.0975
375.3560, 248.3457
375.8381, 253.2839
376.3202, 260.2447
376.8023, 268.3816
377.2845, 276.8873
377.7666, 286.0440
378.2487, 293.7068
378.7308, 299.2885
379.2129, 302.7725
379.6950, 303.6517
380.1772, 302.0202
380.6593, 297.3331
381.1414, 288.3939
381.6235, 275.5626
382.1056, 261.1643
382.5877, 245.2544
383.0699, 228.7598
383.5520, 213.1895
384.0341, 198.4351
384.5162, 184.8398
384.9983, 172.5484
385.4804, 161.4468
385.9626, 151.1808
386.4447, 141.7183
386.9268, 133.0717
387.4089, 125.1833
387.8910, 118.0809
388.3731, 112.0142
388.8553, 107.0844
389.3374, 103.2170
389.8195, 100.8325
390.3016, 99.86130
390.7837, 98.81850
391.2658, 96.55596
391.7480, 93.86170
392.2301, 91.54586
392.7122, 89.86491
393.1943, 88.55585
393.6764, 87.68418
394.1585, 87.12315
394.6407, 86.52742
395.1228, 85.62228
395.6049, 84.77204
396.0870, 84.21915
396.5691, 84.16026
397.0512, 83.85582
397.5334, 82.89708
398.0155, 81.69985
398.4976, 80.79697
398.9797, 80.27128
399.4618, 80.00307
399.9439, 80.11916
400.4261, 80.61523
400.9082, 80.76854
401.3903, 80.29549
401.8724, 79.74667
402.3545, 79.49419
402.8366, 79.75838
403.3188, 79.84555
403.8009, 79.71086
404.2830, 79.37981
404.7651, 78.88522
405.2472, 78.17807
405.7293, 77.46152
406.2115, 76.79652
406.6936, 76.18723
407.1757, 75.67589
407.6578, 75.24998
408.1399, 74.95537
408.6220, 74.97761
409.1042, 75.30369
409.5863, 75.30164
410.0684, 74.71367
410.5505, 73.76313
411.0326, 72.88473
411.5147, 72.07756
411.9969, 71.41163
412.4790, 71.05858
412.9611, 70.86779
413.4432, 70.44370
413.9253, 69.67706
414.4074, 68.88074
414.8896, 68.37395
415.3717, 68.09454
415.8538, 67.90233
416.3359, 67.83791
416.8180, 67.76356
417.3001, 67.48479
417.7823, 67.00648
418.2644, 66.65456
418.7465, 66.68165
419.2286, 66.88734
419.7107, 67.08805
420.1928, 67.33984
420.6750, 67.43932
421.1571, 67.19630
421.6392, 66.73229
422.1213, 66.36937
422.6034, 66.35107
423.0855, 66.31665
423.5677, 66.04465
424.0498, 65.36089
424.5319, 65.02180
425.0140, 65.27198
425.4961, 65.80541
425.9782, 66.32425
426.4604, 66.91210
426.9425, 67.36315
427.4246, 67.61394
427.9067, 67.69369
428.3888, 67.78619
428.8709, 67.89647
429.3531, 68.01057
429.8352, 68.11669
430.3173, 68.20490
430.7994, 68.33769
431.2815, 68.54081
431.7636, 68.74763
432.2458, 68.85483
432.7279, 68.86057
433.2100, 68.76914
433.6921, 68.46909
434.1742, 68.08845
434.6563, 68.18801
435.1385, 68.78281
435.6206, 69.41843
436.1027, 69.82170
436.5848, 69.96672
437.0669, 69.70568
437.5490, 68.87457
438.0312, 67.97379
438.5133, 67.55001
438.9954, 67.51157
439.4775, 67.60285
439.9596, 67.85806
440.4417, 68.08095
440.9239, 68.09046
441.4060, 67.87680
441.8881, 67.54568
442.3702, 67.15263
442.8523, 66.67780
443.3344, 66.09169
443.8166, 65.14048
444.2987, 64.36557
444.7808, 64.00298
445.2629, 63.95129
445.7450, 63.91428
446.2271, 63.83882
446.7093, 63.76177
447.1914, 63.70496
447.6735, 63.68966
448.1556, 63.61943
448.6377, 63.43694
449.1198, 63.23839
449.6020, 63.13019
450.0841, 63.18260
450.5662, 63.17912
451.0483, 63.06056
451.5304, 62.86259
452.0125, 62.78680
452.4947, 62.90935
452.9768, 62.91742
453.4589, 62.49635
453.9410, 61.62386
454.4231, 61.28197
454.9052, 61.58153
455.3874, 62.09977
455.8695, 62.31208
456.3516, 62.25167
456.8337, 62.16154
457.3158, 62.12855
457.7979, 62.10405
458.2801, 61.97681
458.7622, 61.76271
459.2443, 61.56721
459.7264, 61.48414
460.2085, 61.45721
460.6906, 61.38090
461.1728, 61.20509
461.6549, 61.14928
462.1370, 61.65979
462.6191, 62.33105
463.1012, 62.55433
463.5833, 61.60705
464.0655, 60.62749
464.5476, 60.13633
465.0297, 60.09858
465.5118, 60.11113
465.9939, 60.06178
466.4760, 60.03897
466.9582, 60.09568
467.4403, 60.29701
467.9224, 60.46981
468.4045, 60.64227
468.8866, 60.77036
469.3687, 60.79851
469.8509, 60.75418
470.3330, 60.54335
470.8151, 60.03600
471.2972, 59.29225
471.7793, 58.98649
472.2614, 59.23009
472.7436, 59.60223
473.2257, 59.86116
473.7078, 60.00810
474.1899, 59.94982
474.6720, 59.63441
475.1541, 59.23679
475.6363, 59.04692
476.1184, 59.02774
476.6005, 58.93809
477.0826, 58.59864
477.5647, 58.18028
478.0468, 57.89397
478.5290, 57.75161
479.0111, 57.86220
479.4932, 58.74601
479.9753, 59.73553
480.4574, 59.91627
480.9395, 58.87175
481.4217, 57.85861
481.9038, 57.74890
482.3859, 58.14885
482.8680, 58.48571
483.3501, 58.62698
483.8322, 58.61804
484.3144, 58.36537
484.7965, 57.90081
485.2786, 57.62547
485.7607, 57.58405
486.2428, 57.76404
486.7249, 58.23383
487.2071, 59.48161
487.6892, 59.92841
488.1713, 59.19936
488.6534, 57.93272
489.1355, 57.00048
489.6176, 56.41261
490.0998, 56.14729
490.5819, 56.27880
491.0640, 56.71914
491.5461, 57.01197
492.0282, 57.14536
492.5103, 57.24098
492.9925, 57.48257
493.4746, 57.79097
493.9567, 57.64338
494.4388, 56.92183
494.9209, 56.16851
495.4030, 56.05554
495.8852, 56.39418
496.3673, 56.72282
496.8494, 57.03853
497.3315, 57.10265
497.8136, 56.41969
498.2957, 55.19295
498.7779, 54.28951
499.2600, 54.29932
499.7421, 54.69037
500.2242, 55.19553
500.7063, 55.88143
501.1884, 56.23516
501.6706, 55.74172
502.1527, 55.00106
502.6348, 54.62659
503.1169, 55.19291
503.5990, 55.53404
504.0811, 55.41176
504.5633, 54.96279
505.0454, 54.68236
505.5275, 54.60339
506.0096, 54.65083
506.4917, 54.87585
506.9738, 55.32399
507.4560, 55.32792
507.9381, 54.74062
508.4202, 54.10435
508.9023, 54.10096
509.3844, 54.68111
509.8665, 54.95232
510.3487, 54.66901
510.8308, 54.15217
511.3129, 53.89394
511.7950, 53.86716
512.2772, 53.94441
512.7593, 54.18921
513.2414, 54.43169
513.7235, 54.38688
514.2056, 54.06817
514.6877, 53.85432
515.1699, 54.09050
515.6520, 54.48838
516.1341, 54.78344
516.6162, 54.89177
517.0983, 54.94379
517.5804, 54.93795
518.0626, 54.91218
518.5447, 54.92905
519.0268, 54.88061
519.5089, 55.00920
519.9910, 55.52285
520.4731, 56.37373
520.9553, 56.75175
521.4374, 56.47211
521.9195, 55.99254
522.4016, 55.50595
522.8837, 54.96944
523.3658, 54.70105
523.8480, 54.75727
524.3301, 54.96904
524.8122, 55.14381
525.2943, 55.28077
525.7764, 55.36050
526.2585, 55.36255
526.7407, 55.32262
527.2228, 55.28981
527.7049, 55.26763
528.1870, 55.27591
528.6691, 55.36052
529.1512, 55.46437
529.6334, 55.50667
530.1155, 55.47924
530.5976, 55.47030
531.0797, 55.65609
531.5618, 55.82697
532.0439, 55.75703
532.5261, 55.09570
533.0082, 54.61070
533.4903, 54.57676
533.9724, 54.83921
534.4545, 55.06913
534.9366, 55.33420
535.4188, 55.45191
535.9009, 55.35941
536.3830, 55.06083
536.8651, 54.68590
537.3472, 54.15826
537.8293, 53.70758
538.3115, 53.51104
538.7936, 53.58550
539.2757, 53.69594
539.7578, 53.84523
540.2399, 53.98981
540.7220, 54.05661
541.2042, 54.05936
541.6863, 54.08277
542.1684, 54.15961
542.6505, 54.26187
543.1326, 54.46068
543.6147, 54.68324
544.0969, 54.65078
544.5790, 53.88878
545.0611, 53.00993
545.5432, 52.53510
546.0253, 52.52171
546.5074, 52.61563
546.9896, 52.87917
547.4717, 53.06974
547.9538, 52.98484
548.4359, 52.27727
548.9180, 51.72010
549.4001, 51.35149
549.8823, 51.17034
550.3644, 51.19273
550.8465, 51.50132
551.3286, 51.87456
551.8107, 52.34064
552.2928, 52.84684
552.7750, 52.97435
553.2571, 52.68987
553.7392, 52.20263
554.2213, 51.43695
554.7034, 50.51791
555.1855, 50.23056
555.6677, 50.66925
556.1498, 51.31015
556.6319, 51.77279
557.1140, 52.00804
557.5961, 51.85053
558.0782, 51.00109
558.5604, 50.16998
559.0425, 49.98029
559.5246, 50.24845
560.0067, 50.57232
560.4888, 51.02281
560.9709, 51.27681
561.4531, 50.97111
561.9352, 50.10510
562.4173, 49.75137
562.8994, 50.61766
563.3815, 51.57577
563.8636, 52.06625
564.3458, 51.92835
564.8279, 51.71268
565.3100, 51.30944
565.7921, 50.96410
566.2742, 51.05938
566.7563, 51.64820
567.2385, 52.16894
567.7206, 52.51247
568.2027, 52.70456
568.6848, 52.81386
569.1669, 52.82971
569.6490, 52.65491
570.1312, 52.03927
570.6133, 51.28967
571.0954, 50.84640
571.5775, 50.70604
572.0596, 50.73669
572.5417, 51.02417
573.0239, 51.34147
573.5060, 51.43797
573.9881, 51.11455
574.4702, 51.00393
574.9523, 51.62260
575.4344, 52.43899
575.9166, 52.77061
576.3987, 52.06984
576.8808, 51.56043
577.3629, 51.42622
577.8450, 51.56788
578.3271, 51.63116
578.8093, 51.53932
579.2914, 51.60099
579.7735, 52.02802
580.2556, 52.74538
580.7377, 53.22430
581.2198, 53.45469
581.7020, 53.51234
582.1841, 53.38323
582.6662, 53.13604
583.1483, 52.93830
583.6304, 52.82286
584.1125, 52.71318
584.5947, 52.49858
585.0768, 52.25910
585.5589, 52.11138
586.0410, 52.09649
586.5231, 52.18139
587.0052, 52.38512
587.4873, 52.68313
587.9694, 53.00327
588.4515, 53.28796
