##NAMES=Enargite
##RRUFFID=R050442
##IDEAL CHEMISTRY=Cu_3_AsS_4_
##LOCALITY=Butte, Silver Bow County, Montana, USA
##OWNER=RRUFF
##SOURCE=University of Arizona Mineral Museum
##DESCRIPTION=Black prismatic crystals associated with pyrite
##STATUS=The identification of this mineral has been confirmed by X-ray diffraction and chemical analysis
##URL=rruff.info/R050442
##MEASURED CHEMISTRY=Cu_2.98_As_0.97_Sb_0.03_S_4_
93.48767, 123.5409
93.96979, 127.1296
94.45190, 131.0968
94.93402, 135.3562
95.41614, 137.5836
95.89825, 137.8824
96.38037, 137.1641
96.86249, 135.7313
97.34460, 134.5932
97.82672, 134.0664
98.30884, 133.6394
98.79095, 133.3049
99.27307, 132.8457
99.75519, 132.0921
100.2373, 131.3265
100.7194, 130.7001
101.2015, 130.3671
101.6837, 130.5757
102.1658, 130.7991
102.6479, 130.4847
103.1300, 129.5496
103.6121, 128.8077
104.0942, 129.1356
104.5764, 130.0401
105.0585, 130.8106
105.5406, 131.0815
106.0227, 131.0186
106.5048, 131.1138
106.9869, 131.3426
107.4691, 131.7086
107.9512, 132.2747
108.4333, 132.9700
108.9154, 133.6300
109.3975, 134.1624
109.8796, 134.5911
110.3618, 134.7011
110.8439, 134.0509
111.3260, 133.4397
111.8081, 133.2842
112.2902, 133.5962
112.7723, 134.0618
113.2544, 134.2262
113.7366, 133.7750
114.2187, 133.6099
114.7008, 133.9563
115.1829, 134.4476
115.6650, 134.6608
116.1471, 134.4388
116.6293, 134.1031
117.1114, 134.4956
117.5935, 136.0789
118.0756, 137.4062
118.5577, 137.9520
119.0398, 137.9736
119.5220, 138.1075
120.0041, 138.6864
120.4862, 139.5105
120.9683, 140.1125
121.4504, 140.4294
121.9325, 140.6366
122.4147, 140.8143
122.8968, 140.9511
123.3789, 141.1878
123.8610, 141.7419
124.3431, 142.3854
124.8252, 142.8936
125.3074, 143.1685
125.7895, 143.3049
126.2716, 143.5059
126.7537, 143.8292
127.2358, 144.1089
127.7179, 144.3843
128.2001, 144.5771
128.6822, 144.5485
129.1643, 144.1561
129.6464, 143.4518
130.1285, 143.1202
130.6107, 143.7504
131.0928, 144.2125
131.5749, 144.0347
132.0570, 143.4396
132.5391, 142.9791
133.0212, 143.1735
133.5033, 144.1683
133.9855, 144.8482
134.4676, 145.0098
134.9497, 145.0926
135.4318, 145.3553
135.9139, 145.8153
136.3960, 146.3060
136.8782, 146.6203
137.3603, 146.7066
137.8424, 146.8997
138.3245, 147.3697
138.8066, 147.8970
139.2887, 148.1713
139.7709, 148.0762
140.2530, 147.9121
140.7351, 148.2099
141.2172, 148.9279
141.6993, 149.3189
142.1814, 148.7961
142.6636, 147.6208
143.1457, 146.7455
143.6278, 146.3887
144.1099, 146.4225
144.5920, 146.7954
145.0741, 147.4897
145.5563, 148.1469
146.0384, 148.3519
146.5205, 148.0222
147.0026, 147.9473
147.4847, 148.5626
147.9668, 149.2867
148.4490, 149.9257
148.9311, 150.4049
149.4132, 150.5955
149.8953, 150.1861
150.3774, 148.6042
150.8595, 147.6095
151.3417, 147.4553
151.8238, 147.7506
152.3059, 148.2686
152.7880, 148.9058
153.2701, 149.6045
153.7522, 150.2124
154.2344, 150.9453
154.7165, 151.2890
155.1986, 150.7839
155.6807, 149.9961
156.1628, 149.6946
156.6449, 150.2977
157.1271, 151.5367
157.6092, 152.3094
158.0913, 152.5269
158.5734, 152.5013
159.0555, 152.1549
159.5376, 151.6039
160.0198, 151.1234
160.5019, 150.8160
160.9840, 150.7481
161.4661, 151.0311
161.9482, 151.9610
162.4303, 152.9167
162.9125, 153.4639
163.3946, 153.6167
163.8767, 153.6808
164.3588, 153.7920
164.8409, 153.9376
165.3230, 154.0912
165.8052, 154.2198
166.2873, 154.3810
166.7694, 154.7735
167.2515, 155.5788
167.7336, 155.9805
168.2157, 155.0677
168.6979, 153.6817
169.1800, 152.8361
169.6621, 153.0998
170.1442, 154.0788
170.6263, 154.6776
171.1084, 154.7674
171.5906, 154.6319
172.0727, 154.0718
172.5548, 153.4350
173.0369, 153.2593
173.5190, 153.9740
174.0011, 155.4234
174.4833, 156.2907
174.9654, 156.1173
175.4475, 155.7460
175.9296, 155.1813
176.4117, 154.5498
176.8938, 154.0190
177.3760, 153.7130
177.8581, 153.6346
178.3402, 153.6942
178.8223, 153.9023
179.3044, 154.2171
179.7865, 154.8051
180.2687, 155.5300
180.7508, 156.0088
181.2329, 155.8614
181.7150, 155.0059
182.1971, 154.5525
182.6792, 154.7512
183.1614, 155.0792
183.6435, 155.1618
184.1256, 155.0157
184.6077, 155.0257
185.0898, 155.6087
185.5719, 156.8084
186.0541, 157.7254
186.5362, 158.2833
187.0183, 158.5818
187.5004, 158.5955
187.9825, 158.3020
188.4646, 158.0612
188.9468, 158.2877
189.4289, 158.8724
189.9110, 159.3950
190.3931, 159.6843
190.8752, 159.8801
191.3573, 160.2086
191.8395, 160.7135
192.3216, 161.2770
192.8037, 161.8806
193.2858, 162.4798
193.7679, 162.9542
194.2500, 163.2714
194.7322, 163.4243
195.2143, 163.3814
195.6964, 163.0880
196.1785, 162.6612
196.6606, 161.7633
197.1427, 160.7643
197.6249, 160.5326
198.1070, 162.1294
198.5891, 165.2738
199.0712, 167.0656
199.5533, 166.4637
200.0354, 165.5258
200.5176, 164.7390
200.9997, 164.2298
201.4818, 164.1669
201.9639, 164.7949
202.4460, 166.1380
202.9281, 167.1678
203.4103, 167.6973
203.8924, 168.0483
204.3745, 168.1118
204.8566, 168.0421
205.3387, 168.1764
205.8208, 168.8678
206.3030, 170.2267
206.7851, 171.1234
207.2672, 171.3927
207.7493, 171.4204
208.2314, 171.1894
208.7135, 170.8070
209.1957, 170.5031
209.6778, 170.4914
210.1599, 170.8095
210.6420, 171.1608
211.1241, 171.6748
211.6062, 172.1029
212.0884, 172.1911
212.5705, 172.0103
213.0526, 171.9328
213.5347, 172.3205
214.0168, 173.2457
214.4989, 174.0081
214.9811, 174.6891
215.4632, 175.1673
215.9453, 175.2237
216.4274, 174.8947
216.9095, 174.6136
217.3916, 174.7901
217.8737, 175.4415
218.3559, 175.9299
218.8380, 176.1589
219.3201, 176.2826
219.8022, 176.3392
220.2843, 176.3332
220.7664, 176.5253
221.2486, 177.2249
221.7307, 178.3338
222.2128, 179.3798
222.6949, 180.3917
223.1770, 181.2635
223.6591, 181.8542
224.1413, 182.1460
224.6234, 182.2611
225.1055, 182.0666
225.5876, 181.7652
226.0697, 181.7569
226.5518, 182.2044
227.0340, 182.9696
227.5161, 183.8992
227.9982, 185.0365
228.4803, 186.1865
228.9624, 187.3518
229.4445, 188.4302
229.9267, 189.2303
230.4088, 189.4871
230.8909, 189.5785
231.3730, 190.3135
231.8551, 191.9926
232.3372, 193.5529
232.8194, 194.4312
233.3015, 195.0020
233.7836, 195.6831
234.2657, 196.6401
234.7478, 197.8152
235.2299, 199.1238
235.7121, 200.7302
236.1942, 202.1396
236.6763, 203.1163
237.1584, 203.8937
237.6405, 204.6382
238.1227, 205.3808
238.6048, 206.2974
239.0869, 207.8879
239.5690, 210.6180
240.0511, 213.2470
240.5332, 215.6366
241.0154, 217.7835
241.4975, 219.5661
241.9796, 220.9258
242.4617, 222.1002
242.9438, 223.6945
243.4259, 226.1418
243.9081, 228.3453
244.3902, 229.9238
244.8723, 231.3452
245.3544, 233.0186
245.8365, 235.1149
246.3186, 237.5509
246.8008, 240.2081
247.2829, 243.6395
247.7650, 246.4269
248.2471, 247.9472
248.7292, 249.1280
249.2113, 250.8381
249.6935, 253.3683
250.1756, 256.3702
250.6577, 259.1921
251.1398, 262.0066
251.6219, 264.2899
252.1040, 265.3578
252.5862, 266.2646
253.0683, 268.0687
253.5504, 271.0340
254.0325, 274.5086
254.5146, 277.4424
254.9967, 279.5984
255.4789, 281.5223
255.9610, 282.7785
256.4431, 284.0440
256.9252, 286.1025
257.4073, 289.0944
257.8894, 292.2628
258.3716, 294.5770
258.8537, 295.6010
259.3358, 296.8098
259.8179, 298.4015
260.3000, 300.0654
260.7821, 301.5371
261.2643, 302.7739
261.7464, 303.8944
262.2285, 305.0549
262.7106, 306.3008
263.1927, 307.2793
263.6748, 307.8282
264.1570, 308.2015
264.6391, 308.7423
265.1212, 309.4552
265.6033, 309.8355
266.0854, 309.3843
266.5675, 308.0197
267.0497, 306.4078
267.5318, 304.4725
268.0139, 302.3623
268.4960, 300.0292
268.9781, 297.5118
269.4602, 295.2861
269.9424, 293.8761
270.4245, 293.1417
270.9066, 291.9242
271.3887, 289.8550
271.8708, 287.5513
272.3529, 285.2550
272.8351, 283.0144
273.3172, 281.3721
273.7993, 280.9680
274.2814, 281.3561
274.7635, 281.0207
275.2456, 279.5557
275.7278, 277.7907
276.2099, 276.2242
276.6920, 274.8451
277.1741, 273.5612
277.6562, 272.3397
278.1383, 271.1989
278.6205, 270.1434
279.1026, 269.1337
279.5847, 268.2693
280.0668, 267.7113
280.5489, 267.3986
281.0310, 267.0114
281.5132, 266.5286
281.9953, 265.7973
282.4774, 264.6252
282.9595, 262.9516
283.4416, 261.2108
283.9237, 259.6132
284.4059, 258.1530
284.8880, 256.7609
285.3701, 255.3227
285.8522, 254.1184
286.3343, 253.4327
286.8164, 253.2413
287.2986, 253.2288
287.7807, 253.3262
288.2628, 253.4840
288.7449, 253.5154
289.2270, 253.3205
289.7091, 253.1336
290.1913, 253.2486
290.6734, 253.5635
291.1555, 253.6932
291.6376, 253.1833
292.1197, 252.3858
292.6018, 252.2400
293.0840, 253.0692
293.5661, 253.8828
294.0482, 254.0081
294.5303, 253.6665
295.0124, 253.2015
295.4945, 252.6163
295.9767, 252.0548
296.4588, 251.8049
296.9409, 251.9323
297.4230, 252.1490
297.9051, 252.3503
298.3872, 252.5421
298.8694, 252.6970
299.3515, 252.7272
299.8336, 252.8578
300.3157, 253.5008
300.7978, 254.7733
301.2799, 255.8674
301.7621, 256.1524
302.2442, 256.2875
302.7263, 256.8800
303.2084, 258.0756
303.6905, 259.5156
304.1726, 260.8199
304.6548, 261.9721
305.1369, 263.3359
305.6190, 265.2242
306.1011, 267.1875
306.5832, 268.7975
307.0653, 270.0432
307.5475, 271.3687
308.0296, 273.1302
308.5117, 275.3018
308.9938, 277.6566
309.4759, 280.3716
309.9580, 283.0147
310.4402, 284.9597
310.9223, 286.4757
311.4044, 288.5919
311.8865, 292.1834
312.3686, 296.9515
312.8507, 301.6351
313.3329, 306.0542
313.8150, 310.6858
314.2971, 315.6202
314.7792, 320.9538
315.2613, 326.9393
315.7434, 333.8312
316.2256, 341.3863
316.7077, 348.9505
317.1898, 356.2832
317.6719, 364.5221
318.1540, 374.5894
318.6361, 385.6503
319.1183, 396.8910
319.6004, 408.1237
320.0825, 419.4731
320.5646, 431.2328
321.0467, 443.4918
321.5288, 455.6017
322.0110, 467.7586
322.4931, 479.4054
322.9752, 489.8535
323.4573, 498.9356
323.9394, 507.5665
324.4215, 516.3966
324.9037, 525.3781
325.3858, 534.8212
325.8679, 544.8708
326.3500, 555.3336
326.8321, 566.0679
327.3142, 577.0712
327.7964, 588.2473
328.2785, 599.5879
328.7606, 611.0591
329.2427, 622.5726
329.7248, 634.0052
330.2069, 645.6641
330.6891, 658.2742
331.1712, 671.2235
331.6533, 683.1981
332.1354, 693.1244
332.6175, 701.9520
333.0996, 711.8097
333.5818, 723.2559
334.0639, 734.0728
334.5460, 743.4141
335.0281, 751.3791
335.5102, 757.8804
335.9923, 763.0090
336.4745, 766.4929
336.9566, 768.3461
337.4387, 768.6268
337.9208, 766.2438
338.4029, 761.0133
338.8850, 752.4362
339.3671, 740.3983
339.8492, 724.8262
340.3314, 705.8082
340.8135, 682.7548
341.2956, 655.8910
341.7777, 627.6354
342.2598, 597.7672
342.7419, 567.4522
343.2241, 536.5505
343.7062, 505.4804
344.1883, 477.3765
344.6704, 453.8560
345.1525, 434.2846
345.6346, 417.6717
346.1168, 404.4270
346.5989, 392.7048
347.0810, 381.3714
347.5631, 370.7010
348.0452, 361.3406
348.5273, 353.7863
349.0095, 347.3193
349.4916, 341.0927
349.9737, 335.1189
350.4558, 329.9487
350.9379, 326.2019
351.4200, 323.2913
351.9022, 320.1316
352.3843, 316.4825
352.8664, 313.1656
353.3485, 310.8045
353.8306, 309.2597
354.3127, 308.0706
354.7949, 307.2968
355.2770, 306.5170
355.7591, 304.9975
356.2412, 302.7485
356.7233, 300.9090
357.2054, 300.0812
357.6876, 299.8527
358.1697, 299.5952
358.6518, 299.2239
359.1339, 298.8537
359.6160, 298.4770
360.0981, 298.1616
360.5803, 298.2756
361.0624, 299.2318
361.5445, 300.3593
362.0266, 301.0673
362.5087, 301.4010
362.9908, 301.7595
363.4730, 302.3078
363.9551, 303.0805
364.4372, 304.1786
364.9193, 305.9204
365.4014, 307.4297
365.8835, 308.0121
366.3657, 308.1328
366.8478, 308.7676
367.3299, 310.2689
367.8120, 312.2448
368.2941, 314.1222
368.7762, 315.8539
369.2584, 317.6873
369.7405, 319.9012
370.2226, 322.0811
370.7047, 323.5447
371.1868, 324.3008
371.6689, 325.4001
372.1511, 327.9402
372.6332, 332.0099
373.1153, 335.2670
373.5974, 337.2226
374.0795, 338.9669
374.5616, 340.8859
375.0438, 343.0163
375.5259, 345.3973
376.0080, 348.0460
376.4901, 350.9297
376.9722, 353.9319
377.4543, 357.2501
377.9365, 360.4197
378.4186, 363.4256
378.9007, 366.2459
379.3828, 368.8784
379.8649, 371.3120
380.3470, 373.4406
380.8292, 375.0782
381.3113, 376.0099
381.7934, 377.0833
382.2755, 378.2395
382.7576, 379.5670
383.2397, 381.3194
383.7219, 383.3353
384.2040, 385.0602
384.6861, 385.9841
385.1682, 386.1935
385.6503, 387.0281
386.1324, 389.4127
386.6146, 391.4171
387.0967, 392.5779
387.5788, 393.2038
388.0609, 393.6451
388.5430, 394.0513
389.0251, 394.4858
389.5073, 395.0428
389.9894, 395.5612
390.4715, 396.5810
390.9536, 398.6912
391.4357, 400.7988
391.9178, 402.3828
392.4000, 403.2961
392.8821, 403.4754
393.3642, 402.5600
393.8463, 400.4844
394.3284, 399.5325
394.8105, 401.3415
395.2927, 402.3644
395.7748, 401.2936
396.2569, 398.6847
396.7390, 395.4808
397.2211, 392.1105
397.7032, 388.4991
398.1854, 384.5289
398.6675, 380.2079
399.1496, 375.4546
399.6317, 369.2301
400.1138, 363.1553
400.5959, 358.7362
401.0781, 356.2049
401.5602, 354.0906
402.0423, 350.8757
402.5244, 346.7198
403.0065, 343.3534
403.4886, 341.1680
403.9708, 339.5884
404.4529, 338.3657
404.9350, 337.3818
405.4171, 336.2805
405.8992, 334.5697
406.3813, 332.8337
406.8635, 332.1337
407.3456, 332.5779
407.8277, 333.0870
408.3098, 333.4407
408.7919, 333.3522
409.2740, 332.2673
409.7562, 329.7092
410.2383, 327.3272
410.7204, 326.4228
411.2025, 326.4965
411.6846, 325.9858
412.1667, 324.3552
412.6489, 322.4509
413.1310, 321.3504
413.6131, 321.0145
414.0952, 320.6824
414.5773, 320.1722
415.0594, 319.6459
415.5416, 319.2170
416.0237, 318.9026
416.5058, 318.8209
416.9879, 319.2257
417.4700, 319.8694
417.9521, 319.4048
418.4343, 316.4877
418.9164, 314.2607
419.3985, 314.1298
419.8806, 315.0417
420.3627, 315.4441
420.8448, 314.8409
421.3270, 313.7874
421.8091, 313.1028
422.2912, 312.9626
422.7733, 312.7152
423.2554, 312.0832
423.7375, 311.5905
424.2197, 311.7825
424.7018, 312.4401
425.1839, 312.8373
425.6660, 312.4345
426.1481, 311.3416
426.6302, 310.2664
427.1124, 308.8000
427.5945, 307.9132
428.0766, 308.1060
428.5587, 308.7317
429.0408, 309.2165
429.5229, 309.3654
430.0051, 309.2286
430.4872, 308.7303
430.9693, 307.6411
431.4514, 307.1638
431.9335, 308.1429
432.4156, 309.0316
432.8978, 309.1408
433.3799, 308.6463
433.8620, 308.0771
434.3441, 307.7003
434.8262, 307.5250
435.3083, 307.7222
435.7905, 308.6123
436.2726, 308.9764
436.7547, 307.7943
437.2368, 306.1926
437.7189, 305.1447
438.2010, 304.8441
438.6832, 304.8670
439.1653, 304.8480
439.6474, 304.8342
440.1295, 305.2048
440.6116, 306.3289
441.0938, 307.2336
441.5759, 306.6031
442.0580, 304.9869
442.5401, 304.1243
443.0222, 305.2064
443.5043, 306.7689
443.9865, 307.2427
444.4686, 306.7392
444.9507, 306.3439
445.4328, 306.5748
445.9149, 307.2147
446.3970, 307.8094
446.8792, 308.4371
447.3613, 308.8298
447.8434, 308.6770
448.3255, 308.3599
448.8076, 308.3832
449.2897, 308.8214
449.7719, 309.3721
450.2540, 309.7828
450.7361, 310.0542
451.2182, 310.0948
451.7003, 309.6814
452.1824, 309.3199
452.6646, 308.9853
453.1467, 308.8698
453.6288, 309.5170
454.1109, 311.1701
454.5930, 313.0109
455.0751, 313.2739
455.5573, 310.4336
456.0394, 309.0143
456.5215, 309.8347
457.0036, 311.1288
457.4857, 312.1493
457.9678, 312.7127
458.4500, 312.7274
458.9321, 311.9865
459.4142, 310.6840
459.8963, 309.9955
460.3784, 310.2729
460.8605, 310.5565
461.3427, 310.6759
461.8248, 310.6354
462.3069, 310.3065
462.7890, 309.6604
463.2711, 309.1882
463.7532, 309.5517
464.2354, 310.6823
464.7175, 311.5965
465.1996, 312.2449
465.6817, 312.5512
466.1638, 312.4106
466.6459, 311.9144
467.1281, 311.2483
467.6102, 310.2587
468.0923, 309.3189
468.5744, 308.8753
469.0565, 308.8902
469.5386, 309.0787
470.0208, 309.4636
470.5029, 309.7901
470.9850, 309.4698
471.4671, 308.3412
471.9492, 307.5775
472.4313, 307.9775
472.9135, 308.5919
473.3956, 308.1638
473.8777, 306.7060
474.3598, 305.4654
474.8419, 305.4743
475.3240, 306.5674
475.8062, 307.0905
476.2883, 306.8724
476.7704, 306.3913
477.2525, 305.3489
477.7346, 304.2678
478.2167, 303.8799
478.6989, 304.3321
479.1810, 305.0236
479.6631, 305.1411
480.1452, 304.4926
480.6273, 304.2503
481.1094, 304.7416
481.5916, 305.3065
482.0737, 305.8279
482.5558, 306.2560
483.0379, 306.4831
483.5200, 306.4197
484.0021, 306.3271
484.4843, 306.8736
484.9664, 308.3376
485.4485, 309.1384
485.9306, 308.1878
486.4127, 307.1458
486.8948, 307.2905
487.3770, 308.4554
487.8591, 309.4424
488.3412, 309.3633
488.8233, 308.7144
489.3054, 308.4906
489.7875, 308.7455
490.2697, 308.9781
490.7518, 308.8972
491.2339, 308.6559
491.7160, 308.5453
492.1981, 308.5458
492.6802, 308.7349
493.1624, 309.3375
493.6445, 310.0780
494.1266, 310.5214
494.6087, 310.5991
495.0908, 310.5663
495.5729, 310.6901
496.0551, 310.9593
496.5372, 310.7861
497.0193, 309.4616
497.5014, 308.5840
497.9835, 308.9421
498.4656, 309.9362
498.9478, 310.7808
499.4299, 311.2011
499.9120, 311.3119
500.3941, 311.2506
500.8762, 310.9658
501.3583, 310.7079
501.8405, 310.4103
502.3226, 310.2076
502.8047, 310.1281
503.2868, 310.1845
503.7689, 310.4135
504.2510, 310.8510
504.7331, 311.3969
505.2152, 311.8890
505.6974, 312.3341
506.1795, 312.6920
506.6616, 312.9308
507.1437, 313.0952
507.6258, 313.1673
508.1079, 313.1791
508.5901, 313.2855
509.0722, 313.5855
509.5543, 314.0126
510.0364, 314.5422
510.5185, 315.1686
511.0006, 315.6116
511.4828, 315.6225
511.9649, 315.4751
512.4470, 315.8265
512.9291, 316.8988
513.4113, 317.6339
513.8934, 317.1132
514.3755, 316.5111
514.8576, 317.4953
515.3397, 319.9335
515.8218, 321.7973
516.3040, 321.4073
516.7861, 319.2147
517.2682, 318.4970
517.7503, 320.9545
518.2324, 322.7894
518.7145, 323.2954
519.1967, 323.2590
519.6788, 323.3600
520.1609, 323.7531
520.6430, 324.2733
521.1251, 324.7442
521.6072, 325.1745
522.0894, 325.7831
522.5715, 326.7093
523.0536, 327.5968
523.5357, 328.5092
524.0178, 329.2413
524.4999, 329.4864
524.9821, 329.1373
525.4642, 328.6196
525.9463, 328.1100
526.4284, 327.7145
526.9105, 328.0543
527.3926, 329.4619
527.8748, 330.8624
528.3569, 331.2737
528.8390, 330.9798
529.3211, 330.9858
529.8032, 331.9323
530.2853, 332.5792
530.7675, 331.7590
531.2496, 330.2436
531.7317, 329.7832
532.2138, 330.9020
532.6959, 332.2031
533.1780, 331.8226
533.6602, 329.2835
534.1423, 328.0551
534.6244, 329.1616
535.1065, 330.2323
535.5886, 330.4609
536.0707, 330.0470
536.5529, 329.2500
537.0350, 328.1968
537.5171, 327.1806
537.9992, 326.7233
538.4813, 326.9303
538.9634, 327.1798
539.4456, 327.8591
539.9277, 328.1002
540.4098, 327.2680
540.8919, 325.7576
541.3740, 324.3307
541.8561, 323.2408
542.3383, 322.4467
542.8204, 322.1013
543.3025, 322.1280
543.7846, 321.7086
544.2667, 320.4390
544.7488, 319.0684
545.2310, 318.5993
545.7131, 318.9075
546.1952, 318.8010
546.6773, 317.7835
547.1594, 316.5977
547.6415, 315.7429
548.1237, 315.1068
548.6058, 314.3401
549.0879, 313.3038
549.5700, 312.1505
550.0521, 311.1268
550.5342, 310.2592
551.0164, 309.4655
551.4985, 308.9789
551.9806, 308.3268
552.4627, 307.0148
552.9448, 305.4296
553.4269, 304.3420
553.9091, 304.1427
554.3912, 304.3323
554.8733, 304.0559
555.3554, 303.2587
555.8375, 302.3189
556.3196, 300.9638
556.8018, 299.8573
557.2839, 299.5897
557.7660, 299.8840
558.2481, 299.9534
558.7302, 299.3491
559.2123, 298.6079
559.6945, 298.3460
560.1766, 298.4479
560.6587, 298.3318
561.1408, 297.7437
561.6229, 297.1635
562.1050, 297.3389
562.5872, 298.4760
563.0693, 298.7420
563.5514, 297.5406
564.0335, 296.0434
564.5156, 294.4825
564.9977, 293.1305
565.4799, 292.4909
565.9620, 292.7536
566.4441, 293.4187
566.9262, 293.6889
567.4083, 293.4486
567.8904, 293.2771
568.3726, 293.1340
568.8547, 293.1087
569.3368, 293.3828
569.8189, 293.7569
570.3010, 293.8848
570.7831, 293.6111
571.2653, 293.2121
571.7474, 292.9439
572.2295, 292.8161
572.7116, 292.9507
573.1937, 293.4751
573.6758, 293.9951
574.1580, 294.1435
574.6401, 294.0056
575.1222, 293.9113
575.6043, 293.7325
576.0864, 293.7845
576.5685, 294.3225
577.0507, 295.1666
577.5328, 296.0970
578.0149, 297.0402
578.4970, 297.8483
578.9791, 298.3636
579.4612, 298.5819
579.9434, 298.6191
580.4255, 297.7732
580.9076, 297.5893
581.3897, 298.9258
581.8718, 300.7703
582.3539, 301.9378
582.8361, 302.2067
583.3182, 302.3604
583.8003, 303.2401
584.2824, 304.7386
584.7645, 306.0679
585.2466, 307.2405
585.7288, 308.2005
586.2108, 308.7053
586.6929, 309.0782
587.1750, 309.8095
587.6572, 311.0159
588.1393, 312.2105
588.6214, 313.1685
589.1035, 313.9885
589.5856, 314.7842
