##NAMES=Enargite
##RRUFFID=R050435
##IDEAL CHEMISTRY=Cu_3_AsS_4_
##LOCALITY=Longfellow mine, Red Mountain Pass, Ouray, Colorado, USA
##OWNER=RRUFF
##SOURCE=University of Arizona Mineral Museum
##DESCRIPTION=Grayish black prismatic crystals
##STATUS=The identification of this mineral has been confirmed by X-ray diffraction and chemical analysis
##URL=rruff.info/R050435
##MEASURED CHEMISTRY=Cu_2.97_As_0.95_Sb_0.02_S_4_
93.48767, 77.55992
93.96979, 78.15701
94.45190, 79.67893
94.93402, 82.60976
95.41614, 84.71492
95.89825, 85.38269
96.38037, 84.88769
96.86249, 83.58852
97.34460, 82.62066
97.82672, 82.12593
98.30884, 81.85149
98.79095, 82.06202
99.27307, 82.37176
99.75519, 82.08395
100.2373, 80.89510
100.7194, 79.15544
101.2015, 78.23829
101.6837, 78.64921
102.1658, 79.35024
102.6479, 79.55807
103.1300, 79.22542
103.6121, 78.80487
104.0942, 78.63620
104.5764, 78.59836
105.0585, 78.52371
105.5406, 78.37786
106.0227, 78.14851
106.5048, 77.76517
106.9869, 77.01529
107.4691, 76.36848
107.9512, 76.15353
108.4333, 76.22499
108.9154, 76.22234
109.3975, 75.77652
109.8796, 74.78194
110.3618, 74.01798
110.8439, 73.83175
111.3260, 73.58337
111.8081, 72.88322
112.2902, 71.74664
112.7723, 70.52547
113.2545, 69.71791
113.7366, 69.55056
114.2187, 69.43803
114.7008, 69.43202
115.1829, 69.44903
115.6650, 69.40013
116.1472, 69.25227
116.6293, 69.06181
117.1114, 68.95879
117.5935, 68.91663
118.0756, 68.98203
118.5577, 69.24500
119.0399, 69.63092
119.5220, 69.95158
120.0041, 70.08098
120.4862, 70.12837
120.9683, 70.33877
121.4504, 70.78550
121.9326, 71.26543
122.4147, 71.62065
122.8968, 71.84428
123.3789, 72.02150
123.8610, 72.14860
124.3431, 72.26454
124.8252, 72.41106
125.3074, 72.61117
125.7895, 72.83580
126.2716, 73.01425
126.7537, 73.08855
127.2358, 73.22202
127.7179, 73.62212
128.2001, 74.07100
128.6822, 74.24573
129.1643, 73.88212
129.6464, 73.04762
130.1285, 72.62756
130.6107, 73.25011
131.0928, 73.71150
131.5749, 73.62896
132.0570, 73.13480
132.5391, 72.57127
133.0212, 72.22936
133.5034, 72.12887
133.9855, 72.16823
134.4676, 72.50050
134.9497, 72.82148
135.4318, 72.90201
135.9139, 72.74489
136.3961, 72.58061
136.8782, 72.66486
137.3603, 73.04245
137.8424, 73.52431
138.3245, 74.36726
138.8066, 75.20674
139.2888, 75.51781
139.7709, 75.10088
140.2530, 74.48134
140.7351, 74.28942
141.2172, 74.47285
141.6993, 74.83105
142.1815, 75.48708
142.6636, 76.30125
143.1457, 76.72978
143.6278, 76.46410
144.1099, 75.96525
144.5920, 75.60465
145.0742, 75.39341
145.5563, 75.28360
146.0384, 75.13920
146.5205, 74.90390
147.0026, 75.11516
147.4847, 76.47388
147.9669, 77.92687
148.4490, 79.01016
148.9311, 79.59428
149.4132, 79.69559
149.8953, 79.20332
150.3774, 77.52645
150.8596, 76.48692
151.3417, 76.36342
151.8238, 76.71971
152.3059, 77.32622
152.7880, 78.07201
153.2701, 78.84752
153.7523, 79.36292
154.2344, 79.18377
154.7165, 79.22252
155.1986, 79.73293
155.6807, 80.41966
156.1628, 80.88995
156.6449, 80.93328
157.1271, 80.66915
157.6092, 80.58318
158.0913, 80.93113
158.5734, 81.14015
159.0555, 80.90173
159.5376, 80.37688
160.0198, 79.99525
160.5019, 80.01834
160.9840, 80.36317
161.4661, 80.64827
161.9482, 80.89983
162.4303, 81.07219
162.9125, 81.11491
163.3946, 81.03185
163.8767, 80.90067
164.3588, 80.71525
164.8409, 80.52682
165.3230, 80.42647
165.8052, 80.48146
166.2873, 80.58375
166.7694, 80.64981
167.2515, 80.74118
167.7336, 80.57285
168.2157, 79.67133
168.6979, 78.53283
169.1800, 77.74760
169.6621, 77.61983
170.1442, 77.96762
170.6263, 78.33334
171.1084, 78.93285
171.5906, 79.16261
172.0727, 78.72093
172.5548, 77.87604
173.0369, 76.96043
173.5190, 76.12816
174.0011, 75.40739
174.4833, 75.04494
174.9654, 75.69707
175.4475, 76.06237
175.9296, 75.62440
176.4117, 74.69972
176.8938, 73.88566
177.3760, 73.64262
177.8581, 73.98783
178.3402, 74.24216
178.8223, 74.41498
179.3044, 74.50242
179.7865, 74.44888
180.2687, 74.29500
180.7508, 74.16219
181.2329, 74.17916
181.7150, 74.37241
182.1971, 74.27394
182.6792, 73.71658
183.1614, 73.05628
183.6435, 72.30547
184.1256, 71.54060
184.6077, 71.17168
185.0898, 71.73836
185.5719, 73.30267
186.0541, 74.21575
186.5362, 74.01489
187.0183, 73.39401
187.5004, 72.95886
187.9825, 72.77596
188.4646, 72.66335
188.9468, 72.45152
189.4289, 72.16890
189.9110, 71.92949
190.3931, 71.77251
190.8752, 71.67000
191.3573, 71.53654
191.8395, 71.30319
192.3216, 71.22646
192.8037, 71.73921
193.2858, 72.57744
193.7679, 73.11520
194.2500, 72.75095
194.7322, 71.83574
195.2143, 71.61505
195.6964, 72.71852
196.1785, 73.55732
196.6606, 72.86086
197.1427, 71.26039
197.6249, 70.17529
198.1070, 70.90633
198.5891, 73.19441
199.0712, 74.36208
199.5533, 73.41069
200.0354, 72.35132
200.5176, 71.93634
200.9997, 72.02746
201.4818, 72.21690
201.9639, 72.16246
202.4460, 71.85178
202.9281, 71.77620
203.4103, 72.19872
203.8924, 72.63323
204.3745, 73.01814
204.8566, 73.30489
205.3387, 73.40419
205.8208, 73.19932
206.3030, 72.62822
206.7851, 72.33852
207.2672, 72.48608
207.7493, 72.73282
208.2314, 73.05206
208.7135, 73.37672
209.1957, 73.55647
209.6778, 73.41636
210.1599, 72.87334
210.6420, 72.69547
211.1241, 73.16833
211.6062, 73.68054
212.0884, 73.87386
212.5705, 73.77472
213.0526, 73.67155
213.5347, 73.82994
214.0168, 74.29008
214.4989, 74.67738
214.9811, 75.02980
215.4632, 75.29037
215.9453, 75.41856
216.4274, 75.41365
216.9095, 75.28481
217.3916, 74.95507
217.8738, 74.44341
218.3559, 74.30559
218.8380, 74.91640
219.3201, 75.66862
219.8022, 76.02924
220.2843, 75.95891
220.7665, 75.76881
221.2486, 75.72063
221.7307, 75.75969
222.2128, 75.65544
222.6949, 75.05165
223.1770, 74.45641
223.6592, 74.57586
224.1413, 75.52789
224.6234, 76.49250
225.1055, 76.85881
225.5876, 76.81502
226.0697, 76.64146
226.5519, 76.21836
227.0340, 75.80266
227.5161, 75.81850
227.9982, 76.35811
228.4803, 77.01335
228.9624, 77.66055
229.4446, 78.24855
229.9267, 78.69235
230.4088, 78.91789
230.8909, 79.01196
231.3730, 79.09978
231.8551, 79.11894
232.3373, 79.30062
232.8194, 79.82030
233.3015, 80.51620
233.7836, 81.23559
234.2657, 81.94945
234.7478, 82.59824
235.2300, 83.00652
235.7121, 83.00525
236.1942, 83.10896
236.6763, 83.63428
237.1584, 84.26231
237.6405, 84.56963
238.1227, 84.31679
238.6048, 83.86574
239.0869, 84.17861
239.5690, 85.71613
240.0511, 87.25890
240.5332, 88.67143
241.0154, 89.92931
241.4975, 90.94197
241.9796, 91.66717
242.4617, 92.24603
242.9438, 93.02755
243.4259, 94.16871
243.9081, 95.28448
244.3902, 96.17850
244.8723, 97.09605
245.3544, 98.34972
245.8365, 100.0556
246.3186, 101.9435
246.8008, 103.4047
247.2829, 104.0825
247.7650, 104.8049
248.2471, 105.5444
248.7292, 106.3727
249.2113, 107.4208
249.6935, 108.7175
250.1756, 110.0837
250.6577, 111.1545
251.1398, 111.4410
251.6219, 112.1450
252.1040, 113.4649
252.5862, 115.0671
253.0683, 116.7103
253.5504, 118.3043
254.0325, 119.8441
254.5146, 121.3227
254.9967, 122.7635
255.4789, 124.0576
255.9610, 125.0422
256.4431, 125.9692
256.9252, 127.0943
257.4073, 128.4710
257.8894, 129.9152
258.3716, 131.1764
258.8537, 132.1470
259.3358, 133.2066
259.8179, 134.7459
260.3000, 136.1482
260.7821, 136.7661
261.2643, 136.5164
261.7464, 135.9720
262.2285, 135.7524
262.7106, 135.9526
263.1927, 136.0462
263.6748, 136.1758
264.1570, 136.0990
264.6391, 135.6243
265.1212, 134.7315
265.6033, 133.4636
266.0854, 131.7733
266.5675, 129.6365
267.0497, 127.6729
267.5318, 126.1055
268.0139, 124.5788
268.4960, 122.6618
268.9781, 120.3718
269.4602, 118.3528
269.9424, 117.2710
270.4245, 116.9578
270.9066, 116.0577
271.3887, 114.0525
271.8708, 111.8167
272.3529, 109.9921
272.8351, 108.5633
273.3172, 107.2369
273.7993, 105.7494
274.2814, 104.2770
274.7635, 103.2826
275.2456, 103.1651
275.7278, 103.0984
276.2099, 102.3877
276.6920, 101.1214
277.1741, 100.0364
277.6562, 99.55883
278.1383, 99.44335
278.6205, 99.13174
279.1026, 98.54179
279.5847, 97.92650
280.0668, 97.48311
280.5489, 97.17562
281.0310, 96.78878
281.5132, 96.18645
281.9953, 95.53251
282.4774, 95.07918
282.9595, 94.86101
283.4416, 94.63440
283.9237, 94.14006
284.4059, 93.48232
284.8880, 93.15500
285.3701, 93.48929
285.8522, 93.89832
286.3343, 93.67879
286.8164, 92.86617
287.2986, 92.15215
287.7807, 91.97316
288.2628, 92.19077
288.7449, 92.37154
289.2270, 92.48120
289.7091, 92.49767
290.1913, 92.28749
290.6734, 91.93983
291.1555, 91.79745
291.6376, 92.25652
292.1197, 93.01266
292.6018, 93.31590
293.0840, 93.01285
293.5661, 92.52887
294.0482, 92.01753
294.5303, 91.54002
295.0124, 91.22519
295.4945, 91.17612
295.9767, 91.29485
296.4588, 91.44132
296.9409, 91.64900
297.4230, 91.76868
297.9051, 91.64988
298.3872, 91.42064
298.8694, 91.17875
299.3515, 90.85091
299.8336, 90.69664
300.3157, 91.19432
300.7978, 92.48183
301.2799, 93.60671
301.7621, 94.12895
302.2442, 94.35219
302.7263, 94.49715
303.2084, 94.59144
303.6905, 94.67422
304.1726, 94.64729
304.6548, 94.48664
305.1369, 94.84192
305.6190, 96.33101
306.1011, 98.04347
306.5832, 99.30005
307.0653, 100.0576
307.5475, 100.6076
308.0296, 101.0130
308.5117, 101.3135
308.9938, 102.0390
309.4759, 103.5021
309.9580, 105.1388
310.4402, 106.5109
310.9223, 107.6912
311.4044, 108.9840
311.8865, 110.4986
312.3686, 112.2563
312.8507, 114.4196
313.3329, 117.1562
313.8150, 120.0294
314.2971, 122.7887
314.7792, 125.5184
315.2613, 128.3667
315.7434, 131.2764
316.2256, 134.4439
316.7077, 138.2805
317.1898, 142.8540
317.6719, 148.0373
318.1540, 154.0903
318.6361, 160.5889
319.1183, 167.0929
319.6004, 173.4784
320.0825, 179.9053
320.5646, 186.7358
321.0467, 194.0877
321.5288, 201.0912
322.0110, 207.3824
322.4931, 213.2429
322.9752, 218.8086
323.4573, 224.0756
323.9394, 229.1007
324.4215, 233.6884
324.9037, 237.8313
325.3858, 242.6152
325.8679, 248.4718
326.3500, 254.8217
326.8321, 261.3665
327.3142, 268.0559
327.7964, 274.6234
328.2785, 280.7045
328.7606, 286.4550
329.2427, 292.7308
329.7248, 299.7773
330.2069, 306.9981
330.6891, 314.0746
331.1712, 321.0382
331.6533, 328.0010
332.1354, 335.1622
332.6175, 342.2798
333.0996, 348.9035
333.5818, 355.0946
334.0639, 360.6840
334.5460, 365.5028
335.0281, 369.6827
335.5102, 373.3268
335.9923, 376.6049
336.4745, 379.0710
336.9566, 380.6475
337.4387, 381.4205
337.9208, 379.7590
338.4029, 374.6531
338.8850, 366.9294
339.3672, 357.5262
339.8493, 346.4655
340.3314, 333.7671
340.8135, 319.1127
341.2956, 302.6001
341.7777, 285.4508
342.2599, 267.3206
342.7420, 249.4055
343.2241, 232.3232
343.7062, 216.0764
344.1883, 201.2587
344.6704, 188.1187
345.1526, 176.5920
345.6347, 166.7054
346.1168, 158.6895
346.5989, 151.6049
347.0810, 144.9328
347.5631, 138.7576
348.0453, 133.3243
348.5274, 128.7813
349.0095, 124.9327
349.4916, 121.6628
349.9737, 118.9911
350.4558, 116.5501
350.9380, 114.0564
351.4201, 111.8247
351.9022, 110.4010
352.3843, 110.1151
352.8664, 109.8053
353.3485, 108.5937
353.8307, 106.6908
354.3128, 104.9105
354.7949, 103.4386
355.2770, 102.2224
355.7591, 101.2216
356.2412, 100.4288
356.7234, 99.67564
357.2055, 98.79535
357.6876, 97.95061
358.1697, 97.38113
358.6518, 97.11501
359.1339, 97.14799
359.6161, 97.62407
360.0982, 98.45086
360.5803, 99.10302
361.0624, 99.36421
361.5445, 99.54283
362.0266, 99.86520
362.5088, 100.3293
362.9909, 100.8850
363.4730, 101.5492
363.9551, 102.2587
364.4372, 102.8124
364.9193, 102.9987
365.4015, 103.3824
365.8836, 104.4057
366.3657, 105.7666
366.8478, 106.8295
367.3299, 107.3513
367.8120, 107.6328
368.2942, 108.1694
368.7763, 109.0501
369.2584, 109.7715
369.7405, 109.9645
370.2226, 110.1394
370.7047, 110.8699
371.1869, 112.2064
371.6690, 113.7014
372.1511, 115.0440
372.6332, 116.2202
373.1153, 116.8619
373.5974, 116.3444
374.0796, 115.9652
374.5617, 116.4961
375.0438, 117.6801
375.5259, 118.7946
376.0080, 119.4233
376.4901, 119.7404
376.9723, 120.3607
377.4544, 121.5365
377.9365, 122.6804
378.4186, 123.7377
378.9007, 124.7326
379.3828, 125.7581
379.8650, 126.8197
380.3471, 127.7114
380.8292, 128.1480
381.3113, 128.0635
381.7934, 127.6405
382.2755, 126.3813
382.7577, 125.2573
383.2398, 125.1282
383.7219, 125.7146
384.2040, 125.9773
384.6861, 125.0505
385.1682, 123.0241
385.6504, 121.3409
386.1325, 120.4245
386.6146, 119.4032
387.0967, 117.9740
387.5788, 116.4188
388.0609, 115.0572
388.5431, 114.0321
389.0252, 113.3250
389.5073, 112.9667
389.9894, 113.3274
390.4715, 113.2414
390.9536, 112.1890
391.4358, 111.0881
391.9179, 110.6114
392.4000, 110.7502
392.8821, 110.9485
393.3642, 110.6076
393.8463, 109.7011
394.3285, 109.1319
394.8106, 109.2078
395.2927, 109.2767
395.7748, 109.1909
396.2569, 108.9360
396.7390, 108.4850
397.2212, 107.7927
397.7033, 106.9646
398.1854, 106.3275
398.6675, 106.0883
399.1496, 105.3990
399.6317, 103.3584
400.1139, 101.1755
400.5960, 99.85638
401.0781, 99.56191
401.5602, 99.52293
402.0423, 99.02055
402.5244, 98.10753
403.0066, 97.36354
403.4887, 96.90820
403.9708, 96.56570
404.4529, 96.21850
404.9350, 95.87463
405.4171, 95.55623
405.8993, 95.30809
406.3814, 95.07437
406.8635, 94.75028
407.3456, 94.32442
407.8277, 93.90639
408.3098, 93.54200
408.7920, 93.21994
409.2741, 92.90482
409.7562, 92.56254
410.2383, 92.30986
410.7204, 92.32730
411.2025, 92.49690
411.6847, 92.43701
412.1668, 91.99779
412.6489, 91.46083
413.1310, 91.20677
413.6131, 91.22492
414.0952, 91.14605
414.5774, 90.69714
415.0595, 90.26559
415.5416, 90.26582
416.0237, 90.67899
416.5058, 91.19010
416.9879, 91.68040
417.4701, 92.06931
417.9522, 91.92588
418.4343, 90.56209
418.9164, 89.57951
419.3985, 89.72499
419.8806, 90.42319
420.3628, 90.78224
420.8449, 90.52000
421.3270, 90.07721
421.8091, 90.13834
422.2912, 91.01003
422.7733, 91.50121
423.2555, 91.46123
423.7376, 91.20644
424.2197, 90.78865
424.7018, 90.30345
425.1839, 89.96072
425.6660, 89.93377
426.1482, 90.15868
426.6303, 90.19004
427.1124, 89.75414
427.5945, 89.45732
428.0766, 89.45283
428.5587, 89.57964
429.0409, 89.70497
429.5230, 89.77899
430.0051, 89.77744
430.4872, 89.61802
430.9693, 89.21732
431.4514, 89.01226
431.9336, 89.27106
432.4157, 89.50340
432.8978, 89.46773
433.3799, 89.24169
433.8620, 89.04479
434.3441, 89.00134
434.8263, 89.09050
435.3084, 89.33613
435.7905, 89.91815
436.2726, 90.14999
436.7547, 89.32671
437.2368, 88.28322
437.7190, 87.77914
438.2011, 87.97340
438.6832, 88.41643
439.1653, 88.78976
439.6474, 89.09946
440.1295, 89.42004
440.6117, 89.85832
441.0938, 90.11621
441.5759, 89.75229
442.0580, 88.97157
442.5401, 88.40228
443.0222, 88.41727
443.5044, 88.58570
443.9865, 88.38963
444.4686, 87.88393
444.9507, 87.60402
445.4328, 87.89194
445.9149, 88.46661
446.3971, 88.65372
446.8792, 88.31393
447.3613, 88.06561
447.8434, 88.25365
448.3255, 88.54200
448.8076, 88.40507
449.2898, 87.78505
449.7719, 87.23353
450.2540, 87.31539
450.7361, 88.07473
451.2182, 88.54321
451.7003, 88.65910
452.1825, 88.60340
452.6646, 88.22726
453.1467, 87.76999
453.6288, 87.68960
454.1109, 88.18800
454.5930, 88.92013
455.0752, 89.17039
455.5573, 88.53346
456.0394, 88.20319
456.5215, 88.31876
457.0036, 88.56767
457.4857, 88.85303
457.9679, 89.11324
458.4500, 89.21895
458.9321, 88.97694
459.4142, 88.53130
459.8963, 88.84727
460.3784, 90.73247
460.8606, 91.91524
461.3427, 91.50834
461.8248, 90.37196
462.3069, 89.12038
462.7890, 87.91138
463.2711, 87.17328
463.7532, 87.69388
464.2354, 89.35064
464.7175, 90.29665
465.1996, 89.98906
465.6817, 89.47127
466.1638, 89.61909
466.6459, 90.15063
467.1281, 90.32697
467.6102, 89.57256
468.0923, 88.65807
468.5744, 88.47321
469.0565, 88.95547
469.5386, 89.53078
470.0208, 90.07973
470.5029, 90.47074
470.9850, 90.32569
471.4671, 89.48754
471.9492, 89.05898
472.4313, 89.79741
472.9135, 90.80154
473.3956, 90.92195
473.8777, 90.15367
474.3598, 89.56312
474.8419, 90.06252
475.3240, 91.48053
475.8062, 92.09200
476.2883, 91.37752
476.7704, 90.62016
477.2525, 89.91954
477.7346, 89.38161
478.2167, 89.20477
478.6989, 89.40860
479.1810, 89.70139
479.6631, 89.66481
480.1452, 89.15971
480.6273, 89.04545
481.1094, 89.68230
481.5916, 90.34445
482.0737, 90.92988
482.5558, 91.35188
483.0379, 91.46476
483.5200, 91.17059
484.0021, 90.68037
484.4843, 90.35863
484.9664, 90.19332
485.4485, 90.25425
485.9306, 90.77772
486.4127, 91.34911
486.8948, 91.72649
487.3770, 91.90792
487.8591, 91.96222
488.3412, 91.89760
488.8233, 91.74200
489.3054, 91.53161
489.7875, 91.26221
490.2697, 90.99750
490.7518, 90.76704
491.2339, 90.56656
491.7160, 90.34098
492.1981, 90.00450
492.6802, 89.89629
493.1624, 90.41850
493.6445, 91.16348
494.1266, 91.44163
494.6087, 91.14854
495.0908, 90.82325
495.5729, 90.99466
496.0551, 91.65056
496.5372, 91.87302
497.0193, 91.26637
497.5014, 90.75618
497.9835, 90.64333
498.4656, 90.79076
498.9478, 91.02872
499.4299, 91.29137
499.9120, 91.54446
500.3941, 91.73918
500.8762, 91.87538
501.3583, 91.95644
501.8405, 91.98238
502.3226, 91.95219
502.8047, 91.82156
503.2868, 91.64018
503.7689, 91.48078
504.2510, 91.36845
504.7332, 91.33568
505.2153, 91.50377
505.6974, 91.93619
506.1795, 92.17439
506.6616, 92.00909
507.1437, 91.72268
507.6259, 91.43751
508.1080, 91.18996
508.5901, 91.14593
509.0722, 91.64054
509.5543, 92.25862
510.0364, 92.31071
510.5186, 91.80266
511.0007, 91.32851
511.4828, 91.17637
511.9649, 91.21684
512.4470, 91.17828
512.9291, 91.04252
513.4113, 90.90646
513.8934, 90.70541
514.3755, 90.57013
514.8576, 90.80233
515.3397, 91.33253
515.8218, 91.53773
516.3040, 90.85076
516.7861, 89.48396
517.2682, 88.98528
517.7503, 90.36256
518.2324, 91.36510
518.7145, 91.58513
519.1967, 91.47057
519.6788, 91.38747
520.1609, 91.43297
520.6430, 91.58088
521.1251, 91.85154
521.6072, 92.23685
522.0894, 92.38822
522.5715, 92.12733
523.0536, 91.91417
523.5357, 91.92120
524.0178, 92.04750
524.4999, 92.20182
524.9821, 92.36838
525.4642, 92.48560
525.9463, 92.35284
526.4284, 92.08714
526.9105, 92.32322
527.3926, 93.32552
527.8748, 94.29808
528.3569, 94.59937
528.8390, 94.35609
529.3211, 94.00981
529.8032, 93.43169
530.2853, 92.95393
530.7675, 92.73075
531.2496, 92.74191
531.7317, 93.08865
532.2138, 93.80946
532.6959, 94.38827
533.1780, 94.09858
533.6602, 92.69160
534.1423, 91.97768
534.6244, 92.33714
535.1065, 92.85060
535.5886, 93.30885
536.0707, 93.65490
536.5529, 93.81401
537.0350, 93.76067
537.5171, 93.61735
537.9992, 93.57970
538.4813, 93.66947
538.9634, 93.75512
539.4456, 93.85555
539.9277, 93.92318
540.4098, 93.96355
540.8919, 93.95333
541.3740, 93.81613
541.8561, 93.44118
542.3383, 93.10079
542.8204, 93.17174
543.3025, 93.61650
543.7846, 94.11472
544.2667, 94.67371
544.7488, 95.09377
545.2310, 95.04993
545.7131, 94.59982
546.1952, 94.24870
546.6773, 94.08911
547.1594, 94.03540
547.6415, 94.12422
548.1237, 94.27214
548.6058, 94.20430
549.0879, 93.79459
549.5700, 93.39207
550.0521, 93.61714
550.5342, 94.78584
551.0164, 95.61745
551.4985, 96.26180
551.9806, 96.47350
552.4627, 95.73655
552.9448, 94.56111
553.4269, 93.92323
553.9091, 94.31366
554.3912, 95.14917
554.8733, 95.33811
555.3554, 94.73966
555.8375, 94.50204
556.3196, 95.22541
556.8018, 95.80421
557.2839, 95.31252
557.7660, 94.12163
558.2481, 93.28809
558.7302, 93.29912
559.2123, 93.69033
559.6945, 94.12972
560.1766, 94.57710
560.6587, 94.79842
561.1408, 94.66760
561.6229, 94.47980
562.1050, 94.64552
562.5872, 95.24770
563.0693, 95.59322
563.5514, 95.51019
564.0335, 95.33350
564.5156, 95.25367
564.9977, 95.19724
565.4799, 94.95210
565.9620, 94.44220
566.4441, 93.91795
566.9262, 93.79349
567.4083, 94.15903
567.8904, 94.55970
568.3726, 95.24788
568.8547, 95.69724
569.3368, 95.44572
569.8189, 94.90518
570.3010, 94.81815
570.7831, 95.53117
571.2653, 96.37865
571.7474, 96.50685
572.2295, 96.01063
572.7116, 95.64465
573.1937, 95.50570
573.6758, 95.58002
574.1580, 96.05930
574.6401, 96.77770
575.1222, 97.07242
575.6043, 96.27551
576.0864, 95.73150
576.5685, 96.45150
577.0507, 97.76283
577.5328, 98.44479
578.0149, 98.22326
578.4970, 97.88194
578.9791, 98.30547
579.4612, 99.53994
579.9434, 100.3819
580.4255, 100.6511
580.9076, 100.7220
581.3897, 100.5228
581.8718, 100.2321
582.3539, 99.98230
582.8361, 99.82417
583.3182, 99.84181
583.8003, 100.1782
584.2824, 100.7916
584.7645, 101.3671
585.2466, 101.8933
585.7288, 102.4176
586.2109, 102.9953
586.6930, 103.5694
587.1751, 104.0787
587.6572, 104.5503
588.1393, 104.8177
588.6215, 104.4403
589.1036, 103.9990
589.5857, 104.4899
