##NAMES=Enstatite
##RRUFFID=R040093
##IDEAL CHEMISTRY=MgSiO_3_
##LOCALITY=Castle Rock, Pennsylvania, USA
##OWNER=RRUFF
##SOURCE=University of Arizona Mineral Museum
##DESCRIPTION=Dark green massive
##STATUS=The identification of this mineral has been confirmed by X-ray diffraction and chemical analysis
##URL=rruff.info/R040093
##MEASURED CHEMISTRY=(Mg_0.84_Fe_0.15_Al_0.01_)Si_1.00_O_3_
116.2615, 285.0462
116.7436, 317.0164
117.2257, 335.9581
117.7079, 350.2821
118.1900, 375.3052
118.6721, 426.6740
119.1542, 486.0125
119.6363, 539.4923
120.1184, 578.2635
120.6006, 619.7557
121.0827, 675.4895
121.5648, 744.0561
122.0469, 818.5493
122.5290, 898.2845
123.0111, 980.5348
123.4933, 1061.386
123.9754, 1134.659
124.4575, 1208.964
124.9396, 1294.663
125.4217, 1391.100
125.9038, 1494.144
126.3860, 1597.787
126.8681, 1682.911
127.3502, 1742.706
127.8323, 1793.505
128.3144, 1828.398
128.7965, 1829.288
129.2787, 1795.265
129.7608, 1736.169
130.2429, 1656.931
130.7250, 1558.974
131.2071, 1457.231
131.6892, 1352.165
132.1714, 1245.924
132.6535, 1160.433
133.1356, 1098.608
133.6177, 1055.348
134.0998, 1022.275
134.5819, 1000.043
135.0640, 981.4476
135.5462, 958.7607
136.0283, 930.8706
136.5104, 911.4596
136.9925, 902.2361
137.4746, 903.0987
137.9567, 917.5900
138.4389, 950.3600
138.9210, 986.7463
139.4031, 1009.372
139.8852, 1016.115
140.3673, 1018.498
140.8494, 1020.528
141.3316, 1023.446
141.8137, 1019.328
142.2958, 1005.705
142.7779, 987.3294
143.2600, 972.8223
143.7421, 964.3452
144.2243, 956.4105
144.7064, 947.3363
145.1885, 938.6879
145.6706, 926.0276
146.1527, 910.0703
146.6348, 890.4257
147.1170, 864.1255
147.5991, 823.5008
148.0812, 782.9530
148.5633, 750.9711
149.0454, 736.2549
149.5275, 719.0229
150.0097, 696.6427
150.4918, 669.0486
150.9739, 643.7441
151.4560, 621.3565
151.9381, 601.1022
152.4202, 582.1055
152.9024, 560.9427
153.3845, 544.4792
153.8666, 536.3586
154.3487, 539.4893
154.8308, 537.0135
155.3129, 521.2841
155.7950, 500.1701
156.2772, 483.8622
156.7593, 473.7413
157.2414, 469.2132
157.7235, 471.1231
158.2056, 482.4646
158.6877, 492.8581
159.1699, 501.2809
159.6520, 506.9072
160.1341, 507.9082
160.6162, 498.6713
161.0983, 487.8791
161.5804, 480.8492
162.0626, 480.6447
162.5447, 481.6363
163.0268, 482.7056
163.5089, 483.4977
163.9910, 482.5166
164.4731, 475.1541
164.9553, 467.3913
165.4374, 464.5872
165.9195, 472.2527
166.4016, 482.1312
166.8837, 489.1035
167.3658, 493.4496
167.8480, 499.0576
168.3301, 511.0135
168.8122, 525.0585
169.2943, 535.4695
169.7764, 536.9069
170.2585, 535.5671
170.7407, 537.4561
171.2228, 543.1257
171.7049, 547.5346
172.1870, 545.3348
172.6691, 538.9146
173.1512, 533.3601
173.6334, 532.0252
174.1155, 532.4894
174.5976, 530.8470
175.0797, 525.7087
175.5618, 522.5313
176.0439, 528.7120
176.5260, 542.1304
177.0082, 555.0618
177.4903, 562.6940
177.9724, 567.0184
178.4545, 571.6217
178.9366, 577.5792
179.4187, 583.1757
179.9009, 583.6270
180.3830, 580.0209
180.8651, 580.2875
181.3472, 592.1379
181.8293, 612.5324
182.3114, 632.8101
182.7936, 651.6985
183.2757, 669.0947
183.7578, 686.3992
184.2399, 703.4560
184.7220, 717.7568
185.2041, 723.1265
185.6863, 722.1412
186.1684, 727.2037
186.6505, 743.8092
187.1326, 768.4534
187.6147, 793.0765
188.0968, 818.0892
188.5790, 841.2658
189.0611, 860.5821
189.5432, 876.0341
190.0253, 888.9276
190.5074, 899.0975
190.9895, 906.9221
191.4717, 916.1439
191.9538, 927.9279
192.4359, 937.6078
192.9180, 938.7098
193.4001, 931.2120
193.8822, 919.5349
194.3644, 905.6536
194.8465, 889.5123
195.3286, 867.9031
195.8107, 838.4143
196.2928, 807.8716
196.7749, 788.6131
197.2570, 781.3979
197.7392, 778.8190
198.2213, 779.2133
198.7034, 782.8606
199.1855, 781.1652
199.6676, 772.0938
200.1497, 759.0516
200.6319, 750.4905
201.1140, 747.3467
201.5961, 744.5217
202.0782, 738.2300
202.5603, 727.7760
203.0424, 719.6332
203.5246, 715.2987
204.0067, 713.4365
204.4888, 709.5640
204.9709, 703.4830
205.4530, 695.9684
205.9352, 686.9097
206.4173, 675.5866
206.8994, 666.2426
207.3815, 660.0821
207.8636, 656.5386
208.3457, 652.5903
208.8279, 647.9414
209.3100, 643.5088
209.7921, 640.2321
210.2742, 638.4850
210.7563, 636.4372
211.2384, 633.0325
211.7206, 628.5098
212.2027, 627.6192
212.6848, 630.5399
213.1669, 636.8391
213.6490, 646.9476
214.1311, 663.0430
214.6133, 676.9102
215.0954, 686.1311
215.5775, 690.3549
216.0596, 694.9844
216.5417, 698.7817
217.0238, 704.3791
217.5059, 716.5786
217.9881, 740.4339
218.4702, 759.3068
218.9523, 765.9386
219.4344, 756.8563
219.9165, 760.0568
220.3986, 779.7577
220.8808, 808.1182
221.3629, 834.0300
221.8450, 856.5443
222.3271, 878.4952
222.8092, 899.9672
223.2913, 919.0087
223.7735, 945.3387
224.2556, 980.6516
224.7377, 1022.224
225.2198, 1064.648
225.7019, 1109.097
226.1840, 1152.927
226.6662, 1195.750
227.1483, 1237.567
227.6304, 1277.523
228.1125, 1315.530
228.5946, 1352.034
229.0767, 1389.267
229.5589, 1428.034
230.0410, 1465.670
230.5231, 1500.992
231.0052, 1531.577
231.4873, 1565.220
231.9694, 1604.505
232.4516, 1646.706
232.9337, 1687.610
233.4158, 1741.405
233.8979, 1773.565
234.3800, 1766.562
234.8621, 1709.735
235.3443, 1636.076
235.8264, 1540.842
236.3085, 1429.714
236.7906, 1321.307
237.2727, 1213.863
237.7548, 1111.830
238.2369, 1015.809
238.7191, 923.4444
239.2012, 842.9807
239.6833, 776.7943
240.1654, 723.2261
240.6475, 676.4670
241.1296, 635.8443
241.6118, 602.8591
242.0939, 579.0578
242.5760, 568.0723
243.0581, 558.8983
243.5402, 551.2671
244.0223, 544.9741
244.5045, 538.6238
244.9866, 532.5433
245.4687, 526.0027
245.9508, 517.4834
246.4329, 501.8112
246.9150, 495.4687
247.3972, 504.6707
247.8793, 526.2539
248.3614, 537.0074
248.8435, 531.1660
249.3256, 521.6232
249.8077, 517.8997
250.2899, 523.9919
250.7720, 527.0320
251.2541, 523.8877
251.7362, 515.6019
252.2183, 512.2604
252.7004, 517.2938
253.1826, 522.8258
253.6647, 522.4571
254.1468, 512.5074
254.6289, 504.8465
255.1110, 501.7687
255.5931, 502.7487
256.0753, 501.7274
256.5574, 497.7493
257.0395, 493.0615
257.5216, 488.8123
258.0037, 483.1609
258.4858, 482.7835
258.9680, 490.7891
259.4501, 506.1732
259.9322, 515.7842
260.4143, 516.8523
260.8964, 516.3381
261.3785, 520.5967
261.8607, 532.2760
262.3428, 541.3702
262.8249, 545.5399
263.3070, 545.3324
263.7891, 547.1599
264.2712, 551.4449
264.7534, 557.0122
265.2355, 561.8680
265.7176, 564.0828
266.1997, 572.7636
266.6818, 593.3829
267.1639, 623.5746
267.6461, 639.2087
268.1282, 635.3608
268.6103, 626.4178
269.0924, 625.1545
269.5745, 633.4473
270.0566, 642.4101
270.5387, 652.4850
271.0208, 662.4500
271.5030, 661.8731
271.9851, 648.0989
272.4672, 629.8456
272.9493, 614.9878
273.4314, 604.4700
273.9135, 592.0899
274.3957, 576.0179
274.8778, 557.0486
275.3599, 540.5266
275.8420, 527.2906
276.3241, 514.1167
276.8062, 496.6469
277.2884, 473.9207
277.7705, 455.8707
278.2526, 444.7543
278.7347, 439.8360
279.2168, 438.8620
279.6989, 442.8632
280.1811, 446.9141
280.6632, 444.9941
281.1453, 436.7177
281.6274, 433.0785
282.1095, 437.0355
282.5916, 447.0298
283.0738, 457.7719
283.5559, 469.3228
284.0380, 481.2353
284.5201, 491.8554
285.0022, 501.4335
285.4843, 515.4625
285.9665, 537.4776
286.4486, 563.2106
286.9307, 579.1089
287.4128, 584.3568
287.8949, 587.9234
288.3770, 597.8392
288.8592, 613.1329
289.3413, 626.7864
289.8234, 637.4235
290.3055, 645.6556
290.7876, 650.8824
291.2697, 653.1166
291.7519, 658.1110
292.2340, 673.6956
292.7161, 696.8318
293.1982, 714.7787
293.6803, 724.5090
294.1624, 728.8248
294.6446, 731.9907
295.1267, 734.0162
295.6088, 734.8888
296.0909, 734.0580
296.5730, 732.0226
297.0551, 730.8185
297.5373, 732.6592
298.0194, 732.5062
298.5015, 719.9855
298.9836, 697.0567
299.4657, 675.7032
299.9478, 665.9109
300.4300, 663.3494
300.9121, 660.4033
301.3942, 655.2125
301.8763, 650.4186
302.3584, 648.1477
302.8405, 648.6076
303.3227, 652.7012
303.8048, 666.1208
304.2869, 681.7767
304.7690, 689.0280
305.2511, 682.8116
305.7332, 676.3764
306.2154, 681.8782
306.6975, 696.8110
307.1796, 714.1851
307.6617, 731.3488
308.1438, 748.1625
308.6259, 764.8530
309.1081, 781.2654
309.5901, 797.6872
310.0723, 813.0640
310.5544, 828.6647
311.0365, 847.2435
311.5186, 871.8388
312.0007, 899.1722
312.4828, 926.1690
312.9650, 951.9428
313.4471, 980.1076
313.9292, 1015.212
314.4113, 1053.467
314.8934, 1088.625
315.3755, 1118.173
315.8577, 1144.156
316.3398, 1166.333
316.8219, 1184.310
317.3040, 1201.914
317.7861, 1222.645
318.2682, 1243.278
318.7504, 1259.597
319.2325, 1262.432
319.7146, 1267.889
320.1967, 1281.857
320.6788, 1304.990
321.1609, 1334.193
321.6431, 1372.194
322.1252, 1414.509
322.6073, 1456.621
323.0894, 1491.451
323.5715, 1532.132
324.0536, 1581.960
324.5358, 1640.751
325.0179, 1706.473
325.5000, 1784.074
325.9821, 1865.600
326.4642, 1945.574
326.9464, 2017.513
327.4285, 2094.545
327.9106, 2177.272
328.3927, 2265.052
328.8748, 2363.069
329.3569, 2473.920
329.8391, 2591.809
330.3212, 2713.125
330.8033, 2840.463
331.2854, 2967.945
331.7675, 3094.056
332.2496, 3220.042
332.7318, 3345.536
333.2139, 3471.856
333.6960, 3597.647
334.1781, 3723.926
334.6602, 3853.552
335.1423, 3978.086
335.6245, 4099.369
336.1066, 4216.350
336.5887, 4323.801
337.0708, 4428.249
337.5529, 4511.321
338.0350, 4567.028
338.5172, 4599.200
338.9993, 4582.185
339.4814, 4508.134
339.9635, 4391.890
340.4456, 4260.677
340.9277, 4113.350
341.4099, 3950.736
341.8920, 3765.536
342.3741, 3559.651
342.8562, 3359.503
343.3383, 3167.023
343.8204, 2979.630
344.3026, 2784.695
344.7847, 2586.219
345.2668, 2405.088
345.7489, 2255.748
346.2310, 2131.937
346.7131, 2015.157
347.1953, 1905.750
347.6774, 1803.985
348.1595, 1710.302
348.6416, 1626.325
349.1237, 1553.163
349.6058, 1494.880
350.0880, 1446.832
350.5700, 1400.618
351.0522, 1356.507
351.5343, 1315.825
352.0164, 1279.806
352.4985, 1247.983
352.9806, 1219.803
353.4627, 1197.141
353.9449, 1175.669
354.4270, 1149.305
354.9091, 1119.409
355.3912, 1092.166
355.8733, 1074.458
356.3554, 1060.646
356.8376, 1043.689
357.3197, 1019.505
357.8018, 996.8683
358.2839, 984.0597
358.7660, 977.5308
359.2481, 968.1537
359.7303, 949.8678
360.2124, 928.6717
360.6945, 907.7503
361.1766, 887.4211
361.6587, 868.3799
362.1408, 850.1635
362.6230, 833.6946
363.1051, 820.5781
363.5872, 808.7869
364.0693, 802.5933
364.5514, 805.3633
365.0335, 819.1582
365.5157, 831.9444
365.9978, 842.6971
366.4799, 851.1209
366.9620, 856.9156
367.4441, 857.1296
367.9262, 857.5983
368.4084, 858.5624
368.8905, 859.9010
369.3726, 864.4367
369.8547, 873.4974
370.3368, 884.5886
370.8189, 896.0521
371.3011, 908.7500
371.7832, 920.1714
372.2653, 928.8569
372.7474, 935.8581
373.2295, 947.6154
373.7116, 966.7782
374.1938, 985.9479
374.6759, 1001.006
375.1580, 1011.367
375.6401, 1019.680
376.1222, 1026.186
376.6043, 1030.710
377.0865, 1034.771
377.5686, 1039.804
378.0507, 1036.896
378.5328, 1017.623
379.0149, 982.5325
379.4970, 956.0397
379.9792, 940.0241
380.4613, 928.3947
380.9434, 913.6974
381.4255, 895.9561
381.9076, 877.8104
382.3897, 859.1981
382.8719, 841.0018
383.3540, 825.9831
383.8361, 814.0060
384.3182, 805.1417
384.8003, 802.7337
385.2824, 803.5688
385.7646, 798.8729
386.2467, 780.3382
386.7288, 761.0546
387.2109, 759.1225
387.6930, 772.2159
388.1751, 786.3708
388.6573, 793.3196
389.1394, 796.1379
389.6215, 797.3054
390.1036, 795.1257
390.5857, 796.2706
391.0678, 806.9238
391.5499, 824.3062
392.0320, 842.0174
392.5142, 859.7938
392.9963, 874.9023
393.4784, 885.6989
393.9605, 891.5308
394.4426, 894.6630
394.9247, 891.7713
395.4069, 887.8128
395.8890, 889.0422
396.3711, 905.5330
396.8532, 918.7903
397.3353, 923.5352
397.8174, 919.2286
398.2996, 912.0749
398.7817, 899.3446
399.2638, 885.8069
399.7459, 874.7380
400.2280, 865.4027
400.7101, 859.6514
401.1923, 858.6594
401.6744, 861.5408
402.1565, 864.2217
402.6386, 867.0120
403.1207, 869.1240
403.6028, 870.5203
404.0850, 871.9097
404.5671, 869.7076
405.0492, 862.8492
405.5313, 853.4157
406.0134, 844.3760
406.4955, 835.2891
406.9777, 829.7866
407.4598, 831.7424
407.9419, 840.0148
408.4240, 840.2308
408.9061, 830.8627
409.3882, 820.8207
409.8704, 823.1375
410.3525, 835.3427
410.8346, 841.2983
411.3167, 834.5190
411.7988, 819.9705
412.2809, 806.3270
412.7631, 793.4528
413.2452, 781.2019
413.7273, 772.7742
414.2094, 764.2463
414.6915, 748.4476
415.1736, 721.9634
415.6558, 692.6436
416.1379, 666.7933
416.6200, 643.7717
417.1021, 623.0477
417.5842, 602.5824
418.0663, 585.1823
418.5485, 573.8896
419.0306, 569.5864
419.5127, 566.5739
419.9948, 563.5752
420.4769, 560.0480
420.9590, 555.3214
421.4412, 545.8395
421.9233, 538.4900
422.4054, 536.3438
422.8875, 539.2429
423.3696, 540.7542
423.8517, 542.8851
424.3339, 541.4274
424.8160, 533.5670
425.2981, 508.4888
425.7802, 492.9673
426.2623, 491.0773
426.7444, 498.6603
427.2266, 504.8257
427.7087, 509.8604
428.1908, 513.0691
428.6729, 513.3829
429.1550, 509.8980
429.6371, 509.8516
430.1193, 513.8083
430.6014, 520.2991
431.0835, 528.1746
431.5656, 537.6624
432.0477, 545.9627
432.5298, 552.3723
433.0119, 556.9581
433.4940, 559.2811
433.9762, 559.1968
434.4583, 559.2969
434.9404, 560.7018
435.4225, 563.8817
435.9046, 571.8538
436.3867, 587.8378
436.8689, 602.4337
437.3510, 601.6483
437.8331, 589.0234
438.3152, 576.2968
438.7973, 571.7759
439.2794, 569.3116
439.7616, 562.7216
440.2437, 551.4049
440.7258, 537.6533
441.2079, 519.3251
441.6900, 500.5128
442.1721, 486.1909
442.6543, 483.8535
443.1364, 480.6902
443.6185, 470.3104
444.1006, 453.7818
444.5827, 439.4029
445.0648, 428.7930
445.5470, 420.9888
446.0291, 415.5475
446.5112, 413.6027
446.9933, 412.2850
447.4754, 411.5689
447.9576, 411.3920
448.4397, 411.7448
448.9218, 413.4691
449.4039, 414.4301
449.8860, 414.3121
450.3681, 413.2105
450.8503, 408.3916
451.3324, 396.7501
451.8145, 386.8575
452.2966, 389.5414
452.7787, 406.6868
453.2608, 418.0585
453.7430, 418.1784
454.2251, 411.9277
454.7072, 412.7005
455.1893, 420.6152
455.6714, 428.1382
456.1535, 429.8224
456.6357, 427.3830
457.1178, 425.5888
457.5999, 424.9829
458.0820, 424.3437
458.5641, 422.0782
459.0462, 418.7688
459.5284, 415.7737
460.0105, 414.2668
460.4926, 412.9153
460.9747, 409.9408
461.4568, 405.5904
461.9389, 402.6930
462.4211, 404.2534
462.9032, 407.0830
463.3853, 408.5269
463.8674, 407.4814
464.3495, 405.8594
464.8316, 403.2763
465.3138, 400.5437
465.7959, 399.3441
466.2780, 400.7682
466.7601, 403.0420
467.2422, 406.4330
467.7243, 411.8014
468.2065, 413.4701
468.6886, 410.0224
469.1707, 404.2583
469.6528, 398.7773
470.1349, 394.5767
470.6170, 387.9501
471.0992, 377.4253
471.5813, 364.4177
472.0634, 354.4354
472.5455, 347.9773
473.0276, 341.5603
473.5097, 331.9285
473.9918, 319.7056
474.4739, 312.8875
474.9561, 312.6793
475.4382, 313.9327
475.9203, 308.9966
476.4024, 299.8204
476.8845, 293.5710
477.3666, 294.8412
477.8488, 298.8565
478.3309, 300.0355
478.8130, 298.4929
479.2951, 295.0839
479.7772, 288.5727
480.2593, 281.4121
480.7415, 275.8434
481.2236, 272.2209
481.7057, 270.3938
482.1878, 270.8259
482.6699, 272.9198
483.1520, 275.7006
483.6342, 279.9930
484.1163, 283.8519
484.5984, 287.0434
485.0805, 289.6313
485.5626, 290.0751
486.0447, 285.6193
486.5269, 281.2818
487.0090, 280.4186
487.4911, 285.4183
487.9732, 288.9904
488.4553, 290.7993
488.9374, 291.0128
489.4196, 289.7382
489.9017, 286.6026
490.3838, 283.4364
490.8659, 280.8759
491.3480, 278.9003
491.8301, 277.2740
492.3123, 276.0214
492.7944, 274.8679
493.2765, 273.4069
493.7586, 271.7875
494.2407, 270.2676
494.7228, 268.3236
495.2050, 267.5851
495.6871, 272.1935
496.1692, 280.2322
496.6513, 285.2788
497.1334, 280.8273
497.6155, 273.8716
498.0977, 270.1127
498.5798, 270.1849
499.0619, 272.1118
499.5440, 277.1031
500.0261, 282.4690
500.5082, 285.6679
500.9904, 283.8563
501.4725, 282.2717
501.9546, 282.8504
502.4367, 284.7094
502.9188, 283.8984
503.4009, 273.7569
503.8831, 268.3851
504.3652, 275.4044
504.8473, 299.7534
505.3294, 311.0015
505.8115, 303.7220
506.2936, 290.6429
506.7758, 285.9910
507.2579, 290.6435
507.7400, 297.1434
508.2221, 304.9358
508.7042, 312.7477
509.1863, 315.8844
509.6685, 314.5682
510.1506, 315.3182
510.6327, 325.4686
511.1148, 340.0056
511.5969, 347.2067
512.0790, 345.6486
512.5612, 343.0194
513.0433, 346.8496
513.5254, 353.9263
514.0075, 359.2481
514.4896, 358.8041
514.9717, 358.4485
515.4539, 361.4969
515.9360, 367.3377
516.4181, 373.7690
516.9002, 380.3907
517.3823, 387.1299
517.8644, 394.7782
518.3466, 405.2969
518.8287, 410.4822
519.3108, 404.1469
519.7929, 395.9586
520.2750, 396.1513
520.7571, 409.9710
521.2393, 421.2160
521.7214, 426.6079
522.2035, 428.0322
522.6856, 433.2421
523.1677, 443.3249
523.6498, 452.0559
524.1320, 454.2451
524.6141, 451.1577
525.0962, 453.6581
525.5783, 462.5020
526.0604, 473.3709
526.5425, 481.5222
527.0247, 487.9257
527.5068, 495.7334
527.9889, 507.1560
528.4710, 518.5847
528.9531, 525.2947
529.4352, 528.8535
529.9174, 534.4523
530.3995, 546.6063
530.8816, 560.2173
531.3637, 571.7314
531.8458, 580.0746
532.3279, 590.8007
532.8101, 605.7279
533.2922, 623.4699
533.7743, 642.6190
534.2564, 668.5683
534.7385, 689.0578
535.2206, 703.8708
535.7027, 712.8633
536.1848, 715.4795
536.6669, 710.4921
537.1490, 702.0073
537.6312, 691.0895
538.1133, 677.8000
538.5954, 663.5613
539.0775, 648.6129
539.5596, 631.5884
540.0417, 609.0995
540.5239, 582.6750
541.0060, 560.3718
541.4881, 544.2241
541.9702, 531.6122
542.4523, 519.6807
542.9344, 508.6661
543.4166, 499.2232
543.8987, 492.6566
544.3808, 487.0646
544.8629, 480.3658
545.3450, 472.6345
545.8271, 467.4135
546.3093, 468.4625
546.7914, 471.1122
547.2735, 472.2734
547.7556, 472.3759
548.2377, 469.4477
548.7198, 461.5253
549.2020, 451.0790
549.6841, 441.7362
550.1662, 433.4620
550.6483, 426.3608
551.1304, 420.6599
551.6125, 416.1574
552.0947, 411.8869
552.5768, 408.2151
553.0589, 403.0721
553.5410, 392.7507
554.0231, 378.7346
554.5052, 371.8036
554.9874, 373.7801
555.4695, 377.9998
555.9516, 376.5359
556.4337, 371.4364
556.9158, 367.6608
557.3979, 367.5267
557.8801, 368.7320
558.3622, 371.3420
558.8443, 374.1666
559.3264, 373.0060
559.8085, 358.8261
560.2906, 345.9736
560.7728, 344.4186
561.2549, 358.5859
561.7370, 366.1196
562.2191, 355.9517
562.7012, 343.1064
563.1833, 339.6302
563.6655, 352.5214
564.1476, 360.3629
564.6297, 359.7473
565.1118, 354.1573
565.5939, 351.4388
566.0760, 351.8361
566.5582, 353.8150
567.0403, 358.0139
567.5224, 363.2265
568.0045, 363.8133
568.4866, 359.7246
568.9688, 356.0727
569.4509, 357.2491
569.9330, 361.6496
570.4151, 367.0388
570.8972, 373.5190
571.3793, 378.9936
571.8615, 381.6116
572.3436, 382.2194
572.8257, 382.0339
573.3078, 380.6963
573.7899, 379.4157
574.2720, 378.8886
574.7542, 378.9099
575.2363, 378.2595
575.7184, 375.3912
576.2005, 373.3174
576.6826, 373.8351
577.1647, 378.1164
577.6469, 378.5981
578.1290, 374.2778
578.6111, 367.9346
579.0932, 361.7305
579.5753, 355.6632
580.0574, 351.2423
580.5396, 349.2510
581.0217, 348.0109
581.5038, 343.5801
581.9859, 336.9569
582.4680, 332.6185
582.9501, 333.8697
583.4323, 337.9016
583.9144, 342.6834
584.3965, 347.9205
584.8786, 351.2380
585.3607, 348.7444
585.8428, 345.4807
586.3250, 345.6552
586.8071, 352.0493
587.2892, 356.4087
587.7713, 355.0712
588.2534, 351.8581
588.7355, 351.5359
589.2177, 358.0988
589.6998, 360.2339
590.1819, 354.2536
590.6640, 343.4997
591.1461, 339.6563
591.6282, 343.9393
592.1104, 348.7347
592.5925, 350.3797
593.0746, 349.4207
593.5567, 348.4663
594.0388, 347.5161
594.5209, 346.5563
595.0031, 345.2525
595.4852, 344.0129
595.9673, 343.7528
596.4494, 345.1238
596.9315, 345.9998
597.4136, 344.0904
597.8958, 340.9489
598.3779, 338.8785
598.8600, 338.4740
599.3421, 339.3773
599.8242, 343.1877
600.3063, 348.9558
600.7885, 350.4155
601.2706, 343.2174
601.7527, 337.4525
602.2348, 337.2588
602.7169, 343.0708
603.1990, 350.1363
603.6812, 359.3443
604.1633, 367.3376
604.6454, 370.5334
605.1275, 369.3695
605.6096, 367.2430
606.0917, 364.0656
606.5739, 361.8001
607.0560, 363.8633
607.5381, 368.7980
608.0202, 373.0715
608.5023, 374.9154
608.9844, 375.6802
609.4666, 375.7826
609.9487, 375.4583
610.4308, 375.7218
610.9129, 374.9097
611.3950, 376.4860
611.8771, 383.3081
612.3593, 397.9866
612.8414, 407.8274
613.3235, 410.6211
