##NAMES=Enstatite
##RRUFFID=R100093
##IDEAL CHEMISTRY=MgSiO_3_
##LOCALITY=Hunan Province, China
##OWNER=RRUFF
##SOURCE=William W. Pinch
##DESCRIPTION=Massive green polished slab
##STATUS=The identification of this mineral has been confirmed by single-crystal X-ray diffraction.
##URL=rruff.info/R100093
130.5079, 7.800224
130.9900, 7.981821
131.4721, 8.574249
131.9542, 9.163800
132.4363, 9.307002
132.9185, 9.076239
133.4006, 8.974804
133.8827, 9.172858
134.3648, 9.595431
134.8469, 9.979345
135.3290, 10.30909
135.8112, 10.67016
136.2933, 11.16486
136.7754, 11.80132
137.2575, 12.47898
137.7396, 13.22670
138.2217, 14.02505
138.7039, 14.54295
139.1860, 14.64079
139.6681, 14.67979
140.1502, 15.30877
140.6323, 16.72016
141.1144, 18.06038
141.5966, 19.01073
142.0787, 19.51509
142.5608, 19.79198
143.0429, 19.63795
143.5250, 19.36917
144.0071, 19.81443
144.4893, 21.48643
144.9714, 23.03335
145.4535, 23.72511
145.9356, 22.73452
146.4177, 22.58863
146.8998, 23.69357
147.3820, 25.71439
147.8641, 27.28658
148.3462, 27.86765
148.8283, 28.49038
149.3104, 29.74897
149.7925, 32.73579
150.2747, 34.91771
150.7568, 35.68885
151.2389, 35.20057
151.7210, 35.29284
152.2031, 36.40114
152.6852, 37.81944
153.1674, 39.12289
153.6495, 40.06752
154.1316, 41.12420
154.6137, 42.54227
155.0958, 44.33618
155.5779, 45.64680
156.0601, 45.95524
156.5422, 45.92885
157.0243, 46.13380
157.5064, 47.00425
157.9885, 47.80592
158.4706, 48.32385
158.9528, 48.52527
159.4349, 48.63038
159.9170, 48.42456
160.3991, 48.23206
160.8812, 48.42769
161.3633, 49.40660
161.8455, 50.56631
162.3276, 51.67830
162.8097, 52.70641
163.2918, 53.68215
163.7739, 54.77061
164.2560, 55.72631
164.7382, 55.91304
165.2203, 54.97558
165.7024, 54.02808
166.1845, 53.70808
166.6666, 54.20024
167.1487, 54.93479
167.6309, 55.84271
168.1130, 56.77867
168.5951, 57.41681
169.0772, 57.33943
169.5593, 57.05767
170.0414, 57.03012
170.5236, 57.42842
171.0057, 57.86793
171.4878, 58.17079
171.9699, 58.31533
172.4520, 58.22614
172.9341, 57.67989
173.4163, 56.94701
173.8984, 56.31876
174.3805, 55.79276
174.8626, 55.48589
175.3447, 55.63766
175.8268, 56.15632
176.3090, 56.62093
176.7911, 56.74898
177.2732, 56.63426
177.7553, 56.37492
178.2374, 55.77942
178.7195, 55.29100
179.2017, 55.64400
179.6838, 56.76094
180.1659, 57.88754
180.6480, 58.52601
181.1301, 58.74376
181.6122, 58.66578
182.0944, 58.06232
182.5765, 57.37714
183.0586, 57.51138
183.5407, 58.45168
184.0228, 59.44616
184.5049, 59.68050
184.9871, 59.36619
185.4692, 59.26313
185.9513, 59.72950
186.4334, 60.51584
186.9155, 61.18667
187.3976, 61.76587
187.8798, 61.93264
188.3619, 60.95085
188.8440, 59.04106
189.3261, 57.70762
189.8082, 57.73186
190.2903, 58.70710
190.7725, 59.20763
191.2546, 59.21910
191.7367, 58.86976
192.2188, 58.17157
192.7009, 57.14086
193.1830, 56.21077
193.6652, 55.62915
194.1473, 55.31181
194.6294, 54.66311
195.1115, 53.57068
195.5936, 52.51760
196.0757, 52.25068
196.5579, 52.79549
197.0400, 53.34285
197.5221, 53.57669
198.0042, 53.51530
198.4863, 53.46241
198.9684, 53.47013
199.4506, 53.37109
199.9327, 52.66635
200.4148, 51.21930
200.8969, 50.36159
201.3790, 51.07925
201.8611, 53.46559
202.3433, 54.40368
202.8254, 53.51030
203.3075, 51.78122
203.7896, 50.93965
204.2717, 51.12957
204.7538, 51.42971
205.2360, 51.39557
205.7181, 50.95861
206.2002, 50.83288
206.6823, 51.08257
207.1644, 51.56360
207.6465, 52.06606
208.1287, 52.63549
208.6108, 53.05463
209.0929, 53.08498
209.5750, 52.54690
210.0571, 52.67570
210.5392, 53.72804
211.0214, 55.21902
211.5035, 56.10299
211.9856, 56.19000
212.4677, 56.18141
212.9498, 56.39498
213.4319, 56.88927
213.9140, 57.32616
214.3962, 57.61628
214.8783, 57.90477
215.3604, 58.58397
215.8425, 59.86307
216.3246, 61.07223
216.8067, 61.83591
217.2889, 61.90575
217.7710, 62.36165
218.2531, 63.28821
218.7352, 64.56938
219.2173, 66.04875
219.6994, 68.01311
220.1816, 69.63395
220.6637, 70.50093
221.1458, 70.33633
221.6279, 70.18617
222.1100, 69.93469
222.5921, 69.75594
223.0743, 70.17128
223.5564, 71.47778
224.0385, 72.85575
224.5206, 73.86656
225.0027, 74.30262
225.4848, 74.97081
225.9670, 75.90157
226.4491, 77.05801
226.9312, 78.40466
227.4133, 80.07508
227.8954, 81.70741
228.3775, 83.11759
228.8597, 84.34244
229.3418, 85.27907
229.8239, 85.75136
230.3060, 85.97932
230.7881, 86.66161
231.2702, 88.39366
231.7524, 89.68199
232.2345, 89.71521
232.7166, 87.69038
233.1987, 86.33105
233.6808, 86.04485
234.1629, 86.33150
234.6451, 85.83161
235.1272, 84.27755
235.6093, 82.34509
236.0914, 80.32410
236.5735, 78.27280
237.0556, 75.97948
237.5378, 73.24986
238.0199, 70.33764
238.5020, 67.92812
238.9841, 66.29103
239.4662, 64.71761
239.9483, 62.85258
240.4305, 60.42599
240.9126, 58.38029
241.3947, 56.74642
241.8768, 55.48001
242.3589, 54.52771
242.8410, 54.14522
243.3232, 53.68288
243.8053, 52.79692
244.2874, 51.07697
244.7695, 49.95903
245.2516, 49.73200
245.7337, 49.98529
246.2159, 49.78555
246.6980, 48.89718
247.1801, 47.92471
247.6622, 47.07701
248.1443, 46.35155
248.6264, 45.75616
249.1086, 45.29865
249.5907, 44.96295
250.0728, 44.75621
250.5549, 44.85698
251.0370, 44.78264
251.5191, 44.25920
252.0013, 43.02322
252.4834, 42.26411
252.9655, 42.21066
253.4476, 42.50134
253.9297, 42.43579
254.4118, 41.77544
254.8940, 41.20718
255.3761, 41.02628
255.8582, 41.38568
256.3403, 41.50943
256.8224, 41.33050
257.3046, 40.96893
257.7867, 40.61921
258.2688, 40.27793
258.7509, 39.94668
259.2330, 39.57990
259.7151, 39.11492
260.1973, 39.03069
260.6794, 39.56646
261.1615, 40.25260
261.6436, 40.28710
262.1257, 39.27721
262.6078, 38.58410
263.0900, 38.74926
263.5721, 39.90196
264.0542, 40.64819
264.5363, 40.92454
265.0184, 40.87849
265.5005, 40.65300
265.9827, 40.16570
266.4648, 39.74385
266.9469, 39.49694
267.4290, 39.42933
267.9111, 39.30243
268.3932, 39.01525
268.8754, 38.82738
269.3575, 39.13182
269.8396, 40.12786
270.3217, 40.88633
270.8038, 41.11627
271.2859, 40.85150
271.7681, 40.74398
272.2502, 40.87343
272.7323, 40.99573
273.2144, 40.74556
273.6965, 39.98118
274.1786, 39.63585
274.6608, 40.08198
275.1429, 41.15785
275.6250, 41.62609
276.1071, 41.32731
276.5892, 40.87899
277.0714, 40.92019
277.5535, 41.52824
278.0356, 41.88346
278.5177, 41.72132
278.9998, 41.22010
279.4819, 41.16811
279.9641, 41.65112
280.4462, 42.22526
280.9283, 42.54127
281.4104, 42.58981
281.8925, 42.58862
282.3746, 42.51519
282.8568, 42.45504
283.3389, 42.71709
283.8210, 43.34258
284.3031, 43.96906
284.7852, 44.40139
285.2673, 44.63247
285.7495, 44.53501
286.2316, 43.96064
286.7137, 43.23839
287.1958, 43.06403
287.6779, 43.44725
288.1600, 44.06433
288.6422, 44.92463
289.1243, 45.94454
289.6064, 46.37613
290.0885, 46.01525
290.5706, 45.42886
291.0527, 45.63361
291.5349, 46.57607
292.0170, 47.46892
292.4991, 47.80328
292.9812, 47.72600
293.4633, 47.74183
293.9454, 47.88103
294.4276, 48.09899
294.9097, 48.44724
295.3918, 48.87293
295.8739, 49.08405
296.3560, 48.66370
296.8381, 47.95360
297.3203, 47.81344
297.8024, 48.29451
298.2845, 49.01354
298.7666, 49.68084
299.2487, 50.27372
299.7308, 50.74184
300.2130, 50.95027
300.6951, 51.06311
301.1772, 51.31843
301.6593, 51.71435
302.1414, 52.27136
302.6235, 53.10667
303.1057, 54.11135
303.5878, 55.03831
304.0699, 55.71586
304.5520, 56.36120
305.0341, 57.35589
305.5162, 58.63926
305.9984, 59.73110
306.4805, 60.05020
306.9626, 60.01569
307.4447, 60.18554
307.9268, 60.65983
308.4089, 61.45730
308.8911, 62.80488
309.3732, 64.56635
309.8553, 66.18298
310.3374, 67.18367
310.8195, 67.94510
311.3016, 68.83383
311.7838, 69.97120
312.2659, 71.14848
312.7480, 72.27364
313.2301, 73.32621
313.7122, 74.27952
314.1943, 74.90899
314.6765, 75.58139
315.1586, 76.68652
315.6407, 78.49341
316.1228, 79.96432
316.6049, 80.13221
317.0870, 79.69182
317.5692, 79.78232
318.0513, 81.40751
318.5334, 83.17248
319.0155, 84.35686
319.4976, 84.83318
319.9797, 85.29543
320.4619, 85.89858
320.9440, 86.63410
321.4261, 87.48335
321.9082, 88.29935
322.3903, 89.36950
322.8724, 90.91991
323.3546, 92.96404
323.8367, 94.82113
324.3188, 96.11596
324.8009, 97.31815
325.2830, 98.77116
325.7651, 100.8131
326.2473, 102.7964
326.7294, 104.5003
327.2115, 105.9940
327.6936, 107.8273
328.1757, 110.3160
328.6578, 112.9264
329.1400, 115.4073
329.6221, 117.7759
330.1042, 119.9457
330.5863, 121.7332
331.0684, 123.3230
331.5505, 125.2262
332.0327, 127.6558
332.5148, 130.1601
332.9969, 132.5705
333.4790, 134.7492
333.9611, 137.1058
334.4432, 139.8621
334.9254, 142.6756
335.4075, 144.8708
335.8896, 146.1423
336.3717, 147.4548
336.8538, 149.1594
337.3359, 151.3399
337.8180, 153.1933
338.3001, 154.7315
338.7823, 155.9272
339.2644, 156.6175
339.7465, 156.6597
340.2286, 156.8820
340.7107, 157.6589
341.1928, 158.8235
341.6750, 159.1057
342.1571, 158.4079
342.6392, 157.2152
343.1213, 155.9433
343.6034, 154.6079
344.0855, 152.7578
344.5677, 150.2028
345.0498, 147.2262
345.5319, 144.5803
346.0140, 142.2749
346.4961, 140.0382
346.9782, 137.8006
347.4604, 135.5031
347.9425, 132.9161
348.4246, 129.9366
348.9067, 126.8352
349.3888, 123.9026
349.8709, 121.1476
350.3531, 118.6148
350.8352, 116.3868
351.3173, 114.3920
351.7994, 112.4523
352.2815, 110.5668
352.7636, 108.7972
353.2458, 107.3041
353.7279, 105.9701
354.2100, 104.5390
354.6921, 102.7846
355.1742, 100.9788
355.6563, 99.31274
356.1385, 97.80471
356.6206, 96.56291
357.1027, 95.87560
357.5848, 95.42020
358.0669, 94.78449
358.5490, 93.69334
359.0312, 92.64883
359.5133, 92.07711
359.9954, 91.82961
360.4775, 91.43792
360.9596, 90.28081
361.4417, 89.16226
361.9239, 88.72485
362.4060, 89.35387
362.8881, 89.82008
363.3702, 89.54893
363.8523, 88.84740
364.3344, 88.18621
364.8166, 87.39347
365.2987, 86.93262
365.7808, 87.15360
366.2629, 88.17661
366.7450, 88.92835
367.2271, 89.16743
367.7093, 89.10214
368.1914, 88.91572
368.6735, 88.36117
369.1556, 87.97869
369.6377, 87.84526
370.1198, 87.94846
370.6020, 88.23196
371.0841, 88.88634
371.5662, 89.54606
372.0483, 89.96764
372.5304, 89.73999
373.0125, 90.10047
373.4947, 91.45238
373.9768, 93.26723
374.4589, 94.25654
374.9410, 94.04955
375.4231, 93.77395
375.9052, 93.80286
376.3874, 94.13586
376.8695, 94.88032
377.3516, 96.24746
377.8337, 97.68421
378.3158, 98.43736
378.7979, 98.40369
379.2801, 98.49028
379.7622, 99.00806
380.2443, 99.83326
380.7264, 100.3690
381.2085, 100.5645
381.6906, 100.8110
382.1728, 101.4992
382.6549, 102.5667
383.1370, 103.5690
383.6191, 104.4223
384.1012, 105.2092
384.5833, 106.0818
385.0655, 107.0337
385.5476, 108.0031
386.0297, 109.0147
386.5118, 110.0187
386.9939, 110.9131
387.4760, 111.6651
387.9582, 112.4434
388.4403, 113.3383
388.9224, 114.3902
389.4045, 115.6689
389.8866, 117.2657
390.3687, 119.0703
390.8509, 121.2045
391.3330, 123.5930
391.8151, 125.5447
392.2972, 126.0622
392.7793, 126.1917
393.2614, 127.0170
393.7436, 129.6317
394.2257, 131.8025
394.7078, 132.2981
395.1899, 131.5915
395.6720, 130.9230
396.1541, 130.6131
396.6363, 130.4902
397.1184, 130.6174
397.6005, 131.3002
398.0826, 131.2860
398.5647, 129.9101
399.0468, 127.9014
399.5290, 126.1432
400.0111, 125.0323
400.4932, 123.8114
400.9753, 122.3174
401.4574, 120.5440
401.9395, 118.8459
402.4217, 117.4608
402.9038, 115.8854
403.3859, 113.7306
403.8680, 110.6847
404.3501, 107.7897
404.8322, 105.1807
405.3144, 102.7458
405.7965, 100.2523
406.2786, 97.64391
406.7607, 95.11820
407.2428, 92.78319
407.7249, 90.63515
408.2071, 88.50529
408.6892, 86.38522
409.1713, 84.27227
409.6534, 82.14491
410.1355, 80.01428
410.6176, 77.93516
411.0998, 75.94655
411.5819, 73.98793
412.0640, 71.84448
412.5461, 69.54395
413.0282, 67.31972
413.5103, 65.30720
413.9925, 63.53457
414.4746, 62.08313
414.9567, 61.02978
415.4388, 60.10365
415.9209, 58.99735
416.4030, 57.78823
416.8852, 56.63640
417.3673, 55.64857
417.8494, 54.75184
418.3315, 53.86964
418.8136, 53.00486
419.2957, 52.20139
419.7779, 51.57469
420.2600, 50.99027
420.7421, 50.32377
421.2242, 49.32903
421.7063, 48.45965
422.1884, 47.98323
422.6706, 47.77747
423.1527, 47.35976
423.6348, 46.27959
424.1169, 45.24279
424.5990, 44.59484
425.0811, 44.59434
425.5633, 44.46098
426.0454, 44.07060
426.5275, 43.57583
427.0096, 43.16785
427.4917, 42.93719
427.9738, 42.65025
428.4560, 42.17065
428.9381, 41.51891
429.4202, 41.28944
429.9023, 41.62334
430.3844, 42.12005
430.8665, 42.56131
431.3487, 42.99059
431.8308, 43.05896
432.3129, 42.65190
432.7950, 41.98037
433.2771, 41.47019
433.7592, 41.13008
434.2414, 40.82886
434.7235, 40.44552
435.2056, 40.04397
435.6877, 39.96658
436.1698, 40.24085
436.6519, 40.49787
437.1341, 40.30660
437.6162, 39.80540
438.0983, 39.35323
438.5804, 39.07038
439.0625, 38.84486
439.5446, 38.56310
440.0268, 38.23273
440.5089, 37.88075
440.9910, 37.37679
441.4731, 36.94518
441.9552, 36.85147
442.4373, 37.19910
442.9195, 37.47302
443.4016, 37.26646
443.8837, 36.88578
444.3658, 36.70348
444.8479, 37.23650
445.3300, 37.57468
445.8122, 37.22870
446.2943, 36.30495
446.7764, 35.75326
447.2585, 36.12700
447.7406, 36.58685
448.2227, 36.70979
448.7049, 36.31560
449.1870, 35.90979
449.6691, 35.37596
450.1512, 34.89064
450.6333, 34.80157
451.1154, 35.39905
451.5976, 35.74904
452.0797, 35.47078
452.5618, 34.63455
453.0439, 34.35284
453.5260, 34.75615
454.0081, 35.32021
454.4903, 35.71925
454.9724, 35.94867
455.4545, 35.80417
455.9366, 35.13744
456.4187, 34.34676
456.9008, 34.25965
457.3830, 34.77451
457.8651, 35.11230
458.3472, 34.54738
458.8293, 33.67430
459.3114, 33.72730
459.7935, 34.70470
460.2757, 35.68449
460.7578, 35.96648
461.2399, 35.77263
461.7220, 35.37405
462.2041, 34.68481
462.6862, 34.06919
463.1684, 33.77003
463.6505, 33.72142
464.1326, 33.77931
464.6147, 33.91843
465.0968, 34.12239
465.5789, 34.41684
466.0611, 34.82510
466.5432, 35.14242
467.0253, 35.42199
467.5074, 35.53988
467.9895, 35.38758
468.4716, 34.42840
468.9538, 33.88787
469.4359, 34.07943
469.9180, 34.73846
470.4001, 34.99780
470.8822, 34.64541
471.3643, 34.26585
471.8465, 34.08508
472.3286, 34.11612
472.8107, 34.22573
473.2928, 34.43069
473.7749, 34.67063
474.2570, 34.93251
474.7392, 35.21516
475.2213, 35.26284
475.7034, 34.91540
476.1855, 34.42881
476.6676, 34.41045
477.1497, 34.81059
477.6319, 35.15792
478.1140, 35.13253
478.5961, 34.88452
479.0782, 34.65014
479.5603, 34.44520
480.0424, 34.24735
480.5246, 33.86305
481.0067, 33.52232
481.4888, 33.56276
481.9709, 34.44692
482.4530, 35.32772
482.9352, 35.86403
483.4173, 36.06182
483.8994, 35.94009
484.3815, 35.00364
484.8636, 34.15815
485.3457, 33.93164
485.8279, 34.59326
486.3100, 34.97764
486.7921, 34.75912
487.2742, 34.34609
487.7563, 34.09875
488.2384, 34.17830
488.7206, 34.13032
489.2027, 33.79954
489.6848, 33.32119
490.1669, 33.24156
490.6490, 33.70477
491.1311, 34.13163
491.6133, 34.22963
492.0954, 34.00501
492.5775, 33.73066
493.0596, 33.38881
493.5417, 33.08003
494.0238, 32.90306
494.5060, 32.85090
494.9881, 32.93129
495.4702, 33.24067
495.9523, 33.53205
496.4344, 33.23101
496.9165, 32.53746
497.3987, 32.20317
497.8808, 33.04973
498.3629, 34.21178
498.8450, 34.76466
499.3271, 34.61424
499.8092, 34.58554
500.2914, 35.42314
500.7735, 36.44574
501.2556, 37.02126
501.7377, 36.44357
502.2198, 36.05780
502.7019, 36.19952
503.1841, 36.74619
503.6662, 37.36052
504.1483, 38.16096
504.6304, 38.88271
505.1125, 39.42302
505.5946, 39.76534
506.0768, 40.14058
506.5589, 40.50106
507.0410, 40.96327
507.5231, 41.64944
508.0052, 42.59014
508.4873, 43.58480
508.9695, 44.68859
509.4516, 45.68832
509.9337, 46.03238
510.4158, 45.75917
510.8979, 45.59119
511.3800, 45.83711
511.8622, 46.40642
512.3443, 47.18773
512.8264, 48.16148
513.3085, 49.09166
513.7906, 49.81359
514.2728, 50.37653
514.7549, 50.84140
515.2370, 51.21740
515.7191, 51.50427
516.2012, 51.65699
516.6833, 51.72966
517.1655, 51.80806
517.6476, 51.90129
518.1297, 52.02372
518.6118, 52.18773
519.0939, 52.39087
519.5760, 52.60310
520.0582, 52.95745
520.5403, 53.19993
521.0224, 53.22103
521.5045, 52.99607
521.9866, 52.57906
522.4688, 51.76353
522.9509, 50.98298
523.4330, 50.88373
523.9151, 51.64112
524.3972, 52.06144
524.8793, 51.71724
525.3615, 51.01922
525.8436, 51.21830
526.3257, 52.29977
526.8078, 53.20321
527.2899, 53.05542
527.7720, 52.33289
528.2542, 52.23830
528.7363, 52.84506
529.2184, 53.36809
529.7005, 52.82201
530.1826, 51.88489
530.6647, 51.49902
531.1469, 52.12992
531.6290, 53.02907
532.1111, 54.06123
532.5932, 55.04401
533.0753, 55.60347
533.5574, 55.41248
534.0396, 54.99780
534.5217, 54.43931
535.0038, 53.73162
535.4859, 53.24165
535.9680, 53.15601
536.4501, 53.11639
536.9323, 52.91905
537.4144, 52.51160
537.8965, 52.05148
538.3786, 51.44765
538.8607, 50.91807
539.3428, 50.88623
539.8250, 51.39532
540.3071, 51.81581
540.7892, 51.96164
541.2713, 51.90808
541.7534, 51.73725
542.2355, 51.47234
542.7177, 51.35775
543.1998, 51.68811
543.6819, 52.21701
544.1640, 52.59779
544.6461, 52.80779
545.1282, 52.83519
545.6104, 52.31595
546.0925, 51.75197
546.5746, 51.75848
547.0567, 53.29540
547.5388, 54.31789
548.0209, 53.67999
548.5031, 52.05771
548.9852, 50.92870
549.4673, 50.80883
549.9494, 50.90229
550.4315, 51.13829
550.9136, 51.51483
551.3958, 51.50201
551.8779, 51.00669
552.3600, 50.27739
552.8421, 49.32472
553.3242, 48.06788
553.8063, 47.40464
554.2885, 47.45333
554.7706, 47.87387
555.2527, 48.37690
555.7348, 48.91190
556.2169, 49.11557
556.6990, 48.67391
557.1812, 48.11158
557.6633, 48.28166
558.1454, 49.01277
558.6275, 49.66244
559.1096, 49.77363
559.5917, 49.70972
560.0739, 49.74818
560.5560, 49.91033
561.0381, 50.09856
561.5202, 50.29253
562.0023, 50.48376
562.4844, 50.66602
562.9666, 50.85004
563.4487, 51.00087
563.9308, 50.93288
564.4129, 50.90705
564.8950, 51.43530
565.3771, 53.03516
565.8593, 53.96775
566.3414, 53.60061
566.8235, 52.29742
567.3056, 51.77704
567.7877, 52.14742
568.2698, 52.53566
568.7520, 52.35881
569.2341, 51.76595
569.7162, 51.31335
570.1983, 51.02575
570.6804, 50.80897
571.1625, 50.73545
571.6447, 50.63816
572.1268, 50.19387
572.6089, 49.12605
573.0910, 48.12465
573.5731, 47.76343
574.0552, 47.74693
574.5374, 47.55008
575.0195, 46.83262
575.5016, 46.08447
575.9837, 45.51135
576.4658, 45.09417
576.9479, 44.49489
577.4301, 43.45190
577.9122, 42.53945
578.3943, 42.07692
578.8764, 42.21415
579.3585, 41.92469
579.8406, 41.07969
580.3228, 40.09429
580.8049, 39.34808
581.2870, 38.84050
581.7691, 38.56759
582.2512, 38.58887
582.7333, 38.70903
583.2155, 38.64868
583.6975, 38.44452
584.1796, 38.20866
584.6617, 38.09268
585.1439, 37.89580
585.6260, 37.30520
586.1081, 36.41709
586.5902, 35.71843
587.0723, 35.59396
587.5544, 35.60313
588.0366, 35.51233
588.5187, 35.29773
589.0008, 34.98056
589.4829, 34.38024
589.9650, 33.80264
590.4471, 33.50584
590.9293, 33.70304
591.4114, 33.66914
591.8935, 33.27661
592.3756, 32.72141
592.8577, 32.33775
593.3398, 32.13246
593.8220, 32.04309
594.3041, 32.10455
594.7862, 32.22790
595.2683, 32.17643
595.7504, 31.97409
596.2325, 31.79345
596.7147, 31.88931
597.1968, 31.98756
597.6789, 31.67920
598.1610, 30.92798
598.6431, 30.28449
599.1252, 30.10715
599.6074, 30.14474
600.0895, 30.20266
600.5716, 30.31286
601.0537, 30.32473
601.5358, 30.32029
602.0179, 30.16255
602.5001, 29.59010
602.9822, 28.10471
603.4643, 27.26430
603.9464, 27.59967
604.4285, 28.64572
604.9106, 28.74409
605.3928, 27.77403
605.8749, 26.94160
606.3570, 26.90322
606.8391, 27.45856
607.3212, 28.08990
607.8033, 28.78206
608.2855, 29.20979
608.7676, 28.85702
609.2497, 28.19858
609.7318, 27.85433
610.2139, 27.95549
610.6960, 28.16760
611.1782, 28.37029
611.6603, 28.55919
612.1424, 28.73204
612.6245, 29.04714
613.1066, 29.14920
613.5887, 28.72263
614.0709, 28.10709
614.5530, 28.03820
615.0351, 28.87017
615.5172, 29.48717
615.9993, 29.53658
616.4814, 29.12925
616.9636, 28.84289
617.4457, 28.68026
617.9278, 28.61249
618.4099, 28.63449
618.8920, 28.73810
619.3741, 28.92450
619.8563, 29.19647
620.3384, 29.46534
620.8205, 29.66197
621.3026, 29.81281
621.7847, 29.93222
622.2668, 29.98466
622.7490, 30.11728
623.2311, 30.44509
623.7132, 30.87308
624.1953, 31.27976
624.6774, 31.55331
625.1595, 31.92202
625.6417, 32.47345
626.1238, 33.12931
626.6059, 33.65831
627.0880, 34.03962
627.5701, 34.37489
628.0522, 34.74554
628.5344, 35.09911
629.0165, 35.07823
629.4986, 34.67313
