##NAMES=Enstatite
##RRUFFID=R060630
##IDEAL CHEMISTRY=MgSiO_3_
##LOCALITY=unknown
##OWNER=RRUFF
##SOURCE=Gemological Institute of America
##DESCRIPTION=Tan colored fragment
##STATUS=The identification of this mineral has been confirmed by X-ray diffraction and chemical analysis
##URL=rruff.info/R060630
##MEASURED CHEMISTRY=(Mg_0.89_Fe_0.07_Al_0.04_)_Σ=1_(Si_0.96_Al_0.04_)_Σ=1_O_3_
114.7015, 1343.969
115.1836, 1345.557
115.6658, 1350.469
116.1479, 1355.809
116.6300, 1358.411
117.1121, 1357.055
117.5942, 1353.486
118.0763, 1351.712
118.5584, 1351.822
119.0406, 1352.878
119.5227, 1355.340
120.0048, 1358.662
120.4869, 1361.205
120.9690, 1361.675
121.4511, 1361.371
121.9333, 1362.876
122.4154, 1366.760
122.8975, 1371.432
123.3796, 1375.953
123.8617, 1380.458
124.3438, 1383.721
124.8260, 1384.369
125.3081, 1383.679
125.7902, 1382.249
126.2723, 1379.601
126.7544, 1377.171
127.2365, 1378.390
127.7187, 1384.850
128.2008, 1392.712
128.6829, 1400.198
129.1650, 1408.221
129.6471, 1418.130
130.1292, 1431.026
130.6114, 1446.672
131.0935, 1461.502
131.5756, 1473.115
132.0577, 1486.334
132.5398, 1502.294
133.0219, 1520.913
133.5041, 1541.414
133.9862, 1563.103
134.4683, 1585.911
134.9504, 1611.843
135.4325, 1640.376
135.9146, 1671.707
136.3968, 1706.330
136.8789, 1744.076
137.3610, 1783.994
137.8431, 1825.113
138.3252, 1868.245
138.8073, 1908.679
139.2895, 1947.266
139.7716, 1982.722
140.2537, 2015.047
140.7358, 2045.147
141.2179, 2067.830
141.7000, 2075.387
142.1821, 2069.820
142.6643, 2054.393
143.1464, 2029.416
143.6285, 1995.375
144.1106, 1953.291
144.5927, 1900.300
145.0748, 1842.051
145.5570, 1782.611
146.0391, 1722.258
146.5212, 1663.802
147.0033, 1609.173
147.4854, 1558.236
147.9675, 1511.764
148.4497, 1470.906
148.9318, 1433.841
149.4139, 1399.498
149.8960, 1367.879
150.3781, 1339.992
150.8602, 1317.997
151.3424, 1303.524
151.8245, 1291.613
152.3066, 1281.482
152.7887, 1273.170
153.2708, 1266.994
153.7529, 1263.051
154.2351, 1260.629
154.7172, 1258.033
155.1993, 1256.907
155.6814, 1253.383
156.1635, 1247.180
156.6456, 1238.570
157.1278, 1227.682
157.6099, 1214.501
158.0920, 1199.420
158.5741, 1184.000
159.0562, 1166.962
159.5383, 1150.998
160.0205, 1136.838
160.5026, 1124.283
160.9847, 1112.908
161.4668, 1102.661
161.9489, 1093.442
162.4310, 1084.700
162.9131, 1076.416
163.3953, 1068.592
163.8774, 1061.256
164.3595, 1054.397
164.8416, 1048.094
165.3237, 1042.529
165.8058, 1037.583
166.2880, 1032.869
166.7701, 1028.274
167.2522, 1023.932
167.7343, 1019.958
168.2164, 1016.324
168.6985, 1013.225
169.1807, 1010.842
169.6628, 1009.051
170.1449, 1007.888
170.6270, 1007.808
171.1091, 1008.118
171.5912, 1007.259
172.0734, 1005.089
172.5555, 1001.845
173.0376, 997.6391
173.5197, 992.6325
174.0018, 986.8838
174.4839, 980.1703
174.9661, 972.7951
175.4482, 966.7517
175.9303, 963.7086
176.4124, 960.1865
176.8945, 954.2383
177.3766, 947.2064
177.8588, 941.6622
178.3409, 939.7275
178.8230, 941.4409
179.3051, 941.3400
179.7872, 937.5711
180.2693, 933.8207
180.7515, 931.1949
181.2336, 929.5245
181.7157, 928.1058
182.1978, 926.3273
182.6799, 924.1176
183.1620, 922.2366
183.6441, 920.2145
184.1263, 918.8165
184.6084, 918.9433
185.0905, 920.3099
185.5726, 921.4460
186.0547, 920.8021
186.5368, 918.0172
187.0190, 916.7941
187.5011, 918.5452
187.9832, 920.8013
188.4653, 921.5999
188.9474, 920.7659
189.4296, 919.6817
189.9117, 919.6881
190.3938, 920.7786
190.8759, 921.8773
191.3580, 922.5026
191.8401, 923.2523
192.3223, 925.0732
192.8044, 928.2765
193.2865, 931.4903
193.7686, 932.9797
194.2507, 933.2852
194.7328, 934.0353
195.2150, 936.3655
195.6971, 939.3725
196.1792, 941.2209
196.6613, 941.4936
197.1434, 941.1473
197.6255, 940.8154
198.1077, 940.4645
198.5898, 940.0050
199.0719, 938.9879
199.5540, 937.7155
200.0361, 937.6083
200.5182, 939.4415
201.0004, 941.4665
201.4825, 942.4760
201.9646, 942.8717
202.4467, 943.6483
202.9288, 945.5609
203.4109, 948.5576
203.8930, 951.7081
204.3752, 955.2872
204.8573, 958.7264
205.3394, 961.9734
205.8215, 964.9189
206.3036, 967.3818
206.7857, 969.1659
207.2679, 970.2523
207.7500, 971.0494
208.2321, 972.4057
208.7142, 972.6483
209.1963, 971.1259
209.6784, 967.9631
210.1606, 963.5953
210.6427, 958.2863
211.1248, 951.9610
211.6069, 945.6022
212.0890, 939.3275
212.5711, 932.9313
213.0533, 926.0392
213.5354, 918.8725
214.0175, 911.9169
214.4996, 905.5382
214.9817, 899.6202
215.4638, 895.3425
215.9460, 893.0568
216.4281, 891.6649
216.9102, 890.5856
217.3923, 889.8502
217.8744, 889.9061
218.3565, 891.2869
218.8387, 894.2081
219.3208, 896.6327
219.8029, 897.9669
220.2850, 899.3533
220.7671, 901.6484
221.2492, 904.7979
221.7314, 907.9433
222.2135, 910.2028
222.6956, 911.5316
223.1777, 913.8979
223.6598, 917.9192
224.1419, 922.5050
224.6240, 926.7848
225.1062, 930.7366
225.5883, 934.8994
226.0704, 939.6275
226.5525, 944.9843
227.0346, 951.0391
227.5167, 958.0125
227.9989, 965.5490
228.4810, 972.9415
228.9631, 980.1041
229.4452, 988.3855
229.9273, 999.0814
230.4094, 1011.687
230.8916, 1024.835
231.3737, 1038.006
231.8558, 1051.758
232.3379, 1066.629
232.8200, 1082.606
233.3021, 1099.744
233.7843, 1118.207
234.2664, 1137.967
234.7485, 1159.303
235.2306, 1182.863
235.7127, 1207.543
236.1948, 1232.664
236.6770, 1258.996
237.1591, 1283.107
237.6412, 1304.724
238.1233, 1322.762
238.6054, 1335.723
239.0875, 1343.697
239.5697, 1345.568
240.0518, 1339.347
240.5339, 1324.405
241.0160, 1302.891
241.4981, 1272.868
241.9802, 1238.187
242.4624, 1201.390
242.9445, 1162.881
243.4266, 1124.365
243.9087, 1088.508
244.3908, 1055.226
244.8729, 1025.201
245.3550, 999.1204
245.8372, 975.8423
246.3193, 954.7015
246.8014, 935.4616
247.2835, 918.0599
247.7656, 902.2734
248.2477, 888.6216
248.7299, 875.5331
249.2120, 862.2668
249.6941, 849.6631
250.1762, 838.4753
250.6583, 828.9037
251.1404, 820.5480
251.6226, 812.7607
252.1047, 805.8712
252.5868, 798.9192
253.0689, 790.9794
253.5510, 783.4804
254.0331, 777.4872
254.5153, 773.2502
254.9974, 770.1234
255.4795, 767.2122
255.9616, 764.8087
256.4437, 761.9912
256.9258, 758.0878
257.4080, 754.3137
257.8901, 751.4207
258.3722, 749.5632
258.8543, 748.4252
259.3364, 747.6838
259.8185, 747.7303
260.3007, 747.1458
260.7828, 745.3372
261.2649, 743.4814
261.7470, 742.4609
262.2291, 742.2670
262.7112, 742.1569
263.1934, 741.2383
263.6755, 739.2037
264.1576, 737.4453
264.6397, 735.9626
265.1218, 734.6935
265.6039, 733.5904
266.0861, 732.6650
266.5682, 732.0110
267.0503, 731.7932
267.5324, 732.1677
268.0145, 731.9161
268.4966, 730.6309
268.9788, 729.2287
269.4609, 728.0429
269.9430, 727.1284
270.4251, 726.4913
270.9072, 726.1731
271.3893, 726.1923
271.8715, 726.0544
272.3536, 725.4816
272.8357, 725.0555
273.3178, 724.9738
273.7999, 725.2370
274.2820, 725.8644
274.7642, 726.9500
275.2463, 728.4160
275.7284, 729.2531
276.2105, 729.2636
276.6926, 729.0325
277.1747, 728.5384
277.6568, 727.9442
278.1389, 727.6052
278.6211, 727.7438
279.1032, 728.2404
279.5853, 728.5878
280.0674, 728.5861
280.5495, 728.7025
281.0316, 729.1217
281.5138, 729.7321
281.9959, 730.3378
282.4780, 730.8542
282.9601, 731.3267
283.4422, 731.8581
283.9243, 732.4390
284.4065, 733.0916
284.8886, 734.0219
285.3707, 734.9780
285.8528, 735.3474
286.3349, 734.8250
286.8170, 734.3267
287.2992, 735.6447
287.7813, 739.4063
288.2634, 742.6434
288.7455, 744.6457
289.2276, 745.9703
289.7097, 747.1178
290.1919, 748.1836
290.6740, 749.4382
291.1561, 751.3841
291.6382, 754.1600
292.1203, 756.4372
292.6024, 757.4188
293.0846, 758.2188
293.5667, 760.0572
294.0488, 763.0830
294.5309, 766.3301
295.0130, 768.8615
295.4951, 770.6721
295.9773, 772.8934
296.4594, 775.3237
296.9415, 778.3477
297.4236, 782.9596
297.9057, 788.9303
298.3878, 793.9958
298.8700, 796.3654
299.3521, 796.3109
299.8342, 796.6161
300.3163, 798.3657
300.7984, 799.4863
301.2805, 798.4638
301.7627, 795.6342
302.2448, 792.5755
302.7269, 790.1050
303.2090, 787.9413
303.6911, 785.1658
304.1732, 781.1087
304.6554, 777.5534
305.1375, 775.7314
305.6196, 775.0518
306.1017, 773.7976
306.5838, 771.0460
307.0659, 767.9605
307.5481, 766.9694
308.0302, 768.3373
308.5123, 770.0180
308.9944, 771.7691
309.4765, 773.3257
309.9586, 773.8928
310.4408, 773.0320
310.9229, 772.1652
311.4050, 773.3798
311.8871, 776.6677
312.3692, 780.1774
312.8513, 783.6627
313.3335, 787.1257
313.8156, 790.5121
314.2977, 793.7919
314.7798, 797.2777
315.2619, 801.4509
315.7440, 806.2462
316.2262, 810.5292
316.7083, 813.4094
317.1904, 816.3068
317.6725, 820.6622
318.1546, 826.4228
318.6367, 832.0615
319.1188, 836.4770
319.6010, 839.9289
320.0831, 843.9260
320.5652, 848.2635
321.0473, 853.3376
321.5294, 859.4666
322.0115, 866.5280
322.4937, 874.2627
322.9758, 882.6109
323.4579, 891.4453
323.9400, 900.1495
324.4221, 908.3388
324.9042, 917.2496
325.3864, 927.6030
325.8685, 938.9495
326.3506, 950.4831
326.8327, 961.9213
327.3148, 973.6650
327.7969, 986.4438
328.2791, 1000.261
328.7612, 1014.638
329.2433, 1028.997
329.7254, 1044.057
330.2075, 1060.833
330.6896, 1079.498
331.1718, 1099.067
331.6539, 1118.656
332.1360, 1138.253
332.6181, 1158.773
333.1002, 1180.061
333.5823, 1202.281
334.0645, 1225.510
334.5466, 1249.697
335.0287, 1275.490
335.5108, 1303.481
335.9929, 1333.457
336.4750, 1362.671
336.9572, 1390.925
337.4393, 1419.027
337.9214, 1446.380
338.4035, 1473.885
338.8856, 1503.579
339.3677, 1536.590
339.8499, 1571.833
340.3320, 1606.250
340.8141, 1638.475
341.2962, 1672.279
341.7783, 1709.103
342.2604, 1747.680
342.7426, 1786.615
343.2247, 1825.366
343.7068, 1863.403
344.1889, 1899.873
344.6710, 1934.365
345.1531, 1968.031
345.6353, 2001.833
346.1174, 2033.885
346.5995, 2063.514
347.0816, 2090.136
347.5637, 2112.715
348.0458, 2129.976
348.5280, 2141.768
349.0101, 2149.409
349.4922, 2154.169
349.9743, 2154.399
350.4564, 2149.407
350.9385, 2139.323
351.4207, 2124.288
351.9028, 2104.315
352.3849, 2079.788
352.8670, 2051.803
353.3491, 2019.810
353.8312, 1985.180
354.3134, 1946.927
354.7955, 1906.625
355.2776, 1865.564
355.7597, 1824.282
356.2418, 1783.067
356.7239, 1742.018
357.2061, 1700.832
357.6882, 1660.550
358.1703, 1620.407
358.6524, 1581.556
359.1345, 1544.916
359.6166, 1510.429
360.0987, 1478.000
360.5808, 1447.507
361.0630, 1419.145
361.5451, 1390.797
362.0272, 1361.869
362.5093, 1333.630
362.9914, 1306.774
363.4735, 1280.808
363.9557, 1255.142
364.4378, 1229.287
364.9199, 1203.610
365.4020, 1179.648
365.8841, 1157.507
366.3662, 1137.264
366.8484, 1119.778
367.3305, 1103.711
367.8126, 1087.791
368.2947, 1071.675
368.7768, 1055.721
369.2589, 1040.370
369.7411, 1025.548
370.2232, 1011.664
370.7053, 998.7379
371.1874, 986.6296
371.6695, 975.1467
372.1516, 964.3616
372.6338, 954.2850
373.1159, 944.9120
373.5980, 936.2681
374.0801, 928.8352
374.5622, 923.4695
375.0443, 918.3318
375.5265, 912.4056
376.0086, 906.3616
376.4907, 901.3938
376.9728, 898.1900
377.4549, 896.0453
377.9370, 893.3834
378.4192, 890.0222
378.9013, 886.6581
379.3834, 883.1885
379.8655, 879.9656
380.3476, 877.4016
380.8297, 875.5702
381.3119, 873.9147
381.7940, 871.5774
382.2761, 868.5898
382.7582, 866.8179
383.2403, 867.0311
383.7224, 867.9736
384.2046, 868.8774
384.6867, 869.7350
385.1688, 870.5797
385.6509, 871.5354
386.1330, 872.4625
386.6151, 873.0844
387.0973, 873.4219
387.5794, 873.3507
388.0615, 872.4777
388.5436, 871.2154
389.0257, 870.0961
389.5078, 869.1259
389.9900, 868.4778
390.4721, 868.1550
390.9542, 868.2069
391.4363, 869.1696
391.9184, 871.6092
392.4005, 874.5654
392.8827, 876.4323
393.3648, 877.0557
393.8469, 878.5395
394.3290, 882.0000
394.8111, 886.7385
395.2932, 891.7080
395.7754, 896.8203
396.2575, 902.0250
396.7396, 907.2389
397.2217, 912.5226
397.7038, 918.2888
398.1859, 924.4570
398.6681, 931.2661
399.1501, 939.4392
399.6323, 948.5297
400.1144, 956.9813
400.5965, 963.9847
401.0786, 969.8885
401.5607, 975.5583
402.0428, 981.2548
402.5250, 986.3243
403.0071, 990.9622
403.4892, 994.7715
403.9713, 997.2941
404.4534, 998.4125
404.9355, 998.2461
405.4177, 996.8913
405.8998, 994.2620
406.3819, 990.6458
406.8640, 985.9231
407.3461, 980.4971
407.8282, 973.8573
408.3104, 966.6368
408.7925, 960.2792
409.2746, 955.6901
409.7567, 952.4902
410.2388, 948.7975
410.7209, 942.9462
411.2031, 938.8691
411.6852, 937.3049
412.1673, 937.3783
412.6494, 938.2525
413.1315, 939.7061
413.6136, 942.0666
414.0958, 946.0045
414.5779, 952.0859
415.0600, 957.5500
415.5421, 961.7038
416.0242, 965.8497
416.5063, 970.3915
416.9885, 975.3525
417.4706, 980.6220
417.9527, 986.2695
418.4348, 992.0945
418.9169, 997.6472
419.3990, 1003.349
419.8812, 1007.725
420.3633, 1010.792
420.8454, 1012.167
421.3275, 1011.557
421.8096, 1008.921
422.2917, 1003.753
422.7739, 995.1259
423.2560, 983.1432
423.7381, 969.7478
424.2202, 954.9045
424.7023, 939.0620
425.1844, 922.7318
425.6666, 905.8145
426.1487, 887.7384
426.6308, 867.3578
427.1129, 846.0538
427.5950, 825.8736
428.0771, 806.7184
428.5593, 788.4339
429.0414, 770.6628
429.5235, 754.0801
430.0056, 739.8767
430.4877, 728.8291
430.9698, 718.3884
431.4520, 706.7696
431.9341, 695.0059
432.4162, 685.0645
432.8983, 677.4913
433.3804, 671.7320
433.8625, 667.4120
434.3447, 664.7326
434.8268, 662.3488
435.3089, 659.3996
435.7910, 657.4237
436.2731, 657.8035
436.7552, 660.1332
437.2374, 662.8555
437.7195, 664.9922
438.2016, 666.9800
438.6837, 670.4744
439.1658, 675.7392
439.6479, 682.2509
440.1301, 690.5430
440.6122, 699.7325
441.0943, 708.9587
441.5764, 718.0202
442.0585, 727.3688
442.5406, 737.5216
443.0227, 748.6632
443.5049, 759.4597
443.9870, 769.6030
444.4691, 779.6922
444.9512, 791.0932
445.4333, 802.2599
445.9154, 810.9383
446.3976, 815.8906
446.8797, 817.6848
447.3618, 817.4993
447.8439, 815.3074
448.3260, 811.1750
448.8081, 805.0195
449.2903, 796.9130
449.7724, 786.3905
450.2545, 773.6149
450.7366, 759.7219
451.2187, 745.2887
451.7008, 730.3939
452.1830, 715.6973
452.6651, 701.2341
453.1472, 687.0772
453.6293, 672.8359
454.1114, 659.0414
454.5935, 646.6150
455.0757, 636.0157
455.5578, 626.4061
456.0399, 617.0084
456.5220, 607.9788
457.0041, 599.8350
457.4862, 592.7365
457.9684, 586.5389
458.4505, 581.3238
458.9326, 577.0730
459.4147, 572.7878
459.8968, 567.9410
460.3789, 563.2656
460.8611, 559.5628
461.3432, 556.7219
461.8253, 553.8895
462.3074, 550.4427
462.7895, 546.6859
463.2716, 543.8232
463.7538, 542.7756
464.2359, 541.3536
464.7180, 538.9641
465.2001, 536.2543
465.6822, 533.9518
466.1643, 532.1534
466.6465, 530.3934
467.1286, 528.1371
467.6107, 525.2918
468.0928, 522.6496
468.5749, 520.3426
469.0570, 518.0941
469.5392, 515.6647
470.0213, 513.2971
470.5034, 511.4038
470.9855, 510.1737
471.4676, 509.3338
471.9497, 508.4624
472.4319, 507.5966
472.9140, 506.5546
473.3961, 505.4396
473.8782, 504.0137
474.3603, 501.9266
474.8424, 499.3539
475.3246, 496.9221
475.8067, 494.8398
476.2888, 493.2239
476.7709, 492.6125
477.2530, 493.2511
477.7351, 493.3358
478.2173, 491.5890
478.6994, 489.0054
479.1815, 487.1518
479.6636, 486.1798
480.1457, 485.6084
480.6278, 485.5204
481.1100, 485.5899
481.5920, 485.1593
482.0742, 484.0976
482.5563, 482.8769
483.0384, 481.9140
483.5205, 481.2035
484.0026, 480.3318
484.4847, 479.0098
484.9669, 477.8481
485.4490, 477.1404
485.9311, 476.7464
486.4132, 476.4364
486.8953, 476.1216
487.3774, 475.8135
487.8596, 475.5727
488.3417, 475.6056
488.8238, 475.1037
489.3059, 473.8592
489.7880, 472.3801
490.2701, 470.6987
490.7523, 468.9956
491.2344, 467.5922
491.7165, 466.7030
492.1986, 466.1986
492.6807, 465.7501
493.1628, 465.3924
493.6450, 465.0006
494.1271, 464.7293
494.6092, 464.2861
495.0913, 463.3661
495.5734, 462.0052
496.0555, 460.6239
496.5377, 459.5649
497.0198, 458.7099
497.5019, 457.5654
497.9840, 455.9272
498.4661, 454.9644
498.9482, 455.9333
499.4304, 457.7618
499.9125, 458.3032
500.3946, 456.9295
500.8767, 455.5530
501.3588, 455.4007
501.8409, 455.8080
502.3231, 455.3963
502.8052, 453.8743
503.2873, 452.4214
503.7694, 452.2679
504.2515, 453.4739
504.7336, 453.9979
505.2158, 453.1389
505.6979, 452.4624
506.1800, 452.6143
506.6621, 453.2784
507.1442, 453.9247
507.6263, 454.3669
508.1085, 454.8544
508.5906, 455.8658
509.0727, 457.7459
509.5548, 458.8959
510.0369, 458.5370
510.5190, 458.2179
511.0012, 458.2962
511.4833, 458.8790
511.9654, 460.2140
512.4475, 462.5937
512.9296, 465.2315
513.4117, 466.4917
513.8939, 466.1320
514.3760, 466.3212
514.8581, 467.8271
515.3402, 469.7572
515.8223, 471.5606
516.3044, 473.1781
516.7866, 474.2947
517.2687, 474.0284
517.7508, 473.6266
518.2329, 475.0363
518.7150, 478.1288
519.1971, 480.8926
519.6793, 482.3751
520.1614, 482.9708
520.6435, 483.4543
521.1256, 483.7665
521.6077, 484.1626
522.0898, 485.0278
522.5720, 485.7526
523.0541, 485.7184
523.5362, 484.9677
524.0183, 483.9807
524.5004, 483.0969
524.9825, 482.2809
525.4647, 481.3068
525.9468, 479.8217
526.4289, 478.7132
526.9110, 478.2867
527.3931, 478.0822
527.8752, 477.8045
528.3574, 477.3767
528.8395, 476.7976
529.3216, 476.1068
529.8037, 475.2733
530.2858, 473.9787
530.7679, 471.8943
531.2501, 470.1245
531.7322, 468.8434
532.2143, 468.2767
532.6964, 469.0037
533.1785, 471.3141
533.6606, 473.4892
534.1428, 473.9774
534.6249, 473.6143
535.1070, 474.3213
535.5891, 476.4012
536.0712, 478.7582
536.5533, 480.6654
537.0355, 482.1400
537.5176, 483.3565
537.9997, 484.2922
538.4818, 485.0311
538.9639, 485.8043
539.4460, 486.3036
539.9282, 486.1981
540.4103, 485.4016
540.8924, 483.9086
541.3745, 481.6606
541.8566, 478.6386
542.3387, 475.5087
542.8209, 472.1048
543.3029, 468.8134
543.7850, 465.6306
544.2672, 462.6473
544.7493, 459.9600
545.2314, 457.5931
545.7135, 455.5425
546.1956, 453.7877
546.6777, 452.3376
547.1599, 451.4376
547.6420, 451.2835
548.1241, 451.2928
548.6062, 451.3525
549.0883, 451.2842
549.5704, 450.7322
550.0526, 449.5323
550.5347, 448.0727
551.0168, 446.5426
551.4989, 444.9325
551.9810, 443.1485
552.4631, 441.1641
552.9453, 439.2692
553.4274, 437.7856
553.9095, 436.7102
554.3916, 435.3578
554.8737, 433.5485
555.3558, 431.7204
555.8380, 430.1433
556.3201, 428.5341
556.8022, 426.4748
557.2843, 423.8916
557.7664, 421.1973
558.2485, 418.7868
558.7307, 416.6662
559.2128, 415.0472
559.6949, 414.5454
560.1770, 413.6690
560.6591, 411.7433
561.1412, 409.2923
561.6234, 406.8321
562.1055, 404.4707
562.5876, 402.4230
563.0697, 400.9442
563.5518, 399.9354
564.0339, 399.1364
564.5161, 398.5671
564.9982, 397.9204
565.4803, 396.8783
565.9624, 395.5777
566.4445, 394.6284
566.9266, 394.4019
567.4088, 393.9966
567.8909, 392.8776
568.3730, 391.5181
568.8551, 390.4227
569.3372, 389.7206
569.8193, 389.4066
570.3015, 389.5140
570.7836, 390.0244
571.2657, 390.6014
571.7478, 391.7661
572.2299, 392.2601
572.7120, 391.2936
573.1942, 389.9745
573.6763, 389.3311
574.1584, 389.5103
574.6405, 389.9642
575.1226, 390.3761
575.6047, 390.6853
576.0869, 390.5832
576.5690, 389.9846
577.0511, 389.3156
577.5332, 388.6379
578.0153, 388.1001
578.4974, 388.0157
578.9796, 388.5537
579.4617, 388.8002
579.9438, 388.0210
580.4259, 387.0031
580.9080, 386.8631
581.3901, 387.5141
581.8723, 387.8740
582.3544, 387.2618
582.8365, 385.8489
583.3186, 384.1857
583.8007, 381.5973
584.2828, 379.8169
584.7650, 379.7116
585.2471, 379.6648
585.7292, 378.4678
586.2113, 376.3385
586.6934, 374.2530
587.1755, 372.7900
587.6577, 371.8117
588.1398, 371.0611
588.6219, 370.5548
589.1040, 370.1853
589.5861, 370.1595
590.0682, 369.9933
590.5504, 368.8515
591.0325, 366.9875
591.5146, 366.1274
591.9967, 367.9554
592.4788, 370.0157
592.9609, 369.9671
593.4431, 368.3943
593.9252, 367.0587
594.4073, 366.5894
594.8894, 366.6664
595.3715, 366.8905
595.8536, 367.3330
596.3358, 367.5981
596.8179, 367.9327
597.3000, 367.8492
597.7821, 366.7662
598.2642, 365.3051
598.7463, 364.3444
599.2285, 364.1783
599.7106, 364.4009
600.1927, 364.7266
600.6748, 365.1294
601.1569, 364.6930
601.6390, 362.7847
602.1212, 361.3047
602.6033, 361.9955
603.0854, 363.6134
603.5675, 364.2321
604.0496, 363.3745
604.5317, 362.2737
605.0139, 361.2556
605.4960, 360.5048
605.9781, 360.4173
606.4602, 360.9813
606.9423, 361.7269
607.4244, 362.3869
607.9066, 362.8832
608.3887, 362.8439
608.8708, 361.6915
609.3529, 360.8208
609.8350, 360.4218
610.3171, 360.2021
610.7993, 359.9350
611.2814, 359.6499
611.7635, 359.5213
