##NAMES=Enstatite
##RRUFFID=R070418
##IDEAL CHEMISTRY=MgSiO_3_
##LOCALITY=India
##OWNER=RRUFF
##SOURCE=Michael Scott
##DESCRIPTION=Brown translucent fragments
##STATUS=The identification of this mineral has been confirmed by X-ray diffraction and chemical analysis
##URL=rruff.info/R070418
##MEASURED CHEMISTRY=(Mg_0.86_Fe_0.14_)_Î£=1_Si_1.00_O_3_; trace amounts of Al, Ca, Mn
133.5544, 466.8589
134.0366, 485.6635
134.5187, 506.4679
135.0008, 530.5479
135.4829, 559.5257
135.9650, 592.7251
136.4471, 614.2149
136.9293, 612.7103
137.4114, 612.2144
137.8935, 621.7788
138.3756, 638.3937
138.8577, 653.9583
139.3398, 662.4692
139.8220, 663.8269
140.3041, 665.3325
140.7862, 666.6430
141.2683, 668.3716
141.7504, 669.9984
142.2325, 672.0382
142.7147, 675.9456
143.1968, 682.7424
143.6789, 692.6384
144.1610, 705.7174
144.6431, 725.6753
145.1252, 745.2727
145.6074, 757.3713
146.0895, 763.4150
146.5716, 773.6296
147.0537, 796.7073
147.5358, 833.4422
148.0179, 869.8009
148.5001, 909.9893
148.9822, 946.7510
149.4643, 972.8171
149.9464, 988.4505
150.4285, 1003.193
150.9106, 1027.344
151.3928, 1058.846
151.8749, 1078.600
152.3570, 1083.716
152.8391, 1077.681
153.3212, 1061.302
153.8033, 1034.408
154.2855, 1003.830
154.7676, 973.8345
155.2497, 944.2175
155.7318, 914.5225
156.2139, 883.6688
156.6960, 853.1918
157.1782, 824.2079
157.6603, 796.5571
158.1424, 772.0671
158.6245, 752.8719
159.1066, 738.1311
159.5887, 726.8124
160.0709, 718.1982
160.5530, 713.0825
161.0351, 714.5181
161.5172, 724.5547
161.9993, 733.6475
162.4814, 732.9786
162.9636, 726.5269
163.4457, 721.1199
163.9278, 719.8654
164.4099, 720.8910
164.8920, 720.1846
165.3741, 716.3688
165.8563, 714.7750
166.3384, 721.9913
166.8205, 733.3651
167.3026, 740.9377
167.7847, 741.0828
168.2668, 735.5433
168.7490, 727.2972
169.2311, 714.6884
169.7132, 703.0841
170.1953, 693.4311
170.6774, 686.6827
171.1595, 685.3062
171.6417, 693.6130
172.1238, 706.6990
172.6059, 711.5500
173.0880, 704.3837
173.5701, 696.2991
174.0522, 691.5209
174.5344, 689.1761
175.0165, 688.5462
175.4986, 690.4351
175.9807, 693.1014
176.4628, 690.8665
176.9449, 679.5701
177.4271, 671.1494
177.9092, 671.8745
178.3913, 677.3787
178.8734, 681.9252
179.3555, 682.8196
179.8376, 680.8985
180.3197, 678.6201
180.8019, 676.1092
181.2840, 672.9377
181.7661, 667.6995
182.2482, 662.1909
182.7303, 658.4604
183.2124, 657.2871
183.6946, 658.8456
184.1767, 664.4857
184.6588, 678.5188
185.1409, 688.8665
185.6230, 691.2928
186.1051, 689.2961
186.5873, 686.4254
187.0694, 684.0320
187.5515, 682.5299
188.0336, 683.0421
188.5157, 686.0720
188.9978, 690.5131
189.4800, 697.6464
189.9621, 705.1548
190.4442, 710.1794
190.9263, 711.1909
191.4084, 710.4412
191.8905, 713.7874
192.3727, 724.7986
192.8548, 733.6026
193.3369, 736.9606
193.8190, 738.4568
194.3011, 741.1873
194.7832, 746.3611
195.2654, 753.7894
195.7475, 763.6567
196.2296, 779.6171
196.7117, 791.0151
197.1938, 793.0062
197.6759, 792.5684
198.1581, 796.0345
198.6402, 805.4974
199.1223, 817.8562
199.6044, 827.6278
200.0865, 834.8199
200.5686, 838.9949
201.0508, 837.9308
201.5329, 835.8075
202.0150, 835.9915
202.4971, 839.3545
202.9792, 844.1129
203.4613, 847.2881
203.9435, 847.7027
204.4256, 849.1808
204.9077, 852.9280
205.3898, 856.9213
205.8719, 860.2182
206.3540, 862.4511
206.8362, 863.2875
207.3183, 861.7900
207.8004, 856.2315
208.2825, 852.8347
208.7646, 852.9706
209.2467, 853.9454
209.7289, 854.7549
210.2110, 854.9979
210.6931, 854.2820
211.1752, 851.7655
211.6573, 846.4860
212.1395, 843.0477
212.6216, 842.2171
213.1037, 842.4261
213.5858, 842.0667
214.0679, 841.7145
214.5500, 843.9385
215.0322, 852.4361
215.5143, 869.0447
215.9964, 879.3875
216.4785, 876.5950
216.9606, 874.0428
217.4427, 876.0790
217.9249, 882.7292
218.4070, 892.1572
218.8891, 902.7152
219.3712, 914.3337
219.8533, 929.6953
220.3354, 954.3740
220.8176, 977.5449
221.2997, 994.8516
221.7818, 1008.381
222.2639, 1023.129
222.7460, 1043.132
223.2281, 1067.534
223.7103, 1085.243
224.1924, 1086.149
224.6745, 1091.249
225.1566, 1104.348
225.6387, 1124.456
226.1208, 1151.092
226.6030, 1184.847
227.0851, 1222.717
227.5672, 1251.550
228.0493, 1261.706
228.5314, 1275.654
229.0135, 1293.744
229.4957, 1318.530
229.9778, 1354.154
230.4599, 1402.752
230.9420, 1459.473
231.4241, 1512.722
231.9062, 1559.370
232.3884, 1607.551
232.8705, 1653.987
233.3526, 1704.194
233.8347, 1770.126
234.3168, 1854.321
234.7989, 1937.504
235.2811, 1983.985
235.7632, 1978.819
236.2453, 1971.304
236.7274, 1974.862
237.2095, 1971.698
237.6916, 1949.969
238.1738, 1907.376
238.6559, 1849.277
239.1380, 1781.183
239.6201, 1702.345
240.1022, 1615.264
240.5843, 1504.396
241.0665, 1398.149
241.5486, 1310.284
242.0307, 1240.768
242.5128, 1181.268
242.9949, 1123.220
243.4770, 1065.797
243.9592, 1019.059
244.4413, 989.2100
244.9234, 964.8404
245.4055, 943.2231
245.8876, 923.7222
246.3697, 905.8961
246.8519, 889.0068
247.3340, 873.2409
247.8161, 861.3926
248.2982, 856.0884
248.7803, 851.4030
249.2624, 846.9781
249.7446, 841.4390
250.2267, 831.9409
250.7088, 815.1979
251.1909, 795.3553
251.6730, 784.5459
252.1551, 785.3839
252.6373, 790.4130
253.1194, 802.7168
253.6015, 815.2494
254.0836, 819.3674
254.5657, 810.9816
255.0478, 796.8716
255.5300, 787.8327
256.0121, 785.2623
256.4942, 782.5719
256.9763, 774.8067
257.4584, 768.0446
257.9406, 767.8871
258.4227, 775.6960
258.9048, 785.4019
259.3869, 791.4888
259.8690, 793.9297
260.3511, 793.1187
260.8333, 786.0689
261.3154, 778.3503
261.7975, 774.0114
262.2796, 773.0984
262.7617, 773.0709
263.2438, 772.4645
263.7260, 771.3009
264.2081, 769.0543
264.6902, 763.0671
265.1723, 760.2797
265.6544, 767.6943
266.1365, 782.5723
266.6187, 795.8231
267.1008, 802.8839
267.5829, 805.4809
268.0650, 806.2594
268.5471, 804.1707
269.0292, 803.8937
269.5114, 810.7577
269.9935, 821.4929
270.4756, 830.6436
270.9577, 834.4200
271.4398, 837.9944
271.9219, 848.0219
272.4041, 864.7093
272.8862, 881.9783
273.3683, 899.3787
273.8504, 913.9462
274.3325, 920.2035
274.8146, 913.5368
275.2968, 906.4726
275.7789, 907.7490
276.2610, 915.8065
276.7431, 925.2216
277.2252, 936.2117
277.7073, 944.6726
278.1895, 942.4405
278.6716, 927.4323
279.1537, 914.1357
279.6358, 908.8913
280.1179, 908.5015
280.6000, 908.4509
281.0822, 908.1371
281.5643, 905.6037
282.0464, 896.6955
282.5285, 880.5567
283.0106, 869.6415
283.4927, 869.3610
283.9749, 872.3635
284.4570, 872.4446
284.9391, 869.0336
285.4212, 863.7130
285.9033, 856.7212
286.3854, 848.3921
286.8676, 845.8727
287.3497, 854.4737
287.8318, 863.1658
288.3139, 864.8241
288.7960, 862.0497
289.2781, 862.7686
289.7603, 871.9795
290.2424, 886.9892
290.7245, 896.2213
291.2066, 894.1674
291.6887, 893.5878
292.1708, 896.6382
292.6530, 902.0997
293.1351, 908.7937
293.6172, 916.2690
294.0993, 924.0880
294.5814, 931.7002
295.0635, 941.6211
295.5457, 946.0201
296.0278, 937.6141
296.5099, 929.3117
296.9920, 932.8763
297.4741, 947.8820
297.9562, 963.2628
298.4384, 967.4458
298.9205, 958.8983
299.4026, 949.4754
299.8847, 936.0464
300.3668, 924.8809
300.8489, 918.1740
301.3310, 915.4340
301.8131, 915.6847
302.2953, 918.7839
302.7774, 923.8024
303.2595, 925.6643
303.7416, 920.4789
304.2237, 917.9348
304.7058, 919.7439
305.1880, 924.9957
305.6701, 933.2338
306.1522, 944.3656
306.6343, 956.9099
307.1164, 968.8601
307.5985, 980.5209
308.0807, 990.2551
308.5628, 994.8823
309.0449, 999.4651
309.5270, 1005.875
310.0091, 1014.715
310.4912, 1027.492
310.9734, 1047.284
311.4555, 1073.365
311.9376, 1097.242
312.4197, 1117.342
312.9018, 1136.417
313.3839, 1156.444
313.8661, 1176.995
314.3482, 1196.657
314.8303, 1213.143
315.3124, 1229.090
315.7945, 1249.376
316.2766, 1274.392
316.7588, 1301.405
317.2409, 1330.667
317.7230, 1360.220
318.2051, 1386.387
318.6872, 1406.672
319.1693, 1426.878
319.6515, 1452.080
320.1336, 1481.022
320.6157, 1508.810
321.0978, 1534.094
321.5799, 1556.715
322.0620, 1576.689
322.5442, 1594.238
323.0263, 1609.025
323.5084, 1621.412
323.9905, 1630.850
324.4726, 1632.840
324.9547, 1626.756
325.4369, 1626.279
325.9190, 1646.237
326.4011, 1689.171
326.8832, 1726.420
327.3653, 1756.293
327.8474, 1782.492
328.3296, 1805.682
328.8117, 1826.831
329.2938, 1847.126
329.7759, 1866.702
330.2580, 1887.155
330.7401, 1915.152
331.2223, 1960.269
331.7044, 2001.274
332.1865, 2033.529
332.6686, 2061.853
333.1507, 2089.765
333.6328, 2118.791
334.1150, 2151.650
334.5971, 2193.687
335.0792, 2249.978
335.5613, 2301.245
336.0434, 2335.924
336.5255, 2376.179
337.0077, 2438.181
337.4898, 2516.939
337.9719, 2594.526
338.4540, 2655.159
338.9361, 2701.410
339.4182, 2757.783
339.9004, 2836.888
340.3825, 2906.560
340.8646, 2954.374
341.3467, 2989.954
341.8288, 3025.675
342.3109, 3066.796
342.7931, 3107.391
343.2752, 3138.872
343.7573, 3160.797
344.2394, 3177.173
344.7215, 3192.618
345.2036, 3198.982
345.6858, 3189.686
346.1679, 3164.494
346.6500, 3129.829
347.1321, 3090.177
347.6142, 3044.234
348.0963, 2985.983
348.5785, 2911.680
349.0606, 2834.449
349.5427, 2764.201
350.0248, 2699.146
350.5069, 2634.710
350.9890, 2570.765
351.4712, 2506.307
351.9533, 2440.476
352.4354, 2373.164
352.9175, 2302.416
353.3996, 2224.651
353.8817, 2145.969
354.3639, 2083.628
354.8460, 2041.611
355.3281, 2003.472
355.8102, 1970.690
356.2923, 1937.690
356.7744, 1895.896
357.2566, 1843.974
357.7387, 1792.083
358.2208, 1751.866
358.7029, 1725.564
359.1850, 1698.723
359.6671, 1673.421
360.1493, 1645.780
360.6314, 1611.234
361.1135, 1573.085
361.5956, 1539.254
362.0777, 1514.840
362.5598, 1496.045
363.0420, 1467.818
363.5241, 1417.580
364.0062, 1378.518
364.4883, 1360.783
364.9704, 1350.558
365.4525, 1336.821
365.9347, 1317.127
366.4168, 1295.316
366.8989, 1275.881
367.3810, 1258.863
367.8631, 1240.661
368.3452, 1216.927
368.8274, 1197.287
369.3095, 1187.069
369.7916, 1184.218
370.2737, 1184.115
370.7558, 1187.031
371.2379, 1189.457
371.7201, 1183.795
372.2022, 1169.024
372.6843, 1156.052
373.1664, 1149.463
373.6485, 1147.569
374.1306, 1147.772
374.6128, 1150.718
375.0949, 1153.188
375.5770, 1152.534
376.0591, 1150.380
376.5412, 1149.948
377.0233, 1151.927
377.5055, 1155.399
377.9876, 1159.865
378.4697, 1165.462
378.9518, 1169.785
379.4339, 1172.079
379.9160, 1173.729
380.3982, 1177.009
380.8803, 1180.445
381.3624, 1179.305
381.8445, 1170.567
382.3266, 1157.189
382.8087, 1148.040
383.2909, 1148.618
383.7730, 1146.437
384.2551, 1141.165
384.7372, 1133.145
385.2193, 1121.405
385.7014, 1106.526
386.1836, 1091.610
386.6657, 1080.403
387.1478, 1073.297
387.6299, 1063.074
388.1120, 1044.752
388.5941, 1029.053
389.0763, 1020.417
389.5584, 1016.370
390.0405, 1013.374
390.5226, 1010.249
391.0047, 1006.400
391.4868, 999.2120
391.9690, 987.7980
392.4511, 982.0797
392.9332, 988.3239
393.4153, 998.2225
393.8974, 1003.475
394.3795, 1004.035
394.8617, 1005.082
395.3438, 1008.231
395.8259, 1013.780
396.3080, 1024.234
396.7901, 1040.230
397.2722, 1053.063
397.7544, 1055.352
398.2365, 1049.122
398.7186, 1046.619
399.2007, 1051.682
399.6828, 1056.106
400.1649, 1055.849
400.6471, 1053.067
401.1292, 1051.888
401.6113, 1053.677
402.0934, 1055.443
402.5755, 1052.211
403.0576, 1040.442
403.5398, 1034.760
404.0219, 1040.613
404.5040, 1046.565
404.9861, 1046.053
405.4682, 1040.645
405.9503, 1035.517
406.4325, 1034.073
406.9146, 1035.045
407.3967, 1033.529
407.8788, 1026.803
408.3609, 1023.286
408.8430, 1025.903
409.3252, 1031.197
409.8073, 1037.230
410.2894, 1043.494
410.7715, 1049.079
411.2536, 1054.069
411.7357, 1057.976
412.2179, 1056.887
412.7000, 1047.826
413.1821, 1040.352
413.6642, 1045.801
414.1463, 1057.271
414.6284, 1060.066
415.1106, 1043.306
415.5927, 1027.164
416.0748, 1032.431
416.5569, 1051.114
417.0390, 1057.117
417.5211, 1040.264
418.0033, 1012.289
418.4854, 989.9366
418.9675, 974.6581
419.4496, 960.8875
419.9317, 950.2139
420.4138, 939.6875
420.8960, 927.2512
421.3781, 913.1038
421.8602, 897.8974
422.3423, 881.5328
422.8244, 865.3752
423.3065, 855.7681
423.7887, 860.1688
424.2708, 859.4130
424.7529, 848.6407
425.2350, 834.3669
425.7171, 821.7182
426.1992, 811.4554
426.6814, 801.4146
427.1635, 787.0688
427.6456, 769.3911
428.1277, 763.0927
428.6098, 775.3947
429.0919, 785.1938
429.5741, 778.0774
430.0562, 762.5513
430.5383, 750.7646
431.0204, 745.6873
431.5025, 744.6224
431.9846, 746.3016
432.4668, 750.3053
432.9489, 755.1107
433.4310, 760.2861
433.9131, 766.3766
434.3952, 774.7488
434.8773, 785.7909
435.3595, 794.0461
435.8416, 798.4402
436.3237, 800.6320
436.8058, 799.0021
437.2879, 795.9798
437.7701, 797.7969
438.2522, 807.9340
438.7343, 822.9352
439.2164, 833.8696
439.6985, 837.5520
440.1806, 842.7144
440.6628, 851.8192
441.1449, 860.4744
441.6270, 866.2435
442.1091, 868.9280
442.5912, 869.2504
443.0733, 867.3346
443.5555, 863.6208
444.0376, 860.0150
444.5197, 857.0983
445.0018, 852.6372
445.4839, 844.0897
445.9660, 834.3650
446.4482, 826.8333
446.9303, 822.3829
447.4124, 816.5393
447.8945, 803.1548
448.3766, 787.0945
448.8587, 780.8012
449.3409, 786.6566
449.8230, 791.0849
450.3051, 781.4120
450.7872, 759.8408
451.2693, 749.0166
451.7514, 758.5295
452.2336, 766.7508
452.7157, 765.2768
453.1978, 758.7358
453.6799, 752.8915
454.1620, 749.6451
454.6441, 749.1429
455.1263, 752.7198
455.6084, 762.4876
456.0905, 764.3383
456.5726, 743.4556
457.0547, 729.7984
457.5368, 739.5544
458.0190, 760.9115
458.5011, 774.2540
458.9832, 770.7048
459.4653, 759.3477
459.9474, 752.3671
460.4295, 749.8419
460.9117, 748.2770
461.3938, 748.0919
461.8759, 747.1987
462.3580, 742.6993
462.8401, 735.4547
463.3222, 730.1066
463.8044, 728.3505
464.2865, 728.6449
464.7686, 730.5051
465.2507, 733.4302
465.7328, 736.2137
466.2149, 738.7621
466.6971, 739.3422
467.1792, 734.2908
467.6613, 719.6450
468.1434, 707.4769
468.6255, 698.1766
469.1076, 690.9284
469.5898, 685.8514
470.0719, 682.4696
470.5540, 680.2565
471.0361, 679.2230
471.5182, 678.1513
472.0003, 672.6981
472.4825, 660.4738
472.9646, 650.4916
473.4467, 643.8867
473.9288, 640.8882
474.4109, 644.1528
474.8930, 652.7266
475.3752, 659.0012
475.8573, 657.8244
476.3394, 651.9012
476.8215, 644.1279
477.3036, 634.5663
477.7857, 629.1362
478.2679, 632.4192
478.7500, 640.3829
479.2321, 642.8900
479.7142, 637.6033
480.1963, 633.6374
480.6784, 634.2032
481.1606, 635.8304
481.6427, 634.9076
482.1248, 631.6004
482.6069, 628.8406
483.0890, 628.9318
483.5711, 631.2680
484.0533, 632.6359
484.5354, 634.0847
485.0175, 632.6140
485.4996, 625.2264
485.9817, 616.9504
486.4638, 611.5118
486.9460, 609.3954
487.4281, 609.3071
487.9102, 611.2548
488.3923, 614.4041
488.8744, 616.2037
489.3565, 616.5255
489.8387, 615.9854
490.3208, 613.8340
490.8029, 611.5947
491.2850, 612.4291
491.7671, 617.4037
492.2492, 622.2960
492.7314, 626.6958
493.2135, 629.6786
493.6956, 629.9106
494.1777, 627.4325
494.6598, 623.1776
495.1419, 617.3776
495.6241, 610.7361
496.1062, 607.7803
496.5883, 611.8956
497.0704, 615.0991
497.5525, 616.0326
498.0346, 616.1879
498.5168, 616.6424
498.9989, 617.5999
499.4810, 618.8604
499.9631, 620.4558
500.4452, 622.2180
500.9273, 623.8270
501.4095, 625.6865
501.8916, 625.5288
502.3737, 620.7198
502.8558, 614.2548
503.3379, 610.7642
503.8200, 610.6773
504.3022, 612.1577
504.7843, 615.8546
505.2664, 620.0013
505.7485, 621.8910
506.2306, 621.7487
506.7127, 622.6263
507.1949, 626.7999
507.6770, 633.3059
508.1591, 637.8573
508.6412, 638.5504
509.1233, 640.0477
509.6054, 645.6493
510.0876, 649.7840
510.5697, 646.0679
511.0518, 636.0930
511.5339, 628.6271
512.0161, 631.6890
512.4982, 640.6785
512.9803, 641.4053
513.4624, 631.8008
513.9445, 626.9009
514.4266, 635.6995
514.9088, 648.5057
515.3909, 651.8293
515.8730, 644.8560
516.3551, 639.5311
516.8372, 639.5834
517.3193, 642.7550
517.8015, 648.5956
518.2836, 655.9661
518.7657, 661.6447
519.2478, 663.9612
519.7299, 663.2639
520.2120, 659.5920
520.6942, 645.7982
521.1763, 643.0760
521.6584, 661.0752
522.1405, 679.7418
522.6226, 687.7161
523.1047, 687.4196
523.5869, 687.0325
524.0690, 690.9633
524.5511, 696.7418
525.0332, 699.4474
525.5153, 699.1208
525.9974, 702.5466
526.4796, 712.7213
526.9617, 724.8915
527.4438, 734.3711
527.9259, 741.4354
528.4080, 747.2919
528.8901, 751.6357
529.3723, 755.2838
529.8544, 756.7239
530.3365, 758.2027
530.8186, 764.1498
531.3007, 776.0620
531.7828, 791.6585
532.2650, 808.6600
532.7471, 828.2494
533.2292, 842.1311
533.7113, 844.3369
534.1934, 847.6025
534.6755, 857.3383
535.1577, 869.8026
535.6398, 879.8950
536.1219, 886.1271
536.6040, 890.5365
537.0861, 895.7567
537.5682, 900.7057
538.0504, 902.2057
538.5325, 900.0527
539.0146, 892.8030
539.4967, 877.1972
539.9788, 855.7576
540.4609, 841.3910
540.9431, 841.7009
541.4252, 837.6829
541.9073, 820.9138
542.3894, 801.0937
542.8715, 787.4763
543.3536, 780.7135
543.8358, 775.9237
544.3179, 769.1091
544.8000, 761.2034
545.2821, 757.4547
545.7642, 761.5399
546.2463, 759.5992
546.7285, 739.7155
547.2106, 718.8134
547.6926, 710.7900
548.1747, 715.2625
548.6569, 720.9418
549.1390, 722.7748
549.6211, 723.4961
550.1032, 727.3425
550.5853, 733.1049
551.0674, 734.8569
551.5496, 729.8706
552.0317, 721.7877
552.5138, 716.8202
552.9959, 717.3140
553.4780, 712.7687
553.9601, 699.1804
554.4423, 685.5716
554.9244, 672.8107
555.4065, 663.2609
555.8886, 661.6536
556.3707, 669.9454
556.8528, 679.8099
557.3350, 679.3805
557.8171, 670.3870
558.2992, 668.6605
558.7813, 678.8922
559.2634, 685.8234
559.7455, 675.9396
560.2277, 655.3898
560.7098, 644.6279
561.1919, 649.5938
561.6740, 654.1415
562.1561, 652.3832
562.6382, 648.2394
563.1204, 644.9703
563.6025, 643.4214
564.0846, 644.4504
564.5667, 649.1754
565.0488, 656.1099
565.5309, 658.9443
566.0131, 655.1354
566.4952, 653.6597
566.9773, 658.4575
567.4594, 664.1622
567.9415, 668.4084
568.4236, 670.7905
568.9058, 670.4606
569.3879, 665.7014
569.8700, 659.2899
570.3521, 652.1423
570.8342, 645.4679
571.3163, 643.8730
571.7985, 648.9788
572.2806, 657.6412
572.7627, 666.9054
573.2448, 677.4747
573.7269, 682.0875
574.2090, 675.2894
574.6912, 669.4137
575.1733, 668.5752
575.6554, 669.7054
576.1375, 669.2951
576.6196, 666.5659
577.1017, 663.0491
577.5839, 659.0114
578.0660, 655.3045
578.5481, 655.3479
579.0302, 659.5633
579.5123, 664.6053
579.9944, 670.7241
580.4766, 675.2181
580.9587, 670.6133
581.4408, 653.0576
581.9229, 643.7675
582.4050, 652.7881
582.8871, 664.5365
583.3693, 669.0988
583.8514, 668.0653
584.3335, 666.6193
584.8156, 667.1118
585.2977, 668.4135
585.7798, 668.4647
586.2620, 667.0391
586.7441, 667.0710
587.2262, 669.0436
587.7083, 671.9388
588.1904, 678.1701
588.6725, 684.1627
589.1547, 682.9551
589.6368, 670.7327
590.1189, 658.9877
590.6010, 653.2000
591.0831, 651.0094
591.5652, 650.1046
592.0474, 649.9393
592.5295, 649.6755
593.0116, 648.5604
593.4937, 647.5483
593.9758, 650.2431
594.4579, 660.1112
594.9401, 665.4017
595.4222, 661.4879
595.9043, 656.0130
596.3864, 651.1915
596.8685, 647.8647
597.3506, 647.8763
597.8328, 653.4590
598.3149, 659.5488
598.7970, 661.3092
599.2791, 660.0383
599.7612, 658.6611
600.2433, 657.7319
600.7255, 658.0344
601.2076, 660.3911
601.6897, 664.5593
602.1718, 668.6129
602.6539, 675.6898
603.1360, 678.1282
603.6182, 670.7711
604.1003, 662.2652
604.5824, 659.7263
605.0645, 662.4073
605.5466, 664.3856
606.0287, 661.4478
606.5109, 657.0776
606.9930, 657.1733
607.4751, 661.0861
607.9572, 662.9883
608.4393, 660.6524
608.9214, 659.3284
609.4036, 665.7239
609.8857, 679.8710
610.3678, 685.9769
610.8499, 674.9664
611.3320, 668.1796
611.8141, 673.4341
612.2963, 683.4443
612.7784, 692.6102
613.2605, 699.1447
613.7426, 701.2682
614.2247, 695.5477
614.7068, 686.1915
615.1890, 684.1022
615.6711, 689.5694
616.1532, 695.7775
616.6353, 700.5897
617.1174, 705.8080
617.5995, 714.7328
618.0817, 727.4751
618.5638, 734.9175
619.0459, 731.3318
619.5280, 728.6042
620.0101, 730.5745
620.4922, 736.3563
620.9744, 746.9097
621.4565, 761.0306
621.9386, 771.8256
622.4207, 770.7506
622.9028, 762.3940
623.3849, 765.8609
623.8671, 783.1294
624.3492, 801.0724
624.8313, 817.5107
625.3134, 830.9763
625.7955, 837.6418
626.2776, 837.9839
626.7598, 841.5505
627.2419, 850.4709
627.7240, 861.9889
628.2061, 876.4494
628.6882, 891.8840
629.1703, 905.4062
629.6525, 916.3994
630.1346, 926.3376
630.6167, 936.5414
