##NAMES=Enstatite
##RRUFFID=R070097
##IDEAL CHEMISTRY=MgSiO_3_
##LOCALITY=Concord, Pennsylvania, USA
##OWNER=RRUFF
##SOURCE=Michael Scott
##DESCRIPTION=Pale brown bladed crystals frozen in matrix
##STATUS=The identification of this mineral has been confirmed by X-ray diffraction and chemical analysis
##URL=rruff.info/R070097
##MEASURED CHEMISTRY=(Mg_0.93_Fe_0.07_)_Î£=1_Si_1.00_O_3_
171.8774, 19095.05
172.3596, 19140.07
172.8417, 19187.11
173.3238, 19248.30
173.8059, 19301.17
174.2880, 19308.24
174.7701, 19266.24
175.2523, 19226.75
175.7344, 19226.94
176.2165, 19264.67
176.6986, 19334.70
177.1807, 19475.15
177.6628, 19634.53
178.1450, 19727.02
178.6271, 19737.98
179.1092, 19719.45
179.5913, 19723.61
180.0734, 19747.90
180.5555, 19780.76
181.0376, 19816.41
181.5198, 19855.37
182.0019, 19902.25
182.4840, 19959.56
182.9661, 20020.24
183.4482, 20072.79
183.9303, 20117.98
184.4125, 20159.35
184.8946, 20194.26
185.3767, 20226.26
185.8588, 20272.15
186.3409, 20341.09
186.8230, 20420.25
187.3052, 20481.50
187.7873, 20524.43
188.2694, 20555.84
188.7515, 20571.51
189.2336, 20574.97
189.7157, 20595.29
190.1979, 20643.28
190.6800, 20713.04
191.1621, 20785.52
191.6442, 20861.28
192.1263, 20935.15
192.6084, 21003.98
193.0906, 21067.65
193.5727, 21117.03
194.0548, 21155.85
194.5369, 21180.43
195.0190, 21150.03
195.5011, 21049.42
195.9832, 20937.89
196.4654, 20905.90
196.9475, 20960.19
197.4296, 21019.39
197.9117, 21046.25
198.3938, 21040.78
198.8759, 21049.21
199.3581, 21073.38
199.8402, 21108.72
200.3223, 21154.62
200.8044, 21216.63
201.2865, 21260.58
201.7686, 21257.98
202.2508, 21202.09
202.7329, 21174.79
203.2150, 21183.80
203.6971, 21219.52
204.1792, 21263.46
204.6613, 21319.52
205.1435, 21370.78
205.6256, 21406.02
206.1077, 21422.33
206.5898, 21436.80
207.0719, 21448.28
207.5540, 21459.68
208.0362, 21483.63
208.5183, 21524.62
209.0004, 21567.68
209.4825, 21599.55
209.9646, 21613.54
210.4467, 21642.26
210.9289, 21696.13
211.4110, 21769.63
211.8931, 21827.32
212.3752, 21869.97
212.8573, 21894.42
213.3394, 21888.29
213.8215, 21829.59
214.3037, 21807.08
214.7858, 21849.02
215.2679, 21951.10
215.7500, 22019.11
216.2321, 22040.58
216.7142, 22044.02
217.1964, 22057.81
217.6785, 22086.44
218.1606, 22113.56
218.6427, 22131.65
219.1248, 22139.11
219.6069, 22172.51
220.0891, 22253.51
220.5712, 22338.31
221.0533, 22368.41
221.5354, 22311.80
222.0175, 22266.93
222.4996, 22263.92
222.9818, 22309.69
223.4639, 22350.44
223.9460, 22391.49
224.4281, 22423.60
224.9102, 22428.38
225.3923, 22381.06
225.8745, 22351.90
226.3566, 22367.88
226.8387, 22442.93
227.3208, 22509.63
227.8029, 22569.01
228.2850, 22619.58
228.7672, 22657.21
229.2493, 22680.96
229.7314, 22693.69
230.2135, 22692.20
230.6956, 22663.22
231.1777, 22659.25
231.6599, 22691.22
232.1420, 22744.02
232.6241, 22781.94
233.1062, 22793.20
233.5883, 22807.31
234.0704, 22840.80
234.5526, 22915.95
235.0347, 22955.80
235.5168, 22938.57
235.9989, 22890.55
236.4810, 22887.36
236.9631, 22954.66
237.4453, 23031.26
237.9274, 23088.18
238.4095, 23115.35
238.8916, 23143.77
239.3737, 23176.23
239.8558, 23210.55
240.3380, 23238.59
240.8201, 23254.97
241.3022, 23272.23
241.7843, 23299.07
242.2664, 23348.17
242.7485, 23379.20
243.2307, 23381.64
243.7128, 23363.74
244.1949, 23363.03
244.6770, 23388.76
245.1591, 23419.53
245.6412, 23441.41
246.1233, 23445.14
246.6055, 23460.56
247.0876, 23497.35
247.5697, 23549.86
248.0518, 23580.65
248.5339, 23576.33
249.0160, 23568.50
249.4982, 23579.26
249.9803, 23619.82
250.4624, 23654.83
250.9445, 23679.94
251.4266, 23696.06
251.9087, 23709.32
252.3909, 23717.03
252.8730, 23725.48
253.3551, 23739.88
253.8372, 23764.10
254.3193, 23784.88
254.8014, 23796.52
255.2836, 23801.36
255.7657, 23822.10
256.2478, 23864.86
256.7299, 23915.20
257.2120, 23963.74
257.6941, 24012.52
258.1762, 24054.58
258.6584, 24088.55
259.1405, 24114.73
259.6226, 24138.80
260.1047, 24163.66
260.5868, 24182.44
261.0689, 24185.78
261.5511, 24162.89
262.0332, 24155.82
262.5153, 24177.26
262.9974, 24223.31
263.4795, 24255.81
263.9616, 24268.17
264.4438, 24277.37
264.9259, 24302.86
265.4080, 24355.43
265.8901, 24385.95
266.3722, 24374.71
266.8543, 24328.16
267.3365, 24316.58
267.8186, 24347.91
268.3007, 24398.63
268.7828, 24449.80
269.2649, 24503.36
269.7470, 24551.51
270.2292, 24592.41
270.7113, 24626.81
271.1934, 24658.51
271.6755, 24690.43
272.1576, 24713.36
272.6397, 24711.75
273.1219, 24677.81
273.6040, 24663.41
274.0861, 24686.67
274.5682, 24740.81
275.0503, 24769.68
275.5324, 24767.16
276.0146, 24757.74
276.4967, 24761.38
276.9788, 24778.02
277.4609, 24810.55
277.9430, 24866.80
278.4251, 24939.93
278.9073, 24992.52
279.3894, 25022.58
279.8715, 25037.96
280.3536, 25035.82
280.8357, 25014.88
281.3178, 25017.69
281.8000, 25060.16
282.2821, 25132.55
282.7642, 25199.85
283.2463, 25262.60
283.7284, 25313.85
284.2105, 25342.40
284.6927, 25349.20
285.1748, 25357.10
285.6569, 25376.46
286.1390, 25398.82
286.6211, 25385.48
287.1032, 25330.94
287.5853, 25287.96
288.0674, 25314.68
288.5496, 25402.45
289.0317, 25485.48
289.5138, 25554.39
289.9959, 25603.32
290.4780, 25606.23
290.9601, 25561.39
291.4423, 25512.16
291.9244, 25489.17
292.4065, 25491.23
292.8886, 25517.97
293.3707, 25583.45
293.8528, 25660.82
294.3350, 25696.78
294.8171, 25692.10
295.2992, 25676.53
295.7813, 25666.33
296.2634, 25663.16
296.7455, 25671.90
297.2277, 25694.98
297.7098, 25729.06
298.1919, 25776.55
298.6740, 25835.52
299.1561, 25884.53
299.6382, 25902.39
300.1204, 25899.91
300.6025, 25897.66
301.0846, 25901.54
301.5667, 25905.51
302.0488, 25900.25
302.5309, 25887.50
303.0131, 25876.83
303.4952, 25860.77
303.9773, 25854.49
304.4594, 25884.94
304.9415, 25976.08
305.4236, 26074.04
305.9058, 26128.71
306.3879, 26147.59
306.8700, 26156.19
307.3521, 26161.83
307.8342, 26168.76
308.3163, 26181.75
308.7985, 26203.11
309.2806, 26228.01
309.7627, 26256.04
310.2448, 26285.50
310.7269, 26311.15
311.2090, 26333.24
311.6912, 26348.57
312.1733, 26349.51
312.6554, 26323.50
313.1375, 26311.48
313.6196, 26346.87
314.1017, 26412.43
314.5839, 26470.39
315.0660, 26507.03
315.5481, 26529.54
316.0302, 26537.46
316.5123, 26521.34
316.9944, 26519.47
317.4766, 26565.96
317.9587, 26634.00
318.4408, 26677.41
318.9229, 26655.85
319.4050, 26627.66
319.8871, 26615.50
320.3692, 26621.02
320.8513, 26645.09
321.3335, 26709.95
321.8156, 26788.07
322.2977, 26841.82
322.7798, 26848.63
323.2619, 26844.40
323.7440, 26835.31
324.2262, 26817.65
324.7083, 26815.10
325.1904, 26835.23
325.6725, 26869.59
326.1546, 26908.79
326.6367, 26970.22
327.1189, 27018.31
327.6010, 27037.81
328.0831, 27022.73
328.5652, 27029.88
329.0473, 27077.12
329.5294, 27135.64
330.0116, 27178.93
330.4937, 27194.60
330.9758, 27213.04
331.4579, 27244.90
331.9400, 27289.71
332.4221, 27306.54
332.9043, 27275.36
333.3864, 27238.19
333.8685, 27230.36
334.3506, 27265.78
334.8327, 27298.33
335.3148, 27323.25
335.7970, 27340.29
336.2791, 27347.01
336.7612, 27334.74
337.2433, 27329.40
337.7254, 27353.47
338.2076, 27414.03
338.6897, 27467.11
339.1718, 27506.57
339.6539, 27535.88
340.1360, 27570.03
340.6181, 27611.53
341.1003, 27645.04
341.5824, 27653.77
342.0645, 27637.63
342.5466, 27637.50
343.0287, 27658.76
343.5108, 27694.43
343.9930, 27733.88
344.4751, 27777.14
344.9572, 27819.26
345.4393, 27864.65
345.9214, 27908.61
346.4035, 27927.18
346.8857, 27914.59
347.3678, 27890.53
347.8499, 27876.70
348.3320, 27873.14
348.8141, 27880.05
349.2962, 27896.21
349.7784, 27923.25
350.2605, 27970.46
350.7426, 28040.29
351.2247, 28108.64
351.7068, 28140.77
352.1889, 28152.90
352.6710, 28182.13
353.1531, 28275.28
353.6353, 28376.76
354.1174, 28414.70
354.5995, 28390.12
355.0816, 28363.36
355.5637, 28381.34
356.0458, 28422.62
356.5280, 28458.69
357.0101, 28467.10
357.4922, 28478.69
357.9743, 28522.30
358.4564, 28592.06
358.9385, 28650.46
359.4207, 28672.72
359.9028, 28677.90
360.3849, 28680.39
360.8670, 28674.35
361.3491, 28678.50
361.8312, 28715.42
362.3134, 28771.27
362.7955, 28801.35
363.2776, 28754.52
363.7597, 28705.71
364.2418, 28700.01
364.7239, 28786.94
365.2061, 28834.83
365.6882, 28781.29
366.1703, 28677.56
366.6524, 28626.61
367.1345, 28705.14
367.6166, 28777.27
368.0988, 28793.68
368.5809, 28723.80
369.0630, 28688.29
369.5451, 28701.30
370.0272, 28741.58
370.5093, 28785.64
370.9915, 28858.28
371.4736, 28894.21
371.9557, 28860.59
372.4378, 28749.93
372.9199, 28700.79
373.4020, 28732.50
373.8842, 28799.77
374.3663, 28864.43
374.8484, 28932.42
375.3305, 28976.63
375.8126, 28981.98
376.2947, 28959.19
376.7769, 28966.64
377.2590, 29011.33
377.7411, 29060.55
378.2232, 29089.26
378.7053, 29097.32
379.1874, 29107.27
379.6696, 29123.30
380.1517, 29140.96
380.6338, 29150.55
381.1159, 29152.09
381.5980, 29151.99
382.0801, 29147.37
382.5623, 29143.50
383.0444, 29161.52
383.5265, 29207.07
384.0086, 29259.73
384.4907, 29298.98
384.9728, 29325.51
385.4549, 29340.41
385.9370, 29332.04
386.4192, 29317.55
386.9013, 29320.64
387.3834, 29342.35
387.8655, 29373.09
388.3476, 29412.45
388.8297, 29454.38
389.3119, 29489.66
389.7940, 29521.70
390.2761, 29540.91
390.7582, 29529.79
391.2403, 29493.28
391.7224, 29470.32
392.2046, 29482.06
392.6867, 29514.28
393.1688, 29557.22
393.6509, 29633.05
394.1330, 29686.54
394.6151, 29685.60
395.0973, 29646.70
395.5794, 29622.01
396.0615, 29627.16
396.5436, 29645.85
397.0257, 29672.70
397.5078, 29713.99
397.9900, 29749.12
398.4721, 29774.04
398.9542, 29792.76
399.4363, 29812.01
399.9184, 29844.17
400.4005, 29860.66
400.8827, 29848.61
401.3648, 29802.68
401.8469, 29770.74
402.3290, 29743.60
402.8111, 29740.53
403.2932, 29792.99
403.7754, 29930.04
404.2575, 30028.71
404.7396, 30056.12
405.2217, 30026.96
405.7038, 30013.78
406.1859, 30019.27
406.6681, 30030.45
407.1502, 30036.48
407.6323, 30037.64
408.1144, 30048.96
408.5965, 30075.68
409.0786, 30107.13
409.5608, 30121.44
410.0429, 30119.94
410.5250, 30117.96
411.0071, 30119.09
411.4892, 30126.49
411.9713, 30147.93
412.4535, 30184.26
412.9356, 30232.48
413.4177, 30304.15
413.8998, 30386.44
414.3819, 30449.04
414.8640, 30472.06
415.3462, 30475.14
415.8283, 30475.63
416.3104, 30473.37
416.7925, 30465.21
417.2746, 30435.82
417.7567, 30405.65
418.2388, 30394.60
418.7209, 30413.38
419.2031, 30445.53
419.6852, 30486.59
420.1673, 30535.92
420.6494, 30590.04
421.1315, 30672.27
421.6136, 30740.67
422.0958, 30768.98
422.5779, 30730.32
423.0600, 30712.95
423.5421, 30744.98
424.0242, 30798.99
424.5063, 30834.51
424.9885, 30834.61
425.4706, 30837.07
425.9527, 30852.95
426.4348, 30883.89
426.9169, 30898.53
427.3990, 30879.39
427.8812, 30865.70
428.3633, 30895.98
428.8454, 30986.90
429.3275, 31062.66
429.8096, 31112.24
430.2917, 31140.26
430.7739, 31158.15
431.2560, 31164.93
431.7381, 31167.19
432.2202, 31162.20
432.7023, 31152.62
433.1844, 31167.76
433.6666, 31215.59
434.1487, 31267.93
434.6308, 31284.67
435.1129, 31270.80
435.5950, 31251.51
436.0771, 31219.74
436.5593, 31195.98
437.0414, 31225.14
437.5235, 31305.77
438.0056, 31385.19
438.4877, 31417.50
438.9698, 31425.00
439.4520, 31440.43
439.9341, 31490.18
440.4162, 31526.43
440.8983, 31494.46
441.3804, 31419.26
441.8625, 31378.76
442.3447, 31445.38
442.8268, 31528.89
443.3089, 31573.34
443.7910, 31557.99
444.2731, 31546.57
444.7552, 31556.58
445.2374, 31577.46
445.7195, 31594.89
446.2016, 31606.75
446.6837, 31615.78
447.1658, 31621.17
447.6479, 31622.78
448.1301, 31625.63
448.6122, 31616.59
449.0943, 31623.36
449.5764, 31674.18
450.0585, 31799.22
450.5406, 31876.07
451.0227, 31872.97
451.5049, 31829.32
451.9870, 31858.87
452.4691, 31979.92
452.9512, 32073.03
453.4333, 32049.85
453.9154, 31925.84
454.3976, 31882.38
454.8797, 31934.62
455.3618, 32007.14
455.8439, 31992.14
456.3260, 31914.47
456.8081, 31876.53
457.2903, 31936.71
457.7724, 32033.92
458.2545, 32080.13
458.7366, 32080.76
459.2187, 32076.43
459.7008, 32096.15
460.1830, 32124.68
460.6651, 32143.04
461.1472, 32142.36
461.6293, 32145.64
462.1114, 32168.50
462.5935, 32204.16
463.0757, 32240.52
463.5578, 32290.90
464.0399, 32325.32
464.5220, 32320.50
465.0041, 32270.06
465.4862, 32243.74
465.9684, 32267.53
466.4505, 32310.55
466.9326, 32348.47
467.4147, 32368.11
467.8968, 32401.35
468.3789, 32462.89
468.8611, 32539.02
469.3432, 32581.62
469.8253, 32580.79
470.3074, 32566.09
470.7895, 32544.92
471.2716, 32514.63
471.7538, 32502.44
472.2359, 32506.99
472.7180, 32532.79
473.2001, 32604.22
473.6822, 32718.49
474.1643, 32792.96
474.6465, 32785.57
475.1286, 32735.11
475.6107, 32733.55
476.0928, 32777.17
476.5749, 32821.46
477.0570, 32834.23
477.5392, 32826.54
478.0213, 32810.20
478.5034, 32779.47
478.9855, 32766.73
479.4676, 32830.08
479.9497, 32926.64
480.4319, 32977.80
480.9140, 32889.06
481.3961, 32797.92
481.8782, 32785.99
482.3603, 32855.25
482.8424, 32918.09
483.3246, 32941.59
483.8066, 32952.94
484.2888, 32970.53
484.7709, 33003.20
485.2530, 33034.01
485.7351, 33060.47
486.2172, 33084.79
486.6993, 33114.36
487.1815, 33158.82
487.6636, 33192.07
488.1457, 33200.89
488.6278, 33182.80
489.1099, 33178.21
489.5920, 33191.17
490.0742, 33208.68
490.5563, 33209.79
491.0384, 33194.29
491.5205, 33209.76
492.0026, 33276.39
492.4847, 33365.30
492.9669, 33416.30
493.4490, 33432.45
493.9311, 33437.52
494.4132, 33438.32
494.8953, 33439.86
495.3774, 33450.52
495.8596, 33471.01
496.3417, 33498.49
496.8238, 33541.69
497.3059, 33587.50
497.7880, 33616.83
498.2701, 33605.14
498.7523, 33592.80
499.2344, 33605.28
499.7165, 33635.34
500.1986, 33651.40
500.6807, 33617.88
501.1628, 33589.08
501.6450, 33593.91
502.1271, 33651.40
502.6092, 33703.91
503.0913, 33752.99
503.5734, 33793.96
504.0555, 33820.56
504.5377, 33827.21
505.0198, 33829.16
505.5019, 33822.53
505.9840, 33812.81
506.4661, 33835.68
506.9482, 33896.59
507.4304, 33967.10
507.9125, 34046.72
508.3946, 34130.26
508.8767, 34138.76
509.3588, 34051.25
509.8409, 33944.96
510.3231, 33912.60
510.8052, 33944.69
511.2873, 34009.61
511.7694, 34137.78
512.2515, 34261.46
512.7336, 34284.84
513.2158, 34222.47
513.6979, 34168.16
514.1800, 34198.11
514.6621, 34247.55
515.1442, 34255.63
515.6263, 34185.23
516.1085, 34146.45
516.5906, 34203.22
517.0727, 34305.63
517.5548, 34382.92
518.0369, 34430.16
518.5190, 34443.22
519.0012, 34400.78
519.4833, 34309.58
519.9654, 34272.18
520.4475, 34316.07
520.9296, 34374.25
521.4117, 34402.86
521.8939, 34389.07
522.3760, 34415.91
522.8581, 34503.79
523.3402, 34599.77
523.8223, 34605.19
524.3044, 34524.02
524.7866, 34470.77
525.2687, 34501.09
525.7508, 34575.56
526.2329, 34607.05
526.7150, 34599.13
527.1971, 34594.80
527.6793, 34632.45
528.1614, 34688.68
528.6435, 34730.12
529.1256, 34746.92
529.6077, 34768.03
530.0898, 34831.71
530.5720, 34906.25
531.0541, 34945.67
531.5362, 34891.71
532.0183, 34845.50
532.5004, 34846.50
532.9825, 34890.49
533.4646, 34923.32
533.9467, 34929.22
534.4288, 34932.85
534.9109, 34945.26
535.3931, 34971.08
535.8752, 34993.22
536.3573, 35012.04
536.8394, 35026.78
537.3215, 35028.52
537.8036, 35011.63
538.2858, 35028.06
538.7679, 35109.90
539.2500, 35220.81
539.7321, 35243.67
540.2142, 35182.27
540.6964, 35119.89
541.1785, 35110.91
541.6606, 35140.17
542.1427, 35185.85
542.6248, 35248.87
543.1069, 35306.50
543.5891, 35335.18
544.0712, 35348.98
544.5533, 35366.79
545.0354, 35407.22
545.5175, 35440.82
545.9996, 35453.28
546.4818, 35448.59
546.9639, 35440.19
547.4460, 35401.23
547.9281, 35386.14
548.4102, 35430.94
548.8923, 35562.34
549.3745, 35623.30
549.8566, 35569.39
550.3387, 35493.24
550.8208, 35487.12
551.3029, 35570.96
551.7850, 35632.93
552.2672, 35654.31
552.7493, 35649.68
553.2314, 35649.04
553.7135, 35652.34
554.1956, 35656.48
554.6777, 35659.84
555.1599, 35663.01
555.6420, 35658.88
556.1241, 35648.06
556.6062, 35660.01
557.0883, 35750.59
557.5704, 35864.25
558.0526, 35928.36
558.5347, 35907.92
559.0168, 35878.32
559.4989, 35868.76
559.9810, 35874.86
560.4631, 35889.23
560.9453, 35900.68
561.4274, 35929.66
561.9095, 35999.40
562.3916, 36104.98
562.8737, 36165.05
563.3558, 36158.06
563.8380, 36134.02
564.3201, 36118.16
564.8022, 36110.38
565.2843, 36111.57
565.7664, 36123.30
566.2485, 36140.77
566.7307, 36155.11
567.2128, 36167.41
567.6949, 36190.64
568.1770, 36230.68
568.6591, 36281.14
569.1412, 36337.97
569.6234, 36397.87
570.1055, 36444.63
570.5876, 36475.12
571.0697, 36484.42
571.5518, 36451.71
572.0339, 36370.21
572.5161, 36322.34
572.9982, 36378.65
573.4803, 36469.23
573.9624, 36534.20
574.4445, 36541.07
574.9266, 36547.05
575.4088, 36562.25
575.8909, 36578.84
576.3730, 36576.05
576.8551, 36529.07
577.3372, 36512.45
577.8193, 36561.92
578.3015, 36668.18
578.7836, 36725.77
579.2657, 36728.78
579.7478, 36715.21
580.2299, 36709.48
580.7120, 36711.02
581.1942, 36715.25
581.6763, 36720.02
582.1584, 36735.78
582.6405, 36787.19
583.1226, 36856.55
583.6047, 36909.17
584.0869, 36926.43
584.5690, 36928.29
585.0511, 36913.92
585.5332, 36891.39
586.0153, 36888.86
586.4974, 36934.22
586.9796, 36985.33
587.4617, 37021.65
587.9438, 37035.98
588.4259, 37065.65
588.9080, 37131.50
589.3901, 37191.71
589.8723, 37211.94
590.3544, 37184.02
590.8365, 37143.81
591.3186, 37083.60
591.8007, 37028.69
592.2828, 37033.32
592.7650, 37094.66
593.2471, 37161.01
593.7292, 37223.00
594.2113, 37268.98
594.6934, 37256.60
595.1755, 37196.40
595.6577, 37161.56
596.1398, 37235.32
596.6219, 37336.36
597.1040, 37384.21
597.5861, 37359.34
598.0682, 37334.45
598.5503, 37325.59
599.0324, 37335.98
599.5145, 37368.89
599.9966, 37457.12
600.4788, 37527.90
600.9609, 37576.33
601.4430, 37604.63
601.9251, 37611.25
602.4072, 37582.59
602.8893, 37573.49
603.3715, 37618.19
603.8536, 37701.15
604.3357, 37706.16
604.8178, 37627.16
605.2999, 37558.40
605.7820, 37600.34
606.2642, 37702.92
606.7463, 37743.57
607.2284, 37699.70
607.7105, 37650.50
608.1926, 37647.69
608.6747, 37684.95
609.1569, 37753.98
609.6390, 37916.88
610.1211, 38039.76
610.6032, 38046.12
611.0853, 37974.07
611.5674, 37932.10
612.0496, 37964.90
612.5317, 37994.69
613.0138, 37992.71
613.4959, 37959.52
613.9780, 37971.78
614.4601, 38048.62
614.9423, 38124.64
615.4244, 38143.84
615.9065, 38109.59
616.3886, 38106.13
616.8707, 38144.32
617.3528, 38189.66
617.8350, 38189.70
618.3171, 38164.46
618.7992, 38165.44
619.2813, 38226.70
619.7634, 38294.60
620.2455, 38319.44
620.7277, 38315.88
621.2098, 38322.13
621.6919, 38364.46
622.1740, 38408.41
622.6561, 38443.23
623.1382, 38468.22
623.6204, 38477.38
624.1025, 38462.94
624.5846, 38441.25
625.0667, 38414.61
625.5488, 38371.88
626.0309, 38378.66
626.5131, 38450.18
626.9952, 38536.71
627.4773, 38572.72
627.9594, 38564.42
628.4415, 38563.63
628.9236, 38585.53
629.4058, 38614.20
629.8879, 38625.36
630.3700, 38625.78
630.8521, 38634.00
631.3342, 38663.31
631.8163, 38700.00
632.2985, 38739.16
632.7806, 38779.40
633.2627, 38811.37
633.7448, 38823.90
634.2269, 38834.51
634.7090, 38853.92
635.1912, 38887.81
635.6733, 38907.44
636.1554, 38900.47
636.6375, 38895.78
637.1196, 38932.50
637.6017, 39016.52
638.0839, 39061.95
638.5660, 39047.91
639.0481, 39009.37
639.5302, 38994.96
640.0123, 39003.42
640.4944, 39029.04
640.9766, 39082.94
641.4587, 39141.74
641.9408, 39180.01
642.4229, 39202.46
642.9050, 39229.97
643.3871, 39285.64
643.8693, 39337.33
644.3514, 39366.59
644.8335, 39369.10
645.3156, 39368.80
645.7977, 39363.63
646.2798, 39359.67
646.7620, 39361.75
647.2441, 39372.33
647.7262, 39378.84
648.2083, 39378.89
648.6904, 39378.34
649.1725, 39384.91
649.6547, 39398.20
650.1368, 39415.70
650.6189, 39436.95
651.1010, 39461.46
651.5831, 39487.63
652.0652, 39516.36
652.5474, 39550.34
653.0295, 39615.13
653.5116, 39664.86
653.9937, 39649.54
654.4758, 39575.48
654.9579, 39547.87
655.4401, 39632.84
655.9222, 39732.93
656.4043, 39808.95
656.8864, 39863.60
657.3685, 39875.13
657.8506, 39823.11
658.3328, 39764.45
658.8149, 39760.31
659.2970, 39809.60
659.7791, 39847.30
660.2612, 39862.30
660.7433, 39872.13
661.2255, 39896.81
661.7076, 39934.79
662.1897, 39982.64
662.6718, 40050.67
663.1539, 40115.73
663.6360, 40158.77
664.1182, 40186.13
664.6002, 40216.23
665.0823, 40256.93
665.5645, 40299.31
666.0466, 40338.05
666.5287, 40373.19
667.0108, 40421.73
667.4929, 40500.47
667.9750, 40562.78
668.4572, 40565.86
668.9393, 40506.39
