##NAMES=Enstatite
##RRUFFID=R070418
##IDEAL CHEMISTRY=MgSiO_3_
##LOCALITY=India
##OWNER=RRUFF
##SOURCE=Michael Scott
##DESCRIPTION=Brown translucent fragments
##STATUS=The identification of this mineral has been confirmed by X-ray diffraction and chemical analysis
##URL=rruff.info/R070418
##MEASURED CHEMISTRY=(Mg_0.86_Fe_0.14_)_Î£=1_Si_1.00_O_3_; trace amounts of Al, Ca, Mn
127.4844, 490.8079
127.9666, 534.2823
128.4487, 584.0160
128.9308, 638.9661
129.4129, 697.3036
129.8950, 759.7911
130.3772, 827.4471
130.8593, 903.2443
131.3414, 984.7220
131.8235, 1062.170
132.3056, 1133.649
132.7877, 1206.302
133.2699, 1289.197
133.7520, 1383.038
134.2341, 1479.986
134.7162, 1579.757
135.1983, 1682.821
135.6804, 1778.565
136.1626, 1868.530
136.6447, 1947.599
137.1268, 2005.931
137.6089, 2042.772
138.0910, 2059.735
138.5731, 2055.405
139.0553, 2027.568
139.5374, 1988.948
140.0195, 1939.535
140.5016, 1879.934
140.9837, 1812.781
141.4658, 1731.799
141.9480, 1652.104
142.4301, 1584.125
142.9122, 1529.176
143.3943, 1483.664
143.8764, 1449.290
144.3585, 1426.081
144.8407, 1400.589
145.3228, 1368.695
145.8049, 1337.832
146.2870, 1315.481
146.7691, 1307.987
147.2512, 1300.986
147.7334, 1290.893
148.2155, 1275.512
148.6976, 1266.619
149.1797, 1269.730
149.6618, 1277.753
150.1439, 1281.296
150.6261, 1277.941
151.1082, 1272.235
151.5903, 1265.519
152.0724, 1258.984
152.5545, 1248.889
153.0366, 1235.201
153.5188, 1217.790
154.0009, 1196.491
154.4830, 1168.636
154.9651, 1138.633
155.4472, 1107.923
155.9293, 1074.976
156.4115, 1044.045
156.8936, 1015.293
157.3757, 988.9637
157.8578, 965.3925
158.3399, 944.1636
158.8220, 926.0691
159.3042, 911.4550
159.7863, 908.6873
160.2684, 901.3326
160.7505, 878.3418
161.2326, 842.2782
161.7147, 814.6397
162.1969, 812.2023
162.6790, 819.5248
163.1611, 821.7119
163.6432, 807.5032
164.1253, 791.9740
164.6074, 784.4122
165.0896, 785.1965
165.5717, 784.4545
166.0538, 773.6608
166.5359, 758.3883
167.0180, 746.5853
167.5002, 744.4449
167.9823, 745.0859
168.4644, 742.3756
168.9465, 735.1015
169.4286, 729.7974
169.9107, 735.5066
170.3929, 746.8925
170.8750, 752.8539
171.3571, 741.0997
171.8392, 723.8394
172.3213, 714.8896
172.8034, 717.6737
173.2856, 723.4602
173.7677, 724.4959
174.2498, 721.8318
174.7319, 719.0715
175.2140, 719.1160
175.6961, 720.2796
176.1783, 719.5022
176.6604, 715.0307
177.1425, 710.6403
177.6246, 712.0262
178.1067, 718.3922
178.5888, 724.6705
179.0710, 724.7122
179.5531, 721.8923
180.0352, 724.5084
180.5173, 737.7086
180.9994, 753.9703
181.4815, 759.6296
181.9637, 755.0085
182.4458, 748.6623
182.9279, 747.7472
183.4100, 751.1689
183.8921, 754.8632
184.3742, 758.2188
184.8564, 760.8683
185.3385, 760.7322
185.8206, 757.4892
186.3027, 755.3502
186.7848, 759.7685
187.2669, 769.9019
187.7491, 779.4015
188.2312, 785.3219
188.7133, 788.8304
189.1954, 794.4426
189.6775, 802.3231
190.1596, 811.4407
190.6418, 822.6390
191.1239, 835.6931
191.6060, 844.0990
192.0881, 840.8156
192.5702, 828.0967
193.0523, 827.0520
193.5345, 839.7267
194.0166, 858.6983
194.4987, 871.9490
194.9808, 878.9813
195.4629, 887.8567
195.9450, 904.6887
196.4272, 929.4185
196.9093, 946.0260
197.3914, 951.9766
197.8735, 953.0024
198.3556, 959.4043
198.8377, 971.4670
199.3199, 986.8000
199.8020, 1006.588
200.2841, 1031.436
200.7662, 1048.322
201.2483, 1054.349
201.7304, 1053.969
202.2126, 1058.876
202.6947, 1070.743
203.1768, 1081.653
203.6589, 1086.431
204.1410, 1084.256
204.6231, 1081.535
205.1053, 1079.056
205.5874, 1076.289
206.0695, 1070.940
206.5516, 1061.983
207.0337, 1053.131
207.5159, 1047.673
207.9980, 1047.018
208.4801, 1043.134
208.9622, 1033.369
209.4443, 1019.661
209.9264, 1012.086
210.4086, 1012.613
210.8907, 1015.325
211.3728, 1016.034
211.8549, 1014.703
212.3370, 1011.150
212.8191, 1003.615
213.3013, 993.2258
213.7834, 989.3358
214.2655, 993.6034
214.7476, 1001.741
215.2297, 1010.264
215.7118, 1019.294
216.1940, 1028.635
216.6761, 1038.337
217.1582, 1048.411
217.6403, 1057.933
218.1224, 1065.727
218.6045, 1074.386
219.0867, 1086.836
219.5688, 1104.704
220.0509, 1122.302
220.5330, 1137.842
221.0151, 1151.459
221.4972, 1166.118
221.9794, 1181.596
222.4615, 1198.497
222.9436, 1217.417
223.4257, 1237.616
223.9078, 1261.843
224.3899, 1291.363
224.8721, 1327.103
225.3542, 1360.165
225.8363, 1386.393
226.3184, 1414.130
226.8005, 1455.042
227.2826, 1515.920
227.7648, 1576.399
228.2469, 1629.606
228.7290, 1673.063
229.2111, 1727.182
229.6932, 1795.121
230.1753, 1870.495
230.6575, 1946.625
231.1396, 2024.568
231.6217, 2100.303
232.1038, 2170.794
232.5859, 2233.253
233.0680, 2306.536
233.5502, 2397.489
234.0323, 2494.001
234.5144, 2581.816
234.9965, 2667.210
235.4786, 2732.202
235.9607, 2772.852
236.4429, 2790.048
236.9250, 2777.212
237.4071, 2730.755
237.8892, 2656.376
238.3713, 2562.414
238.8534, 2447.229
239.3356, 2314.653
239.8177, 2158.731
240.2998, 1964.350
240.7819, 1804.813
241.2640, 1688.618
241.7461, 1599.739
242.2283, 1509.149
242.7104, 1409.378
243.1925, 1320.200
243.6746, 1248.631
244.1567, 1197.320
244.6388, 1154.518
245.1210, 1122.635
245.6031, 1097.861
246.0852, 1073.623
246.5673, 1048.192
247.0494, 1026.273
247.5316, 1010.116
248.0137, 1001.604
248.4958, 992.4095
248.9779, 982.0276
249.4600, 971.2947
249.9421, 961.9348
250.4243, 953.8987
250.9064, 947.1877
251.3885, 941.6524
251.8706, 936.9105
252.3527, 934.9050
252.8348, 937.0744
253.3170, 941.0845
253.7991, 942.2245
254.2812, 938.8391
254.7633, 935.7623
255.2454, 935.5118
255.7275, 939.9976
256.2097, 939.6853
256.6918, 931.8684
257.1739, 921.1177
257.6560, 916.4131
258.1381, 920.7614
258.6202, 924.9254
259.1024, 924.5939
259.5845, 917.5899
260.0666, 915.8110
260.5487, 922.3943
261.0308, 931.8195
261.5129, 933.5451
261.9951, 924.7904
262.4772, 914.8669
262.9593, 905.7506
263.4414, 895.4234
263.9235, 896.6131
264.4056, 914.3912
264.8878, 938.9976
265.3699, 953.1857
265.8520, 954.2292
266.3341, 952.9592
266.8162, 953.2952
267.2983, 955.4865
267.7805, 957.0453
268.2626, 956.2737
268.7447, 956.7753
269.2268, 966.3719
269.7089, 987.9929
270.1910, 1008.117
270.6732, 1020.538
271.1553, 1024.029
271.6374, 1032.011
272.1195, 1046.449
272.6016, 1062.515
273.0837, 1070.835
273.5659, 1069.726
274.0480, 1069.706
274.5301, 1075.457
275.0122, 1087.205
275.4943, 1097.401
275.9764, 1105.255
276.4586, 1113.049
276.9407, 1126.326
277.4228, 1146.175
277.9049, 1160.769
278.3870, 1163.570
278.8691, 1155.158
279.3513, 1149.390
279.8334, 1147.194
280.3155, 1145.248
280.7976, 1138.302
281.2797, 1126.186
281.7618, 1114.401
282.2440, 1103.941
282.7261, 1095.185
283.2082, 1091.850
283.6903, 1094.772
284.1724, 1100.033
284.6545, 1103.018
285.1367, 1103.776
285.6188, 1104.189
286.1009, 1103.846
286.5830, 1103.590
287.0651, 1107.706
287.5472, 1116.611
288.0294, 1127.162
288.5115, 1134.166
288.9936, 1138.606
289.4757, 1148.459
289.9578, 1170.566
290.4399, 1199.010
290.9221, 1217.746
291.4042, 1226.397
291.8863, 1230.056
292.3684, 1230.904
292.8505, 1230.183
293.3326, 1233.338
293.8148, 1243.385
294.2969, 1257.614
294.7790, 1273.061
295.2611, 1289.779
295.7432, 1302.265
296.2253, 1302.395
296.7075, 1294.226
297.1896, 1289.471
297.6717, 1293.967
298.1538, 1301.376
298.6359, 1301.079
299.1180, 1293.680
299.6002, 1286.369
300.0823, 1288.734
300.5644, 1294.595
301.0465, 1291.007
301.5286, 1267.926
302.0107, 1242.411
302.4929, 1234.868
302.9750, 1243.117
303.4571, 1255.070
303.9392, 1263.445
304.4213, 1270.363
304.9034, 1279.047
305.3856, 1290.849
305.8677, 1303.342
306.3498, 1310.875
306.8319, 1316.095
307.3140, 1328.657
307.7961, 1361.345
308.2783, 1400.648
308.7604, 1433.140
309.2425, 1452.707
309.7246, 1471.188
310.2068, 1498.029
310.6889, 1530.003
311.1710, 1559.021
311.6531, 1578.783
312.1352, 1595.605
312.6173, 1612.748
313.0995, 1628.688
313.5816, 1650.427
314.0637, 1684.121
314.5458, 1725.863
315.0279, 1768.507
315.5100, 1811.209
315.9922, 1852.667
316.4743, 1892.097
316.9564, 1929.208
317.4385, 1965.114
317.9206, 1996.795
318.4027, 2028.254
318.8849, 2065.082
319.3670, 2113.291
319.8491, 2163.153
320.3312, 2212.056
320.8133, 2260.415
321.2954, 2304.922
321.7776, 2344.231
322.2597, 2380.002
322.7418, 2414.002
323.2239, 2445.700
323.7060, 2476.432
324.1881, 2503.348
324.6703, 2525.262
325.1524, 2558.406
325.6345, 2608.087
326.1166, 2666.860
326.5987, 2729.202
327.0808, 2795.213
327.5630, 2864.519
328.0451, 2936.669
328.5272, 3011.748
329.0093, 3092.860
329.4914, 3186.110
329.9735, 3277.960
330.4557, 3357.211
330.9378, 3405.177
331.4199, 3473.474
331.9020, 3568.732
332.3841, 3688.066
332.8662, 3820.425
333.3484, 3975.013
333.8305, 4126.707
334.3126, 4259.620
334.7947, 4360.356
335.2768, 4480.360
335.7589, 4627.062
336.2411, 4791.466
336.7232, 4956.947
337.2053, 5123.867
337.6874, 5287.354
338.1695, 5445.708
338.6516, 5596.706
339.1338, 5751.591
339.6159, 5911.787
340.0980, 6071.826
340.5801, 6221.493
341.0622, 6363.211
341.5443, 6488.087
342.0265, 6596.846
342.5086, 6687.997
342.9907, 6755.763
343.4728, 6798.725
343.9549, 6821.544
344.4370, 6831.509
344.9192, 6827.617
345.4013, 6798.995
345.8834, 6741.863
346.3655, 6657.494
346.8476, 6546.933
347.3297, 6410.311
347.8119, 6259.368
348.2940, 6105.671
348.7761, 5947.027
349.2582, 5780.383
349.7403, 5598.633
350.2224, 5410.508
350.7046, 5224.622
351.1867, 5040.113
351.6688, 4863.271
352.1509, 4695.028
352.6330, 4537.736
353.1151, 4397.128
353.5973, 4281.186
354.0794, 4169.560
354.5615, 4037.612
355.0436, 3893.644
355.5257, 3762.917
356.0078, 3670.646
356.4900, 3591.407
356.9721, 3501.579
357.4542, 3393.427
357.9363, 3288.641
358.4184, 3197.231
358.9005, 3117.641
359.3827, 3047.173
359.8648, 2999.630
360.3469, 2949.167
360.8290, 2876.796
361.3111, 2776.052
361.7932, 2687.790
362.2754, 2630.324
362.7575, 2589.271
363.2396, 2548.831
363.7217, 2509.567
364.2038, 2467.037
364.6859, 2417.904
365.1681, 2361.876
365.6502, 2310.133
366.1323, 2266.963
366.6144, 2226.235
367.0965, 2183.465
367.5786, 2124.048
368.0608, 2081.088
368.5429, 2064.096
369.0250, 2067.528
369.5071, 2063.143
369.9892, 2045.102
370.4713, 2026.092
370.9535, 2012.107
371.4356, 2004.743
371.9177, 1999.352
372.3998, 1997.151
372.8819, 1996.234
373.3640, 1991.427
373.8462, 1979.978
374.3283, 1971.765
374.8104, 1970.439
375.2925, 1976.122
375.7746, 1989.219
376.2567, 2013.224
376.7389, 2037.945
377.2210, 2047.808
377.7031, 2041.801
378.1852, 2035.503
378.6673, 2033.614
379.1494, 2035.249
379.6316, 2037.398
380.1137, 2040.298
380.5958, 2041.417
381.0779, 2039.083
381.5600, 2033.097
382.0421, 2022.598
382.5243, 2006.388
383.0064, 1986.614
383.4885, 1966.410
383.9706, 1945.578
384.4527, 1924.095
384.9348, 1901.650
385.4170, 1878.439
385.8991, 1853.836
386.3812, 1826.861
386.8633, 1800.615
387.3454, 1772.949
387.8275, 1747.951
388.3097, 1734.663
388.7918, 1749.502
389.2739, 1770.539
389.7560, 1777.624
390.2381, 1767.728
390.7202, 1761.949
391.2024, 1776.031
391.6845, 1798.964
392.1666, 1818.266
392.6487, 1824.880
393.1309, 1831.613
393.6130, 1841.348
394.0951, 1854.541
394.5772, 1874.740
395.0593, 1912.388
395.5414, 1951.326
396.0236, 1981.069
396.5057, 1987.504
396.9878, 1999.848
397.4699, 2026.192
397.9520, 2061.038
398.4341, 2087.041
398.9163, 2103.753
399.3984, 2111.947
399.8805, 2109.559
400.3626, 2089.340
400.8447, 2080.966
401.3268, 2091.849
401.8090, 2109.108
402.2911, 2113.092
402.7732, 2096.886
403.2553, 2085.610
403.7374, 2087.848
404.2195, 2102.598
404.7017, 2111.313
405.1838, 2112.848
405.6659, 2111.447
406.1480, 2110.076
406.6301, 2108.696
407.1122, 2109.528
407.5944, 2113.761
408.0765, 2119.631
408.5586, 2122.199
409.0407, 2121.553
409.5228, 2121.733
410.0049, 2126.121
410.4871, 2133.395
410.9692, 2139.768
411.4513, 2144.648
411.9334, 2149.548
412.4155, 2157.598
412.8976, 2167.409
413.3798, 2174.710
413.8619, 2180.691
414.3440, 2181.567
414.8261, 2172.283
415.3082, 2152.711
415.7903, 2129.095
416.2725, 2105.289
416.7546, 2079.670
417.2367, 2049.743
417.7188, 2012.586
418.2009, 1974.113
418.6830, 1938.406
419.1652, 1904.006
419.6473, 1866.951
420.1294, 1823.783
420.6115, 1778.870
421.0936, 1733.686
421.5757, 1688.873
422.0579, 1644.761
422.5400, 1597.266
423.0221, 1551.247
423.5042, 1513.920
423.9863, 1498.771
424.4684, 1477.630
424.9506, 1438.979
425.4327, 1380.606
425.9148, 1340.617
426.3969, 1326.007
426.8790, 1321.788
427.3611, 1315.924
427.8433, 1307.979
428.3254, 1299.811
428.8075, 1291.683
429.2896, 1283.516
429.7717, 1273.487
430.2538, 1260.085
430.7360, 1252.434
431.2181, 1256.897
431.7002, 1272.927
432.1823, 1293.335
432.6644, 1318.472
433.1465, 1345.741
433.6287, 1372.305
434.1108, 1397.931
434.5929, 1421.435
435.0750, 1438.213
435.5571, 1454.113
436.0392, 1479.990
436.5214, 1515.578
437.0035, 1555.345
437.4856, 1595.996
437.9677, 1637.472
438.4498, 1680.416
438.9319, 1729.084
439.4141, 1772.276
439.8962, 1801.815
440.3783, 1819.485
440.8604, 1830.746
441.3425, 1838.463
441.8246, 1839.897
442.3068, 1833.096
442.7889, 1817.270
443.2710, 1796.012
443.7531, 1771.172
444.2352, 1741.083
444.7173, 1703.456
445.1995, 1652.331
445.6816, 1600.290
446.1637, 1546.427
446.6458, 1492.009
447.1279, 1446.250
447.6100, 1414.419
448.0922, 1385.306
448.5743, 1352.673
449.0564, 1313.089
449.5385, 1278.051
450.0206, 1247.557
450.5027, 1222.075
450.9849, 1204.485
451.4670, 1196.787
451.9491, 1187.553
452.4312, 1171.082
452.9133, 1148.753
453.3954, 1130.687
453.8776, 1117.088
454.3597, 1106.603
454.8418, 1099.177
455.3239, 1094.144
455.8060, 1089.279
456.2881, 1084.596
456.7703, 1078.932
457.2524, 1069.625
457.7345, 1057.555
458.2166, 1046.088
458.6987, 1035.956
459.1808, 1028.220
459.6630, 1025.835
460.1451, 1030.089
460.6272, 1032.007
461.1093, 1022.835
461.5914, 1008.971
462.0735, 998.5480
462.5557, 1000.293
463.0378, 1000.004
463.5199, 990.2418
464.0020, 972.5208
464.4841, 958.2311
464.9662, 951.3563
465.4484, 947.4545
465.9305, 944.2626
466.4126, 942.0419
466.8947, 940.0502
467.3768, 941.5351
467.8589, 941.8662
468.3411, 931.8751
468.8232, 903.4939
469.3053, 881.2389
469.7874, 873.7897
470.2695, 880.0340
470.7516, 878.8210
471.2338, 868.6133
471.7159, 855.7425
472.1980, 845.2516
472.6801, 837.0727
473.1622, 829.5370
473.6443, 821.8814
474.1265, 815.6624
474.6086, 815.0729
475.0907, 819.1927
475.5728, 822.0703
476.0550, 820.9788
476.5371, 816.4750
477.0192, 807.3723
477.5013, 793.4902
477.9834, 782.7426
478.4655, 784.2728
478.9477, 791.6662
479.4298, 796.5892
479.9119, 796.5847
480.3940, 793.5865
480.8761, 786.3357
481.3582, 776.5718
481.8404, 769.3974
482.3225, 768.0336
482.8046, 768.3590
483.2867, 768.4664
483.7688, 767.8588
484.2509, 768.1997
484.7331, 771.7803
485.2152, 775.2478
485.6973, 775.3535
486.1794, 769.8413
486.6615, 764.8123
487.1436, 761.2431
487.6258, 758.7918
488.1079, 755.5966
488.5900, 751.1179
489.0721, 747.4482
489.5542, 746.7886
490.0363, 749.1931
490.5185, 746.8181
491.0006, 737.9490
491.4827, 729.4254
491.9648, 731.2305
492.4469, 741.8498
492.9290, 753.5824
493.4112, 766.3672
493.8933, 776.3938
494.3754, 774.5262
494.8575, 762.5652
495.3396, 751.9586
495.8217, 752.0787
496.3039, 756.4985
496.7860, 757.9329
497.2681, 754.4761
497.7502, 751.3517
498.2323, 750.8433
498.7144, 752.4629
499.1966, 755.5411
499.6787, 763.0444
500.1608, 768.7773
500.6429, 769.9488
501.1250, 766.8553
501.6071, 764.7435
502.0893, 762.1339
502.5714, 762.1901
503.0535, 767.3185
503.5356, 782.6231
504.0177, 790.1912
504.4998, 786.3894
504.9820, 778.0786
505.4641, 776.2924
505.9462, 782.5561
506.4283, 787.2931
506.9104, 787.0130
507.3925, 783.2607
507.8747, 781.4313
508.3568, 781.4706
508.8389, 784.6389
509.3210, 795.5200
509.8031, 810.2825
510.2852, 817.3840
510.7674, 814.0619
511.2495, 808.7477
511.7316, 809.5193
512.2137, 814.7291
512.6958, 820.9730
513.1779, 828.6951
513.6600, 835.4672
514.1422, 839.4435
514.6243, 840.8751
515.1064, 841.5840
515.5886, 838.9323
516.0707, 838.1358
516.5528, 843.0516
517.0349, 858.5146
517.5170, 870.6484
517.9991, 875.8645
518.4813, 877.8611
518.9634, 880.9022
519.4455, 883.7759
519.9276, 889.9338
520.4097, 901.2810
520.8918, 916.6757
521.3740, 930.2296
521.8561, 942.0963
522.3382, 951.6112
522.8203, 957.8133
523.3024, 960.8173
523.7845, 962.6367
524.2667, 962.6434
524.7488, 964.3897
525.2309, 974.0911
525.7130, 989.6606
526.1951, 1003.403
526.6772, 1010.251
527.1594, 1016.466
527.6415, 1030.830
528.1236, 1051.487
528.6057, 1070.660
529.0878, 1081.261
529.5699, 1090.238
530.0521, 1102.557
530.5342, 1119.359
531.0163, 1137.723
531.4984, 1155.484
531.9805, 1175.034
532.4626, 1198.972
532.9448, 1238.116
533.4269, 1268.874
533.9090, 1284.359
534.3911, 1289.081
534.8732, 1300.819
535.3553, 1325.143
535.8375, 1346.341
536.3196, 1357.136
536.8017, 1357.307
537.2838, 1355.131
537.7659, 1350.851
538.2480, 1343.331
538.7302, 1331.601
539.2123, 1315.564
539.6944, 1294.441
540.1765, 1265.937
540.6586, 1236.171
541.1407, 1212.841
541.6229, 1195.024
542.1050, 1178.995
542.5871, 1163.259
543.0692, 1148.060
543.5513, 1133.128
544.0334, 1118.607
544.5156, 1106.752
544.9977, 1098.747
545.4798, 1093.776
545.9619, 1091.490
546.4440, 1094.624
546.9261, 1096.257
547.4083, 1094.736
547.8904, 1091.245
548.3725, 1087.993
548.8546, 1085.576
549.3367, 1082.401
549.8188, 1078.122
550.3010, 1072.754
550.7831, 1066.658
551.2652, 1060.097
551.7473, 1051.888
552.2294, 1040.282
552.7115, 1025.712
553.1937, 1012.465
553.6758, 1000.491
554.1579, 991.4626
554.6400, 990.4717
555.1221, 994.4202
555.6042, 994.3644
556.0864, 984.7946
556.5685, 972.1826
557.0506, 962.1213
557.5327, 954.1845
558.0148, 946.9708
558.4969, 937.3456
558.9791, 930.0649
559.4612, 929.3633
559.9433, 937.3721
560.4254, 942.9706
560.9075, 941.8141
561.3896, 938.6776
561.8718, 937.9609
562.3539, 942.9290
562.8360, 944.7251
563.3181, 942.1873
563.8002, 936.3330
564.2823, 928.6598
564.7645, 918.3679
565.2466, 910.0506
565.7287, 904.9079
566.2108, 903.2103
566.6929, 908.7426
567.1750, 921.8368
567.6572, 933.6188
568.1393, 934.4559
568.6214, 928.8467
569.1035, 925.6940
569.5856, 926.6371
570.0677, 929.0098
570.5499, 931.5441
571.0320, 933.8594
571.5141, 935.3765
571.9962, 934.8263
572.4783, 934.4899
572.9604, 934.7126
573.4426, 935.7228
573.9247, 938.6401
574.4068, 944.1627
574.8889, 951.2785
575.3710, 961.6765
575.8531, 978.2458
576.3353, 980.6743
576.8174, 960.8970
577.2995, 938.9058
577.7816, 936.6342
578.2637, 956.6669
578.7458, 968.4235
579.2280, 966.1713
579.7101, 956.1850
580.1922, 946.6479
580.6743, 938.2513
581.1564, 934.8975
581.6385, 942.2661
582.1207, 953.6238
582.6028, 960.6114
583.0849, 963.4487
583.5670, 964.3776
584.0491, 963.1960
584.5313, 961.5894
585.0134, 960.4521
585.4955, 959.2242
585.9776, 960.7620
586.4597, 970.4303
586.9418, 981.2862
587.4240, 985.1102
587.9061, 975.4791
588.3882, 968.7510
588.8703, 967.9865
589.3524, 970.8831
589.8345, 970.3644
590.3167, 965.5226
590.7988, 960.7108
591.2809, 957.7521
591.7630, 956.4058
592.2451, 955.2625
592.7272, 954.2584
593.2094, 955.0214
593.6915, 960.9222
594.1736, 969.1459
594.6557, 974.4348
595.1378, 975.7499
595.6199, 974.4877
596.1021, 969.6303
596.5842, 963.3674
597.0663, 958.8036
597.5484, 956.8975
598.0305, 957.0042
598.5126, 961.6431
598.9948, 968.8734
599.4769, 970.2571
599.9590, 959.5065
600.4411, 949.9344
600.9232, 945.9835
601.4053, 947.9263
601.8875, 951.4025
602.3696, 957.5402
602.8517, 962.3668
603.3338, 959.7935
603.8159, 950.8293
604.2980, 950.8499
604.7802, 963.3890
605.2623, 978.7289
605.7444, 984.3729
606.2265, 982.6846
606.7086, 979.6750
607.1907, 975.8409
607.6729, 973.3389
608.1550, 975.2303
608.6371, 980.0971
609.1192, 983.3945
609.6013, 979.7335
610.0834, 977.1277
610.5656, 980.1547
611.0477, 989.9783
611.5298, 998.4733
612.0119, 1005.854
612.4940, 1011.287
612.9761, 1012.706
613.4583, 1006.563
613.9404, 1010.790
614.4225, 1030.157
614.9046, 1052.868
615.3867, 1061.207
615.8688, 1056.198
616.3510, 1049.835
616.8331, 1043.364
617.3152, 1040.282
617.7973, 1047.800
618.2794, 1063.938
618.7615, 1081.294
619.2437, 1098.839
619.7258, 1113.707
620.2079, 1122.052
620.6900, 1123.767
621.1721, 1127.984
621.6542, 1135.924
622.1364, 1148.817
622.6185, 1168.203
623.1006, 1198.994
623.5827, 1225.575
624.0648, 1246.975
624.5469, 1265.058
