##NAMES=Enstatite
##RRUFFID=R070641
##IDEAL CHEMISTRY=MgSiO_3_
##LOCALITY=Sri Lanka
##OWNER=RRUFF
##SOURCE=Jibamitra Ganguly
##DESCRIPTION=Translucent colorless crystalline fragment
##STATUS=The identification of this mineral has been confirmed by X-ray diffraction.
##URL=rruff.info/R070641
121.9340, 1827.370
122.4161, 1826.702
122.8982, 1818.564
123.3804, 1811.797
123.8625, 1813.804
124.3446, 1823.095
124.8267, 1832.303
125.3088, 1835.422
125.7909, 1831.995
126.2731, 1828.915
126.7552, 1821.999
127.2373, 1819.209
127.7194, 1826.067
128.2015, 1843.162
128.6837, 1865.454
129.1658, 1886.370
129.6479, 1907.570
130.1300, 1923.395
130.6121, 1927.647
131.0942, 1930.061
131.5764, 1938.919
132.0585, 1957.820
132.5406, 1984.710
133.0227, 2012.195
133.5048, 2046.490
133.9869, 2074.471
134.4691, 2093.717
134.9512, 2105.673
135.4333, 2112.097
135.9154, 2113.598
136.3975, 2110.464
136.8796, 2108.606
137.3618, 2109.902
137.8439, 2110.571
138.3260, 2110.621
138.8081, 2109.352
139.2902, 2102.873
139.7723, 2085.493
140.2545, 2057.386
140.7366, 2035.930
141.2187, 2026.715
141.7008, 2022.503
142.1829, 2016.461
142.6650, 2008.260
143.1471, 1996.177
143.6293, 1970.234
144.1114, 1934.448
144.5935, 1913.074
145.0756, 1925.060
145.5577, 1960.850
146.0398, 1988.578
146.5220, 2000.106
147.0041, 2005.354
147.4862, 2012.517
147.9683, 2021.626
148.4504, 2030.847
148.9325, 2038.677
149.4147, 2045.094
149.8968, 2050.855
150.3789, 2055.397
150.8610, 2059.729
151.3431, 2064.270
151.8252, 2069.134
152.3074, 2074.375
152.7895, 2081.207
153.2716, 2094.100
153.7537, 2098.217
154.2358, 2092.071
154.7179, 2078.283
155.2001, 2057.861
155.6822, 2031.095
156.1643, 1999.944
156.6464, 1970.218
157.1285, 1935.969
157.6106, 1910.562
158.0928, 1902.931
158.5749, 1903.389
159.0570, 1898.029
159.5391, 1877.939
160.0212, 1845.043
160.5033, 1821.946
160.9855, 1810.271
161.4676, 1804.900
161.9497, 1810.169
162.4318, 1821.756
162.9139, 1828.812
163.3960, 1822.899
163.8782, 1803.085
164.3603, 1781.255
164.8424, 1756.557
165.3245, 1730.645
165.8066, 1703.135
166.2887, 1674.246
166.7709, 1648.267
167.2530, 1630.525
167.7351, 1620.913
168.2172, 1609.528
168.6993, 1588.693
169.1814, 1568.161
169.6636, 1563.968
170.1457, 1582.375
170.6278, 1601.268
171.1099, 1595.521
171.5920, 1569.528
172.0741, 1539.142
172.5563, 1502.615
173.0384, 1465.520
173.5205, 1446.322
174.0026, 1456.626
174.4847, 1473.760
174.9668, 1476.138
175.4490, 1464.904
175.9311, 1453.949
176.4132, 1454.606
176.8953, 1466.493
177.3774, 1474.930
177.8595, 1473.093
178.3417, 1470.513
178.8238, 1472.275
179.3059, 1479.016
179.7880, 1490.106
180.2701, 1507.468
180.7522, 1534.632
181.2344, 1553.254
181.7165, 1550.532
182.1986, 1545.060
182.6807, 1547.527
183.1628, 1560.944
183.6449, 1582.115
184.1271, 1606.157
184.6092, 1633.897
185.0913, 1663.151
185.5734, 1692.157
186.0555, 1722.843
186.5376, 1758.232
187.0198, 1799.564
187.5019, 1843.157
187.9840, 1879.923
188.4661, 1900.099
188.9482, 1925.352
189.4303, 1952.257
189.9125, 1986.573
190.3946, 2037.474
190.8767, 2111.008
191.3588, 2200.333
191.8409, 2275.252
192.3230, 2320.056
192.8052, 2367.674
193.2873, 2428.392
193.7694, 2495.212
194.2515, 2556.862
194.7336, 2607.735
195.2157, 2647.262
195.6979, 2669.113
196.1800, 2661.197
196.6621, 2652.503
197.1442, 2662.361
197.6263, 2682.365
198.1084, 2686.292
198.5906, 2655.057
199.0727, 2589.224
199.5548, 2519.336
200.0369, 2435.969
200.5190, 2357.323
201.0011, 2297.809
201.4833, 2255.870
201.9654, 2213.354
202.4475, 2152.969
202.9296, 2078.364
203.4117, 2020.701
203.8938, 1996.014
204.3760, 1979.156
204.8581, 1945.634
205.3402, 1893.135
205.8223, 1841.210
206.3044, 1806.603
206.7865, 1785.622
207.2687, 1765.888
207.7508, 1743.857
208.2329, 1722.398
208.7150, 1705.762
209.1971, 1694.852
209.6792, 1686.237
210.1614, 1679.903
210.6435, 1674.208
211.1256, 1664.457
211.6077, 1645.255
212.0898, 1621.223
212.5719, 1601.863
213.0541, 1587.076
213.5362, 1578.523
214.0183, 1580.490
214.5004, 1589.360
214.9825, 1596.228
215.4646, 1591.468
215.9468, 1579.602
216.4289, 1580.108
216.9110, 1597.802
217.3931, 1623.151
217.8752, 1653.942
218.3573, 1687.675
218.8395, 1717.116
219.3216, 1734.460
219.8037, 1740.935
220.2858, 1752.118
220.7679, 1765.247
221.2500, 1787.599
221.7322, 1822.285
222.2143, 1868.434
222.6964, 1923.038
223.1785, 1987.631
223.6606, 2063.040
224.1427, 2129.717
224.6249, 2177.174
225.1070, 2224.542
225.5891, 2281.104
226.0712, 2344.934
226.5533, 2407.351
227.0354, 2457.539
227.5176, 2491.713
227.9997, 2538.792
228.4818, 2598.711
228.9639, 2672.071
229.4460, 2767.657
229.9281, 2879.973
230.4103, 2991.766
230.8924, 3081.033
231.3745, 3138.396
231.8566, 3217.746
232.3387, 3321.699
232.8208, 3443.762
233.3030, 3584.128
233.7851, 3741.660
234.2672, 3911.757
234.7493, 4089.854
235.2314, 4275.561
235.7135, 4471.905
236.1957, 4706.971
236.6778, 4929.316
237.1599, 5124.484
237.6420, 5283.582
238.1241, 5390.632
238.6062, 5426.349
239.0884, 5383.983
239.5705, 5281.243
240.0526, 5111.924
240.5347, 4901.081
241.0168, 4649.396
241.4989, 4363.975
241.9811, 4071.209
242.4632, 3800.019
242.9453, 3558.102
243.4274, 3314.848
243.9095, 3041.095
244.3916, 2788.107
244.8738, 2593.628
245.3559, 2459.862
245.8380, 2352.281
246.3201, 2230.042
246.8022, 2080.781
247.2843, 1960.685
247.7665, 1881.068
248.2486, 1818.772
248.7307, 1760.589
249.2128, 1703.505
249.6949, 1648.429
250.1770, 1595.618
250.6592, 1543.380
251.1413, 1502.946
251.6234, 1477.167
252.1055, 1460.456
252.5876, 1451.921
253.0697, 1450.300
253.5519, 1448.574
254.0340, 1437.806
254.5161, 1413.372
254.9982, 1400.598
255.4803, 1408.964
255.9624, 1422.470
256.4445, 1428.448
256.9267, 1425.347
257.4088, 1420.385
257.8909, 1422.142
258.3730, 1433.420
258.8551, 1434.313
259.3372, 1415.907
259.8194, 1392.885
260.3015, 1376.377
260.7836, 1367.781
261.2657, 1363.360
261.7478, 1360.090
262.2299, 1358.200
262.7121, 1355.961
263.1942, 1351.246
263.6763, 1347.558
264.1584, 1348.117
264.6405, 1353.136
265.1227, 1360.166
265.6048, 1367.242
266.0869, 1374.410
266.5690, 1381.739
267.0511, 1392.478
267.5332, 1401.267
268.0154, 1399.169
268.4975, 1386.547
268.9796, 1380.093
269.4617, 1397.423
269.9438, 1438.301
270.4259, 1464.748
270.9081, 1464.802
271.3902, 1457.853
271.8723, 1456.503
272.3544, 1461.760
272.8365, 1473.944
273.3186, 1495.291
273.8008, 1525.249
274.2829, 1552.458
274.7650, 1574.799
275.2471, 1595.818
275.7292, 1618.615
276.2113, 1642.973
276.6935, 1666.277
277.1756, 1686.615
277.6577, 1704.095
278.1398, 1720.502
278.6219, 1743.241
279.1040, 1759.090
279.5862, 1757.029
280.0683, 1738.374
280.5504, 1713.276
281.0325, 1684.907
281.5146, 1655.575
281.9967, 1633.219
282.4789, 1621.778
282.9610, 1613.398
283.4431, 1604.249
283.9252, 1594.304
284.4073, 1583.424
284.8894, 1570.960
285.3716, 1557.760
285.8537, 1546.099
286.3358, 1535.277
286.8179, 1526.763
287.3000, 1521.970
287.7821, 1520.377
288.2643, 1519.570
288.7464, 1517.350
289.2285, 1516.427
289.7106, 1522.926
290.1927, 1539.184
290.6748, 1557.668
291.1570, 1574.610
291.6391, 1590.953
292.1212, 1609.310
292.6033, 1630.528
293.0854, 1654.677
293.5675, 1681.613
294.0497, 1711.206
294.5318, 1743.561
295.0139, 1781.969
295.4960, 1823.194
295.9781, 1858.852
296.4602, 1884.739
296.9424, 1907.135
297.4245, 1937.588
297.9066, 1977.850
298.3887, 2015.774
298.8708, 2049.676
299.3529, 2078.383
299.8351, 2100.461
300.3172, 2115.997
300.7993, 2123.135
301.2814, 2116.795
301.7635, 2096.964
302.2456, 2073.312
302.7278, 2050.117
303.2099, 2023.587
303.6920, 1983.775
304.1741, 1926.930
304.6562, 1873.351
305.1383, 1848.973
305.6205, 1855.453
306.1026, 1859.772
306.5847, 1854.379
307.0668, 1846.607
307.5489, 1842.621
308.0310, 1843.246
308.5132, 1849.795
308.9953, 1865.050
309.4774, 1889.531
309.9595, 1912.155
310.4416, 1929.369
310.9237, 1946.813
311.4059, 1970.359
311.8880, 1999.599
312.3701, 2027.632
312.8522, 2047.703
313.3343, 2060.849
313.8164, 2083.855
314.2986, 2119.641
314.7807, 2161.930
315.2628, 2207.280
315.7449, 2255.831
316.2270, 2310.190
316.7091, 2372.664
317.1913, 2441.938
317.6734, 2509.776
318.1555, 2567.826
318.6376, 2633.512
319.1197, 2719.906
319.6018, 2819.354
320.0840, 2914.847
320.5661, 2997.582
321.0482, 3070.700
321.5303, 3142.256
322.0124, 3216.756
322.4945, 3284.335
322.9767, 3340.378
323.4588, 3388.851
323.9409, 3437.437
324.4230, 3489.670
324.9051, 3538.356
325.3872, 3567.735
325.8694, 3556.102
326.3515, 3563.697
326.8336, 3602.403
327.3157, 3658.580
327.7978, 3717.950
328.2799, 3776.870
328.7621, 3842.482
329.2442, 3926.853
329.7263, 4040.658
330.2084, 4146.534
330.6905, 4229.636
331.1726, 4315.389
331.6548, 4425.233
332.1369, 4559.684
332.6190, 4702.631
333.1011, 4837.251
333.5832, 4960.437
334.0653, 5093.136
334.5475, 5229.925
335.0296, 5378.813
335.5117, 5546.123
335.9938, 5729.115
336.4759, 5920.344
336.9580, 6112.723
337.4402, 6306.551
337.9223, 6524.031
338.4044, 6787.020
338.8865, 7047.973
339.3686, 7302.019
339.8507, 7545.766
340.3329, 7775.291
340.8150, 7990.278
341.2971, 8188.558
341.7792, 8362.814
342.2613, 8512.090
342.7434, 8634.255
343.2256, 8729.668
343.7077, 8798.276
344.1898, 8845.481
344.6719, 8872.979
345.1540, 8866.881
345.6361, 8798.259
346.1183, 8657.648
346.6004, 8465.142
347.0825, 8211.438
347.5646, 7926.150
348.0467, 7620.165
348.5288, 7301.354
349.0110, 6980.084
349.4931, 6670.664
349.9752, 6371.709
350.4573, 6086.232
350.9394, 5813.212
351.4215, 5551.715
351.9037, 5299.924
352.3858, 5058.614
352.8679, 4832.035
353.3500, 4626.652
353.8321, 4442.373
354.3142, 4263.600
354.7964, 4088.478
355.2785, 3923.472
355.7606, 3768.194
356.2427, 3623.749
356.7248, 3491.154
357.2069, 3371.611
357.6891, 3264.633
358.1712, 3171.111
358.6533, 3094.450
359.1354, 3022.930
359.6175, 2954.439
360.0996, 2887.337
360.5818, 2818.034
361.0639, 2742.395
361.5460, 2671.604
362.0281, 2626.723
362.5102, 2611.432
362.9923, 2586.655
363.4745, 2529.443
363.9566, 2463.678
364.4387, 2414.342
364.9208, 2385.547
365.4029, 2360.282
365.8850, 2322.718
366.3672, 2276.361
366.8493, 2240.060
367.3314, 2220.377
367.8135, 2208.744
368.2956, 2195.606
368.7777, 2181.216
369.2599, 2171.018
369.7420, 2172.808
370.2241, 2178.743
370.7062, 2172.753
371.1883, 2150.844
371.6704, 2129.872
372.1526, 2122.936
372.6347, 2129.223
373.1168, 2143.751
373.5989, 2173.703
374.0810, 2205.982
374.5631, 2228.931
375.0453, 2243.373
375.5274, 2258.179
376.0095, 2278.859
376.4916, 2304.026
376.9737, 2327.478
377.4558, 2349.943
377.9380, 2370.256
378.4201, 2379.530
378.9022, 2387.192
379.3843, 2414.070
379.8664, 2469.790
380.3485, 2541.305
380.8307, 2600.863
381.3128, 2642.690
381.7949, 2683.414
382.2770, 2724.930
382.7591, 2765.420
383.2412, 2807.061
383.7234, 2848.692
384.2055, 2879.297
384.6876, 2884.689
385.1697, 2858.713
385.6518, 2832.460
386.1339, 2802.416
386.6161, 2775.286
387.0982, 2757.305
387.5803, 2745.433
388.0624, 2731.304
388.5445, 2708.441
389.0266, 2677.695
389.5088, 2648.775
389.9909, 2616.055
390.4730, 2592.406
390.9551, 2578.332
391.4372, 2575.134
391.9193, 2586.507
392.4015, 2614.390
392.8836, 2651.290
393.3657, 2680.450
393.8478, 2693.222
394.3299, 2719.443
394.8120, 2771.438
395.2942, 2831.449
395.7763, 2889.073
396.2584, 2942.412
396.7405, 2993.767
397.2226, 3045.679
397.7047, 3097.957
398.1869, 3150.044
398.6690, 3205.211
399.1511, 3255.865
399.6332, 3302.544
400.1153, 3342.311
400.5974, 3367.321
401.0796, 3371.274
401.5617, 3358.261
402.0438, 3336.290
402.5259, 3304.591
403.0080, 3266.922
403.4901, 3219.073
403.9723, 3168.127
404.4544, 3126.098
404.9365, 3099.222
405.4186, 3074.558
405.9007, 3040.794
406.3828, 2999.553
406.8650, 2959.353
407.3471, 2922.844
407.8292, 2889.487
408.3113, 2858.297
408.7934, 2829.606
409.2755, 2801.429
409.7577, 2765.356
410.2398, 2732.631
410.7219, 2721.789
411.2040, 2736.099
411.6861, 2759.526
412.1682, 2777.286
412.6504, 2788.527
413.1325, 2798.382
413.6146, 2801.186
414.0967, 2807.782
414.5788, 2828.589
415.0609, 2859.058
415.5431, 2886.649
416.0252, 2904.460
416.5073, 2912.152
416.9894, 2908.082
417.4715, 2889.068
417.9536, 2861.375
418.4358, 2818.230
418.9179, 2770.108
419.4000, 2730.344
419.8821, 2702.218
420.3642, 2674.574
420.8463, 2629.213
421.3285, 2559.063
421.8106, 2490.885
422.2927, 2425.635
422.7748, 2361.638
423.2569, 2300.888
423.7390, 2241.303
424.2212, 2176.448
424.7033, 2099.317
425.1854, 2012.801
425.6675, 1932.604
426.1496, 1861.082
426.6317, 1793.146
427.1139, 1717.857
427.5960, 1647.425
428.0781, 1600.891
428.5602, 1590.950
429.0423, 1590.675
429.5244, 1567.458
430.0066, 1520.978
430.4887, 1465.470
430.9708, 1395.816
431.4529, 1327.362
431.9350, 1275.432
432.4171, 1240.161
432.8993, 1216.208
433.3814, 1209.396
433.8635, 1210.175
434.3456, 1199.696
434.8277, 1174.560
435.3098, 1146.296
435.7920, 1123.449
436.2741, 1106.061
436.7562, 1090.983
437.2383, 1073.467
437.7204, 1062.504
438.2025, 1067.207
438.6847, 1083.247
439.1668, 1098.071
439.6489, 1105.433
440.1310, 1108.024
440.6131, 1113.185
441.0952, 1128.995
441.5774, 1135.866
442.0595, 1123.495
442.5416, 1107.349
443.0237, 1102.981
443.5058, 1112.198
443.9879, 1124.615
444.4701, 1128.393
444.9522, 1121.911
445.4343, 1118.251
445.9164, 1117.655
446.3985, 1119.736
446.8806, 1126.755
447.3628, 1136.136
447.8449, 1143.629
448.3270, 1147.045
448.8091, 1146.976
449.2912, 1144.007
449.7733, 1136.087
450.2555, 1131.050
450.7375, 1130.114
451.2197, 1133.380
451.7018, 1142.955
452.1839, 1159.030
452.6660, 1175.031
453.1481, 1186.085
453.6302, 1192.684
454.1124, 1196.864
454.5945, 1198.617
455.0766, 1198.585
455.5587, 1195.204
456.0408, 1190.062
456.5229, 1188.453
457.0051, 1192.514
457.4872, 1199.849
457.9693, 1210.982
458.4514, 1224.637
458.9335, 1234.137
459.4156, 1236.833
459.8978, 1232.730
460.3799, 1220.227
460.8620, 1193.229
461.3441, 1170.844
461.8262, 1158.436
462.3083, 1151.114
462.7905, 1143.888
463.2726, 1135.840
463.7547, 1129.189
464.2368, 1126.515
464.7189, 1128.429
465.2010, 1128.962
465.6832, 1127.136
466.1653, 1125.054
466.6474, 1123.398
467.1295, 1121.936
467.6116, 1120.408
468.0938, 1118.784
468.5759, 1116.448
469.0580, 1111.303
469.5401, 1101.177
470.0222, 1094.415
470.5043, 1095.030
470.9865, 1097.636
471.4686, 1100.687
471.9507, 1103.331
472.4328, 1102.066
472.9149, 1091.504
473.3970, 1074.619
473.8792, 1062.169
474.3613, 1055.132
474.8434, 1051.023
475.3255, 1049.858
475.8076, 1050.352
476.2897, 1049.891
476.7719, 1048.258
477.2540, 1045.373
477.7361, 1040.534
478.2182, 1034.329
478.7003, 1027.456
479.1824, 1019.288
479.6646, 1013.857
480.1467, 1018.758
480.6288, 1039.066
481.1109, 1053.580
481.5930, 1059.913
482.0751, 1061.151
482.5573, 1056.553
483.0394, 1048.218
483.5215, 1042.536
484.0036, 1044.534
484.4857, 1052.756
484.9678, 1057.543
485.4500, 1056.688
485.9321, 1055.038
486.4142, 1051.729
486.8963, 1048.751
487.3784, 1048.981
487.8605, 1052.799
488.3427, 1056.256
488.8248, 1053.610
489.3069, 1044.464
489.7890, 1039.367
490.2711, 1043.797
490.7532, 1045.535
491.2354, 1035.403
491.7175, 1017.848
492.1996, 1003.108
492.6817, 995.5605
493.1638, 992.1384
493.6459, 988.6819
494.1281, 985.4628
494.6102, 987.4901
495.0923, 1000.172
495.5744, 1014.831
496.0565, 1014.065
496.5386, 994.2757
497.0208, 978.8892
497.5029, 976.4840
497.9850, 979.1051
498.4671, 978.5137
498.9492, 974.2622
499.4313, 970.9653
499.9135, 972.5112
500.3956, 978.4777
500.8777, 983.3477
501.3598, 986.0526
501.8419, 988.9150
502.3240, 991.0040
502.8062, 994.0319
503.2883, 1000.583
503.7704, 1011.182
504.2525, 1022.889
504.7346, 1032.698
505.2167, 1040.831
505.6989, 1044.590
506.1810, 1036.953
506.6631, 1033.145
507.1452, 1041.994
507.6273, 1059.765
508.1094, 1078.003
508.5916, 1093.167
509.0737, 1107.069
509.5558, 1121.887
510.0379, 1137.550
510.5200, 1153.798
511.0021, 1170.998
511.4843, 1188.167
511.9664, 1202.711
512.4485, 1213.584
512.9306, 1228.953
513.4127, 1253.819
513.8948, 1282.153
514.3770, 1308.746
514.8591, 1333.075
515.3412, 1355.721
515.8233, 1376.851
516.3054, 1396.858
516.7875, 1417.668
517.2697, 1440.032
517.7518, 1462.435
518.2339, 1488.206
518.7160, 1512.080
519.1981, 1527.364
519.6802, 1533.635
520.1624, 1538.052
520.6445, 1549.529
521.1266, 1568.365
521.6087, 1582.189
522.0908, 1590.748
522.5729, 1594.148
523.0551, 1585.359
523.5372, 1573.831
524.0193, 1576.726
524.5014, 1605.150
524.9835, 1635.319
525.4656, 1642.081
525.9478, 1629.134
526.4299, 1615.452
526.9120, 1605.405
527.3941, 1597.041
527.8762, 1587.462
528.3583, 1576.449
528.8405, 1569.663
529.3226, 1574.814
529.8047, 1577.975
530.2868, 1567.217
530.7689, 1546.669
531.2510, 1528.555
531.7332, 1519.188
532.2153, 1515.251
532.6974, 1508.259
533.1795, 1492.990
533.6616, 1484.451
534.1437, 1485.817
534.6259, 1490.606
535.1080, 1491.575
535.5901, 1491.479
536.0722, 1501.713
536.5543, 1535.149
537.0364, 1582.137
537.5186, 1611.094
538.0007, 1618.391
538.4828, 1621.956
538.9649, 1630.874
539.4470, 1637.538
539.9291, 1632.229
540.4113, 1613.026
540.8934, 1591.268
541.3755, 1573.433
541.8576, 1556.224
542.3397, 1534.464
542.8218, 1507.604
543.3040, 1477.697
543.7861, 1444.441
544.2682, 1409.282
544.7503, 1385.165
545.2324, 1380.084
545.7145, 1374.413
546.1967, 1361.907
546.6788, 1348.321
547.1609, 1339.842
547.6430, 1337.865
548.1251, 1339.960
548.6072, 1344.906
549.0894, 1353.001
549.5715, 1354.605
550.0536, 1344.287
550.5357, 1335.195
551.0178, 1337.458
551.4999, 1341.877
551.9821, 1333.604
552.4642, 1305.302
552.9463, 1276.394
553.4284, 1268.185
553.9105, 1275.140
554.3926, 1275.293
554.8748, 1264.022
555.3569, 1247.139
555.8390, 1228.837
556.3211, 1209.041
556.8032, 1190.350
557.2853, 1171.915
557.7675, 1155.410
558.2496, 1141.075
558.7317, 1129.355
559.2138, 1121.641
559.6959, 1118.378
560.1780, 1117.582
560.6602, 1116.282
561.1423, 1114.040
561.6244, 1113.073
562.1065, 1114.960
562.5886, 1116.626
563.0707, 1115.642
563.5529, 1113.935
564.0350, 1115.922
564.5171, 1124.961
564.9992, 1134.029
565.4813, 1129.450
565.9634, 1112.677
566.4456, 1108.483
566.9277, 1125.904
567.4098, 1151.266
567.8919, 1171.424
568.3740, 1186.828
568.8561, 1200.708
569.3383, 1206.771
569.8204, 1217.732
570.3025, 1247.195
570.7846, 1288.029
571.2667, 1322.627
571.7488, 1343.568
572.2310, 1356.645
572.7131, 1371.246
573.1952, 1386.817
573.6773, 1405.716
574.1594, 1430.844
574.6415, 1456.210
575.1237, 1480.613
575.6058, 1503.123
576.0879, 1522.389
576.5700, 1537.475
577.0521, 1549.749
577.5342, 1562.558
578.0164, 1575.911
578.4985, 1582.950
578.9806, 1581.384
579.4627, 1574.025
579.9448, 1566.229
580.4269, 1557.351
580.9091, 1534.650
581.3912, 1487.149
581.8733, 1432.866
582.3554, 1378.565
582.8375, 1327.422
583.3196, 1285.238
583.8018, 1254.734
584.2839, 1232.703
584.7660, 1214.475
585.2481, 1202.645
585.7302, 1187.340
586.2123, 1166.059
586.6945, 1143.942
587.1766, 1119.707
587.6587, 1096.630
588.1408, 1081.093
588.6229, 1077.155
589.1050, 1078.253
589.5872, 1075.121
590.0693, 1067.914
590.5514, 1060.981
591.0335, 1054.027
591.5156, 1049.734
591.9977, 1054.800
592.4799, 1067.218
592.9620, 1069.884
593.4441, 1051.951
593.9262, 1032.107
594.4083, 1020.704
594.8904, 1015.429
595.3726, 1011.660
595.8547, 1007.708
596.3368, 1004.092
596.8189, 1001.930
597.3010, 1002.050
597.7831, 999.6722
598.2653, 997.1744
598.7474, 989.3085
599.2295, 968.7459
599.7116, 943.3998
600.1937, 924.9561
600.6758, 917.9048
601.1580, 917.4379
601.6401, 921.2805
602.1222, 928.0705
602.6043, 929.9935
603.0864, 924.3840
603.5685, 919.5882
604.0507, 925.0216
604.5328, 938.7413
605.0149, 941.9885
605.4970, 924.2606
605.9791, 908.4966
606.4612, 904.4583
606.9434, 906.0886
607.4255, 904.7513
607.9076, 898.9283
608.3897, 894.3445
608.8718, 897.4689
609.3539, 908.1343
609.8361, 919.0255
610.3182, 933.0828
610.8003, 942.3526
611.2824, 942.9506
611.7645, 938.5303
612.2466, 932.3468
612.7288, 924.8871
613.2109, 916.9860
613.6930, 905.1153
614.1751, 894.5428
614.6572, 897.4420
615.1393, 914.4815
615.6215, 931.8657
616.1036, 941.5509
616.5857, 944.8256
617.0678, 946.4982
617.5499, 943.0042
618.0320, 942.8920
618.5142, 946.3900
618.9963, 953.4975
619.4784, 968.5895
619.9605, 988.0902
620.4426, 1000.145
620.9247, 994.5682
621.4069, 978.8000
