##NAMES=Enstatite
##RRUFFID=R060630
##IDEAL CHEMISTRY=MgSiO_3_
##LOCALITY=unknown
##OWNER=RRUFF
##SOURCE=Gemological Institute of America
##DESCRIPTION=Tan colored fragment
##STATUS=The identification of this mineral has been confirmed by X-ray diffraction and chemical analysis
##URL=rruff.info/R060630
##MEASURED CHEMISTRY=(Mg_0.89_Fe_0.07_Al_0.04_)_Σ=1_(Si_0.96_Al_0.04_)_Σ=1_O_3_
92.19379, 2720.160
92.67590, 2681.517
93.15802, 2659.652
93.64014, 2635.981
94.12225, 2612.122
94.60437, 2591.592
95.08649, 2574.886
95.56860, 2561.394
96.05072, 2553.423
96.53284, 2553.663
97.01495, 2555.153
97.49707, 2548.673
97.97919, 2534.368
98.46130, 2523.387
98.94342, 2518.428
99.42554, 2519.238
99.90765, 2525.742
100.3898, 2539.147
100.8719, 2555.450
101.3540, 2568.911
101.8361, 2579.088
102.3182, 2588.723
102.8004, 2598.302
103.2825, 2606.681
103.7646, 2619.698
104.2467, 2638.076
104.7288, 2660.532
105.2109, 2683.656
105.6931, 2705.422
106.1752, 2731.071
106.6573, 2763.338
107.1394, 2804.074
107.6215, 2847.831
108.1036, 2897.949
108.5858, 2952.342
109.0679, 2998.708
109.5500, 3033.894
110.0321, 3064.203
110.5142, 3092.809
110.9963, 3116.964
111.4785, 3142.789
111.9606, 3170.689
112.4427, 3200.676
112.9248, 3232.704
113.4069, 3268.549
113.8890, 3305.438
114.3712, 3341.579
114.8533, 3375.878
115.3354, 3409.807
115.8175, 3444.132
116.2996, 3479.535
116.7817, 3513.375
117.2639, 3545.430
117.7460, 3575.634
118.2281, 3603.879
118.7102, 3630.968
119.1923, 3655.603
119.6744, 3675.931
120.1566, 3690.942
120.6387, 3705.496
121.1208, 3722.843
121.6029, 3741.742
122.0850, 3759.588
122.5671, 3771.830
123.0493, 3783.622
123.5314, 3801.184
124.0135, 3827.434
124.4956, 3854.535
124.9777, 3874.875
125.4598, 3889.394
125.9420, 3901.477
126.4241, 3910.974
126.9062, 3919.699
127.3883, 3930.981
127.8704, 3945.474
128.3525, 3962.772
128.8347, 3981.794
129.3168, 4002.722
129.7989, 4027.063
130.2810, 4057.891
130.7631, 4093.712
131.2452, 4129.454
131.7274, 4162.916
132.2095, 4195.925
132.6916, 4233.234
133.1737, 4275.362
133.6558, 4320.725
134.1379, 4368.431
134.6201, 4418.547
135.1022, 4473.396
135.5843, 4532.928
136.0664, 4597.440
136.5485, 4667.448
137.0306, 4743.860
137.5128, 4824.646
137.9949, 4910.526
138.4770, 5002.719
138.9591, 5095.751
139.4412, 5191.313
139.9233, 5289.540
140.4055, 5377.647
140.8876, 5459.255
141.3697, 5526.906
141.8518, 5569.600
142.3339, 5586.858
142.8160, 5580.110
143.2982, 5548.353
143.7803, 5488.949
144.2624, 5413.071
144.7445, 5317.615
145.2266, 5206.365
145.7087, 5091.856
146.1909, 4967.147
146.6730, 4845.735
147.1551, 4731.081
147.6372, 4621.489
148.1193, 4523.533
148.6014, 4438.032
149.0836, 4364.366
149.5657, 4296.994
150.0478, 4234.886
150.5299, 4181.350
151.0120, 4137.579
151.4941, 4106.575
151.9763, 4082.113
152.4584, 4065.097
152.9405, 4054.870
153.4226, 4047.651
153.9047, 4044.827
154.3868, 4043.814
154.8690, 4043.203
155.3511, 4045.541
155.8332, 4045.354
156.3153, 4043.366
156.7974, 4039.019
157.2795, 4027.886
157.7617, 4004.832
158.2438, 3976.923
158.7259, 3949.269
159.2080, 3920.921
159.6901, 3895.079
160.1722, 3873.375
160.6544, 3855.694
161.1365, 3839.020
161.6186, 3821.102
162.1007, 3804.299
162.5828, 3790.343
163.0649, 3780.450
163.5471, 3773.120
164.0292, 3768.465
164.5113, 3766.450
164.9934, 3764.370
165.4755, 3760.028
165.9576, 3754.990
166.4398, 3751.256
166.9219, 3750.032
167.4040, 3749.944
167.8861, 3749.825
168.3682, 3749.538
168.8503, 3750.620
169.3325, 3753.942
169.8146, 3759.353
170.2967, 3766.521
170.7788, 3777.166
171.2609, 3788.609
171.7430, 3799.353
172.2252, 3809.719
172.7073, 3816.419
173.1894, 3816.558
173.6715, 3810.994
174.1536, 3801.815
174.6357, 3788.203
175.1179, 3772.204
175.6000, 3755.788
176.0821, 3739.072
176.5642, 3723.030
177.0463, 3708.059
177.5284, 3694.395
178.0106, 3682.994
178.4927, 3675.384
178.9748, 3670.089
179.4569, 3664.427
179.9390, 3657.701
180.4211, 3652.206
180.9033, 3651.448
181.3854, 3654.666
181.8675, 3658.152
182.3496, 3659.269
182.8317, 3659.124
183.3138, 3660.509
183.7960, 3663.888
184.2781, 3668.288
184.7602, 3672.521
185.2423, 3676.598
185.7244, 3680.374
186.2065, 3683.079
186.6887, 3685.254
187.1708, 3689.134
187.6529, 3695.110
188.1350, 3702.431
188.6171, 3710.062
189.0992, 3718.036
189.5814, 3725.692
190.0635, 3732.094
190.5456, 3737.636
191.0277, 3744.526
191.5098, 3753.408
191.9919, 3763.231
192.4741, 3771.257
192.9562, 3777.352
193.4383, 3783.970
193.9204, 3793.226
194.4025, 3804.919
194.8846, 3815.548
195.3668, 3824.332
195.8489, 3832.222
196.3310, 3842.276
196.8131, 3854.960
197.2952, 3866.137
197.7773, 3872.378
198.2595, 3873.496
198.7416, 3874.969
199.2237, 3877.240
199.7058, 3880.424
200.1879, 3885.297
200.6700, 3892.382
201.1522, 3899.159
201.6343, 3903.644
202.1164, 3905.595
202.5985, 3907.875
203.0806, 3910.656
203.5627, 3914.052
204.0449, 3918.667
204.5270, 3924.844
205.0091, 3931.016
205.4912, 3935.838
205.9733, 3938.945
206.4554, 3942.837
206.9376, 3948.075
207.4197, 3954.202
207.9018, 3960.154
208.3839, 3966.675
208.8660, 3971.197
209.3481, 3971.548
209.8303, 3967.002
210.3124, 3961.896
210.7945, 3957.011
211.2766, 3951.951
211.7587, 3944.348
212.2408, 3933.048
212.7230, 3921.639
213.2051, 3912.245
213.6872, 3904.996
214.1693, 3899.195
214.6514, 3894.958
215.1335, 3892.019
215.6157, 3889.351
216.0978, 3886.277
216.5799, 3884.453
217.0620, 3885.056
217.5441, 3888.630
218.0262, 3892.878
218.5084, 3897.331
218.9905, 3902.332
219.4726, 3909.228
219.9547, 3918.254
220.4368, 3929.025
220.9189, 3941.446
221.4011, 3956.393
221.8832, 3971.168
222.3653, 3985.659
222.8474, 3999.900
223.3295, 4014.477
223.8116, 4028.578
224.2938, 4043.829
224.7759, 4061.179
225.2580, 4080.653
225.7401, 4101.834
226.2222, 4125.203
226.7043, 4150.199
227.1865, 4175.466
227.6686, 4199.271
228.1507, 4225.088
228.6328, 4254.868
229.1149, 4289.977
229.5970, 4325.416
230.0792, 4359.255
230.5613, 4393.239
231.0434, 4433.001
231.5255, 4478.683
232.0076, 4529.261
232.4897, 4583.667
232.9719, 4641.491
233.4540, 4704.010
233.9361, 4772.053
234.4182, 4845.186
234.9003, 4923.431
235.3824, 5010.295
235.8646, 5097.300
236.3467, 5181.042
236.8288, 5263.859
237.3109, 5338.669
237.7930, 5408.251
238.2751, 5469.367
238.7573, 5510.661
239.2394, 5532.072
239.7215, 5533.367
240.2036, 5514.204
240.6857, 5472.893
241.1678, 5413.896
241.6500, 5332.552
242.1321, 5235.192
242.6142, 5134.845
243.0963, 5027.276
243.5784, 4923.733
244.0605, 4829.882
244.5427, 4746.437
245.0248, 4669.519
245.5069, 4599.640
245.9890, 4535.913
246.4711, 4477.804
246.9532, 4426.564
247.4354, 4378.106
247.9175, 4331.384
248.3996, 4285.835
248.8817, 4243.190
249.3638, 4203.764
249.8459, 4167.153
250.3281, 4132.571
250.8102, 4099.712
251.2923, 4069.419
251.7744, 4041.550
252.2565, 4016.202
252.7386, 3994.172
253.2208, 3976.208
253.7029, 3961.033
254.1850, 3946.265
254.6671, 3931.267
255.1492, 3917.748
255.6313, 3906.270
256.1135, 3896.898
256.5956, 3888.851
257.0777, 3881.838
257.5598, 3876.373
258.0419, 3873.342
258.5240, 3873.268
259.0062, 3874.496
259.4883, 3877.860
259.9704, 3883.815
260.4525, 3883.252
260.9346, 3873.313
261.4167, 3860.446
261.8989, 3852.106
262.3810, 3849.681
262.8631, 3848.459
263.3452, 3847.522
263.8273, 3846.923
264.3094, 3847.434
264.7916, 3849.749
265.2737, 3852.266
265.7558, 3853.227
266.2379, 3851.984
266.7200, 3851.466
267.2021, 3852.462
267.6843, 3854.786
268.1664, 3856.444
268.6485, 3856.958
269.1306, 3857.705
269.6127, 3859.774
270.0948, 3863.197
270.5770, 3867.529
271.0591, 3872.861
271.5412, 3878.896
272.0233, 3884.730
272.5054, 3890.377
272.9875, 3895.324
273.4697, 3898.852
273.9518, 3900.666
274.4339, 3903.028
274.9160, 3906.153
275.3981, 3910.026
275.8802, 3915.046
276.3624, 3921.550
276.8445, 3927.720
277.3266, 3932.149
277.8087, 3934.714
278.2908, 3937.757
278.7729, 3941.558
279.2551, 3945.894
279.7372, 3950.371
280.2193, 3955.129
280.7014, 3959.324
281.1835, 3962.183
281.6656, 3963.739
282.1478, 3966.044
282.6299, 3969.235
283.1120, 3973.099
283.5941, 3977.429
284.0762, 3982.265
284.5583, 3987.126
285.0405, 3991.348
285.5226, 3995.158
286.0047, 4001.106
286.4868, 4009.695
286.9689, 4018.766
287.4510, 4025.375
287.9332, 4029.591
288.4153, 4033.120
288.8974, 4035.945
289.3795, 4038.510
289.8616, 4042.769
290.3438, 4048.899
290.8259, 4055.424
291.3080, 4060.231
291.7901, 4063.698
292.2722, 4068.548
292.7543, 4076.557
293.2365, 4086.053
293.7186, 4092.627
294.2007, 4096.180
294.6828, 4099.464
295.1649, 4104.439
295.6470, 4111.025
296.1292, 4119.233
296.6113, 4129.366
297.0934, 4140.679
297.5755, 4153.181
298.0576, 4166.661
298.5397, 4178.235
299.0219, 4184.862
299.5040, 4188.276
299.9861, 4192.187
300.4682, 4197.626
300.9503, 4203.232
301.4324, 4208.222
301.9146, 4212.297
302.3967, 4214.299
302.8788, 4211.647
303.3609, 4207.046
303.8430, 4204.571
304.3251, 4205.097
304.8073, 4206.513
305.2894, 4206.612
305.7715, 4206.007
306.2536, 4206.241
306.7357, 4208.188
307.2178, 4211.222
307.7000, 4214.257
308.1821, 4216.975
308.6642, 4221.415
309.1463, 4230.224
309.6284, 4241.456
310.1105, 4252.250
310.5927, 4260.400
311.0748, 4268.202
311.5569, 4277.849
312.0390, 4289.359
312.5211, 4300.075
313.0032, 4308.213
313.4854, 4315.081
313.9675, 4321.952
314.4496, 4330.746
314.9317, 4338.402
315.4138, 4342.803
315.8959, 4344.493
316.3781, 4346.728
316.8602, 4351.307
317.3423, 4356.791
317.8244, 4362.047
318.3065, 4365.890
318.7886, 4370.843
319.2708, 4377.628
319.7529, 4386.103
320.2350, 4395.927
320.7171, 4406.997
321.1992, 4419.205
321.6813, 4432.406
322.1635, 4446.359
322.6456, 4461.648
323.1277, 4479.208
323.6098, 4497.974
324.0919, 4516.263
324.5740, 4533.030
325.0562, 4549.706
325.5383, 4566.902
326.0204, 4585.017
326.5025, 4602.142
326.9846, 4616.408
327.4667, 4630.368
327.9489, 4646.930
328.4310, 4668.084
328.9131, 4689.808
329.3952, 4711.193
329.8773, 4732.216
330.3594, 4755.982
330.8416, 4782.848
331.3237, 4811.919
331.8058, 4842.368
332.2879, 4873.227
332.7700, 4907.377
333.2521, 4946.095
333.7343, 4988.667
334.2164, 5031.777
334.6985, 5074.128
335.1806, 5118.166
335.6627, 5165.494
336.1448, 5216.540
336.6270, 5267.975
337.1091, 5318.512
337.5912, 5369.673
338.0733, 5426.047
338.5554, 5488.393
339.0375, 5551.776
339.5197, 5613.906
340.0018, 5674.016
340.4839, 5738.095
340.9660, 5805.393
341.4481, 5875.662
341.9302, 5947.952
342.4124, 6023.145
342.8945, 6096.167
343.3766, 6165.688
343.8587, 6231.964
344.3408, 6299.591
344.8229, 6368.414
345.3051, 6437.253
345.7872, 6507.871
346.2693, 6578.642
346.7514, 6640.651
347.2335, 6690.379
347.7156, 6731.790
348.1978, 6772.642
348.6799, 6812.478
349.1620, 6844.870
349.6441, 6866.019
350.1262, 6876.608
350.6083, 6878.005
351.0905, 6870.305
351.5726, 6853.906
352.0547, 6828.092
352.5368, 6793.715
353.0189, 6753.370
353.5010, 6708.150
353.9832, 6657.726
354.4653, 6601.102
354.9474, 6537.611
355.4295, 6470.867
355.9116, 6400.929
356.3937, 6329.630
356.8759, 6260.748
357.3580, 6195.240
357.8401, 6132.136
358.3222, 6070.635
358.8043, 6010.475
359.2864, 5953.470
359.7686, 5900.685
360.2507, 5851.079
360.7328, 5804.407
361.2149, 5760.397
361.6970, 5718.857
362.1791, 5680.991
362.6613, 5645.502
363.1434, 5609.466
363.6255, 5570.791
364.1076, 5532.188
364.5897, 5494.524
365.0718, 5458.631
365.5540, 5423.697
366.0361, 5390.327
366.5182, 5357.658
367.0003, 5324.671
367.4824, 5290.126
367.9645, 5256.531
368.4467, 5224.104
368.9288, 5193.432
369.4109, 5164.277
369.8930, 5135.404
370.3751, 5109.159
370.8572, 5087.178
371.3394, 5071.454
371.8215, 5057.150
372.3036, 5043.918
372.7857, 5031.877
373.2678, 5021.077
373.7499, 5010.599
374.2321, 5002.679
374.7142, 4998.743
375.1963, 4999.537
375.6784, 5000.973
376.1605, 5003.334
376.6426, 5005.853
377.1248, 5007.296
377.6069, 5007.573
378.0890, 5007.332
378.5711, 5007.001
379.0532, 5006.401
379.5353, 5004.147
380.0175, 5000.128
380.4996, 4994.987
380.9817, 4988.700
381.4638, 4981.529
381.9459, 4975.313
382.4280, 4970.405
382.9102, 4966.728
383.3923, 4964.615
383.8744, 4963.900
384.3565, 4963.399
384.8386, 4961.776
385.3207, 4959.875
385.8029, 4960.028
386.2850, 4962.865
386.7671, 4965.505
387.2492, 4964.279
387.7313, 4960.571
388.2134, 4957.552
388.6956, 4958.885
389.1777, 4960.206
389.6598, 4956.780
390.1419, 4948.863
390.6240, 4941.014
391.1061, 4936.484
391.5883, 4933.300
392.0704, 4929.168
392.5525, 4921.294
393.0346, 4915.498
393.5167, 4914.810
393.9988, 4918.292
394.4810, 4923.209
394.9631, 4927.555
395.4452, 4933.925
395.9273, 4943.966
396.4094, 4958.811
396.8915, 4974.274
397.3737, 4988.947
397.8558, 5003.976
398.3379, 5020.772
398.8200, 5040.021
399.3021, 5060.333
399.7842, 5082.166
400.2664, 5105.448
400.7485, 5126.891
401.2306, 5145.826
401.7127, 5163.182
402.1948, 5179.625
402.6769, 5196.013
403.1591, 5209.470
403.6412, 5219.667
404.1233, 5226.851
404.6054, 5232.282
405.0875, 5236.744
405.5696, 5237.026
406.0518, 5230.718
406.5339, 5217.648
407.0160, 5205.903
407.4981, 5195.831
407.9802, 5186.702
408.4623, 5177.307
408.9445, 5167.716
409.4266, 5160.234
409.9087, 5155.533
410.3908, 5153.379
410.8729, 5153.182
411.3550, 5155.015
411.8372, 5159.222
412.3193, 5166.326
412.8014, 5176.008
413.2835, 5187.271
413.7656, 5199.769
414.2477, 5214.819
414.7299, 5234.538
415.2120, 5257.854
415.6941, 5281.706
416.1762, 5304.994
416.6583, 5328.071
417.1404, 5351.837
417.6226, 5376.307
418.1047, 5398.783
418.5868, 5418.687
419.0689, 5435.450
419.5510, 5448.963
420.0331, 5460.195
420.5153, 5466.520
420.9974, 5467.421
421.4795, 5462.684
421.9616, 5451.563
422.4437, 5433.752
422.9258, 5409.686
423.4080, 5379.253
423.8901, 5341.476
424.3722, 5300.391
424.8543, 5254.647
425.3364, 5206.678
425.8185, 5159.088
426.3007, 5112.153
426.7828, 5064.390
427.2649, 5014.489
427.7470, 4963.392
428.2291, 4915.793
428.7112, 4872.490
429.1934, 4831.786
429.6755, 4791.729
430.1576, 4752.044
430.6397, 4714.778
431.1218, 4679.170
431.6039, 4647.325
432.0861, 4623.110
432.5682, 4606.942
433.0503, 4592.930
433.5324, 4578.943
434.0145, 4565.463
434.4966, 4553.782
434.9788, 4543.907
435.4609, 4536.813
435.9430, 4533.634
436.4251, 4533.901
436.9072, 4536.188
437.3893, 4540.222
437.8715, 4546.298
438.3536, 4555.076
438.8357, 4566.210
439.3178, 4578.735
439.7999, 4591.562
440.2820, 4605.913
440.7642, 4623.455
441.2463, 4644.375
441.7284, 4664.907
442.2105, 4681.208
442.6926, 4697.025
443.1747, 4716.053
443.6569, 4742.356
444.1390, 4768.266
444.6211, 4791.922
445.1032, 4813.429
445.5853, 4832.356
446.0674, 4850.604
446.5496, 4864.836
447.0317, 4873.903
447.5138, 4877.663
447.9959, 4876.795
448.4780, 4871.439
448.9601, 4861.609
449.4423, 4846.660
449.9244, 4824.280
450.4065, 4802.173
450.8886, 4781.560
451.3707, 4762.181
451.8528, 4742.047
452.3350, 4720.722
452.8171, 4699.411
453.2992, 4677.494
453.7813, 4654.773
454.2634, 4635.781
454.7455, 4620.667
455.2277, 4608.228
455.7098, 4596.820
456.1919, 4586.546
456.6740, 4577.677
457.1561, 4570.813
457.6382, 4565.186
458.1204, 4559.766
458.6025, 4554.568
459.0846, 4549.924
459.5667, 4546.775
460.0488, 4544.052
460.5309, 4539.656
461.0131, 4532.620
461.4952, 4527.378
461.9773, 4528.786
462.4594, 4533.646
462.9415, 4537.297
463.4236, 4536.917
463.9058, 4535.912
464.3879, 4535.575
464.8700, 4535.883
465.3521, 4536.340
465.8342, 4537.097
466.3163, 4537.720
466.7985, 4537.929
467.2806, 4537.324
467.7627, 4536.965
468.2448, 4537.313
468.7269, 4537.708
469.2090, 4537.144
469.6912, 4534.858
470.1733, 4533.013
470.6554, 4532.490
471.1375, 4533.005
471.6196, 4531.673
472.1017, 4528.040
472.5839, 4523.789
473.0660, 4519.800
473.5481, 4516.102
474.0302, 4512.656
474.5123, 4509.197
474.9944, 4506.857
475.4766, 4507.967
475.9587, 4512.112
476.4408, 4516.408
476.9229, 4519.825
477.4050, 4522.698
477.8871, 4525.073
478.3693, 4527.126
478.8514, 4530.113
479.3335, 4536.155
479.8156, 4543.141
480.2977, 4548.437
480.7798, 4551.299
481.2620, 4553.276
481.7441, 4554.751
482.2262, 4555.930
482.7083, 4557.130
483.1904, 4556.700
483.6725, 4557.872
484.1547, 4563.108
484.6368, 4571.925
485.1189, 4578.329
485.6010, 4581.730
486.0831, 4582.187
486.5652, 4579.258
487.0474, 4569.307
487.5295, 4563.938
488.0116, 4565.740
488.4937, 4570.255
488.9758, 4570.916
489.4579, 4566.180
489.9401, 4562.415
490.4222, 4561.686
490.9043, 4563.036
491.3864, 4561.364
491.8685, 4556.151
492.3506, 4551.454
492.8328, 4551.091
493.3149, 4553.890
493.7970, 4554.139
494.2791, 4551.111
494.7612, 4547.180
495.2433, 4544.821
495.7255, 4543.700
496.2076, 4542.896
496.6897, 4542.226
497.1718, 4541.661
497.6539, 4541.046
498.1360, 4540.500
498.6182, 4540.417
499.1003, 4540.831
499.5824, 4541.925
500.0645, 4543.792
500.5466, 4546.448
501.0287, 4549.846
501.5109, 4554.332
501.9930, 4559.341
502.4751, 4564.257
502.9572, 4568.109
503.4393, 4572.869
503.9214, 4578.835
504.4036, 4585.788
504.8857, 4593.266
505.3678, 4601.892
505.8499, 4610.079
506.3320, 4616.591
506.8141, 4621.129
507.2963, 4629.045
507.7784, 4641.102
508.2605, 4654.870
508.7426, 4668.577
509.2247, 4682.166
509.7068, 4694.759
510.1890, 4705.960
510.6711, 4716.450
511.1532, 4726.802
511.6353, 4737.150
512.1174, 4747.947
512.5995, 4758.738
513.0817, 4770.537
513.5638, 4785.372
514.0459, 4803.103
514.5280, 4820.358
515.0101, 4833.655
515.4922, 4846.265
515.9744, 4861.513
516.4565, 4882.721
516.9386, 4901.747
517.4207, 4914.280
517.9028, 4923.333
518.3849, 4933.812
518.8671, 4948.790
519.3492, 4962.805
519.8313, 4974.604
520.3134, 4984.213
520.7955, 4993.966
521.2776, 5005.276
521.7598, 5014.558
522.2419, 5019.307
522.7240, 5018.715
523.2061, 5018.108
523.6882, 5018.064
524.1703, 5016.845
524.6525, 5011.444
525.1346, 5002.134
525.6167, 4993.315
526.0988, 4986.709
526.5809, 4980.884
527.0630, 4972.938
527.5452, 4963.290
528.0273, 4953.977
528.5094, 4945.646
528.9915, 4938.571
529.4736, 4933.168
529.9557, 4929.472
530.4379, 4926.386
530.9200, 4923.436
531.4021, 4920.553
531.8842, 4917.554
532.3663, 4912.934
532.8484, 4910.146
533.3306, 4911.202
533.8127, 4914.539
534.2948, 4916.869
534.7769, 4916.604
535.2590, 4916.873
535.7411, 4918.435
536.2233, 4921.285
536.7054, 4924.713
537.1875, 4929.091
537.6696, 4933.476
538.1517, 4937.587
538.6339, 4941.524
539.1160, 4943.928
539.5981, 4944.456
540.0802, 4944.294
540.5623, 4945.201
541.0444, 4946.913
541.5266, 4947.984
542.0087, 4947.958
542.4908, 4947.006
542.9729, 4945.095
543.4550, 4942.363
543.9371, 4939.393
544.4193, 4933.135
544.9014, 4928.949
545.3835, 4932.829
545.8656, 4945.671
546.3477, 4957.463
546.8298, 4963.680
547.3120, 4967.431
547.7941, 4971.234
548.2762, 4976.110
548.7583, 4980.211
549.2404, 4983.922
549.7225, 4986.598
550.2047, 4987.090
550.6868, 4985.063
551.1689, 4981.499
551.6510, 4976.857
552.1331, 4970.975
552.6152, 4962.264
553.0974, 4950.307
553.5795, 4937.924
554.0616, 4927.096
554.5437, 4917.607
555.0258, 4907.862
555.5079, 4897.763
555.9901, 4887.795
556.4722, 4877.805
556.9543, 4868.295
557.4364, 4860.451
557.9185, 4855.510
558.4006, 4850.806
558.8828, 4842.784
559.3649, 4833.245
559.8470, 4826.229
560.3291, 4825.585
560.8112, 4825.601
561.2933, 4822.845
561.7755, 4817.080
562.2576, 4813.970
562.7397, 4817.546
563.2218, 4821.226
563.7039, 4821.736
564.1860, 4817.810
564.6682, 4813.886
565.1503, 4809.600
565.6324, 4805.868
566.1145, 4804.186
566.5966, 4804.839
567.0787, 4805.551
567.5609, 4805.858
568.0430, 4806.139
568.5251, 4806.984
569.0072, 4808.459
569.4893, 4810.686
569.9714, 4814.387
570.4536, 4818.606
570.9357, 4821.390
571.4178, 4822.845
571.8999, 4825.561
572.3820, 4831.962
572.8641, 4839.861
573.3463, 4847.125
573.8284, 4852.898
574.3105, 4859.374
574.7926, 4867.755
575.2747, 4876.938
575.7568, 4885.531
576.2390, 4895.004
576.7211, 4901.675
577.2032, 4903.255
577.6853, 4901.902
578.1674, 4905.826
578.6495, 4917.508
579.1317, 4927.258
579.6138, 4930.836
580.0959, 4928.838
580.5780, 4925.760
581.0601, 4921.553
581.5422, 4916.814
582.0244, 4912.335
582.5065, 4907.689
582.9886, 4901.404
583.4707, 4892.782
583.9528, 4884.865
584.4349, 4880.118
584.9171, 4877.874
585.3992, 4877.183
585.8813, 4880.958
586.3634, 4882.643
586.8455, 4877.164
587.3276, 4867.253
587.8098, 4860.649
588.2919, 4861.601
588.7740, 4863.171
589.2561, 4863.267
