##NAMES=Enstatite
##RRUFFID=R050644
##IDEAL CHEMISTRY=MgSiO_3_
##LOCALITY=Morogoro, Tanzania
##OWNER=RRUFF
##SOURCE=Jibamitra Ganguly
##DESCRIPTION=Light brown crystal fragment
##STATUS=The identification of this mineral has been confirmed by X-ray diffraction and chemical analysis
##URL=rruff.info/R050644
##MEASURED CHEMISTRY=(Mg_0.90_Fe_0.10_)SiO_3_
92.02539, 371.7157
92.50751, 367.5826
92.98962, 368.3202
93.47174, 371.7242
93.95386, 377.0697
94.43597, 380.9500
94.91809, 382.5968
95.40021, 382.6490
95.88232, 381.6255
96.36444, 379.2798
96.84656, 376.2333
97.32867, 373.1409
97.81078, 369.8318
98.29290, 365.8026
98.77502, 360.1804
99.25713, 352.0001
99.73925, 345.9737
100.2214, 343.4772
100.7035, 341.3950
101.1856, 338.3438
101.6677, 334.1826
102.1498, 329.5858
102.6320, 325.2892
103.1141, 321.0328
103.5962, 317.8750
104.0783, 316.2733
104.5604, 315.5003
105.0425, 314.8509
105.5247, 314.1344
106.0068, 313.3409
106.4889, 312.4057
106.9710, 311.3511
107.4531, 310.0912
107.9352, 308.5019
108.4173, 306.6234
108.8995, 304.7104
109.3816, 302.9519
109.8637, 301.0776
110.3458, 298.7917
110.8279, 295.9872
111.3100, 292.9924
111.7922, 290.1395
112.2743, 287.4162
112.7564, 284.9256
113.2385, 282.8514
113.7206, 280.9243
114.2027, 278.8714
114.6849, 276.5541
115.1670, 274.1074
115.6491, 272.0578
116.1312, 270.6591
116.6133, 269.3903
117.0954, 268.1034
117.5776, 266.8815
118.0597, 265.8911
118.5418, 265.2732
119.0239, 265.0339
119.5060, 264.4898
119.9881, 262.6472
120.4703, 261.4519
120.9524, 262.2162
121.4345, 264.6238
121.9166, 267.0359
122.3987, 267.7912
122.8808, 266.5348
123.3630, 266.3167
123.8451, 267.6065
124.3272, 269.6895
124.8093, 271.8241
125.2914, 273.8574
125.7735, 276.2077
126.2557, 279.1168
126.7378, 282.5321
127.2199, 287.2215
127.7020, 293.6609
128.1841, 301.6276
128.6662, 310.5710
129.1483, 321.6449
129.6305, 332.1228
130.1126, 341.5634
130.5947, 349.6235
131.0768, 353.6130
131.5589, 350.2750
132.0410, 338.8249
132.5232, 326.4510
133.0053, 312.4068
133.4874, 298.6920
133.9695, 286.1978
134.4516, 275.1417
134.9337, 265.5247
135.4159, 257.3048
135.8980, 250.6584
136.3801, 245.2819
136.8622, 241.2647
137.3443, 238.1811
137.8264, 235.8615
138.3086, 234.2063
138.7907, 232.9973
139.2728, 231.6763
139.7549, 229.6554
140.2370, 228.2037
140.7191, 227.5624
141.2013, 227.5212
141.6834, 227.8490
142.1655, 228.4827
142.6476, 229.3095
143.1297, 229.8142
143.6118, 230.0522
144.0939, 230.0071
144.5761, 229.4462
145.0582, 228.4978
145.5403, 227.7566
146.0224, 227.6373
146.5045, 227.9966
146.9866, 228.2844
147.4688, 228.5034
147.9509, 228.6255
148.4330, 228.6328
148.9151, 228.5278
149.3972, 228.2859
149.8793, 227.9031
150.3615, 227.3667
150.8436, 226.6247
151.3257, 225.6961
151.8078, 224.5319
152.2899, 222.9342
152.7720, 220.4670
153.2542, 218.3285
153.7363, 217.1648
154.2184, 216.5553
154.7005, 215.8650
155.1826, 214.7264
155.6647, 213.1642
156.1469, 211.4261
156.6290, 208.7278
157.1111, 206.6772
157.5932, 205.8598
158.0753, 206.0384
158.5574, 206.7368
159.0396, 207.6646
159.5217, 208.9344
160.0038, 209.3328
160.4859, 208.1378
160.9680, 206.8520
161.4501, 206.0174
161.9323, 205.6837
162.4144, 205.6487
162.8965, 205.6935
163.3786, 205.7709
163.8607, 206.2907
164.3428, 207.5453
164.8250, 208.9947
165.3071, 210.6829
165.7892, 212.5292
166.2713, 213.5317
166.7534, 212.1440
167.2355, 207.9716
167.7177, 204.2453
168.1998, 201.5172
168.6819, 199.3246
169.1640, 196.9171
169.6461, 193.9844
170.1282, 191.4375
170.6104, 190.7984
171.0925, 191.8196
171.5746, 192.7522
172.0567, 192.9654
172.5388, 192.5728
173.0209, 191.8062
173.5031, 190.3631
173.9852, 189.0517
174.4673, 188.6111
174.9494, 188.9691
175.4315, 189.4526
175.9136, 189.5901
176.3958, 189.3939
176.8779, 189.2025
177.3600, 188.8279
177.8421, 188.6953
178.3242, 189.3360
178.8063, 190.6521
179.2885, 191.7830
179.7706, 191.5384
180.2527, 189.3705
180.7348, 188.2433
181.2169, 189.1159
181.6990, 190.4880
182.1812, 191.7387
182.6633, 192.7124
183.1454, 193.4774
183.6275, 194.0690
184.1096, 194.2103
184.5917, 194.7983
185.0738, 195.9758
185.5560, 197.4110
186.0381, 198.7769
186.5202, 200.0260
187.0023, 201.4685
187.4844, 203.6619
187.9665, 207.5639
188.4487, 210.7019
188.9308, 212.3951
189.4129, 213.6742
189.8950, 215.7773
190.3771, 219.0798
190.8592, 222.5574
191.3414, 224.1332
191.8235, 222.9678
192.3056, 221.4598
192.7877, 219.7252
193.2698, 217.8188
193.7519, 215.8627
194.2341, 213.9328
194.7162, 211.8338
195.1983, 208.9184
195.6804, 204.8102
196.1625, 201.2992
196.6446, 199.4072
197.1268, 198.5013
197.6089, 197.0350
198.0910, 194.2500
198.5731, 191.0821
199.0552, 189.0292
199.5373, 188.1767
200.0195, 187.6072
200.5016, 187.0808
200.9837, 186.5104
201.4658, 185.3569
201.9479, 182.9060
202.4300, 180.3672
202.9122, 179.1332
203.3943, 179.3238
203.8764, 179.8565
204.3585, 180.0781
204.8406, 179.9897
205.3227, 179.3519
205.8048, 177.4993
206.2870, 175.5144
206.7691, 174.1787
207.2512, 173.5806
207.7333, 173.3076
208.2154, 172.9899
208.6975, 172.6314
209.1797, 172.2046
209.6618, 171.3033
210.1439, 170.6074
210.6260, 170.5994
211.1081, 171.3294
211.5902, 172.3909
212.0724, 173.3217
212.5545, 174.1513
213.0366, 174.7228
213.5187, 174.5181
214.0008, 174.4273
214.4829, 175.1314
214.9651, 176.7015
215.4472, 178.5855
215.9293, 179.9328
216.4114, 180.2915
216.8935, 181.0540
217.3756, 182.4474
217.8578, 184.0147
218.3399, 185.5656
218.8220, 187.0028
219.3041, 188.2148
219.7862, 188.9583
220.2683, 188.6279
220.7505, 189.0518
221.2326, 190.4885
221.7147, 192.4246
222.1968, 194.6479
222.6789, 197.0474
223.1610, 199.3551
223.6432, 201.1483
224.1253, 202.0250
224.6074, 203.1883
225.0895, 204.4678
225.5716, 206.1177
226.0537, 208.3796
226.5358, 211.3104
227.0180, 214.7509
227.5001, 218.5109
227.9822, 222.5944
228.4643, 227.0366
228.9464, 232.1504
229.4285, 237.4790
229.9107, 242.1797
230.3928, 246.0186
230.8749, 250.1603
231.3570, 256.0362
231.8391, 263.6302
232.3212, 272.6031
232.8034, 284.0593
233.2855, 296.4178
233.7676, 307.9371
234.2497, 318.3849
234.7318, 327.5569
235.2139, 335.8637
235.6961, 343.2943
236.1782, 346.7967
236.6603, 345.0444
237.1424, 339.0570
237.6245, 329.7486
238.1066, 316.5386
238.5888, 302.1124
239.0709, 288.2694
239.5530, 275.0327
240.0351, 262.6207
240.5172, 250.7609
240.9993, 239.8291
241.4815, 230.8841
241.9636, 224.4598
242.4457, 218.7186
242.9278, 211.9616
243.4099, 204.8064
243.8920, 198.6877
244.3742, 194.8854
244.8563, 192.4444
245.3384, 189.0151
245.8205, 184.0056
246.3026, 179.3685
246.7847, 176.4213
247.2668, 174.5106
247.7490, 172.6238
248.2311, 170.1489
248.7132, 167.4851
249.1953, 165.6219
249.6774, 164.8536
250.1595, 164.3435
250.6417, 163.9348
251.1238, 163.4893
251.6059, 162.7720
252.0880, 161.5728
252.5701, 160.1672
253.0522, 159.3013
253.5344, 159.3530
254.0165, 159.2124
254.4986, 158.5457
254.9807, 157.5463
255.4628, 156.2903
255.9449, 154.7392
256.4271, 153.2289
256.9092, 152.6359
257.3913, 153.5865
257.8734, 154.2906
258.3555, 154.3549
258.8376, 154.0678
259.3198, 153.6313
259.8019, 153.1213
260.2840, 152.6228
260.7661, 152.3763
261.2482, 152.7608
261.7303, 152.6391
262.2125, 151.4316
262.6946, 150.0086
263.1767, 149.1206
263.6588, 148.9922
264.1409, 149.2841
264.6230, 149.4245
265.1052, 149.4274
265.5873, 149.2175
266.0694, 148.3919
266.5515, 147.6468
267.0336, 147.6720
267.5157, 148.5422
267.9979, 149.6159
268.4800, 149.9045
268.9621, 148.9374
269.4442, 148.1726
269.9263, 147.4863
270.4084, 147.0454
270.8906, 147.0296
271.3727, 147.4248
271.8548, 148.0337
272.3369, 148.6607
272.8190, 149.4199
273.3011, 149.7704
273.7833, 149.3540
274.2654, 148.9115
274.7475, 148.8415
275.2296, 149.1623
275.7117, 149.6916
276.1938, 150.2799
276.6760, 150.9735
277.1581, 151.4279
277.6402, 151.7535
278.1223, 151.8077
278.6044, 151.2688
279.0865, 150.3370
279.5686, 149.6060
280.0508, 149.5672
280.5329, 150.2326
281.0150, 150.9592
281.4971, 151.5303
281.9792, 152.3624
282.4613, 154.1376
282.9435, 156.3341
283.4256, 157.6567
283.9077, 157.1488
284.3898, 155.0915
284.8719, 154.0566
285.3540, 154.3679
285.8362, 155.1405
286.3183, 156.8010
286.8004, 158.7037
287.2825, 159.4642
287.7646, 158.2039
288.2467, 155.8169
288.7289, 155.5011
289.2110, 159.6001
289.6931, 162.7105
290.1752, 163.1902
290.6573, 162.4009
291.1394, 162.2312
291.6216, 163.4178
292.1037, 165.4369
292.5858, 167.2845
293.0679, 168.9952
293.5500, 170.4496
294.0321, 171.1673
294.5143, 171.8246
294.9964, 173.4186
295.4785, 176.2166
295.9606, 179.2049
296.4427, 180.9203
296.9248, 180.8671
297.4070, 180.9074
297.8891, 180.7537
298.3712, 180.9248
298.8533, 182.5322
299.3354, 185.5486
299.8175, 187.8631
300.2997, 187.1016
300.7818, 182.6092
301.2639, 179.0333
301.7460, 176.9135
302.2281, 175.2870
302.7102, 173.4055
303.1924, 171.3072
303.6745, 169.5896
304.1566, 168.7572
304.6387, 168.7939
305.1208, 168.7642
305.6029, 168.4662
306.0851, 168.2982
306.5672, 168.6860
307.0493, 169.4191
307.5314, 169.7661
308.0135, 169.2124
308.4956, 168.0377
308.9778, 167.4907
309.4599, 167.9598
309.9420, 168.4448
310.4241, 168.5818
310.9062, 168.5165
311.3883, 168.4330
311.8705, 168.3393
312.3526, 168.4740
312.8347, 169.4542
313.3168, 171.4624
313.7989, 173.6988
314.2810, 176.2935
314.7632, 178.9319
315.2453, 181.0958
315.7274, 182.6131
316.2095, 184.0317
316.6916, 186.1565
317.1737, 189.1923
317.6559, 192.0748
318.1380, 194.2080
318.6201, 196.4585
319.1022, 199.9650
319.5843, 204.7971
320.0664, 209.5203
320.5485, 212.7423
321.0306, 214.2859
321.5128, 216.1281
321.9949, 218.4867
322.4770, 220.9574
322.9591, 223.3048
323.4412, 225.5263
323.9233, 227.7130
324.4055, 229.8513
324.8876, 232.0180
325.3697, 234.5880
325.8518, 237.0882
326.3339, 240.4130
326.8160, 245.3646
327.2982, 251.3812
327.7803, 257.1373
328.2624, 261.8852
328.7445, 266.3621
329.2266, 272.7482
329.7087, 282.1787
330.1909, 291.1687
330.6730, 298.1884
331.1551, 304.7036
331.6372, 312.6342
332.1193, 322.5434
332.6014, 333.6681
333.0836, 344.9421
333.5657, 355.9945
334.0478, 368.5740
334.5299, 383.1237
335.0120, 398.8822
335.4941, 415.4855
335.9763, 432.7239
336.4584, 450.6158
336.9405, 469.2743
337.4226, 488.8997
337.9047, 506.9351
338.3868, 524.5975
338.8690, 539.9611
339.3511, 552.9495
339.8332, 563.0086
340.3153, 568.6951
340.7974, 569.1339
341.2795, 564.4743
341.7617, 555.0258
342.2438, 540.1785
342.7259, 522.1614
343.2080, 500.0309
343.6901, 475.3404
344.1722, 450.0133
344.6544, 424.8894
345.1365, 400.4396
345.6186, 377.7426
346.1007, 357.0970
346.5828, 338.0621
347.0649, 321.0315
347.5471, 305.5265
348.0292, 291.1614
348.5113, 277.9363
348.9934, 265.8776
349.4755, 255.2560
349.9576, 246.2524
350.4398, 237.9902
350.9219, 230.1759
351.4040, 223.2160
351.8861, 217.6510
352.3682, 213.2494
352.8503, 209.2250
353.3325, 204.9535
353.8146, 200.5215
354.2967, 197.2514
354.7788, 196.3797
355.2609, 195.2565
355.7430, 193.0397
356.2252, 190.3153
356.7073, 187.9717
357.1894, 186.4396
357.6715, 185.3931
358.1536, 183.9654
358.6357, 181.5380
359.1179, 179.6961
359.5999, 179.0453
360.0821, 178.6059
360.5642, 177.5903
361.0463, 175.8422
361.5284, 173.7321
362.0105, 171.6402
362.4926, 169.4535
362.9748, 167.7469
363.4569, 166.8219
363.9390, 166.0634
364.4211, 165.0662
364.9032, 163.9882
365.3853, 163.3651
365.8675, 163.7041
366.3496, 164.8561
366.8317, 165.3587
367.3138, 164.4257
367.7959, 163.8271
368.2780, 164.1861
368.7602, 164.9951
369.2423, 165.6220
369.7244, 165.7892
370.2065, 165.6952
370.6886, 165.6884
371.1707, 165.7021
371.6529, 165.9891
372.1350, 166.3219
372.6171, 167.0977
373.0992, 168.8559
373.5813, 171.5420
374.0634, 174.3391
374.5456, 176.3204
375.0277, 177.4352
375.5098, 178.8239
375.9919, 181.2515
376.4740, 183.0940
376.9561, 182.6315
377.4383, 181.0219
377.9204, 181.0437
378.4025, 185.1584
378.8846, 191.5012
379.3667, 194.5772
379.8488, 193.1334
380.3310, 191.6434
380.8131, 192.3274
381.2952, 193.7059
381.7773, 194.2520
382.2594, 193.4949
382.7415, 192.2477
383.2237, 191.2028
383.7058, 190.3588
384.1879, 190.0488
384.6700, 190.5555
385.1521, 191.4583
385.6342, 192.3843
386.1164, 193.3241
386.5985, 194.2975
387.0806, 195.2971
387.5627, 196.3311
388.0448, 197.3364
388.5269, 198.1891
389.0091, 199.4072
389.4912, 201.6880
389.9733, 204.6308
390.4554, 207.3536
390.9375, 208.9530
391.4196, 210.9371
391.9018, 215.2542
392.3839, 221.6217
392.8660, 227.1552
393.3481, 230.1349
393.8302, 231.9944
394.3123, 235.7712
394.7945, 242.1915
395.2766, 247.9947
395.7587, 251.7706
396.2408, 254.1253
396.7229, 255.9562
397.2050, 257.4595
397.6872, 258.6218
398.1693, 259.4825
398.6514, 260.0262
399.1335, 259.9300
399.6156, 259.1264
400.0977, 257.7174
400.5798, 255.7182
401.0620, 253.1626
401.5441, 250.0940
402.0262, 246.4597
402.5083, 242.3948
402.9904, 238.6629
403.4725, 235.3453
403.9547, 232.1977
404.4368, 229.4766
404.9189, 226.7845
405.4010, 223.3149
405.8831, 218.8962
406.3652, 214.6342
406.8474, 212.2661
407.3295, 212.7290
407.8116, 212.4712
408.2937, 210.9028
408.7758, 209.2297
409.2579, 208.1514
409.7401, 207.5906
410.2222, 207.0284
410.7043, 206.0248
411.1864, 204.6982
411.6685, 204.0634
412.1506, 204.9021
412.6328, 205.5040
413.1149, 205.5208
413.5970, 205.2223
414.0791, 205.0126
414.5612, 205.0108
415.0433, 204.8274
415.5255, 203.7856
416.0076, 201.6313
416.4897, 199.4727
416.9718, 197.3799
417.4539, 195.2986
417.9360, 193.2985
418.4182, 191.2989
418.9003, 189.1237
419.3824, 186.6599
419.8645, 183.9090
420.3466, 180.7364
420.8287, 176.8517
421.3109, 173.1877
421.7930, 170.5980
422.2751, 168.2396
422.7572, 165.1000
423.2393, 160.8129
423.7214, 156.1627
424.2036, 151.7396
424.6857, 147.5738
425.1678, 144.2571
425.6499, 142.2492
426.1320, 140.7629
426.6141, 138.9980
427.0963, 137.0108
427.5784, 135.2275
428.0605, 133.9632
428.5426, 132.9543
429.0247, 131.7673
429.5068, 130.3567
429.9890, 129.0491
430.4711, 128.0633
430.9532, 127.3504
431.4353, 126.6591
431.9174, 125.7814
432.3995, 125.2325
432.8817, 125.6910
433.3638, 126.6258
433.8459, 126.7274
434.3280, 125.4892
434.8101, 123.9756
435.2922, 123.7554
435.7744, 125.2761
436.2565, 126.3109
436.7386, 126.3231
437.2207, 126.1965
437.7028, 126.5437
438.1849, 127.3341
438.6671, 128.2562
439.1492, 129.1299
439.6313, 129.9308
440.1134, 130.4906
440.5955, 130.2870
441.0776, 130.4940
441.5598, 132.0253
442.0418, 133.6302
442.5240, 133.9135
443.0061, 132.5698
443.4882, 130.4312
443.9703, 128.5148
444.4524, 126.8178
444.9345, 125.3391
445.4167, 124.2555
445.8988, 123.2235
446.3809, 122.0433
446.8630, 120.8412
447.3451, 119.8861
447.8272, 119.3803
448.3094, 119.1191
448.7915, 118.5451
449.2736, 117.4927
449.7557, 116.6008
450.2378, 115.8507
450.7199, 115.4330
451.2021, 115.7526
451.6842, 116.7763
452.1663, 117.6021
452.6484, 117.2363
453.1305, 116.0088
453.6126, 115.5308
454.0948, 116.2866
454.5769, 116.8695
455.0590, 115.7956
455.5411, 113.9540
456.0232, 112.9641
456.5053, 113.6198
456.9875, 114.6233
457.4696, 115.0335
457.9517, 114.8895
458.4338, 114.2276
458.9159, 112.8003
459.3980, 111.3669
459.8802, 111.2852
460.3623, 112.6620
460.8444, 113.7914
461.3265, 114.4390
461.8086, 114.6636
462.2907, 114.3654
462.7729, 113.6262
463.2550, 112.8127
463.7371, 112.1171
464.2192, 111.5839
464.7013, 111.4669
465.1834, 112.2595
465.6656, 112.8099
466.1477, 112.8964
466.6298, 112.6938
467.1119, 112.3420
467.5940, 111.8961
468.0761, 111.4220
468.5583, 110.9974
469.0404, 110.6250
469.5225, 110.2639
470.0046, 109.8982
470.4867, 109.5609
470.9688, 109.2488
471.4510, 108.9761
471.9331, 108.7392
472.4152, 108.5243
472.8973, 108.4211
473.3794, 108.7394
473.8615, 109.7031
474.3437, 110.1236
474.8258, 109.1862
475.3079, 108.1109
475.7900, 107.6533
476.2721, 107.7819
476.7542, 108.0341
477.2364, 108.2073
477.7185, 108.2920
478.2006, 108.2347
478.6827, 108.0093
479.1648, 107.7984
479.6469, 107.6558
480.1291, 107.6123
480.6112, 107.7609
481.0933, 108.2449
481.5754, 108.5314
482.0575, 108.1777
482.5396, 107.4831
483.0217, 106.9941
483.5038, 106.8208
483.9860, 106.8065
484.4681, 106.8411
484.9502, 106.9249
485.4323, 106.8833
485.9144, 106.6271
486.3965, 106.3480
486.8787, 106.2018
487.3608, 106.0742
487.8429, 105.6050
488.3250, 104.6502
488.8071, 103.7489
489.2892, 103.9473
489.7714, 105.9954
490.2535, 107.3043
490.7356, 107.8837
491.2177, 107.8499
491.6998, 106.8733
492.1819, 105.3275
492.6641, 103.9901
493.1462, 103.3446
493.6283, 103.2623
494.1104, 103.4382
494.5925, 104.0251
495.0746, 104.4535
495.5568, 104.4814
496.0389, 104.3758
496.5210, 104.2749
497.0031, 104.2043
497.4852, 104.1957
497.9673, 104.3080
498.4495, 104.4970
498.9316, 104.6693
499.4137, 104.8463
499.8958, 104.8833
500.3779, 104.6013
500.8600, 104.1497
501.3422, 103.8111
501.8243, 103.5216
502.3064, 103.5144
502.7885, 104.0699
503.2706, 104.9441
503.7527, 105.7666
504.2349, 106.4584
504.7170, 106.9240
505.1991, 106.9965
505.6812, 106.6436
506.1633, 106.6457
506.6454, 107.2475
507.1276, 107.8896
507.6097, 108.3511
508.0918, 108.7253
508.5739, 109.1562
509.0560, 109.6994
509.5381, 110.3321
510.0203, 111.0037
510.5024, 111.6760
510.9845, 112.5219
511.4666, 113.3386
511.9487, 114.5310
512.4308, 116.7530
512.9130, 119.4183
513.3951, 121.3249
513.8772, 121.7370
514.3593, 121.4846
514.8414, 122.1096
515.3235, 123.7254
515.8057, 125.3715
516.2878, 126.7934
516.7699, 128.2341
517.2520, 130.0285
517.7341, 132.0918
518.2162, 133.8206
518.6984, 134.8322
519.1805, 135.4522
519.6626, 136.1674
520.1447, 136.9535
520.6268, 137.2945
521.1089, 136.7478
521.5911, 135.8400
522.0732, 135.9055
522.5553, 137.3571
523.0374, 138.3852
523.5195, 138.4021
524.0016, 138.0723
524.4838, 138.1295
524.9659, 138.4824
525.4480, 138.3583
525.9301, 137.1414
526.4122, 135.0766
526.8943, 133.4091
527.3765, 132.7555
527.8586, 131.6247
528.3407, 129.3759
528.8228, 126.9791
529.3049, 125.2162
529.7870, 124.1680
530.2692, 123.4209
530.7513, 122.5234
531.2334, 121.6032
531.7155, 121.5513
532.1976, 122.8144
532.6797, 123.9044
533.1619, 123.8927
533.6440, 123.5362
534.1261, 123.5845
534.6082, 124.1691
535.0903, 124.9779
535.5724, 125.8235
536.0546, 126.7459
536.5367, 128.0149
537.0188, 129.7162
537.5009, 131.0270
537.9830, 131.2894
538.4651, 130.6254
538.9473, 129.8669
539.4294, 128.9803
539.9115, 128.0477
540.3936, 127.1166
540.8757, 126.1359
541.3578, 124.8604
541.8400, 123.3301
542.3221, 122.1511
542.8042, 122.0787
543.2863, 123.1449
543.7684, 123.3357
544.2505, 121.6318
544.7326, 120.2534
545.2147, 119.6650
545.6968, 119.5891
546.1790, 119.8111
546.6611, 120.2447
547.1432, 120.6823
547.6253, 120.9183
548.1074, 120.9591
548.5895, 120.7969
549.0717, 120.2314
549.5538, 119.8943
550.0359, 121.0240
550.5180, 122.4002
551.0001, 121.8544
551.4822, 118.1709
551.9644, 114.6677
552.4465, 113.9285
552.9286, 114.7432
553.4107, 114.5919
553.8928, 112.9764
554.3749, 110.8469
554.8571, 108.9628
555.3392, 107.3209
555.8213, 105.9416
556.3034, 105.0362
556.7855, 104.0945
557.2676, 102.5795
557.7498, 101.1440
558.2319, 100.8122
558.7140, 101.6936
559.1961, 102.7259
559.6782, 102.6760
560.1603, 101.5286
560.6425, 100.7805
561.1246, 100.7914
561.6067, 100.6880
562.0888, 99.88839
562.5709, 98.99533
563.0530, 98.81478
563.5352, 99.56369
564.0173, 100.3514
564.4994, 100.2878
564.9815, 99.64704
565.4636, 99.33402
565.9457, 99.46205
566.4279, 99.76698
566.9100, 100.0755
567.3921, 100.4333
567.8742, 100.9938
568.3563, 102.0611
568.8384, 102.8253
569.3206, 102.8226
569.8027, 102.4621
570.2848, 102.0699
570.7669, 101.7818
571.2490, 101.9628
571.7311, 103.0510
572.2133, 104.8984
572.6954, 105.8192
573.1775, 104.9342
573.6596, 104.3033
574.1417, 104.2798
574.6238, 104.5437
575.1060, 104.9723
575.5881, 105.4588
576.0702, 105.6696
576.5523, 105.1172
577.0344, 104.0848
577.5165, 103.7221
577.9987, 104.2070
578.4808, 104.5890
578.9629, 104.4899
579.4450, 104.0420
579.9271, 103.4030
580.4092, 102.5354
580.8914, 101.7637
581.3735, 101.4506
581.8556, 101.1452
582.3377, 100.0429
582.8198, 98.32085
583.3019, 97.25217
583.7841, 97.69450
584.2662, 98.97244
584.7483, 99.21057
585.2304, 97.51891
585.7125, 96.21490
586.1946, 95.21413
586.6768, 94.64039
587.1589, 94.87215
587.6410, 95.59846
588.1231, 96.05043
588.6052, 95.75082
589.0873, 95.02573
589.5695, 94.52820
590.0516, 94.27442
