##NAMES=Enstatite
##RRUFFID=R070550
##IDEAL CHEMISTRY=MgSiO_3_
##LOCALITY=Tanzania
##OWNER=RRUFF
##SOURCE=www.multicolour.com
##DESCRIPTION=Brown, translucent, vitreous crystal fragment
##STATUS=The identification of this mineral has been confirmed by X-ray diffraction and chemical analysis
##URL=rruff.info/R070550
##MEASURED CHEMISTRY=(Mg_0.90_Fe_0.10_)_Î£=1_Si_1.00_O_3_
125.7391, 729.6196
126.2212, 763.5430
126.7033, 806.4216
127.1854, 848.8525
127.6675, 884.4031
128.1497, 917.1472
128.6318, 957.4944
129.1139, 1011.411
129.5960, 1066.219
130.0781, 1113.513
130.5602, 1153.474
131.0424, 1180.784
131.5245, 1193.081
132.0066, 1190.443
132.4887, 1172.354
132.9708, 1131.581
133.4529, 1081.897
133.9351, 1033.157
134.4172, 985.5539
134.8993, 942.7610
135.3814, 905.4934
135.8635, 873.7975
136.3456, 854.7383
136.8278, 860.2762
137.3099, 870.8639
137.7920, 871.8875
138.2741, 862.4390
138.7562, 853.9232
139.2383, 860.1614
139.7205, 883.8643
140.2026, 902.3342
140.6847, 904.0733
141.1668, 904.1019
141.6489, 910.8234
142.1310, 925.6979
142.6132, 943.8909
143.0953, 958.1404
143.5774, 964.6552
144.0595, 980.1315
144.5416, 1015.213
145.0237, 1053.898
145.5059, 1086.174
145.9880, 1109.419
146.4701, 1128.378
146.9522, 1149.759
147.4343, 1172.903
147.9164, 1200.510
148.3986, 1238.726
148.8807, 1277.497
149.3628, 1309.417
149.8449, 1332.033
150.3270, 1348.398
150.8091, 1364.578
151.2912, 1386.288
151.7734, 1396.742
152.2555, 1391.035
152.7376, 1377.505
153.2197, 1361.977
153.7018, 1346.822
154.1839, 1332.296
154.6661, 1319.058
155.1482, 1308.092
155.6303, 1297.206
156.1124, 1284.194
156.5945, 1272.083
157.0766, 1264.802
157.5588, 1263.838
158.0409, 1266.238
158.5230, 1264.479
159.0051, 1246.839
159.4872, 1239.999
159.9693, 1252.705
160.4515, 1268.112
160.9336, 1272.971
161.4157, 1264.676
161.8978, 1249.673
162.3799, 1245.391
162.8620, 1258.245
163.3442, 1274.543
163.8263, 1294.480
164.3084, 1317.173
164.7905, 1345.896
165.2726, 1382.637
165.7547, 1418.531
166.2369, 1426.811
166.7190, 1392.199
167.2011, 1351.342
167.6832, 1303.275
168.1653, 1252.328
168.6474, 1203.177
169.1296, 1157.579
169.6117, 1116.131
170.0938, 1080.887
170.5759, 1049.401
171.0580, 1025.989
171.5401, 1016.056
172.0223, 1013.412
172.5044, 1008.281
172.9865, 995.9468
173.4686, 980.1494
173.9507, 972.1869
174.4328, 975.2777
174.9150, 980.1644
175.3971, 988.8721
175.8792, 997.6674
176.3613, 998.3969
176.8434, 986.0733
177.3255, 967.7218
177.8077, 963.7232
178.2898, 981.2820
178.7719, 998.6080
179.2540, 1010.887
179.7361, 1019.494
180.2182, 1026.615
180.7004, 1032.902
181.1825, 1038.750
181.6646, 1045.164
182.1467, 1052.552
182.6288, 1059.661
183.1109, 1064.624
183.5931, 1069.217
184.0752, 1077.100
184.5573, 1090.048
185.0394, 1106.195
185.5215, 1120.701
186.0036, 1130.686
186.4858, 1145.309
186.9679, 1170.034
187.4500, 1200.987
187.9321, 1229.692
188.4142, 1252.313
188.8963, 1273.378
189.3785, 1304.812
189.8606, 1351.771
190.3427, 1392.098
190.8248, 1422.011
191.3069, 1440.271
191.7890, 1443.311
192.2712, 1428.662
192.7533, 1401.422
193.2354, 1368.414
193.7175, 1328.361
194.1996, 1289.506
194.6817, 1254.343
195.1639, 1221.974
195.6460, 1190.022
196.1281, 1157.163
196.6102, 1126.081
197.0923, 1103.063
197.5744, 1088.831
198.0566, 1073.533
198.5387, 1050.558
199.0208, 1025.275
199.5029, 1008.939
199.9850, 1006.437
200.4671, 1007.499
200.9493, 995.0355
201.4314, 968.4405
201.9135, 944.5988
202.3956, 929.6097
202.8777, 919.8246
203.3598, 910.1535
203.8420, 899.9063
204.3241, 887.9471
204.8062, 871.1088
205.2883, 849.2388
205.7704, 830.0393
206.2525, 816.8782
206.7347, 807.0009
207.2168, 796.0358
207.6989, 782.8595
208.1810, 770.4225
208.6631, 762.3186
209.1452, 758.2173
209.6274, 756.5107
210.1095, 758.1578
210.5916, 761.4956
211.0737, 763.9315
211.5558, 764.8644
212.0379, 767.0893
212.5201, 774.0478
213.0022, 785.3448
213.4843, 796.6862
213.9664, 805.5645
214.4485, 815.1039
214.9306, 829.7084
215.4128, 849.9667
215.8949, 870.1855
216.3770, 883.5456
216.8591, 891.5388
217.3412, 907.7794
217.8233, 936.7797
218.3055, 972.4470
218.7876, 1012.029
219.2697, 1055.240
219.7518, 1094.926
220.2339, 1122.129
220.7160, 1140.277
221.1982, 1171.769
221.6803, 1232.073
222.1624, 1294.574
222.6445, 1335.507
223.1266, 1356.960
223.6087, 1383.038
224.0909, 1430.001
224.5730, 1494.493
225.0551, 1555.105
225.5372, 1606.465
226.0193, 1658.586
226.5014, 1717.118
226.9836, 1781.295
227.4657, 1848.251
227.9478, 1915.277
228.4299, 1985.120
228.9120, 2066.153
229.3941, 2159.642
229.8763, 2260.909
230.3584, 2363.261
230.8405, 2470.981
231.3226, 2596.710
231.8047, 2747.718
232.2868, 2917.468
232.7690, 3092.648
233.2511, 3281.028
233.7332, 3459.433
234.2153, 3628.135
234.6974, 3780.508
235.1796, 3911.172
235.6617, 4023.488
236.1438, 4095.816
236.6259, 4075.383
237.1080, 3948.252
237.5901, 3786.386
238.0723, 3581.695
238.5544, 3356.375
239.0365, 3135.035
239.5186, 2924.846
240.0007, 2723.761
240.4828, 2528.950
240.9650, 2335.416
241.4471, 2159.863
241.9292, 2008.256
242.4113, 1872.573
242.8934, 1744.836
243.3755, 1623.206
243.8577, 1513.157
244.3398, 1421.908
244.8219, 1354.835
245.3040, 1286.728
245.7861, 1210.600
246.2682, 1138.094
246.7504, 1077.448
247.2325, 1029.041
247.7146, 987.7778
248.1967, 950.1154
248.6788, 916.0052
249.1609, 884.0657
249.6431, 849.4931
250.1252, 820.9615
250.6073, 807.2159
251.0894, 803.8793
251.5715, 796.9688
252.0536, 775.4399
252.5358, 741.0991
253.0179, 720.7498
253.5000, 723.9257
253.9821, 728.4650
254.4642, 730.1472
254.9463, 728.8222
255.4285, 724.9274
255.9106, 718.6623
256.3927, 710.1578
256.8748, 699.7618
257.3569, 683.8684
257.8390, 670.2856
258.3211, 659.3081
258.8033, 651.1721
259.2854, 646.4024
259.7675, 645.2191
260.2496, 646.7033
260.7317, 649.1954
261.2138, 654.9868
261.6960, 658.0157
262.1781, 659.0154
262.6602, 657.0699
263.1423, 648.7159
263.6244, 634.4160
264.1065, 621.3716
264.5887, 621.1020
265.0708, 642.3138
265.5529, 651.4616
266.0350, 637.9880
266.5171, 622.9058
266.9992, 617.3514
267.4814, 621.3810
267.9635, 628.5756
268.4456, 632.9412
268.9277, 634.2232
269.4098, 636.1163
269.8919, 641.2216
270.3741, 644.4437
270.8562, 640.0984
271.3383, 632.5585
271.8204, 631.7729
272.3025, 646.9229
272.7846, 673.7330
273.2668, 686.7259
273.7489, 675.1635
274.2310, 664.7641
274.7131, 663.9049
275.1952, 668.1821
275.6773, 671.4444
276.1595, 670.4006
276.6416, 668.3233
277.1237, 672.9652
277.6058, 687.3884
278.0879, 700.0138
278.5700, 706.0065
279.0522, 709.8231
279.5343, 714.7923
280.0164, 721.7148
280.4985, 730.2316
280.9806, 740.7708
281.4627, 753.5938
281.9449, 764.5742
282.4270, 770.7662
282.9091, 776.5964
283.3912, 787.3818
283.8733, 803.0409
284.3554, 814.6151
284.8376, 810.9670
285.3197, 796.4932
285.8018, 792.6057
286.2839, 805.5539
286.7660, 823.4159
287.2481, 836.2087
287.7303, 845.3244
288.2124, 856.1937
288.6945, 870.5551
289.1766, 888.1917
289.6587, 909.9579
290.1408, 936.6414
290.6230, 962.8824
291.1051, 984.4453
291.5872, 1002.784
292.0693, 1021.513
292.5514, 1037.854
293.0335, 1057.512
293.5157, 1087.234
293.9978, 1125.612
294.4799, 1163.181
294.9620, 1194.824
295.4441, 1222.632
295.9262, 1253.241
296.4084, 1289.825
296.8905, 1323.232
297.3726, 1350.163
297.8547, 1371.196
298.3368, 1388.142
298.8189, 1402.139
299.3011, 1409.597
299.7832, 1403.294
300.2653, 1379.702
300.7474, 1352.884
301.2295, 1319.596
301.7116, 1286.214
302.1938, 1257.154
302.6759, 1233.648
303.1580, 1216.939
303.6401, 1208.760
304.1222, 1210.295
304.6043, 1214.434
305.0865, 1224.323
305.5686, 1233.503
306.0507, 1239.173
306.5328, 1241.493
307.0149, 1241.313
307.4970, 1238.898
307.9792, 1234.742
308.4613, 1232.706
308.9434, 1237.660
309.4255, 1239.235
309.9076, 1230.220
310.3897, 1219.024
310.8719, 1216.798
311.3540, 1228.096
311.8361, 1247.293
312.3182, 1262.253
312.8003, 1268.064
313.2824, 1280.235
313.7646, 1296.821
314.2467, 1321.215
314.7288, 1358.047
315.2109, 1406.792
315.6930, 1460.343
316.1751, 1513.196
316.6573, 1565.604
317.1394, 1612.729
317.6215, 1644.920
318.1036, 1682.063
318.5857, 1738.726
319.0678, 1807.991
319.5500, 1871.638
320.0321, 1919.114
320.5142, 1953.431
320.9963, 1982.488
321.4784, 2004.251
321.9605, 2026.094
322.4427, 2047.147
322.9248, 2071.587
323.4069, 2105.169
323.8890, 2149.439
324.3711, 2203.110
324.8532, 2263.969
325.3354, 2332.269
325.8175, 2412.944
326.2996, 2509.973
326.7817, 2618.431
327.2638, 2730.086
327.7459, 2844.751
328.2281, 2962.523
328.7102, 3083.710
329.1923, 3208.625
329.6744, 3334.798
330.1565, 3460.851
330.6386, 3597.366
331.1208, 3754.370
331.6029, 3933.858
332.0850, 4125.107
332.5671, 4327.204
333.0492, 4540.667
333.5313, 4760.563
334.0135, 4988.889
334.4956, 5240.033
334.9777, 5522.595
335.4598, 5833.067
335.9419, 6151.016
336.4240, 6481.552
336.9062, 6814.710
337.3883, 7167.833
337.8704, 7515.053
338.3525, 7825.982
338.8346, 8089.384
339.3167, 8307.924
339.7989, 8492.563
340.2810, 8680.573
340.7631, 8744.388
341.2452, 8668.900
341.7273, 8503.325
342.2094, 8261.265
342.6916, 7954.256
343.1737, 7596.746
343.6558, 7196.236
344.1379, 6752.088
344.6200, 6318.032
345.1021, 5884.777
345.5843, 5470.368
346.0664, 5070.205
346.5485, 4692.039
347.0306, 4346.402
347.5127, 4037.550
347.9948, 3760.615
348.4770, 3508.630
348.9591, 3281.556
349.4412, 3079.881
349.9233, 2913.762
350.4054, 2768.341
350.8875, 2634.720
351.3697, 2511.901
351.8518, 2399.618
352.3339, 2295.420
352.8160, 2201.596
353.2981, 2125.929
353.7802, 2073.439
354.2624, 2030.751
354.7445, 1987.402
355.2266, 1943.814
355.7087, 1902.123
356.1908, 1861.364
356.6729, 1823.640
357.1551, 1791.066
357.6372, 1763.372
358.1193, 1740.113
358.6014, 1723.052
359.0835, 1708.797
359.5656, 1684.453
360.0478, 1643.338
360.5299, 1603.508
361.0120, 1569.626
361.4941, 1539.407
361.9762, 1509.102
362.4583, 1477.735
362.9405, 1448.291
363.4226, 1425.257
363.9047, 1411.088
364.3868, 1395.719
364.8689, 1373.357
365.3510, 1355.132
365.8332, 1348.015
366.3153, 1350.246
366.7974, 1355.506
367.2795, 1359.080
367.7616, 1362.074
368.2437, 1371.565
368.7259, 1392.875
369.2080, 1412.931
369.6901, 1429.581
370.1722, 1443.686
370.6543, 1454.280
371.1364, 1461.172
371.6186, 1470.535
372.1007, 1492.093
372.5828, 1526.762
373.0649, 1558.421
373.5470, 1580.019
374.0291, 1603.717
374.5113, 1638.690
374.9934, 1683.230
375.4755, 1728.711
375.9576, 1773.598
376.4397, 1815.720
376.9218, 1851.038
377.4040, 1878.922
377.8861, 1905.272
378.3682, 1935.679
378.8503, 1966.118
379.3324, 1987.059
379.8145, 1998.026
380.2967, 2000.045
380.7788, 1991.868
381.2609, 1975.340
381.7430, 1951.233
382.2251, 1918.799
382.7072, 1887.538
383.1894, 1871.443
383.6715, 1876.422
384.1536, 1879.899
384.6357, 1879.166
385.1178, 1879.248
385.5999, 1880.152
386.0821, 1884.220
386.5642, 1896.887
387.0463, 1921.985
387.5284, 1958.862
388.0105, 2002.496
388.4926, 2057.636
388.9748, 2113.806
389.4569, 2166.954
389.9390, 2221.512
390.4211, 2281.401
390.9032, 2347.465
391.3853, 2418.430
391.8675, 2491.646
392.3496, 2566.450
392.8317, 2649.211
393.3138, 2746.309
393.7959, 2843.802
394.2780, 2936.087
394.7602, 3022.731
395.2423, 3104.406
395.7244, 3183.880
396.2065, 3256.466
396.6886, 3314.212
397.1707, 3356.935
397.6529, 3392.270
398.1350, 3427.355
398.6171, 3453.649
399.0992, 3456.409
399.5813, 3430.679
400.0634, 3397.598
400.5456, 3367.732
401.0277, 3334.144
401.5098, 3283.169
401.9919, 3212.376
402.4740, 3138.501
402.9561, 3078.139
403.4383, 3033.051
403.9204, 2982.305
404.4025, 2923.328
404.8846, 2862.494
405.3667, 2798.017
405.8488, 2733.866
406.3310, 2675.812
406.8131, 2626.431
407.2952, 2586.324
407.7773, 2558.765
408.2594, 2552.911
408.7415, 2538.825
409.2237, 2506.389
409.7058, 2472.407
410.1879, 2446.839
410.6700, 2429.594
411.1521, 2414.786
411.6342, 2396.067
412.1164, 2376.097
412.5985, 2367.996
413.0806, 2376.732
413.5627, 2384.037
414.0448, 2387.534
414.5269, 2381.665
415.0091, 2353.863
415.4912, 2292.473
415.9733, 2234.610
416.4554, 2215.845
416.9375, 2221.752
417.4196, 2209.076
417.9018, 2165.629
418.3839, 2110.807
418.8660, 2065.929
419.3481, 2032.995
419.8302, 1992.330
420.3123, 1945.428
420.7945, 1888.854
421.2766, 1815.298
421.7587, 1730.133
422.2408, 1644.680
422.7229, 1564.685
423.2050, 1490.025
423.6872, 1421.064
424.1693, 1357.059
424.6514, 1299.754
425.1335, 1253.091
425.6156, 1209.642
426.0977, 1164.499
426.5799, 1117.124
427.0620, 1070.688
427.5441, 1026.088
428.0262, 984.1854
428.5083, 950.6761
428.9904, 926.7183
429.4726, 909.0461
429.9547, 898.7966
430.4368, 892.9702
430.9189, 888.5993
431.4010, 885.4666
431.8831, 882.2788
432.3653, 877.0949
432.8474, 870.8884
433.3295, 867.0651
433.8116, 866.4774
434.2937, 867.9122
434.7758, 869.9211
435.2580, 872.5553
435.7401, 878.3055
436.2222, 887.9796
436.7043, 900.1888
437.1864, 914.5580
437.6685, 930.8492
438.1507, 949.2101
438.6328, 969.8777
439.1149, 991.0220
439.5970, 1008.328
440.0791, 1020.992
440.5612, 1031.071
441.0434, 1039.450
441.5255, 1044.888
442.0076, 1049.786
442.4897, 1051.683
442.9718, 1042.886
443.4539, 1015.699
443.9361, 974.6857
444.4182, 935.8755
444.9003, 899.3757
445.3824, 864.7732
445.8645, 830.7717
446.3466, 799.6769
446.8288, 774.1235
447.3109, 754.7332
447.7930, 739.4748
448.2751, 727.6168
448.7572, 719.0612
449.2393, 715.8429
449.7215, 718.9015
450.2036, 717.6176
450.6857, 700.2993
451.1678, 669.2872
451.6499, 652.8276
452.1320, 662.2084
452.6142, 671.7425
453.0963, 671.4651
453.5784, 666.5106
454.0605, 664.5596
454.5426, 667.9152
455.0247, 673.3506
455.5069, 676.6142
455.9890, 677.3607
456.4711, 677.4503
456.9532, 675.9191
457.4353, 674.6682
457.9174, 674.2016
458.3995, 674.4634
458.8817, 675.5143
459.3638, 677.6887
459.8459, 679.6932
460.3280, 678.9330
460.8101, 675.3135
461.2922, 673.7451
461.7744, 677.5267
462.2565, 680.9315
462.7386, 676.4537
463.2207, 664.9784
463.7028, 656.6392
464.1849, 635.4020
464.6671, 652.9786
465.1492, 660.8576
465.6313, 659.5591
466.1134, 621.5955
466.5955, 630.9772
467.0776, 621.3849
467.5598, 611.0137
468.0419, 627.0590
468.5240, 594.4284
469.0061, 610.0546
469.4882, 606.4177
469.9703, 611.5969
470.4525, 597.6842
470.9346, 589.6693
471.4167, 589.3102
471.8988, 600.1295
472.3809, 608.1772
472.8630, 614.2186
473.3452, 615.4877
473.8273, 606.5267
474.3094, 595.0414
474.7915, 586.1164
475.2736, 580.3633
475.7557, 578.7664
476.2379, 584.5056
476.7200, 593.9617
477.2021, 601.4153
477.6842, 606.4085
478.1663, 607.5954
478.6484, 603.3925
479.1306, 594.8552
479.6127, 586.7973
480.0948, 576.1235
480.5769, 569.9314
481.0590, 573.4504
481.5411, 579.8229
482.0233, 580.5817
482.5054, 575.3262
482.9875, 571.8935
483.4696, 579.5519
483.9517, 597.1918
484.4338, 600.4568
484.9160, 576.4005
485.3981, 557.4330
485.8802, 555.6013
486.3623, 560.7123
486.8444, 561.0713
487.3265, 553.8078
487.8087, 548.1031
488.2908, 554.5633
488.7729, 568.9535
489.2550, 577.2699
489.7371, 577.5994
490.2192, 574.2898
490.7014, 569.1868
491.1835, 562.8894
491.6656, 558.2690
492.1477, 555.3417
492.6298, 554.0962
493.1119, 555.3790
493.5941, 557.9798
494.0762, 560.7341
494.5583, 563.2129
495.0404, 564.9507
495.5225, 565.5110
496.0046, 564.9111
496.4868, 562.7311
496.9689, 558.5210
497.4510, 553.1419
497.9331, 544.5024
498.4152, 535.8867
498.8973, 531.6077
499.3795, 532.9026
499.8616, 535.7795
500.3437, 535.0319
500.8258, 532.2101
501.3079, 535.0591
501.7900, 545.3392
502.2722, 557.8679
502.7543, 570.0867
503.2364, 581.4524
503.7185, 590.0809
504.2006, 592.5525
504.6827, 596.4377
505.1649, 604.0514
505.6470, 614.9429
506.1291, 629.6951
506.6112, 647.9088
507.0933, 666.3293
507.5754, 681.2640
508.0576, 692.5698
508.5397, 706.3411
509.0218, 722.8541
509.5039, 741.7991
509.9860, 764.6412
510.4681, 789.0446
510.9503, 812.0375
511.4324, 832.9120
511.9145, 854.7849
512.3966, 881.6022
512.8787, 911.9279
513.3608, 938.7994
513.8430, 960.4277
514.3251, 984.8401
514.8072, 1017.563
515.2893, 1057.607
515.7714, 1099.449
516.2535, 1150.331
516.7357, 1192.332
517.2178, 1214.698
517.6999, 1228.039
518.1820, 1243.798
518.6641, 1263.758
519.1462, 1283.869
519.6284, 1300.684
520.1105, 1314.207
520.5926, 1324.987
521.0747, 1335.267
521.5568, 1338.705
522.0389, 1327.430
522.5211, 1313.750
523.0032, 1309.295
523.4853, 1315.518
523.9674, 1323.666
524.4495, 1329.389
524.9316, 1332.212
525.4138, 1333.241
525.8959, 1332.789
526.3780, 1320.991
526.8601, 1289.596
527.3422, 1245.612
527.8243, 1208.236
528.3065, 1179.416
528.7886, 1151.242
529.2707, 1119.354
529.7528, 1090.120
530.2349, 1069.385
530.7170, 1056.221
531.1992, 1045.280
531.6813, 1032.674
532.1634, 1020.586
532.6455, 1015.136
533.1276, 1015.191
533.6097, 1025.502
534.0919, 1055.633
534.5740, 1089.372
535.0561, 1116.221
535.5382, 1136.573
536.0203, 1154.834
536.5024, 1174.610
536.9846, 1192.122
537.4667, 1202.145
537.9488, 1205.882
538.4309, 1210.370
538.9130, 1219.391
539.3951, 1225.022
539.8773, 1213.492
540.3594, 1176.499
540.8415, 1151.382
541.3236, 1147.356
541.8057, 1144.317
542.2878, 1131.200
542.7700, 1113.674
543.2521, 1102.603
543.7342, 1102.604
544.2163, 1106.768
544.6984, 1105.614
545.1805, 1099.317
545.6627, 1094.433
546.1448, 1093.177
546.6269, 1090.027
547.1090, 1077.110
547.5911, 1059.434
548.0732, 1050.946
548.5554, 1062.609
549.0375, 1069.455
549.5196, 1055.401
550.0017, 1031.487
550.4838, 1015.608
550.9659, 1009.621
551.4481, 999.4124
551.9302, 971.2447
552.4123, 927.0474
552.8944, 887.0103
553.3765, 851.8438
553.8586, 820.2507
554.3408, 792.3998
554.8229, 767.4260
555.3050, 744.4824
555.7871, 723.5881
556.2692, 705.0692
556.7513, 690.1431
557.2335, 677.3994
557.7156, 664.2531
558.1977, 650.7484
558.6798, 639.0330
559.1619, 630.5402
559.6440, 623.2497
560.1262, 612.8624
560.6083, 595.4788
561.0904, 585.7436
561.5725, 590.7836
562.0546, 596.7633
562.5367, 595.1709
563.0189, 588.8210
563.5010, 584.5505
563.9831, 585.5494
564.4652, 588.3959
564.9473, 586.2347
565.4294, 578.7498
565.9116, 579.4178
566.3937, 594.9000
566.8758, 608.8893
567.3579, 607.9855
567.8400, 597.1290
568.3221, 586.7875
568.8043, 575.3510
569.2864, 569.0706
569.7685, 572.9654
570.2506, 582.8480
570.7327, 594.9865
571.2148, 607.7852
571.6970, 616.8868
572.1791, 617.7644
572.6612, 612.2806
573.1433, 613.3805
573.6254, 626.1154
574.1075, 635.8797
574.5897, 639.5567
575.0718, 639.9527
575.5539, 638.0614
576.0360, 634.4382
576.5181, 631.0644
577.0002, 630.2297
577.4824, 629.4063
577.9645, 625.1442
578.4466, 617.9160
578.9287, 609.9310
579.4108, 601.8045
579.8929, 593.8696
580.3751, 586.7247
580.8572, 580.7977
581.3393, 573.5189
581.8214, 563.3304
582.3035, 553.7359
582.7856, 544.8839
583.2678, 537.7591
583.7499, 534.4809
584.2320, 535.4507
584.7141, 536.2611
585.1962, 530.6838
585.6783, 520.8985
586.1605, 518.2841
586.6426, 525.1631
587.1247, 526.8041
587.6068, 511.3988
588.0889, 487.9846
588.5710, 479.5326
589.0532, 492.1930
589.5353, 501.1872
590.0174, 501.0404
590.4995, 497.3142
590.9816, 490.9670
591.4637, 484.6713
591.9459, 485.1586
592.4280, 496.6726
592.9101, 510.7773
593.3922, 510.2590
593.8743, 493.4716
594.3564, 480.1274
594.8386, 471.5928
595.3207, 467.7854
595.8028, 471.7568
596.2849, 480.1798
596.7670, 485.5400
597.2491, 486.2976
597.7313, 484.8672
598.2134, 479.5994
598.6955, 474.1874
599.1776, 475.6406
599.6597, 483.2765
600.1418, 488.0868
600.6240, 482.9592
601.1061, 469.9621
601.5882, 456.7214
602.0703, 441.4400
602.5524, 430.5493
603.0345, 425.8908
603.5167, 425.5586
603.9988, 430.2003
604.4809, 438.5264
604.9630, 445.8579
605.4451, 452.2142
605.9272, 455.1473
606.4094, 448.1130
606.8915, 436.7277
607.3736, 435.6069
607.8557, 448.0633
608.3378, 462.3233
608.8199, 466.3621
609.3021, 460.6045
609.7842, 455.2901
610.2663, 448.9407
610.7484, 445.3187
611.2305, 445.2613
611.7126, 447.7852
612.1948, 454.0280
612.6769, 463.0096
613.1590, 468.6905
613.6411, 465.2782
614.1232, 458.2524
614.6053, 453.8491
615.0875, 451.9014
615.5696, 452.0903
616.0517, 454.5103
616.5338, 457.5726
617.0159, 459.4586
617.4980, 460.2542
617.9802, 459.1348
618.4623, 451.1129
618.9444, 447.1987
619.4265, 453.7291
619.9086, 463.3379
620.3907, 467.3043
620.8729, 464.5622
621.3550, 462.4816
621.8371, 468.1987
622.3192, 477.4540
622.8013, 482.2623
