##NAMES=Enstatite
##RRUFFID=R060744
##IDEAL CHEMISTRY=MgSiO_3_
##LOCALITY=Orissa, India
##OWNER=RRUFF
##SOURCE=Herb Obodda
##DESCRIPTION=Brown transparent fragment
##STATUS=The identification of this mineral has been confirmed by X-ray diffraction and chemical analysis
##URL=rruff.info/R060744
##MEASURED CHEMISTRY=(Mg_0.85_Fe^2+^_0.13_Fe^3+^_0.01_Mn_0.01_)_Σ=1_(Si_0.99_Al_0.01_)_Σ=1_O_3_; trace amounts of Ca; Fe^2+^ and Fe^3+^ splitted by charge balance
124.898, 17545.850
125.380, 18197.461
125.862, 18880.590
126.344, 19561.980
126.826, 20244.910
127.308, 20909.721
127.790, 21478.381
128.273, 21931.830
128.755, 22247.020
129.237, 22345.789
129.719, 22173.230
130.201, 21803.381
130.683, 21340.760
131.165, 20776.211
131.648, 20216.850
132.130, 19737.760
132.612, 19339.250
133.094, 19056.000
133.576, 18937.590
134.058, 18956.391
134.540, 18937.240
135.022, 18868.250
135.504, 18791.420
135.986, 18763.600
136.469, 18785.740
136.951, 18847.131
137.433, 18952.180
137.915, 19104.119
138.397, 19264.359
138.879, 19445.730
139.361, 19626.141
139.843, 19743.480
140.326, 19776.891
140.808, 19800.891
141.290, 19868.869
141.772, 20010.410
142.254, 20104.180
142.736, 20127.150
143.218, 20088.320
143.700, 20056.131
144.182, 20028.510
144.665, 20008.920
145.147, 20000.850
145.629, 20009.100
146.111, 20019.189
146.593, 20030.439
147.075, 20043.631
147.557, 20044.930
148.039, 20016.010
148.521, 19983.150
149.004, 19977.400
149.486, 20030.400
149.968, 20077.840
150.450, 20104.350
150.932, 20101.670
151.414, 20100.000
151.896, 20101.289
152.378, 20105.131
152.861, 20110.221
153.343, 20112.869
153.825, 20122.260
154.307, 20143.240
154.789, 20188.301
155.271, 20229.811
155.753, 20253.971
156.235, 20269.949
156.717, 20308.391
157.200, 20391.020
157.682, 20488.711
158.164, 20584.020
158.646, 20674.551
159.128, 20759.400
159.610, 20832.570
160.092, 20894.801
160.574, 20961.711
161.057, 21052.100
161.539, 21142.010
162.021, 21209.510
162.503, 21210.580
162.985, 21216.279
163.467, 21266.311
163.949, 21363.881
164.431, 21457.061
164.913, 21524.461
165.396, 21571.949
165.878, 21607.650
166.360, 21636.131
166.842, 21654.381
167.324, 21658.070
167.806, 21644.971
168.288, 21630.330
168.770, 21626.680
169.253, 21629.721
169.735, 21629.529
170.217, 21604.150
170.699, 21581.561
171.181, 21595.020
171.663, 21664.820
172.145, 21738.359
172.627, 21764.510
173.109, 21754.189
173.592, 21747.971
174.074, 21766.850
174.556, 21806.279
175.038, 21861.570
175.520, 21941.160
176.002, 22024.381
176.484, 22084.250
176.966, 22122.561
177.449, 22157.211
177.931, 22194.580
178.413, 22237.820
178.895, 22296.051
179.377, 22387.100
179.859, 22485.840
180.341, 22545.250
180.823, 22565.211
181.305, 22582.580
181.788, 22634.170
182.270, 22712.500
182.752, 22794.250
183.234, 22876.471
183.716, 22954.650
184.198, 23014.500
184.680, 23054.730
185.162, 23083.311
185.645, 23112.461
186.127, 23139.830
186.609, 23152.711
187.091, 23126.500
187.573, 23076.330
188.055, 23067.551
188.537, 23108.211
189.019, 23173.471
189.501, 23231.730
189.984, 23283.609
190.466, 23330.750
190.948, 23375.141
191.430, 23416.740
191.912, 23453.811
192.394, 23490.869
192.876, 23516.529
193.358, 23493.789
193.840, 23418.961
194.323, 23356.119
194.805, 23362.500
195.287, 23435.660
195.769, 23479.250
196.251, 23475.420
196.733, 23440.289
197.215, 23417.689
197.697, 23408.039
198.180, 23409.381
198.662, 23423.080
199.144, 23450.279
199.626, 23478.270
200.108, 23506.430
200.590, 23533.779
201.072, 23553.330
201.554, 23562.949
202.036, 23571.080
202.519, 23581.010
203.001, 23589.910
203.483, 23618.301
203.965, 23681.900
204.447, 23773.570
204.929, 23812.539
205.411, 23779.779
205.893, 23733.779
206.376, 23746.689
206.858, 23836.410
207.340, 23905.641
207.822, 23920.439
208.304, 23879.789
208.786, 23866.891
209.268, 23891.350
209.750, 23931.100
210.232, 23961.199
210.714, 23985.010
211.197, 23990.789
211.679, 23964.750
212.161, 23898.920
212.643, 23880.279
213.125, 23924.670
213.607, 24001.221
214.089, 24065.770
214.572, 24120.381
215.054, 24157.551
215.536, 24163.711
216.018, 24121.090
216.500, 24127.221
216.982, 24199.369
217.464, 24306.420
217.946, 24387.650
218.428, 24426.920
218.911, 24468.619
219.393, 24534.439
219.875, 24637.779
220.357, 24721.199
220.839, 24775.939
221.321, 24814.070
221.803, 24870.891
222.285, 24958.949
222.767, 25044.779
223.250, 25108.270
223.732, 25132.109
224.214, 25182.010
224.696, 25268.010
225.178, 25380.400
225.660, 25491.811
226.142, 25592.340
226.624, 25705.830
227.107, 25845.961
227.589, 26028.070
228.071, 26203.029
228.553, 26362.930
229.035, 26513.631
229.517, 26682.199
229.999, 26876.830
230.481, 27081.289
230.963, 27286.420
231.445, 27495.859
231.928, 27703.859
232.410, 27919.061
232.892, 28137.369
233.374, 28317.439
233.856, 28480.971
234.338, 28581.850
234.820, 28585.211
235.303, 28455.670
235.785, 28298.480
236.267, 28124.539
236.749, 27931.920
237.231, 27711.670
237.713, 27451.930
238.195, 27182.131
238.677, 26920.311
239.159, 26651.221
239.641, 26420.410
240.124, 26225.949
240.606, 26070.141
241.088, 25984.221
241.570, 26013.529
242.052, 26064.711
242.534, 26056.689
243.016, 25942.199
243.498, 25858.990
243.981, 25839.010
244.463, 25880.359
244.945, 25892.561
245.427, 25857.350
245.909, 25809.600
246.391, 25777.961
246.873, 25762.260
247.355, 25761.061
247.837, 25777.230
248.320, 25810.510
248.802, 25840.750
249.284, 25868.230
249.766, 25892.080
250.248, 25912.770
250.730, 25934.369
251.212, 25947.039
251.694, 25949.090
252.176, 25941.340
252.659, 25929.711
253.141, 25912.590
253.623, 25895.949
254.105, 25884.490
254.587, 25876.279
255.069, 25880.369
255.551, 25902.520
256.033, 25943.461
256.516, 25979.020
256.998, 26009.369
257.480, 26033.801
257.962, 26050.609
258.444, 26056.250
258.926, 26059.561
259.408, 26055.600
259.890, 26042.600
260.372, 26060.699
260.855, 26117.010
261.337, 26194.660
261.819, 26280.711
262.301, 26387.160
262.783, 26470.410
263.265, 26515.420
263.747, 26520.920
264.229, 26532.211
264.711, 26549.631
265.194, 26571.930
265.676, 26599.301
266.158, 26634.561
266.640, 26665.850
267.122, 26690.990
267.604, 26710.510
268.086, 26721.590
268.569, 26721.520
269.051, 26718.811
269.533, 26720.400
270.015, 26724.090
270.497, 26743.961
270.979, 26793.150
271.461, 26870.500
271.943, 26910.830
272.425, 26905.020
272.908, 26881.230
273.390, 26869.301
273.872, 26870.920
274.354, 26877.211
274.836, 26887.090
275.318, 26900.070
275.800, 26910.410
276.282, 26915.740
276.764, 26923.039
277.247, 26939.391
277.729, 26964.850
278.211, 26998.330
278.693, 27047.730
279.175, 27106.910
279.657, 27120.740
280.139, 27073.949
280.621, 27029.740
281.103, 27072.270
281.586, 27207.260
282.068, 27308.279
282.550, 27332.619
283.032, 27295.789
283.514, 27269.859
283.996, 27254.471
284.478, 27252.510
284.960, 27269.529
285.443, 27305.721
285.925, 27349.330
286.407, 27399.070
286.889, 27453.891
287.371, 27512.900
287.853, 27577.750
288.335, 27635.381
288.817, 27664.211
289.299, 27668.820
289.782, 27689.820
290.264, 27740.660
290.746, 27811.650
291.228, 27884.070
291.710, 27958.150
292.192, 28022.590
292.674, 28059.279
293.156, 28074.869
293.638, 28099.381
294.121, 28147.650
294.603, 28202.199
295.085, 28228.039
295.567, 28226.359
296.049, 28217.811
296.531, 28221.070
297.013, 28231.881
297.496, 28237.520
297.978, 28236.381
298.460, 28228.699
298.942, 28203.670
299.424, 28165.221
299.906, 28144.760
300.388, 28176.109
300.870, 28240.539
301.352, 28300.881
301.835, 28346.900
302.317, 28386.539
302.799, 28419.801
303.281, 28449.721
303.763, 28496.891
304.245, 28603.570
304.727, 28726.260
305.209, 28796.750
305.691, 28785.529
306.174, 28751.051
306.656, 28742.949
307.138, 28756.189
307.620, 28773.160
308.102, 28779.311
308.584, 28787.289
309.066, 28814.359
309.548, 28873.350
310.030, 28929.609
310.513, 28950.051
310.995, 28949.289
311.477, 28960.859
311.959, 29012.119
312.441, 29076.180
312.923, 29132.600
313.405, 29178.189
313.887, 29217.270
314.370, 29240.340
314.852, 29260.000
315.334, 29299.609
315.816, 29392.039
316.298, 29489.539
316.780, 29558.939
317.262, 29585.051
317.744, 29633.359
318.226, 29759.570
318.709, 29916.779
319.191, 30039.141
319.673, 30050.289
320.155, 30072.250
320.637, 30153.520
321.119, 30302.080
321.601, 30483.510
322.083, 30713.131
322.565, 30960.730
323.048, 31192.801
323.530, 31375.320
324.012, 31567.660
324.494, 31780.119
324.976, 32012.131
325.458, 32273.260
325.940, 32581.711
326.422, 32910.230
326.905, 33238.609
327.387, 33519.910
327.869, 33849.781
328.351, 34266.160
328.833, 34764.129
329.315, 35227.570
329.797, 35603.141
330.279, 35983.602
330.762, 36436.879
331.244, 37005.289
331.726, 37584.449
332.208, 38161.520
332.690, 38742.000
333.172, 39367.809
333.654, 40054.602
334.136, 40759.379
334.618, 41470.699
335.100, 42199.488
335.583, 42894.039
336.065, 43563.090
336.547, 44190.781
337.029, 44755.160
337.511, 45277.711
337.993, 45690.180
338.475, 45969.750
338.957, 46124.340
339.440, 46087.750
339.922, 45835.629
340.404, 45412.020
340.886, 44885.180
341.368, 44254.172
341.850, 43547.289
342.332, 42779.539
342.814, 41942.941
343.297, 41084.750
343.779, 40178.891
344.261, 39304.422
344.743, 38569.020
345.225, 37975.000
345.707, 37428.199
346.189, 36874.410
346.671, 36338.340
347.153, 35876.711
347.635, 35495.051
348.118, 35165.762
348.600, 34856.430
349.082, 34570.602
349.564, 34322.840
350.046, 34137.449
350.528, 33978.750
351.010, 33759.148
351.492, 33481.980
351.975, 33229.219
352.457, 33087.660
352.939, 33019.578
353.421, 32955.172
353.903, 32880.148
354.385, 32795.301
354.867, 32693.641
355.349, 32580.270
355.832, 32477.680
356.314, 32414.350
356.796, 32364.680
357.278, 32299.779
357.760, 32204.590
358.242, 32111.990
358.724, 32052.520
359.206, 32012.820
359.688, 31958.359
360.171, 31841.260
360.653, 31724.980
361.135, 31656.971
361.617, 31658.369
362.099, 31658.801
362.581, 31632.150
363.063, 31586.840
363.545, 31536.051
364.027, 31464.289
364.510, 31403.699
364.992, 31365.510
365.474, 31351.150
365.956, 31355.939
366.438, 31394.930
366.920, 31446.760
367.402, 31490.160
367.884, 31524.689
368.366, 31550.420
368.849, 31561.770
369.331, 31558.721
369.813, 31569.010
370.295, 31598.670
370.777, 31636.840
371.259, 31675.240
371.741, 31703.869
372.224, 31750.949
372.706, 31834.430
373.188, 31939.949
373.670, 31992.250
374.152, 31960.320
374.634, 31927.811
375.116, 31942.830
375.598, 32016.850
376.080, 32088.641
376.562, 32153.750
377.045, 32216.100
377.527, 32289.961
378.009, 32383.430
378.491, 32451.039
378.973, 32463.689
379.455, 32423.980
379.937, 32393.240
380.419, 32371.721
380.902, 32360.939
381.384, 32370.039
381.866, 32397.400
382.348, 32415.400
382.830, 32406.529
383.312, 32384.529
383.794, 32381.891
384.276, 32398.480
384.759, 32431.150
385.241, 32480.930
385.723, 32544.160
386.205, 32607.400
386.687, 32652.730
387.169, 32712.510
387.651, 32840.609
388.133, 33022.590
388.615, 33196.609
389.098, 33322.000
389.580, 33415.719
390.062, 33491.699
390.544, 33547.559
391.026, 33603.219
391.508, 33667.629
391.990, 33742.141
392.472, 33830.219
392.954, 33961.531
393.437, 34086.891
393.919, 34173.961
394.401, 34212.941
394.883, 34254.539
395.365, 34315.930
395.847, 34388.680
396.329, 34463.051
396.811, 34558.301
397.293, 34633.102
397.776, 34667.730
398.258, 34660.719
398.740, 34662.809
399.222, 34689.281
399.704, 34716.371
400.186, 34729.461
400.668, 34720.121
401.151, 34707.641
401.633, 34685.320
402.115, 34660.840
402.597, 34663.961
403.079, 34718.570
403.561, 34762.660
404.043, 34763.801
404.525, 34708.488
405.007, 34666.891
405.490, 34646.930
405.972, 34631.359
406.454, 34580.871
406.936, 34485.199
407.418, 34422.340
407.900, 34438.301
408.382, 34516.520
408.864, 34539.039
409.346, 34498.551
409.828, 34441.820
410.311, 34422.910
410.793, 34433.449
411.275, 34424.391
411.757, 34370.289
412.239, 34304.469
412.721, 34293.551
413.203, 34331.000
413.685, 34361.898
414.168, 34338.680
414.650, 34286.840
415.132, 34246.809
415.614, 34226.809
416.096, 34210.480
416.578, 34184.789
417.060, 34151.422
417.542, 34114.891
418.025, 34095.000
418.507, 34059.309
418.989, 33967.672
419.471, 33812.422
419.953, 33688.828
420.435, 33668.980
420.917, 33690.160
421.399, 33690.172
421.881, 33618.648
422.364, 33562.051
422.846, 33556.070
423.328, 33592.539
423.810, 33608.000
424.292, 33586.898
424.774, 33549.922
425.256, 33505.922
425.738, 33428.238
426.220, 33387.129
426.703, 33394.871
427.185, 33434.430
427.667, 33470.352
428.149, 33491.910
428.631, 33528.512
429.113, 33591.930
429.595, 33683.551
430.077, 33781.480
430.560, 33891.180
431.042, 33995.270
431.524, 34068.199
432.006, 34107.270
432.488, 34149.398
432.970, 34196.930
433.452, 34256.602
433.934, 34359.711
434.417, 34506.129
434.899, 34651.691
435.381, 34763.359
435.863, 34849.531
436.345, 34934.871
436.827, 35024.129
437.309, 35108.941
437.791, 35187.711
438.273, 35254.711
438.755, 35293.121
439.238, 35282.871
439.720, 35246.781
440.202, 35210.891
440.684, 35175.789
441.166, 35114.359
441.648, 35005.730
442.130, 34863.980
442.612, 34703.070
443.095, 34480.578
443.577, 34289.539
444.059, 34168.020
444.541, 34105.020
445.023, 34059.672
445.505, 34052.719
445.987, 34037.691
446.469, 33988.398
446.952, 33873.551
447.434, 33790.961
447.916, 33758.109
448.398, 33752.840
448.880, 33745.621
449.362, 33736.422
449.844, 33724.781
450.326, 33704.820
450.808, 33677.730
451.290, 33681.000
451.773, 33724.820
452.255, 33776.000
452.737, 33808.680
453.219, 33820.980
453.701, 33828.141
454.183, 33830.898
454.665, 33830.250
455.147, 33826.078
455.630, 33818.641
456.112, 33815.641
456.594, 33832.180
457.076, 33856.129
457.558, 33842.191
458.040, 33785.051
458.522, 33740.559
459.004, 33777.340
459.487, 33863.270
459.969, 33938.230
460.451, 33989.160
460.933, 34013.449
461.415, 33984.852
461.897, 33919.102
462.379, 33880.691
462.861, 33899.180
463.343, 33959.871
463.826, 34069.941
464.308, 34274.949
464.790, 34408.449
465.272, 34356.520
465.754, 34217.031
466.236, 34133.559
466.718, 34188.801
467.200, 34237.891
467.682, 34238.512
468.165, 34189.672
468.647, 34163.621
469.129, 34164.328
469.611, 34183.199
470.093, 34217.031
470.575, 34272.449
471.057, 34321.301
471.539, 34360.371
472.022, 34391.180
472.504, 34420.320
472.986, 34449.820
473.468, 34463.199
473.950, 34442.871
474.432, 34396.691
474.914, 34378.871
475.396, 34392.898
475.878, 34412.891
476.361, 34417.020
476.843, 34407.430
477.325, 34387.660
477.807, 34353.539
478.289, 34319.699
478.771, 34301.012
479.253, 34297.488
479.735, 34307.320
480.217, 34349.090
480.700, 34392.031
481.182, 34396.949
481.664, 34347.969
482.146, 34327.102
482.628, 34397.570
483.110, 34506.211
483.592, 34591.980
484.074, 34615.199
484.556, 34636.129
485.039, 34670.191
485.521, 34714.602
486.003, 34749.738
486.485, 34767.309
486.967, 34782.078
487.449, 34803.059
487.931, 34843.109
488.414, 34856.551
488.896, 34830.891
489.378, 34793.289
489.860, 34790.660
490.342, 34836.090
490.824, 34859.270
491.306, 34836.820
491.788, 34778.340
492.270, 34707.770
492.753, 34622.191
493.235, 34573.020
493.717, 34628.680
494.199, 34755.391
494.681, 34849.949
495.163, 34894.020
495.645, 34911.781
496.127, 34917.820
496.609, 34917.090
497.092, 34922.469
497.574, 34953.891
498.056, 34983.320
498.538, 34984.648
499.020, 34959.480
499.502, 34935.500
499.984, 34921.602
500.466, 34917.059
500.948, 34920.859
501.431, 34927.391
501.913, 34951.801
502.395, 35008.828
502.877, 35084.590
503.359, 35150.160
503.841, 35194.820
504.323, 35241.070
504.805, 35297.641
505.288, 35364.172
505.770, 35408.000
506.252, 35417.539
506.734, 35423.359
507.216, 35450.539
507.698, 35500.641
508.180, 35555.781
508.662, 35617.129
509.145, 35677.879
509.627, 35726.711
510.109, 35764.172
510.591, 35791.820
511.073, 35803.609
511.555, 35808.762
512.037, 35829.371
512.519, 35865.660
513.001, 35896.930
513.484, 35876.180
513.966, 35853.020
514.448, 35897.781
514.930, 36064.641
515.412, 36229.250
515.894, 36328.262
516.376, 36375.500
516.858, 36398.289
517.341, 36372.230
517.823, 36353.051
518.305, 36361.852
518.787, 36401.352
519.269, 36448.988
519.751, 36508.680
520.233, 36572.141
520.715, 36634.191
521.197, 36701.441
521.680, 36752.961
522.162, 36783.422
522.644, 36801.480
523.126, 36833.172
523.608, 36886.922
524.090, 36904.172
524.572, 36839.551
525.054, 36720.172
525.536, 36660.879
526.019, 36662.801
526.501, 36698.000
526.983, 36761.809
527.465, 36838.738
527.947, 36891.430
528.429, 36905.160
528.911, 36912.051
529.393, 36943.809
529.875, 36989.621
530.358, 37028.270
530.840, 37034.801
531.322, 37044.609
531.804, 37078.199
532.286, 37136.039
532.768, 37198.730
533.250, 37282.559
533.732, 37356.410
534.214, 37400.809
534.697, 37388.711
535.179, 37393.301
535.661, 37426.410
536.143, 37471.070
536.625, 37498.301
537.107, 37501.359
537.589, 37509.641
538.071, 37539.809
538.554, 37581.602
539.036, 37566.898
539.518, 37488.281
540.000, 37411.629
540.482, 37386.781
540.964, 37403.410
541.446, 37428.012
541.928, 37457.539
542.411, 37491.109
542.893, 37529.719
543.375, 37571.051
543.857, 37610.430
544.339, 37650.148
544.821, 37681.949
545.303, 37697.289
545.785, 37698.828
546.268, 37698.449
546.750, 37696.609
547.232, 37697.891
547.714, 37707.570
548.196, 37732.211
548.678, 37745.730
549.160, 37748.488
549.642, 37738.570
550.124, 37711.000
550.606, 37648.781
551.089, 37608.520
551.571, 37612.711
552.053, 37635.691
552.535, 37584.828
553.017, 37442.328
553.499, 37338.621
553.981, 37363.898
554.463, 37485.551
554.945, 37536.469
555.428, 37513.320
555.910, 37473.738
556.392, 37466.051
556.874, 37479.539
557.356, 37497.609
557.838, 37523.320
558.320, 37537.980
558.802, 37504.129
559.284, 37451.230
559.767, 37434.719
560.249, 37507.461
560.731, 37592.141
561.213, 37656.570
561.695, 37699.488
562.177, 37746.969
562.659, 37817.090
563.141, 37879.762
563.624, 37915.691
564.106, 37902.590
564.588, 37921.461
565.070, 37989.070
565.552, 38067.480
566.034, 38100.719
566.516, 38082.730
566.998, 38064.680
567.481, 38051.969
567.963, 38053.359
568.445, 38096.430
568.927, 38178.352
569.409, 38270.930
569.891, 38369.621
570.373, 38462.852
570.855, 38532.520
571.338, 38578.340
571.820, 38600.781
572.302, 38578.969
572.784, 38544.660
573.266, 38532.031
573.748, 38572.379
574.230, 38602.078
574.712, 38589.672
575.194, 38554.559
575.677, 38538.289
576.159, 38582.340
576.641, 38601.039
577.123, 38566.281
577.605, 38482.051
578.087, 38420.750
578.569, 38385.230
579.051, 38366.852
579.533, 38362.270
580.016, 38371.762
580.498, 38390.461
580.980, 38421.570
581.462, 38448.660
581.944, 38443.301
582.426, 38415.219
582.908, 38396.391
583.390, 38393.891
583.872, 38407.922
584.355, 38445.539
584.837, 38500.230
585.319, 38554.359
585.801, 38610.000
586.283, 38652.422
586.765, 38669.641
587.247, 38658.820
587.729, 38644.281
588.211, 38610.238
588.694, 38588.719
589.176, 38603.059
589.658, 38686.410
590.140, 38742.910
590.622, 38769.391
591.104, 38769.961
591.586, 38743.109
592.068, 38683.359
592.551, 38638.199
593.033, 38620.730
593.515, 38627.820
593.997, 38664.980
594.479, 38728.738
594.961, 38773.160
595.443, 38749.129
595.925, 38696.840
596.407, 38672.648
596.890, 38681.988
597.372, 38701.730
597.854, 38725.219
598.336, 38748.020
598.818, 38764.879
599.300, 38761.340
599.782, 38770.988
600.265, 38821.551
600.747, 38886.641
601.229, 38911.230
601.711, 38850.711
602.193, 38817.270
602.675, 38842.961
603.157, 38918.672
603.639, 38987.328
604.121, 39049.512
604.604, 39099.398
605.086, 39135.762
605.568, 39156.980
606.050, 39136.211
606.532, 39063.691
607.014, 39025.328
607.496, 38929.574
607.978, 39114.547
608.460, 39231.383
608.943, 39283.730
609.425, 39078.461
609.907, 39205.852
610.389, 39199.934
610.871, 39188.543
611.353, 39362.754
611.835, 39194.953
612.317, 39366.223
612.799, 39402.141
613.282, 39500.012
613.764, 39463.734
614.246, 39468.895
614.728, 39608.234
615.210, 39673.277
615.692, 39621.559
616.174, 39723.367
616.656, 39550.879
617.138, 39619.086
617.621, 39791.141
618.103, 39746.172
618.585, 39850.422
619.067, 39897.852
619.549, 39686.988
620.031, 39925.309
