##NAMES=Enstatite
##RRUFFID=R040094
##IDEAL CHEMISTRY=MgSiO_3_
##LOCALITY=unknown
##OWNER=RRUFF
##SOURCE=University of Arizona Mineral Museum
##DESCRIPTION=Dark green massive, associated with anthophyllite
##STATUS=The identification of this mineral has been confirmed by X-ray diffraction and chemical analysis
##URL=rruff.info/R040094
##MEASURED CHEMISTRY=(Mg_0.84_Fe_0.15_)(Si_0.99_Al_0.01_)O_3_; = Enstatite :  [box](Mg_0.83_Fe_0.14_Na_0.01_Ca_0.01_)_7_(Si_0.99_Al_0.01_)_8_O_22_(OH)_2_ = Anthophyllite
109.5765, 545.9696
110.0586, 542.5651
110.5407, 541.7479
111.0228, 543.4453
111.5049, 550.1632
111.9871, 566.8708
112.4692, 587.3391
112.9513, 605.5472
113.4334, 619.9155
113.9155, 632.6649
114.3976, 646.1333
114.8798, 660.0496
115.3619, 675.9268
115.8440, 701.7043
116.3261, 727.1170
116.8082, 740.8427
117.2903, 737.0789
117.7725, 721.4338
118.2546, 706.0482
118.7367, 690.0343
119.2188, 676.2093
119.7009, 662.6548
120.1830, 652.0030
120.6652, 648.0805
121.1473, 653.8705
121.6294, 667.6304
122.1115, 679.9692
122.5936, 678.5055
123.0757, 691.8615
123.5579, 734.0293
124.0400, 795.0812
124.5221, 856.4669
125.0042, 901.5308
125.4863, 931.2462
125.9684, 993.1597
126.4506, 1122.579
126.9327, 1253.612
127.4148, 1373.914
127.8969, 1481.932
128.3790, 1581.566
128.8611, 1674.875
129.3432, 1761.013
129.8254, 1846.059
130.3075, 1947.181
130.7896, 2032.840
131.2717, 2095.896
131.7538, 2132.408
132.2359, 2137.024
132.7181, 2102.630
133.2002, 2021.896
133.6823, 1923.464
134.1644, 1794.571
134.6465, 1661.557
135.1286, 1532.437
135.6108, 1411.622
136.0929, 1305.982
136.5750, 1224.864
137.0571, 1175.172
137.5392, 1138.666
138.0213, 1112.927
138.5035, 1100.489
138.9856, 1107.433
139.4677, 1133.944
139.9498, 1169.008
140.4319, 1196.478
140.9140, 1207.065
141.3962, 1232.447
141.8783, 1278.891
142.3604, 1337.701
142.8425, 1402.309
143.3246, 1470.842
143.8067, 1541.203
144.2889, 1609.981
144.7710, 1674.264
145.2531, 1744.340
145.7352, 1821.892
146.2173, 1880.932
146.6994, 1912.877
147.1816, 1937.175
147.6637, 1952.028
148.1458, 1954.263
148.6279, 1951.504
149.1100, 1925.324
149.5921, 1856.505
150.0743, 1763.590
150.5564, 1678.905
151.0385, 1610.887
151.5206, 1556.421
152.0027, 1510.958
152.4848, 1474.308
152.9670, 1440.985
153.4491, 1409.252
153.9312, 1378.936
154.4133, 1349.144
154.8954, 1318.155
155.3775, 1289.327
155.8597, 1268.543
156.3418, 1256.433
156.8239, 1247.924
157.3060, 1238.326
157.7881, 1229.386
158.2702, 1229.247
158.7524, 1244.268
159.2345, 1266.230
159.7166, 1282.044
160.1987, 1291.671
160.6808, 1296.643
161.1629, 1295.714
161.6451, 1290.010
162.1272, 1286.475
162.6093, 1288.422
163.0914, 1293.505
163.5735, 1300.006
164.0556, 1311.448
164.5378, 1315.492
165.0199, 1302.229
165.5020, 1272.635
165.9841, 1235.185
166.4662, 1186.683
166.9483, 1136.318
167.4305, 1094.636
167.9126, 1063.762
168.3947, 1037.948
168.8768, 1011.581
169.3589, 984.5197
169.8410, 963.4689
170.3232, 958.0466
170.8053, 955.4474
171.2874, 939.6248
171.7695, 903.8137
172.2516, 868.0936
172.7337, 855.0593
173.2159, 866.3987
173.6980, 877.1943
174.1801, 879.9648
174.6622, 877.0607
175.1443, 868.8065
175.6264, 853.2455
176.1086, 838.5809
176.5907, 835.1264
177.0728, 844.3100
177.5549, 853.2707
178.0370, 859.4529
178.5191, 862.2067
179.0013, 859.6517
179.4834, 850.3548
179.9655, 839.5673
180.4476, 832.4800
180.9297, 828.8747
181.4118, 830.2461
181.8940, 843.1968
182.3761, 858.5301
182.8582, 868.5359
183.3403, 870.6653
183.8224, 870.5959
184.3046, 874.4093
184.7867, 882.0085
185.2688, 893.8242
185.7509, 915.1530
186.2330, 938.1586
186.7151, 957.2535
187.1973, 971.0001
187.6794, 981.5399
188.1615, 993.4579
188.6436, 1008.785
189.1257, 1015.190
189.6078, 1002.418
190.0900, 982.8848
190.5721, 964.3600
191.0542, 948.8753
191.5363, 933.9504
192.0184, 916.1452
192.5005, 894.8858
192.9827, 873.8785
193.4648, 852.3053
193.9469, 832.2666
194.4290, 813.9991
194.9111, 789.0721
195.3932, 788.9057
195.8754, 784.5245
196.3575, 776.1586
196.8396, 751.8661
197.3217, 748.1393
197.8038, 736.1707
198.2859, 723.8641
198.7681, 723.0299
199.2502, 701.0536
199.7323, 709.1450
200.2144, 703.5359
200.6965, 698.9376
201.1786, 699.6849
201.6608, 699.9473
202.1429, 695.0892
202.6250, 684.4010
203.1071, 673.0166
203.5892, 668.5688
204.0713, 672.8666
204.5535, 670.1672
205.0356, 648.2877
205.5177, 624.7816
205.9998, 610.1158
206.4819, 605.4551
206.9640, 604.8660
207.4462, 602.1115
207.9283, 596.7280
208.4104, 594.5035
208.8925, 599.6768
209.3746, 605.7056
209.8567, 607.5405
210.3388, 605.2953
210.8210, 604.5309
211.3031, 612.2490
211.7852, 628.8082
212.2673, 640.9431
212.7494, 644.4540
213.2315, 645.2045
213.7137, 644.9936
214.1958, 644.5154
214.6779, 646.2599
215.1600, 652.1076
215.6421, 661.9955
216.1242, 675.2734
216.6064, 694.0655
217.0885, 714.1149
217.5706, 734.1205
218.0527, 753.5770
218.5348, 771.0077
219.0169, 783.1399
219.4991, 791.0488
219.9812, 803.9429
220.4633, 822.0624
220.9454, 846.3384
221.4275, 877.6039
221.9096, 914.8361
222.3918, 954.4507
222.8739, 992.4164
223.3560, 1030.600
223.8381, 1078.568
224.3202, 1140.543
224.8023, 1206.600
225.2845, 1267.236
225.7666, 1327.010
226.2487, 1396.964
226.7308, 1485.022
227.2129, 1586.854
227.6950, 1691.669
228.1772, 1799.123
228.6593, 1909.488
229.1414, 2021.134
229.6235, 2135.422
230.1056, 2255.102
230.5877, 2388.734
231.0699, 2524.343
231.5520, 2639.573
232.0341, 2731.291
232.5162, 2811.392
232.9983, 2894.552
233.4804, 2968.747
233.9626, 3016.368
234.4447, 3035.680
234.9268, 3022.024
235.4089, 2966.057
235.8910, 2865.036
236.3731, 2738.260
236.8553, 2574.664
237.3374, 2395.919
237.8195, 2226.639
238.3016, 2071.436
238.7837, 1927.867
239.2658, 1795.376
239.7480, 1673.448
240.2301, 1560.676
240.7122, 1456.554
241.1943, 1361.666
241.6764, 1275.662
242.1585, 1198.897
242.6407, 1129.026
243.1228, 1064.259
243.6049, 1004.711
244.0870, 951.1680
244.5691, 903.6542
245.0512, 863.2888
245.5334, 831.4710
246.0155, 809.9296
246.4976, 789.3549
246.9797, 763.8042
247.4618, 735.3529
247.9439, 709.6293
248.4261, 688.4279
248.9082, 670.1445
249.3903, 651.9732
249.8724, 633.5950
250.3545, 618.3626
250.8366, 606.8729
251.3188, 599.5608
251.8009, 599.8095
252.2830, 610.3326
252.7651, 619.5922
253.2472, 610.3747
253.7293, 582.7701
254.2115, 562.9899
254.6936, 562.3362
255.1757, 568.5261
255.6578, 567.3942
256.1399, 557.1127
256.6220, 544.7554
257.1042, 536.1906
257.5863, 531.7323
258.0684, 528.3157
258.5505, 526.7540
259.0326, 525.5713
259.5147, 523.4600
259.9969, 520.5179
260.4790, 518.0142
260.9611, 517.0098
261.4432, 517.3760
261.9253, 516.8174
262.4074, 515.1438
262.8896, 512.8835
263.3717, 509.3343
263.8538, 505.2686
264.3359, 502.6974
264.8180, 502.8425
265.3001, 505.2603
265.7823, 507.8663
266.2644, 512.9124
266.7465, 515.5463
267.2286, 512.6383
267.7107, 507.1147
268.1928, 502.9233
268.6750, 501.6749
269.1571, 503.3185
269.6392, 507.7234
270.1213, 517.2328
270.6034, 526.8990
271.0855, 538.0110
271.5677, 548.6042
272.0498, 557.3665
272.5319, 563.7318
273.0140, 567.0381
273.4961, 565.9589
273.9782, 558.2285
274.4604, 550.9490
274.9425, 541.8139
275.4246, 534.7609
275.9067, 532.2822
276.3888, 534.5399
276.8709, 540.3546
277.3531, 549.2167
277.8352, 562.0464
278.3173, 571.9439
278.7994, 577.7125
279.2815, 581.7722
279.7636, 584.2881
280.2458, 585.7541
280.7279, 586.8568
281.2100, 587.7786
281.6921, 588.7580
282.1742, 592.1550
282.6563, 599.7979
283.1385, 607.7901
283.6206, 616.1491
284.1027, 623.9144
284.5848, 629.2795
285.0669, 630.7390
285.5490, 630.6895
286.0312, 634.7081
286.5133, 642.7720
286.9954, 655.2233
287.4775, 675.6721
287.9596, 698.3171
288.4417, 716.9979
288.9239, 729.4412
289.4060, 742.0850
289.8881, 765.9967
290.3702, 803.1259
290.8523, 831.4960
291.3344, 838.7521
291.8166, 840.8354
292.2987, 849.1165
292.7808, 864.4065
293.2629, 883.1096
293.7450, 904.9187
294.2271, 928.5701
294.7093, 948.4262
295.1914, 964.1221
295.6735, 974.8533
296.1556, 981.0092
296.6377, 982.5865
297.1198, 977.8994
297.6020, 962.0160
298.0841, 940.9592
298.5662, 923.6810
299.0483, 910.6006
299.5304, 901.2362
300.0125, 897.5750
300.4947, 897.6268
300.9768, 894.0850
301.4589, 880.5965
301.9410, 867.7891
302.4231, 864.1215
302.9052, 868.5889
303.3874, 875.9449
303.8695, 884.9614
304.3516, 893.9660
304.8337, 897.3480
305.3158, 888.9469
305.7979, 884.6362
306.2801, 893.2788
306.7622, 908.5802
307.2443, 919.1182
307.7264, 920.5759
308.2085, 918.5143
308.6906, 922.1613
309.1728, 932.0803
309.6549, 947.7538
310.1370, 974.2408
310.6191, 1003.373
311.1012, 1027.915
311.5833, 1047.150
312.0655, 1064.916
312.5476, 1084.362
313.0297, 1104.194
313.5118, 1133.951
313.9939, 1183.884
314.4760, 1232.339
314.9582, 1270.177
315.4403, 1298.881
315.9224, 1324.218
316.4045, 1350.621
316.8866, 1376.707
317.3687, 1393.705
317.8509, 1395.381
318.3330, 1395.103
318.8151, 1396.119
319.2972, 1396.280
319.7793, 1392.184
320.2614, 1382.347
320.7436, 1370.405
321.2257, 1361.016
321.7078, 1351.315
322.1899, 1353.783
322.6720, 1376.798
323.1541, 1408.509
323.6363, 1441.645
324.1184, 1475.502
324.6005, 1514.893
325.0826, 1564.854
325.5647, 1625.119
326.0468, 1687.511
326.5290, 1748.038
327.0111, 1816.167
327.4932, 1895.773
327.9753, 1986.683
328.4574, 2089.449
328.9395, 2201.917
329.4217, 2327.309
329.9038, 2471.999
330.3859, 2635.790
330.8680, 2813.779
331.3501, 3005.007
331.8322, 3208.093
332.3144, 3419.404
332.7965, 3634.652
333.2786, 3862.285
333.7607, 4114.530
334.2428, 4383.951
334.7249, 4643.437
335.2070, 4882.660
335.6891, 5106.976
336.1713, 5328.702
336.6534, 5561.751
337.1355, 5755.820
337.6176, 5908.597
338.0997, 6014.550
338.5818, 6067.992
339.0640, 6067.694
339.5461, 6016.505
340.0282, 5915.466
340.5103, 5760.433
340.9924, 5571.931
341.4745, 5345.435
341.9567, 5096.199
342.4388, 4817.027
342.9209, 4521.046
343.4030, 4229.691
343.8851, 3955.784
344.3672, 3699.534
344.8494, 3461.614
345.3315, 3247.547
345.8136, 3048.663
346.2957, 2861.721
346.7778, 2687.728
347.2599, 2525.968
347.7421, 2375.738
348.2242, 2241.054
348.7063, 2129.560
349.1884, 2044.144
349.6705, 1964.997
350.1526, 1892.891
350.6348, 1824.899
351.1169, 1756.919
351.5990, 1690.534
352.0811, 1634.035
352.5632, 1596.947
353.0453, 1574.340
353.5275, 1550.145
354.0096, 1524.401
354.4917, 1496.529
354.9738, 1464.295
355.4559, 1430.049
355.9380, 1397.666
356.4202, 1366.672
356.9023, 1339.200
357.3844, 1321.249
357.8665, 1310.498
358.3486, 1291.264
358.8307, 1254.484
359.3129, 1209.951
359.7950, 1176.234
360.2771, 1155.628
360.7592, 1135.393
361.2413, 1108.024
361.7234, 1081.313
362.2056, 1065.569
362.6877, 1062.288
363.1698, 1064.946
363.6519, 1067.751
364.1340, 1071.035
364.6161, 1071.085
365.0983, 1062.249
365.5804, 1056.304
366.0625, 1059.546
366.5446, 1069.589
367.0267, 1081.022
367.5089, 1090.902
367.9910, 1099.905
368.4731, 1110.108
368.9552, 1120.302
369.4373, 1133.929
369.9194, 1151.423
370.4016, 1171.890
370.8837, 1194.878
371.3658, 1220.154
371.8479, 1247.369
372.3300, 1277.408
372.8121, 1310.532
373.2943, 1340.075
373.7764, 1365.365
374.2585, 1386.986
374.7406, 1406.647
375.2227, 1423.329
375.7048, 1434.688
376.1870, 1439.855
376.6691, 1438.827
377.1512, 1428.815
377.6333, 1408.785
378.1154, 1392.385
378.5975, 1388.583
379.0797, 1390.726
379.5618, 1386.453
380.0439, 1374.418
380.5260, 1359.051
381.0081, 1336.861
381.4902, 1313.711
381.9724, 1300.387
382.4545, 1299.433
382.9366, 1308.108
383.4187, 1323.917
383.9008, 1348.205
384.3829, 1375.577
384.8651, 1404.645
385.3472, 1437.875
385.8293, 1476.635
386.3114, 1520.825
386.7935, 1569.598
387.2756, 1622.579
387.7578, 1679.488
388.2399, 1739.137
388.7220, 1797.973
389.2041, 1864.801
389.6862, 1949.680
390.1683, 2036.620
390.6505, 2110.900
391.1326, 2169.579
391.6147, 2222.984
392.0968, 2282.071
392.5789, 2347.302
393.0610, 2415.368
393.5432, 2498.439
394.0253, 2568.379
394.5074, 2605.314
394.9895, 2619.342
395.4716, 2633.909
395.9537, 2660.911
396.4359, 2692.249
396.9180, 2719.180
397.4001, 2741.991
397.8822, 2750.334
398.3643, 2735.685
398.8464, 2706.799
399.3286, 2681.816
399.8107, 2665.731
400.2928, 2636.538
400.7749, 2575.315
401.2570, 2499.621
401.7391, 2435.743
402.2213, 2387.773
402.7034, 2344.038
403.1855, 2293.134
403.6676, 2233.987
404.1497, 2181.200
404.6318, 2139.786
405.1140, 2098.224
405.5961, 2049.604
406.0782, 1998.247
406.5603, 1952.527
407.0424, 1916.546
407.5245, 1885.997
408.0067, 1851.753
408.4888, 1810.563
408.9709, 1772.984
409.4530, 1741.628
409.9351, 1712.104
410.4172, 1682.978
410.8994, 1653.626
411.3815, 1623.193
411.8636, 1589.844
412.3457, 1554.923
412.8278, 1523.666
413.3099, 1497.533
413.7921, 1471.467
414.2742, 1438.145
414.7563, 1404.809
415.2384, 1382.727
415.7205, 1379.340
416.2026, 1375.771
416.6848, 1358.242
417.1669, 1329.786
417.6490, 1298.538
418.1311, 1265.792
418.6132, 1232.950
419.0953, 1202.305
419.5775, 1174.792
420.0596, 1142.708
420.5417, 1105.554
421.0238, 1063.808
421.5059, 1013.165
421.9880, 957.7310
422.4702, 908.3284
422.9523, 871.8607
423.4344, 844.8152
423.9165, 815.9941
424.3986, 782.0338
424.8807, 752.0319
425.3629, 727.5434
425.8450, 706.2031
426.3271, 686.0313
426.8092, 666.9174
427.2913, 650.2277
427.7734, 637.6376
428.2556, 628.8729
428.7377, 620.3030
429.2198, 610.5126
429.7019, 603.6777
430.1840, 604.1790
430.6661, 608.2686
431.1483, 610.3140
431.6304, 607.9540
432.1125, 605.3442
432.5946, 606.2426
433.0767, 609.8326
433.5588, 612.3794
434.0410, 611.9943
434.5231, 613.3190
435.0052, 624.3793
435.4873, 647.9914
435.9694, 661.5171
436.4515, 655.1312
436.9337, 645.7543
437.4158, 643.9403
437.8979, 648.5488
438.3800, 655.1542
438.8621, 661.8762
439.3442, 666.5495
439.8264, 662.0095
440.3085, 641.9301
440.7906, 622.9982
441.2727, 606.8736
441.7548, 591.7556
442.2369, 576.1546
442.7191, 560.0720
443.2012, 544.6552
443.6833, 530.0862
444.1654, 516.8083
444.6475, 508.4748
445.1296, 507.5643
445.6118, 505.2369
446.0939, 494.2216
446.5760, 480.0000
447.0581, 469.9534
447.5402, 465.6848
448.0223, 464.3281
448.5045, 465.0983
448.9866, 467.2955
449.4687, 469.6548
449.9508, 471.9543
450.4329, 473.5499
450.9150, 473.4868
451.3972, 471.4824
451.8793, 470.7182
452.3614, 470.3547
452.8435, 471.9987
453.3256, 478.7736
453.8077, 487.5278
454.2899, 492.5406
454.7720, 491.2429
455.2541, 486.8204
455.7362, 484.8055
456.2183, 484.8741
456.7004, 488.3491
457.1826, 500.1048
457.6647, 511.2346
458.1468, 517.7045
458.6289, 519.8559
459.1110, 519.5715
459.5931, 516.9184
460.0753, 513.1884
460.5574, 510.7234
461.0395, 509.5643
461.5216, 508.8454
462.0037, 509.0292
462.4858, 508.7195
462.9680, 504.8929
463.4501, 496.2921
463.9322, 490.4571
464.4143, 493.7015
464.8964, 498.1576
465.3785, 493.8641
465.8607, 481.4141
466.3428, 470.6153
466.8249, 469.2615
467.3070, 475.1304
467.7891, 474.0362
468.2712, 458.7307
468.7534, 445.3712
469.2355, 434.5750
469.7176, 426.7841
470.1997, 422.6063
470.6818, 422.0151
471.1639, 423.8883
471.6461, 429.7256
472.1282, 438.4537
472.6103, 437.9199
473.0924, 423.7564
473.5745, 409.6514
474.0566, 403.1268
474.5388, 401.1425
475.0209, 400.1867
475.5030, 400.3095
475.9851, 399.9527
476.4672, 397.0895
476.9493, 393.2053
477.4315, 392.2695
477.9136, 395.2493
478.3957, 397.6194
478.8778, 394.1290
479.3599, 384.1023
479.8420, 379.0048
480.3242, 383.4904
480.8063, 386.8647
481.2884, 384.1394
481.7705, 378.7031
482.2526, 375.3169
482.7347, 375.6832
483.2169, 378.2148
483.6990, 381.2006
484.1811, 384.8990
484.6632, 386.9445
485.1453, 385.5571
485.6274, 384.6718
486.1096, 387.7302
486.5917, 392.6238
487.0738, 394.5584
487.5559, 390.3063
488.0380, 385.1002
488.5201, 384.4720
489.0023, 387.3759
489.4844, 389.1428
489.9665, 388.0135
490.4486, 387.1039
490.9307, 391.1314
491.4128, 402.0179
491.8950, 406.9577
492.3771, 401.0218
492.8592, 394.1188
493.3413, 389.9633
493.8234, 388.6513
494.3055, 390.2596
494.7877, 394.8949
495.2698, 400.3128
495.7519, 402.8235
496.2340, 402.6896
496.7161, 398.3089
497.1982, 381.4030
497.6804, 368.5673
498.1625, 370.8838
498.6446, 384.2910
499.1267, 397.4097
499.6088, 406.8837
500.0909, 412.3879
500.5730, 410.9630
501.0551, 404.1219
501.5373, 401.3735
502.0194, 406.5742
502.5015, 414.9496
502.9836, 419.4388
503.4657, 418.1470
503.9478, 421.8991
504.4300, 436.3044
504.9121, 450.7165
505.3942, 457.0476
505.8763, 459.0471
506.3584, 465.5404
506.8405, 480.8292
507.3227, 501.0246
507.8048, 518.1138
508.2869, 530.5948
508.7690, 545.9093
509.2511, 567.7307
509.7332, 589.5637
510.2154, 606.4046
510.6975, 620.3173
511.1796, 637.0689
511.6617, 657.0013
512.1439, 683.0856
512.6260, 723.9443
513.1081, 775.6780
513.5902, 818.2155
514.0723, 844.0689
514.5544, 862.2004
515.0366, 882.9497
515.5187, 905.7352
516.0008, 935.7592
516.4829, 987.2392
516.9650, 1031.413
517.4471, 1048.661
517.9293, 1049.304
518.4114, 1052.634
518.8935, 1067.095
519.3756, 1086.805
519.8577, 1103.640
520.3398, 1118.118
520.8220, 1125.586
521.3041, 1124.417
521.7862, 1117.243
522.2683, 1103.758
522.7504, 1086.113
523.2325, 1069.826
523.7147, 1059.445
524.1968, 1046.885
524.6789, 1023.979
525.1610, 993.5649
525.6431, 963.3734
526.1252, 935.3746
526.6074, 907.9508
527.0895, 878.6283
527.5716, 846.0198
528.0537, 822.0427
528.5358, 812.5300
529.0179, 803.8512
529.5001, 789.6995
529.9822, 774.8493
530.4643, 765.0601
530.9464, 762.3077
531.4285, 765.8489
531.9106, 777.3987
532.3928, 796.2939
532.8749, 810.0467
533.3570, 815.4099
533.8391, 821.6257
534.3212, 832.8936
534.8033, 849.3056
535.2855, 872.6621
535.7676, 911.6693
536.2497, 941.5264
536.7318, 944.3757
537.2139, 933.8912
537.6960, 928.1240
538.1782, 930.1202
538.6603, 934.8952
539.1424, 939.0347
539.6245, 941.9943
540.1066, 937.7640
540.5887, 917.4369
541.0709, 903.0980
541.5530, 901.2031
542.0351, 904.1913
542.5172, 905.9678
542.9993, 905.7054
543.4814, 905.9155
543.9636, 909.8291
544.4457, 915.1221
544.9278, 915.6089
545.4099, 910.9987
545.8920, 908.7813
546.3741, 914.8987
546.8563, 922.8124
547.3384, 918.3272
547.8205, 898.7318
548.3026, 876.3471
548.7847, 850.3632
549.2668, 823.9512
549.7490, 800.3573
550.2311, 778.3242
550.7132, 754.2743
551.1953, 726.3788
551.6774, 695.0543
552.1595, 659.7134
552.6417, 618.3036
553.1238, 583.9905
553.6059, 559.9832
554.0880, 542.6255
554.5701, 531.9481
555.0522, 525.6174
555.5344, 515.5475
556.0165, 496.0616
556.4986, 475.7252
556.9807, 459.9744
557.4628, 448.4162
557.9449, 441.5400
558.4271, 439.4618
558.9092, 437.2557
559.3913, 428.9422
559.8734, 413.8814
560.3555, 401.1898
560.8376, 390.3067
561.3198, 382.6208
561.8019, 381.1469
562.2840, 381.6817
562.7661, 378.8416
563.2482, 371.6089
563.7303, 365.3711
564.2125, 367.5724
564.6946, 374.2554
565.1767, 372.3889
565.6588, 360.6291
566.1409, 348.5632
566.6230, 340.4336
567.1052, 336.0314
567.5873, 335.4684
568.0694, 341.0251
568.5515, 344.5880
569.0336, 343.8252
569.5157, 341.7141
569.9979, 340.0612
570.4800, 339.0388
570.9621, 337.8433
571.4442, 335.6840
571.9263, 334.5522
572.4084, 340.9704
572.8906, 357.1959
573.3727, 365.1378
573.8548, 358.6960
574.3369, 347.2421
574.8190, 335.0023
575.3011, 323.3961
575.7833, 317.6553
576.2654, 322.8494
576.7475, 330.1315
577.2296, 335.4629
577.7117, 338.9185
578.1938, 340.2876
578.6760, 339.6349
579.1581, 337.9336
579.6402, 335.9373
580.1223, 333.6940
580.6044, 333.3273
581.0865, 338.1857
581.5686, 339.6473
582.0507, 332.9132
582.5328, 324.1592
583.0150, 318.9356
583.4971, 317.9323
583.9792, 318.4504
584.4613, 320.7643
584.9434, 322.6406
585.4255, 319.5103
585.9077, 312.0232
586.3898, 306.1749
586.8719, 304.8806
587.3540, 305.9037
587.8361, 304.9563
588.3182, 300.0332
588.8004, 298.9740
589.2825, 305.3460
589.7646, 311.4430
590.2467, 314.8118
590.7288, 315.3706
591.2109, 312.2613
591.6931, 304.7727
592.1752, 298.3704
592.6573, 301.2635
593.1394, 311.0533
593.6215, 316.3773
594.1036, 315.7525
594.5858, 312.3733
595.0679, 307.1528
595.5500, 301.0716
596.0321, 298.0534
596.5142, 301.3806
596.9963, 302.0340
597.4785, 296.2628
597.9606, 289.2231
598.4427, 283.5881
598.9248, 280.4302
599.4069, 281.9688
599.8890, 290.7397
600.3712, 301.5826
600.8533, 301.9560
601.3354, 290.8764
601.8175, 284.4833
602.2996, 288.0057
602.7817, 293.2639
603.2639, 292.3124
