##NAMES=Enstatite
##RRUFFID=R060744
##IDEAL CHEMISTRY=MgSiO_3_
##LOCALITY=Orissa, India
##OWNER=RRUFF
##SOURCE=Herb Obodda
##DESCRIPTION=Brown transparent fragment
##STATUS=The identification of this mineral has been confirmed by X-ray diffraction and chemical analysis
##URL=rruff.info/R060744
##MEASURED CHEMISTRY=(Mg_0.85_Fe^2+^_0.13_Fe^3+^_0.01_Mn_0.01_)_Σ=1_(Si_0.99_Al_0.01_)_Σ=1_O_3_; trace amounts of Ca; Fe^2+^ and Fe^3+^ splitted by charge balance
191.9170, 11208.86
192.3990, 11136.47
192.8810, 11080.13
193.3630, 11074.63
193.8450, 11108.24
194.3270, 11138.57
194.8090, 11167.02
195.2920, 11189.87
195.7740, 11202.24
196.2560, 11205.04
196.7380, 11206.80
197.2200, 11212.12
197.7020, 11219.05
198.1840, 11222.65
198.6660, 11219.81
199.1480, 11217.84
199.6310, 11223.17
200.1130, 11234.86
200.5950, 11244.76
201.0770, 11245.34
201.5590, 11244.66
202.0410, 11259.77
202.5230, 11301.79
203.0050, 11339.60
203.4880, 11348.48
203.9700, 11332.57
204.4520, 11317.95
204.9340, 11315.15
205.4160, 11319.47
205.8980, 11321.83
206.3800, 11322.21
206.8620, 11320.55
207.3440, 11314.76
207.8270, 11306.04
208.3090, 11301.08
208.7910, 11305.02
209.2730, 11310.55
209.7550, 11301.63
210.2370, 11269.83
210.7190, 11254.26
211.2010, 11294.59
211.6840, 11372.25
212.1660, 11419.81
212.6480, 11405.56
213.1300, 11368.27
213.6120, 11361.92
214.0940, 11388.49
214.5760, 11423.49
215.0580, 11464.34
215.5400, 11505.60
216.0230, 11529.66
216.5050, 11526.11
216.9870, 11515.79
217.4690, 11522.85
217.9510, 11546.13
218.4330, 11582.10
218.9150, 11637.73
219.3970, 11704.32
219.8800, 11764.69
220.3620, 11816.42
220.8440, 11860.12
221.3260, 11890.36
221.8080, 11908.60
222.2900, 11936.88
222.7720, 11986.82
223.2540, 12049.74
223.7360, 12110.99
224.2190, 12167.01
224.7010, 12226.25
225.1830, 12295.03
225.6650, 12373.21
226.1470, 12463.77
226.6290, 12584.52
227.1110, 12710.64
227.5930, 12800.58
228.0760, 12846.13
228.5580, 12902.53
229.0400, 13030.23
229.5220, 13215.51
230.0040, 13375.94
230.4860, 13473.47
230.9680, 13558.25
231.4500, 13684.72
231.9320, 13855.05
232.4150, 14026.69
232.8970, 14175.20
233.3790, 14298.43
233.8610, 14399.92
234.3430, 14499.05
234.8250, 14561.36
235.3070, 14561.62
235.7890, 14501.71
236.2710, 14392.09
236.7540, 14229.80
237.2360, 14022.06
237.7180, 13813.21
238.2000, 13595.40
238.6820, 13383.90
239.1640, 13183.74
239.6460, 12995.88
240.1280, 12819.74
240.6110, 12650.85
241.0930, 12499.02
241.5750, 12393.70
242.0570, 12355.81
242.5390, 12323.63
243.0210, 12273.88
243.5030, 12214.38
243.9850, 12160.73
244.4670, 12118.60
244.9500, 12085.58
245.4320, 12056.77
245.9140, 12029.38
246.3960, 12011.09
246.8780, 12013.13
247.3600, 12022.19
247.8420, 12019.60
248.3240, 11999.83
248.8070, 11969.36
249.2890, 11935.83
249.7710, 11893.08
250.2530, 11864.64
250.7350, 11858.53
251.2170, 11863.72
251.6990, 11869.21
252.1810, 11873.08
252.6630, 11881.21
253.1460, 11901.51
253.6280, 11938.56
254.1100, 11967.49
254.5920, 11994.24
255.0740, 12008.81
255.5560, 11997.41
256.0380, 11963.55
256.5200, 11927.56
257.0030, 11906.60
257.4850, 11901.40
257.9670, 11902.44
258.4490, 11914.88
258.9310, 11927.43
259.4130, 11931.32
259.8950, 11931.03
260.3770, 11939.74
260.8590, 11968.07
261.3420, 12012.55
261.8240, 12038.79
262.3060, 12034.45
262.7880, 12027.12
263.2700, 12022.81
263.7520, 12019.05
264.2340, 12008.67
264.7160, 11987.49
265.1980, 11963.36
265.6810, 11961.10
266.1630, 12006.54
266.6450, 12041.55
267.1270, 12059.98
267.6090, 12068.07
268.0910, 12068.80
268.5730, 12063.97
269.0560, 12059.50
269.5380, 12068.36
270.0200, 12107.82
270.5020, 12124.38
270.9840, 12098.83
271.4660, 12067.77
271.9480, 12061.06
272.4300, 12079.42
272.9120, 12097.22
273.3950, 12081.65
273.8770, 12022.62
274.3590, 11977.35
274.8410, 11947.53
275.3230, 11930.36
275.8050, 11931.96
276.2870, 11946.95
276.7690, 11960.79
277.2510, 11957.13
277.7340, 11938.86
278.2160, 11950.02
278.6980, 12022.81
279.1800, 12084.13
279.6620, 12104.70
280.1440, 12098.22
280.6260, 12085.97
281.1080, 12074.93
281.5910, 12069.99
282.0730, 12089.61
282.5550, 12151.25
283.0370, 12195.32
283.5190, 12181.18
284.0010, 12149.17
284.4830, 12142.25
284.9650, 12177.11
285.4470, 12225.05
285.9300, 12251.89
286.4120, 12256.55
286.8940, 12249.61
287.3760, 12223.21
287.8580, 12193.78
288.3400, 12173.37
288.8220, 12163.11
289.3040, 12163.90
289.7860, 12180.97
290.2690, 12211.52
290.7510, 12239.03
291.2330, 12257.25
291.7150, 12277.80
292.1970, 12318.92
292.6790, 12376.89
293.1610, 12419.90
293.6430, 12427.16
294.1250, 12413.96
294.6080, 12403.49
295.0900, 12397.21
295.5720, 12396.74
296.0540, 12400.89
296.5360, 12411.75
297.0180, 12438.46
297.5000, 12509.30
297.9830, 12575.81
298.4650, 12590.25
298.9470, 12558.13
299.4290, 12523.36
299.9110, 12508.92
300.3930, 12510.97
300.8750, 12514.22
301.3570, 12524.79
301.8390, 12528.50
302.3220, 12509.94
302.8040, 12482.08
303.2860, 12472.29
303.7680, 12492.45
304.2500, 12526.17
304.7320, 12541.34
305.2140, 12525.32
305.6960, 12516.14
306.1780, 12524.37
306.6610, 12535.96
307.1430, 12533.50
307.6250, 12515.78
308.1070, 12501.54
308.5890, 12514.34
309.0710, 12564.98
309.5530, 12591.70
310.0350, 12581.95
310.5170, 12564.56
311.0000, 12547.00
311.4820, 12533.04
311.9640, 12526.87
312.4460, 12531.37
312.9280, 12546.51
313.4100, 12572.34
313.8920, 12630.88
314.3740, 12674.89
314.8570, 12691.39
315.3390, 12690.95
315.8210, 12681.76
316.3030, 12666.71
316.7850, 12657.33
317.2670, 12682.45
317.7490, 12764.31
318.2310, 12825.77
318.7140, 12835.09
319.1960, 12836.98
319.6780, 12862.81
320.1600, 12916.69
320.6420, 12978.54
321.1240, 13027.05
321.6060, 13061.65
322.0880, 13106.03
322.5700, 13167.48
323.0520, 13231.74
323.5350, 13277.55
324.0170, 13316.61
324.4990, 13385.25
324.9810, 13521.18
325.4630, 13694.51
325.9450, 13841.95
326.4270, 13960.41
326.9090, 14062.00
327.3920, 14137.51
327.8740, 14204.39
328.3560, 14290.00
328.8380, 14397.35
329.3200, 14526.28
329.8020, 14680.64
330.2840, 14858.67
330.7660, 15046.92
331.2490, 15240.24
331.7310, 15441.26
332.2130, 15653.67
332.6950, 15880.83
333.1770, 16109.00
333.6590, 16336.32
334.1410, 16562.23
334.6230, 16791.71
335.1050, 17024.81
335.5880, 17249.43
336.0700, 17452.85
336.5520, 17631.61
337.0340, 17800.34
337.5160, 18001.89
337.9980, 18156.74
338.4800, 18216.92
338.9620, 18189.46
339.4440, 18100.01
339.9270, 17960.05
340.4090, 17777.81
340.8910, 17597.33
341.3730, 17454.48
341.8550, 17269.55
342.3370, 17005.64
342.8190, 16706.80
343.3020, 16418.38
343.7840, 16157.85
344.2660, 15908.10
344.7480, 15638.98
345.2300, 15326.81
345.7120, 15057.17
346.1940, 14842.06
346.6760, 14655.74
347.1580, 14485.73
347.6410, 14331.50
348.1230, 14201.53
348.6050, 14110.99
349.0870, 14053.18
349.5690, 13976.13
350.0510, 13864.90
350.5330, 13759.69
351.0150, 13680.93
351.4970, 13616.67
351.9800, 13548.11
352.4620, 13464.56
352.9440, 13382.55
353.4260, 13322.98
353.9080, 13286.14
354.3900, 13264.17
354.8720, 13268.34
355.3540, 13274.47
355.8360, 13251.87
356.3190, 13197.50
356.8010, 13136.73
357.2830, 13073.67
357.7650, 13014.33
358.2470, 12975.22
358.7290, 12961.25
359.2110, 12948.92
359.6930, 12915.02
360.1760, 12858.91
360.6580, 12808.12
361.1400, 12758.27
361.6220, 12718.33
362.1040, 12701.07
362.5860, 12699.84
363.0680, 12693.22
363.5500, 12668.46
364.0330, 12632.26
364.5150, 12606.81
364.9970, 12590.90
365.4790, 12588.07
365.9610, 12611.54
366.4430, 12641.12
366.9250, 12654.42
367.4070, 12647.80
367.8890, 12638.61
368.3710, 12648.74
368.8540, 12681.82
369.3360, 12716.48
369.8180, 12767.59
370.3000, 12805.99
370.7820, 12807.94
371.2640, 12788.81
371.7460, 12781.82
372.2280, 12808.22
372.7110, 12858.50
373.1930, 12907.09
373.6750, 12955.71
374.1570, 12997.79
374.6390, 13027.68
375.1210, 13051.87
375.6030, 13071.39
376.0850, 13084.97
376.5680, 13108.97
377.0500, 13175.57
377.5320, 13269.79
378.0140, 13316.26
378.4960, 13287.02
378.9780, 13237.55
379.4600, 13224.86
379.9420, 13241.04
380.4240, 13246.36
380.9070, 13225.63
381.3890, 13194.69
381.8710, 13159.82
382.3530, 13124.75
382.8350, 13084.14
383.3170, 13078.46
383.7990, 13064.30
384.2810, 13042.12
384.7630, 12987.89
385.2460, 12975.04
385.7280, 12945.61
386.2100, 12915.50
386.6920, 12899.34
387.1740, 12908.28
387.6560, 12933.44
388.1380, 12947.33
388.6200, 12950.21
389.1030, 12939.47
389.5850, 12880.68
390.0670, 12843.29
390.5490, 12865.68
391.0310, 12929.31
391.5130, 12996.08
391.9950, 13046.65
392.4770, 13081.05
392.9600, 13096.36
393.4420, 13082.81
393.9240, 13075.91
394.4060, 13096.77
394.8880, 13120.21
395.3700, 13125.51
395.8520, 13109.72
396.3340, 13088.17
396.8160, 13068.55
397.2980, 13052.18
397.7810, 13047.27
398.2630, 13059.34
398.7450, 13069.63
399.2270, 13062.46
399.7090, 13041.01
400.1910, 13014.56
400.6730, 12976.17
401.1550, 12940.40
401.6380, 12927.98
402.1200, 12928.84
402.6020, 12901.96
403.0840, 12822.63
403.5660, 12726.85
404.0480, 12691.68
404.5300, 12765.33
405.0120, 12806.75
405.4950, 12782.34
405.9770, 12743.17
406.4590, 12730.98
406.9410, 12747.11
407.4230, 12765.93
407.9050, 12763.76
408.3870, 12742.40
408.8690, 12738.70
409.3510, 12770.67
409.8340, 12799.06
410.3160, 12816.13
410.7980, 12825.25
411.2800, 12832.13
411.7620, 12838.83
412.2440, 12838.57
412.7260, 12816.46
413.2080, 12770.69
413.6900, 12740.08
414.1730, 12742.74
414.6550, 12746.11
415.1370, 12726.32
415.6190, 12686.60
416.1010, 12641.56
416.5830, 12588.33
417.0650, 12537.31
417.5470, 12501.43
418.0300, 12480.63
418.5120, 12475.28
418.9940, 12498.64
419.4760, 12527.04
419.9580, 12491.12
420.4400, 12349.25
420.9220, 12239.75
421.4040, 12217.08
421.8870, 12231.24
422.3690, 12228.34
422.8510, 12199.38
423.3330, 12167.32
423.8150, 12156.42
424.2970, 12168.96
424.7790, 12161.11
425.2610, 12108.51
425.7430, 12062.57
426.2250, 12042.83
426.7080, 12035.22
427.1900, 12017.99
427.6720, 11982.08
428.1540, 11942.04
428.6360, 11921.02
429.1180, 11921.13
429.6000, 11926.06
430.0820, 11934.57
430.5650, 11947.10
431.0470, 11970.69
431.5290, 12000.31
432.0110, 12015.94
432.4930, 11997.90
432.9750, 11965.61
433.4570, 11950.62
433.9390, 11952.69
434.4220, 11944.95
434.9040, 11908.01
435.3860, 11858.60
435.8680, 11835.90
436.3500, 11844.30
436.8320, 11863.41
437.3140, 11899.48
437.7960, 11937.60
438.2780, 11959.04
438.7610, 11962.62
439.2430, 11964.10
439.7250, 11979.34
440.2070, 12007.98
440.6890, 12017.99
441.1710, 11979.81
441.6530, 11956.33
442.1350, 11974.18
442.6170, 12006.55
443.1000, 12022.12
443.5820, 12010.44
444.0640, 11983.79
444.5460, 11950.35
445.0280, 11908.16
445.5100, 11894.12
445.9920, 11932.75
446.4740, 11972.10
446.9570, 11978.44
447.4390, 11960.34
447.9210, 11939.83
448.4030, 11920.50
448.8850, 11905.89
449.3670, 11901.91
449.8490, 11907.13
450.3310, 11914.47
450.8140, 11924.09
451.2960, 11929.21
451.7780, 11914.20
452.2600, 11868.12
452.7420, 11841.81
453.2240, 11856.78
453.7060, 11880.31
454.1880, 11892.32
454.6700, 11890.71
455.1520, 11876.06
455.6350, 11846.47
456.1170, 11808.81
456.5990, 11792.49
457.0810, 11808.27
457.5630, 11828.40
458.0450, 11862.17
458.5270, 11889.23
459.0090, 11887.48
459.4920, 11857.54
459.9740, 11827.78
460.4560, 11824.95
460.9380, 11842.35
461.4200, 11852.14
461.9020, 11853.30
462.3840, 11848.29
462.8660, 11831.08
463.3490, 11810.88
463.8310, 11805.96
464.3130, 11825.72
464.7950, 11844.76
465.2770, 11846.03
465.7590, 11839.35
466.2410, 11842.71
466.7230, 11859.85
467.2050, 11881.08
467.6880, 11899.61
468.1700, 11916.99
468.6520, 11908.07
469.1340, 11831.14
469.6160, 11778.67
470.0980, 11796.52
470.5800, 11848.04
471.0620, 11884.64
471.5440, 11888.99
472.0270, 11872.83
472.5090, 11850.70
472.9910, 11822.23
473.4730, 11789.76
473.9550, 11742.06
474.4370, 11705.47
474.9190, 11704.47
475.4010, 11724.33
475.8840, 11729.11
476.3660, 11694.96
476.8480, 11656.43
477.3300, 11649.63
477.8120, 11669.46
478.2940, 11697.33
478.7760, 11732.99
479.2580, 11757.11
479.7410, 11737.77
480.2230, 11658.47
480.7050, 11608.56
481.1870, 11610.56
481.6690, 11622.84
482.1510, 11621.85
482.6330, 11612.34
483.1150, 11610.45
483.5970, 11624.85
484.0790, 11646.67
484.5620, 11655.38
485.0440, 11644.61
485.5260, 11638.66
486.0080, 11637.00
486.4900, 11643.19
486.9720, 11666.45
487.4540, 11700.64
487.9360, 11726.09
488.4190, 11732.38
488.9010, 11723.84
489.3830, 11699.78
489.8650, 11661.13
490.3470, 11636.39
490.8290, 11640.56
491.3110, 11658.34
491.7930, 11666.03
492.2760, 11663.89
492.7580, 11654.12
493.2400, 11623.40
493.7220, 11596.09
494.2040, 11597.62
494.6860, 11620.46
495.1680, 11636.74
495.6500, 11629.51
496.1320, 11606.46
496.6150, 11589.97
497.0970, 11585.03
497.5790, 11576.47
498.0610, 11550.58
498.5430, 11531.10
499.0250, 11543.30
499.5070, 11578.72
499.9890, 11598.74
500.4710, 11568.17
500.9540, 11514.86
501.4360, 11492.38
501.9180, 11501.38
502.4000, 11516.90
502.8820, 11534.33
503.3640, 11547.99
503.8460, 11545.46
504.3280, 11523.67
504.8110, 11505.66
505.2930, 11491.10
505.7750, 11485.56
506.2570, 11498.15
506.7390, 11524.81
507.2210, 11551.13
507.7030, 11568.37
508.1850, 11580.61
508.6680, 11601.19
509.1500, 11639.06
509.6320, 11666.12
510.1140, 11663.33
510.5960, 11663.51
511.0780, 11696.59
511.5600, 11753.51
512.0420, 11792.57
512.5240, 11771.72
513.0060, 11731.80
513.4890, 11750.53
513.9710, 11827.08
514.4530, 11893.83
514.9350, 11926.93
515.4170, 11937.03
515.8990, 11933.98
516.3810, 11911.58
516.8640, 11910.83
517.3460, 11964.28
517.8280, 12017.54
518.3100, 12031.39
518.7920, 12012.67
519.2740, 11987.22
519.7560, 11968.70
520.2380, 11952.14
520.7200, 11922.69
521.2030, 11867.67
521.6850, 11835.99
522.1670, 11854.42
522.6490, 11877.37
523.1310, 11892.33
523.6130, 11893.99
524.0950, 11869.08
524.5770, 11791.50
525.0590, 11708.73
525.5420, 11685.34
526.0240, 11711.77
526.5060, 11731.44
526.9880, 11725.60
527.4700, 11712.15
527.9520, 11714.51
528.4340, 11737.31
528.9160, 11751.62
529.3980, 11749.85
529.8810, 11747.82
530.3630, 11755.12
530.8450, 11766.85
531.3270, 11774.19
531.8090, 11773.73
532.2910, 11769.00
532.7730, 11762.70
533.2550, 11753.60
533.7370, 11757.02
534.2200, 11787.33
534.7020, 11810.26
535.1840, 11783.96
535.6660, 11741.91
536.1480, 11754.83
536.6300, 11872.37
537.1120, 11981.10
537.5940, 11981.42
538.0770, 11918.88
538.5590, 11891.51
539.0410, 11918.87
539.5230, 11950.63
540.0050, 11937.54
540.4870, 11880.78
540.9690, 11844.33
541.4510, 11855.83
541.9330, 11852.85
542.4160, 11816.86
542.8980, 11766.51
543.3800, 11715.54
543.8620, 11668.83
544.3440, 11633.50
544.8260, 11620.11
545.3080, 11623.96
545.7910, 11622.92
546.2730, 11614.23
546.7550, 11616.03
547.2370, 11645.46
547.7190, 11685.06
548.2010, 11704.39
548.6830, 11702.91
549.1650, 11685.04
549.6470, 11643.79
550.1300, 11592.37
550.6120, 11535.19
551.0940, 11477.88
551.5760, 11435.26
552.0580, 11416.01
552.5400, 11415.56
553.0220, 11423.97
553.5040, 11449.97
553.9870, 11461.89
554.4690, 11446.86
554.9510, 11424.99
555.4330, 11399.35
555.9150, 11374.74
556.3970, 11364.06
556.8790, 11381.69
557.3610, 11404.26
557.8430, 11404.69
558.3260, 11387.92
558.8080, 11371.93
559.2900, 11361.10
559.7720, 11356.82
560.2540, 11362.73
560.7360, 11380.87
561.2180, 11388.96
561.7000, 11373.94
562.1820, 11365.43
562.6650, 11381.00
563.1470, 11403.85
563.6290, 11410.42
564.1110, 11395.67
564.5930, 11378.58
565.0750, 11384.04
565.5570, 11406.73
566.0390, 11406.35
566.5210, 11373.16
567.0040, 11352.06
567.4860, 11375.89
567.9680, 11421.39
568.4500, 11440.86
568.9320, 11426.25
569.4140, 11411.01
569.8960, 11393.12
570.3780, 11387.08
570.8600, 11418.51
571.3430, 11477.02
571.8250, 11520.90
572.3070, 11524.36
572.7890, 11504.63
573.2710, 11508.38
573.7530, 11547.74
574.2350, 11572.12
574.7180, 11567.14
575.2000, 11555.07
575.6820, 11551.05
576.1640, 11550.32
576.6460, 11537.70
577.1280, 11499.67
577.6100, 11460.02
578.0920, 11443.73
578.5740, 11441.08
579.0570, 11427.75
579.5390, 11397.89
580.0210, 11360.97
580.5030, 11326.32
580.9850, 11293.82
581.4670, 11256.59
581.9490, 11187.66
582.4310, 11147.88
582.9140, 11179.39
583.3960, 11223.18
583.8780, 11218.15
584.3600, 11160.32
584.8420, 11099.69
585.3240, 11075.79
585.8060, 11075.53
586.2880, 11070.10
586.7700, 11059.52
587.2530, 11055.49
587.7350, 11065.83
588.2170, 11079.85
588.6990, 11080.20
589.1810, 11063.40
589.6630, 11044.51
590.1450, 11019.90
590.6270, 10997.19
591.1090, 10978.70
591.5920, 10965.29
592.0740, 10958.76
592.5560, 10959.65
593.0380, 10964.09
593.5200, 10971.64
594.0020, 10981.13
594.4840, 10969.21
594.9660, 10925.83
595.4480, 10886.90
595.9310, 10877.44
596.4130, 10885.49
596.8950, 10881.89
597.3770, 10860.14
597.8590, 10841.73
598.3410, 10838.66
598.8230, 10837.58
599.3050, 10821.84
599.7880, 10795.47
600.2700, 10777.82
600.7520, 10781.39
601.2340, 10795.76
601.7160, 10792.90
602.1980, 10765.49
602.6800, 10758.26
603.1620, 10795.02
603.6440, 10830.25
604.1270, 10826.92
604.6090, 10799.34
605.0910, 10785.90
605.5730, 10803.66
606.0550, 10823.72
606.5370, 10830.13
607.0190, 10827.69
607.5020, 10823.78
607.9840, 10819.52
608.4660, 10810.06
608.9480, 10788.69
609.4300, 10761.10
609.9120, 10762.09
610.3940, 10812.71
610.8760, 10847.50
611.3580, 10850.56
611.8410, 10837.63
612.3230, 10810.04
612.8050, 10772.98
613.2870, 10746.35
613.7690, 10749.87
614.2510, 10756.34
614.7330, 10733.96
615.2150, 10695.25
615.6970, 10672.48
616.1800, 10674.55
616.6620, 10689.56
617.1440, 10707.72
617.6260, 10729.02
618.1080, 10731.65
618.5900, 10690.57
619.0720, 10666.89
619.5540, 10682.60
620.0360, 10711.75
620.5190, 10737.22
621.0010, 10755.06
621.4830, 10759.17
621.9650, 10740.91
622.4470, 10710.20
622.9290, 10667.20
623.4110, 10619.70
623.8930, 10610.08
624.3750, 10656.20
624.8580, 10720.23
625.3400, 10752.69
625.8220, 10749.84
626.3040, 10746.74
626.7860, 10756.11
627.2680, 10749.90
627.7500, 10696.14
628.2320, 10638.25
628.7150, 10630.50
629.1970, 10679.62
629.6790, 10731.54
630.1610, 10748.70
630.6430, 10744.97
631.1250, 10742.19
631.6070, 10740.52
632.0890, 10735.58
632.5710, 10725.24
633.0540, 10712.05
633.5360, 10697.89
634.0180, 10678.26
634.5000, 10678.58
634.9820, 10718.55
635.4640, 10754.57
635.9460, 10768.34
636.4290, 10773.68
636.9110, 10791.55
637.3930, 10825.96
637.8750, 10854.14
638.3570, 10854.25
638.8390, 10837.88
639.3210, 10820.54
639.8030, 10804.53
640.2850, 10810.88
640.7680, 10852.06
641.2500, 10910.13
641.7320, 10956.69
642.2140, 10994.88
642.6960, 11009.76
643.1780, 10965.98
643.6600, 10940.66
644.1420, 10977.25
644.6250, 11039.37
645.1070, 11071.30
645.5890, 11060.03
646.0710, 11061.54
646.5530, 11136.19
647.0350, 11247.23
647.5170, 11319.45
647.9990, 11354.30
648.4810, 11401.10
648.9640, 11482.09
649.4460, 11586.33
649.9280, 11697.45
650.4100, 11820.17
650.8920, 11930.90
651.3740, 12006.05
651.8560, 12096.65
652.3380, 12224.21
652.8200, 12373.32
653.3030, 12524.94
653.7850, 12673.81
654.2670, 12831.19
654.7490, 13011.89
655.2310, 13202.88
655.7130, 13380.22
656.1950, 13545.95
656.6770, 13718.92
657.1590, 13908.85
657.6420, 14102.58
658.1240, 14281.81
658.6060, 14452.92
659.0880, 14582.78
659.5700, 14649.97
660.0520, 14698.27
660.5340, 14770.16
661.0160, 14813.93
661.4980, 14753.17
661.9810, 14574.56
662.4630, 14383.83
662.9450, 14252.58
663.4270, 14139.41
663.9090, 13987.98
664.3910, 13806.21
664.8730, 13633.72
665.3560, 13485.24
665.8380, 13352.86
666.3200, 13222.71
666.8020, 13092.87
667.2840, 12986.35
667.7660, 12896.84
668.2480, 12841.70
668.7300, 12841.90
669.2120, 12866.62
669.6950, 12882.04
670.1770, 12884.98
670.6590, 12904.44
671.1410, 12943.66
671.6230, 13012.57
672.1050, 13135.46
672.5870, 13293.76
673.0690, 13441.86
673.5520, 13565.14
674.0340, 13690.22
674.5160, 13844.78
674.9980, 14028.49
675.4800, 14237.97
675.9620, 14484.62
676.4440, 14731.20
676.9260, 14976.08
677.4080, 15207.10
677.8910, 15407.08
678.3730, 15577.08
678.8550, 15751.45
679.3370, 15977.21
679.8190, 16167.52
680.3010, 16263.77
680.7830, 16295.37
681.2650, 16313.29
681.7470, 16324.83
682.2300, 16295.66
682.7120, 16197.32
683.1940, 16032.37
683.6760, 15799.61
684.1580, 15487.36
684.6400, 15183.13
685.1220, 14916.83
685.6040, 14650.90
686.0860, 14346.24
686.5690, 14004.21
687.0510, 13676.47
