##NAMES=Enstatite
##RRUFFID=R100093
##IDEAL CHEMISTRY=MgSiO_3_
##LOCALITY=Hunan Province, China
##OWNER=RRUFF
##SOURCE=William W. Pinch
##DESCRIPTION=Massive green polished slab
##STATUS=The identification of this mineral has been confirmed by single-crystal X-ray diffraction.
##URL=rruff.info/R100093
154.2084, 43.28888
154.6905, 43.15657
155.1726, 42.81144
155.6547, 42.49272
156.1368, 42.17245
156.6190, 41.94307
157.1011, 41.86488
157.5832, 41.89683
158.0653, 41.96072
158.5474, 41.99614
159.0295, 42.01039
159.5117, 42.11267
159.9938, 42.54269
160.4759, 42.81407
160.9580, 42.65356
161.4401, 42.17002
161.9222, 41.65675
162.4044, 41.37745
162.8865, 41.36759
163.3686, 41.38511
163.8507, 41.55940
164.3328, 41.65132
164.8149, 41.50837
165.2971, 41.15051
165.7792, 40.73106
166.2613, 40.42967
166.7434, 40.31166
167.2255, 40.12993
167.7076, 39.72770
168.1898, 39.37368
168.6719, 39.31812
169.1540, 39.59160
169.6361, 39.95799
170.1182, 40.07258
170.6003, 39.77602
171.0825, 39.62838
171.5646, 39.91031
172.0467, 40.25459
172.5288, 40.14035
173.0109, 39.36953
173.4930, 38.42152
173.9752, 38.19255
174.4573, 38.77338
174.9394, 39.18112
175.4215, 38.93327
175.9036, 38.30787
176.3857, 37.96865
176.8679, 38.21721
177.3500, 38.63714
177.8321, 38.63391
178.3142, 38.17603
178.7963, 37.72412
179.2784, 37.51683
179.7606, 37.54275
180.2427, 37.75209
180.7248, 38.35537
181.2069, 38.94014
181.6890, 39.10429
182.1711, 38.80627
182.6533, 38.40409
183.1354, 38.23914
183.6175, 38.33949
184.0996, 38.45523
184.5817, 38.64179
185.0638, 38.75608
185.5460, 38.64006
186.0281, 38.26988
186.5102, 37.86435
186.9923, 37.76468
187.4744, 38.12967
187.9565, 38.38006
188.4387, 38.45820
188.9208, 38.40582
189.4029, 38.21537
189.8850, 37.89153
190.3671, 37.50092
190.8492, 37.14481
191.3314, 36.70917
191.8135, 36.53292
192.2956, 36.79136
192.7777, 37.20577
193.2598, 37.59642
193.7419, 37.88297
194.2241, 38.00696
194.7062, 37.82605
195.1883, 36.67789
195.6704, 35.99575
196.1525, 36.06169
196.6346, 36.52969
197.1168, 37.04610
197.5989, 37.46476
198.0810, 37.77876
198.5631, 37.95580
199.0452, 37.96443
199.5273, 37.89244
200.0095, 37.63427
200.4916, 37.31916
200.9737, 37.12498
201.4558, 37.10624
201.9379, 37.31044
202.4200, 37.96334
202.9022, 39.48656
203.3843, 40.65260
203.8664, 40.76643
204.3485, 40.15178
204.8306, 39.72937
205.3127, 39.97870
205.7949, 40.55767
206.2770, 40.66197
206.7591, 40.04363
207.2412, 39.52548
207.7233, 39.65965
208.2054, 40.35604
208.6876, 41.06902
209.1697, 41.63488
209.6518, 42.05259
210.1339, 42.29427
210.6160, 42.26132
211.0981, 42.32928
211.5803, 42.96545
212.0624, 44.17120
212.5445, 45.08318
213.0266, 45.13386
213.5087, 44.89202
213.9908, 44.88897
214.4730, 45.22334
214.9551, 45.66855
215.4372, 45.95966
215.9193, 46.06318
216.4014, 46.22971
216.8836, 46.70910
217.3657, 47.17738
217.8478, 47.33091
218.3299, 47.08855
218.8120, 46.80827
219.2941, 46.99216
219.7763, 47.74660
220.2584, 48.62774
220.7405, 49.82021
221.2226, 50.94661
221.7047, 51.74303
222.1868, 52.13849
222.6690, 52.24227
223.1511, 52.17441
223.6332, 51.77739
224.1153, 51.57631
224.5974, 51.79578
225.0795, 52.08674
225.5617, 52.16631
226.0438, 51.96593
226.5259, 51.66226
227.0080, 51.58356
227.4901, 51.96321
227.9722, 52.13872
228.4544, 51.98914
228.9365, 51.72054
229.4186, 51.53503
229.9007, 51.47455
230.3828, 51.37647
230.8649, 50.91408
231.3471, 49.40366
231.8292, 48.67588
232.3113, 49.54899
232.7934, 50.66068
233.2755, 50.83804
233.7576, 49.77704
234.2398, 48.05677
234.7219, 46.63374
235.2040, 45.65431
235.6861, 44.75336
236.1682, 43.92028
236.6503, 43.16743
237.1325, 42.53524
237.6146, 42.03178
238.0967, 41.58232
238.5788, 41.06789
239.0609, 40.40878
239.5430, 39.89066
240.0252, 39.66447
240.5073, 39.51699
240.9894, 39.26995
241.4715, 38.87885
241.9536, 38.32916
242.4357, 37.49345
242.9179, 36.20127
243.4000, 35.44355
243.8821, 35.78176
244.3642, 36.48721
244.8463, 36.73154
245.3284, 36.33699
245.8106, 35.75240
246.2927, 35.52126
246.7748, 35.65965
247.2569, 35.69496
247.7390, 35.39328
248.2211, 35.02359
248.7033, 34.98547
249.1854, 35.37938
249.6675, 35.77787
250.1496, 35.66524
250.6317, 35.12414
251.1138, 34.70414
251.5960, 34.67593
252.0781, 34.76200
252.5602, 34.59511
253.0423, 34.12427
253.5244, 33.51442
254.0065, 32.76925
254.4887, 31.97706
254.9708, 31.42277
255.4529, 31.29314
255.9350, 31.39700
256.4171, 31.49536
256.8992, 31.58584
257.3813, 31.64991
257.8635, 31.70286
258.3456, 31.71828
258.8277, 31.62798
259.3098, 31.33957
259.7919, 30.97857
260.2740, 30.70158
260.7562, 30.49974
261.2383, 30.42013
261.7204, 30.56228
262.2025, 30.82747
262.6846, 31.11159
263.1667, 31.38625
263.6489, 31.66552
264.1310, 32.02620
264.6131, 32.52922
265.0952, 32.84676
265.5773, 32.72671
266.0594, 32.38329
266.5416, 31.95732
267.0237, 31.44345
267.5058, 30.97353
267.9879, 30.74274
268.4700, 30.79369
268.9521, 30.89205
269.4343, 30.98813
269.9164, 31.08650
270.3985, 31.19013
270.8806, 31.29974
271.3627, 31.41530
271.8448, 31.56853
272.3270, 31.79174
272.8091, 31.88566
273.2912, 31.71279
273.7733, 31.44584
274.2554, 31.13227
274.7375, 30.78803
275.2197, 30.52061
275.7018, 30.49301
276.1839, 30.75376
276.6660, 30.93732
277.1481, 30.93249
277.6302, 30.87759
278.1124, 30.85073
278.5945, 30.84985
279.0766, 30.80516
279.5587, 30.58844
280.0408, 30.15822
280.5229, 29.92739
281.0051, 30.04910
281.4872, 30.27539
281.9693, 30.61149
282.4514, 30.98872
282.9335, 31.23730
283.4156, 31.15732
283.8978, 30.73909
284.3799, 30.44947
284.8620, 30.29154
285.3441, 30.28086
285.8262, 30.62264
286.3083, 31.12117
286.7905, 31.35263
287.2726, 30.92774
287.7547, 29.94433
288.2368, 29.36077
288.7189, 29.44203
289.2010, 29.64941
289.6832, 29.91390
290.1653, 30.18728
290.6474, 30.40129
291.1295, 30.50125
291.6116, 30.53588
292.0938, 30.72169
292.5759, 31.28332
293.0580, 31.66531
293.5401, 31.66517
294.0222, 31.48322
294.5043, 31.31883
294.9865, 31.25786
295.4686, 31.30032
295.9507, 31.49005
296.4328, 32.10408
296.9149, 32.34404
297.3970, 31.86730
297.8792, 31.17359
298.3613, 30.64315
298.8434, 30.40274
299.3255, 30.41159
299.8076, 30.65704
300.2897, 31.35352
300.7719, 31.79169
301.2540, 31.75862
301.7361, 31.63152
302.2182, 31.62750
302.7003, 31.79138
303.1824, 32.05586
303.6646, 32.35493
304.1467, 32.70490
304.6288, 33.02604
305.1109, 33.26269
305.5930, 33.52232
306.0751, 33.98649
306.5573, 34.55747
307.0394, 34.89993
307.5215, 34.62955
308.0036, 33.67464
308.4857, 33.14552
308.9678, 33.41136
309.4500, 33.75989
309.9321, 34.02387
310.4142, 34.21606
310.8963, 34.41831
311.3784, 34.70057
311.8605, 35.03582
312.3427, 35.20144
312.8248, 34.93700
313.3069, 34.80605
313.7890, 34.97945
314.2711, 35.32233
314.7532, 35.65535
315.2354, 35.88724
315.7175, 36.06725
316.1996, 36.35792
316.6817, 37.01948
317.1638, 37.35817
317.6459, 36.96517
318.1281, 36.43364
318.6102, 36.36177
319.0923, 36.91782
319.5744, 37.72169
320.0565, 38.10862
320.5386, 37.78719
321.0208, 37.72231
321.5029, 38.15848
321.9850, 38.66423
322.4671, 38.95442
322.9492, 39.01023
323.4313, 39.01637
323.9135, 39.17257
324.3956, 39.49997
324.8777, 39.87459
325.3598, 40.53527
325.8419, 41.02271
326.3240, 40.98226
326.8062, 40.58891
327.2883, 40.33103
327.7704, 40.62001
328.2525, 41.41876
328.7346, 42.06828
329.2167, 42.51121
329.6989, 42.85437
330.1810, 43.14120
330.6631, 43.34549
331.1452, 43.37716
331.6273, 43.15883
332.1094, 42.83522
332.5916, 42.90951
333.0737, 43.82175
333.5558, 44.36712
334.0379, 44.04313
334.5200, 43.47017
335.0021, 43.26540
335.4843, 43.62148
335.9664, 44.20353
336.4485, 44.43370
336.9306, 44.12279
337.4127, 44.02892
337.8948, 44.55149
338.3770, 45.05405
338.8591, 45.11458
339.3412, 44.72623
339.8233, 44.21116
340.3055, 43.85482
340.7876, 43.66082
341.2697, 43.60939
341.7518, 43.96983
342.2339, 44.20653
342.7160, 44.08818
343.1982, 43.67854
343.6803, 43.14947
344.1624, 42.58141
344.6445, 41.99329
345.1266, 41.48861
345.6087, 41.13067
346.0909, 40.75518
346.5730, 40.19639
347.0551, 39.62659
347.5372, 39.30127
348.0193, 39.35743
348.5014, 39.57500
348.9836, 39.58058
349.4657, 39.37468
349.9478, 38.95038
350.4299, 37.97339
350.9120, 36.97898
351.3941, 36.38111
351.8763, 36.25444
352.3584, 36.34425
352.8405, 36.42277
353.3226, 36.48940
353.8047, 36.58839
354.2868, 36.86781
354.7690, 37.02058
355.2511, 36.75565
355.7332, 36.16631
356.2153, 35.65704
356.6974, 35.51731
357.1795, 35.67271
357.6617, 35.86800
358.1438, 36.17797
358.6259, 36.35924
359.1080, 36.07870
359.5901, 35.62012
360.0722, 35.47749
360.5544, 36.00087
361.0365, 36.71320
361.5186, 36.85123
362.0007, 36.32192
362.4828, 35.95876
362.9649, 36.35477
363.4471, 36.94501
363.9292, 37.04039
364.4113, 36.48110
364.8934, 35.83462
365.3755, 35.54422
365.8576, 35.55246
366.3398, 35.52687
366.8219, 35.33156
367.3040, 35.17575
367.7861, 35.30435
368.2682, 35.69018
368.7503, 36.09586
369.2325, 36.53517
369.7146, 36.90453
370.1967, 36.98291
370.6788, 36.71811
371.1609, 36.37708
371.6430, 36.20493
372.1252, 36.12140
372.6073, 35.86123
373.0894, 35.02120
373.5715, 34.28794
374.0536, 34.37604
374.5357, 35.14815
375.0179, 35.79166
375.5000, 35.91456
375.9821, 35.65204
376.4642, 35.30621
376.9463, 34.76183
377.4284, 34.40285
377.9106, 34.58107
378.3927, 34.99346
378.8748, 35.10395
379.3569, 34.75879
379.8390, 34.17722
380.3211, 33.57130
380.8033, 32.90179
381.2854, 32.48923
381.7675, 32.54381
382.2496, 32.73198
382.7317, 32.82178
383.2138, 32.79147
383.6960, 32.69353
384.1781, 32.56045
384.6602, 32.39360
385.1423, 32.20905
385.6244, 31.90952
386.1065, 31.70142
386.5887, 31.83046
387.0708, 32.06572
387.5529, 31.94821
388.0350, 31.25989
388.5171, 30.31029
388.9992, 29.77393
389.4814, 29.84946
389.9635, 30.08989
390.4456, 30.82443
390.9277, 31.50540
391.4098, 31.56204
391.8919, 30.99495
392.3741, 30.35587
392.8562, 30.24282
393.3383, 30.74880
393.8204, 31.06810
394.3025, 31.16435
394.7846, 31.12830
395.2668, 30.91381
395.7489, 30.59661
396.2310, 30.29822
396.7131, 30.08858
397.1952, 29.94919
397.6773, 29.82178
398.1595, 29.75782
398.6416, 29.61389
399.1237, 29.27761
399.6058, 28.92054
400.0879, 28.73911
400.5700, 28.75848
401.0522, 28.77014
401.5343, 28.43933
402.0164, 27.65985
402.4985, 27.18956
402.9806, 27.46449
403.4627, 27.66959
403.9449, 27.33497
404.4270, 26.63463
404.9091, 26.05630
405.3912, 25.93551
405.8733, 26.13783
406.3554, 26.24589
406.8376, 26.22473
407.3197, 26.19761
407.8018, 26.30407
408.2839, 26.38914
408.7660, 26.25223
409.2481, 25.81290
409.7303, 25.32492
410.2124, 25.04016
410.6945, 24.94892
411.1766, 24.90043
411.6587, 24.91788
412.1408, 24.89526
412.6230, 24.72654
413.1051, 24.42773
413.5872, 24.10699
414.0693, 23.69687
414.5514, 23.33400
415.0335, 23.32455
415.5157, 23.72219
415.9978, 24.06071
416.4799, 23.99951
416.9620, 23.64934
417.4441, 23.38255
417.9262, 23.17218
418.4084, 23.10024
418.8905, 23.33928
419.3726, 23.75789
419.8547, 23.98868
420.3368, 23.87878
420.8189, 23.62644
421.3011, 23.55201
421.7832, 23.69698
422.2653, 23.83118
422.7474, 24.01686
423.2295, 24.12399
423.7116, 23.97016
424.1938, 23.58392
424.6759, 23.21868
425.1580, 23.07217
425.6401, 23.13363
426.1222, 23.20131
426.6043, 23.39864
427.0865, 23.45917
427.5686, 23.19431
428.0507, 22.79067
428.5328, 22.51653
429.0149, 22.47269
429.4970, 22.54473
429.9792, 22.51180
430.4613, 22.19965
430.9434, 22.17844
431.4255, 22.81353
431.9076, 23.36999
432.3897, 23.30903
432.8719, 22.76045
433.3540, 22.27560
433.8361, 22.31898
434.3182, 22.79676
434.8003, 23.00422
435.2824, 22.65183
435.7646, 22.47519
436.2467, 22.84754
436.7288, 23.37522
437.2109, 23.59989
437.6930, 23.37519
438.1751, 23.02474
438.6573, 23.01321
439.1394, 23.38003
439.6215, 23.51230
440.1036, 23.13539
440.5857, 22.71563
441.0678, 22.54265
441.5500, 22.58418
442.0321, 22.69645
442.5142, 22.88274
442.9963, 23.06402
443.4784, 23.03785
443.9605, 22.76365
444.4427, 22.61100
444.9248, 22.90619
445.4069, 23.36496
445.8890, 23.46930
446.3711, 23.07726
446.8532, 22.67092
447.3354, 22.55968
447.8175, 22.62126
448.2996, 22.57145
448.7817, 22.33377
449.2638, 22.06521
449.7459, 21.91592
450.2281, 21.89467
450.7102, 21.98970
451.1923, 22.41664
451.6744, 22.76819
452.1565, 22.71340
452.6386, 22.35590
453.1208, 22.00444
453.6029, 21.80251
454.0850, 21.76299
454.5671, 21.92657
455.0492, 22.66325
455.5313, 23.09311
456.0135, 22.97434
456.4956, 22.70182
456.9777, 22.62293
457.4598, 22.75827
457.9419, 22.85317
458.4240, 22.61734
458.9062, 22.04156
459.3883, 21.85976
459.8704, 22.54663
460.3525, 23.10855
460.8346, 23.34110
461.3167, 23.32421
461.7989, 23.15040
462.2810, 22.85253
462.7631, 22.47367
463.2452, 22.00911
463.7273, 21.39398
464.2094, 21.08438
464.6916, 21.31237
465.1737, 21.71371
465.6558, 22.21671
466.1379, 22.73507
466.6200, 23.01926
467.1021, 22.80063
467.5843, 22.31797
468.0664, 22.03262
468.5485, 21.95409
469.0306, 22.00978
469.5127, 22.28635
469.9948, 22.60893
470.4770, 22.67699
470.9591, 22.40298
471.4412, 22.16911
471.9233, 22.26884
472.4054, 22.51316
472.8875, 22.48060
473.3697, 22.07602
473.8518, 21.73955
474.3339, 21.95264
474.8160, 22.70230
475.2981, 23.03307
475.7802, 22.51710
476.2624, 22.04312
476.7445, 22.16666
477.2266, 22.58983
477.7087, 22.69068
478.1908, 22.21829
478.6729, 21.48674
479.1551, 21.06949
479.6372, 21.14614
480.1193, 21.12342
480.6014, 20.80185
481.0835, 20.57176
481.5656, 20.68330
482.0478, 21.07917
482.5299, 21.59789
483.0120, 22.17510
483.4941, 22.71322
483.9762, 22.76592
484.4583, 21.98539
484.9405, 21.43160
485.4226, 21.47386
485.9047, 21.69139
486.3868, 21.78708
486.8689, 21.71527
487.3510, 21.57610
487.8332, 21.38554
488.3153, 21.18203
488.7974, 21.18694
489.2795, 21.49971
489.7616, 21.79519
490.2437, 21.83634
490.7259, 21.74022
491.2080, 21.68450
491.6901, 21.73756
492.1722, 21.76104
492.6543, 21.61732
493.1364, 21.36255
493.6186, 21.16163
494.1007, 21.05874
494.5828, 21.00306
495.0649, 20.94724
495.5470, 20.89255
496.0291, 20.80628
496.5113, 20.48593
496.9934, 20.32071
497.4755, 20.74813
497.9576, 21.51137
498.4397, 21.90590
498.9218, 21.56693
499.4040, 20.91803
499.8861, 20.95888
500.3682, 22.51540
500.8503, 23.21960
501.3324, 22.38470
501.8145, 21.38965
502.2967, 21.09726
502.7788, 21.42632
503.2609, 21.80107
503.7430, 21.80968
504.2251, 21.57098
504.7072, 21.55515
505.1894, 21.84825
505.6715, 22.17000
506.1536, 22.55805
506.6357, 22.87521
507.1178, 22.95431
507.5999, 22.79036
508.0821, 22.63393
508.5642, 22.74583
509.0463, 23.00642
509.5284, 22.99961
510.0105, 22.62187
510.4926, 22.34006
510.9748, 22.53535
511.4569, 23.01019
511.9390, 23.28472
512.4211, 23.24222
512.9032, 23.16372
513.3853, 23.20269
513.8674, 23.29255
514.3495, 23.30289
514.8317, 23.20486
515.3138, 23.10201
515.7959, 23.11665
516.2780, 23.26503
516.7601, 23.26580
517.2422, 22.92970
517.7244, 22.68241
518.2065, 22.72788
518.6886, 22.93116
519.1707, 23.09910
519.6528, 23.16149
520.1349, 23.17016
520.6171, 23.24029
521.0992, 23.45736
521.5813, 23.38376
522.0634, 22.46700
522.5455, 21.81167
523.0276, 22.10541
523.5098, 22.90774
523.9919, 23.30840
524.4740, 22.78453
524.9561, 22.04656
525.4382, 22.32355
525.9203, 23.64027
526.4025, 24.41138
526.8846, 24.01302
527.3667, 23.29025
527.8488, 23.11980
528.3309, 23.40339
528.8130, 23.49468
529.2952, 22.86802
529.7773, 22.22661
530.2594, 22.32188
530.7415, 23.02075
531.2236, 23.68649
531.7057, 24.05734
532.1879, 24.19015
532.6700, 24.18119
533.1521, 23.96831
533.6342, 23.74232
534.1163, 23.40641
534.5984, 23.14421
535.0806, 23.15871
535.5627, 23.35925
536.0448, 23.48334
536.5269, 23.36810
537.0090, 23.06849
537.4911, 22.72034
537.9733, 22.18705
538.4554, 21.90792
538.9375, 22.05793
539.4196, 22.36071
539.9017, 22.79883
540.3839, 23.27383
540.8660, 23.46756
541.3481, 22.92452
541.8302, 22.10259
542.3123, 22.18250
542.7944, 23.29233
543.2766, 24.17334
543.7587, 24.28660
544.2408, 23.94155
544.7229, 23.50583
545.2050, 22.92517
545.6871, 22.70194
546.1693, 23.53027
546.6514, 24.48011
547.1335, 24.36432
547.6156, 23.25998
548.0977, 22.15814
548.5798, 21.62648
549.0620, 21.58813
549.5441, 21.78500
550.0262, 22.60946
550.5083, 23.14339
550.9904, 23.20245
551.4725, 23.10641
551.9547, 23.09242
552.4368, 23.16045
552.9189, 23.15465
553.4010, 22.91789
553.8831, 22.56475
554.3652, 22.61344
554.8474, 23.28236
555.3295, 23.80061
555.8116, 23.81805
556.2937, 23.71955
556.7758, 23.78648
557.2579, 24.02747
557.7401, 24.24542
558.2222, 24.31574
558.7043, 24.29246
559.1864, 24.23023
559.6685, 24.13068
560.1506, 24.14264
560.6328, 24.38558
561.1149, 24.73858
561.5970, 24.93698
562.0791, 24.95642
562.5612, 24.93699
563.0433, 24.80907
563.5255, 24.72264
564.0076, 24.91018
564.4897, 25.28637
564.9718, 25.48813
565.4539, 25.27104
565.9360, 24.75119
566.4182, 24.31708
566.9003, 23.98444
567.3824, 23.70764
567.8645, 23.37414
568.3466, 23.17779
568.8287, 23.38732
569.3109, 23.87448
569.7930, 24.18462
570.2751, 23.99330
570.7572, 23.49490
571.2393, 23.00607
571.7214, 22.50112
572.2036, 22.37512
572.6857, 23.08479
573.1678, 23.86528
573.6499, 23.64684
574.1320, 22.46230
574.6141, 21.63844
575.0963, 21.78577
575.5784, 22.24335
576.0605, 22.50642
576.5426, 22.58631
577.0247, 22.65507
577.5068, 22.80587
577.9890, 22.87643
578.4711, 22.51885
578.9532, 21.38571
579.4353, 20.72048
579.9174, 20.77494
580.3995, 20.98147
580.8817, 21.11407
581.3638, 21.18746
581.8459, 21.29715
582.3280, 21.49615
582.8101, 21.68544
583.2922, 21.68224
583.7744, 21.47167
584.2565, 21.29037
584.7386, 21.20944
585.2207, 21.10138
585.7029, 20.77079
586.1850, 20.34241
586.6671, 20.16361
587.1492, 20.52249
587.6313, 20.87584
588.1135, 20.70173
588.5956, 20.23376
589.0777, 20.07778
589.5598, 20.39463
590.0419, 20.76492
590.5240, 20.70793
591.0062, 20.19254
591.4883, 19.98456
591.9704, 20.31986
592.4525, 20.63712
592.9346, 20.82218
593.4167, 20.90421
593.8989, 20.88866
594.3810, 20.79595
594.8631, 20.72375
595.3452, 20.82078
595.8273, 21.05723
596.3094, 21.07056
596.7916, 20.77913
597.2737, 20.45058
597.7558, 19.97864
598.2379, 19.64218
598.7200, 19.91153
599.2021, 20.92710
599.6843, 21.65557
600.1664, 21.37258
600.6485, 20.58747
601.1306, 19.86005
601.6127, 19.28218
602.0948, 19.16851
602.5770, 19.80220
603.0591, 20.84758
603.5412, 21.37543
604.0233, 20.98837
604.5054, 20.70721
604.9875, 20.57101
605.4697, 20.50338
605.9518, 20.49856
606.4339, 20.52044
606.9160, 20.48150
607.3981, 20.31741
607.8802, 20.13867
608.3624, 20.20527
608.8445, 20.56082
609.3266, 20.80176
609.8087, 20.74421
610.2908, 20.71760
610.7729, 21.07402
611.2551, 21.66282
611.7372, 22.02887
612.2193, 21.97686
612.7014, 21.76923
613.1835, 21.50456
613.6656, 21.23577
614.1478, 21.09527
614.6299, 21.11537
615.1120, 21.18781
615.5941, 21.19180
616.0762, 21.31864
616.5583, 21.50670
617.0405, 21.60259
617.5226, 21.93746
618.0047, 22.16611
618.4868, 22.30123
618.9689, 22.32627
619.4510, 22.25807
619.9332, 22.18298
620.4153, 22.18642
620.8974, 22.23826
621.3795, 22.20437
621.8616, 22.05298
622.3438, 21.98702
622.8259, 22.09448
623.3080, 22.31695
623.7901, 22.60477
624.2722, 22.96708
624.7543, 23.23736
625.2365, 23.26070
625.7186, 23.26923
626.2007, 23.55509
626.6828, 23.98846
627.1649, 24.14977
627.6470, 23.85758
628.1292, 23.39515
628.6113, 23.23565
629.0934, 23.48561
629.5755, 23.59127
630.0576, 23.23998
630.5397, 23.08073
631.0219, 23.45383
631.5040, 24.07697
631.9861, 24.56619
632.4682, 24.80979
632.9503, 24.94886
633.4324, 25.12657
633.9146, 25.30391
634.3967, 25.28760
634.8788, 25.02784
635.3609, 24.92860
635.8430, 25.32270
636.3251, 25.98991
636.8073, 26.24244
637.2894, 25.80302
637.7715, 25.67333
638.2536, 26.26458
638.7357, 27.00606
639.2178, 27.41692
639.7000, 27.58346
640.1821, 27.88659
640.6642, 28.54276
641.1463, 29.38363
641.6284, 30.11289
642.1105, 30.74864
642.5927, 31.13644
643.0748, 31.00018
643.5569, 30.94715
644.0390, 31.42838
644.5211, 32.20816
645.0032, 32.78035
645.4854, 32.91419
645.9675, 33.09861
646.4496, 33.82055
646.9317, 34.77322
647.4138, 35.34241
647.8959, 35.45863
648.3781, 35.48310
648.8602, 35.64522
649.3423, 35.96972
649.8244, 36.56862
650.3065, 37.66098
650.7886, 38.71407
651.2708, 39.94270
651.7529, 40.93322
652.2350, 41.19686
652.7171, 40.97205
653.1992, 40.98280
