##NAMES=Enstatite
##RRUFFID=R070641
##IDEAL CHEMISTRY=MgSiO_3_
##LOCALITY=Sri Lanka
##OWNER=RRUFF
##SOURCE=Jibamitra Ganguly
##DESCRIPTION=Translucent colorless crystalline fragment
##STATUS=The identification of this mineral has been confirmed by X-ray diffraction.
##URL=rruff.info/R070641
127.3591, 1767.893
127.8412, 1812.512
128.3233, 1866.589
128.8054, 1916.033
129.2875, 1950.795
129.7696, 1982.291
130.2518, 2038.423
130.7339, 2122.646
131.2160, 2209.158
131.6981, 2261.605
132.1802, 2284.633
132.6623, 2319.158
133.1445, 2388.417
133.6266, 2485.486
134.1087, 2565.231
134.5908, 2630.062
135.0729, 2674.624
135.5550, 2683.559
136.0372, 2653.085
136.5193, 2616.703
137.0014, 2592.239
137.4835, 2581.228
137.9656, 2564.744
138.4477, 2541.262
138.9299, 2511.500
139.4120, 2475.014
139.8941, 2427.738
140.3762, 2382.269
140.8583, 2346.537
141.3404, 2320.918
141.8225, 2304.440
142.3047, 2297.047
142.7868, 2298.732
143.2689, 2309.695
143.7510, 2334.857
144.2331, 2364.996
144.7152, 2388.418
145.1974, 2403.875
145.6795, 2415.074
146.1616, 2421.933
146.6437, 2419.805
147.1258, 2424.984
147.6079, 2440.784
148.0901, 2463.828
148.5722, 2484.344
149.0543, 2501.571
149.5364, 2517.123
150.0185, 2531.536
150.5006, 2543.248
150.9828, 2555.600
151.4649, 2572.072
151.9470, 2591.571
152.4291, 2601.545
152.9112, 2593.407
153.3933, 2579.974
153.8755, 2570.188
154.3576, 2587.559
154.8397, 2586.591
155.3218, 2549.624
155.8039, 2468.794
156.2860, 2399.823
156.7682, 2356.504
157.2503, 2329.791
157.7324, 2308.287
158.2145, 2289.353
158.6966, 2275.407
159.1787, 2267.306
159.6609, 2264.958
160.1430, 2268.865
160.6251, 2287.750
161.1072, 2313.703
161.5893, 2328.330
162.0714, 2319.869
162.5536, 2300.671
163.0357, 2279.359
163.5178, 2263.903
163.9999, 2240.195
164.4820, 2190.836
164.9641, 2121.329
165.4463, 2068.385
165.9284, 2062.256
166.4105, 2078.181
166.8926, 2089.478
167.3747, 2084.075
167.8568, 2072.581
168.3390, 2062.830
168.8211, 2055.590
169.3032, 2043.706
169.7853, 2017.672
170.2674, 1984.074
170.7495, 1954.442
171.2317, 1937.754
171.7138, 1925.836
172.1959, 1909.252
172.6780, 1884.871
173.1601, 1863.495
173.6422, 1856.296
174.1244, 1860.435
174.6065, 1866.705
175.0886, 1869.503
175.5707, 1871.108
176.0528, 1874.530
176.5349, 1879.526
177.0171, 1887.701
177.4992, 1902.214
177.9813, 1922.428
178.4634, 1944.179
178.9455, 1964.582
179.4276, 1983.957
179.9098, 2003.569
180.3919, 2023.966
180.8740, 2044.541
181.3561, 2064.351
181.8382, 2083.067
182.3203, 2103.526
182.8025, 2127.490
183.2846, 2155.080
183.7667, 2187.869
184.2488, 2226.737
184.7309, 2271.546
185.2130, 2320.475
185.6951, 2374.785
186.1773, 2431.053
186.6594, 2484.227
187.1415, 2534.781
187.6236, 2589.396
188.1057, 2651.355
188.5878, 2720.188
189.0700, 2795.909
189.5521, 2875.490
190.0342, 2964.111
190.5163, 3078.332
190.9984, 3217.917
191.4805, 3358.829
191.9627, 3485.267
192.4448, 3597.308
192.9269, 3696.455
193.4090, 3781.190
193.8911, 3854.044
194.3732, 3925.576
194.8554, 3998.652
195.3375, 4058.122
195.8196, 4093.147
196.3017, 4103.961
196.7838, 4087.292
197.2659, 4038.779
197.7481, 3961.435
198.2302, 3871.721
198.7123, 3767.528
199.1944, 3657.444
199.6765, 3551.142
200.1586, 3447.796
200.6408, 3346.986
201.1229, 3244.990
201.6050, 3142.365
202.0871, 3056.567
202.5692, 2990.528
203.0513, 2936.550
203.5335, 2880.922
204.0156, 2821.455
204.4977, 2769.114
204.9798, 2731.826
205.4619, 2712.834
205.9440, 2686.813
206.4262, 2650.915
206.9083, 2608.985
207.3904, 2570.594
207.8725, 2536.261
208.3546, 2503.907
208.8367, 2470.014
209.3189, 2430.830
209.8010, 2406.687
210.2831, 2404.261
210.7652, 2417.356
211.2473, 2416.451
211.7294, 2394.644
212.2116, 2372.520
212.6937, 2367.277
213.1758, 2384.500
213.6579, 2399.760
214.1400, 2405.853
214.6221, 2404.560
215.1043, 2423.034
215.5864, 2470.671
216.0685, 2524.962
216.5506, 2562.144
217.0327, 2576.141
217.5148, 2589.417
217.9970, 2606.294
218.4791, 2626.569
218.9612, 2649.828
219.4433, 2672.368
219.9254, 2701.145
220.4075, 2746.779
220.8897, 2815.042
221.3718, 2887.542
221.8539, 2957.453
222.3360, 3024.480
222.8181, 3093.284
223.3002, 3161.663
223.7824, 3232.752
224.2645, 3311.480
224.7466, 3403.312
225.2287, 3494.869
225.7108, 3580.595
226.1929, 3656.770
226.6750, 3735.953
227.1572, 3812.824
227.6393, 3893.516
228.1214, 3996.709
228.6035, 4128.343
229.0856, 4272.387
229.5677, 4418.989
230.0499, 4556.546
230.5320, 4718.208
231.0141, 4903.764
231.4962, 5112.608
231.9783, 5348.407
232.4604, 5610.354
232.9426, 5896.681
233.4247, 6211.645
233.9068, 6554.052
234.3889, 6919.608
234.8710, 7327.159
235.3531, 7769.250
235.8353, 8149.622
236.3174, 8486.048
236.7995, 8741.315
237.2816, 8893.914
237.7637, 8968.666
238.2458, 8890.803
238.7280, 8622.502
239.2101, 8166.370
239.6922, 7680.552
240.1743, 7133.370
240.6564, 6587.652
241.1385, 6105.034
241.6207, 5703.358
242.1028, 5321.822
242.5849, 4940.602
243.0670, 4555.885
243.5491, 4218.873
244.0313, 3932.230
244.5134, 3690.949
244.9955, 3493.651
245.4776, 3361.432
245.9597, 3236.026
246.4418, 3099.699
246.9240, 2946.826
247.4061, 2815.308
247.8882, 2708.992
248.3703, 2622.484
248.8524, 2549.277
249.3345, 2490.117
249.8167, 2442.961
250.2988, 2408.668
250.7809, 2390.750
251.2630, 2371.280
251.7451, 2347.820
252.2272, 2324.366
252.7094, 2309.102
253.1915, 2306.779
253.6736, 2304.365
254.1557, 2295.743
254.6378, 2275.799
255.1199, 2265.856
255.6021, 2268.917
256.0842, 2280.575
256.5663, 2292.840
257.0484, 2310.398
257.5305, 2320.421
258.0126, 2315.150
258.4948, 2286.182
258.9769, 2266.046
259.4590, 2258.276
259.9411, 2258.365
260.4232, 2253.198
260.9053, 2239.547
261.3875, 2226.597
261.8696, 2220.020
262.3517, 2223.569
262.8338, 2221.332
263.3159, 2209.478
263.7980, 2192.015
264.2802, 2182.531
264.7623, 2181.145
265.2444, 2187.240
265.7265, 2202.692
266.2086, 2230.939
266.6907, 2254.287
267.1729, 2269.013
267.6550, 2277.872
268.1371, 2293.142
268.6192, 2318.103
269.1013, 2341.717
269.5834, 2351.711
270.0656, 2341.008
270.5477, 2349.672
271.0298, 2387.048
271.5119, 2446.479
271.9940, 2502.297
272.4761, 2554.975
272.9583, 2601.818
273.4404, 2639.118
273.9225, 2664.499
274.4046, 2693.942
274.8867, 2732.147
275.3688, 2776.024
275.8510, 2812.622
276.3331, 2841.259
276.8152, 2864.073
277.2973, 2885.553
277.7794, 2907.232
278.2615, 2912.646
278.7437, 2896.152
279.2258, 2861.369
279.7079, 2823.071
280.1900, 2780.569
280.6721, 2737.270
281.1542, 2693.423
281.6364, 2648.439
282.1185, 2614.059
282.6006, 2593.768
283.0827, 2585.552
283.5648, 2583.275
284.0469, 2587.981
284.5291, 2593.299
285.0112, 2594.554
285.4933, 2591.687
285.9754, 2581.941
286.4575, 2559.703
286.9396, 2531.257
287.4217, 2519.948
287.9038, 2526.980
288.3860, 2542.049
288.8681, 2555.792
289.3502, 2568.470
289.8323, 2583.586
290.3144, 2599.137
290.7965, 2618.598
291.2787, 2654.587
291.7608, 2708.380
292.2429, 2766.205
292.7250, 2812.901
293.2071, 2851.513
293.6892, 2897.615
294.1714, 2958.959
294.6535, 3029.324
295.1356, 3095.961
295.6177, 3159.056
296.0998, 3221.931
296.5819, 3290.445
297.0641, 3362.804
297.5462, 3432.466
298.0283, 3507.766
298.5104, 3573.592
298.9925, 3598.429
299.4746, 3582.032
299.9568, 3555.870
300.4389, 3556.960
300.9210, 3569.669
301.4031, 3557.259
301.8852, 3492.297
302.3673, 3403.664
302.8495, 3320.439
303.3316, 3243.492
303.8137, 3181.925
304.2958, 3150.240
304.7779, 3139.040
305.2600, 3132.273
305.7422, 3122.629
306.2243, 3115.514
306.7064, 3114.804
307.1885, 3120.604
307.6706, 3135.348
308.1527, 3165.105
308.6349, 3203.989
309.1170, 3243.230
309.5991, 3281.026
310.0812, 3317.553
310.5633, 3348.607
311.0454, 3375.403
311.5276, 3413.433
312.0097, 3486.915
312.4918, 3571.451
312.9739, 3640.712
313.4560, 3664.142
313.9381, 3686.887
314.4203, 3730.305
314.9024, 3794.585
315.3845, 3874.336
315.8666, 3973.470
316.3487, 4084.155
316.8308, 4198.983
317.3130, 4305.551
317.7951, 4425.764
318.2772, 4570.002
318.7593, 4737.111
319.2414, 4908.073
319.7235, 5088.289
320.2057, 5263.874
320.6878, 5423.842
321.1699, 5569.142
321.6520, 5695.713
322.1341, 5803.689
322.6162, 5893.029
323.0984, 5956.547
323.5805, 5975.083
324.0626, 5977.955
324.5447, 5984.946
325.0268, 5983.988
325.5089, 6003.366
325.9911, 6046.187
326.4732, 6112.199
326.9553, 6201.148
327.4374, 6316.908
327.9195, 6452.899
328.4016, 6606.390
328.8838, 6791.141
329.3659, 6975.693
329.8480, 7159.660
330.3301, 7342.008
330.8122, 7520.250
331.2943, 7683.167
331.7765, 7854.202
332.2586, 8045.756
332.7407, 8258.453
333.2228, 8491.770
333.7049, 8751.371
334.1870, 9032.960
334.6692, 9319.252
335.1513, 9600.508
335.6334, 9906.743
336.1155, 10252.16
336.5976, 10644.23
337.0797, 11061.61
337.5619, 11507.68
338.0440, 11974.65
338.5261, 12431.32
339.0082, 12879.38
339.4903, 13308.05
339.9724, 13705.10
340.4546, 14072.64
340.9367, 14424.94
341.4188, 14780.93
341.9009, 15105.27
342.3830, 15327.89
342.8651, 15446.16
343.3473, 15489.15
343.8294, 15483.15
344.3115, 15424.00
344.7936, 15243.03
345.2757, 14920.19
345.7578, 14513.31
346.2400, 14100.65
346.7221, 13685.41
347.2042, 13236.42
347.6863, 12714.31
348.1684, 12141.64
348.6505, 11583.03
349.1327, 11033.96
349.6148, 10505.72
350.0969, 10005.19
350.5790, 9533.211
351.0611, 9093.879
351.5432, 8695.322
352.0254, 8329.970
352.5075, 7981.401
352.9896, 7650.751
353.4717, 7337.425
353.9538, 7040.716
354.4359, 6762.121
354.9181, 6513.527
355.4002, 6316.907
355.8823, 6141.974
356.3644, 5956.572
356.8465, 5760.086
357.3286, 5581.387
357.8108, 5443.077
358.2929, 5331.784
358.7750, 5226.868
359.2571, 5123.515
359.7392, 5022.531
360.2213, 4924.625
360.7035, 4829.681
361.1856, 4736.395
361.6677, 4641.236
362.1498, 4548.981
362.6319, 4462.653
363.1140, 4385.437
363.5962, 4311.800
364.0783, 4238.071
364.5604, 4165.334
365.0425, 4101.414
365.5246, 4048.595
366.0067, 4004.753
366.4889, 3968.558
366.9710, 3943.575
367.4531, 3921.459
367.9352, 3906.127
368.4173, 3894.641
368.8994, 3873.367
369.3815, 3818.352
369.8636, 3774.375
370.3458, 3762.716
370.8279, 3811.118
371.3100, 3843.827
371.7921, 3853.620
372.2742, 3849.472
372.7563, 3852.656
373.2385, 3861.819
373.7206, 3880.456
374.2027, 3910.921
374.6848, 3955.246
375.1669, 4002.024
375.6490, 4050.848
376.1312, 4102.538
376.6133, 4158.807
377.0954, 4219.426
377.5775, 4286.525
378.0596, 4363.346
378.5417, 4448.391
379.0239, 4534.793
379.5060, 4621.670
379.9881, 4710.516
380.4702, 4803.838
380.9523, 4902.095
381.4344, 4995.877
381.9166, 5092.734
382.3987, 5180.879
382.8808, 5228.046
383.3629, 5232.874
383.8450, 5210.882
384.3271, 5167.214
384.8093, 5106.860
385.2914, 5047.437
385.7735, 5002.299
386.2556, 4953.558
386.7377, 4868.065
387.2198, 4751.245
387.7020, 4640.849
388.1841, 4561.248
388.6662, 4506.633
389.1483, 4469.619
389.6304, 4453.143
390.1125, 4447.173
390.5947, 4441.625
391.0768, 4439.696
391.5589, 4451.493
392.0410, 4485.398
392.5231, 4532.799
393.0052, 4588.489
393.4874, 4652.380
393.9695, 4722.175
394.4516, 4791.096
394.9337, 4866.193
395.4158, 4960.405
395.8979, 5107.593
396.3801, 5248.769
396.8622, 5355.497
397.3443, 5414.583
397.8264, 5478.664
398.3085, 5568.487
398.7906, 5661.420
399.2728, 5729.595
399.7549, 5766.229
400.2370, 5785.243
400.7191, 5791.472
401.2012, 5786.012
401.6833, 5750.715
402.1655, 5671.029
402.6476, 5576.729
403.1297, 5494.775
403.6118, 5434.822
404.0939, 5361.769
404.5760, 5261.805
405.0582, 5144.160
405.5403, 5065.619
406.0224, 5037.266
406.5045, 5017.733
406.9866, 4972.069
407.4688, 4897.173
407.9509, 4850.763
408.4330, 4844.329
408.9151, 4860.937
409.3972, 4862.065
409.8793, 4847.683
410.3615, 4844.682
410.8436, 4875.821
411.3257, 4931.611
411.8078, 4977.955
412.2899, 5011.297
412.7720, 5042.742
413.2542, 5085.955
413.7363, 5137.821
414.2184, 5189.967
414.7005, 5255.195
415.1826, 5309.703
415.6647, 5317.584
416.1469, 5277.269
416.6290, 5228.783
417.1111, 5206.492
417.5932, 5191.663
418.0753, 5160.706
418.5574, 5104.313
419.0396, 5030.296
419.5217, 4937.713
420.0038, 4828.916
420.4859, 4713.705
420.9680, 4595.309
421.4501, 4472.615
421.9323, 4348.301
422.4144, 4227.793
422.8965, 4096.219
423.3786, 3936.801
423.8607, 3762.592
424.3428, 3609.522
424.8250, 3495.387
425.3071, 3387.513
425.7892, 3274.277
426.2713, 3144.176
426.7534, 3035.797
427.2355, 2961.460
427.7177, 2900.880
428.1998, 2822.340
428.6819, 2709.461
429.1640, 2615.704
429.6461, 2559.562
430.1282, 2540.819
430.6104, 2514.510
431.0925, 2478.866
431.5746, 2440.096
432.0567, 2404.570
432.5388, 2372.338
433.0209, 2340.103
433.5031, 2305.528
433.9852, 2271.936
434.4673, 2245.251
434.9494, 2225.618
435.4315, 2215.220
435.9136, 2222.592
436.3958, 2240.599
436.8779, 2249.771
437.3600, 2245.030
437.8421, 2237.543
438.3242, 2241.913
438.8063, 2253.940
439.2885, 2261.793
439.7706, 2251.492
440.2527, 2238.893
440.7348, 2239.677
441.2169, 2256.052
441.6990, 2274.994
442.1812, 2293.270
442.6633, 2308.633
443.1454, 2318.684
443.6275, 2321.527
444.1096, 2319.930
444.5917, 2310.836
445.0739, 2295.286
445.5560, 2287.447
446.0381, 2293.587
446.5202, 2305.872
447.0023, 2319.754
447.4844, 2340.105
447.9666, 2355.085
448.4487, 2356.060
448.9308, 2352.323
449.4129, 2372.918
449.8950, 2440.653
450.3771, 2494.339
450.8592, 2502.405
451.3413, 2451.885
451.8235, 2434.440
452.3056, 2460.815
452.7877, 2503.261
453.2698, 2523.844
453.7519, 2520.485
454.2340, 2518.147
454.7162, 2526.967
455.1983, 2541.801
455.6804, 2542.895
456.1625, 2529.605
456.6446, 2513.222
457.1267, 2501.886
457.6089, 2494.926
458.0910, 2490.498
458.5731, 2489.845
459.0552, 2488.719
459.5373, 2480.373
460.0194, 2466.941
460.5016, 2455.314
460.9837, 2457.276
461.4658, 2458.351
461.9479, 2440.554
462.4300, 2396.842
462.9121, 2362.991
463.3943, 2369.008
463.8764, 2392.517
464.3585, 2404.537
464.8406, 2386.368
465.3227, 2365.308
465.8048, 2349.000
466.2870, 2337.723
466.7691, 2329.035
467.2512, 2318.192
467.7333, 2312.932
468.2154, 2318.843
468.6975, 2352.175
469.1797, 2369.606
469.6618, 2362.611
470.1439, 2340.237
470.6260, 2326.475
471.1081, 2324.478
471.5902, 2323.459
472.0724, 2320.067
472.5545, 2314.443
473.0366, 2301.217
473.5187, 2277.928
474.0008, 2254.292
474.4829, 2244.678
474.9651, 2247.806
475.4472, 2247.889
475.9293, 2238.424
476.4114, 2224.182
476.8935, 2214.548
477.3756, 2209.423
477.8578, 2206.130
478.3399, 2199.652
478.8220, 2194.732
479.3041, 2200.239
479.7862, 2222.289
480.2683, 2243.885
480.7505, 2249.870
481.2326, 2245.946
481.7147, 2244.226
482.1968, 2249.569
482.6789, 2258.430
483.1610, 2270.416
483.6432, 2286.076
484.1253, 2298.802
484.6074, 2306.631
485.0895, 2310.750
485.5716, 2312.248
486.0537, 2314.491
486.5359, 2309.794
487.0180, 2294.541
487.5001, 2271.201
487.9822, 2250.829
488.4643, 2233.126
488.9464, 2219.234
489.4286, 2211.383
489.9107, 2212.044
490.3928, 2205.340
490.8749, 2189.144
491.3570, 2169.309
491.8391, 2154.021
492.3213, 2143.419
492.8034, 2133.572
493.2855, 2122.307
493.7676, 2111.350
494.2497, 2106.351
494.7318, 2107.238
495.2140, 2107.548
495.6961, 2099.208
496.1782, 2087.278
496.6603, 2081.416
497.1424, 2085.755
497.6245, 2091.535
498.1067, 2089.143
498.5888, 2082.776
499.0709, 2082.183
499.5530, 2097.105
500.0351, 2114.370
500.5172, 2126.037
500.9994, 2130.114
501.4815, 2137.315
501.9636, 2157.347
502.4457, 2177.903
502.9278, 2187.814
503.4099, 2168.030
503.8921, 2161.102
504.3742, 2176.863
504.8563, 2208.952
505.3384, 2229.156
505.8205, 2229.212
506.3026, 2233.388
506.7848, 2256.746
507.2669, 2303.873
507.7490, 2336.814
508.2311, 2351.876
508.7132, 2361.576
509.1953, 2382.116
509.6775, 2412.803
510.1596, 2447.686
510.6417, 2486.210
511.1238, 2526.397
511.6059, 2563.027
512.0880, 2596.714
512.5701, 2632.947
513.0522, 2676.104
513.5344, 2724.164
514.0165, 2774.989
514.4986, 2828.730
514.9807, 2883.400
515.4628, 2943.198
515.9449, 3002.520
516.4271, 3051.052
516.9092, 3071.935
517.3913, 3094.818
517.8734, 3135.009
518.3555, 3194.048
518.8376, 3242.681
519.3198, 3275.717
519.8019, 3298.753
520.2840, 3314.865
520.7661, 3321.079
521.2482, 3326.003
521.7303, 3330.192
522.2125, 3333.163
522.6946, 3330.119
523.1767, 3316.202
523.6588, 3316.891
524.1409, 3353.181
524.6230, 3416.832
525.1052, 3447.888
525.5873, 3444.037
526.0694, 3425.995
526.5515, 3414.966
527.0336, 3406.170
527.5157, 3384.219
527.9979, 3341.016
528.4800, 3292.238
528.9621, 3250.672
529.4442, 3216.987
529.9263, 3191.841
530.4084, 3181.943
530.8906, 3176.474
531.3727, 3165.509
531.8548, 3146.220
532.3369, 3137.695
532.8190, 3148.310
533.3011, 3171.438
533.7833, 3200.863
534.2654, 3234.563
534.7475, 3276.481
535.2296, 3331.333
535.7117, 3395.151
536.1938, 3454.481
536.6760, 3513.102
537.1581, 3561.989
537.6402, 3600.159
538.1223, 3628.298
538.6044, 3631.185
539.0865, 3604.639
539.5687, 3565.239
540.0508, 3536.219
540.5329, 3514.118
541.0150, 3474.848
541.4971, 3409.146
541.9792, 3327.504
542.4614, 3237.921
542.9435, 3144.400
543.4256, 3065.629
543.9077, 3018.590
544.3898, 2988.324
544.8719, 2961.052
545.3541, 2935.068
545.8362, 2914.046
546.3183, 2900.844
546.8004, 2892.861
547.2825, 2887.144
547.7646, 2883.889
548.2468, 2881.891
548.7289, 2879.117
549.2110, 2876.949
549.6931, 2882.564
550.1752, 2908.646
550.6573, 2925.128
551.1395, 2916.351
551.6216, 2876.157
552.1037, 2848.739
552.5858, 2838.143
553.0679, 2831.167
553.5500, 2812.547
554.0322, 2782.801
554.5143, 2749.266
554.9964, 2711.370
555.4785, 2673.436
555.9606, 2645.216
556.4427, 2625.182
556.9249, 2605.706
557.4070, 2579.266
557.8891, 2552.363
558.3712, 2531.697
558.8533, 2518.014
559.3354, 2510.444
559.8176, 2512.928
560.2997, 2519.182
560.7818, 2522.770
561.2639, 2519.792
561.7460, 2516.404
562.2281, 2508.516
562.7103, 2500.213
563.1924, 2506.875
563.6745, 2540.680
564.1566, 2573.186
564.6387, 2592.655
565.1208, 2597.180
565.6030, 2609.083
566.0851, 2629.794
566.5672, 2654.393
567.0493, 2676.619
567.5314, 2696.554
568.0135, 2724.977
568.4957, 2765.965
568.9778, 2812.199
569.4599, 2848.206
569.9420, 2877.456
570.4241, 2913.042
570.9063, 2964.148
571.3884, 3023.937
571.8705, 3089.100
572.3526, 3158.812
572.8347, 3227.947
573.3168, 3295.271
573.7990, 3359.429
574.2811, 3417.917
574.7632, 3464.015
575.2453, 3514.444
575.7274, 3583.190
576.2095, 3656.642
576.6917, 3706.845
577.1738, 3729.910
577.6559, 3735.889
578.1380, 3725.680
578.6201, 3699.691
579.1022, 3665.936
579.5844, 3625.951
580.0665, 3572.419
580.5486, 3495.801
581.0307, 3398.286
581.5128, 3298.014
581.9949, 3194.963
582.4771, 3096.796
582.9592, 3009.903
583.4413, 2935.181
583.9234, 2874.854
584.4055, 2840.863
584.8876, 2812.871
585.3698, 2774.527
585.8519, 2728.175
586.3340, 2685.421
586.8161, 2653.167
587.2982, 2625.285
587.7803, 2597.365
588.2625, 2564.503
588.7446, 2543.939
589.2267, 2544.840
589.7088, 2552.397
590.1909, 2550.651
590.6730, 2536.692
591.1552, 2520.872
591.6373, 2502.995
592.1194, 2485.452
592.6015, 2476.598
593.0836, 2476.864
593.5657, 2478.104
594.0479, 2477.895
594.5300, 2475.086
595.0121, 2465.293
595.4942, 2448.204
595.9763, 2430.243
596.4584, 2419.592
596.9406, 2410.326
597.4227, 2393.547
597.9048, 2360.658
598.3869, 2331.043
598.8690, 2315.232
599.3511, 2308.676
599.8333, 2302.175
600.3154, 2296.524
600.7975, 2287.844
601.2796, 2273.572
601.7617, 2253.919
602.2438, 2237.880
602.7260, 2225.181
603.2081, 2216.697
603.6902, 2214.002
604.1723, 2217.546
604.6544, 2221.904
605.1365, 2227.638
605.6187, 2231.732
606.1008, 2228.646
606.5829, 2219.955
607.0650, 2212.156
607.5471, 2207.059
608.0292, 2204.036
608.5114, 2203.036
608.9935, 2203.653
609.4756, 2204.495
609.9577, 2198.678
610.4398, 2197.556
610.9219, 2213.309
611.4041, 2251.226
611.8862, 2274.129
612.3683, 2259.021
612.8504, 2236.296
613.3325, 2229.382
613.8146, 2247.157
614.2968, 2263.206
614.7789, 2275.218
615.2610, 2285.834
615.7431, 2302.032
616.2252, 2324.971
616.7073, 2340.906
617.1895, 2340.719
617.6716, 2331.666
618.1537, 2335.528
618.6358, 2351.301
619.1179, 2366.077
619.6000, 2366.486
620.0822, 2362.646
620.5643, 2368.096
621.0464, 2386.124
621.5285, 2404.354
622.0106, 2411.226
622.4927, 2416.695
622.9749, 2431.393
623.4570, 2473.278
623.9391, 2505.692
624.4212, 2517.078
624.9033, 2516.236
625.3854, 2525.305
625.8676, 2546.039
626.3497, 2572.771
626.8318, 2605.490
