##NAMES=Eosphorite
##RRUFFID=R050570
##IDEAL CHEMISTRY=Mn^2+^AlPO_4_(OH)_2_&#183;H_2_O
##LOCALITY=Lavra da Ilha, Minas Gerais, Brazil
##OWNER=RRUFF
##SOURCE=University of Arizona Mineral Museum
##DESCRIPTION=Pale brown prismatic crystals with wedge-shaped terminations
##STATUS=The identification of this mineral has been confirmed by X-ray diffraction and chemical analysis
##URL=rruff.info/R050570
##MEASURED CHEMISTRY=(Mn_0.42_Fe^2+^_0.40_Ca_0.13_Mg_0.05_)Al(PO_4_)((OH)_0.96_F_0.04_)_2_Î‡H_2_O
91.11523, 68.91795
91.59735, 70.33179
92.07947, 69.55244
92.56158, 67.06068
93.04370, 64.35658
93.52582, 61.77362
94.00793, 59.61659
94.49006, 58.80613
94.97218, 59.70827
95.45429, 61.35613
95.93641, 62.42360
96.41853, 62.91400
96.90064, 62.96547
97.38276, 62.30446
97.86488, 61.04609
98.34699, 60.57691
98.82911, 61.43502
99.31123, 63.06573
99.79334, 63.39916
100.2755, 62.09701
100.7576, 60.66047
101.2397, 60.62619
101.7218, 62.36965
102.2039, 63.72152
102.6861, 64.20010
103.1682, 63.81512
103.6503, 63.14984
104.1324, 61.85182
104.6145, 60.65508
105.0966, 60.54198
105.5788, 62.24977
106.0609, 63.74995
106.5430, 64.25237
107.0251, 63.04752
107.5072, 63.42469
107.9893, 66.02396
108.4715, 70.05546
108.9536, 74.13206
109.4357, 80.04549
109.9178, 84.42539
110.3999, 85.83432
110.8820, 79.91362
111.3642, 78.16840
111.8463, 83.18394
112.3284, 92.92862
112.8105, 101.7555
113.2926, 110.7590
113.7747, 117.5772
114.2569, 120.8455
114.7390, 115.5412
115.2211, 112.2652
115.7032, 113.5587
116.1853, 118.9850
116.6674, 126.2925
117.1496, 135.1507
117.6317, 145.4963
118.1138, 157.1771
118.5959, 170.9637
119.0780, 185.4889
119.5602, 199.3044
120.0423, 212.6737
120.5244, 228.3896
121.0065, 249.0637
121.4886, 272.8259
121.9707, 297.3149
122.4529, 321.4838
122.9350, 345.7572
123.4171, 370.7321
123.8992, 396.5293
124.3813, 421.7797
124.8634, 445.8277
125.3456, 468.5218
125.8277, 489.6049
126.3098, 508.1618
126.7919, 525.0774
127.2740, 540.7605
127.7561, 554.6683
128.2383, 569.6905
128.7204, 589.6569
129.2025, 614.0217
129.6846, 639.9198
130.1667, 664.4398
130.6488, 688.7578
131.1310, 718.7030
131.6131, 756.1874
132.0952, 797.2842
132.5773, 834.9125
133.0594, 869.1702
133.5415, 903.0140
134.0237, 939.1696
134.5058, 977.6191
134.9879, 1015.352
135.4700, 1052.342
135.9521, 1088.304
136.4343, 1123.737
136.9164, 1158.996
137.3985, 1192.710
137.8806, 1224.965
138.3627, 1256.497
138.8448, 1282.426
139.3270, 1300.846
139.8091, 1312.733
140.2912, 1326.731
140.7733, 1343.844
141.2554, 1361.531
141.7375, 1376.708
142.2197, 1388.396
142.7018, 1400.561
143.1839, 1413.844
143.6660, 1428.130
144.1481, 1444.140
144.6302, 1460.969
145.1124, 1480.184
145.5945, 1503.926
146.0766, 1536.568
146.5587, 1567.417
147.0408, 1592.661
147.5230, 1615.921
148.0051, 1636.689
148.4872, 1653.010
148.9693, 1669.020
149.4514, 1682.623
149.9335, 1692.309
150.4157, 1701.536
150.8978, 1711.019
151.3799, 1720.815
151.8620, 1731.222
152.3441, 1742.742
152.8262, 1754.926
153.3084, 1766.651
153.7905, 1779.421
154.2726, 1790.477
154.7547, 1798.949
155.2368, 1803.884
155.7189, 1807.509
156.2011, 1809.464
156.6832, 1810.244
157.1653, 1811.031
157.6474, 1810.981
158.1295, 1811.670
158.6116, 1813.917
159.0938, 1818.643
159.5759, 1823.719
160.0580, 1828.837
160.5401, 1833.905
161.0222, 1838.661
161.5044, 1842.342
161.9865, 1846.036
162.4686, 1850.467
162.9507, 1855.814
163.4328, 1861.888
163.9149, 1869.090
164.3971, 1877.226
164.8792, 1884.981
165.3613, 1891.070
165.8434, 1896.823
166.3255, 1903.484
166.8076, 1911.723
167.2898, 1920.651
167.7719, 1930.325
168.2540, 1940.620
168.7361, 1950.300
169.2182, 1957.752
169.7003, 1964.458
170.1825, 1972.188
170.6646, 1983.761
171.1467, 1995.116
171.6288, 2003.056
172.1109, 2007.573
172.5931, 2010.544
173.0752, 2011.824
173.5573, 2012.578
174.0394, 2014.729
174.5215, 2020.526
175.0036, 2027.301
175.4858, 2032.126
175.9679, 2034.991
176.4500, 2036.666
176.9321, 2037.648
177.4142, 2037.966
177.8963, 2037.682
178.3785, 2036.184
178.8606, 2034.309
179.3427, 2033.339
179.8248, 2033.296
180.3069, 2033.984
180.7890, 2035.909
181.2712, 2038.575
181.7533, 2040.361
182.2354, 2039.885
182.7175, 2038.069
183.1996, 2036.461
183.6818, 2034.884
184.1639, 2034.594
184.6460, 2038.327
185.1281, 2045.220
185.6102, 2050.939
186.0923, 2052.715
186.5745, 2051.580
187.0566, 2050.381
187.5387, 2049.009
188.0208, 2048.409
188.5029, 2050.489
188.9850, 2055.031
189.4672, 2059.287
189.9493, 2061.431
190.4314, 2061.974
190.9135, 2063.810
191.3956, 2067.371
191.8777, 2071.535
192.3599, 2074.528
192.8420, 2076.328
193.3241, 2078.247
193.8062, 2081.114
194.2883, 2084.826
194.7704, 2088.020
195.2526, 2090.377
195.7347, 2092.536
196.2168, 2095.714
196.6989, 2099.928
197.1810, 2104.460
197.6632, 2109.217
198.1453, 2114.213
198.6274, 2117.833
199.1095, 2119.326
199.5916, 2120.332
200.0737, 2124.822
200.5559, 2133.412
201.0380, 2141.766
201.5201, 2147.213
202.0022, 2149.597
202.4843, 2152.570
202.9664, 2156.367
203.4486, 2160.926
203.9307, 2166.188
204.4128, 2172.229
204.8949, 2178.592
205.3770, 2185.521
205.8591, 2193.382
206.3413, 2198.973
206.8234, 2201.551
207.3055, 2202.137
207.7876, 2203.539
208.2697, 2206.177
208.7519, 2208.172
209.2340, 2208.613
209.7161, 2207.448
210.1982, 2204.617
210.6803, 2199.414
211.1624, 2192.930
211.6446, 2188.109
212.1267, 2185.175
212.6088, 2183.517
213.0909, 2183.386
213.5730, 2185.757
214.0551, 2185.815
214.5373, 2182.304
215.0194, 2176.839
215.5015, 2174.146
215.9836, 2175.346
216.4657, 2177.081
216.9478, 2177.392
217.4300, 2175.351
217.9121, 2174.968
218.3942, 2177.127
218.8763, 2180.728
219.3584, 2182.138
219.8405, 2179.457
220.3227, 2177.925
220.8048, 2180.654
221.2869, 2189.723
221.7690, 2196.866
222.2511, 2200.796
222.7333, 2202.891
223.2154, 2207.091
223.6975, 2214.123
224.1796, 2222.184
224.6617, 2230.457
225.1438, 2238.802
225.6260, 2247.927
226.1081, 2258.358
226.5902, 2269.510
227.0723, 2279.195
227.5544, 2286.741
228.0365, 2294.141
228.5187, 2302.711
229.0008, 2314.208
229.4829, 2322.437
229.9650, 2326.582
230.4471, 2327.599
230.9292, 2327.875
231.4114, 2326.440
231.8935, 2325.596
232.3756, 2326.600
232.8577, 2330.957
233.3398, 2333.374
233.8220, 2333.042
234.3041, 2330.991
234.7862, 2329.685
235.2683, 2328.976
235.7504, 2329.273
236.2325, 2331.043
236.7147, 2335.340
237.1968, 2338.371
237.6789, 2339.165
238.1610, 2339.204
238.6431, 2341.832
239.1252, 2348.486
239.6074, 2355.717
240.0895, 2362.226
240.5716, 2367.521
241.0537, 2373.413
241.5358, 2379.941
242.0179, 2387.040
242.5001, 2394.827
242.9822, 2404.485
243.4643, 2412.763
243.9464, 2417.853
244.4285, 2417.804
244.9106, 2421.094
245.3928, 2429.832
245.8749, 2440.548
246.3570, 2446.995
246.8391, 2446.900
247.3212, 2446.331
247.8034, 2447.422
248.2855, 2450.899
248.7676, 2453.031
249.2497, 2453.816
249.7318, 2453.344
250.2139, 2451.601
250.6961, 2447.961
251.1782, 2444.314
251.6603, 2441.358
252.1424, 2439.381
252.6245, 2436.601
253.1066, 2433.065
253.5888, 2428.731
254.0709, 2423.467
254.5530, 2417.225
255.0351, 2410.023
255.5172, 2401.190
255.9993, 2390.212
256.4815, 2383.023
256.9636, 2382.286
257.4457, 2382.535
257.9278, 2377.098
258.4099, 2363.469
258.8921, 2349.800
259.3742, 2337.984
259.8563, 2328.163
260.3384, 2317.278
260.8205, 2304.967
261.3026, 2292.235
261.7848, 2279.949
262.2669, 2268.435
262.7490, 2256.805
263.2311, 2245.237
263.7132, 2233.614
264.1953, 2220.389
264.6775, 2204.706
265.1596, 2188.940
265.6417, 2175.146
266.1238, 2163.641
266.6059, 2153.154
267.0880, 2143.829
267.5702, 2135.424
268.0523, 2126.699
268.5344, 2117.076
269.0165, 2108.119
269.4986, 2101.422
269.9807, 2097.772
270.4629, 2092.432
270.9450, 2084.148
271.4271, 2073.854
271.9092, 2065.267
272.3913, 2058.152
272.8734, 2053.388
273.3556, 2051.969
273.8377, 2054.282
274.3198, 2057.213
274.8019, 2060.491
275.2840, 2064.211
275.7661, 2068.598
276.2483, 2073.559
276.7304, 2079.495
277.2125, 2086.949
277.6946, 2096.116
278.1768, 2104.365
278.6589, 2111.257
279.1410, 2117.562
279.6231, 2124.501
280.1052, 2132.043
280.5873, 2141.022
281.0695, 2152.331
281.5516, 2165.983
282.0337, 2178.703
282.5158, 2189.926
282.9979, 2201.245
283.4800, 2215.807
283.9622, 2233.767
284.4443, 2251.262
284.9264, 2265.808
285.4085, 2277.809
285.8906, 2292.319
286.3727, 2309.550
286.8549, 2328.408
287.3370, 2348.061
287.8191, 2368.432
288.3012, 2388.277
288.7833, 2407.056
289.2654, 2424.771
289.7476, 2441.358
290.2297, 2456.656
290.7118, 2472.211
291.1939, 2490.535
291.6760, 2510.918
292.1581, 2529.851
292.6403, 2545.667
293.1224, 2559.684
293.6045, 2575.513
294.0866, 2593.048
294.5687, 2610.803
295.0508, 2627.436
295.5330, 2643.253
296.0151, 2658.862
296.4972, 2674.308
296.9793, 2690.070
297.4614, 2706.829
297.9435, 2724.562
298.4257, 2742.015
298.9078, 2757.871
299.3899, 2772.749
299.8720, 2787.719
300.3541, 2803.442
300.8362, 2818.666
301.3184, 2831.303
301.8005, 2842.003
302.2826, 2852.883
302.7647, 2866.311
303.2469, 2880.446
303.7290, 2893.125
304.2111, 2904.110
304.6932, 2912.981
305.1753, 2919.047
305.6574, 2922.516
306.1396, 2923.642
306.6217, 2920.578
307.1038, 2916.258
307.5859, 2914.442
308.0680, 2915.687
308.5501, 2915.805
309.0323, 2911.054
309.5144, 2903.173
309.9965, 2894.969
310.4786, 2889.202
310.9607, 2882.316
311.4428, 2871.301
311.9250, 2856.266
312.4071, 2839.723
312.8892, 2822.164
313.3713, 2804.636
313.8534, 2788.104
314.3355, 2774.180
314.8177, 2760.353
315.2998, 2745.186
315.7819, 2728.978
316.2640, 2712.870
316.7461, 2697.776
317.2282, 2682.907
317.7104, 2667.622
318.1925, 2652.651
318.6746, 2635.921
319.1567, 2614.876
319.6388, 2591.207
320.1209, 2570.011
320.6031, 2553.912
321.0852, 2539.903
321.5673, 2526.399
322.0494, 2513.235
322.5315, 2500.538
323.0136, 2488.032
323.4958, 2476.099
323.9779, 2465.348
324.4600, 2456.889
324.9421, 2448.736
325.4242, 2440.193
325.9064, 2430.901
326.3885, 2422.580
326.8706, 2415.544
327.3527, 2409.518
327.8348, 2404.099
328.3170, 2398.933
328.7991, 2394.722
329.2812, 2391.846
329.7633, 2390.303
330.2454, 2388.689
330.7275, 2387.120
331.2097, 2385.305
331.6918, 2382.926
332.1739, 2378.815
332.6560, 2375.948
333.1381, 2375.204
333.6202, 2375.983
334.1024, 2375.495
334.5845, 2373.180
335.0666, 2370.406
335.5487, 2367.953
336.0308, 2366.230
336.5129, 2363.675
336.9951, 2359.731
337.4772, 2355.405
337.9593, 2352.653
338.4414, 2351.855
338.9235, 2351.793
339.4056, 2352.702
339.8878, 2354.902
340.3699, 2353.749
340.8520, 2348.172
341.3341, 2341.335
341.8162, 2336.891
342.2983, 2334.923
342.7805, 2334.813
343.2626, 2337.207
343.7447, 2341.329
344.2268, 2343.051
344.7089, 2342.168
345.1910, 2339.825
345.6732, 2336.339
346.1553, 2331.902
346.6374, 2328.853
347.1195, 2328.062
347.6016, 2328.375
348.0837, 2327.387
348.5659, 2325.178
349.0480, 2322.924
349.5301, 2321.505
350.0122, 2320.716
350.4944, 2319.985
350.9765, 2319.204
351.4586, 2318.781
351.9407, 2320.169
352.4228, 2322.602
352.9049, 2323.479
353.3871, 2319.479
353.8692, 2314.027
354.3513, 2311.847
354.8334, 2313.258
355.3155, 2315.603
355.7976, 2317.407
356.2798, 2318.587
356.7619, 2319.037
357.2440, 2316.942
357.7261, 2315.411
358.2082, 2317.716
358.6903, 2323.206
359.1725, 2327.544
359.6546, 2327.064
360.1367, 2324.999
360.6188, 2324.328
361.1009, 2327.120
361.5830, 2329.289
362.0652, 2328.824
362.5473, 2326.424
363.0294, 2323.800
363.5115, 2321.559
363.9936, 2319.252
364.4757, 2316.483
364.9579, 2312.766
365.4400, 2310.087
365.9221, 2309.611
366.4042, 2310.181
366.8863, 2310.325
367.3684, 2309.813
367.8506, 2308.956
368.3327, 2307.529
368.8148, 2305.445
369.2969, 2304.323
369.7790, 2305.090
370.2611, 2306.165
370.7433, 2306.461
371.2254, 2305.722
371.7075, 2304.485
372.1896, 2301.948
372.6717, 2298.822
373.1538, 2298.427
373.6360, 2302.457
374.1181, 2306.394
374.6002, 2308.011
375.0823, 2306.757
375.5645, 2304.942
376.0466, 2302.073
376.5287, 2299.210
377.0108, 2298.625
377.4929, 2301.019
377.9750, 2302.358
378.4572, 2300.450
378.9393, 2295.907
379.4214, 2295.042
379.9035, 2298.534
380.3856, 2302.961
380.8677, 2304.864
381.3499, 2304.405
381.8320, 2303.687
382.3141, 2302.927
382.7962, 2302.376
383.2783, 2302.638
383.7604, 2303.664
384.2426, 2304.949
384.7247, 2306.381
385.2068, 2307.772
385.6889, 2308.608
386.1710, 2308.653
386.6531, 2308.820
387.1353, 2311.111
387.6174, 2314.420
388.0995, 2315.906
388.5816, 2311.749
389.0637, 2306.636
389.5458, 2305.766
390.0280, 2309.158
390.5101, 2313.132
390.9922, 2315.543
391.4743, 2317.112
391.9564, 2318.632
392.4385, 2320.094
392.9207, 2321.857
393.4028, 2324.394
393.8849, 2327.403
394.3670, 2330.018
394.8491, 2331.229
395.3312, 2332.380
395.8134, 2334.330
396.2955, 2337.576
396.7776, 2340.479
397.2597, 2342.488
397.7418, 2343.983
398.2239, 2345.473
398.7061, 2345.799
399.1882, 2347.380
399.6703, 2351.980
400.1524, 2359.876
400.6346, 2364.340
401.1167, 2363.484
401.5988, 2360.812
402.0809, 2358.598
402.5630, 2357.197
403.0451, 2355.468
403.5273, 2353.040
404.0094, 2350.295
404.4915, 2348.781
404.9736, 2349.594
405.4557, 2348.835
405.9378, 2343.905
406.4200, 2334.192
406.9021, 2327.782
407.3842, 2325.691
407.8663, 2324.715
408.3484, 2320.510
408.8305, 2313.013
409.3127, 2306.080
409.7948, 2300.995
410.2769, 2297.160
410.7590, 2293.096
411.2411, 2288.822
411.7232, 2284.385
412.2054, 2279.499
412.6875, 2274.413
413.1696, 2269.840
413.6517, 2265.679
414.1338, 2262.433
414.6159, 2261.536
415.0981, 2262.132
415.5802, 2261.936
416.0623, 2258.620
416.5444, 2254.544
417.0265, 2252.416
417.5086, 2252.242
417.9908, 2251.928
418.4729, 2250.267
418.9550, 2247.688
419.4371, 2244.628
419.9192, 2240.354
420.4013, 2236.617
420.8835, 2234.427
421.3656, 2233.421
421.8477, 2232.444
422.3298, 2230.822
422.8119, 2229.490
423.2940, 2228.878
423.7762, 2229.130
424.2583, 2229.884
424.7404, 2231.533
425.2225, 2233.513
425.7047, 2235.171
426.1868, 2235.190
426.6689, 2236.697
427.1510, 2241.286
427.6331, 2248.455
428.1152, 2252.233
428.5974, 2250.503
429.0795, 2248.606
429.5616, 2250.042
430.0437, 2255.837
430.5258, 2260.223
431.0079, 2262.095
431.4901, 2263.455
431.9722, 2268.223
432.4543, 2276.656
432.9364, 2285.506
433.4185, 2293.470
433.9006, 2300.727
434.3828, 2307.533
434.8649, 2313.776
435.3470, 2320.979
435.8291, 2331.743
436.3112, 2344.830
436.7933, 2355.656
437.2755, 2362.586
437.7576, 2368.747
438.2397, 2377.837
438.7218, 2389.400
439.2039, 2401.852
439.6860, 2413.895
440.1682, 2426.769
440.6503, 2441.388
441.1324, 2457.925
441.6145, 2475.884
442.0966, 2495.486
442.5787, 2516.074
443.0609, 2536.943
443.5430, 2557.551
444.0251, 2578.624
444.5072, 2600.890
444.9893, 2623.865
445.4714, 2646.141
445.9536, 2664.406
446.4357, 2684.586
446.9178, 2709.750
447.3999, 2742.375
447.8820, 2774.085
448.3641, 2804.344
448.8463, 2834.049
449.3284, 2864.526
449.8105, 2894.791
450.2926, 2927.327
450.7747, 2963.438
451.2569, 3002.512
451.7390, 3038.802
452.2211, 3070.799
452.7032, 3104.622
453.1853, 3145.079
453.6674, 3193.022
454.1496, 3236.938
454.6317, 3275.698
455.1138, 3312.732
455.5959, 3352.363
456.0780, 3394.699
456.5602, 3437.421
457.0423, 3479.853
457.5244, 3521.987
458.0065, 3564.758
458.4886, 3607.774
458.9707, 3650.553
459.4529, 3693.616
459.9350, 3735.871
460.4171, 3773.544
460.8992, 3805.759
461.3813, 3837.279
461.8634, 3873.537
462.3456, 3911.610
462.8277, 3945.732
463.3098, 3972.979
463.7919, 3996.712
464.2740, 4019.279
464.7561, 4040.458
465.2383, 4056.866
465.7204, 4066.539
466.2025, 4071.675
466.6846, 4073.450
467.1667, 4071.864
467.6488, 4066.990
468.1310, 4058.194
468.6131, 4046.237
469.0952, 4032.215
469.5773, 4017.370
470.0594, 3998.532
470.5415, 3974.437
471.0237, 3945.280
471.5058, 3913.736
471.9879, 3879.983
472.4700, 3843.386
472.9521, 3804.237
473.4342, 3762.485
473.9164, 3716.297
474.3985, 3664.297
474.8806, 3609.331
475.3627, 3555.704
475.8448, 3503.246
476.3270, 3449.864
476.8091, 3393.490
477.2912, 3336.567
477.7733, 3284.966
478.2554, 3238.435
478.7375, 3193.229
479.2197, 3146.594
479.7018, 3099.326
480.1839, 3052.590
480.6660, 3006.085
481.1481, 2962.057
481.6302, 2923.563
482.1124, 2888.418
482.5945, 2852.917
483.0766, 2813.585
483.5587, 2775.403
484.0408, 2740.869
484.5229, 2710.134
485.0051, 2680.851
485.4872, 2652.879
485.9693, 2625.965
486.4514, 2600.261
486.9335, 2575.961
487.4156, 2552.176
487.8978, 2528.253
488.3799, 2505.315
488.8620, 2484.387
489.3441, 2465.747
489.8262, 2448.415
490.3083, 2432.260
490.7905, 2417.089
491.2726, 2401.870
491.7547, 2386.362
492.2368, 2371.504
492.7189, 2358.355
493.2010, 2346.638
493.6832, 2335.979
494.1653, 2326.442
494.6474, 2317.098
495.1295, 2305.824
495.6116, 2293.500
496.0938, 2282.765
496.5759, 2275.300
497.0580, 2269.335
497.5401, 2263.334
498.0222, 2257.285
498.5044, 2251.444
498.9865, 2245.743
499.4686, 2240.377
499.9507, 2235.755
500.4328, 2232.356
500.9149, 2228.106
501.3971, 2221.390
501.8792, 2213.775
502.3613, 2207.064
502.8434, 2201.597
503.3255, 2196.911
503.8076, 2193.015
504.2898, 2189.827
504.7719, 2187.111
505.2540, 2185.114
505.7361, 2183.178
506.2182, 2181.095
506.7003, 2178.935
507.1825, 2176.156
507.6646, 2172.765
508.1467, 2168.767
508.6288, 2163.777
509.1109, 2157.823
509.5930, 2152.786
510.0752, 2149.131
510.5573, 2146.525
511.0394, 2144.828
511.5215, 2143.856
512.0037, 2142.332
512.4858, 2138.971
512.9679, 2134.898
513.4500, 2131.657
513.9321, 2129.291
514.4142, 2127.349
514.8964, 2125.501
515.3785, 2123.880
515.8606, 2122.719
516.3427, 2122.463
516.8248, 2121.896
517.3069, 2120.207
517.7891, 2117.910
518.2712, 2115.959
518.7533, 2115.120
519.2354, 2114.097
519.7175, 2112.332
520.1996, 2109.844
520.6818, 2107.797
521.1639, 2105.101
521.6460, 2104.211
522.1281, 2107.664
522.6102, 2118.082
523.0923, 2121.935
523.5745, 2116.655
524.0566, 2108.521
524.5387, 2107.412
525.0208, 2113.303
525.5029, 2117.802
525.9850, 2117.939
526.4672, 2115.635
526.9493, 2115.136
527.4314, 2116.227
527.9135, 2117.049
528.3956, 2115.879
528.8777, 2113.987
529.3599, 2113.157
529.8420, 2113.580
530.3241, 2114.376
530.8062, 2114.222
531.2883, 2114.448
531.7704, 2116.633
532.2526, 2123.841
532.7347, 2129.660
533.2168, 2130.592
533.6989, 2128.781
534.1810, 2129.268
534.6631, 2134.050
535.1453, 2140.002
535.6274, 2146.348
536.1095, 2153.179
536.5916, 2160.277
537.0737, 2167.812
537.5558, 2175.477
538.0380, 2182.582
538.5201, 2188.725
539.0022, 2197.613
539.4843, 2209.552
539.9664, 2223.721
540.4485, 2239.142
540.9307, 2255.620
541.4128, 2272.249
541.8949, 2288.254
542.3770, 2304.389
542.8591, 2321.817
543.3412, 2340.414
543.8234, 2360.779
544.3055, 2384.892
544.7876, 2409.928
545.2697, 2431.826
545.7518, 2449.781
546.2339, 2470.441
546.7161, 2499.431
547.1982, 2531.198
547.6803, 2561.451
548.1624, 2585.163
548.6445, 2612.270
549.1266, 2645.642
549.6088, 2683.176
550.0909, 2720.477
550.5730, 2756.552
551.0551, 2794.304
551.5372, 2833.926
552.0193, 2875.664
552.5015, 2920.616
552.9836, 2969.511
553.4657, 3019.155
553.9478, 3067.554
554.4299, 3114.773
554.9120, 3162.686
555.3942, 3211.574
555.8763, 3257.569
556.3584, 3296.971
556.8405, 3329.802
557.3226, 3356.684
557.8047, 3380.323
558.2869, 3394.229
558.7690, 3393.848
559.2511, 3379.277
559.7332, 3350.529
560.2154, 3302.365
560.6975, 3244.614
561.1796, 3180.051
561.6617, 3108.890
562.1439, 3036.815
562.6260, 2960.665
563.1081, 2887.442
563.5902, 2819.511
564.0723, 2756.889
564.5544, 2699.174
565.0366, 2645.042
565.5187, 2596.364
566.0008, 2557.325
566.4829, 2528.930
566.9650, 2502.450
567.4471, 2475.737
567.9293, 2449.909
568.4114, 2428.154
568.8935, 2410.343
569.3756, 2396.511
569.8577, 2388.965
570.3398, 2384.682
570.8220, 2378.276
571.3041, 2369.688
571.7862, 2362.077
572.2683, 2357.542
572.7504, 2355.091
573.2325, 2354.084
573.7147, 2355.395
574.1968, 2355.530
574.6789, 2351.035
575.1610, 2345.401
575.6431, 2343.094
576.1252, 2348.843
576.6074, 2353.242
577.0895, 2354.716
577.5716, 2353.933
578.0537, 2353.301
578.5358, 2352.628
579.0179, 2352.571
579.5001, 2353.452
579.9822, 2355.235
580.4643, 2357.450
580.9464, 2360.193
581.4285, 2362.624
581.9106, 2363.684
582.3928, 2363.826
582.8749, 2364.219
583.3570, 2364.740
583.8391, 2366.827
584.3212, 2371.788
584.8033, 2379.336
585.2855, 2388.998
