##NAMES=Eosphorite
##RRUFFID=R050557
##IDEAL CHEMISTRY=Mn^2+^AlPO_4_(OH)_2_&#183;H_2_O
##LOCALITY=Minas Gerais, Brazil
##OWNER=RRUFF
##SOURCE=Dave Bunk Minerals
##DESCRIPTION=A radial group of light brown bladed crystals
##STATUS=The identification of this mineral has been confirmed by X-ray diffraction and chemical analysis
##URL=rruff.info/R050557
##MEASURED CHEMISTRY=(Mn^2+^_0.46_Fe^2+^_0.32_Ca_0.16_Mg_0.06_)_Σ=1_Al_1.00_(P_1.00_O_4_)(OH)_2_·H_2_O
91.11523, 39.20316
91.59735, 37.58681
92.07947, 38.53790
92.56158, 41.46777
93.04370, 44.53746
93.52582, 47.48723
94.00793, 49.79107
94.49006, 49.62129
94.97218, 45.97163
95.45429, 41.68710
95.93641, 42.08034
96.41853, 47.03029
96.90064, 51.57760
97.38276, 51.41471
97.86488, 47.03760
98.34699, 44.08576
98.82911, 43.93460
99.31123, 45.56009
99.79334, 45.47063
100.2755, 43.35473
100.7576, 40.60469
101.2397, 38.25248
101.7218, 36.17844
102.2039, 35.02687
102.6861, 35.19067
103.1682, 36.65426
103.6503, 37.58488
104.1324, 37.76831
104.6145, 37.66521
105.0966, 37.79057
105.5788, 38.06593
106.0609, 38.70203
106.5430, 39.67762
107.0251, 40.86706
107.5072, 42.94225
107.9893, 46.90611
108.4715, 51.52209
108.9536, 54.59853
109.4357, 55.80721
109.9178, 55.78149
110.3999, 54.53056
110.8820, 50.40306
111.3642, 47.78441
111.8463, 47.31435
112.3284, 48.51348
112.8105, 50.01906
113.2926, 51.55447
113.7747, 53.45094
114.2569, 55.86719
114.7390, 59.23222
115.2211, 62.67126
115.7032, 65.65921
116.1853, 68.39896
116.6674, 71.90430
117.1496, 76.48849
117.6317, 82.05010
118.1138, 88.45043
118.5959, 96.81292
119.0780, 105.0774
119.5602, 111.4073
120.0423, 116.0276
120.5244, 122.2757
121.0065, 134.1924
121.4886, 148.4099
121.9707, 160.5346
122.4529, 166.5711
122.9350, 170.9481
123.4171, 177.3526
123.8992, 186.0489
124.3813, 195.3770
124.8634, 204.5110
125.3456, 213.2952
125.8277, 221.4093
126.3098, 227.9744
126.7919, 233.9102
127.2740, 240.7065
127.7561, 248.6797
128.2383, 256.7115
128.7204, 262.1678
129.2025, 265.8412
129.6846, 271.8928
130.1667, 285.1702
130.6488, 302.9701
131.1310, 317.4072
131.6131, 326.7439
132.0952, 333.8078
132.5773, 343.4749
133.0594, 355.8247
133.5415, 369.1735
134.0237, 382.6710
134.5058, 396.3760
134.9879, 410.2302
135.4700, 424.5447
135.9521, 438.9067
136.4343, 452.3299
136.9164, 464.6982
137.3985, 476.7760
137.8806, 490.0098
138.3627, 505.0305
138.8448, 517.2701
139.3270, 525.5243
139.8091, 530.2246
140.2912, 535.0381
140.7733, 539.9514
141.2554, 545.0793
141.7375, 550.4183
142.2197, 555.9034
142.7018, 561.9301
143.1839, 568.6426
143.6660, 576.0373
144.1481, 583.6160
144.6302, 590.7739
145.1124, 598.5766
145.5945, 608.4513
146.0766, 622.5051
146.5587, 635.5456
147.0408, 645.5783
147.5230, 650.9319
148.0051, 659.4732
148.4872, 670.3793
148.9693, 679.7424
149.4514, 686.9376
149.9335, 689.3948
150.4157, 692.5524
150.8978, 698.0842
151.3799, 707.9818
151.8620, 716.2224
152.3441, 721.6589
152.8262, 725.6657
153.3084, 730.6876
153.7905, 739.7659
154.2726, 747.4559
154.7547, 751.5270
155.2368, 748.0516
155.7189, 747.1979
156.2011, 752.2731
156.6832, 760.9058
157.1653, 767.1478
157.6474, 767.4633
158.1295, 766.8206
158.6116, 767.6580
159.0938, 770.3909
159.5759, 774.5228
160.0580, 780.6243
160.5401, 788.1721
161.0222, 795.4078
161.5044, 800.9406
161.9865, 806.4186
162.4686, 812.9803
162.9507, 821.6833
163.4328, 830.6132
163.9149, 838.5733
164.3971, 845.9839
164.8792, 854.5832
165.3613, 866.3392
165.8434, 879.1596
166.3255, 891.1751
166.8076, 900.5015
167.2898, 909.8635
167.7719, 921.2901
168.2540, 934.5374
168.7361, 947.4171
169.2182, 959.8014
169.7003, 970.7952
170.1825, 979.3214
170.6646, 984.0487
171.1467, 986.8135
171.6288, 989.1710
172.1109, 991.0739
172.5931, 991.7562
173.0752, 990.2701
173.5573, 987.2309
174.0394, 983.6218
174.5215, 979.1453
175.0036, 974.6481
175.4858, 971.1553
175.9679, 968.6483
176.4500, 966.7189
176.9321, 965.6635
177.4142, 964.9332
177.8963, 963.3033
178.3785, 959.6647
178.8606, 954.9646
179.3427, 950.3421
179.8248, 945.6727
180.3069, 942.1083
180.7890, 941.1517
181.2712, 942.3658
181.7533, 944.4171
182.2354, 947.3570
182.7175, 950.6144
183.1996, 952.6243
183.6818, 953.1728
184.1639, 953.5378
184.6460, 955.1901
185.1281, 957.9863
185.6102, 961.2914
186.0923, 965.1848
186.5745, 969.3860
187.0566, 972.7348
187.5387, 975.0967
188.0208, 977.1117
188.5029, 979.6910
188.9850, 982.8065
189.4672, 986.1337
189.9493, 989.5742
190.4314, 993.1135
190.9135, 996.7352
191.3956, 1000.343
191.8777, 1004.256
192.3599, 1009.170
192.8420, 1015.067
193.3241, 1021.404
193.8062, 1028.594
194.2883, 1036.455
194.7704, 1041.662
195.2526, 1043.126
195.7347, 1043.559
196.2168, 1048.302
196.6989, 1057.631
197.1810, 1067.607
197.6632, 1076.455
198.1453, 1084.241
198.6274, 1090.475
199.1095, 1094.576
199.5916, 1097.908
200.0737, 1103.357
200.5559, 1111.197
201.0380, 1119.580
201.5201, 1127.691
202.0022, 1135.637
202.4843, 1143.069
202.9664, 1149.973
203.4486, 1156.410
203.9307, 1162.645
204.4128, 1168.786
204.8949, 1174.144
205.3770, 1178.414
205.8591, 1181.626
206.3413, 1183.532
206.8234, 1184.059
207.3055, 1183.293
207.7876, 1181.309
208.2697, 1177.874
208.7519, 1173.871
209.2340, 1169.563
209.7161, 1164.781
210.1982, 1160.454
210.6803, 1156.681
211.1624, 1153.357
211.6446, 1150.033
212.1267, 1146.379
212.6088, 1143.634
213.0909, 1142.880
213.5730, 1145.030
214.0551, 1145.587
214.5373, 1143.676
215.0194, 1140.352
215.5015, 1138.646
215.9836, 1139.088
216.4657, 1140.097
216.9478, 1140.821
217.4300, 1140.999
217.9121, 1141.839
218.3942, 1143.914
218.8763, 1146.461
219.3584, 1147.010
219.8405, 1144.508
220.3227, 1141.858
220.8048, 1140.540
221.2869, 1140.958
221.7690, 1141.377
222.2511, 1141.335
222.7333, 1141.371
223.2154, 1143.317
223.6975, 1148.405
224.1796, 1153.389
224.6617, 1156.463
225.1438, 1156.393
225.6260, 1157.779
226.1081, 1161.066
226.5902, 1165.826
227.0723, 1171.142
227.5544, 1178.905
228.0365, 1184.368
228.5187, 1184.815
229.0008, 1177.537
229.4829, 1171.916
229.9650, 1168.692
230.4471, 1166.944
230.9292, 1164.134
231.4114, 1159.408
231.8935, 1154.782
232.3756, 1151.350
232.8577, 1150.076
233.3398, 1147.360
233.8220, 1142.235
234.3041, 1135.951
234.7862, 1131.870
235.2683, 1131.291
235.7504, 1130.932
236.2325, 1129.380
236.7147, 1126.073
237.1968, 1123.130
237.6789, 1120.395
238.1610, 1118.144
238.6431, 1117.044
239.1252, 1117.691
239.6074, 1118.628
240.0895, 1119.359
240.5716, 1119.894
241.0537, 1120.113
241.5358, 1119.414
242.0179, 1118.680
242.5001, 1119.936
242.9822, 1124.924
243.4643, 1128.994
243.9464, 1130.050
244.4285, 1126.505
244.9106, 1125.194
245.3928, 1127.214
245.8749, 1130.744
246.3570, 1132.563
246.8391, 1131.791
247.3212, 1130.765
247.8034, 1130.207
248.2855, 1130.214
248.7676, 1130.309
249.2497, 1130.564
249.7318, 1130.882
250.2139, 1131.182
250.6961, 1131.766
251.1782, 1131.817
251.6603, 1130.888
252.1424, 1128.684
252.6245, 1127.462
253.1066, 1127.822
253.5888, 1128.640
254.0709, 1128.264
254.5530, 1125.738
255.0351, 1124.047
255.5172, 1124.712
255.9993, 1128.264
256.4815, 1128.208
256.9636, 1123.102
257.4457, 1115.930
257.9278, 1110.068
258.4099, 1106.152
258.8921, 1102.056
259.3742, 1097.223
259.8563, 1091.686
260.3384, 1086.133
260.8205, 1080.886
261.3026, 1075.278
261.7848, 1068.511
262.2669, 1060.386
262.7490, 1051.799
263.2311, 1042.962
263.7132, 1033.845
264.1953, 1024.396
264.6775, 1014.349
265.1596, 1004.502
265.6417, 995.7314
266.1238, 988.5150
266.6059, 980.7888
267.0880, 972.1902
267.5702, 962.7756
268.0523, 953.3007
268.5344, 943.2432
269.0165, 933.9698
269.4986, 926.6517
269.9807, 921.6838
270.4629, 916.5825
270.9450, 910.8893
271.4271, 904.8405
271.9092, 899.5443
272.3913, 894.9990
272.8734, 891.2006
273.3556, 888.1239
273.8377, 885.7478
274.3198, 884.3260
274.8019, 884.1883
275.2840, 884.7762
275.7661, 884.4365
276.2483, 882.9499
276.7304, 881.4445
277.2125, 880.3688
277.6946, 879.6662
278.1768, 880.2467
278.6589, 882.4314
279.1410, 885.5841
279.6231, 888.5832
280.1052, 891.5059
280.5873, 893.9865
281.0695, 895.5452
281.5516, 896.2114
282.0337, 897.4882
282.5158, 899.4466
282.9979, 901.9554
283.4800, 904.8317
283.9622, 908.0695
284.4443, 911.6492
284.9264, 915.8651
285.4085, 920.5375
285.8906, 924.5471
286.3727, 927.9238
286.8549, 930.4821
287.3370, 931.4481
287.8191, 930.9184
288.3012, 930.9942
288.7833, 932.3176
289.2654, 934.8359
289.7476, 938.9618
290.2297, 944.9333
290.7118, 950.7126
291.1939, 954.1036
291.6760, 955.3372
292.1581, 955.8162
292.6403, 955.3051
293.1224, 954.6953
293.6045, 956.6880
294.0866, 961.2924
294.5687, 965.6869
295.0508, 966.8758
295.5330, 965.7311
296.0151, 965.2835
296.4972, 966.4611
296.9793, 968.4236
297.4614, 969.7161
297.9435, 970.4196
298.4257, 971.1140
298.9078, 972.3004
299.3899, 973.7728
299.8720, 975.2249
300.3541, 976.8988
300.8362, 977.9103
301.3184, 976.4365
301.8005, 973.0710
302.2826, 970.3185
302.7647, 970.5294
303.2469, 971.9968
303.7290, 972.1413
304.2111, 970.4741
304.6932, 968.1533
305.1753, 966.2012
305.6574, 964.4632
306.1396, 962.6566
306.6217, 960.5643
307.1038, 958.3391
307.5859, 956.3017
308.0680, 954.5124
308.5501, 952.2394
309.0323, 948.6150
309.5144, 944.1852
309.9965, 939.8380
310.4786, 936.4780
310.9607, 932.9056
311.4428, 928.0026
311.9250, 921.8223
312.4071, 915.5491
312.8892, 909.6368
313.3713, 904.2374
313.8534, 899.4778
314.3355, 896.1828
314.8177, 892.8845
315.2998, 888.9376
315.7819, 884.3939
316.2640, 879.4006
316.7461, 873.3140
317.2282, 867.2458
317.7104, 862.0417
318.1925, 858.6080
318.6746, 854.9792
319.1567, 850.2464
319.6388, 844.7572
320.1209, 839.5693
320.6031, 834.8674
321.0852, 830.6557
321.5673, 826.9775
322.0494, 824.1210
322.5315, 821.1552
323.0136, 817.6497
323.4958, 813.9686
323.9779, 810.7004
324.4600, 807.6151
324.9421, 805.2652
325.4242, 804.1484
325.9064, 804.6896
326.3885, 804.6215
326.8706, 803.5226
327.3527, 801.8392
327.8348, 800.0284
328.3170, 797.5852
328.7991, 795.5521
329.2812, 793.7600
329.7633, 792.1525
330.2454, 792.3475
330.7275, 795.8478
331.2097, 799.9022
331.6918, 802.6425
332.1739, 804.0869
332.6560, 804.0553
333.1381, 801.9030
333.6202, 798.1341
334.1024, 795.1524
334.5845, 792.7430
335.0666, 791.4660
335.5487, 791.8953
336.0308, 794.8971
336.5129, 797.0964
336.9951, 798.3209
337.4772, 798.7998
337.9593, 798.9150
338.4414, 798.4902
338.9235, 798.3030
339.4056, 798.8571
339.8878, 800.2624
340.3699, 800.9150
340.8520, 800.5367
341.3341, 799.9644
341.8162, 800.2999
342.2983, 801.5945
342.7805, 803.1650
343.2626, 804.7866
343.7447, 806.4933
344.2268, 808.8064
344.7089, 811.9673
345.1910, 814.2953
345.6732, 813.2299
346.1553, 809.3041
346.6374, 807.1902
347.1195, 808.2546
347.6016, 811.1113
348.0837, 813.1645
348.5659, 814.4607
349.0480, 815.3775
349.5301, 815.9860
350.0122, 816.4366
350.4944, 817.2064
350.9765, 818.5195
351.4586, 819.6580
351.9407, 819.2864
352.4228, 817.8829
352.9049, 817.0107
353.3871, 818.2590
353.8692, 820.1599
354.3513, 820.2864
354.8334, 818.4039
355.3155, 817.1621
355.7976, 819.5228
356.2798, 823.7677
356.7619, 827.1661
357.2440, 828.1914
357.7261, 828.2941
358.2082, 827.8904
358.6903, 827.1633
359.1725, 827.4405
359.6546, 830.7612
360.1367, 834.7412
360.6188, 837.1549
361.1009, 836.4470
361.5830, 835.6662
362.0652, 835.9677
362.5473, 837.1683
363.0294, 838.8126
363.5115, 842.0999
363.9936, 844.7696
364.4757, 845.2270
364.9579, 842.2518
365.4400, 840.5847
365.9221, 841.8453
366.4042, 844.7344
366.8863, 847.6027
367.3684, 850.6061
367.8506, 853.2100
368.3327, 855.2313
368.8148, 856.6210
369.2969, 857.8782
369.7790, 857.5751
370.2611, 858.1594
370.7433, 861.5418
371.2254, 870.7964
371.7075, 877.8709
372.1896, 881.1873
372.6717, 881.7654
373.1538, 883.8000
373.6360, 887.7621
374.1181, 892.3760
374.6002, 897.0355
375.0823, 901.7492
375.5645, 906.4567
376.0466, 910.8101
376.5287, 915.4725
377.0108, 921.8965
377.4929, 930.4160
377.9750, 938.5408
378.4572, 945.0076
378.9393, 950.1230
379.4214, 956.6348
379.9035, 964.6787
380.3856, 973.3541
380.8677, 981.8237
381.3499, 990.0859
381.8320, 997.8662
382.3141, 1004.572
382.7962, 1011.432
383.2783, 1021.920
383.7604, 1035.785
384.2426, 1049.598
384.7247, 1061.095
385.2068, 1070.843
385.6889, 1080.702
386.1710, 1090.803
386.6531, 1100.986
387.1353, 1111.017
387.6174, 1121.054
388.0995, 1131.572
388.5816, 1144.283
389.0637, 1156.826
389.5458, 1166.533
390.0280, 1173.518
390.5101, 1180.278
390.9922, 1187.924
391.4743, 1196.456
391.9564, 1206.169
392.4385, 1219.350
392.9207, 1230.939
393.4028, 1237.602
393.8849, 1240.393
394.3670, 1242.458
394.8491, 1244.798
395.3312, 1246.816
395.8134, 1248.176
396.2955, 1248.769
396.7776, 1248.862
397.2597, 1248.788
397.7418, 1248.167
398.2239, 1246.484
398.7061, 1245.730
399.1882, 1241.822
399.6703, 1232.406
400.1524, 1217.170
400.6346, 1204.324
401.1167, 1196.490
401.5988, 1188.920
402.0809, 1178.276
402.5630, 1162.267
403.0451, 1147.648
403.5273, 1135.551
404.0094, 1125.004
404.4915, 1113.401
404.9736, 1100.382
405.4557, 1087.043
405.9378, 1073.391
406.4200, 1059.257
406.9021, 1046.951
407.3842, 1037.026
407.8663, 1027.944
408.3484, 1017.702
408.8305, 1006.238
409.3127, 995.3219
409.7948, 985.8354
410.2769, 977.0513
410.7590, 966.3597
411.2411, 953.7167
411.7232, 942.3291
412.2054, 935.5002
412.6875, 931.7001
413.1696, 926.9414
413.6517, 920.5389
414.1338, 913.2156
414.6159, 904.5472
415.0981, 895.4841
415.5802, 888.7338
416.0623, 887.8740
416.5444, 888.7311
417.0265, 886.9824
417.5086, 882.4877
417.9908, 877.7579
418.4729, 874.4952
418.9550, 871.7978
419.4371, 868.7269
419.9192, 864.1122
420.4013, 860.1212
420.8835, 858.3745
421.3656, 858.0940
421.8477, 856.8925
422.3298, 853.5662
422.8119, 849.5992
423.2940, 845.1839
423.7762, 839.4513
424.2583, 836.1915
424.7404, 838.6932
425.2225, 842.7687
425.7047, 843.6004
426.1868, 837.5500
426.6689, 833.0704
427.1510, 831.9042
427.6331, 833.7563
428.1152, 835.1877
428.5974, 836.2977
429.0795, 836.8566
429.5616, 836.4837
430.0437, 834.7254
430.5258, 834.0311
431.0079, 834.7806
431.4901, 836.2833
431.9722, 837.3275
432.4543, 837.8635
432.9364, 838.3489
433.4185, 838.7878
433.9006, 839.2959
434.3828, 840.6230
434.8649, 842.8403
435.3470, 845.0188
435.8291, 845.7534
436.3112, 845.7022
436.7933, 847.1585
437.2755, 851.0743
437.7576, 855.6233
438.2397, 858.2454
438.7218, 859.4587
439.2039, 860.9718
439.6860, 863.8723
440.1682, 867.4847
440.6503, 870.9208
441.1324, 874.1191
441.6145, 877.8606
442.0966, 883.1377
442.5787, 888.9700
443.0609, 894.2982
443.5430, 898.1843
444.0251, 902.1250
444.5072, 906.4809
444.9893, 911.2575
445.4714, 916.5326
445.9536, 922.7256
446.4357, 929.1309
446.9178, 935.3005
447.3999, 940.7089
447.8820, 947.4113
448.3641, 957.0032
448.8463, 967.0850
449.3284, 974.9960
449.8105, 978.5019
450.2926, 983.9129
450.7747, 993.0402
451.2569, 1005.147
451.7390, 1015.154
452.2211, 1022.388
452.7032, 1029.423
453.1853, 1037.988
453.6674, 1048.276
454.1496, 1057.399
454.6317, 1064.972
455.1138, 1072.169
455.5959, 1080.548
456.0780, 1090.102
456.5602, 1100.144
457.0423, 1111.178
457.5244, 1122.062
458.0065, 1130.431
458.4886, 1136.369
458.9707, 1141.484
459.4529, 1146.324
459.9350, 1151.284
460.4171, 1157.120
460.8992, 1164.520
461.3813, 1171.124
461.8634, 1174.719
462.3456, 1176.381
462.8277, 1177.839
463.3098, 1180.505
463.7919, 1182.537
464.2740, 1182.812
464.7561, 1181.384
465.2383, 1179.533
465.7204, 1178.270
466.2025, 1176.241
466.6846, 1172.514
467.1667, 1165.591
467.6488, 1159.211
468.1310, 1154.241
468.6131, 1149.710
469.0952, 1144.016
469.5773, 1137.467
470.0594, 1129.223
470.5415, 1118.339
471.0237, 1105.005
471.5058, 1093.635
471.9879, 1085.087
472.4700, 1076.564
472.9521, 1065.672
473.4342, 1052.200
473.9164, 1040.107
474.3985, 1029.968
474.8806, 1020.651
475.3627, 1010.381
475.8448, 999.1887
476.3270, 987.2756
476.8091, 974.2382
477.2912, 960.8488
477.7733, 948.7856
478.2554, 938.0003
478.7375, 927.7693
479.2197, 917.3660
479.7018, 907.2027
480.1839, 897.9305
480.6660, 889.7114
481.1481, 882.3651
481.6302, 876.6837
482.1124, 871.6852
482.5945, 865.7066
483.0766, 856.7169
483.5587, 847.8910
484.0408, 841.0657
484.5229, 836.2289
485.0051, 830.5788
485.4872, 822.0560
485.9693, 813.6534
486.4514, 807.2835
486.9335, 804.4570
487.4156, 800.9594
487.8978, 796.2524
488.3799, 791.1857
488.8620, 786.9924
489.3441, 783.9827
489.8262, 781.0317
490.3083, 777.6138
490.7905, 773.9258
491.2726, 771.8939
491.7547, 771.8981
492.2368, 771.6357
492.7189, 769.1007
493.2010, 764.6087
493.6832, 760.4262
494.1653, 756.6248
494.6474, 753.5183
495.1295, 751.9193
495.6116, 751.3688
496.0938, 750.4098
496.5759, 747.8927
497.0580, 745.1578
497.5401, 743.9005
498.0222, 743.8475
498.5044, 743.6747
498.9865, 742.8210
499.4686, 741.4141
499.9507, 739.4776
500.4328, 736.9078
500.9149, 734.2608
501.3971, 731.4412
501.8792, 728.7362
502.3613, 726.4711
502.8434, 725.4039
503.3255, 723.9407
503.8076, 721.2526
504.2898, 717.7928
504.7719, 715.7935
505.2540, 716.2133
505.7361, 716.6769
506.2182, 716.3094
506.7003, 715.1205
507.1825, 712.6600
507.6646, 708.2656
508.1467, 704.0223
508.6288, 702.9066
509.1109, 704.9078
509.5930, 705.3965
510.0752, 703.0441
510.5573, 699.3286
511.0394, 697.0446
511.5215, 696.0010
512.0037, 694.9614
512.4858, 693.0915
512.9679, 690.8821
513.4500, 688.8125
513.9321, 686.9114
514.4142, 685.7070
514.8964, 686.7081
515.3785, 688.0836
515.8606, 687.7284
516.3427, 684.0494
516.8248, 680.5146
517.3069, 678.2600
517.7891, 677.0850
518.2712, 676.6209
518.7533, 677.8990
519.2354, 678.7678
519.7175, 678.7297
520.1996, 677.8038
520.6818, 675.7483
521.1639, 670.8928
521.6460, 666.9650
522.1281, 666.6577
522.6102, 671.4159
523.0923, 674.1444
523.5745, 674.4587
524.0566, 673.1086
524.5387, 670.2299
525.0208, 665.8071
525.5029, 663.8724
525.9850, 666.6088
526.4672, 671.6668
526.9493, 674.1495
527.4314, 674.2338
527.9135, 673.4183
528.3956, 672.1409
528.8777, 670.7501
529.3599, 669.7320
529.8420, 669.1260
530.3241, 668.7731
530.8062, 668.7045
531.2883, 668.7726
531.7704, 668.7891
532.2526, 668.1765
532.7347, 668.2003
533.2168, 669.9036
533.6989, 672.5125
534.1810, 674.2567
534.6631, 674.1137
535.1453, 673.8302
535.6274, 673.6086
536.1095, 673.4196
536.5916, 674.4677
537.0737, 677.3265
537.5558, 680.5584
538.0380, 683.1569
538.5201, 685.0230
539.0022, 687.0184
539.4843, 689.0795
539.9664, 691.4669
540.4485, 694.5136
540.9307, 698.1799
541.4128, 702.3975
541.8949, 707.4783
542.3770, 712.6799
542.8591, 716.7382
543.3412, 719.7680
543.8234, 722.7059
544.3055, 725.6218
544.7876, 728.9951
545.2697, 733.5013
545.7518, 739.2919
546.2339, 744.9221
546.7161, 749.0692
547.1982, 753.0330
547.6803, 758.0889
548.1624, 766.1393
548.6445, 773.1847
549.1266, 777.2664
549.6088, 780.2333
550.0909, 785.8448
550.5730, 795.5831
551.0551, 805.7334
551.5372, 815.5838
552.0193, 825.1132
552.5015, 833.2328
552.9836, 839.4862
553.4657, 845.9640
553.9478, 854.6088
554.4299, 865.0959
554.9120, 874.0381
555.3942, 881.0562
555.8763, 887.0548
556.3584, 893.3403
556.8405, 899.3759
557.3226, 903.8743
557.8047, 906.6821
558.2869, 907.4337
558.7690, 905.2001
559.2511, 900.6310
559.7332, 895.3723
560.2154, 889.8510
560.6975, 884.1241
561.1796, 878.2025
561.6617, 872.0988
562.1439, 865.7269
562.6260, 858.1564
563.1081, 851.0484
563.5902, 845.1923
564.0723, 840.8124
564.5544, 837.1371
565.0366, 833.7360
565.5187, 831.4072
566.0008, 831.5727
566.4829, 834.6693
566.9650, 837.7773
567.4471, 840.1456
567.9293, 842.2357
568.4114, 844.6857
568.8935, 847.5753
569.3756, 852.1196
569.8577, 859.2618
570.3398, 868.4365
570.8220, 878.5527
571.3041, 889.6849
571.7862, 901.4199
572.2683, 915.0460
572.7504, 928.4309
573.2325, 939.1564
573.7147, 945.1590
574.1968, 952.5734
574.6789, 964.4714
575.1610, 978.7656
575.6431, 992.9275
576.1252, 1005.492
576.6074, 1019.016
577.0895, 1033.507
577.5716, 1049.244
578.0537, 1067.866
578.5358, 1090.731
579.0179, 1113.302
579.5001, 1133.229
579.9822, 1150.937
580.4643, 1170.823
580.9464, 1193.088
581.4285, 1216.007
581.9106, 1238.007
582.3928, 1259.679
582.8749, 1282.901
583.3570, 1308.185
583.8391, 1334.264
584.3212, 1359.731
584.8033, 1385.394
585.2855, 1412.837
585.7676, 1444.364
586.2497, 1475.952
