##NAMES=Eosphorite
##RRUFFID=R050557
##IDEAL CHEMISTRY=Mn^2+^AlPO_4_(OH)_2_&#183;H_2_O
##LOCALITY=Minas Gerais, Brazil
##OWNER=RRUFF
##SOURCE=Dave Bunk Minerals
##DESCRIPTION=A radial group of light brown bladed crystals
##STATUS=The identification of this mineral has been confirmed by X-ray diffraction and chemical analysis
##URL=rruff.info/R050557
##MEASURED CHEMISTRY=(Mn^2+^_0.46_Fe^2+^_0.32_Ca_0.16_Mg_0.06_)_Σ=1_Al_1.00_(P_1.00_O_4_)(OH)_2_·H_2_O
92.06543, 827.6982
92.54755, 820.7815
93.02966, 823.0856
93.51178, 834.4138
93.99390, 839.9371
94.47601, 838.1136
94.95813, 831.3157
95.44025, 823.0431
95.92236, 815.8004
96.40448, 809.3112
96.88660, 804.8258
97.36871, 805.0768
97.85082, 805.5724
98.33294, 803.0388
98.81506, 796.6242
99.29717, 787.4371
99.77929, 780.0408
100.2614, 774.4506
100.7435, 769.5683
101.2256, 765.2961
101.7078, 761.3217
102.1899, 756.9164
102.6720, 751.1160
103.1541, 745.9167
103.6362, 743.0958
104.1183, 742.5580
104.6005, 742.5604
105.0826, 741.3423
105.5647, 738.5509
106.0468, 737.0182
106.5289, 738.4609
107.0110, 740.3591
107.4931, 741.2147
107.9753, 740.5992
108.4574, 739.1592
108.9395, 738.1422
109.4216, 737.6122
109.9037, 737.4138
110.3858, 737.7569
110.8680, 738.2704
111.3501, 738.5939
111.8322, 738.5307
112.3143, 738.1033
112.7964, 737.4510
113.2785, 736.7119
113.7607, 735.6263
114.2428, 733.8858
114.7249, 731.6910
115.2070, 729.6615
115.6891, 728.5170
116.1712, 728.0577
116.6534, 725.6370
117.1355, 720.5330
117.6176, 714.1046
118.0997, 707.2105
118.5818, 699.8943
119.0639, 692.2616
119.5461, 684.8043
120.0282, 677.2343
120.5103, 668.3313
120.9924, 656.4748
121.4745, 643.0859
121.9566, 631.8223
122.4388, 624.9280
122.9209, 617.1716
123.4030, 603.6780
123.8851, 586.0264
124.3672, 569.5731
124.8493, 558.8450
125.3315, 554.1318
125.8136, 550.3801
126.2957, 548.8619
126.7778, 547.1569
127.2599, 543.8667
127.7420, 539.0490
128.2242, 533.9720
128.7063, 530.5284
129.1884, 530.0175
129.6705, 528.4496
130.1526, 524.8107
130.6347, 520.8682
131.1169, 517.9396
131.5990, 516.4594
132.0811, 515.9716
132.5632, 515.4957
133.0453, 515.2386
133.5274, 514.7291
134.0096, 513.8489
134.4917, 512.7234
134.9738, 511.4990
135.4559, 510.2192
135.9380, 508.9354
136.4201, 507.8177
136.9023, 506.6524
137.3844, 505.8696
137.8665, 506.1865
138.3486, 507.2798
138.8307, 507.5435
139.3128, 505.5257
139.7950, 502.2875
140.2771, 500.3296
140.7592, 500.0557
141.2413, 500.8130
141.7234, 502.3501
142.2055, 504.9179
142.6877, 506.9206
143.1698, 507.1718
143.6519, 506.4273
144.1340, 505.3652
144.6161, 504.0382
145.0982, 502.6698
145.5803, 501.7675
146.0625, 501.0850
146.5446, 501.4106
147.0267, 503.8338
147.5088, 507.1749
147.9909, 509.5056
148.4730, 509.1780
148.9552, 506.4171
149.4373, 505.8042
149.9194, 510.0668
150.4015, 514.1391
150.8836, 516.7809
151.3657, 518.1516
151.8479, 519.0086
152.3300, 519.9861
152.8121, 521.1252
153.2942, 522.1700
153.7763, 522.5484
154.2584, 523.3176
154.7406, 525.3698
155.2227, 528.5673
155.7048, 531.7676
156.1869, 533.5141
156.6690, 532.9255
157.1511, 534.4788
157.6333, 540.6838
158.1154, 547.5911
158.5975, 551.4784
159.0796, 551.5201
159.5617, 549.7897
160.0438, 548.5603
160.5260, 547.7569
161.0081, 547.7704
161.4902, 549.3026
161.9723, 551.6387
162.4544, 553.2331
162.9365, 553.2294
163.4187, 553.4642
163.9008, 556.5690
164.3829, 562.3888
164.8650, 567.6296
165.3471, 569.5098
165.8292, 568.6953
166.3113, 569.7393
166.7935, 575.2219
167.2756, 581.3502
167.7577, 584.8545
168.2398, 585.6904
168.7219, 586.4089
169.2040, 590.1605
169.6862, 597.7106
170.1683, 602.9922
170.6504, 603.8448
171.1325, 602.8451
171.6146, 600.6722
172.0967, 597.6328
172.5789, 594.4934
173.0610, 592.5480
173.5431, 592.7694
174.0252, 591.9283
174.5073, 589.6627
174.9894, 586.5649
175.4716, 582.4642
175.9537, 577.4895
176.4358, 572.7149
176.9179, 570.4305
177.4000, 573.2084
177.8821, 575.1381
178.3643, 576.2845
178.8464, 576.4778
179.3285, 575.1779
179.8106, 572.1670
180.2927, 568.2819
180.7748, 565.8383
181.2570, 565.2709
181.7391, 565.5900
182.2212, 567.2232
182.7033, 569.6068
183.1854, 571.8801
183.6675, 573.6373
184.1497, 575.0684
184.6318, 576.7917
185.1139, 578.9621
185.5960, 581.1015
186.0781, 583.1680
186.5602, 585.0892
187.0423, 586.5433
187.5245, 587.0751
188.0066, 587.3211
188.4887, 588.8766
188.9708, 592.7086
189.4529, 596.1278
189.9350, 596.7719
190.4172, 594.9326
190.8993, 593.8692
191.3814, 595.3663
191.8635, 598.3809
192.3456, 601.4510
192.8277, 604.6393
193.3099, 607.4372
193.7920, 609.1320
194.2741, 609.5656
194.7562, 610.1053
195.2383, 611.6885
195.7204, 613.4858
196.2026, 614.5729
196.6847, 614.4627
197.1668, 614.3591
197.6489, 616.5374
198.1310, 622.2267
198.6131, 626.6604
199.0953, 628.0354
199.5774, 627.9021
200.0595, 627.2877
200.5416, 626.5145
201.0237, 625.8590
201.5058, 625.9184
201.9880, 626.7672
202.4701, 628.3167
202.9522, 630.6865
203.4343, 633.5408
203.9164, 636.7483
204.3985, 640.2704
204.8807, 643.7372
205.3628, 646.0294
205.8449, 646.8871
206.3270, 646.6534
206.8091, 644.9430
207.2912, 642.3802
207.7733, 639.6736
208.2555, 637.1921
208.7376, 634.7231
209.2197, 631.4659
209.7018, 625.9816
210.1839, 621.3096
210.6660, 617.3693
211.1482, 614.5248
211.6303, 613.6541
212.1124, 615.3715
212.5945, 618.7513
213.0766, 619.9591
213.5587, 616.2579
214.0409, 613.7793
214.5230, 614.8757
215.0051, 617.9202
215.4872, 619.8428
215.9693, 618.9160
216.4514, 616.0875
216.9336, 615.0320
217.4157, 616.4670
217.8978, 618.2440
218.3799, 620.4777
218.8620, 622.6084
219.3441, 622.8065
219.8263, 619.3645
220.3084, 614.3566
220.7905, 613.4683
221.2726, 618.6743
221.7547, 624.0089
222.2368, 626.3295
222.7190, 626.2332
223.2011, 626.1283
223.6832, 627.0126
224.1653, 628.5088
224.6474, 629.7918
225.1295, 630.7683
225.6117, 631.7577
226.0938, 632.7081
226.5759, 633.7018
227.0580, 635.5672
227.5401, 639.4650
228.0222, 643.7225
228.5043, 646.2129
228.9865, 646.5260
229.4686, 646.2512
229.9507, 646.5695
230.4328, 647.4760
230.9149, 648.6580
231.3970, 650.9982
231.8792, 652.7975
232.3613, 652.0540
232.8434, 648.3456
233.3255, 644.6588
233.8076, 644.6123
234.2897, 648.6532
234.7719, 651.0843
235.2540, 648.2089
235.7361, 644.9228
236.2182, 644.4229
236.7003, 647.1246
237.1824, 651.0464
237.6646, 654.6767
238.1467, 658.3718
238.6288, 659.7991
239.1109, 655.0188
239.5930, 650.3993
240.0751, 649.9319
240.5573, 653.7979
241.0394, 658.6653
241.5215, 660.3920
242.0036, 657.9269
242.4857, 656.6093
242.9678, 656.9908
243.4500, 658.3309
243.9321, 661.3681
244.4142, 665.5753
244.8963, 668.7698
245.3784, 667.7206
245.8605, 660.3717
246.3427, 656.4062
246.8248, 659.5478
247.3069, 662.7341
247.7890, 661.9398
248.2711, 657.4064
248.7532, 652.4314
249.2354, 650.6876
249.7175, 653.3275
250.1996, 654.2921
250.6817, 652.7297
251.1638, 650.4996
251.6459, 648.4984
252.1281, 646.6784
252.6102, 644.3480
253.0923, 640.6145
253.5744, 634.9803
254.0565, 631.2004
254.5386, 631.2041
255.0208, 630.9335
255.5029, 627.8693
255.9850, 622.6260
256.4671, 617.9114
256.9492, 616.3054
257.4313, 618.3013
257.9135, 617.5292
258.3956, 612.3705
258.8777, 606.6947
259.3598, 601.9044
259.8419, 597.9873
260.3240, 594.4229
260.8062, 590.8954
261.2883, 587.3950
261.7704, 583.3232
262.2525, 578.4789
262.7346, 573.3848
263.2167, 568.0043
263.6989, 562.5120
264.1810, 557.3936
264.6631, 552.9741
265.1452, 549.1797
265.6273, 545.3060
266.1094, 541.0297
266.5916, 537.0457
267.0737, 534.0884
267.5558, 531.6649
268.0379, 528.3929
268.5200, 523.2527
269.0021, 516.9915
269.4843, 512.7789
269.9664, 511.7425
270.4485, 510.8774
270.9306, 509.2080
271.4127, 507.0392
271.8948, 504.9510
272.3770, 503.1299
272.8591, 501.6622
273.3412, 500.8104
273.8233, 500.6018
274.3054, 500.7285
274.7875, 501.4865
275.2697, 502.4740
275.7518, 502.8926
276.2339, 502.4111
276.7160, 501.3880
277.1981, 500.2831
277.6802, 498.8522
278.1623, 498.1930
278.6444, 498.8920
279.1266, 500.5018
279.6087, 502.5151
280.0908, 504.9880
280.5729, 507.1526
281.0550, 507.6284
281.5371, 506.4547
282.0193, 505.3973
282.5014, 505.2195
282.9835, 505.3138
283.4656, 504.4010
283.9477, 502.0055
284.4298, 500.0909
284.9120, 501.3423
285.3941, 505.3004
285.8762, 508.8156
286.3583, 511.2105
286.8404, 512.8420
287.3225, 514.2301
287.8047, 515.4659
288.2868, 515.9973
288.7689, 514.9214
289.2510, 512.6867
289.7331, 510.8785
290.2152, 509.0010
290.6974, 508.1245
291.1795, 510.4289
291.6616, 516.0812
292.1437, 520.3456
292.6258, 519.1741
293.1079, 514.6954
293.5901, 512.1010
294.0722, 512.5276
294.5543, 514.2640
295.0364, 516.5052
295.5185, 519.1817
296.0006, 520.8092
296.4828, 520.2286
296.9649, 518.3904
297.4470, 517.1702
297.9291, 516.9252
298.4112, 516.5825
298.8933, 514.7679
299.3755, 511.8899
299.8576, 510.7054
300.3397, 513.3379
300.8218, 516.7516
301.3039, 516.5338
301.7860, 512.1859
302.2682, 508.0482
302.7503, 506.7451
303.2324, 507.6176
303.7145, 508.5814
304.1966, 509.7574
304.6787, 509.8999
305.1609, 507.3334
305.6430, 502.3636
306.1251, 497.3434
306.6072, 492.8163
307.0893, 489.0096
307.5714, 486.6754
308.0536, 486.3070
308.5357, 486.2739
309.0178, 485.2705
309.4999, 483.5265
309.9820, 481.5050
310.4641, 479.0635
310.9463, 476.5497
311.4284, 474.7946
311.9105, 474.0678
312.3926, 472.7151
312.8747, 469.2493
313.3568, 464.4713
313.8390, 459.6333
314.3211, 454.1101
314.8032, 449.5152
315.2853, 448.3576
315.7674, 450.7220
316.2495, 452.1675
316.7317, 450.4453
317.2138, 446.6382
317.6959, 442.3705
318.1780, 437.4051
318.6601, 432.8811
319.1422, 429.7815
319.6243, 427.9513
320.1064, 426.4208
320.5886, 424.9091
321.0707, 423.5882
321.5528, 422.6519
322.0349, 422.1103
322.5170, 421.6766
322.9991, 421.6926
323.4813, 421.7297
323.9634, 420.1779
324.4455, 415.9839
324.9276, 411.8421
325.4097, 410.9711
325.8918, 412.7299
326.3740, 414.2085
326.8561, 414.2591
327.3382, 413.4586
327.8203, 412.8197
328.3024, 412.5284
328.7845, 411.7871
329.2667, 409.2695
329.7488, 405.8306
330.2309, 403.6412
330.7130, 403.6989
331.1951, 404.7643
331.6772, 405.9538
332.1594, 407.2562
332.6415, 407.9910
333.1236, 407.6384
333.6057, 406.5006
334.0878, 405.3169
334.5699, 403.9844
335.0521, 402.8398
335.5342, 401.8806
336.0163, 401.2249
336.4984, 401.4893
336.9805, 403.2325
337.4626, 405.5206
337.9448, 406.9362
338.4269, 407.4828
338.9090, 407.6152
339.3911, 407.7128
339.8732, 407.4893
340.3553, 405.9455
340.8375, 402.4979
341.3196, 399.3450
341.8017, 399.6975
342.2838, 403.1620
342.7659, 405.4620
343.2480, 404.6419
343.7302, 402.9185
344.2123, 402.5659
344.6944, 403.7568
345.1765, 405.8197
345.6586, 408.9205
346.1407, 412.5322
346.6229, 414.0256
347.1050, 411.3499
347.5871, 408.3547
348.0692, 407.3369
348.5513, 407.9773
349.0334, 409.0758
349.5156, 410.2147
349.9977, 411.2443
350.4798, 411.6764
350.9619, 411.1168
351.4440, 410.8589
351.9261, 411.6371
352.4083, 412.9097
352.8904, 413.5792
353.3725, 413.2210
353.8546, 412.9025
354.3367, 414.6310
354.8188, 419.4478
355.3010, 421.7265
355.7831, 418.0291
356.2652, 413.4098
356.7473, 412.9322
357.2294, 416.9467
357.7115, 421.6861
358.1937, 423.9192
358.6758, 423.4913
359.1579, 423.1505
359.6400, 422.6100
360.1221, 422.4155
360.6042, 423.1314
361.0863, 424.4411
361.5685, 425.4073
362.0506, 425.4165
362.5327, 424.8493
363.0148, 425.3056
363.4969, 426.8331
363.9790, 429.2303
364.4612, 433.9256
364.9433, 438.9408
365.4254, 441.1900
365.9075, 439.7657
366.3896, 437.2919
366.8717, 438.0364
367.3539, 443.8083
367.8360, 448.9378
368.3181, 452.9162
368.8002, 456.6757
369.2823, 460.1393
369.7644, 463.7425
370.2466, 469.1320
370.7287, 478.4157
371.2108, 492.0781
371.6929, 500.7826
372.1750, 500.4305
372.6571, 499.9074
373.1393, 502.8724
373.6214, 507.3209
374.1035, 508.5824
374.5856, 503.7198
375.0677, 496.0946
375.5498, 497.1040
376.0320, 515.8055
376.5141, 529.9359
376.9962, 534.9160
377.4783, 536.4652
377.9604, 539.3148
378.4425, 544.7280
378.9247, 551.0748
379.4068, 555.9369
379.8889, 558.4600
380.3710, 562.5124
380.8531, 570.7829
381.3352, 578.1754
381.8174, 581.6426
382.2995, 582.1131
382.7816, 582.6648
383.2637, 585.4590
383.7458, 590.3240
384.2279, 596.4157
384.7101, 606.1760
385.1922, 613.2520
385.6743, 614.8261
386.1564, 613.4157
386.6385, 611.1589
387.1206, 608.3929
387.6028, 607.7299
388.0849, 614.9426
388.5670, 632.3231
389.0491, 646.5538
389.5312, 655.1391
390.0133, 658.9345
390.4955, 655.9737
390.9776, 646.8839
391.4597, 638.7831
391.9418, 637.8596
392.4239, 643.0065
392.9060, 648.1605
393.3882, 654.0469
393.8703, 657.7812
394.3524, 657.0842
394.8345, 653.0900
395.3166, 647.9651
395.7987, 642.4684
396.2809, 636.2822
396.7630, 628.6480
397.2451, 619.3879
397.7272, 610.5338
398.2093, 603.0420
398.6914, 596.4395
399.1736, 589.8827
399.6557, 583.2206
400.1378, 576.8148
400.6199, 571.0289
401.1020, 565.6555
401.5841, 560.3711
402.0662, 555.3768
402.5483, 549.6344
403.0305, 541.4762
403.5126, 531.0759
403.9947, 520.8996
404.4768, 510.6288
404.9589, 501.2558
405.4410, 494.2828
405.9232, 489.5627
406.4053, 484.9371
406.8874, 478.9337
407.3695, 471.9236
407.8516, 465.6508
408.3337, 460.1848
408.8159, 455.2780
409.2980, 450.9024
409.7801, 447.0064
410.2622, 443.9994
410.7443, 442.0481
411.2264, 439.5750
411.7086, 433.7180
412.1907, 421.7211
412.6728, 413.3715
413.1549, 410.9335
413.6370, 410.1977
414.1191, 409.3314
414.6013, 407.6632
415.0834, 403.9625
415.5655, 396.7124
416.0476, 386.3510
416.5297, 381.0568
417.0118, 386.8663
417.4940, 390.9956
417.9761, 390.3430
418.4582, 387.1988
418.9403, 384.5620
419.4224, 383.5634
419.9045, 383.0942
420.3867, 380.8258
420.8688, 375.1642
421.3509, 372.0532
421.8330, 373.7129
422.3151, 376.1608
422.7972, 378.0705
423.2794, 378.9732
423.7615, 378.2274
424.2436, 374.5041
424.7257, 368.5799
425.2078, 366.0356
425.6899, 369.4062
426.1721, 371.7294
426.6542, 368.9970
427.1363, 364.5541
427.6184, 362.5493
428.1005, 364.5116
428.5826, 367.9865
429.0648, 370.2987
429.5469, 371.4582
430.0290, 371.8163
430.5111, 371.1143
430.9932, 369.9501
431.4753, 368.2688
431.9575, 366.2991
432.4396, 365.9017
432.9217, 369.5820
433.4038, 374.8462
433.8859, 376.9978
434.3680, 375.4907
434.8502, 374.0160
435.3323, 375.2378
435.8144, 378.1149
436.2965, 379.5899
436.7786, 378.7366
437.2607, 377.7273
437.7429, 377.4748
438.2250, 377.9414
438.7071, 379.1421
439.1892, 381.1362
439.6713, 383.5752
440.1534, 386.0973
440.6356, 388.8583
441.1177, 390.8947
441.5998, 391.3424
442.0819, 391.6826
442.5640, 393.1469
443.0461, 395.5562
443.5282, 397.8455
444.0103, 399.2478
444.4925, 399.9771
444.9746, 401.2218
445.4567, 403.0267
445.9388, 405.3101
446.4209, 408.3269
446.9030, 411.6699
447.3852, 415.1172
447.8673, 418.5294
448.3494, 421.6544
448.8315, 424.0425
449.3136, 425.4102
449.7957, 427.4560
450.2779, 430.5524
450.7600, 433.9935
451.2421, 437.5380
451.7242, 441.2596
452.2063, 445.5015
452.6884, 450.5905
453.1706, 455.8509
453.6527, 459.5836
454.1348, 461.5003
454.6169, 462.7509
455.0990, 462.6658
455.5811, 462.6409
456.0633, 463.5937
456.5454, 465.6244
457.0275, 468.3692
457.5096, 472.4235
457.9917, 477.0734
458.4738, 479.5521
458.9560, 479.1160
459.4381, 478.1461
459.9202, 478.0996
460.4023, 478.6477
460.8844, 479.2608
461.3665, 480.0526
461.8487, 480.5898
462.3308, 480.4972
462.8129, 479.8677
463.2950, 478.9857
463.7771, 477.8766
464.2592, 476.7041
464.7414, 475.7977
465.2235, 475.2726
465.7056, 474.1766
466.1877, 471.8572
466.6698, 469.3281
467.1519, 467.6437
467.6341, 466.6015
468.1162, 465.0747
468.5983, 462.2998
469.0804, 458.5375
469.5625, 455.0860
470.0446, 452.9708
470.5268, 449.8514
471.0089, 444.6254
471.4910, 438.8629
471.9731, 434.1115
472.4552, 430.6199
472.9373, 427.5454
473.4195, 423.9625
473.9016, 419.8236
474.3837, 415.8782
474.8658, 411.8651
475.3479, 408.3946
475.8300, 406.7025
476.3122, 405.3390
476.7943, 401.9585
477.2764, 395.4171
477.7585, 387.7412
478.2406, 381.9209
478.7227, 378.1203
479.2049, 374.9108
479.6870, 372.1969
480.1691, 369.9051
480.6512, 368.2036
481.1333, 366.9387
481.6154, 365.3966
482.0976, 363.3094
482.5797, 360.7120
483.0618, 357.1236
483.5439, 352.4866
484.0260, 349.2866
484.5081, 349.7256
484.9902, 351.6585
485.4724, 350.1790
485.9545, 343.7970
486.4366, 338.6216
486.9187, 337.4915
487.4008, 338.4161
487.8829, 338.9081
488.3651, 338.5478
488.8472, 337.9235
489.3293, 337.6066
489.8114, 337.5873
490.2935, 336.8238
490.7756, 334.6783
491.2578, 332.6800
491.7399, 331.3292
492.2220, 330.3547
492.7041, 329.5512
493.1862, 328.8044
493.6683, 327.7260
494.1505, 325.4469
494.6326, 321.1709
495.1147, 318.8784
495.5968, 320.6197
496.0789, 322.3980
496.5610, 322.7243
497.0432, 322.0202
497.5253, 321.3749
498.0074, 321.4591
498.4895, 321.5489
498.9716, 319.9822
499.4537, 316.3828
499.9359, 313.5060
500.4180, 312.2486
500.9001, 311.7289
501.3822, 311.3959
501.8643, 311.1827
502.3464, 310.7251
502.8286, 310.0689
503.3107, 308.9644
503.7928, 306.3708
504.2749, 302.2770
504.7570, 299.6837
505.2391, 300.8409
505.7213, 304.1047
506.2034, 305.0219
506.6855, 302.6939
507.1676, 300.4728
507.6497, 298.8557
508.1318, 298.0081
508.6140, 298.6479
509.0961, 300.6196
509.5782, 302.2767
510.0603, 302.1388
510.5424, 300.2970
511.0245, 298.5420
511.5067, 295.9407
511.9888, 294.5738
512.4709, 296.4633
512.9530, 298.9212
513.4351, 298.5158
513.9172, 294.5961
514.3994, 290.0567
514.8815, 288.7800
515.3636, 291.1391
515.8457, 291.5530
516.3278, 288.1160
516.8099, 285.2657
517.2921, 285.2047
517.7742, 286.7239
518.2563, 288.0263
518.7384, 288.5720
519.2205, 288.5956
519.7026, 288.8080
520.1848, 288.9697
520.6669, 286.5700
521.1490, 279.5870
521.6311, 272.9567
522.1132, 272.7587
522.5953, 277.7970
523.0775, 282.1652
523.5596, 285.6866
524.0417, 287.4786
524.5238, 285.2162
525.0059, 280.5917
525.4880, 278.6981
525.9702, 281.8482
526.4523, 287.0837
526.9344, 289.3738
527.4165, 287.4548
527.8986, 285.6247
528.3807, 282.9502
528.8629, 281.2111
529.3450, 282.2240
529.8271, 284.9420
530.3092, 286.9704
530.7913, 286.9581
531.2734, 285.4654
531.7556, 283.3548
532.2377, 279.3922
532.7198, 278.3580
533.2019, 284.6271
533.6840, 291.0211
534.1661, 293.5314
534.6483, 292.4844
535.1304, 290.4857
535.6125, 288.1430
536.0946, 286.3103
536.5767, 286.9503
537.0588, 290.1844
537.5410, 293.3068
538.0231, 295.1582
538.5052, 296.4433
538.9873, 298.1353
539.4694, 300.1886
539.9515, 302.8291
540.4337, 306.5930
540.9158, 310.6707
541.3979, 314.6781
541.8800, 318.3616
542.3621, 320.9117
542.8442, 321.7710
543.3264, 321.2171
543.8085, 320.1333
544.2906, 315.5897
544.7726, 314.8004
545.2548, 321.5601
545.7369, 329.2002
546.2190, 332.1689
546.7011, 331.0141
547.1832, 330.2805
547.6653, 333.7459
548.1475, 339.9834
548.6296, 342.7397
549.1117, 339.9957
549.5938, 339.0839
550.0759, 343.5190
550.5580, 349.7208
551.0402, 355.6980
551.5223, 361.1433
552.0044, 365.3792
552.4865, 367.3756
552.9686, 368.1571
553.4507, 369.6875
553.9329, 372.0519
554.4150, 373.8456
554.8971, 373.9638
555.3792, 373.3210
555.8613, 374.3365
556.3434, 377.4691
556.8256, 380.7250
557.3077, 385.3224
557.7898, 388.7965
558.2719, 388.2292
558.7540, 384.0387
559.2361, 379.0600
559.7183, 375.1887
560.2004, 372.2096
560.6825, 369.0916
561.1646, 365.5854
561.6467, 362.4211
562.1288, 359.2061
562.6110, 356.6540
563.0931, 355.9499
563.5752, 356.6245
564.0573, 356.3732
564.5394, 352.6285
565.0215, 347.3365
565.5037, 346.0843
565.9858, 349.5705
566.4679, 352.4641
566.9500, 352.3301
567.4321, 351.0340
567.9142, 350.7997
568.3964, 351.5962
568.8785, 353.7121
569.3606, 358.1597
569.8427, 363.3483
570.3248, 367.9353
570.8069, 371.7850
571.2891, 374.7274
571.7712, 376.4069
572.2533, 377.7972
572.7354, 381.3132
573.2175, 388.1656
573.6996, 395.1736
574.1818, 402.9352
574.6639, 410.3434
575.1460, 416.7101
575.6281, 422.1620
576.1102, 427.0200
576.5923, 431.3824
577.0745, 435.5937
577.5566, 440.3460
578.0387, 445.6100
578.5208, 451.5341
579.0029, 458.0777
579.4850, 465.3622
579.9672, 474.1494
580.4493, 483.8812
580.9314, 492.1905
581.4135, 497.5024
581.8956, 501.6132
582.3777, 505.8084
582.8599, 510.2228
583.3420, 515.4232
583.8241, 521.6057
584.3062, 528.7276
584.7883, 537.0167
585.2704, 547.0687
585.7526, 555.2864
586.2347, 560.5548
586.7168, 565.3576
587.1989, 570.0435
