##NAMES=Eosphorite
##RRUFFID=R050570
##IDEAL CHEMISTRY=Mn^2+^AlPO_4_(OH)_2_&#183;H_2_O
##LOCALITY=Lavra da Ilha, Minas Gerais, Brazil
##OWNER=RRUFF
##SOURCE=University of Arizona Mineral Museum
##DESCRIPTION=Pale brown prismatic crystals with wedge-shaped terminations
##STATUS=The identification of this mineral has been confirmed by X-ray diffraction and chemical analysis
##URL=rruff.info/R050570
##MEASURED CHEMISTRY=(Mn_0.42_Fe^2+^_0.40_Ca_0.13_Mg_0.05_)Al(PO_4_)((OH)_0.96_F_0.04_)_2_Î‡H_2_O
92.06543, 4466.379
92.54755, 4525.843
93.02966, 4561.832
93.51178, 4499.763
93.99390, 4403.052
94.47601, 4289.279
94.95813, 4168.775
95.44025, 4047.974
95.92236, 3932.735
96.40448, 3822.719
96.88660, 3706.370
97.36871, 3575.055
97.85082, 3448.098
98.33294, 3341.290
98.81506, 3254.394
99.29717, 3167.093
99.77929, 3069.649
100.2614, 2964.019
100.7435, 2862.611
101.2256, 2762.691
101.7078, 2667.852
102.1899, 2589.409
102.6720, 2533.732
103.1541, 2489.236
103.6362, 2441.462
104.1183, 2390.420
104.6005, 2344.586
105.0826, 2313.491
105.5647, 2298.828
106.0468, 2282.965
106.5289, 2268.733
107.0110, 2247.469
107.4931, 2211.060
107.9753, 2157.247
108.4574, 2093.798
108.9395, 2035.143
109.4216, 1980.174
109.9037, 1932.797
110.3858, 1894.485
110.8680, 1862.305
111.3501, 1833.719
111.8322, 1807.278
112.3143, 1783.140
112.7964, 1762.097
113.2785, 1745.077
113.7607, 1729.707
114.2428, 1715.358
114.7249, 1702.197
115.2070, 1690.561
115.6891, 1680.753
116.1712, 1672.959
116.6534, 1667.055
117.1355, 1664.565
117.6176, 1662.760
118.0997, 1658.958
118.5818, 1652.780
119.0639, 1647.302
119.5461, 1646.502
120.0282, 1648.971
120.5103, 1650.716
120.9924, 1649.349
121.4745, 1646.473
121.9566, 1646.084
122.4388, 1649.850
122.9209, 1654.189
123.4030, 1656.919
123.8851, 1658.183
124.3672, 1658.488
124.8493, 1658.166
125.3315, 1657.221
125.8136, 1655.502
126.2957, 1651.307
126.7778, 1647.561
127.2599, 1646.256
127.7420, 1647.225
128.2242, 1648.225
128.7063, 1645.740
129.1884, 1636.254
129.6705, 1630.639
130.1526, 1631.680
130.6347, 1634.240
131.1169, 1634.202
131.5990, 1630.278
132.0811, 1624.450
132.5632, 1621.102
133.0453, 1624.321
133.5274, 1625.081
134.0096, 1621.316
134.4917, 1615.149
134.9738, 1609.633
135.4559, 1606.258
135.9380, 1604.279
136.4201, 1601.107
136.9023, 1595.420
137.3844, 1590.525
137.8665, 1588.874
138.3486, 1589.692
138.8307, 1589.312
139.3128, 1585.244
139.7950, 1578.694
140.2771, 1572.843
140.7592, 1567.788
141.2413, 1563.523
141.7234, 1560.573
142.2055, 1559.371
142.6877, 1557.277
143.1698, 1550.992
143.6519, 1543.443
144.1340, 1538.146
144.6161, 1537.127
145.0982, 1538.825
145.5803, 1539.074
146.0625, 1536.746
146.5446, 1534.698
147.0267, 1534.462
147.5088, 1535.072
147.9909, 1534.927
148.4730, 1532.671
148.9552, 1528.483
149.4373, 1526.057
149.9194, 1527.051
150.4015, 1528.430
150.8836, 1529.856
151.3657, 1531.091
151.8479, 1531.910
152.3300, 1532.118
152.8121, 1531.707
153.2942, 1530.603
153.7763, 1527.438
154.2584, 1524.858
154.7406, 1524.658
155.2227, 1526.698
155.7048, 1529.117
156.1869, 1529.682
156.6690, 1527.343
157.1511, 1527.321
157.6333, 1531.651
158.1154, 1537.103
158.5975, 1540.519
159.0796, 1541.189
159.5617, 1541.202
160.0438, 1543.742
160.5260, 1549.017
161.0081, 1552.989
161.4902, 1553.074
161.9723, 1551.494
162.4544, 1552.738
162.9365, 1558.775
163.4187, 1565.942
163.9008, 1569.815
164.3829, 1570.571
164.8650, 1571.059
165.3471, 1573.145
165.8292, 1576.515
166.3113, 1578.826
166.7935, 1577.751
167.2756, 1577.346
167.7577, 1580.906
168.2398, 1588.481
168.7219, 1597.368
169.2040, 1605.344
169.6862, 1612.410
170.1683, 1618.416
170.6504, 1622.841
171.1325, 1626.438
171.6146, 1629.329
172.0967, 1631.596
172.5789, 1633.638
173.0610, 1636.073
173.5431, 1639.202
174.0252, 1642.021
174.5073, 1643.641
174.9894, 1645.486
175.4716, 1649.335
175.9537, 1655.534
176.4358, 1662.178
176.9179, 1665.308
177.4000, 1661.898
177.8821, 1658.787
178.3643, 1655.649
178.8464, 1653.112
179.3285, 1652.029
179.8106, 1652.743
180.2927, 1654.623
180.7748, 1655.948
181.2570, 1656.186
181.7391, 1656.549
182.2212, 1657.222
182.7033, 1658.090
183.1854, 1658.891
183.6675, 1659.439
184.1497, 1659.989
184.6318, 1661.444
185.1139, 1664.118
185.5960, 1666.929
186.0781, 1670.007
186.5602, 1673.009
187.0423, 1674.723
187.5245, 1673.966
188.0066, 1672.089
188.4887, 1672.339
188.9708, 1675.579
189.4529, 1679.297
189.9350, 1681.922
190.4172, 1683.526
190.8993, 1685.111
191.3814, 1687.344
191.8635, 1689.640
192.3456, 1691.218
192.8277, 1691.888
193.3099, 1692.033
193.7920, 1691.389
194.2741, 1689.621
194.7562, 1689.614
195.2383, 1695.062
195.7204, 1701.821
196.2026, 1706.231
196.6847, 1707.004
197.1668, 1706.268
197.6489, 1707.401
198.1310, 1711.232
198.6131, 1714.597
199.0953, 1716.771
199.5774, 1718.069
200.0595, 1718.324
200.5416, 1717.347
201.0237, 1716.119
201.5058, 1716.808
201.9880, 1719.934
202.4701, 1724.296
202.9522, 1730.688
203.4343, 1737.521
203.9164, 1743.249
204.3985, 1747.165
204.8807, 1749.590
205.3628, 1751.368
205.8449, 1751.147
206.3270, 1752.080
206.8091, 1756.092
207.2912, 1760.839
207.7733, 1763.471
208.2555, 1762.512
208.7376, 1758.997
209.2197, 1756.764
209.7018, 1757.457
210.1839, 1757.655
210.6660, 1756.958
211.1482, 1755.579
211.6303, 1753.620
212.1124, 1751.046
212.5945, 1748.256
213.0766, 1746.911
213.5587, 1749.391
214.0409, 1750.428
214.5230, 1748.144
215.0051, 1743.778
215.4872, 1739.343
215.9693, 1735.717
216.4514, 1732.941
216.9336, 1731.348
217.4157, 1732.144
217.8978, 1732.291
218.3799, 1730.406
218.8620, 1727.081
219.3441, 1723.753
219.8263, 1721.112
220.3084, 1718.918
220.7905, 1716.410
221.2726, 1713.004
221.7547, 1710.250
222.2368, 1709.568
222.7190, 1710.403
223.2011, 1710.325
223.6832, 1707.670
224.1653, 1704.062
224.6474, 1702.808
225.1295, 1704.969
225.6117, 1706.912
226.0938, 1706.085
226.5759, 1702.733
227.0580, 1698.901
227.5401, 1695.187
228.0222, 1691.419
228.5043, 1687.666
228.9865, 1684.214
229.4686, 1679.702
229.9507, 1672.496
230.4328, 1662.637
230.9149, 1653.018
231.3970, 1644.320
231.8792, 1636.476
232.3613, 1629.287
232.8434, 1622.746
233.3255, 1617.089
233.8076, 1613.317
234.2897, 1611.745
234.7719, 1608.377
235.2540, 1600.532
235.7361, 1591.682
236.2182, 1583.641
236.7003, 1576.698
237.1824, 1570.744
237.6646, 1565.720
238.1467, 1561.668
238.6288, 1558.141
239.1109, 1554.729
239.5930, 1552.085
240.0751, 1551.667
240.5573, 1553.180
241.0394, 1553.782
241.5215, 1548.864
242.0036, 1535.817
242.4857, 1527.882
242.9678, 1530.810
243.4500, 1534.929
243.9321, 1535.758
244.4142, 1532.781
244.8963, 1527.972
245.3784, 1523.174
245.8605, 1517.966
246.3427, 1514.452
246.8248, 1514.321
247.3069, 1514.374
247.7890, 1513.212
248.2711, 1510.703
248.7532, 1507.429
249.2354, 1503.898
249.7175, 1500.037
250.1996, 1496.306
250.6817, 1492.745
251.1638, 1489.281
251.6459, 1485.716
252.1281, 1482.154
252.6102, 1479.002
253.0923, 1476.693
253.5744, 1475.406
254.0565, 1473.879
254.5386, 1472.651
255.0208, 1470.737
255.5029, 1467.182
255.9850, 1462.370
256.4671, 1457.529
256.9492, 1453.607
257.4313, 1450.586
257.9135, 1448.910
258.3956, 1449.977
258.8777, 1450.726
259.3598, 1449.872
259.8419, 1447.560
260.3240, 1444.471
260.8062, 1440.971
261.2883, 1437.071
261.7704, 1434.229
262.2525, 1433.750
262.7346, 1432.759
263.2167, 1429.760
263.6989, 1425.257
264.1810, 1420.677
264.6631, 1416.837
265.1452, 1413.737
265.6273, 1411.358
266.1094, 1409.979
266.5916, 1408.865
267.0737, 1407.482
267.5558, 1406.152
268.0379, 1405.827
268.5200, 1407.263
269.0021, 1409.836
269.4843, 1410.870
269.9664, 1408.809
270.4485, 1407.425
270.9306, 1408.780
271.4127, 1411.653
271.8948, 1413.300
272.3770, 1412.301
272.8591, 1409.753
273.3412, 1408.327
273.8233, 1407.336
274.3054, 1408.293
274.7875, 1413.140
275.2697, 1420.085
275.7518, 1425.549
276.2339, 1428.035
276.7160, 1429.209
277.1981, 1432.403
277.6802, 1438.013
278.1623, 1443.132
278.6444, 1446.645
279.1266, 1449.239
279.6087, 1451.972
280.0908, 1455.081
280.5729, 1458.521
281.0550, 1462.228
281.5371, 1466.151
282.0193, 1470.660
282.5014, 1475.792
282.9835, 1481.590
283.4656, 1488.281
283.9477, 1495.989
284.4298, 1504.071
284.9120, 1511.971
285.3941, 1519.694
285.8762, 1526.833
286.3583, 1532.861
286.8404, 1538.456
287.3225, 1544.519
287.8047, 1551.192
288.2868, 1557.799
288.7689, 1563.898
289.2510, 1569.485
289.7331, 1574.696
290.2152, 1579.214
290.6974, 1583.525
291.1795, 1587.692
291.6616, 1591.678
292.1437, 1596.888
292.6258, 1605.247
293.1079, 1615.327
293.5901, 1623.747
294.0722, 1629.564
294.5543, 1634.327
295.0364, 1639.021
295.5185, 1643.682
296.0006, 1648.667
296.4828, 1654.323
296.9649, 1660.316
297.4470, 1665.952
297.9291, 1670.962
298.4112, 1676.177
298.8933, 1682.716
299.3755, 1690.214
299.8576, 1696.585
300.3397, 1700.935
300.8218, 1703.958
301.3039, 1706.849
301.7860, 1709.671
302.2682, 1711.894
302.7503, 1712.335
303.2324, 1711.790
303.7145, 1713.377
304.1966, 1718.783
304.6787, 1724.795
305.1609, 1728.173
305.6430, 1729.187
306.1251, 1729.171
306.6072, 1728.552
307.0893, 1727.335
307.5714, 1725.639
308.0536, 1723.651
308.5357, 1720.697
309.0178, 1715.174
309.4999, 1708.077
309.9820, 1702.160
310.4641, 1699.374
310.9463, 1697.872
311.4284, 1695.252
311.9105, 1691.534
312.3926, 1686.348
312.8747, 1678.676
313.3568, 1669.463
313.8390, 1660.293
314.3211, 1651.149
314.8032, 1642.488
315.2853, 1635.138
315.7674, 1629.148
316.2495, 1622.539
316.7317, 1613.849
317.2138, 1604.252
317.6959, 1595.658
318.1780, 1588.469
318.6601, 1581.561
319.1422, 1574.256
319.6243, 1566.531
320.1064, 1558.236
320.5886, 1548.429
321.0707, 1539.105
321.5528, 1533.193
322.0349, 1530.972
322.5170, 1527.791
322.9991, 1519.917
323.4813, 1509.122
323.9634, 1500.529
324.4455, 1495.658
324.9276, 1491.961
325.4097, 1487.465
325.8918, 1482.202
326.3740, 1475.849
326.8561, 1466.236
327.3382, 1456.144
327.8203, 1450.631
328.3024, 1450.807
328.7845, 1451.726
329.2667, 1449.203
329.7488, 1444.584
330.2309, 1441.182
330.7130, 1440.337
331.1951, 1440.459
331.6772, 1440.358
332.1594, 1440.019
332.6415, 1438.718
333.1236, 1435.429
333.6057, 1431.169
334.0878, 1428.133
334.5699, 1426.756
335.0521, 1425.938
335.5342, 1425.048
336.0163, 1424.142
336.4984, 1423.432
336.9805, 1423.005
337.4626, 1422.807
337.9448, 1423.227
338.4269, 1424.686
338.9090, 1424.342
339.3911, 1418.980
339.8732, 1411.424
340.3553, 1407.700
340.8375, 1409.671
341.3196, 1412.771
341.8017, 1411.296
342.2838, 1405.761
342.7659, 1401.703
343.2480, 1400.548
343.7302, 1401.151
344.2123, 1403.039
344.6944, 1406.114
345.1765, 1408.361
345.6586, 1408.037
346.1407, 1405.435
346.6229, 1403.356
347.1050, 1401.755
347.5871, 1400.745
348.0692, 1401.238
348.5513, 1402.627
349.0334, 1402.303
349.5156, 1398.375
349.9977, 1392.599
350.4798, 1389.958
350.9619, 1391.679
351.4440, 1393.381
351.9261, 1394.494
352.4083, 1394.527
352.8904, 1391.699
353.3725, 1385.088
353.8546, 1378.406
354.3367, 1377.829
354.8188, 1385.533
355.3010, 1389.947
355.7831, 1386.988
356.2652, 1382.214
356.7473, 1381.361
357.2294, 1384.768
357.7115, 1387.638
358.1937, 1385.389
358.6758, 1377.725
359.1579, 1372.551
359.6400, 1371.342
360.1221, 1370.895
360.6042, 1369.377
361.0863, 1367.316
361.5685, 1366.639
362.0506, 1368.713
362.5327, 1372.474
363.0148, 1373.466
363.4969, 1369.402
363.9790, 1365.658
364.4612, 1363.200
364.9433, 1361.377
365.4254, 1359.355
365.9075, 1356.869
366.3896, 1354.393
366.8717, 1352.752
367.3539, 1352.665
367.8360, 1351.772
368.3181, 1348.803
368.8002, 1346.060
369.2823, 1345.945
369.7644, 1348.004
370.2466, 1349.194
370.7287, 1346.428
371.2108, 1339.338
371.6929, 1334.696
372.1750, 1333.843
372.6571, 1333.781
373.1393, 1334.150
373.6214, 1334.617
374.1035, 1334.781
374.5856, 1334.412
375.0677, 1333.635
375.5498, 1332.900
376.0320, 1332.925
376.5141, 1331.813
376.9962, 1328.602
377.4783, 1324.757
377.9604, 1321.026
378.4425, 1317.796
378.9247, 1315.909
379.4068, 1317.196
379.8889, 1323.397
380.3710, 1326.652
380.8531, 1324.408
381.3352, 1321.510
381.8174, 1319.478
382.2995, 1318.560
382.7816, 1318.784
383.2637, 1320.539
383.7458, 1323.461
384.2279, 1325.005
384.7101, 1324.646
385.1922, 1323.578
385.6743, 1321.081
386.1564, 1318.590
386.6385, 1317.989
387.1206, 1320.164
387.6028, 1323.726
388.0849, 1326.981
388.5670, 1330.266
389.0491, 1331.513
389.5312, 1326.467
390.0133, 1321.923
390.4955, 1323.366
390.9776, 1330.819
391.4597, 1338.599
391.9418, 1341.778
392.4239, 1341.239
392.9060, 1342.171
393.3882, 1345.454
393.8703, 1349.337
394.3524, 1353.050
394.8345, 1356.477
395.3166, 1359.313
395.7987, 1361.376
396.2809, 1362.837
396.7630, 1363.332
397.2451, 1362.713
397.7272, 1363.675
398.2093, 1368.966
398.6914, 1375.645
399.1736, 1378.919
399.6557, 1377.801
400.1378, 1376.104
400.6199, 1376.231
401.1020, 1377.516
401.5841, 1378.024
402.0662, 1377.106
402.5483, 1375.937
403.0305, 1375.972
403.5126, 1377.124
403.9947, 1378.304
404.4768, 1378.855
404.9589, 1379.659
405.4410, 1382.610
405.9232, 1387.325
406.4053, 1389.783
406.8874, 1386.549
407.3695, 1379.090
407.8516, 1375.070
408.3337, 1377.101
408.8159, 1379.033
409.2980, 1378.576
409.7801, 1376.888
410.2622, 1375.915
410.7443, 1376.335
411.2264, 1377.310
411.7086, 1377.568
412.1907, 1377.107
412.6728, 1375.709
413.1549, 1371.961
413.6370, 1368.417
414.1191, 1367.432
414.6013, 1368.537
415.0834, 1369.080
415.5655, 1366.747
416.0476, 1361.798
416.5297, 1358.938
417.0118, 1360.757
417.4940, 1361.765
417.9761, 1360.002
418.4582, 1357.305
418.9403, 1356.191
419.4224, 1357.582
419.9045, 1360.103
420.3867, 1361.342
420.8688, 1360.817
421.3509, 1360.277
421.8330, 1358.928
422.3151, 1358.323
422.7972, 1359.826
423.2794, 1363.006
423.7615, 1366.168
424.2436, 1368.074
424.7257, 1368.819
425.2078, 1368.978
425.6899, 1367.985
426.1721, 1367.399
426.6542, 1367.942
427.1363, 1369.075
427.6184, 1370.170
428.1005, 1371.012
428.5826, 1371.862
429.0648, 1372.677
429.5469, 1373.437
430.0290, 1375.878
430.5111, 1382.178
430.9932, 1388.205
431.4753, 1389.876
431.9575, 1387.698
432.4396, 1385.835
432.9217, 1385.828
433.4038, 1387.536
433.8859, 1391.332
434.3680, 1397.466
434.8502, 1403.259
435.3323, 1406.810
435.8144, 1408.793
436.2965, 1411.250
436.7786, 1414.116
437.2607, 1417.648
437.7429, 1422.506
438.2250, 1428.096
438.7071, 1432.745
439.1892, 1435.729
439.6713, 1438.733
440.1534, 1444.389
440.6356, 1453.592
441.1177, 1461.392
441.5998, 1465.746
442.0819, 1470.001
442.5640, 1476.329
443.0461, 1484.747
443.5282, 1494.754
444.0103, 1506.246
444.4925, 1518.716
444.9746, 1529.159
445.4567, 1535.069
445.9388, 1542.005
446.4209, 1551.357
446.9030, 1561.530
447.3852, 1570.622
447.8673, 1578.266
448.3494, 1586.210
448.8315, 1596.967
449.3136, 1611.347
449.7957, 1624.405
450.2779, 1634.446
450.7600, 1644.890
451.2421, 1656.929
451.7242, 1670.237
452.2063, 1684.309
452.6884, 1699.027
453.1706, 1713.664
453.6527, 1726.010
454.1348, 1735.191
454.6169, 1744.693
455.0990, 1755.352
455.5811, 1766.696
456.0633, 1778.517
456.5454, 1790.769
457.0275, 1803.465
457.5096, 1816.784
457.9917, 1830.586
458.4738, 1844.835
458.9560, 1860.028
459.4381, 1874.348
459.9202, 1887.124
460.4023, 1898.055
460.8844, 1906.077
461.3665, 1909.373
461.8487, 1911.988
462.3308, 1917.821
462.8129, 1925.645
463.2950, 1931.003
463.7771, 1932.222
464.2592, 1931.173
464.7414, 1930.697
465.2235, 1931.209
465.7056, 1929.363
466.1877, 1924.799
466.6698, 1917.699
467.1519, 1906.971
467.6341, 1893.453
468.1162, 1880.721
468.5983, 1871.381
469.0804, 1864.199
469.5625, 1853.801
470.0446, 1838.292
470.5268, 1821.877
471.0089, 1804.297
471.4910, 1786.306
471.9731, 1768.939
472.4552, 1752.238
472.9373, 1735.107
473.4195, 1716.050
473.9016, 1694.829
474.3837, 1675.268
474.8658, 1658.644
475.3479, 1642.444
475.8300, 1626.074
476.3122, 1609.705
476.7943, 1593.376
477.2764, 1577.118
477.7585, 1561.109
478.2406, 1545.341
478.7227, 1529.804
479.2049, 1515.220
479.6870, 1502.524
480.1691, 1490.010
480.6512, 1476.113
481.1333, 1461.238
481.6154, 1447.200
482.0976, 1434.712
482.5797, 1423.665
483.0618, 1414.325
483.5439, 1406.750
484.0260, 1398.877
484.5081, 1389.353
484.9902, 1379.113
485.4724, 1370.011
485.9545, 1362.053
486.4366, 1355.070
486.9187, 1349.734
487.4008, 1344.977
487.8829, 1339.130
488.3651, 1331.999
488.8472, 1325.029
489.3293, 1319.539
489.8114, 1315.484
490.2935, 1311.652
490.7756, 1308.460
491.2578, 1304.972
491.7399, 1301.033
492.2220, 1296.625
492.7041, 1291.377
493.1862, 1285.279
493.6683, 1279.422
494.1505, 1275.606
494.6326, 1274.583
495.1147, 1272.671
495.5968, 1268.687
496.0789, 1264.980
496.5610, 1262.865
497.0432, 1261.607
497.5253, 1259.546
498.0074, 1255.620
498.4895, 1251.148
498.9716, 1248.949
499.4537, 1249.508
499.9359, 1249.168
500.4180, 1246.023
500.9001, 1242.621
501.3822, 1241.218
501.8643, 1241.673
502.3464, 1242.234
502.8286, 1242.339
503.3107, 1241.935
503.7928, 1240.869
504.2749, 1239.139
504.7570, 1237.068
505.2391, 1234.738
505.7213, 1232.235
506.2034, 1229.702
506.6855, 1226.558
507.1676, 1224.669
507.6497, 1225.896
508.1318, 1227.897
508.6140, 1227.857
509.0961, 1225.506
509.5782, 1222.525
510.0603, 1220.310
510.5424, 1218.835
511.0245, 1217.647
511.5067, 1217.357
511.9888, 1216.615
512.4709, 1214.433
512.9530, 1212.067
513.4351, 1211.149
513.9172, 1211.982
514.3994, 1213.145
514.8815, 1212.644
515.3636, 1210.251
515.8457, 1209.439
516.3278, 1212.291
516.8099, 1213.904
517.2921, 1211.006
517.7742, 1206.082
518.2563, 1203.089
518.7384, 1203.627
519.2205, 1205.369
519.7026, 1206.045
520.1848, 1205.714
520.6669, 1204.708
521.1490, 1202.794
521.6311, 1200.814
522.1132, 1199.719
522.5953, 1199.349
523.0775, 1198.990
523.5596, 1198.625
524.0417, 1198.134
524.5238, 1196.932
525.0059, 1195.506
525.4880, 1195.448
525.9702, 1197.529
526.4523, 1200.441
526.9344, 1202.035
527.4165, 1202.130
527.8986, 1201.137
528.3807, 1197.614
528.8629, 1194.438
529.3450, 1193.580
529.8271, 1194.359
530.3092, 1194.814
530.7913, 1193.766
531.2734, 1192.171
531.7556, 1192.659
532.2377, 1196.361
532.7198, 1198.931
533.2019, 1198.848
533.6840, 1198.186
534.1661, 1197.573
534.6483, 1197.287
535.1304, 1198.035
535.6125, 1201.250
536.0946, 1205.097
536.5767, 1205.686
537.0588, 1202.827
537.5410, 1200.715
538.0231, 1201.160
538.5052, 1203.060
538.9873, 1204.321
539.4694, 1204.592
539.9515, 1206.711
540.4337, 1213.838
540.9158, 1221.607
541.3979, 1224.951
541.8800, 1224.360
542.3621, 1224.256
542.8442, 1227.435
543.3264, 1232.885
543.8085, 1237.166
544.2906, 1239.431
544.7726, 1241.590
545.2548, 1243.395
545.7369, 1245.308
546.2190, 1247.728
546.7011, 1250.596
547.1832, 1253.546
547.6653, 1256.244
548.1475, 1258.823
548.6296, 1261.539
549.1117, 1263.797
549.5938, 1267.727
550.0759, 1276.798
550.5580, 1285.905
551.0402, 1290.312
551.5223, 1289.938
552.0044, 1290.294
552.4865, 1295.147
552.9686, 1302.600
553.4507, 1309.439
553.9329, 1315.527
554.4150, 1321.533
554.8971, 1327.691
555.3792, 1334.090
555.8613, 1340.857
556.3434, 1347.742
556.8256, 1355.494
557.3077, 1367.841
557.7898, 1378.691
558.2719, 1381.080
558.7540, 1375.873
559.2361, 1369.618
559.7183, 1366.931
560.2004, 1366.658
560.6825, 1363.666
561.1646, 1355.595
561.6467, 1348.851
562.1288, 1345.902
562.6110, 1342.872
563.0931, 1336.831
563.5752, 1327.888
564.0573, 1317.986
564.5394, 1307.269
565.0215, 1297.207
565.5037, 1292.316
565.9858, 1293.347
566.4679, 1294.611
566.9500, 1294.435
567.4321, 1293.091
567.9142, 1290.549
568.3964, 1286.621
568.8785, 1284.088
569.3606, 1283.888
569.8427, 1285.510
570.3248, 1289.413
570.8069, 1294.945
571.2891, 1299.181
571.7712, 1300.200
572.2533, 1299.816
572.7354, 1302.587
573.2175, 1311.035
573.6996, 1318.307
574.1818, 1323.318
574.6639, 1328.215
575.1460, 1334.222
575.6281, 1341.256
576.1102, 1348.739
576.5923, 1356.405
577.0745, 1364.100
577.5566, 1371.355
578.0387, 1377.994
578.5208, 1385.162
579.0029, 1393.440
579.4850, 1401.864
579.9672, 1409.201
580.4493, 1415.894
580.9314, 1423.859
581.4135, 1434.870
581.8956, 1446.556
582.3777, 1455.725
582.8599, 1463.412
583.3420, 1474.204
583.8241, 1490.064
584.3062, 1507.711
584.7883, 1522.499
585.2704, 1533.389
585.7526, 1546.992
586.2347, 1564.727
