##NAMES=Eosphorite
##RRUFFID=R060293
##IDEAL CHEMISTRY=Mn^2+^AlPO_4_(OH)_2_&#183;H_2_O
##LOCALITY=Mawi area, Nuristan, Laghman Province, Afghanistan
##OWNER=RRUFF
##SOURCE=Herb Obodda
##DESCRIPTION=Orange brown prismatic crystal
##STATUS=The identification of this mineral has been confirmed by X-ray diffraction and chemical analysis
##URL=rruff.info/R060293
##MEASURED CHEMISTRY=(Mn^2+^_0.67_Fe^2+^_0.30_Ca_0.03_)_Σ=1_Al_1.00_(P_1.00_O_4_)(OH)_2_·H_2_O
90.01007, 0.0000000E+00
90.49219, 30.77525
90.97430, 29.72664
91.45642, 29.35477
91.93854, 30.35690
92.42065, 31.83237
92.90277, 32.49405
93.38489, 32.23918
93.86700, 31.31660
94.34912, 29.71716
94.83124, 27.55606
95.31335, 25.53639
95.79547, 23.97914
96.27759, 22.89769
96.75970, 22.36875
97.24182, 22.57727
97.72394, 23.14271
98.20605, 23.25802
98.68817, 22.89479
99.17029, 22.30157
99.65240, 21.28693
100.1345, 19.74548
100.6166, 19.50145
101.0988, 21.50156
101.5809, 25.30973
102.0630, 27.03284
102.5451, 25.93736
103.0272, 24.08917
103.5093, 24.17545
103.9915, 27.52679
104.4736, 29.29189
104.9557, 27.43083
105.4378, 20.79203
105.9199, 17.12075
106.4020, 17.67603
106.8842, 20.55848
107.3663, 22.48027
107.8484, 22.64710
108.3305, 22.75270
108.8126, 23.39548
109.2947, 25.13380
109.7769, 26.48667
110.2590, 27.97556
110.7411, 29.17164
111.2232, 28.70482
111.7053, 23.98013
112.1874, 19.39404
112.6696, 16.95798
113.1517, 18.85190
113.6338, 20.76069
114.1159, 22.13157
114.5980, 23.01498
115.0801, 23.84552
115.5623, 24.99642
116.0444, 25.99225
116.5265, 26.46382
117.0086, 25.60670
117.4907, 24.83468
117.9728, 24.90686
118.4550, 25.87485
118.9371, 26.47952
119.4192, 25.77886
119.9013, 24.47551
120.3834, 23.47562
120.8655, 23.19643
121.3477, 23.32060
121.8298, 23.73756
122.3119, 24.50337
122.7940, 25.18576
123.2761, 25.47961
123.7582, 25.46040
124.2404, 25.29626
124.7225, 25.25918
125.2046, 25.06157
125.6867, 24.05603
126.1688, 21.64804
126.6509, 19.63562
127.1331, 20.65594
127.6152, 24.15419
128.0973, 27.37251
128.5794, 27.57955
129.0615, 26.08030
129.5436, 26.17800
130.0258, 29.29744
130.5079, 33.56322
130.9900, 35.10494
131.4721, 33.91220
131.9542, 33.13588
132.4363, 36.09752
132.9185, 42.26800
133.4006, 48.01730
133.8827, 52.43337
134.3648, 55.65246
134.8469, 57.94444
135.3290, 58.96221
135.8112, 60.59052
136.2933, 65.40810
136.7754, 73.63536
137.2575, 81.82879
137.7396, 88.46104
138.2217, 93.50809
138.7039, 100.8280
139.1860, 111.1893
139.6681, 122.6366
140.1502, 132.3311
140.6323, 139.7629
141.1144, 146.8244
141.5966, 154.1967
142.0787, 161.8880
142.5608, 169.7353
143.0429, 177.8764
143.5250, 186.0782
144.0071, 193.7813
144.4893, 200.9150
144.9714, 207.5547
145.4535, 213.5035
145.9356, 218.0097
146.4177, 223.4254
146.8998, 229.6833
147.3820, 236.8651
147.8641, 245.6952
148.3462, 257.1555
148.8283, 269.2271
149.3104, 280.9169
149.7925, 290.4104
150.2747, 301.8393
150.7568, 316.4663
151.2389, 333.9081
151.7210, 349.4533
152.2031, 361.9398
152.6852, 373.0949
153.1674, 384.1253
153.6495, 394.4478
154.1316, 405.1981
154.6137, 417.2013
155.0958, 430.5069
155.5779, 442.0765
156.0601, 450.8600
156.5422, 458.0998
157.0243, 464.7470
157.5064, 470.6346
157.9885, 476.2639
158.4706, 481.5948
158.9528, 486.5523
159.4349, 491.9305
159.9170, 497.9167
160.3991, 504.4357
160.8812, 511.4008
161.3633, 518.5256
161.8455, 526.3007
162.3276, 535.1129
162.8097, 545.0287
163.2918, 555.2311
163.7739, 564.7347
164.2560, 573.7008
164.7382, 579.7426
165.2203, 586.4678
165.7024, 594.4797
166.1845, 603.7924
166.6666, 615.0748
167.1487, 625.5256
167.6309, 632.4169
168.1130, 637.4551
168.5951, 644.1179
169.0772, 656.3023
169.5593, 669.6447
170.0414, 680.5156
170.5236, 688.1877
171.0057, 693.7347
171.4878, 697.9174
171.9699, 700.7188
172.4520, 701.9765
172.9341, 700.9962
173.4163, 698.7019
173.8984, 696.0706
174.3805, 693.0314
174.8626, 690.1447
175.3447, 688.3734
175.8268, 687.3818
176.3090, 685.6062
176.7911, 680.1423
177.2732, 673.5191
177.7553, 670.1804
178.2374, 672.8231
178.7195, 677.3965
179.2017, 678.7228
179.6838, 677.0590
180.1659, 674.6480
180.6480, 672.0840
181.1301, 670.0396
181.6122, 670.2390
182.0944, 674.4325
182.5765, 680.1914
183.0586, 683.4594
183.5407, 684.2131
184.0228, 684.0242
184.5049, 683.3729
184.9871, 682.6857
185.4692, 683.6057
185.9513, 687.3079
186.4334, 692.6834
186.9155, 697.4446
187.3976, 701.5764
187.8798, 705.0538
188.3619, 707.2451
188.8440, 708.4596
189.3261, 710.6324
189.8082, 715.5107
190.2903, 721.8491
190.7725, 724.7535
191.2546, 723.8343
191.7367, 721.7463
192.2188, 721.5357
192.7009, 723.1057
193.1830, 724.7418
193.6652, 725.6328
194.1473, 725.9833
194.6294, 727.2093
195.1115, 729.5090
195.5936, 732.0175
196.0757, 733.4100
196.5579, 733.6407
197.0400, 734.1270
197.5221, 735.8216
198.0042, 738.5739
198.4863, 739.7590
198.9684, 738.8666
199.4506, 737.5389
199.9327, 738.6791
200.4148, 742.6331
200.8969, 745.9143
201.3790, 746.5618
201.8611, 744.4252
202.3433, 743.9799
202.8254, 745.5168
203.3075, 748.2532
203.7896, 750.8445
204.2717, 753.1970
204.7538, 755.8692
205.2360, 759.4398
205.7181, 764.1404
206.2002, 767.5578
206.6823, 769.6375
207.1644, 770.5068
207.6465, 770.3505
208.1287, 769.1379
208.6108, 767.0659
209.0929, 764.1121
209.5750, 760.1490
210.0571, 756.0189
210.5392, 751.7706
211.0214, 747.3225
211.5035, 742.3152
211.9856, 736.4971
212.4677, 730.9938
212.9498, 726.3207
213.4319, 722.6341
213.9140, 719.3176
214.3962, 716.4067
214.8783, 713.8135
215.3604, 711.4357
215.8425, 709.3463
216.3246, 707.2274
216.8067, 704.7904
217.2889, 701.7775
217.7710, 699.3508
218.2531, 697.5096
218.7352, 696.2525
219.2173, 695.6067
219.6994, 695.7504
220.1816, 696.1431
220.6637, 696.6288
221.1458, 697.3975
221.6279, 697.6176
222.1100, 696.7894
222.5921, 695.6112
223.0743, 696.1338
223.5564, 699.4744
224.0385, 702.5845
224.5206, 703.6661
225.0027, 701.2027
225.4848, 700.9631
225.9670, 703.7577
226.4491, 708.5884
226.9312, 712.9336
227.4133, 716.4962
227.8954, 720.0120
228.3775, 723.8281
228.8597, 728.4533
229.3418, 732.1977
229.8239, 734.6976
230.3060, 736.3757
230.7881, 738.2585
231.2702, 740.0633
231.7524, 742.4968
232.2345, 746.0672
232.7166, 751.9647
233.1987, 756.2851
233.6808, 758.6225
234.1629, 759.4717
234.6451, 759.9964
235.1272, 759.4925
235.6093, 759.7426
236.0914, 761.7351
236.5735, 766.6591
237.0556, 770.5807
237.5378, 772.7883
238.0199, 774.2336
238.5020, 777.4845
238.9841, 784.0099
239.4662, 790.2542
239.9483, 794.3864
240.4305, 794.3519
240.9126, 797.0726
241.3947, 803.8195
241.8768, 812.9055
242.3589, 819.9494
242.8410, 823.0416
243.3232, 826.9691
243.8053, 834.0361
244.2874, 846.3409
244.7695, 856.6346
245.2516, 864.1110
245.7337, 869.9562
246.2159, 876.7491
246.6980, 884.5947
247.1801, 893.2673
247.6622, 903.0908
248.1443, 915.2354
248.6264, 925.3286
249.1086, 933.1486
249.5907, 939.1238
250.0728, 943.9117
250.5549, 946.6868
251.0370, 949.6806
251.5191, 954.1560
252.0013, 961.2945
252.4834, 965.7571
252.9655, 967.0020
253.4476, 965.8469
253.9297, 963.8546
254.4118, 961.6140
254.8940, 957.4635
255.3761, 950.6968
255.8582, 940.9113
256.3403, 929.9095
256.8224, 917.6360
257.3046, 904.1998
257.7867, 890.0804
258.2688, 875.3119
258.7509, 859.5543
259.2330, 842.4400
259.7151, 823.3730
260.1973, 806.0850
260.6794, 791.6960
261.1615, 778.3662
261.6436, 763.3957
262.1257, 745.2311
262.6078, 728.9343
263.0900, 716.5219
263.5721, 708.2759
264.0542, 700.0294
264.5363, 691.5027
265.0184, 683.1949
265.5005, 675.5280
265.9827, 668.7587
266.4648, 662.0104
266.9469, 654.8571
267.4290, 647.2841
267.9111, 641.0798
268.3932, 636.7081
268.8754, 633.0512
269.3575, 628.5839
269.8396, 622.6702
270.3217, 618.2331
270.8038, 616.5607
271.2859, 617.4302
271.7681, 616.4075
272.2502, 612.8348
272.7323, 608.7463
273.2144, 606.4426
273.6965, 606.2656
274.1786, 605.8824
274.6608, 604.4782
275.1429, 602.3666
275.6250, 601.9030
276.1071, 603.3768
276.5892, 605.6641
277.0714, 607.6849
277.5535, 609.3694
278.0356, 611.5410
278.5177, 614.3945
278.9998, 617.8445
279.4819, 621.7465
279.9641, 626.3358
280.4462, 630.5803
280.9283, 633.2868
281.4104, 634.3602
281.8925, 636.3040
282.3746, 639.5141
282.8568, 643.8254
283.3389, 649.0087
283.8210, 655.1607
284.3031, 661.4091
284.7852, 667.0256
285.2673, 672.0117
285.7495, 677.4019
286.2316, 683.3613
286.7137, 689.6913
287.1958, 696.3914
287.6779, 703.4940
288.1600, 709.6349
288.6422, 712.8906
289.1243, 713.9222
289.6064, 717.5035
290.0885, 724.5143
290.5706, 733.0421
291.0527, 740.3174
291.5349, 746.3792
292.0170, 751.7433
292.4991, 756.0763
292.9812, 759.8499
293.4633, 764.8154
293.9454, 771.3152
294.4276, 778.1122
294.9097, 783.2324
295.3918, 787.0123
295.8739, 791.1148
296.3560, 796.2037
296.8381, 802.1887
297.3203, 809.0703
297.8024, 816.9246
298.2845, 824.6189
298.7666, 830.8383
299.2487, 835.8361
299.7308, 840.5856
300.2130, 845.3737
300.6951, 850.1940
301.1772, 855.1042
301.6593, 860.0889
302.1414, 865.0791
302.6235, 870.3040
303.1057, 875.4615
303.5878, 879.8289
304.0699, 883.4486
304.5520, 886.0165
305.0341, 886.7432
305.5162, 885.8099
305.9984, 884.7360
306.4805, 885.4193
306.9626, 886.4240
307.4447, 885.6833
307.9268, 882.1394
308.4089, 877.3051
308.8911, 871.9249
309.3732, 866.1808
309.8553, 860.8513
310.3374, 857.0223
310.8195, 853.5246
311.3016, 849.2565
311.7838, 843.9345
312.2659, 837.9515
312.7480, 831.2693
313.2301, 824.1726
313.7122, 817.2189
314.1943, 811.1303
314.6765, 804.9322
315.1586, 797.5808
315.6407, 788.3884
316.1228, 780.0635
316.6049, 774.3544
317.0870, 770.3431
317.5692, 766.5944
318.0513, 762.3014
318.5334, 758.3167
319.0155, 755.5013
319.4976, 754.2000
319.9797, 751.7003
320.4619, 745.4246
320.9440, 738.0246
321.4261, 732.5477
321.9082, 732.4122
322.3903, 731.6364
322.8724, 727.8298
323.3546, 720.8640
323.8367, 714.7537
324.3188, 709.8697
324.8009, 706.3317
325.2830, 704.2791
325.7651, 705.5564
326.2473, 706.2806
326.7294, 705.9001
327.2115, 704.4904
327.6936, 702.6263
328.1757, 699.6552
328.6578, 696.7689
329.1400, 694.5408
329.6221, 692.9781
330.1042, 692.1028
330.5863, 692.2962
331.0684, 693.1791
331.5505, 693.6550
332.0327, 693.6285
332.5148, 693.2872
332.9969, 692.6278
333.4790, 691.4489
333.9611, 690.4811
334.4432, 689.5734
334.9254, 688.9552
335.4075, 689.1464
335.8896, 690.6846
336.3717, 691.9492
336.8538, 692.3368
337.3359, 691.7481
337.8180, 691.5106
338.3001, 691.8533
338.7823, 692.2137
339.2644, 691.9014
339.7465, 690.7853
340.2286, 689.5616
340.7107, 688.3182
341.1928, 687.0823
341.6750, 686.0472
342.1571, 685.0753
342.6392, 684.7222
343.1213, 686.0588
343.6034, 689.1152
344.0855, 690.5303
344.5677, 689.2947
345.0498, 686.5458
345.5319, 685.1751
346.0140, 685.2294
346.4961, 685.3467
346.9782, 684.1534
347.4604, 682.1120
347.9425, 681.7399
348.4246, 683.5857
348.9067, 686.2122
349.3888, 687.8538
349.8709, 688.5548
350.3531, 688.5176
350.8352, 687.2897
351.3173, 685.5287
351.7994, 684.4413
352.2815, 684.0858
352.7636, 684.2891
353.2458, 685.3309
353.7279, 686.8032
354.2100, 687.8115
354.6921, 687.4343
355.1742, 686.8129
355.6563, 687.1517
356.1385, 688.3974
356.6206, 690.0195
357.1027, 692.9041
357.5848, 695.4941
358.0669, 695.7461
358.5490, 691.4653
359.0312, 687.1893
359.5133, 685.7592
359.9954, 686.6596
360.4775, 688.2494
360.9596, 690.6771
361.4417, 692.9047
361.9239, 694.1410
362.4060, 693.9547
362.8881, 693.6758
363.3702, 693.9559
363.8523, 694.4265
364.3344, 694.5238
364.8166, 693.4405
365.2987, 692.5371
365.7808, 692.3892
366.2629, 693.0897
366.7450, 693.9617
367.2271, 695.5922
367.7093, 697.0236
368.1914, 697.4138
368.6735, 695.5305
369.1556, 693.8992
369.6377, 693.2063
370.1198, 693.2725
370.6020, 692.4634
371.0841, 689.2147
371.5662, 686.5397
372.0483, 686.2023
372.5304, 689.9158
373.0125, 692.7465
373.4947, 694.4866
373.9768, 695.3005
374.4589, 695.5314
374.9410, 695.0377
375.4231, 694.2178
375.9052, 692.8312
376.3874, 690.5556
376.8695, 690.6135
377.3516, 693.8917
377.8337, 698.0187
378.3158, 700.0099
378.7979, 699.6246
379.2801, 698.8696
379.7622, 697.9515
380.2443, 697.1255
380.7264, 697.6906
381.2085, 699.7686
381.6906, 702.3534
382.1728, 705.0246
382.6549, 707.6456
383.1370, 708.9733
383.6191, 708.3381
384.1012, 707.1635
384.5833, 708.0673
385.0655, 710.8123
385.5476, 713.5571
386.0297, 715.3361
386.5118, 716.4026
386.9939, 717.1523
387.4760, 717.5689
387.9582, 717.9706
388.4403, 718.4121
388.9224, 719.0762
389.4045, 720.3239
389.8866, 723.0284
390.3687, 725.8900
390.8509, 727.6469
391.3330, 728.3708
391.8151, 729.0460
392.2972, 730.5829
392.7793, 732.1840
393.2614, 732.9902
393.7436, 731.7886
394.2257, 731.1593
394.7078, 732.5292
395.1899, 735.3381
395.6720, 738.1149
396.1541, 741.4484
396.6363, 743.8161
397.1184, 744.2773
397.6005, 742.1288
398.0826, 740.0201
398.5647, 738.0949
399.0468, 736.5096
399.5290, 735.4531
400.0111, 735.0631
400.4932, 735.0970
400.9753, 736.1629
401.4574, 738.2454
401.9395, 738.0383
402.4217, 734.0985
402.9038, 729.3822
403.3859, 725.8127
403.8680, 723.7072
404.3501, 722.0589
404.8322, 721.1668
405.3144, 720.5187
405.7965, 718.6109
406.2786, 715.0205
406.7607, 711.5436
407.2428, 709.1674
407.7249, 707.9334
408.2071, 705.9548
408.6892, 703.0344
409.1713, 699.9121
409.6534, 697.5494
410.1355, 695.9234
410.6176, 694.2992
411.0998, 692.2455
411.5819, 690.1795
412.0640, 689.4647
412.5461, 690.0463
413.0282, 690.3537
413.5103, 689.0554
413.9925, 686.6384
414.4746, 683.9381
414.9567, 680.8971
415.4388, 678.1655
415.9209, 676.6141
416.4030, 675.8997
416.8852, 675.1255
417.3673, 673.6125
417.8494, 672.0174
418.3315, 670.8404
418.8136, 670.1210
419.2957, 669.6965
419.7779, 669.6163
420.2600, 669.7353
420.7421, 669.9130
421.2242, 671.0944
421.7063, 671.3074
422.1884, 669.1209
422.6706, 665.2667
423.1527, 662.4179
423.6348, 662.1725
424.1169, 662.3203
424.5990, 661.6669
425.0811, 659.0677
425.5633, 658.1623
426.0454, 660.5424
426.5275, 664.0474
427.0096, 665.8632
427.4917, 664.1977
427.9738, 663.6217
428.4560, 665.7971
428.9381, 670.5146
429.4202, 672.2579
429.9023, 669.6290
430.3844, 666.5652
430.8665, 666.2261
431.3487, 669.1980
431.8308, 671.1798
432.3129, 671.5215
432.7950, 671.0492
433.2771, 671.2198
433.7592, 672.0152
434.2414, 673.7330
434.7235, 677.1264
435.2056, 681.6298
435.6877, 684.9530
436.1698, 687.0439
436.6519, 688.4456
437.1341, 688.8018
437.6162, 688.8259
438.0983, 690.6149
438.5804, 695.7116
439.0625, 701.4102
439.5446, 703.9586
440.0268, 704.2503
440.5089, 705.5381
440.9910, 710.9080
441.4731, 717.4219
441.9552, 722.2825
442.4373, 724.7537
442.9195, 727.6695
443.4016, 733.3389
443.8837, 739.9805
444.3658, 745.4267
444.8479, 746.8707
445.3300, 749.2098
445.8122, 754.3175
446.2943, 761.9260
446.7764, 769.7625
447.2585, 777.7576
447.7406, 785.6923
448.2227, 793.5170
448.7049, 801.2773
449.1870, 808.6670
449.6691, 815.1643
450.1512, 821.5214
450.6333, 828.7679
451.1154, 837.0754
451.5976, 846.0516
452.0797, 855.6859
452.5618, 865.9521
453.0439, 875.8765
453.5260, 885.0988
454.0081, 894.5011
454.4903, 905.0353
454.9724, 916.5906
455.4545, 927.3901
455.9366, 936.8457
456.4187, 946.0362
456.9008, 956.7633
457.3830, 968.9786
457.8651, 981.0652
458.3472, 993.1656
458.8293, 1004.536
459.3114, 1013.504
459.7935, 1020.021
460.2757, 1026.604
460.7578, 1035.977
461.2399, 1046.372
461.7220, 1055.198
462.2041, 1061.214
462.6862, 1066.648
463.1684, 1073.199
463.6505, 1080.315
464.1326, 1086.569
464.6147, 1091.240
465.0968, 1095.049
465.5789, 1098.534
466.0611, 1101.935
466.5432, 1103.479
467.0253, 1102.231
467.5074, 1099.249
467.9895, 1095.407
468.4716, 1088.908
468.9538, 1083.905
469.4359, 1081.928
469.9180, 1081.645
470.4001, 1078.711
470.8822, 1072.461
471.3643, 1064.790
471.8465, 1056.374
472.3286, 1047.225
472.8107, 1037.330
473.2928, 1026.835
473.7749, 1015.606
474.2570, 1003.290
474.7392, 989.9047
475.2213, 977.4050
475.7034, 966.7200
476.1855, 956.5450
476.6676, 943.9360
477.1497, 929.0319
477.6319, 913.8410
478.1140, 898.5697
478.5961, 883.9393
479.0782, 871.5896
479.5603, 861.7565
480.0424, 852.2310
480.5246, 840.8234
481.0067, 828.6855
481.4888, 817.4210
481.9709, 807.5411
482.4530, 798.5314
482.9352, 790.2850
483.4173, 782.7222
483.8994, 775.5937
484.3815, 769.5294
484.8636, 763.2719
485.3457, 755.9355
485.8279, 746.8099
486.3100, 738.9495
486.7921, 733.1488
487.2742, 728.4520
487.7563, 724.0336
488.2384, 720.1133
488.7206, 716.0897
489.2027, 711.9980
489.6848, 707.7479
490.1669, 702.9096
490.6490, 697.2580
491.1311, 691.8339
491.6133, 686.8747
492.0954, 682.3768
492.5775, 680.2205
493.0596, 680.9319
493.5417, 681.8240
494.0238, 679.5873
494.5060, 674.8400
494.9881, 670.3682
495.4702, 666.7291
495.9523, 663.9584
496.4344, 662.5437
496.9165, 662.2064
497.3987, 661.9054
497.8808, 661.0292
498.3629, 659.9191
498.8450, 658.8088
499.3271, 657.6926
499.8092, 656.8330
500.2914, 657.0994
500.7735, 657.3192
501.2556, 656.3636
501.7377, 652.5932
502.2198, 649.2659
502.7019, 647.0115
503.1841, 645.6917
503.6662, 644.9093
504.1483, 645.5274
504.6304, 645.7093
505.1125, 644.7421
505.5946, 642.4906
506.0768, 641.0369
506.5589, 641.0217
507.0410, 640.8845
507.5231, 638.9961
508.0052, 634.9215
508.4873, 632.0509
508.9695, 630.8620
509.4516, 630.9554
509.9337, 632.3524
510.4158, 634.9213
510.8979, 636.1428
511.3800, 633.7900
511.8622, 629.6854
512.3443, 628.2579
512.8264, 629.3831
513.3085, 630.5836
513.7906, 629.6005
514.2728, 627.7101
514.7549, 626.6412
515.2370, 626.9348
515.7191, 627.4257
516.2012, 627.4617
516.6833, 627.2100
517.1655, 626.9283
517.6476, 626.3768
518.1297, 626.1384
518.6118, 626.8562
519.0939, 628.3716
519.5760, 628.8743
520.0582, 627.3743
520.5403, 625.4645
521.0224, 623.6178
521.5045, 621.2553
521.9866, 620.7738
522.4688, 623.1409
522.9509, 626.3120
523.4330, 627.6873
523.9151, 626.9306
524.3972, 626.2051
524.8793, 625.9874
525.3615, 626.0749
525.8436, 625.7306
526.3257, 624.9689
526.8078, 624.7657
527.2899, 626.3337
527.7720, 628.7682
528.2542, 629.8746
528.7363, 629.5335
529.2184, 628.8342
529.7005, 628.6545
530.1826, 628.6989
530.6647, 628.5698
531.1469, 628.1492
531.6290, 627.5506
532.1111, 626.1088
532.5932, 624.5798
533.0753, 624.5045
533.5574, 627.9550
534.0396, 631.3553
534.5217, 633.1424
535.0038, 633.1060
535.4859, 634.2728
535.9680, 638.1224
536.4501, 641.7773
536.9323, 643.3176
537.4144, 641.3550
537.8965, 641.2289
538.3786, 643.2874
538.8607, 646.8508
539.3428, 651.4043
539.8250, 657.1523
540.3071, 661.5246
540.7892, 663.0519
541.2713, 663.2967
541.7534, 666.3598
542.2355, 672.0038
542.7177, 677.6585
543.1998, 681.0549
543.6819, 683.7299
544.1640, 688.0878
544.6461, 694.3450
545.1282, 701.3418
545.6104, 708.6461
546.0925, 716.0173
546.5746, 723.1677
547.0567, 729.7108
547.5388, 736.4316
548.0209, 743.4957
548.5031, 750.8523
548.9852, 758.5463
549.4673, 766.2533
549.9494, 774.6597
550.4315, 784.0431
550.9136, 794.3997
551.3958, 804.7435
551.8779, 814.5193
552.3600, 825.2564
552.8421, 838.4472
553.3242, 854.4423
553.8063, 869.4310
554.2885, 883.0145
554.7706, 896.2494
555.2527, 910.7887
555.7348, 926.3810
556.2169, 941.4950
556.6990, 955.4092
557.1812, 968.7100
557.6633, 983.5515
558.1454, 998.8382
558.6275, 1010.484
559.1096, 1015.908
559.5917, 1016.791
560.0739, 1014.865
560.5560, 1010.307
561.0381, 1000.429
561.5202, 982.2155
562.0023, 959.5485
562.4844, 935.1716
562.9666, 907.4463
563.4487, 880.9130
563.9308, 855.1154
564.4129, 830.9005
564.8950, 809.6395
565.3771, 791.7042
565.8593, 776.3864
566.3414, 763.8095
566.8235, 753.7546
567.3056, 744.6957
567.7877, 736.6208
568.2698, 729.9844
568.7520, 725.5256
569.2341, 722.7679
569.7162, 719.1846
570.1983, 714.5894
570.6804, 711.4988
571.1625, 714.1950
571.6447, 719.5245
572.1268, 721.9674
572.6089, 718.5226
573.0910, 715.6574
573.5731, 718.3336
574.0552, 724.3010
574.5374, 729.6859
575.0195, 731.7841
575.5016, 734.5408
575.9837, 739.8039
576.4658, 747.3199
576.9479, 753.8428
577.4301, 759.2702
577.9122, 763.6618
578.3943, 766.8699
578.8764, 768.5865
579.3585, 770.6564
579.8406, 772.9232
580.3228, 775.8883
580.8049, 780.4987
581.2870, 786.6097
581.7691, 792.0020
582.2512, 796.1086
582.7333, 799.6754
583.2155, 803.4945
583.6975, 807.6065
584.1796, 812.3654
584.6617, 818.3555
585.1439, 824.6824
