##NAMES=Eosphorite
##RRUFFID=R061055
##IDEAL CHEMISTRY=Mn^2+^AlPO_4_(OH)_2_&#183;H_2_O
##LOCALITY=Mendes Pimental Pegmatite, Minas Gerais, Brazil
##OWNER=RRUFF
##SOURCE=Royal Ontario Museum
##DESCRIPTION=Brown pyramidal crystal
##STATUS=The identification of this mineral has been confirmed by X-ray diffraction and chemical analysis
##URL=rruff.info/R061055
##MEASURED CHEMISTRY=(Mn^2+^_0.78_Fe_0.21_Ca_0.01_)_Σ=1_Al_1.00_P_1.00_O_4_((OH)_1.85_F_0.15_)_Σ=2_·H_2_O; H_2_O estimated by difference; OH by charge balance
186.1257, 6402.111
186.6079, 6401.550
187.0900, 6410.085
187.5721, 6427.737
188.0542, 6451.265
188.5363, 6479.507
189.0184, 6511.943
189.5006, 6547.742
189.9827, 6590.009
190.4648, 6633.739
190.9469, 6663.295
191.4290, 6676.958
191.9111, 6685.804
192.3932, 6699.616
192.8754, 6718.326
193.3575, 6739.779
193.8396, 6763.436
194.3217, 6789.537
194.8038, 6819.798
195.2859, 6856.258
195.7681, 6890.735
196.2502, 6910.865
196.7323, 6915.441
197.2144, 6924.272
197.6965, 6948.072
198.1786, 6986.070
198.6608, 7013.974
199.1429, 7028.294
199.6250, 7038.460
200.1071, 7062.407
200.5892, 7102.875
201.0714, 7139.678
201.5535, 7160.074
202.0356, 7161.921
202.5177, 7174.447
202.9998, 7202.719
203.4819, 7236.845
203.9641, 7252.409
204.4462, 7245.074
204.9283, 7234.712
205.4104, 7234.101
205.8925, 7246.475
206.3746, 7248.382
206.8568, 7236.902
207.3389, 7214.803
207.8210, 7187.913
208.3031, 7151.624
208.7852, 7123.059
209.2673, 7120.672
209.7495, 7156.911
210.2316, 7166.718
210.7137, 7134.271
211.1958, 7069.813
211.6779, 7024.506
212.1600, 7001.127
212.6422, 6990.916
213.1243, 6989.388
213.6064, 7000.047
214.0885, 7007.954
214.5706, 7011.204
215.0527, 7009.574
215.5349, 7000.271
216.0170, 6976.494
216.4991, 6954.524
216.9812, 6952.016
217.4633, 6978.216
217.9454, 6999.156
218.4276, 7006.663
218.9097, 7000.365
219.3918, 6995.899
219.8739, 6994.656
220.3560, 6993.979
220.8381, 6990.514
221.3203, 6982.680
221.8024, 6976.218
222.2845, 6972.989
222.7666, 6973.492
223.2487, 6974.572
223.7308, 6977.571
224.2129, 6980.254
224.6951, 6979.082
225.1772, 6971.497
225.6593, 6964.915
226.1414, 6962.532
226.6235, 6966.646
227.1056, 6962.444
227.5878, 6940.529
228.0699, 6915.955
228.5520, 6916.578
229.0341, 6962.915
229.5162, 6999.313
229.9983, 7003.984
230.4805, 6963.606
230.9626, 6932.773
231.4447, 6911.634
231.9268, 6900.274
232.4089, 6901.660
232.8910, 6929.739
233.3732, 6948.979
233.8553, 6943.053
234.3374, 6897.122
234.8195, 6861.996
235.3016, 6837.813
235.7837, 6824.506
236.2659, 6823.961
236.7480, 6847.587
237.2301, 6867.725
237.7122, 6869.487
238.1943, 6835.612
238.6764, 6821.807
239.1586, 6837.095
239.6407, 6872.491
240.1228, 6898.193
240.6049, 6909.564
241.0870, 6917.934
241.5691, 6928.135
242.0513, 6937.781
242.5334, 6954.478
243.0155, 6982.019
243.4976, 7016.785
243.9797, 7044.204
244.4618, 7060.168
244.9440, 7073.227
245.4261, 7088.189
245.9082, 7106.753
246.3903, 7122.565
246.8724, 7132.338
247.3545, 7138.349
247.8367, 7154.100
248.3188, 7188.172
248.8009, 7220.620
249.2830, 7238.123
249.7651, 7233.606
250.2472, 7230.061
250.7294, 7228.621
251.2115, 7229.967
251.6936, 7237.917
252.1757, 7256.448
252.6578, 7277.175
253.1399, 7297.701
253.6220, 7328.091
254.1042, 7334.227
254.5863, 7300.844
255.0684, 7235.261
255.5505, 7199.366
256.0326, 7204.540
256.5147, 7223.963
256.9969, 7239.305
257.4790, 7250.716
257.9611, 7256.631
258.4432, 7254.904
258.9253, 7246.275
259.4074, 7240.856
259.8896, 7240.927
260.3717, 7240.389
260.8538, 7234.339
261.3359, 7221.582
261.8180, 7205.228
262.3001, 7181.839
262.7823, 7153.334
263.2644, 7141.954
263.7465, 7158.162
264.2286, 7175.033
264.7107, 7166.510
265.1928, 7122.943
265.6750, 7084.649
266.1571, 7058.202
266.6392, 7043.133
267.1213, 7032.714
267.6034, 7029.294
268.0855, 7026.813
268.5677, 7020.414
269.0498, 7010.235
269.5319, 6995.797
270.0140, 6974.738
270.4961, 6948.595
270.9782, 6930.281
271.4604, 6921.347
271.9425, 6916.793
272.4246, 6912.368
272.9067, 6908.058
273.3888, 6903.085
273.8709, 6893.137
274.3531, 6881.265
274.8352, 6895.537
275.3173, 6945.585
275.7994, 6996.575
276.2815, 7010.943
276.7636, 6983.272
277.2458, 6962.448
277.7279, 6961.702
278.2100, 6976.509
278.6921, 6978.999
279.1742, 6965.352
279.6563, 6952.058
280.1385, 6955.485
280.6206, 6976.131
281.1027, 7000.912
281.5848, 7030.310
282.0669, 7061.012
282.5490, 7078.829
283.0312, 7083.319
283.5133, 7077.400
283.9954, 7056.106
284.4775, 7019.705
284.9596, 7000.422
285.4417, 7010.671
285.9239, 7041.336
286.4060, 7061.247
286.8881, 7069.233
287.3702, 7074.987
287.8523, 7086.435
288.3344, 7103.333
288.8166, 7122.997
289.2987, 7146.794
289.7808, 7171.754
290.2629, 7190.281
290.7450, 7202.061
291.2271, 7209.625
291.7093, 7212.894
292.1914, 7212.965
292.6735, 7215.565
293.1556, 7222.863
293.6377, 7232.799
294.1198, 7237.844
294.6020, 7238.392
295.0841, 7247.101
295.5662, 7289.296
296.0483, 7350.800
296.5304, 7381.204
297.0125, 7353.118
297.4947, 7307.311
297.9768, 7315.604
298.4589, 7373.313
298.9410, 7433.249
299.4231, 7451.705
299.9052, 7445.915
300.3873, 7454.505
300.8694, 7493.909
301.3516, 7538.927
301.8337, 7556.261
302.3158, 7549.166
302.7979, 7538.703
303.2800, 7535.671
303.7621, 7539.029
304.2443, 7548.778
304.7264, 7568.986
305.2085, 7587.830
305.6906, 7596.146
306.1727, 7594.059
306.6548, 7582.232
307.1370, 7549.487
307.6191, 7511.983
308.1012, 7490.631
308.5833, 7496.148
309.0654, 7505.580
309.5475, 7504.384
310.0297, 7493.734
310.5118, 7476.541
310.9939, 7448.798
311.4760, 7418.391
311.9581, 7392.156
312.4402, 7372.978
312.9224, 7354.489
313.4045, 7329.169
313.8866, 7301.358
314.3687, 7281.326
314.8508, 7287.091
315.3329, 7293.236
315.8151, 7281.074
316.2972, 7241.285
316.7793, 7202.395
317.2614, 7178.704
317.7435, 7163.601
318.2256, 7145.223
318.7078, 7103.471
319.1899, 7070.211
319.6720, 7067.290
320.1541, 7108.985
320.6362, 7135.799
321.1183, 7120.563
321.6005, 7082.573
322.0826, 7049.050
322.5647, 7020.539
323.0468, 7002.050
323.5289, 6998.356
324.0110, 7013.915
324.4932, 7025.325
324.9753, 7021.570
325.4574, 7014.436
325.9395, 7017.162
326.4216, 7047.243
326.9037, 7070.938
327.3859, 7081.757
327.8680, 7079.114
328.3501, 7065.758
328.8322, 7028.848
329.3143, 6988.556
329.7964, 6963.106
330.2786, 6962.297
330.7607, 6963.836
331.2428, 6965.560
331.7249, 6967.555
332.2070, 6966.193
332.6891, 6957.980
333.1713, 6949.895
333.6534, 6949.156
334.1355, 6965.048
334.6176, 6968.484
335.0997, 6949.042
335.5818, 6911.244
336.0640, 6889.637
336.5461, 6884.693
337.0282, 6894.960
337.5103, 6925.089
337.9924, 6983.761
338.4745, 7025.668
338.9567, 7043.613
339.4388, 7041.599
339.9209, 7034.310
340.4030, 7022.830
340.8851, 7002.495
341.3672, 6962.234
341.8494, 6899.517
342.3315, 6865.895
342.8136, 6872.309
343.2957, 6901.282
343.7778, 6916.680
344.2599, 6917.800
344.7421, 6918.064
345.2242, 6929.324
345.7063, 6948.499
346.1884, 6951.310
346.6705, 6932.408
347.1526, 6907.883
347.6348, 6899.947
348.1169, 6907.444
348.5990, 6923.441
349.0811, 6956.230
349.5632, 6993.206
350.0453, 6999.189
350.5275, 6968.895
351.0096, 6934.298
351.4917, 6932.345
351.9738, 6953.485
352.4559, 6970.752
352.9380, 6971.815
353.4202, 6963.012
353.9023, 6948.600
354.3844, 6928.855
354.8665, 6913.766
355.3486, 6913.584
355.8307, 6922.771
356.3129, 6933.111
356.7950, 6939.951
357.2771, 6948.187
357.7592, 6967.918
358.2413, 6996.315
358.7234, 7011.412
359.2056, 6979.554
359.6877, 6938.371
360.1698, 6924.346
360.6519, 6971.204
361.1340, 7017.105
361.6161, 7032.268
362.0982, 7023.896
362.5804, 7017.982
363.0625, 7029.262
363.5446, 7041.763
364.0267, 7044.813
364.5088, 7026.246
364.9909, 7016.525
365.4731, 7024.379
365.9552, 7045.405
366.4373, 7069.892
366.9194, 7105.486
367.4015, 7136.722
367.8836, 7155.972
368.3658, 7152.273
368.8479, 7162.696
369.3300, 7195.073
369.8121, 7239.451
370.2942, 7281.158
370.7763, 7315.982
371.2585, 7354.099
371.7406, 7401.375
372.2227, 7460.130
372.7048, 7502.537
373.1869, 7518.867
373.6690, 7527.975
374.1512, 7549.595
374.6333, 7588.533
375.1154, 7626.947
375.5975, 7661.255
376.0796, 7692.311
376.5617, 7726.619
377.0439, 7766.063
377.5260, 7803.643
378.0081, 7829.548
378.4902, 7842.541
378.9723, 7869.981
379.4544, 7923.381
379.9366, 7986.632
380.4187, 8014.448
380.9008, 8004.755
381.3829, 7998.629
381.8650, 8026.520
382.3471, 8081.846
382.8293, 8133.586
383.3114, 8180.200
383.7935, 8219.856
384.2756, 8244.063
384.7577, 8256.670
385.2398, 8277.255
385.7220, 8327.564
386.2041, 8388.308
386.6862, 8425.269
387.1683, 8435.572
387.6504, 8440.278
388.1325, 8454.381
388.6147, 8476.379
389.0968, 8503.100
389.5789, 8541.324
390.0610, 8578.466
390.5431, 8603.511
391.0252, 8617.234
391.5074, 8627.755
391.9895, 8640.536
392.4716, 8652.500
392.9537, 8660.501
393.4358, 8661.688
393.9179, 8661.828
394.4001, 8665.355
394.8822, 8670.246
395.3643, 8669.210
395.8464, 8654.025
396.3285, 8636.529
396.8106, 8622.532
397.2928, 8611.439
397.7749, 8605.511
398.2570, 8617.542
398.7391, 8633.275
399.2212, 8625.352
399.7033, 8561.485
400.1855, 8506.590
400.6676, 8479.513
401.1497, 8486.202
401.6318, 8494.065
402.1139, 8512.607
402.5960, 8524.600
403.0782, 8507.594
403.5603, 8445.145
404.0424, 8392.617
404.5245, 8363.082
405.0066, 8353.867
405.4887, 8339.521
405.9709, 8316.935
406.4530, 8297.134
406.9351, 8294.366
407.4172, 8310.699
407.8993, 8305.793
408.3814, 8268.298
408.8636, 8213.820
409.3457, 8172.313
409.8278, 8143.575
410.3099, 8130.567
410.7920, 8148.045
411.2741, 8184.090
411.7563, 8194.896
412.2384, 8173.371
412.7205, 8145.595
413.2026, 8144.201
413.6847, 8161.062
414.1668, 8172.039
414.6490, 8156.791
415.1311, 8135.043
415.6132, 8133.990
416.0953, 8153.259
416.5774, 8167.499
417.0595, 8149.218
417.5417, 8119.842
418.0238, 8105.153
418.5059, 8130.626
418.9880, 8152.608
419.4701, 8139.510
419.9522, 8101.534
420.4344, 8076.246
420.9165, 8093.453
421.3986, 8116.639
421.8807, 8124.283
422.3628, 8105.118
422.8449, 8088.432
423.3270, 8077.898
423.8091, 8073.601
424.2913, 8075.543
424.7734, 8089.062
425.2555, 8103.726
425.7376, 8119.289
426.2197, 8137.322
426.7018, 8143.396
427.1840, 8128.996
427.6661, 8110.136
428.1482, 8101.406
428.6303, 8105.292
429.1124, 8113.038
429.5945, 8124.789
430.0767, 8139.127
430.5588, 8150.661
431.0409, 8159.551
431.5230, 8164.782
432.0051, 8163.564
432.4872, 8156.000
432.9694, 8154.054
433.4515, 8160.085
433.9336, 8168.687
434.4157, 8170.233
434.8978, 8165.623
435.3799, 8162.464
435.8621, 8157.387
436.3442, 8184.464
436.8263, 8203.728
437.3084, 8215.599
437.7905, 8197.934
438.2726, 8218.408
438.7548, 8223.600
439.2369, 8228.163
439.7190, 8254.005
440.2011, 8240.637
440.6832, 8266.142
441.1653, 8276.129
441.6475, 8293.220
442.1296, 8294.930
442.6117, 8301.390
443.0938, 8323.234
443.5759, 8336.561
444.0580, 8336.500
444.5402, 8354.043
445.0223, 8340.137
445.5044, 8353.825
445.9865, 8379.420
446.4686, 8380.133
446.9507, 8397.955
447.4329, 8409.263
447.9150, 8390.956
448.3971, 8424.148
448.8792, 8435.069
449.3613, 8423.122
449.8434, 8475.910
450.3256, 8509.376
450.8077, 8527.931
451.2898, 8536.073
451.7719, 8548.071
452.2540, 8562.938
452.7361, 8584.182
453.2183, 8617.859
453.7004, 8663.948
454.1825, 8698.660
454.6646, 8719.138
455.1467, 8734.381
455.6288, 8756.599
456.1110, 8784.897
456.5931, 8811.251
457.0752, 8828.707
457.5573, 8844.234
458.0394, 8875.230
458.5215, 8920.678
459.0037, 8960.138
459.4858, 8971.211
459.9679, 8968.711
460.4500, 8974.487
460.9321, 8996.656
461.4142, 9020.820
461.8964, 9041.938
462.3785, 9057.510
462.8606, 9062.115
463.3427, 9043.714
463.8248, 9021.388
464.3069, 9006.478
464.7891, 9000.856
465.2712, 8993.080
465.7533, 8976.635
466.2354, 8958.357
466.7175, 8944.728
467.1996, 8953.057
467.6818, 8946.490
468.1639, 8918.978
468.6460, 8872.787
469.1281, 8816.790
469.6102, 8741.632
470.0923, 8669.845
470.5745, 8611.479
471.0566, 8568.683
471.5387, 8534.258
472.0208, 8512.580
472.5029, 8492.811
472.9850, 8454.394
473.4672, 8395.506
473.9493, 8346.314
474.4314, 8322.630
474.9135, 8314.635
475.3956, 8288.643
475.8777, 8244.407
476.3599, 8195.019
476.8420, 8141.502
477.3241, 8091.986
477.8062, 8069.994
478.2883, 8089.174
478.7704, 8114.007
479.2526, 8105.185
479.7347, 8073.613
480.2168, 8046.631
480.6989, 8038.596
481.1810, 8038.346
481.6631, 8040.533
482.1453, 8044.725
482.6274, 8043.968
483.1095, 8023.926
483.5916, 8002.874
484.0737, 7996.782
484.5558, 8028.660
485.0379, 8052.352
485.5201, 8057.042
486.0022, 8047.284
486.4843, 8039.823
486.9664, 8034.727
487.4485, 8032.576
487.9306, 8036.705
488.4128, 8052.250
488.8949, 8047.643
489.3770, 8011.902
489.8591, 7972.417
490.3412, 7964.879
490.8233, 7993.510
491.3055, 8022.303
491.7876, 8044.849
492.2697, 8060.864
492.7518, 8070.480
493.2339, 8073.519
493.7160, 8067.472
494.1982, 8047.704
494.6803, 8017.490
495.1624, 7980.708
495.6445, 7933.813
496.1266, 7898.889
496.6087, 7908.218
497.0909, 7942.841
497.5730, 7967.725
498.0551, 7952.916
498.5372, 7936.247
499.0193, 7949.234
499.5014, 7986.879
499.9836, 8014.117
500.4657, 8015.608
500.9478, 8003.076
501.4299, 7982.449
501.9120, 7948.847
502.3941, 7918.566
502.8763, 7890.796
503.3584, 7868.378
503.8405, 7856.656
504.3226, 7870.416
504.8047, 7872.054
505.2868, 7846.809
505.7690, 7797.094
506.2511, 7770.257
506.7332, 7775.650
507.2153, 7783.465
507.6974, 7767.839
508.1795, 7728.098
508.6617, 7703.448
509.1438, 7701.930
509.6259, 7707.543
510.1080, 7693.576
510.5901, 7662.633
511.0722, 7631.099
511.5544, 7606.714
512.0365, 7586.444
512.5186, 7567.178
513.0007, 7548.536
513.4828, 7527.534
513.9650, 7490.541
514.4471, 7454.769
514.9292, 7442.602
515.4113, 7472.939
515.8934, 7497.997
516.3755, 7486.063
516.8576, 7454.425
517.3397, 7434.774
517.8218, 7451.505
518.3040, 7465.667
518.7861, 7462.006
519.2682, 7438.006
519.7503, 7421.587
520.2324, 7417.382
520.7145, 7416.389
521.1967, 7413.741
521.6788, 7411.371
522.1609, 7400.608
522.6430, 7375.555
523.1251, 7347.262
523.6072, 7342.735
524.0894, 7364.931
524.5715, 7378.543
525.0536, 7362.539
525.5357, 7327.988
526.0178, 7315.028
526.4999, 7323.939
526.9821, 7339.258
527.4642, 7348.928
527.9463, 7355.735
528.4284, 7366.005
528.9105, 7383.695
529.3926, 7397.414
529.8748, 7392.324
530.3569, 7376.802
530.8390, 7367.036
531.3211, 7366.599
531.8032, 7376.377
532.2853, 7406.930
532.7675, 7457.439
533.2496, 7485.380
533.7317, 7463.538
534.2138, 7430.063
534.6959, 7407.188
535.1780, 7397.092
535.6602, 7395.253
536.1423, 7403.075
536.6244, 7418.246
537.1065, 7439.282
537.5886, 7469.855
538.0707, 7492.682
538.5529, 7498.157
539.0350, 7491.789
539.5171, 7508.504
539.9992, 7550.654
540.4813, 7587.454
540.9634, 7584.303
541.4456, 7556.597
541.9277, 7552.108
542.4098, 7578.689
542.8919, 7618.514
543.3740, 7668.972
543.8561, 7717.156
544.3383, 7738.473
544.8204, 7688.409
545.3025, 7638.440
545.7846, 7638.310
546.2667, 7679.895
546.7488, 7717.064
547.2310, 7728.875
547.7131, 7735.732
548.1952, 7748.688
548.6773, 7772.660
549.1594, 7792.524
549.6415, 7801.724
550.1237, 7810.689
550.6058, 7833.388
551.0879, 7880.063
551.5700, 7912.772
552.0521, 7920.217
552.5342, 7911.469
553.0164, 7917.939
553.4985, 7940.991
553.9806, 7967.197
554.4627, 7988.824
554.9448, 8007.526
555.4269, 8030.083
555.9091, 8057.104
556.3912, 8084.394
556.8733, 8112.958
557.3554, 8137.963
557.8375, 8149.531
558.3196, 8137.619
558.8018, 8123.573
559.2839, 8126.811
559.7660, 8138.929
560.2481, 8140.569
560.7302, 8115.539
561.2123, 8086.866
561.6945, 8065.190
562.1766, 8052.352
562.6587, 8032.233
563.1408, 7990.107
563.6229, 7952.338
564.1050, 7936.662
564.5872, 7954.816
565.0693, 7965.514
565.5514, 7967.997
566.0335, 7961.396
566.5156, 7936.483
566.9977, 7891.054
567.4799, 7866.338
567.9620, 7887.884
568.4441, 7933.879
568.9262, 7946.295
569.4083, 7927.102
569.8904, 7900.257
570.3726, 7868.687
570.8547, 7845.230
571.3368, 7851.846
571.8189, 7895.990
572.3010, 7940.219
572.7831, 7964.391
573.2653, 7973.705
573.7474, 7973.975
574.2295, 7942.159
574.7116, 7928.993
575.1937, 7959.280
575.6758, 8020.790
576.1580, 8065.757
576.6401, 8082.525
577.1222, 8096.777
577.6043, 8116.850
578.0864, 8143.572
578.5685, 8169.171
579.0507, 8192.291
579.5328, 8218.066
580.0149, 8248.656
580.4970, 8284.425
580.9791, 8337.046
581.4612, 8411.522
581.9434, 8493.635
582.4255, 8562.628
582.9076, 8620.507
583.3897, 8672.781
583.8718, 8709.824
584.3539, 8750.643
584.8361, 8817.420
585.3182, 8906.159
585.8003, 8993.842
586.2824, 9063.712
586.7645, 9132.154
587.2466, 9211.003
587.7288, 9307.985
588.2109, 9395.450
588.6930, 9454.539
589.1751, 9511.951
589.6572, 9594.357
590.1393, 9720.167
590.6215, 9831.481
591.1036, 9920.957
591.5857, 9993.440
592.0678, 10059.32
592.5499, 10118.05
593.0320, 10176.31
593.5142, 10238.73
593.9963, 10303.21
594.4784, 10362.30
594.9605, 10416.51
595.4426, 10464.55
595.9247, 10505.25
596.4069, 10539.94
596.8890, 10570.04
597.3711, 10595.61
597.8532, 10617.91
598.3353, 10645.03
598.8174, 10667.48
599.2996, 10672.79
599.7817, 10645.23
600.2638, 10613.73
600.7459, 10582.71
601.2280, 10552.20
601.7101, 10522.96
602.1923, 10495.66
602.6744, 10468.72
603.1565, 10443.46
603.6386, 10419.83
604.1207, 10385.60
604.6028, 10338.37
605.0850, 10289.38
605.5671, 10248.74
606.0492, 10215.47
606.5313, 10186.96
607.0134, 10164.42
607.4955, 10139.73
607.9777, 10096.57
608.4598, 10044.81
608.9419, 10003.66
609.4240, 10000.32
609.9061, 9992.931
610.3882, 9955.263
610.8704, 9892.298
611.3525, 9828.052
611.8346, 9761.205
612.3167, 9700.900
612.7988, 9651.049
613.2809, 9611.233
613.7631, 9583.267
614.2452, 9578.781
614.7273, 9570.305
615.2094, 9530.768
615.6915, 9455.582
616.1736, 9389.177
616.6558, 9335.097
617.1379, 9294.450
617.6200, 9279.100
618.1021, 9282.517
618.5842, 9271.191
619.0663, 9220.769
619.5485, 9159.861
620.0306, 9122.413
620.5127, 9104.148
620.9948, 9086.472
621.4769, 9065.242
621.9590, 9037.089
622.4412, 8998.611
622.9233, 8948.061
623.4054, 8895.997
623.8875, 8830.962
624.3696, 8774.650
624.8517, 8743.580
625.3339, 8753.515
625.8160, 8755.749
626.2981, 8752.665
626.7802, 8737.386
627.2623, 8689.986
627.7444, 8608.101
628.2266, 8544.225
628.7087, 8516.967
629.1908, 8513.014
629.6729, 8510.181
630.1550, 8507.771
630.6371, 8501.772
631.1193, 8499.026
631.6014, 8485.933
632.0835, 8438.099
632.5656, 8354.933
633.0477, 8290.002
633.5298, 8296.186
634.0120, 8309.679
634.4941, 8280.950
634.9762, 8161.201
635.4583, 8082.662
635.9404, 8075.574
636.4225, 8093.105
636.9047, 8077.126
637.3868, 8017.738
637.8689, 7959.200
638.3510, 7908.257
638.8331, 7864.356
639.3152, 7829.539
639.7973, 7803.487
640.2794, 7775.674
640.7615, 7736.914
641.2437, 7695.538
641.7258, 7670.471
642.2079, 7659.055
642.6900, 7635.234
643.1721, 7567.631
643.6542, 7491.317
644.1364, 7433.063
644.6185, 7401.181
645.1006, 7373.884
645.5827, 7351.273
646.0648, 7328.367
646.5469, 7300.188
647.0291, 7258.484
647.5112, 7226.056
647.9933, 7203.542
648.4754, 7191.292
648.9575, 7200.178
649.4396, 7232.835
649.9218, 7237.609
650.4039, 7186.583
650.8860, 7106.538
651.3681, 7055.498
651.8502, 7029.379
652.3323, 7003.952
652.8145, 6963.597
653.2966, 6918.202
653.7787, 6873.801
654.2608, 6831.143
654.7429, 6796.600
655.2250, 6778.656
655.7072, 6765.769
656.1893, 6750.230
656.6714, 6729.533
657.1535, 6710.082
657.6356, 6693.932
658.1177, 6676.943
658.5999, 6652.944
659.0820, 6619.876
659.5641, 6591.847
660.0462, 6572.375
660.5283, 6557.551
661.0104, 6539.743
661.4926, 6519.606
661.9747, 6500.103
662.4568, 6482.728
662.9389, 6466.884
663.4210, 6453.693
663.9031, 6442.418
664.3853, 6428.304
664.8674, 6405.013
665.3495, 6381.575
665.8316, 6363.672
666.3137, 6352.933
666.7958, 6339.359
667.2780, 6312.717
667.7601, 6291.607
668.2422, 6292.026
668.7243, 6322.686
669.2064, 6335.886
669.6885, 6326.058
670.1707, 6306.556
670.6528, 6293.470
671.1349, 6286.126
671.6170, 6281.756
672.0991, 6284.379
672.5812, 6281.669
673.0634, 6253.421
673.5455, 6208.795
674.0276, 6168.967
674.5097, 6144.075
674.9918, 6126.740
675.4739, 6112.982
675.9561, 6103.667
676.4382, 6103.088
676.9203, 6125.938
677.4024, 6142.310
677.8845, 6137.946
678.3666, 6110.235
678.8488, 6100.213
679.3309, 6112.087
679.8130, 6127.833
