##NAMES=Eosphorite
##RRUFFID=R060293
##IDEAL CHEMISTRY=Mn^2+^AlPO_4_(OH)_2_&#183;H_2_O
##LOCALITY=Mawi area, Nuristan, Laghman Province, Afghanistan
##OWNER=RRUFF
##SOURCE=Herb Obodda
##DESCRIPTION=Orange brown prismatic crystal
##STATUS=The identification of this mineral has been confirmed by X-ray diffraction and chemical analysis
##URL=rruff.info/R060293
##MEASURED CHEMISTRY=(Mn^2+^_0.67_Fe^2+^_0.30_Ca_0.03_)_Σ=1_Al_1.00_(P_1.00_O_4_)(OH)_2_·H_2_O
91.53320, 1093.194
92.01532, 1084.609
92.49744, 1078.555
92.97955, 1092.051
93.46167, 1109.731
93.94379, 1117.696
94.42590, 1122.548
94.90802, 1125.289
95.39014, 1124.440
95.87225, 1119.946
96.35437, 1113.173
96.83649, 1104.318
97.31860, 1095.061
97.80072, 1087.035
98.28284, 1079.921
98.76495, 1072.611
99.24707, 1065.183
99.72919, 1057.768
100.2113, 1050.549
100.6934, 1042.462
101.1755, 1034.278
101.6577, 1027.710
102.1398, 1024.372
102.6219, 1024.917
103.1040, 1024.956
103.5861, 1023.725
104.0682, 1022.536
104.5504, 1022.442
105.0325, 1023.427
105.5146, 1024.200
105.9967, 1022.554
106.4788, 1016.596
106.9609, 1012.956
107.4431, 1012.842
107.9252, 1014.946
108.4073, 1017.652
108.8894, 1020.512
109.3715, 1023.553
109.8536, 1027.166
110.3358, 1031.856
110.8179, 1035.309
111.3000, 1035.541
111.7821, 1032.891
112.2642, 1030.597
112.7463, 1029.186
113.2285, 1029.277
113.7106, 1031.772
114.1927, 1037.280
114.6748, 1043.943
115.1569, 1049.099
115.6390, 1052.193
116.1212, 1055.256
116.6033, 1060.292
117.0854, 1065.141
117.5675, 1067.481
118.0496, 1066.016
118.5317, 1061.423
119.0139, 1056.988
119.4960, 1053.547
119.9781, 1049.305
120.4602, 1043.276
120.9423, 1036.206
121.4244, 1029.371
121.9066, 1023.714
122.3887, 1019.270
122.8708, 1015.541
123.3529, 1013.015
123.8350, 1010.568
124.3171, 1007.509
124.7993, 1003.893
125.2814, 1000.400
125.7635, 997.5605
126.2456, 995.4361
126.7277, 994.6269
127.2098, 996.4097
127.6920, 998.9410
128.1741, 1000.333
128.6562, 1000.167
129.1383, 999.0522
129.6204, 996.8647
130.1025, 993.6839
130.5847, 992.1413
131.0668, 994.7845
131.5489, 1000.234
132.0310, 1003.589
132.5131, 1003.048
132.9952, 1000.795
133.4774, 998.3113
133.9595, 995.6806
134.4416, 994.1152
134.9237, 995.4334
135.4058, 1000.268
135.8879, 1003.666
136.3701, 1003.208
136.8522, 1001.981
137.3343, 1001.750
137.8164, 1002.951
138.2985, 1004.715
138.7806, 1005.444
139.2628, 1004.037
139.7449, 1003.656
140.2270, 1005.458
140.7091, 1007.846
141.1912, 1009.264
141.6733, 1009.005
142.1555, 1007.665
142.6376, 1007.303
143.1197, 1007.948
143.6018, 1009.626
144.0839, 1013.203
144.5660, 1017.728
145.0482, 1021.961
145.5303, 1025.316
146.0124, 1027.622
146.4945, 1027.670
146.9766, 1023.313
147.4587, 1019.331
147.9409, 1018.165
148.4230, 1019.346
148.9051, 1020.467
149.3872, 1019.641
149.8693, 1017.319
150.3514, 1016.337
150.8336, 1017.494
151.3157, 1019.549
151.7978, 1021.729
152.2799, 1024.131
152.7620, 1025.917
153.2441, 1026.008
153.7263, 1025.057
154.2084, 1024.010
154.6905, 1022.594
155.1726, 1021.376
155.6547, 1021.827
156.1368, 1024.792
156.6190, 1027.965
157.1011, 1030.449
157.5832, 1032.222
158.0653, 1033.190
158.5474, 1032.884
159.0295, 1031.451
159.5117, 1030.870
159.9938, 1031.547
160.4759, 1032.797
160.9580, 1034.459
161.4401, 1036.483
161.9222, 1038.832
162.4044, 1041.579
162.8865, 1044.896
163.3686, 1047.642
163.8507, 1050.008
164.3328, 1051.721
164.8149, 1052.031
165.2971, 1051.269
165.7792, 1050.742
166.2613, 1052.094
166.7434, 1056.318
167.2255, 1059.624
167.7076, 1061.523
168.1898, 1063.009
168.6719, 1064.599
169.1540, 1066.458
169.6361, 1068.697
170.1182, 1071.631
170.6003, 1076.019
171.0825, 1079.027
171.5646, 1079.684
172.0467, 1079.219
172.5288, 1078.982
173.0109, 1079.359
173.4930, 1079.989
173.9752, 1080.387
174.4573, 1080.651
174.9394, 1080.426
175.4215, 1078.976
175.9036, 1076.959
176.3857, 1076.003
176.8679, 1076.936
177.3500, 1078.516
177.8321, 1078.778
178.3142, 1077.541
178.7963, 1076.917
179.2784, 1078.947
179.7606, 1083.207
180.2427, 1086.091
180.7248, 1086.105
181.2069, 1084.724
181.6890, 1082.867
182.1711, 1080.545
182.6533, 1078.917
183.1354, 1079.517
183.6175, 1082.694
184.0996, 1085.345
184.5817, 1085.958
185.0638, 1086.322
185.5460, 1087.658
186.0281, 1090.199
186.5102, 1092.947
186.9923, 1094.405
187.4744, 1094.002
187.9565, 1093.787
188.4387, 1093.828
188.9208, 1094.226
189.4029, 1095.044
189.8850, 1096.309
190.3671, 1098.025
190.8492, 1100.357
191.3314, 1104.297
191.8135, 1107.127
192.2956, 1108.285
192.7777, 1108.603
193.2598, 1108.684
193.7419, 1108.780
194.2241, 1108.934
194.7062, 1109.250
195.1883, 1109.712
195.6704, 1110.399
196.1525, 1111.575
196.6346, 1112.891
197.1168, 1113.854
197.5989, 1114.233
198.0810, 1114.329
198.5631, 1115.052
199.0452, 1117.458
199.5273, 1119.069
200.0095, 1118.410
200.4916, 1116.841
200.9737, 1116.616
201.4558, 1118.809
201.9379, 1122.834
202.4200, 1127.364
202.9022, 1133.784
203.3843, 1138.388
203.8664, 1138.307
204.3485, 1135.174
204.8306, 1133.650
205.3127, 1136.189
205.7949, 1141.069
206.2770, 1144.349
206.7591, 1145.668
207.2412, 1146.421
207.7233, 1147.951
208.2054, 1149.912
208.6876, 1149.953
209.1697, 1146.164
209.6518, 1140.550
210.1339, 1136.112
210.6160, 1133.014
211.0981, 1130.983
211.5803, 1130.012
212.0624, 1130.104
212.5445, 1130.685
213.0266, 1133.025
213.5087, 1134.768
213.9908, 1133.263
214.4730, 1127.733
214.9551, 1121.162
215.4372, 1116.577
215.9193, 1114.055
216.4014, 1112.960
216.8836, 1114.482
217.3657, 1116.657
217.8478, 1118.476
218.3299, 1119.704
218.8120, 1120.095
219.2941, 1118.892
219.7763, 1115.285
220.2584, 1112.784
220.7405, 1112.279
221.2226, 1112.831
221.7047, 1114.353
222.1868, 1116.726
222.6690, 1118.887
223.1511, 1118.678
223.6332, 1113.956
224.1153, 1111.870
224.5974, 1115.133
225.0795, 1119.549
225.5617, 1122.051
226.0438, 1121.807
226.5259, 1120.191
227.0080, 1119.634
227.4901, 1121.160
227.9722, 1121.901
228.4544, 1121.606
228.9365, 1120.727
229.4186, 1119.646
229.9007, 1118.461
230.3828, 1116.960
230.8649, 1114.753
231.3471, 1111.231
231.8292, 1107.906
232.3113, 1103.535
232.7934, 1100.029
233.2755, 1099.682
233.7576, 1102.906
234.2398, 1107.344
234.7219, 1109.056
235.2040, 1106.167
235.6861, 1103.573
236.1682, 1101.250
236.6503, 1099.214
237.1325, 1097.313
237.6146, 1095.545
238.0967, 1094.404
238.5788, 1094.869
239.0609, 1098.520
239.5430, 1099.929
240.0252, 1096.911
240.5073, 1092.549
240.9894, 1089.808
241.4715, 1089.385
241.9536, 1090.369
242.4357, 1091.836
242.9179, 1094.057
243.4000, 1095.473
243.8821, 1094.532
244.3642, 1093.364
244.8463, 1094.953
245.3284, 1100.037
245.8106, 1105.392
246.2927, 1106.633
246.7748, 1103.561
247.2569, 1101.976
247.7390, 1104.220
248.2211, 1107.745
248.7033, 1109.256
249.1854, 1108.084
249.6675, 1106.374
250.1496, 1106.820
250.6317, 1108.974
251.1138, 1109.454
251.5960, 1105.703
252.0781, 1100.682
252.5602, 1098.607
253.0423, 1100.279
253.5244, 1102.479
254.0065, 1102.582
254.4887, 1101.045
254.9708, 1098.792
255.4529, 1096.010
255.9350, 1092.656
256.4171, 1088.284
256.8992, 1082.533
257.3813, 1077.382
257.8635, 1075.589
258.3456, 1075.280
258.8277, 1073.083
259.3098, 1066.305
259.7919, 1058.175
260.2740, 1053.850
260.7562, 1054.228
261.2383, 1054.510
261.7204, 1051.358
262.2025, 1046.593
262.6846, 1042.281
263.1667, 1039.020
263.6489, 1036.441
264.1310, 1034.244
264.6131, 1032.643
265.0952, 1030.483
265.5773, 1026.157
266.0594, 1021.459
266.5416, 1018.149
267.0237, 1016.839
267.5058, 1016.699
267.9879, 1016.758
268.4700, 1017.070
268.9521, 1017.374
269.4343, 1017.419
269.9164, 1017.523
270.3985, 1017.991
270.8806, 1018.918
271.3627, 1020.000
271.8448, 1021.079
272.3270, 1022.339
272.8091, 1022.638
273.2912, 1020.363
273.7733, 1017.848
274.2554, 1016.631
274.7375, 1016.943
275.2197, 1017.753
275.7018, 1017.715
276.1839, 1016.561
276.6660, 1016.282
277.1481, 1018.135
277.6302, 1020.257
278.1124, 1021.712
278.5945, 1022.464
279.0766, 1023.064
279.5587, 1024.123
280.0408, 1025.728
280.5229, 1027.062
281.0051, 1028.038
281.4872, 1028.760
281.9693, 1028.606
282.4514, 1028.056
282.9335, 1028.551
283.4156, 1031.819
283.8978, 1037.948
284.3799, 1042.711
284.8620, 1045.939
285.3441, 1047.743
285.8262, 1047.338
286.3083, 1045.521
286.7905, 1043.794
287.2726, 1043.030
287.7547, 1043.269
288.2368, 1045.094
288.7189, 1050.684
289.2010, 1055.282
289.6832, 1056.522
290.1653, 1056.167
290.6474, 1057.100
291.1295, 1061.183
291.6116, 1067.400
292.0938, 1071.529
292.5759, 1072.154
293.0580, 1072.537
293.5401, 1073.423
294.0222, 1074.418
294.5043, 1074.716
294.9865, 1073.898
295.4686, 1073.008
295.9507, 1074.929
296.4328, 1082.504
296.9149, 1087.770
297.3970, 1088.552
297.8792, 1087.653
298.3613, 1087.509
298.8434, 1088.850
299.3255, 1090.649
299.8076, 1091.013
300.2897, 1088.750
300.7719, 1087.779
301.2540, 1089.034
301.7361, 1090.863
302.2182, 1092.116
302.7003, 1092.673
303.1824, 1093.371
303.6646, 1095.754
304.1467, 1101.234
304.6288, 1103.100
305.1109, 1097.568
305.5930, 1091.958
306.0751, 1089.893
306.5573, 1091.078
307.0394, 1093.015
307.5215, 1093.511
308.0036, 1092.479
308.4857, 1091.277
308.9678, 1090.393
309.4500, 1088.831
309.9321, 1086.177
310.4142, 1082.596
310.8963, 1078.335
311.3784, 1073.382
311.8605, 1067.952
312.3427, 1063.857
312.8248, 1062.229
313.3069, 1060.694
313.7890, 1058.745
314.2711, 1056.652
314.7532, 1054.923
315.2354, 1053.857
315.7175, 1052.999
316.1996, 1050.911
316.6817, 1045.808
317.1638, 1042.369
317.6459, 1042.404
318.1281, 1043.433
318.6102, 1043.272
319.0923, 1041.231
319.5744, 1038.100
320.0565, 1035.032
320.5386, 1031.689
321.0208, 1029.258
321.5029, 1028.231
321.9850, 1027.639
322.4671, 1026.995
322.9492, 1026.178
323.4313, 1025.231
323.9135, 1024.242
324.3956, 1023.286
324.8777, 1021.854
325.3598, 1018.438
325.8419, 1015.929
326.3240, 1016.067
326.8062, 1018.175
327.2883, 1020.279
327.7704, 1020.872
328.2525, 1020.028
328.7346, 1019.022
329.2167, 1017.714
329.6989, 1016.397
330.1810, 1015.432
330.6631, 1014.449
331.1452, 1012.813
331.6273, 1010.109
332.1094, 1006.785
332.5916, 1004.187
333.0737, 1002.309
333.5558, 1001.294
334.0379, 1001.299
334.5200, 1001.948
335.0021, 1002.926
335.4843, 1004.125
335.9664, 1005.587
336.4485, 1007.651
336.9306, 1011.022
337.4127, 1012.834
337.8948, 1011.863
338.3770, 1010.051
338.8591, 1008.219
339.3412, 1006.577
339.8233, 1005.218
340.3055, 1004.297
340.7876, 1003.864
341.2697, 1003.378
341.7518, 1002.724
342.2339, 1002.135
342.7160, 1001.797
343.1982, 1001.601
343.6803, 1001.287
344.1624, 1000.687
344.6445, 999.8300
345.1266, 998.7390
345.6087, 996.7394
346.0909, 995.6924
346.5730, 997.0060
347.0551, 999.1938
347.5372, 1000.300
348.0193, 999.4232
348.5014, 997.5305
348.9836, 996.2949
349.4657, 995.7955
349.9478, 995.7181
350.4299, 996.4520
350.9120, 997.2905
351.3941, 997.7871
351.8763, 997.8500
352.3584, 997.5065
352.8405, 996.3271
353.3226, 994.2471
353.8047, 993.6202
354.2868, 996.1522
354.7690, 998.7878
355.2511, 999.5892
355.7332, 998.7797
356.2153, 997.5540
356.6974, 996.5154
357.1795, 995.6555
357.6617, 995.0626
358.1438, 995.0839
358.6259, 994.6384
359.1080, 992.4719
359.5901, 989.5827
360.0722, 987.5651
360.5544, 987.0588
361.0365, 987.5837
361.5186, 988.9496
362.0007, 991.3881
362.4828, 992.6849
362.9649, 990.6729
363.4471, 987.7509
363.9292, 986.9083
364.4113, 988.8857
364.8934, 990.9374
365.3755, 990.6111
365.8576, 988.3669
366.3398, 986.8007
366.8219, 986.7388
367.3040, 987.1833
367.7861, 986.9982
368.2682, 986.2568
368.7503, 985.7491
369.2325, 985.9553
369.7146, 986.5486
370.1967, 986.9102
370.6788, 986.9341
371.1609, 987.1005
371.6430, 988.1678
372.1252, 989.6982
372.6073, 990.2005
373.0894, 988.6160
373.5715, 986.6246
374.0536, 985.5652
374.5357, 985.3134
375.0179, 985.0959
375.5000, 984.5187
375.9821, 983.7791
376.4642, 983.3793
376.9463, 983.5296
377.4284, 983.5013
377.9106, 982.7148
378.3927, 981.6445
378.8748, 981.0982
379.3569, 981.2979
379.8390, 982.0292
380.3211, 983.2628
380.8033, 985.2395
381.2854, 986.1555
381.7675, 984.5803
382.2496, 982.8259
382.7317, 983.1034
383.2138, 985.2839
383.6960, 987.1456
384.1781, 986.7044
384.6602, 984.2784
385.1423, 984.6590
385.6244, 990.6185
386.1065, 995.7219
386.5887, 997.1400
387.0708, 996.3912
387.5529, 996.3946
388.0350, 998.4846
388.5171, 1001.236
388.9992, 1001.465
389.4814, 996.2468
389.9635, 992.9376
390.4456, 991.5291
390.9277, 991.9899
391.4098, 995.3737
391.8919, 1001.197
392.3741, 1006.795
392.8562, 1009.313
393.3383, 1008.383
393.8204, 1007.206
394.3025, 1004.125
394.7846, 1002.516
395.2668, 1004.461
395.7489, 1008.633
396.2310, 1012.674
396.7131, 1015.267
397.1952, 1016.554
397.6773, 1016.965
398.1595, 1015.736
398.6416, 1014.869
399.1237, 1014.343
399.6058, 1014.392
400.0879, 1015.717
400.5700, 1018.283
401.0522, 1020.567
401.5343, 1020.482
402.0164, 1017.575
402.4985, 1014.945
402.9806, 1012.217
403.4627, 1010.293
403.9449, 1010.099
404.4270, 1011.062
404.9091, 1011.765
405.3912, 1011.368
405.8733, 1010.050
406.3554, 1008.185
406.8376, 1005.295
407.3197, 1003.025
407.8018, 1003.387
408.2839, 1004.075
408.7660, 1002.360
409.2481, 997.2424
409.7303, 991.5566
410.2124, 988.0472
410.6945, 986.6270
411.1766, 985.8000
411.6587, 985.4836
412.1408, 985.4055
412.6230, 985.5198
413.1051, 985.7532
413.5872, 985.4642
414.0693, 984.0383
414.5514, 982.0541
415.0335, 980.3826
415.5157, 979.0736
415.9978, 978.0727
416.4799, 977.6558
416.9620, 977.4572
417.4441, 976.3535
417.9262, 973.1683
418.4084, 970.5783
418.8905, 970.4706
419.3726, 972.1478
419.8547, 974.0374
420.3368, 975.7782
420.8189, 976.9420
421.3011, 976.6186
421.7832, 974.4219
422.2653, 972.5081
422.7474, 971.2601
423.2295, 970.2890
423.7116, 969.0490
424.1938, 967.6245
424.6759, 966.7831
425.1580, 967.1860
425.6401, 968.7649
426.1222, 970.2803
426.6043, 972.5060
427.0865, 973.7816
427.5686, 973.3563
428.0507, 971.8314
428.5328, 969.6225
429.0149, 966.9369
429.4970, 964.7244
429.9792, 964.8275
430.4613, 968.9025
430.9434, 971.7007
431.4255, 973.2063
431.9076, 973.7220
432.3897, 973.1589
432.8719, 971.7271
433.3540, 969.7521
433.8361, 967.1652
434.3182, 964.3342
434.8003, 964.2347
435.2824, 969.9596
435.7646, 973.6329
436.2467, 971.7894
436.7288, 967.8972
437.2109, 965.6330
437.6930, 966.1541
438.1751, 967.8925
438.6573, 968.8904
439.1394, 969.0628
439.6215, 969.6600
440.1036, 970.8525
440.5857, 972.5432
441.0678, 974.9380
441.5500, 977.8083
442.0321, 980.3300
442.5142, 982.2078
442.9963, 983.4368
443.4784, 983.6927
443.9605, 982.7829
444.4427, 982.4153
444.9248, 983.6910
445.4069, 985.9490
445.8890, 987.9554
446.3711, 989.5609
446.8532, 991.2176
447.3354, 993.4527
447.8175, 995.8838
448.2996, 997.4969
448.7817, 997.9550
449.2638, 998.2726
449.7459, 999.4402
450.2281, 1001.521
450.7102, 1004.230
451.1923, 1008.443
451.6744, 1012.491
452.1565, 1015.093
452.6386, 1016.604
453.1208, 1018.249
453.6029, 1020.718
454.0850, 1023.584
454.5671, 1025.644
455.0492, 1024.983
455.5313, 1026.200
456.0135, 1031.440
456.4956, 1037.177
456.9777, 1040.107
457.4598, 1040.166
457.9419, 1040.134
458.4240, 1042.835
458.9062, 1048.322
459.3883, 1052.549
459.8704, 1054.805
460.3525, 1056.515
460.8346, 1057.777
461.3167, 1058.748
461.7989, 1059.736
462.2810, 1060.873
462.7631, 1061.599
463.2452, 1060.727
463.7273, 1057.846
464.2094, 1055.802
464.6916, 1055.732
465.1737, 1055.848
465.6558, 1055.473
466.1379, 1054.453
466.6200, 1052.455
467.1021, 1048.875
467.5843, 1044.376
468.0664, 1040.078
468.5485, 1035.875
469.0306, 1032.644
469.5127, 1031.805
469.9948, 1031.561
470.4770, 1028.850
470.9591, 1022.769
471.4412, 1017.289
471.9233, 1015.431
472.4054, 1015.270
472.8875, 1013.288
473.3697, 1008.828
473.8518, 1003.106
474.3339, 996.8217
474.8160, 990.0514
475.2981, 984.4760
475.7802, 980.6998
476.2624, 977.4586
476.7445, 974.3471
477.2266, 971.3136
477.7087, 968.1552
478.1908, 964.7483
478.6729, 961.6994
479.1551, 960.3112
479.6372, 962.3227
480.1193, 961.7711
480.6014, 956.8846
481.0835, 951.3776
481.5656, 946.9742
482.0478, 943.7494
482.5299, 941.2722
483.0120, 939.3488
483.4941, 937.7966
483.9762, 935.9603
484.4583, 933.6472
484.9405, 931.4598
485.4226, 929.7909
485.9047, 928.1015
486.3868, 925.7633
486.8689, 922.7878
487.3510, 920.1182
487.8332, 918.4728
488.3153, 917.7969
488.7974, 918.1176
489.2795, 920.1694
489.7616, 921.3984
490.2437, 919.6380
490.7259, 916.1644
491.2080, 912.5178
491.6901, 908.2200
492.1722, 905.3137
492.6543, 906.7086
493.1364, 910.7567
493.6186, 912.5381
494.1007, 910.6096
494.5828, 906.9446
495.0649, 903.2366
495.5470, 899.3933
496.0291, 897.6223
496.5113, 900.0671
496.9934, 902.6703
497.4755, 902.9388
497.9576, 901.4588
498.4397, 899.8623
498.9218, 898.9275
499.4040, 898.4362
499.8861, 897.9843
500.3682, 898.1964
500.8503, 897.2244
501.3324, 893.4625
501.8145, 890.0157
502.2967, 888.9866
502.7788, 890.0433
503.2609, 891.5773
503.7430, 892.5821
504.2251, 893.0763
504.7072, 893.1896
505.1894, 893.1323
505.6715, 892.1815
506.1536, 888.8212
506.6357, 885.3906
507.1178, 883.9352
507.5999, 884.6449
508.0821, 885.8377
508.5642, 886.3570
509.0463, 886.4045
509.5284, 886.6806
510.0105, 887.3633
510.4926, 887.6398
510.9748, 886.6376
511.4569, 884.9651
511.9390, 884.1833
512.4211, 885.2568
512.9032, 885.5992
513.3853, 882.5720
513.8674, 878.3293
514.3495, 877.0926
514.8317, 879.7819
515.3138, 883.3117
515.7959, 884.6188
516.2780, 883.5602
516.7601, 882.1367
517.2422, 879.8870
517.7244, 877.8398
518.2065, 876.3652
518.6886, 875.3016
519.1707, 874.3411
519.6528, 873.3902
520.1349, 872.6962
520.6171, 872.7469
521.0992, 873.8109
521.5813, 874.5504
522.0634, 875.1360
522.5455, 875.1927
523.0276, 874.4580
523.5098, 873.1084
523.9919, 871.3216
524.4740, 868.9454
524.9561, 866.8030
525.4382, 866.3989
525.9203, 867.7723
526.4025, 868.5634
526.8846, 867.7920
527.3667, 866.8453
527.8488, 867.3649
528.3309, 869.0683
528.8130, 870.1125
529.2952, 869.5065
529.7773, 868.3570
530.2594, 867.8298
530.7415, 867.7259
531.2236, 866.8236
531.7057, 864.3502
532.1879, 861.4807
532.6700, 860.5426
533.1521, 862.5895
533.6342, 864.2780
534.1163, 865.8000
534.5984, 866.7351
535.0806, 866.2935
535.5627, 864.9835
536.0448, 864.2165
536.5269, 864.9072
537.0090, 866.5586
537.4911, 867.6005
537.9733, 867.5472
538.4554, 867.9767
538.9375, 870.3762
539.4196, 872.2233
539.9017, 871.3278
540.3839, 868.1988
540.8660, 865.4918
541.3481, 865.0253
541.8302, 866.0642
542.3123, 867.1248
542.7944, 868.2333
543.2766, 869.1876
543.7587, 870.1119
544.2408, 870.6451
544.7229, 869.8110
545.2050, 867.2561
545.6871, 866.4321
546.1693, 870.3791
546.6514, 875.4986
547.1335, 877.7121
547.6156, 877.0427
548.0977, 875.7314
548.5798, 874.9371
549.0620, 874.7960
549.5441, 875.7756
550.0262, 880.1329
550.5083, 882.5403
550.9904, 880.8032
551.4725, 878.7432
551.9547, 879.5779
552.4368, 882.9950
552.9189, 886.3519
553.4010, 887.4436
553.8831, 887.2069
554.3652, 889.8991
554.8474, 897.5020
555.3295, 903.0010
555.8116, 902.4288
556.2937, 900.6041
556.7758, 901.1025
557.2579, 904.0242
557.7401, 906.7677
558.2222, 907.5312
558.7043, 907.2488
559.1864, 907.9362
559.6685, 909.6453
560.1506, 910.0778
560.6328, 907.9747
561.1149, 904.0480
561.5970, 899.3502
562.0791, 893.1068
562.5612, 888.6578
563.0433, 888.5443
563.5255, 889.0251
564.0076, 886.5168
564.4897, 881.4348
564.9718, 876.5385
565.4539, 873.5419
565.9360, 872.1789
566.4182, 871.7209
566.9003, 873.2699
567.3824, 873.6249
567.8645, 870.3737
568.3466, 867.8591
568.8287, 869.7599
569.3109, 875.1171
569.7930, 879.8370
570.2751, 881.3135
570.7572, 880.6653
571.2393, 879.8958
571.7214, 878.9368
572.2036, 878.6891
572.6857, 879.5559
573.1678, 881.1514
573.6499, 882.7537
574.1320, 884.3485
574.6141, 887.2634
575.0963, 893.6899
575.5784, 900.1123
576.0605, 902.6226
576.5426, 902.3271
577.0247, 903.4911
577.5068, 908.1680
577.9890, 914.4654
578.4711, 918.7556
578.9532, 919.7610
579.4353, 922.0115
579.9174, 926.0515
580.3995, 930.6302
580.8817, 935.7261
581.3638, 940.8019
581.8459, 944.8996
582.3280, 947.5212
582.8101, 949.4036
583.2922, 951.3395
583.7744, 953.2094
584.2565, 956.9753
584.7386, 963.8062
585.2207, 971.3796
585.7029, 978.1768
586.1850, 984.4213
586.6671, 990.6557
