##NAMES=Ephesite
##RRUFFID=R060848
##IDEAL CHEMISTRY=NaLiAl_2_(Si_2_Al_2_)O_10_(OH)_2_
##LOCALITY=Postmaasburg, South Africa
##OWNER=RRUFF
##SOURCE=Michael Scott
##DESCRIPTION=Pale pink hexagonal mica books, polytype 2M1
##STATUS=The identification of this mineral has been confirmed by X-ray diffraction and chemical analysis
##URL=rruff.info/R060848
##MEASURED CHEMISTRY=Na_1.00_Li_1.00_Al_2.00_(Si_2.00_Al_2.00_)O_10_(OH)_2_; trace amounts of Fe and Ca; Li and OH assumed by stoichiometry
178.8993, 10914.53
179.3814, 10930.38
179.8635, 10913.00
180.3457, 10886.40
180.8278, 10890.57
181.3099, 10935.30
181.7920, 10978.72
182.2741, 10973.78
182.7562, 10938.13
183.2384, 10916.63
183.7205, 10931.54
184.2026, 10964.67
184.6847, 10987.72
185.1668, 10996.35
185.6489, 11005.32
186.1311, 11027.79
186.6132, 11059.43
187.0953, 11091.82
187.5774, 11123.90
188.0595, 11154.78
188.5416, 11152.38
189.0238, 11196.94
189.5059, 11226.89
189.9880, 11243.04
190.4701, 11203.98
190.9522, 11236.20
191.4343, 11239.86
191.9165, 11242.35
192.3986, 11284.60
192.8807, 11253.57
193.3628, 11295.19
193.8449, 11307.81
194.3270, 11333.70
194.8092, 11324.44
195.2913, 11323.27
195.7734, 11321.44
196.2555, 11324.30
196.7376, 11330.69
197.2197, 11346.41
197.7019, 11388.51
198.1840, 11442.53
198.6661, 11481.43
199.1482, 11485.53
199.6303, 11475.18
200.1124, 11482.01
200.5946, 11509.35
201.0767, 11539.98
201.5588, 11555.10
202.0409, 11566.69
202.5230, 11596.56
203.0051, 11666.35
203.4873, 11747.99
203.9694, 11799.54
204.4515, 11815.30
204.9336, 11827.79
205.4157, 11856.87
205.8978, 11895.01
206.3800, 11930.07
206.8621, 11948.19
207.3442, 11970.95
207.8263, 12031.14
208.3084, 12133.51
208.7905, 12238.21
209.2727, 12316.96
209.7548, 12385.68
210.2369, 12469.13
210.7190, 12579.19
211.2011, 12697.61
211.6832, 12811.91
212.1654, 12923.54
212.6475, 13007.58
213.1296, 13041.75
213.6117, 13041.83
214.0938, 13032.49
214.5760, 13023.25
215.0581, 12996.86
215.5402, 12925.92
216.0223, 12809.94
216.5044, 12701.94
216.9865, 12634.60
217.4687, 12584.22
217.9508, 12510.04
218.4329, 12391.38
218.9150, 12281.36
219.3971, 12231.15
219.8792, 12237.19
220.3614, 12245.41
220.8435, 12229.95
221.3256, 12209.55
221.8077, 12212.58
222.2898, 12246.12
222.7719, 12286.95
223.2541, 12317.91
223.7362, 12341.13
224.2183, 12371.31
224.7004, 12420.11
225.1825, 12470.99
225.6646, 12497.39
226.1468, 12493.23
226.6289, 12488.25
227.1110, 12509.81
227.5931, 12546.53
228.0752, 12554.25
228.5573, 12509.43
229.0395, 12444.92
229.5216, 12408.11
230.0037, 12401.42
230.4858, 12398.19
230.9679, 12393.16
231.4500, 12382.99
231.9322, 12355.64
232.4143, 12301.90
232.8964, 12244.72
233.3785, 12215.95
233.8606, 12214.77
234.3427, 12218.25
234.8249, 12209.90
235.3070, 12203.90
235.7891, 12233.08
236.2712, 12311.43
236.7533, 12390.87
237.2354, 12405.79
237.7176, 12358.37
238.1997, 12323.61
238.6818, 12315.72
239.1639, 12327.92
239.6460, 12355.57
240.1281, 12398.66
240.6103, 12447.37
241.0924, 12492.20
241.5745, 12533.51
242.0566, 12580.71
242.5387, 12628.22
243.0208, 12686.29
243.5030, 12769.46
243.9851, 12876.81
244.4672, 12986.04
244.9493, 13075.14
245.4314, 13145.93
245.9135, 13244.06
246.3957, 13375.90
246.8778, 13528.90
247.3599, 13700.68
247.8420, 13888.57
248.3241, 14079.02
248.8062, 14262.49
249.2884, 14441.58
249.7705, 14637.91
250.2526, 14841.34
250.7347, 15068.96
251.2168, 15330.42
251.6989, 15621.31
252.1811, 15944.53
252.6632, 16313.10
253.1453, 16695.41
253.6274, 16955.97
254.1095, 17089.48
254.5916, 17126.55
255.0738, 17050.81
255.5559, 16885.79
256.0380, 16653.78
256.5201, 16361.56
257.0022, 16032.32
257.4843, 15716.99
257.9665, 15432.91
258.4486, 15144.76
258.9307, 14833.01
259.4128, 14525.87
259.8949, 14249.03
260.3770, 14010.22
260.8592, 13806.68
261.3413, 13634.88
261.8234, 13518.71
262.3055, 13388.47
262.7876, 13233.96
263.2697, 13073.72
263.7519, 12907.87
264.2340, 12743.92
264.7161, 12607.47
265.1982, 12534.42
265.6803, 12545.49
266.1624, 12536.80
266.6446, 12489.59
267.1267, 12442.30
267.6088, 12412.18
268.0909, 12398.41
268.5730, 12391.93
269.0551, 12385.44
269.5373, 12378.92
270.0194, 12374.62
270.5015, 12366.38
270.9836, 12367.10
271.4657, 12378.57
271.9478, 12401.78
272.4300, 12439.68
272.9121, 12497.06
273.3942, 12567.67
273.8763, 12624.22
274.3584, 12656.39
274.8405, 12688.25
275.3227, 12720.75
275.8048, 12757.54
276.2869, 12802.81
276.7690, 12857.92
277.2511, 12922.65
277.7332, 13000.52
278.2154, 13100.33
278.6975, 13187.25
279.1796, 13225.36
279.6617, 13263.29
280.1438, 13348.16
280.6259, 13492.65
281.1081, 13648.17
281.5902, 13753.26
282.0723, 13803.22
282.5544, 13875.03
283.0365, 14004.96
283.5186, 14143.41
284.0008, 14244.77
284.4829, 14309.96
284.9650, 14392.07
285.4471, 14551.68
285.9292, 14767.28
286.4113, 14934.97
286.8935, 15034.57
287.3756, 15098.32
287.8577, 15154.06
288.3398, 15199.65
288.8219, 15221.91
289.3040, 15235.97
289.7862, 15217.31
290.2683, 15113.03
290.7504, 14910.48
291.2325, 14681.09
291.7146, 14461.31
292.1967, 14253.61
292.6789, 14063.46
293.1610, 13889.66
293.6431, 13737.18
294.1252, 13612.72
294.6073, 13515.01
295.0894, 13432.78
295.5716, 13355.67
296.0537, 13293.94
296.5358, 13275.30
297.0179, 13314.47
297.5000, 13369.60
297.9821, 13427.76
298.4643, 13489.35
298.9464, 13557.61
299.4285, 13634.52
299.9106, 13713.49
300.3927, 13783.99
300.8748, 13850.10
301.3570, 13897.65
301.8391, 13906.18
302.3212, 13905.36
302.8033, 13932.05
303.2854, 13991.28
303.7675, 14048.81
304.2497, 14064.02
304.7318, 14024.90
305.2139, 13988.47
305.6960, 13967.84
306.1781, 13938.29
306.6602, 13873.83
307.1424, 13785.65
307.6245, 13712.13
308.1066, 13687.46
308.5887, 13708.43
309.0708, 13692.78
309.5529, 13580.49
310.0351, 13495.05
310.5172, 13476.60
310.9993, 13496.91
311.4814, 13511.36
311.9635, 13496.20
312.4456, 13471.47
312.9278, 13495.24
313.4099, 13608.67
313.8920, 13689.19
314.3741, 13685.02
314.8562, 13664.99
315.3383, 13682.77
315.8205, 13751.66
316.3026, 13851.22
316.7847, 13958.25
317.2668, 14071.57
317.7489, 14204.74
318.2310, 14367.45
318.7132, 14545.05
319.1953, 14721.62
319.6774, 14900.97
320.1595, 15109.95
320.6416, 15384.55
321.1237, 15704.56
321.6059, 15991.66
322.0880, 16234.20
322.5701, 16469.58
323.0522, 16742.77
323.5343, 17027.35
324.0164, 17267.14
324.4986, 17425.04
324.9807, 17549.09
325.4628, 17690.25
325.9449, 17847.70
326.4270, 18003.45
326.9091, 18166.15
327.3913, 18308.41
327.8734, 18383.72
328.3555, 18415.79
328.8376, 18342.49
329.3197, 18117.49
329.8018, 17770.78
330.2840, 17338.14
330.7661, 16820.25
331.2482, 16274.11
331.7303, 15775.65
332.2124, 15325.44
332.6945, 14926.55
333.1767, 14574.08
333.6588, 14277.09
334.1409, 14047.52
334.6230, 13883.50
335.1051, 13767.38
335.5873, 13687.60
336.0694, 13647.27
336.5515, 13597.00
337.0336, 13510.33
337.5157, 13443.41
337.9979, 13420.08
338.4800, 13428.49
338.9621, 13446.63
339.4442, 13462.94
339.9263, 13479.03
340.4084, 13499.72
340.8906, 13527.10
341.3727, 13556.08
341.8548, 13599.99
342.3369, 13636.65
342.8190, 13641.70
343.3011, 13611.24
343.7833, 13570.87
344.2654, 13548.50
344.7475, 13544.68
345.2296, 13553.90
345.7117, 13587.62
346.1938, 13622.87
346.6760, 13634.58
347.1581, 13633.88
347.6402, 13659.36
348.1223, 13741.36
348.6044, 13865.15
349.0865, 13991.51
349.5687, 14117.20
350.0508, 14258.50
350.5329, 14428.43
351.0150, 14620.17
351.4971, 14825.14
351.9792, 15050.96
352.4614, 15274.82
352.9435, 15469.40
353.4256, 15642.81
353.9077, 15837.35
354.3898, 16072.43
354.8719, 16325.40
355.3541, 16560.06
355.8362, 16780.92
356.3183, 16973.02
356.8004, 17116.87
357.2825, 17237.03
357.7646, 17365.57
358.2468, 17505.97
358.7289, 17627.70
359.2110, 17701.21
359.6931, 17722.34
360.1752, 17730.51
360.6573, 17721.57
361.1395, 17706.46
361.6216, 17694.49
362.1037, 17679.28
362.5858, 17660.89
363.0679, 17644.24
363.5500, 17598.85
364.0322, 17426.25
364.5143, 17066.03
364.9964, 16663.02
365.4785, 16197.75
365.9606, 15721.34
366.4427, 15261.25
366.9249, 14828.30
367.4070, 14439.39
367.8891, 14121.97
368.3712, 13877.75
368.8533, 13655.94
369.3354, 13449.24
369.8176, 13273.38
370.2997, 13143.82
370.7818, 13049.17
371.2639, 12961.66
371.7460, 12859.89
372.2281, 12762.82
372.7103, 12710.32
373.1924, 12708.81
373.6745, 12700.16
374.1566, 12646.79
374.6387, 12575.63
375.1208, 12535.73
375.6030, 12541.42
376.0851, 12548.02
376.5672, 12529.21
377.0493, 12494.94
377.5314, 12463.90
378.0135, 12440.05
378.4957, 12425.42
378.9778, 12425.35
379.4599, 12445.35
379.9420, 12453.25
380.4241, 12431.79
380.9063, 12412.24
381.3884, 12416.26
381.8705, 12440.89
382.3526, 12473.56
382.8347, 12507.79
383.3168, 12540.80
383.7990, 12555.97
384.2811, 12527.79
384.7632, 12513.28
385.2453, 12525.63
385.7274, 12550.16
386.2095, 12576.07
386.6917, 12599.17
387.1738, 12614.69
387.6559, 12609.30
388.1380, 12575.72
388.6201, 12568.46
389.1022, 12605.21
389.5844, 12654.71
390.0665, 12708.91
390.5486, 12763.97
391.0307, 12810.55
391.5128, 12840.89
391.9949, 12861.56
392.4771, 12881.46
392.9592, 12898.39
393.4413, 12929.48
393.9234, 12985.31
394.4055, 13059.87
394.8876, 13139.92
395.3698, 13222.24
395.8519, 13316.98
396.3340, 13418.72
396.8161, 13537.74
397.2982, 13698.59
397.7803, 13908.35
398.2625, 14142.17
398.7446, 14375.53
399.2267, 14607.19
399.7088, 14846.99
400.1909, 15083.70
400.6730, 15338.48
401.1552, 15646.86
401.6373, 15982.88
402.1194, 16295.85
402.6015, 16557.30
403.0836, 16767.46
403.5657, 16925.38
404.0479, 17054.61
404.5300, 17085.97
405.0121, 16970.82
405.4942, 16798.63
405.9763, 16639.90
406.4584, 16502.40
406.9406, 16348.81
407.4227, 16142.51
407.9048, 15884.72
408.3869, 15597.88
408.8690, 15267.27
409.3511, 14931.84
409.8333, 14600.24
410.3154, 14280.57
410.7975, 13988.53
411.2796, 13731.71
411.7617, 13499.83
412.2438, 13281.05
412.7260, 13076.66
413.2081, 12897.84
413.6902, 12751.72
414.1723, 12628.57
414.6544, 12513.40
415.1365, 12401.05
415.6187, 12314.89
416.1008, 12267.27
416.5829, 12241.91
417.0650, 12235.98
417.5471, 12242.43
418.0292, 12232.63
418.5114, 12181.90
418.9935, 12096.43
419.4756, 12033.28
419.9577, 12002.05
420.4398, 11982.62
420.9219, 11977.64
421.4041, 11980.89
421.8862, 11984.36
422.3683, 11986.44
422.8504, 11994.76
423.3325, 12026.10
423.8146, 12086.13
424.2968, 12120.29
424.7789, 12101.26
425.2610, 12085.22
425.7431, 12109.45
426.2252, 12157.79
426.7073, 12190.84
427.1895, 12186.35
427.6716, 12163.88
428.1537, 12142.74
428.6358, 12123.25
429.1179, 12124.01
429.6000, 12155.20
430.0822, 12207.22
430.5643, 12267.82
431.0464, 12340.88
431.5285, 12404.74
432.0106, 12451.80
432.4927, 12488.02
432.9749, 12516.44
433.4570, 12538.68
433.9391, 12560.73
434.4212, 12587.16
434.9033, 12617.69
435.3854, 12649.10
435.8676, 12692.36
436.3497, 12722.99
436.8318, 12721.00
437.3139, 12711.87
437.7960, 12723.31
438.2781, 12763.36
438.7603, 12820.94
439.2424, 12885.32
439.7245, 12957.69
440.2066, 13025.36
440.6887, 13102.56
441.1708, 13155.04
441.6530, 13163.32
442.1351, 13136.61
442.6172, 13095.68
443.0993, 13049.46
443.5814, 12990.85
444.0635, 12906.31
444.5457, 12798.03
445.0278, 12686.14
445.5099, 12572.68
445.9920, 12467.03
446.4741, 12385.29
446.9562, 12324.34
447.4384, 12289.93
447.9205, 12298.53
448.4026, 12322.57
448.8847, 12342.22
449.3668, 12355.70
449.8489, 12363.91
450.3311, 12364.92
450.8132, 12365.02
451.2953, 12395.73
451.7774, 12467.33
452.2595, 12558.91
452.7416, 12676.58
453.2238, 12806.51
453.7059, 12937.61
454.1880, 13068.04
454.6701, 13206.17
455.1522, 13359.21
455.6343, 13526.91
456.1165, 13708.24
456.5986, 13908.96
457.0807, 14113.16
457.5628, 14304.31
458.0449, 14496.01
458.5270, 14713.72
459.0092, 14975.73
459.4913, 15237.32
459.9734, 15478.12
460.4555, 15694.25
460.9376, 15882.66
461.4197, 16042.52
461.9019, 16165.20
462.3840, 16243.29
462.8661, 16278.12
463.3482, 16234.06
463.8303, 16095.15
464.3124, 15901.45
464.7946, 15645.21
465.2767, 15352.08
465.7588, 15060.05
466.2409, 14784.85
466.7230, 14523.18
467.2051, 14266.69
467.6873, 14012.58
468.1694, 13773.65
468.6515, 13538.36
469.1336, 13332.37
469.6157, 13183.67
470.0978, 13078.40
470.5800, 12965.76
471.0621, 12801.78
471.5442, 12630.62
472.0263, 12526.64
472.5084, 12487.76
472.9905, 12443.90
473.4727, 12364.85
473.9548, 12269.89
474.4369, 12191.64
474.9190, 12125.79
475.4011, 12084.17
475.8832, 12088.70
476.3654, 12103.74
476.8475, 12099.29
477.3296, 12075.62
477.8117, 12047.92
478.2938, 12026.11
478.7759, 12009.26
479.2581, 11991.83
479.7402, 11959.58
480.2223, 11951.86
480.7044, 11986.78
481.1865, 12035.18
481.6686, 12071.46
482.1508, 12095.33
482.6329, 12129.47
483.1150, 12196.24
483.5971, 12287.51
484.0792, 12376.18
484.5613, 12459.88
485.0435, 12550.42
485.5256, 12657.74
486.0077, 12774.51
486.4898, 12883.46
486.9719, 12978.57
487.4540, 13080.70
487.9362, 13197.72
488.4183, 13325.74
488.9004, 13466.38
489.3825, 13616.92
489.8646, 13757.94
490.3467, 13871.56
490.8289, 13959.55
491.3110, 14058.15
491.7931, 14218.09
492.2752, 14324.20
492.7573, 14353.95
493.2394, 14327.42
493.7216, 14262.33
494.2037, 14163.55
494.6858, 14032.19
495.1679, 13856.85
495.6500, 13644.62
496.1321, 13445.69
496.6143, 13269.56
497.0964, 13087.00
497.5785, 12867.62
498.0606, 12633.72
498.5427, 12432.67
499.0248, 12276.04
499.5070, 12138.79
499.9891, 12014.16
500.4712, 11899.95
500.9533, 11794.35
501.4355, 11696.79
501.9176, 11606.57
502.3997, 11524.32
502.8818, 11450.07
503.3639, 11374.80
503.8460, 11276.20
504.3282, 11203.63
504.8103, 11179.53
505.2924, 11179.79
505.7745, 11181.37
506.2566, 11177.53
506.7387, 11169.50
507.2209, 11155.38
507.7030, 11136.82
508.1851, 11126.71
508.6672, 11127.79
509.1493, 11132.28
509.6314, 11143.80
510.1136, 11153.57
510.5957, 11140.34
511.0778, 11086.33
511.5599, 11037.03
512.0420, 11009.79
512.5241, 11001.73
513.0062, 11016.97
513.4883, 11053.29
513.9705, 11085.40
514.4526, 11087.72
514.9347, 11060.71
515.4168, 11036.83
515.8989, 11017.37
516.3810, 10999.84
516.8632, 10978.35
517.3453, 10961.62
517.8274, 10961.64
518.3095, 10979.99
518.7916, 11001.05
519.2737, 11010.72
519.7559, 11010.82
520.2380, 11008.35
520.7201, 11003.00
521.2022, 10997.57
521.6843, 10992.75
522.1664, 10989.39
522.6486, 10989.86
523.1307, 10998.68
523.6128, 11002.71
524.0949, 10998.88
524.5770, 10987.40
525.0591, 10963.77
525.5413, 10930.32
526.0234, 10901.65
526.5055, 10891.48
526.9876, 10896.05
527.4697, 10883.65
527.9518, 10829.01
528.4340, 10801.61
528.9161, 10839.37
529.3982, 10889.12
529.8803, 10908.37
530.3624, 10892.45
530.8445, 10861.34
531.3267, 10816.58
531.8088, 10769.34
532.2909, 10742.15
532.7730, 10735.73
533.2551, 10743.46
533.7372, 10770.93
534.2194, 10801.35
534.7015, 10789.45
535.1836, 10704.05
535.6657, 10651.72
536.1478, 10657.19
536.6299, 10687.63
537.1121, 10733.57
537.5942, 10783.73
538.0763, 10815.47
538.5584, 10813.79
539.0405, 10788.84
539.5226, 10762.40
540.0048, 10728.82
540.4869, 10716.54
540.9690, 10749.00
541.4511, 10786.84
541.9332, 10800.57
542.4153, 10793.56
542.8975, 10786.13
543.3796, 10782.70
543.8617, 10784.55
544.3438, 10805.90
544.8259, 10835.20
545.3080, 10826.40
545.7902, 10759.74
546.2723, 10680.66
546.7544, 10657.20
547.2365, 10707.96
547.7186, 10737.65
548.2007, 10733.85
548.6829, 10724.84
549.1650, 10717.04
549.6471, 10711.47
550.1292, 10707.58
550.6113, 10704.98
551.0934, 10707.22
551.5756, 10727.63
552.0577, 10760.42
552.5398, 10759.51
553.0219, 10708.07
553.5040, 10661.96
553.9861, 10666.01
554.4683, 10708.02
554.9504, 10731.10
555.4325, 10724.74
555.9146, 10713.82
556.3967, 10698.48
556.8788, 10686.73
557.3610, 10693.77
557.8431, 10717.55
558.3252, 10734.98
558.8073, 10724.56
559.2894, 10691.93
559.7715, 10670.82
560.2537, 10663.42
560.7358, 10662.61
561.2179, 10676.69
561.7000, 10689.76
562.1821, 10683.31
562.6642, 10658.23
563.1464, 10645.64
563.6285, 10676.26
564.1106, 10716.54
564.5927, 10730.26
565.0748, 10717.85
565.5569, 10683.23
566.0391, 10624.38
566.5212, 10560.28
567.0033, 10525.04
567.4854, 10528.00
567.9675, 10533.96
568.4496, 10554.41
568.9318, 10565.70
569.4139, 10539.75
569.8960, 10502.35
570.3781, 10501.58
570.8602, 10559.55
571.3423, 10634.01
571.8245, 10674.88
572.3066, 10687.84
572.7887, 10703.88
573.2708, 10725.60
573.7529, 10757.67
574.2350, 10810.63
574.7172, 10877.66
575.1993, 10923.00
575.6814, 10924.68
576.1635, 10934.50
576.6456, 10973.35
577.1277, 11019.49
577.6099, 11045.99
578.0920, 11054.86
578.5741, 11076.47
579.0562, 11140.53
579.5383, 11229.42
580.0204, 11274.66
580.5026, 11263.40
580.9847, 11259.75
581.4668, 11288.40
581.9489, 11323.40
582.4310, 11342.50
582.9132, 11345.88
583.3953, 11335.19
583.8774, 11302.02
584.3596, 11262.90
584.8417, 11230.35
585.3238, 11201.39
585.8059, 11168.35
586.2880, 11128.66
586.7701, 11084.73
587.2523, 11039.70
587.7344, 10993.50
588.2165, 10947.86
588.6986, 10904.38
589.1807, 10859.21
589.6628, 10799.52
590.1450, 10743.13
590.6271, 10716.11
591.1092, 10726.37
591.5913, 10737.24
592.0734, 10717.35
592.5555, 10686.03
593.0377, 10680.57
593.5198, 10700.22
594.0019, 10709.54
594.4840, 10687.64
594.9661, 10644.13
595.4482, 10603.51
595.9304, 10561.82
596.4125, 10530.22
596.8946, 10498.91
597.3767, 10485.65
597.8588, 10515.99
598.3409, 10569.43
598.8231, 10601.69
599.3052, 10590.55
599.7873, 10563.32
600.2694, 10549.66
600.7515, 10546.92
601.2336, 10543.84
601.7158, 10538.96
602.1979, 10530.52
602.6800, 10512.86
603.1621, 10489.68
603.6442, 10490.01
604.1263, 10557.03
604.6085, 10587.72
605.0906, 10522.75
605.5727, 10449.11
606.0548, 10449.91
606.5369, 10518.21
607.0190, 10583.07
607.5012, 10594.19
607.9833, 10574.86
608.4654, 10575.47
608.9475, 10596.33
609.4296, 10602.50
609.9117, 10578.33
610.3939, 10550.07
610.8760, 10549.46
611.3581, 10576.63
611.8402, 10584.79
612.3223, 10551.55
612.8044, 10523.83
613.2866, 10529.03
613.7687, 10544.29
614.2508, 10535.59
614.7329, 10499.60
615.2150, 10467.05
615.6971, 10471.59
616.1793, 10502.40
616.6614, 10509.99
617.1435, 10491.21
617.6256, 10463.96
618.1077, 10425.00
618.5898, 10389.67
619.0720, 10382.22
619.5541, 10403.24
620.0362, 10421.36
620.5183, 10423.36
621.0004, 10429.10
621.4825, 10454.02
621.9647, 10489.62
622.4468, 10521.63
622.9289, 10545.17
623.4110, 10562.85
623.8931, 10575.57
624.3752, 10583.87
624.8574, 10599.71
625.3395, 10625.48
625.8216, 10651.61
626.3037, 10665.50
626.7858, 10683.61
627.2679, 10735.40
627.7501, 10829.19
628.2322, 10901.25
628.7143, 10917.59
629.1964, 10921.91
629.6785, 10943.41
630.1606, 10980.69
630.6428, 11025.93
631.1249, 11075.97
631.6070, 11129.75
632.0891, 11189.01
632.5712, 11254.86
633.0533, 11305.04
633.5355, 11338.15
634.0176, 11358.55
634.4997, 11361.22
634.9818, 11355.02
635.4639, 11352.76
635.9460, 11356.00
636.4282, 11358.74
636.9103, 11361.50
637.3924, 11360.85
637.8745, 11354.85
638.3566, 11342.75
638.8387, 11320.54
639.3209, 11286.15
639.8030, 11250.54
640.2851, 11239.98
640.7672, 11259.92
641.2493, 11237.96
641.7314, 11155.20
642.2136, 11061.92
642.6957, 10968.28
643.1778, 10886.48
643.6599, 10842.09
644.1420, 10851.36
644.6241, 10845.90
645.1063, 10789.38
645.5884, 10718.94
646.0705, 10666.00
646.5526, 10628.83
647.0347, 10596.92
647.5168, 10565.73
647.9990, 10528.48
648.4811, 10461.55
648.9632, 10358.40
649.4453, 10317.97
649.9274, 10376.38
650.4095, 10432.22
650.8917, 10424.34
651.3738, 10379.93
651.8559, 10345.71
652.3380, 10320.56
652.8201, 10315.20
653.3022, 10351.55
653.7844, 10393.75
654.2665, 10403.20
654.7486, 10392.20
655.2307, 10398.99
655.7128, 10441.65
656.1949, 10504.31
656.6771, 10567.29
657.1592, 10630.53
657.6413, 10677.67
658.1234, 10695.25
658.6055, 10729.95
659.0876, 10812.21
659.5698, 10927.53
660.0519, 11041.90
660.5340, 11153.40
661.0161, 11270.44
661.4982, 11374.34
661.9803, 11502.81
662.4625, 11694.92
662.9446, 11931.63
663.4267, 12163.47
663.9088, 12370.38
664.3909, 12584.05
664.8730, 12843.09
665.3552, 13146.12
665.8373, 13488.09
666.3194, 13877.42
666.8015, 14261.63
667.2836, 14603.70
667.7657, 14929.65
668.2479, 15301.35
668.7300, 15744.54
669.2121, 16147.51
669.6942, 16521.12
670.1763, 16831.48
670.6584, 17082.17
671.1406, 17248.31
671.6227, 17292.99
672.1048, 17203.74
672.5869, 16993.77
673.0690, 16659.66
