##NAMES=Ephesite
##RRUFFID=R060848
##IDEAL CHEMISTRY=NaLiAl_2_(Si_2_Al_2_)O_10_(OH)_2_
##LOCALITY=Postmaasburg, South Africa
##OWNER=RRUFF
##SOURCE=Michael Scott
##DESCRIPTION=Pale pink hexagonal mica books, polytype 2M1
##STATUS=The identification of this mineral has been confirmed by X-ray diffraction and chemical analysis
##URL=rruff.info/R060848
##MEASURED CHEMISTRY=Na_1.00_Li_1.00_Al_2.00_(Si_2.00_Al_2.00_)O_10_(OH)_2_; trace amounts of Fe and Ca; Li and OH assumed by stoichiometry
153.5565, 9143.696
154.0386, 9194.347
154.5207, 9238.296
155.0028, 9271.266
155.4849, 9297.338
155.9671, 9322.973
156.4492, 9348.122
156.9313, 9374.097
157.4134, 9401.006
157.8955, 9427.729
158.3777, 9458.088
158.8598, 9491.706
159.3419, 9529.667
159.8240, 9574.300
160.3061, 9630.923
160.7882, 9692.195
161.2704, 9753.181
161.7525, 9809.379
162.2346, 9868.682
162.7167, 9933.657
163.1988, 10005.00
163.6809, 10080.65
164.1631, 10155.52
164.6452, 10236.42
165.1273, 10330.69
165.6094, 10459.94
166.0915, 10587.94
166.5736, 10687.35
167.0558, 10756.95
167.5379, 10829.49
168.0200, 10952.07
168.5021, 11086.79
168.9842, 11175.16
169.4663, 11176.17
169.9485, 11127.91
170.4306, 11056.44
170.9127, 10961.03
171.3948, 10860.62
171.8769, 10759.88
172.3590, 10665.19
172.8412, 10593.19
173.3233, 10565.66
173.8054, 10562.33
174.2875, 10557.85
174.7696, 10546.65
175.2517, 10537.81
175.7339, 10544.81
176.2160, 10564.40
176.6981, 10581.55
177.1802, 10578.53
177.6623, 10567.10
178.1444, 10570.39
178.6266, 10597.47
179.1087, 10636.74
179.5908, 10673.72
180.0729, 10708.21
180.5550, 10739.97
181.0371, 10770.62
181.5193, 10798.55
182.0014, 10817.14
182.4835, 10817.58
182.9656, 10811.06
183.4477, 10821.73
183.9298, 10850.37
184.4120, 10885.67
184.8941, 10920.75
185.3762, 10954.62
185.8583, 10979.88
186.3404, 10985.38
186.8225, 10979.53
187.3047, 10993.60
187.7868, 11030.00
188.2689, 11076.20
188.7510, 11122.78
189.2331, 11168.71
189.7152, 11200.96
190.1974, 11200.51
190.6795, 11174.93
191.1616, 11178.33
191.6437, 11219.12
192.1258, 11275.01
192.6080, 11304.06
193.0901, 11305.42
193.5722, 11310.53
194.0543, 11346.77
194.5364, 11411.37
195.0185, 11443.46
195.5007, 11423.13
195.9828, 11384.64
196.4649, 11417.06
196.9470, 11530.64
197.4291, 11650.92
197.9112, 11727.20
198.3934, 11757.56
198.8755, 11783.08
199.3576, 11805.71
199.8397, 11828.57
200.3218, 11864.73
200.8039, 11917.13
201.2861, 11972.50
201.7682, 12020.02
202.2503, 12058.67
202.7324, 12095.13
203.2145, 12123.99
203.6966, 12150.21
204.1788, 12211.75
204.6609, 12315.16
205.1430, 12436.96
205.6251, 12557.11
206.1072, 12676.30
206.5893, 12789.64
207.0715, 12889.25
207.5536, 12975.59
208.0357, 13094.02
208.5178, 13249.13
208.9999, 13429.56
209.4820, 13626.60
209.9642, 13842.78
210.4463, 14068.73
210.9284, 14313.95
211.4105, 14582.20
211.8926, 14799.87
212.3747, 14965.53
212.8569, 15082.01
213.3390, 15157.68
213.8211, 15196.08
214.3032, 15183.09
214.7853, 15111.26
215.2674, 14977.76
215.7496, 14797.99
216.2317, 14549.64
216.7138, 14270.45
217.1959, 14026.17
217.6780, 13813.89
218.1601, 13638.20
218.6423, 13505.83
219.1244, 13424.87
219.6065, 13359.55
220.0886, 13310.44
220.5707, 13276.03
221.0528, 13253.93
221.5350, 13244.59
222.0171, 13245.99
222.4992, 13258.06
222.9813, 13283.23
223.4634, 13312.73
223.9455, 13346.44
224.4277, 13384.45
224.9098, 13425.31
225.3919, 13471.24
225.8740, 13517.57
226.3561, 13564.10
226.8382, 13616.77
227.3204, 13655.09
227.8025, 13676.71
228.2846, 13682.62
228.7667, 13676.89
229.2488, 13656.70
229.7310, 13628.86
230.2131, 13596.26
230.6952, 13555.36
231.1773, 13517.35
231.6594, 13480.57
232.1415, 13446.43
232.6237, 13425.00
233.1058, 13419.12
233.5879, 13422.59
234.0700, 13431.43
234.5521, 13446.50
235.0342, 13465.12
235.5164, 13486.91
235.9985, 13511.88
236.4806, 13540.38
236.9627, 13572.74
237.4448, 13607.72
237.9269, 13643.53
238.4091, 13673.80
238.8912, 13716.58
239.3733, 13775.22
239.8554, 13849.69
240.3375, 13933.41
240.8196, 14025.34
241.3018, 14127.59
241.7839, 14244.82
242.2660, 14385.63
242.7481, 14524.71
243.2302, 14653.64
243.7123, 14771.28
244.1945, 14906.72
244.6766, 15061.24
245.1587, 15232.40
245.6408, 15420.38
246.1229, 15627.81
246.6050, 15846.69
247.0872, 16072.28
247.5693, 16302.81
248.0514, 16562.55
248.5335, 16858.86
249.0156, 17179.19
249.4977, 17504.35
249.9799, 17821.46
250.4620, 18165.66
250.9441, 18545.41
251.4262, 18961.93
251.9083, 19411.26
252.3904, 19920.14
252.8726, 20433.94
253.3547, 20898.62
253.8368, 21389.55
254.3189, 21686.10
254.8010, 21717.53
255.2831, 21461.80
255.7653, 21090.50
256.2474, 20563.16
256.7295, 19959.76
257.2116, 19392.88
257.6937, 18869.46
258.1758, 18369.38
258.6580, 17889.04
259.1401, 17422.77
259.6222, 17000.49
260.1043, 16631.89
260.5864, 16301.52
261.0685, 15995.09
261.5507, 15714.47
262.0328, 15454.18
262.5149, 15209.97
262.9970, 14979.69
263.4791, 14774.74
263.9612, 14590.96
264.4434, 14434.39
264.9255, 14315.58
265.4076, 14241.48
265.8897, 14185.84
266.3718, 14139.76
266.8539, 14102.93
267.3361, 14082.13
267.8182, 14078.02
268.3003, 14089.46
268.7824, 14118.38
269.2645, 14170.29
269.7466, 14221.14
270.2288, 14257.18
270.7109, 14274.64
271.1930, 14327.68
271.6751, 14428.98
272.1572, 14548.63
272.6393, 14637.71
273.1215, 14687.74
273.6036, 14744.53
274.0857, 14828.21
274.5678, 14940.13
275.0499, 15040.98
275.5320, 15125.52
276.0142, 15210.02
276.4963, 15326.33
276.9784, 15481.75
277.4605, 15625.30
277.9426, 15727.39
278.4247, 15789.19
278.9069, 15890.24
279.3890, 16036.12
279.8711, 16208.47
280.3532, 16389.32
280.8354, 16580.61
281.3175, 16757.65
281.7996, 16899.81
282.2817, 17011.84
282.7638, 17144.34
283.2459, 17299.31
283.7281, 17469.03
284.2102, 17643.35
284.6923, 17822.23
285.1744, 18010.93
285.6565, 18212.28
286.1386, 18425.17
286.6208, 18651.25
287.1029, 18902.40
287.5850, 19123.57
288.0671, 19258.73
288.5492, 19308.20
289.0313, 19275.36
289.5135, 19144.98
289.9956, 18931.07
290.4777, 18675.73
290.9598, 18373.33
291.4419, 18057.38
291.9240, 17748.07
292.4062, 17449.93
292.8883, 17199.01
293.3704, 17014.48
293.8525, 16885.47
294.3346, 16782.04
294.8167, 16705.34
295.2989, 16651.83
295.7810, 16616.68
296.2631, 16601.86
296.7452, 16613.38
297.2273, 16662.60
297.7094, 16736.35
298.1916, 16813.07
298.6737, 16891.94
299.1558, 16978.44
299.6379, 17076.38
300.1200, 17185.13
300.6021, 17306.71
301.0843, 17465.03
301.5664, 17623.14
302.0485, 17730.83
302.5306, 17789.63
303.0127, 17821.09
303.4948, 17837.57
303.9770, 17839.78
304.4591, 17829.15
304.9412, 17804.24
305.4233, 17768.04
305.9054, 17717.35
306.3875, 17653.97
306.8697, 17595.20
307.3518, 17547.06
307.8339, 17512.76
308.3160, 17498.37
308.7981, 17527.24
309.2802, 17556.72
309.7624, 17534.03
310.2445, 17471.12
310.7266, 17445.96
311.2087, 17520.98
311.6908, 17647.96
312.1729, 17777.98
312.6551, 17889.31
313.1372, 18012.11
313.6193, 18175.72
314.1014, 18369.85
314.5835, 18545.23
315.0656, 18647.79
315.5478, 18742.22
316.0299, 18879.00
316.5120, 19082.31
316.9941, 19313.90
317.4762, 19547.31
317.9583, 19792.94
318.4405, 20088.42
318.9226, 20473.40
319.4047, 20891.60
319.8868, 21311.08
320.3689, 21728.04
320.8510, 22143.28
321.3332, 22598.95
321.8153, 23054.98
322.2974, 23417.95
322.7795, 23644.29
323.2616, 23793.46
323.7437, 23887.07
324.2259, 23906.55
324.7080, 23908.01
325.1901, 23891.46
325.6722, 23860.50
326.1543, 23822.92
326.6364, 23818.55
327.1186, 23772.25
327.6007, 23668.97
328.0828, 23533.09
328.5649, 23281.42
329.0470, 22876.65
329.5291, 22366.09
330.0113, 21820.23
330.4934, 21192.49
330.9755, 20583.62
331.4576, 20005.92
331.9397, 19449.21
332.4218, 18998.63
332.9040, 18672.81
333.3861, 18438.95
333.8682, 18256.56
334.3503, 18129.43
334.8324, 18042.97
335.3145, 17996.10
335.7967, 17989.49
336.2788, 18008.44
336.7609, 18061.61
337.2430, 18127.42
337.7251, 18177.68
338.2072, 18205.54
338.6894, 18252.06
339.1715, 18331.88
339.6536, 18439.94
340.1357, 18534.56
340.6178, 18612.58
341.0999, 18690.22
341.5821, 18792.89
342.0642, 18920.21
342.5463, 19016.87
343.0284, 19060.02
343.5105, 19072.69
343.9926, 19122.82
344.4748, 19212.05
344.9569, 19310.00
345.4390, 19383.08
345.9211, 19439.76
346.4032, 19525.86
346.8853, 19646.44
347.3675, 19802.63
347.8496, 19988.39
348.3317, 20204.63
348.8138, 20470.78
349.2959, 20814.85
349.7780, 21211.78
350.2602, 21619.45
350.7423, 22026.64
351.2244, 22454.65
351.7065, 22943.50
352.1887, 23479.82
352.6708, 24005.34
353.1529, 24496.59
353.6350, 24955.86
354.1171, 25384.95
354.5992, 25784.34
355.0814, 26178.05
355.5635, 26617.32
356.0456, 27062.31
356.5277, 27442.87
357.0098, 27751.16
357.4919, 27967.05
357.9741, 28076.18
358.4562, 28077.47
358.9383, 27992.39
359.4204, 27784.99
359.9025, 27513.15
360.3846, 27241.41
360.8668, 27035.55
361.3489, 26791.45
361.8310, 26460.59
362.3131, 26046.24
362.7952, 25606.62
363.2773, 25199.37
363.7595, 24754.64
364.2416, 24224.83
364.7237, 23494.44
365.2058, 22793.99
365.6879, 22162.78
366.1700, 21593.56
366.6522, 21066.08
367.1343, 20571.49
367.6164, 20124.65
368.0985, 19728.55
368.5806, 19398.49
369.0627, 19095.52
369.5449, 18812.94
370.0270, 18560.45
370.5091, 18347.43
370.9912, 18176.01
371.4733, 18041.42
371.9554, 17954.16
372.4376, 17937.16
372.9197, 17871.56
373.4018, 17730.26
373.8839, 17566.85
374.3660, 17454.50
374.8481, 17401.00
375.3303, 17377.24
375.8124, 17374.79
376.2945, 17393.92
376.7766, 17451.53
377.2587, 17558.64
377.7408, 17673.67
378.2230, 17763.27
378.7051, 17827.08
379.1872, 17845.85
379.6693, 17792.83
380.1514, 17702.36
380.6335, 17681.36
381.1157, 17731.64
381.5978, 17815.07
382.0799, 17908.09
382.5620, 18010.25
383.0441, 18121.32
383.5262, 18246.07
384.0084, 18372.50
384.4905, 18490.15
384.9726, 18597.92
385.4547, 18689.61
385.9368, 18763.56
386.4189, 18820.38
386.9011, 18853.72
387.3832, 18856.41
387.8653, 18867.43
388.3474, 18922.81
388.8295, 19011.22
389.3116, 19109.47
389.7938, 19208.52
390.2759, 19310.77
390.7580, 19419.72
391.2401, 19535.28
391.7222, 19652.70
392.2043, 19771.02
392.6865, 19888.91
393.1686, 20006.96
393.6507, 20117.52
394.1328, 20233.00
394.6149, 20343.54
395.0970, 20454.44
395.5792, 20609.97
396.0613, 20822.79
396.5434, 21080.51
397.0255, 21379.74
397.5076, 21709.58
397.9897, 22087.31
398.4719, 22526.85
398.9540, 23016.34
399.4361, 23521.10
399.9182, 24019.63
400.4003, 24557.37
400.8824, 25159.89
401.3646, 25862.51
401.8467, 26537.20
402.3288, 27204.94
402.8109, 27825.92
403.2930, 28355.73
403.7751, 28829.30
404.2573, 29111.24
404.7394, 29140.38
405.2215, 28922.39
405.7036, 28616.33
406.1857, 28211.34
406.6678, 27757.08
407.1500, 27314.81
407.6321, 26884.61
408.1142, 26376.95
408.5963, 25767.46
409.0784, 25080.74
409.5605, 24346.54
410.0427, 23569.35
410.5248, 22840.82
411.0069, 22226.56
411.4890, 21703.07
411.9711, 21215.25
412.4532, 20748.64
412.9354, 20324.34
413.4175, 19989.65
413.8996, 19725.92
414.3817, 19489.48
414.8638, 19252.57
415.3459, 19036.46
415.8281, 18873.23
416.3102, 18765.44
416.7923, 18673.91
417.2744, 18558.99
417.7565, 18451.18
418.2386, 18390.35
418.7208, 18445.49
419.2029, 18497.85
419.6850, 18481.29
420.1671, 18406.65
420.6492, 18356.64
421.1313, 18375.55
421.6135, 18415.59
422.0956, 18447.69
422.5777, 18455.89
423.0598, 18472.84
423.5420, 18506.53
424.0241, 18551.08
424.5062, 18592.62
424.9883, 18620.49
425.4704, 18656.54
425.9525, 18710.09
426.4347, 18785.78
426.9168, 18855.99
427.3989, 18915.96
427.8810, 18976.02
428.3631, 19048.06
428.8452, 19132.29
429.3274, 19227.58
429.8095, 19333.24
430.2916, 19448.87
430.7737, 19576.42
431.2558, 19720.84
431.7379, 19852.49
432.2201, 19933.83
432.7022, 19970.25
433.1843, 20032.90
433.6664, 20137.07
434.1485, 20258.30
434.6306, 20362.97
435.1128, 20450.87
435.5949, 20520.56
436.0770, 20550.80
436.5591, 20568.27
437.0412, 20624.62
437.5233, 20725.54
438.0055, 20831.15
438.4876, 20890.27
438.9697, 20933.97
439.4518, 21012.40
439.9339, 21190.70
440.4160, 21372.62
440.8982, 21500.71
441.3803, 21577.39
441.8624, 21626.77
442.3445, 21681.71
442.8266, 21699.19
443.3087, 21645.32
443.7909, 21477.85
444.2730, 21298.83
444.7551, 21101.00
445.2372, 20908.44
445.7193, 20766.72
446.2014, 20707.13
446.6836, 20674.06
447.1657, 20645.82
447.6478, 20613.37
448.1299, 20636.44
448.6120, 20726.29
449.0941, 20861.62
449.5763, 21025.38
450.0584, 21232.21
450.5405, 21430.14
451.0226, 21605.24
451.5047, 21766.62
451.9868, 21958.65
452.4690, 22183.70
452.9511, 22433.81
453.4332, 22694.83
453.9153, 22971.83
454.3974, 23310.09
454.8795, 23726.05
455.3617, 24173.00
455.8438, 24579.45
456.3259, 24956.14
456.8080, 25379.94
457.2901, 25906.17
457.7722, 26485.87
458.2544, 27022.37
458.7365, 27522.30
459.2186, 28033.77
459.7007, 28646.47
460.1828, 29280.37
460.6649, 29842.87
461.1471, 30339.37
461.6292, 30711.32
462.1113, 30947.55
462.5934, 31036.98
463.0755, 30956.05
463.5576, 30644.70
464.0398, 30201.17
464.5219, 29649.60
465.0040, 28961.49
465.4861, 28290.12
465.9682, 27639.78
466.4503, 27028.33
466.9325, 26466.72
467.4146, 25983.08
467.8967, 25517.09
468.3788, 25054.49
468.8609, 24600.07
469.3430, 24191.47
469.8252, 23840.38
470.3073, 23514.32
470.7894, 23185.24
471.2715, 22841.85
471.7536, 22572.72
472.2357, 22395.44
472.7179, 22269.46
473.2000, 22121.74
473.6821, 21952.82
474.1642, 21821.96
474.6463, 21772.30
475.1284, 21773.19
475.6106, 21738.63
476.0927, 21668.29
476.5748, 21592.92
477.0569, 21528.35
477.5390, 21477.48
478.0211, 21445.20
478.5033, 21432.11
478.9854, 21439.03
479.4675, 21471.47
479.9496, 21524.77
480.4317, 21587.75
480.9138, 21663.06
481.3960, 21739.66
481.8781, 21804.28
482.3602, 21851.87
482.8423, 21923.31
483.3244, 22040.91
483.8065, 22182.86
484.2887, 22330.02
484.7708, 22458.21
485.2529, 22616.12
485.7350, 22829.51
486.2171, 23080.19
486.6992, 23290.45
487.1814, 23420.52
487.6635, 23566.13
488.1456, 23777.12
488.6277, 24069.82
489.1098, 24335.21
489.5919, 24569.88
490.0741, 24787.64
490.5562, 25019.71
491.0383, 25268.90
491.5204, 25477.80
492.0026, 25648.77
492.4847, 25759.34
492.9668, 25740.83
493.4489, 25598.17
493.9310, 25398.89
494.4131, 25183.92
494.8953, 24946.95
495.3774, 24680.35
495.8595, 24377.57
496.3416, 24054.96
496.8237, 23697.21
497.3058, 23328.21
497.7880, 22980.50
498.2701, 22688.34
498.7522, 22406.50
499.2343, 22104.52
499.7164, 21787.62
500.1985, 21501.50
500.6807, 21271.56
501.1628, 21075.61
501.6449, 20898.89
502.1270, 20733.90
502.6091, 20602.71
503.0912, 20522.80
503.5734, 20469.45
504.0555, 20399.52
504.5376, 20299.84
505.0197, 20211.29
505.5018, 20143.55
505.9839, 20096.51
506.4661, 20072.63
506.9482, 20076.60
507.4303, 20087.54
507.9124, 20089.88
508.3945, 20083.95
508.8766, 20073.55
509.3588, 20056.74
509.8409, 20041.65
510.3230, 20041.73
510.8051, 20054.47
511.2872, 20069.78
511.7693, 20094.34
512.2515, 20112.43
512.7336, 20097.04
513.2157, 20050.24
513.6978, 20009.77
514.1799, 20008.22
514.6620, 20019.63
515.1442, 20018.29
515.6263, 19985.55
516.1084, 19962.16
516.5905, 19961.44
517.0726, 19978.97
517.5547, 20005.91
518.0369, 20073.16
518.5190, 20116.16
519.0011, 20105.86
519.4832, 20037.35
519.9653, 20007.16
520.4474, 20031.77
520.9296, 20073.72
521.4117, 20107.85
521.8938, 20133.26
522.3759, 20156.29
522.8580, 20180.56
523.3401, 20198.39
523.8223, 20187.76
524.3044, 20149.29
524.7865, 20120.14
525.2686, 20113.36
525.7507, 20128.25
526.2328, 20177.83
526.7150, 20260.32
527.1971, 20327.12
527.6792, 20327.33
528.1613, 20291.55
528.6434, 20260.44
529.1255, 20240.29
529.6077, 20232.40
530.0898, 20244.11
530.5719, 20267.95
531.0540, 20290.60
531.5361, 20328.94
532.0182, 20344.70
532.5004, 20305.62
532.9825, 20209.36
533.4646, 20154.33
533.9467, 20171.85
534.4288, 20212.36
534.9109, 20250.92
535.3931, 20287.35
535.8752, 20322.30
536.3573, 20358.23
536.8394, 20390.17
537.3215, 20406.89
537.8036, 20405.22
538.2858, 20409.45
538.7679, 20431.45
539.2500, 20463.93
539.7321, 20476.96
540.2142, 20470.63
540.6964, 20468.96
541.1785, 20490.23
541.6606, 20528.87
542.1427, 20577.71
542.6248, 20639.16
543.1069, 20694.50
543.5891, 20732.69
544.0712, 20753.55
544.5533, 20756.86
545.0354, 20704.96
545.5175, 20671.51
545.9996, 20705.00
546.4818, 20793.27
546.9639, 20859.80
547.4460, 20865.08
547.9281, 20863.65
548.4102, 20883.46
548.8923, 20938.57
549.3745, 20973.37
549.8566, 20985.35
550.3387, 20979.42
550.8208, 20953.11
551.3029, 20894.80
551.7850, 20868.48
552.2672, 20895.34
552.7493, 20953.48
553.2314, 20979.53
553.7135, 20973.71
554.1956, 20975.60
554.6777, 21025.36
555.1599, 21096.62
555.6420, 21120.39
556.1241, 21092.93
556.6062, 21065.00
557.0883, 21082.87
557.5704, 21124.20
558.0526, 21159.88
558.5347, 21176.35
559.0168, 21194.67
559.4989, 21230.44
559.9810, 21275.03
560.4631, 21309.72
560.9453, 21323.11
561.4274, 21332.52
561.9095, 21343.35
562.3916, 21355.95
562.8737, 21365.36
563.3558, 21366.86
563.8380, 21370.86
564.3201, 21380.38
564.8022, 21390.39
565.2843, 21434.67
565.7664, 21527.31
566.2485, 21633.32
566.7307, 21696.92
567.2128, 21720.02
567.6949, 21738.09
568.1770, 21759.96
568.6591, 21787.04
569.1412, 21824.23
569.6234, 21870.21
570.1055, 21918.77
570.5876, 21965.71
571.0697, 22012.86
571.5518, 22056.52
572.0339, 22092.57
572.5161, 22151.08
572.9982, 22271.03
573.4803, 22409.47
573.9624, 22520.35
574.4445, 22553.47
574.9266, 22609.60
575.4088, 22719.37
575.8909, 22861.24
576.3730, 22969.65
576.8551, 23020.98
577.3372, 23083.46
577.8193, 23183.63
578.3015, 23319.72
578.7836, 23455.63
579.2657, 23592.37
579.7478, 23715.59
580.2299, 23816.88
580.7120, 23895.29
581.1942, 23935.56
581.6763, 23927.64
582.1584, 23909.19
582.6405, 23939.99
583.1226, 23992.49
583.6047, 24007.79
584.0869, 23915.24
584.5690, 23816.98
585.0511, 23798.21
585.5332, 23838.80
586.0153, 23835.25
586.4974, 23704.43
586.9796, 23561.00
587.4617, 23462.95
587.9438, 23431.03
588.4259, 23385.23
588.9080, 23305.04
589.3901, 23229.73
589.8723, 23202.90
590.3544, 23242.04
590.8365, 23259.86
591.3186, 23242.12
591.8007, 23202.71
592.2828, 23164.82
592.7650, 23128.83
593.2471, 23103.29
593.7292, 23096.59
594.2113, 23101.01
594.6934, 23099.14
595.1755, 23092.43
595.6577, 23095.40
596.1398, 23134.59
596.6219, 23179.15
597.1040, 23193.54
597.5862, 23160.82
598.0683, 23140.83
598.5504, 23170.00
599.0325, 23218.68
599.5146, 23253.25
599.9968, 23259.52
600.4789, 23263.52
600.9610, 23268.53
601.4431, 23272.88
601.9252, 23264.77
602.4073, 23228.28
602.8895, 23225.29
603.3716, 23296.13
603.8537, 23428.06
604.3358, 23516.68
604.8179, 23559.23
605.3000, 23581.25
605.7822, 23592.71
606.2643, 23600.52
606.7464, 23623.42
607.2285, 23666.42
607.7106, 23713.43
608.1927, 23746.44
608.6749, 23775.15
609.1570, 23813.30
609.6391, 23884.63
610.1212, 23947.21
610.6033, 23989.72
611.0854, 24012.54
611.5676, 24015.33
612.0497, 23968.37
612.5318, 23933.54
613.0139, 23934.73
613.4960, 23975.06
613.9781, 23994.01
614.4603, 23983.84
614.9424, 23971.25
615.4245, 23981.08
615.9066, 24011.71
616.3887, 24028.29
616.8708, 24023.01
617.3530, 24019.06
617.8351, 24047.43
618.3172, 24100.32
618.7993, 24158.81
619.2814, 24211.99
619.7635, 24272.41
620.2457, 24362.00
620.7278, 24468.63
621.2099, 24556.92
621.6920, 24589.03
622.1741, 24621.56
622.6563, 24677.58
623.1384, 24759.63
623.6205, 24856.38
624.1026, 24967.38
624.5847, 25092.44
625.0668, 25239.87
625.5490, 25426.94
626.0311, 25559.97
626.5132, 25622.11
626.9953, 25664.25
627.4774, 25751.18
627.9595, 25879.64
628.4417, 26025.92
628.9238, 26193.54
629.4059, 26361.15
629.8880, 26498.83
630.3701, 26613.61
630.8522, 26727.37
631.3344, 26856.80
631.8165, 26983.00
632.2986, 27090.51
632.7807, 27180.13
633.2628, 27270.42
633.7449, 27384.92
634.2271, 27487.38
634.7092, 27555.21
635.1913, 27571.26
635.6734, 27605.78
636.1555, 27667.77
636.6376, 27736.17
637.1198, 27792.15
637.6019, 27835.35
638.0840, 27861.29
638.5661, 27872.94
639.0482, 27859.47
639.5303, 27786.54
640.0125, 27666.79
640.4946, 27556.55
640.9767, 27507.70
641.4588, 27461.31
641.9409, 27346.00
642.4230, 27176.01
642.9052, 27024.50
643.3873, 26948.93
643.8694, 26880.10
644.3515, 26774.04
644.8336, 26616.76
645.3157, 26477.08
645.7979, 26357.15
646.2800, 26256.78
646.7621, 26181.38
647.2442, 26139.72
647.7263, 26084.36
