##NAMES=Epidote
##RRUFFID=R040089
##IDEAL CHEMISTRY=Ca_2_Fe^3+^Al_2_(Si_2_O_7_)(SiO_4_)O(OH)
##LOCALITY=Grafton County, New Hampshire, USA
##OWNER=RRUFF
##SOURCE=University of Arizona Mineral Museum
##DESCRIPTION=Dark green coarsely crystalline massive
##STATUS=The identification of this mineral has been confirmed by X-ray diffraction and chemical analysis
##URL=rruff.info/R040089
##MEASURED CHEMISTRY=Ca_2.00_(Al_2.36_Fe^3+^_0.64_)[Si_2.00_O_7_][Si_1.00_O_4_]O(OH)
133.0227, 4200.272
133.5048, 4145.979
133.9869, 4101.352
134.4691, 4071.759
134.9512, 4056.098
135.4333, 4052.946
135.9154, 4062.327
136.3975, 4083.768
136.8796, 4105.724
137.3618, 4133.143
137.8439, 4156.778
138.3260, 4166.644
138.8081, 4165.108
139.2902, 4169.676
139.7723, 4200.134
140.2545, 4255.802
140.7366, 4292.369
141.2187, 4298.977
141.7008, 4289.183
142.1829, 4273.775
142.6650, 4251.708
143.1472, 4234.085
143.6293, 4235.287
144.1114, 4251.601
144.5935, 4269.774
145.0756, 4288.798
145.5577, 4306.246
146.0399, 4311.216
146.5220, 4287.301
147.0041, 4268.715
147.4862, 4285.652
147.9683, 4336.577
148.4504, 4391.780
148.9326, 4427.327
149.4147, 4442.274
149.8968, 4450.169
150.3789, 4450.306
150.8610, 4445.458
151.3431, 4435.803
151.8252, 4421.506
152.3074, 4404.209
152.7895, 4386.559
153.2716, 4369.173
153.7537, 4349.775
154.2358, 4330.906
154.7179, 4308.942
155.2001, 4282.385
155.6822, 4250.522
156.1643, 4211.027
156.6464, 4156.230
157.1285, 4054.418
157.6106, 3972.797
158.0928, 3930.428
158.5749, 3909.697
159.0570, 3885.238
159.5391, 3841.094
160.0212, 3780.231
160.5033, 3738.546
160.9855, 3730.530
161.4676, 3723.772
161.9497, 3710.596
162.4318, 3690.736
162.9139, 3665.073
163.3960, 3632.752
163.8782, 3593.613
164.3603, 3563.123
164.8424, 3545.269
165.3245, 3531.744
165.8066, 3516.175
166.2887, 3498.321
166.7709, 3484.640
167.2530, 3483.179
167.7351, 3493.823
168.2172, 3501.323
168.6993, 3503.764
169.1814, 3502.381
169.6636, 3496.292
170.1457, 3483.428
170.6278, 3473.533
171.1099, 3483.378
171.5920, 3508.766
172.0741, 3525.216
172.5563, 3517.813
173.0384, 3493.723
173.5205, 3474.198
174.0026, 3465.685
174.4847, 3457.731
174.9668, 3440.166
175.4490, 3413.692
175.9311, 3387.236
176.4132, 3370.633
176.8953, 3363.234
177.3774, 3344.997
177.8595, 3303.814
178.3417, 3256.726
178.8238, 3213.634
179.3059, 3175.557
179.7880, 3140.081
180.2701, 3102.860
180.7522, 3060.824
181.2344, 3029.707
181.7165, 3019.316
182.1986, 3015.410
182.6807, 3010.196
183.1628, 3001.487
183.6449, 2991.468
184.1271, 2984.746
184.6092, 2986.658
185.0913, 2980.700
185.5734, 2952.962
186.0555, 2924.160
186.5376, 2914.967
187.0198, 2933.646
187.5019, 2968.157
187.9840, 2986.521
188.4661, 2959.739
188.9482, 2953.613
189.4303, 2991.602
189.9125, 3046.792
190.3946, 3086.522
190.8767, 3093.959
191.3588, 3076.414
191.8409, 3068.439
192.3230, 3080.060
192.8052, 3090.122
193.2873, 3096.062
193.7694, 3097.873
194.2515, 3095.465
194.7336, 3088.309
195.2157, 3077.074
195.6979, 3068.142
196.1800, 3065.479
196.6621, 3060.593
197.1442, 3043.899
197.6263, 3020.843
198.1084, 3007.827
198.5906, 3016.838
199.0727, 3047.430
199.5548, 3079.581
200.0369, 3122.740
200.5190, 3159.313
201.0011, 3170.229
201.4833, 3158.719
201.9654, 3156.447
202.4475, 3191.745
202.9296, 3260.948
203.4117, 3315.893
203.8938, 3347.709
204.3760, 3369.540
204.8581, 3392.728
205.3402, 3418.217
205.8223, 3440.677
206.3044, 3454.073
206.7865, 3460.544
207.2687, 3467.434
207.7508, 3478.610
208.2329, 3489.943
208.7150, 3496.506
209.1971, 3498.265
209.6792, 3494.298
210.1614, 3480.950
210.6435, 3461.109
211.1256, 3440.509
211.6077, 3423.653
212.0898, 3407.180
212.5719, 3381.791
213.0541, 3341.678
213.5362, 3303.696
214.0183, 3280.772
214.5004, 3268.826
214.9825, 3258.360
215.4646, 3244.263
215.9468, 3227.582
216.4289, 3212.406
216.9110, 3196.434
217.3931, 3186.052
217.8752, 3184.896
218.3573, 3191.363
218.8395, 3200.796
219.3216, 3212.301
219.8037, 3225.373
220.2858, 3233.010
220.7679, 3228.173
221.2500, 3225.395
221.7322, 3224.799
222.2143, 3230.209
222.6964, 3251.515
223.1785, 3306.943
223.6606, 3399.157
224.1427, 3464.902
224.6249, 3468.167
225.1070, 3475.209
225.5891, 3512.462
226.0712, 3577.345
226.5533, 3652.774
227.0354, 3726.189
227.5176, 3798.435
227.9997, 3860.333
228.4818, 3881.802
228.9639, 3917.994
229.4460, 4003.332
229.9281, 4129.502
230.4103, 4258.577
230.8924, 4347.146
231.3745, 4381.810
231.8566, 4438.092
232.3387, 4542.704
232.8208, 4645.208
233.3030, 4717.148
233.7851, 4761.089
234.2672, 4801.097
234.7493, 4866.497
235.2314, 4971.064
235.7135, 5050.162
236.1957, 5099.058
236.6778, 5131.814
237.1599, 5149.898
237.6420, 5156.593
238.1241, 5159.077
238.6062, 5164.850
239.0884, 5172.994
239.5705, 5188.536
240.0526, 5214.643
240.5347, 5244.023
241.0168, 5270.326
241.4989, 5294.054
241.9811, 5321.856
242.4632, 5362.493
242.9453, 5422.203
243.4274, 5476.155
243.9095, 5510.259
244.3916, 5549.417
244.8738, 5618.797
245.3559, 5717.051
245.8380, 5814.261
246.3201, 5872.544
246.8022, 5869.506
247.2843, 5900.522
247.7665, 6003.425
248.2486, 6110.809
248.7307, 6172.443
249.2128, 6183.345
249.6949, 6173.701
250.1770, 6179.179
250.6592, 6211.621
251.1413, 6212.295
251.6234, 6176.411
252.1055, 6114.373
252.5876, 6026.732
253.0697, 5916.574
253.5519, 5796.402
254.0340, 5680.079
254.5161, 5568.254
254.9982, 5461.049
255.4803, 5357.600
255.9624, 5259.669
256.4445, 5168.186
256.9267, 5083.603
257.4088, 5006.200
257.8909, 4935.780
258.3730, 4873.161
258.8551, 4821.692
259.3372, 4781.686
259.8194, 4752.750
260.3015, 4737.037
260.7836, 4734.183
261.2657, 4736.740
261.7478, 4734.799
262.2299, 4726.618
262.7121, 4742.169
263.1942, 4794.675
263.6763, 4862.543
264.1584, 4930.621
264.6405, 4997.014
265.1227, 5063.182
265.6048, 5127.409
266.0869, 5190.286
266.5690, 5268.731
267.0511, 5369.237
267.5332, 5481.725
268.0154, 5596.790
268.4975, 5713.995
268.9796, 5840.958
269.4617, 5987.453
269.9438, 6154.424
270.4259, 6309.404
270.9081, 6426.345
271.3902, 6548.661
271.8723, 6712.930
272.3544, 6920.831
272.8365, 7146.175
273.3186, 7378.557
273.8008, 7614.646
274.2829, 7829.478
274.7650, 8032.739
275.2471, 8207.298
275.7292, 8345.911
276.2113, 8446.790
276.6935, 8501.064
277.1756, 8500.729
277.6577, 8440.647
278.1398, 8343.831
278.6219, 8201.092
279.1040, 8028.660
279.5862, 7830.730
280.0683, 7609.189
280.5504, 7376.347
281.0325, 7131.513
281.5146, 6884.315
281.9967, 6667.018
282.4789, 6492.636
282.9610, 6334.234
283.4431, 6176.292
283.9252, 6019.891
284.4073, 5872.641
284.8894, 5735.280
285.3716, 5612.629
285.8537, 5511.387
286.3358, 5438.176
286.8179, 5377.004
287.3000, 5325.111
287.7821, 5279.760
288.2643, 5230.050
288.7464, 5167.854
289.2285, 5100.228
289.7106, 5044.768
290.1927, 5006.499
290.6748, 4970.196
291.1570, 4924.677
291.6391, 4874.672
292.1212, 4836.619
292.6033, 4820.317
293.0854, 4814.860
293.5675, 4796.217
294.0497, 4757.220
294.5318, 4725.571
295.0139, 4721.483
295.4960, 4732.776
295.9781, 4727.838
296.4602, 4690.972
296.9424, 4645.488
297.4245, 4636.408
297.9066, 4669.154
298.3887, 4699.089
298.8708, 4703.517
299.3529, 4697.625
299.8351, 4710.759
300.3172, 4753.558
300.7993, 4806.250
301.2814, 4841.958
301.7635, 4860.689
302.2456, 4873.184
302.7278, 4871.710
303.2099, 4868.729
303.6920, 4886.271
304.1741, 4930.692
304.6562, 4976.398
305.1383, 4991.056
305.6205, 4972.656
306.1026, 4961.601
306.5847, 4972.765
307.0668, 4988.577
307.5489, 4987.697
308.0310, 4967.512
308.5132, 4947.589
308.9953, 4949.211
309.4774, 4973.226
309.9595, 4982.073
310.4416, 4961.703
310.9237, 4934.612
311.4059, 4918.087
311.8880, 4912.737
312.3701, 4910.926
312.8522, 4909.365
313.3343, 4906.744
313.8164, 4892.739
314.2986, 4852.779
314.7807, 4814.934
315.2628, 4792.035
315.7449, 4784.581
316.2270, 4793.708
316.7091, 4825.000
317.1913, 4872.228
317.6734, 4899.027
318.1555, 4893.467
318.6376, 4883.978
319.1197, 4881.356
319.6018, 4882.915
320.0840, 4881.686
320.5661, 4873.947
321.0482, 4861.820
321.5303, 4852.525
322.0124, 4850.370
322.4945, 4844.848
322.9767, 4831.626
323.4588, 4814.226
323.9409, 4795.524
324.4230, 4775.929
324.9051, 4760.792
325.3872, 4761.479
325.8694, 4785.933
326.3515, 4812.572
326.8336, 4843.986
327.3157, 4874.819
327.7978, 4894.041
328.2799, 4899.901
328.7621, 4910.058
329.2442, 4949.940
329.7263, 5032.315
330.2084, 5116.404
330.6905, 5202.163
331.1726, 5289.319
331.6548, 5381.146
332.1369, 5476.212
332.6190, 5567.063
333.1011, 5645.713
333.5832, 5710.139
334.0653, 5772.396
334.5475, 5837.889
335.0296, 5896.860
335.5117, 5945.150
335.9938, 5982.678
336.4759, 6012.471
336.9580, 6038.009
337.4402, 6059.031
337.9223, 6055.678
338.4044, 6008.839
338.8865, 5959.435
339.3686, 5925.374
339.8507, 5894.866
340.3329, 5845.802
340.8150, 5764.241
341.2971, 5657.668
341.7792, 5557.060
342.2613, 5453.094
342.7434, 5369.042
343.2256, 5312.238
343.7077, 5274.186
344.1898, 5249.125
344.6719, 5234.508
345.1540, 5224.419
345.6361, 5204.397
346.1183, 5157.675
346.6004, 5135.111
347.0825, 5144.490
347.5646, 5171.514
348.0467, 5212.867
348.5288, 5264.761
349.0110, 5315.262
349.4931, 5347.557
349.9752, 5356.958
350.4573, 5367.157
350.9394, 5383.593
351.4215, 5396.841
351.9037, 5410.576
352.3858, 5419.425
352.8679, 5407.040
353.3500, 5352.968
353.8321, 5258.791
354.3142, 5173.459
354.7964, 5106.771
355.2785, 5037.775
355.7606, 4954.646
356.2427, 4863.322
356.7248, 4775.892
357.2069, 4702.191
357.6891, 4635.637
358.1712, 4554.952
358.6533, 4448.786
359.1354, 4353.486
359.6175, 4282.220
360.0996, 4229.386
360.5818, 4192.889
361.0639, 4175.999
361.5460, 4165.261
362.0281, 4139.849
362.5102, 4097.076
362.9923, 4062.999
363.4745, 4048.986
363.9566, 4046.172
364.4387, 4046.289
364.9208, 4048.461
365.4029, 4054.413
365.8850, 4068.093
366.3672, 4087.725
366.8493, 4103.651
367.3314, 4112.782
367.8135, 4118.992
368.2956, 4129.237
368.7777, 4142.968
369.2599, 4147.450
369.7420, 4129.872
370.2241, 4101.834
370.7062, 4087.162
371.1883, 4091.739
371.6704, 4090.224
372.1526, 4056.548
372.6347, 3995.782
373.1168, 3938.137
373.5989, 3888.042
374.0810, 3841.650
374.5631, 3800.189
375.0453, 3761.768
375.5274, 3712.384
376.0095, 3638.505
376.4916, 3548.681
376.9737, 3479.334
377.4558, 3445.646
377.9380, 3412.035
378.4201, 3364.990
378.9022, 3308.980
379.3843, 3249.594
379.8664, 3187.519
380.3485, 3130.921
380.8307, 3099.150
381.3128, 3109.009
381.7949, 3112.620
382.2770, 3098.728
382.7591, 3081.842
383.2412, 3077.340
383.7234, 3087.416
384.2055, 3101.533
384.6876, 3106.218
385.1697, 3095.904
385.6518, 3101.068
386.1339, 3125.310
386.6161, 3158.640
387.0982, 3200.996
387.5803, 3248.821
388.0624, 3293.557
388.5445, 3327.940
389.0266, 3354.016
389.5088, 3393.302
389.9909, 3466.803
390.4730, 3529.681
390.9551, 3570.078
391.4372, 3596.886
391.9193, 3621.531
392.4015, 3648.979
392.8836, 3675.977
393.3657, 3697.442
393.8478, 3716.617
394.3299, 3720.960
394.8120, 3700.543
395.2942, 3671.606
395.7763, 3647.875
396.2584, 3630.086
396.7405, 3603.791
397.2226, 3550.077
397.7047, 3468.941
398.1869, 3392.939
398.6690, 3331.044
399.1511, 3265.885
399.6332, 3182.568
400.1153, 3087.970
400.5974, 3001.462
401.0796, 2935.706
401.5617, 2884.277
402.0438, 2831.910
402.5259, 2776.883
403.0080, 2727.648
403.4901, 2687.279
403.9723, 2656.399
404.4544, 2638.634
404.9365, 2640.829
405.4186, 2645.952
405.9007, 2636.497
406.3828, 2615.979
406.8650, 2604.568
407.3471, 2611.833
407.8292, 2628.412
408.3113, 2636.440
408.7934, 2631.479
409.2755, 2639.088
409.7577, 2668.310
410.2398, 2714.162
410.7219, 2773.510
411.2040, 2845.614
411.6861, 2920.085
412.1682, 2985.369
412.6504, 3039.358
413.1325, 3103.608
413.6146, 3176.554
414.0967, 3260.658
414.5788, 3358.918
415.0609, 3469.962
415.5431, 3591.374
416.0252, 3722.884
416.5073, 3861.812
416.9894, 3997.798
417.4715, 4106.629
417.9536, 4243.693
418.4358, 4429.063
418.9179, 4638.457
419.4000, 4845.196
419.8821, 5041.662
420.3642, 5242.480
420.8463, 5470.458
421.3285, 5729.654
421.8106, 6003.543
422.2927, 6297.959
422.7748, 6599.932
423.2569, 6903.427
423.7390, 7208.588
424.2212, 7521.969
424.7033, 7857.612
425.1854, 8205.370
425.6675, 8513.065
426.1496, 8781.118
426.6317, 9000.102
427.1139, 9172.079
427.5960, 9298.256
428.0781, 9380.585
428.5602, 9420.134
429.0423, 9412.040
429.5244, 9343.260
430.0066, 9213.103
430.4887, 9052.610
430.9708, 8847.731
431.4529, 8636.539
431.9350, 8467.665
432.4171, 8343.409
432.8993, 8212.206
433.3814, 8034.709
433.8635, 7837.845
434.3456, 7664.634
434.8277, 7520.160
435.3098, 7407.230
435.7920, 7331.885
436.2741, 7294.593
436.7562, 7272.912
437.2383, 7254.863
437.7204, 7262.517
438.2025, 7309.360
438.6847, 7392.683
439.1668, 7507.653
439.6489, 7654.940
440.1310, 7823.859
440.6131, 7985.086
441.0952, 8115.891
441.5774, 8273.124
442.0595, 8458.335
442.5416, 8672.617
443.0237, 8923.024
443.5058, 9207.520
443.9879, 9507.543
444.4701, 9804.582
444.9522, 10097.68
445.4343, 10386.42
445.9164, 10648.11
446.3985, 10927.81
446.8806, 11250.51
447.3628, 11598.85
447.8449, 11937.75
448.3270, 12246.84
448.8091, 12542.49
449.2912, 12873.76
449.7733, 13255.36
450.2555, 13628.96
450.7376, 13988.08
451.2197, 14327.59
451.7018, 14650.48
452.1839, 14954.64
452.6660, 15221.31
453.1482, 15424.70
453.6303, 15574.87
454.1124, 15719.04
454.5945, 15871.82
455.0766, 16001.61
455.5587, 16072.71
456.0409, 16098.78
456.5230, 16110.35
457.0051, 16120.39
457.4872, 16114.32
457.9693, 16080.66
458.4514, 16019.70
458.9336, 15932.36
459.4156, 15815.54
459.8978, 15677.37
460.3799, 15538.84
460.8620, 15402.63
461.3441, 15261.55
461.8262, 15114.02
462.3083, 14960.95
462.7905, 14804.03
463.2726, 14643.22
463.7547, 14479.88
464.2368, 14317.56
464.7189, 14160.82
465.2010, 13965.83
465.6832, 13693.20
466.1653, 13428.36
466.6474, 13202.30
467.1295, 13002.69
467.6116, 12807.29
468.0938, 12608.55
468.5759, 12397.72
469.0580, 12156.26
469.5401, 11877.14
470.0222, 11584.99
470.5043, 11274.70
470.9865, 10960.69
471.4686, 10648.06
471.9507, 10339.34
472.4328, 10035.32
472.9149, 9734.274
473.3970, 9439.286
473.8792, 9163.154
474.3613, 8909.746
474.8434, 8665.694
475.3255, 8419.763
475.8076, 8177.131
476.2897, 7946.854
476.7719, 7735.118
477.2540, 7529.990
477.7361, 7320.974
478.2182, 7111.684
478.7003, 6915.045
479.1824, 6738.491
479.6646, 6568.450
480.1467, 6383.761
480.6288, 6174.332
481.1109, 5980.991
481.5930, 5806.428
482.0751, 5648.993
482.5573, 5509.958
483.0394, 5386.909
483.5215, 5274.178
484.0036, 5168.117
484.4857, 5068.113
484.9678, 4970.375
485.4500, 4878.928
485.9321, 4784.322
486.4142, 4678.122
486.8963, 4572.582
487.3784, 4479.642
487.8605, 4402.520
488.3427, 4334.572
488.8248, 4271.493
489.3069, 4213.837
489.7890, 4146.808
490.2711, 4062.672
490.7532, 3978.123
491.2354, 3898.969
491.7175, 3826.104
492.1996, 3760.415
492.6817, 3704.299
493.1638, 3653.975
493.6459, 3603.981
494.1281, 3554.612
494.6102, 3511.267
495.0923, 3476.258
495.5744, 3448.013
496.0565, 3423.905
496.5386, 3402.993
497.0208, 3387.610
497.5029, 3379.006
497.9850, 3375.700
498.4671, 3375.234
498.9492, 3377.901
499.4313, 3387.422
499.9135, 3407.235
500.3956, 3436.688
500.8777, 3468.470
501.3598, 3507.202
501.8419, 3542.510
502.3240, 3569.150
502.8062, 3593.010
503.2883, 3616.322
503.7704, 3641.117
504.2525, 3677.977
504.7346, 3751.405
505.2167, 3871.011
505.6989, 3954.478
506.1810, 3978.736
506.6631, 3988.866
507.1452, 4006.354
507.6273, 4026.921
508.1094, 4040.169
508.5916, 4042.181
509.0737, 4034.247
509.5558, 4019.720
510.0379, 3998.394
510.5200, 3961.173
511.0021, 3900.622
511.4843, 3827.530
511.9664, 3760.254
512.4485, 3701.666
512.9306, 3629.875
513.4127, 3528.737
513.8948, 3419.015
514.3770, 3323.416
514.8591, 3241.340
515.3412, 3156.093
515.8233, 3055.469
516.3054, 2941.772
516.7875, 2832.596
517.2697, 2726.730
517.7518, 2626.598
518.2339, 2533.436
518.7160, 2445.134
519.1981, 2359.667
519.6802, 2276.265
520.1624, 2196.004
520.6445, 2118.309
521.1266, 2042.954
521.6087, 1980.238
522.0908, 1939.963
522.5729, 1898.511
523.0551, 1840.179
523.5372, 1775.491
524.0193, 1721.458
524.5014, 1684.217
524.9835, 1656.077
525.4656, 1631.944
525.9478, 1611.137
526.4299, 1588.429
526.9120, 1560.826
527.3941, 1535.572
527.8762, 1524.094
528.3583, 1527.189
528.8405, 1522.991
529.3226, 1505.552
529.8047, 1483.671
530.2868, 1460.871
530.7689, 1438.298
531.2510, 1417.311
531.7332, 1398.489
532.2153, 1382.355
532.6974, 1370.465
533.1795, 1365.628
533.6616, 1360.063
534.1437, 1347.834
534.6259, 1339.673
535.1080, 1346.672
535.5901, 1364.978
536.0722, 1379.555
536.5543, 1378.716
537.0364, 1366.829
537.5186, 1354.855
538.0007, 1339.673
538.4828, 1336.528
538.9649, 1361.514
539.4470, 1395.492
539.9291, 1416.550
540.4113, 1422.219
540.8934, 1422.724
541.3755, 1420.389
541.8576, 1417.027
542.3397, 1412.965
542.8218, 1408.627
543.3040, 1413.057
543.7861, 1435.789
544.2682, 1473.526
544.7503, 1497.777
545.2324, 1496.841
545.7145, 1499.001
546.1967, 1511.037
546.6788, 1528.098
547.1609, 1544.406
547.6430, 1558.884
548.1251, 1575.200
548.6072, 1597.233
549.0894, 1625.110
549.5715, 1657.072
550.0536, 1696.566
550.5357, 1735.486
551.0178, 1770.547
551.4999, 1803.493
551.9821, 1836.109
552.4642, 1867.829
552.9463, 1903.187
553.4284, 1944.884
553.9105, 1993.544
554.3926, 2051.722
554.8748, 2120.780
555.3569, 2195.861
555.8390, 2270.034
556.3211, 2344.852
556.8032, 2436.369
557.2853, 2553.741
557.7675, 2679.053
558.2496, 2805.004
558.7317, 2932.672
559.2138, 3060.094
559.6959, 3186.526
560.1780, 3322.385
560.6602, 3485.622
561.1423, 3685.539
561.6244, 3873.589
562.1065, 4018.924
562.5886, 4181.680
563.0707, 4380.375
563.5529, 4612.277
564.0350, 4875.317
564.5171, 5172.840
564.9992, 5485.822
565.4813, 5786.742
565.9634, 6077.066
566.4456, 6384.683
566.9277, 6730.563
567.4098, 7072.689
567.8919, 7381.260
568.3740, 7655.700
568.8561, 7854.191
569.3383, 7976.791
569.8204, 8016.714
570.3025, 7971.259
570.7846, 7840.145
571.2667, 7615.732
571.7488, 7295.160
572.2310, 6901.892
572.7131, 6476.872
573.1952, 5993.635
573.6773, 5545.823
574.1594, 5140.315
574.6415, 4761.348
575.1237, 4398.815
575.6058, 4058.652
576.0879, 3751.116
576.5700, 3479.931
577.0521, 3247.344
577.5342, 3061.149
578.0164, 2921.921
578.4985, 2800.663
578.9806, 2692.458
579.4627, 2598.895
579.9448, 2521.970
580.4269, 2460.492
580.9091, 2414.374
581.3912, 2388.899
581.8733, 2373.715
582.3554, 2362.993
582.8375, 2356.605
583.3196, 2355.189
583.8018, 2359.079
584.2839, 2367.081
584.7660, 2377.145
585.2481, 2388.851
585.7302, 2403.869
586.2123, 2415.314
586.6945, 2436.795
587.1766, 2477.965
587.6587, 2533.067
588.1408, 2590.556
588.6229, 2644.976
589.1050, 2700.165
589.5872, 2761.095
590.0693, 2828.075
590.5514, 2900.143
591.0335, 2979.181
591.5156, 3060.021
591.9977, 3138.136
592.4799, 3213.772
592.9620, 3287.445
593.4441, 3361.557
593.9262, 3431.121
594.4083, 3488.051
594.8904, 3539.046
595.3726, 3594.408
595.8547, 3657.890
596.3368, 3731.327
596.8189, 3817.604
597.3010, 3918.278
597.7831, 4023.482
598.2653, 4134.847
598.7474, 4248.899
599.2295, 4367.626
599.7116, 4486.796
600.1937, 4602.949
600.6758, 4715.301
601.1580, 4817.026
601.6401, 4900.108
602.1222, 4965.875
602.6043, 5020.916
603.0864, 5066.592
603.5685, 5101.069
604.0507, 5127.262
604.5328, 5141.347
605.0149, 5123.282
605.4970, 5054.953
605.9791, 4976.185
606.4612, 4906.313
606.9434, 4831.643
607.4255, 4730.040
607.9076, 4598.994
608.3897, 4457.387
608.8718, 4325.673
609.3539, 4203.563
609.8361, 4076.723
610.3182, 3933.104
610.8003, 3804.454
611.2824, 3714.090
611.7645, 3636.257
612.2466, 3539.548
612.7288, 3417.164
613.2109, 3299.836
613.6930, 3211.991
614.1751, 3142.033
614.6572, 3069.194
615.1393, 2991.478
615.6215, 2912.586
616.1036, 2833.454
616.5857, 2754.962
617.0678, 2678.510
617.5499, 2607.214
618.0320, 2534.040
618.5142, 2454.639
618.9963, 2376.280
619.4784, 2307.179
619.9605, 2244.863
620.4426, 2178.260
620.9247, 2097.503
621.4069, 2010.974
621.8890, 1943.494
622.3711, 1898.969
622.8532, 1849.956
623.3353, 1783.274
623.8174, 1715.399
624.2996, 1663.079
624.7817, 1625.429
625.2638, 1590.213
625.7459, 1553.212
626.2280, 1518.296
626.7101, 1488.363
627.1923, 1463.041
627.6744, 1441.745
