##NAMES=Epididymite
##RRUFFID=R060773
##IDEAL CHEMISTRY=Na_2_Be_2_Si_6_O_15_&#183;H_2_O
##LOCALITY=unknown
##OWNER=RRUFF
##SOURCE=Michael Scott
##DESCRIPTION=Colorless platy crystals forming a pseudohexagonal aggregate
##STATUS=The identification of this mineral has been confirmed by single-crystal X-ray diffraction.
##URL=rruff.info/R060773
136.4686, 4260.476
136.9508, 4234.363
137.4329, 4224.564
137.9150, 4232.580
138.3971, 4246.196
138.8792, 4265.728
139.3613, 4289.830
139.8434, 4310.763
140.3256, 4325.804
140.8077, 4343.575
141.2898, 4376.326
141.7719, 4436.288
142.2540, 4475.669
142.7361, 4475.259
143.2183, 4432.217
143.7004, 4425.891
144.1825, 4476.744
144.6646, 4546.676
145.1467, 4587.998
145.6288, 4580.175
146.1110, 4574.120
146.5931, 4583.810
147.0752, 4616.034
147.5573, 4642.515
148.0394, 4662.720
148.5215, 4677.021
149.0037, 4686.259
149.4858, 4685.860
149.9679, 4684.423
150.4500, 4685.188
150.9321, 4694.932
151.4142, 4697.049
151.8964, 4693.087
152.3785, 4682.095
152.8606, 4660.799
153.3427, 4603.188
153.8248, 4553.601
154.3069, 4533.312
154.7890, 4589.041
155.2712, 4626.036
155.7533, 4621.087
156.2354, 4580.126
156.7175, 4548.435
157.1996, 4529.475
157.6817, 4525.396
158.1639, 4537.602
158.6460, 4590.609
159.1281, 4637.141
159.6102, 4656.948
160.0923, 4648.809
160.5744, 4646.274
161.0566, 4659.137
161.5387, 4683.632
162.0208, 4715.672
162.5029, 4770.882
162.9850, 4819.843
163.4671, 4844.987
163.9493, 4841.485
164.4314, 4834.015
164.9135, 4828.261
165.3956, 4826.879
165.8777, 4834.161
166.3598, 4867.655
166.8420, 4901.262
167.3241, 4913.971
167.8062, 4897.980
168.2883, 4877.272
168.7704, 4869.973
169.2525, 4870.570
169.7346, 4865.104
170.2168, 4830.480
170.6989, 4792.773
171.1810, 4781.605
171.6631, 4813.796
172.1452, 4854.259
172.6273, 4872.827
173.1095, 4873.049
173.5916, 4871.130
174.0737, 4876.812
174.5558, 4887.133
175.0379, 4897.434
175.5201, 4905.698
176.0022, 4914.279
176.4843, 4927.714
176.9664, 4945.309
177.4485, 4960.547
177.9306, 4962.618
178.4128, 4958.252
178.8949, 4962.785
179.3770, 4988.330
179.8591, 5022.309
180.3412, 5041.702
180.8233, 5046.146
181.3055, 5050.667
181.7876, 5074.022
182.2697, 5110.778
182.7518, 5142.740
183.2339, 5155.350
183.7160, 5158.032
184.1981, 5176.705
184.6803, 5213.665
185.1624, 5252.813
185.6445, 5277.784
186.1266, 5288.886
186.6087, 5289.996
187.0908, 5270.202
187.5730, 5238.845
188.0551, 5237.753
188.5372, 5273.689
189.0193, 5325.109
189.5014, 5360.793
189.9835, 5381.563
190.4657, 5402.172
190.9478, 5432.533
191.4299, 5471.211
191.9120, 5505.856
192.3941, 5536.900
192.8762, 5561.440
193.3584, 5568.797
193.8405, 5557.759
194.3226, 5550.311
194.8047, 5563.343
195.2868, 5596.171
195.7689, 5627.030
196.2511, 5656.740
196.7332, 5680.970
197.2153, 5684.582
197.6974, 5664.931
198.1795, 5641.280
198.6616, 5627.272
199.1437, 5623.319
199.6259, 5621.005
200.1080, 5619.560
200.5901, 5618.717
201.0722, 5618.369
201.5543, 5619.440
202.0364, 5617.577
202.5186, 5606.867
203.0007, 5585.353
203.4828, 5568.543
203.9649, 5560.862
204.4470, 5560.337
204.9291, 5555.127
205.4113, 5544.730
205.8934, 5530.238
206.3755, 5508.303
206.8576, 5473.831
207.3397, 5456.162
207.8218, 5470.066
208.3040, 5512.940
208.7861, 5524.267
209.2682, 5491.565
209.7503, 5448.909
210.2324, 5438.763
210.7145, 5474.354
211.1967, 5498.240
211.6788, 5489.791
212.1609, 5446.952
212.6430, 5429.219
213.1251, 5446.029
213.6072, 5476.351
214.0894, 5494.590
214.5715, 5497.996
215.0536, 5496.009
215.5357, 5487.192
216.0178, 5468.294
216.4999, 5470.132
216.9820, 5502.173
217.4642, 5545.438
217.9463, 5571.345
218.4284, 5572.335
218.9105, 5571.449
219.3926, 5576.147
219.8747, 5587.808
220.3569, 5597.548
220.8390, 5603.227
221.3211, 5608.541
221.8032, 5620.859
222.2853, 5643.692
222.7674, 5667.047
223.2496, 5687.692
223.7317, 5706.277
224.2138, 5720.322
224.6959, 5725.153
225.1780, 5728.169
225.6601, 5744.923
226.1423, 5778.865
226.6244, 5820.609
227.1065, 5868.764
227.5886, 5932.484
228.0707, 5977.348
228.5528, 5990.845
229.0350, 5989.747
229.5171, 6017.191
229.9992, 6092.504
230.4813, 6166.949
230.9634, 6217.028
231.4455, 6224.181
231.9276, 6250.331
232.4098, 6302.536
232.8919, 6372.923
233.3740, 6435.384
233.8561, 6482.760
234.3382, 6533.210
234.8203, 6597.142
235.3025, 6684.077
235.7846, 6763.727
236.2667, 6835.539
236.7488, 6900.057
237.2309, 6957.141
237.7130, 7007.840
238.1952, 7049.028
238.6773, 7077.646
239.1594, 7086.125
239.6415, 7098.985
240.1236, 7122.852
240.6057, 7151.981
241.0879, 7164.417
241.5700, 7156.327
242.0521, 7136.662
242.5342, 7109.293
243.0163, 7071.741
243.4984, 7030.880
243.9806, 6983.566
244.4627, 6932.723
244.9448, 6892.556
245.4269, 6874.096
245.9090, 6851.143
246.3911, 6804.538
246.8732, 6709.425
247.3554, 6644.160
247.8375, 6622.595
248.3196, 6635.351
248.8017, 6639.276
249.2838, 6629.005
249.7659, 6617.271
250.2481, 6612.770
250.7302, 6623.537
251.2123, 6623.932
251.6944, 6610.149
252.1765, 6584.964
252.6586, 6558.313
253.1408, 6525.196
253.6229, 6498.430
254.1050, 6486.373
254.5871, 6494.487
255.0692, 6504.839
255.5513, 6516.012
256.0334, 6528.457
256.5156, 6545.466
256.9977, 6571.096
257.4798, 6595.138
257.9619, 6610.871
258.4440, 6615.548
258.9261, 6618.148
259.4083, 6615.980
259.8904, 6611.861
260.3725, 6621.420
260.8546, 6651.815
261.3367, 6683.557
261.8188, 6705.024
262.3010, 6715.689
262.7831, 6717.080
263.2652, 6706.960
263.7473, 6687.777
264.2294, 6666.951
264.7115, 6639.167
265.1937, 6620.324
265.6758, 6627.955
266.1579, 6676.498
266.6400, 6695.572
267.1221, 6669.987
267.6042, 6612.280
268.0864, 6573.045
268.5685, 6560.703
269.0506, 6547.006
269.5327, 6509.796
270.0148, 6441.104
270.4969, 6388.334
270.9791, 6362.453
271.4612, 6352.477
271.9433, 6317.874
272.4254, 6248.760
272.9075, 6184.881
273.3896, 6154.629
273.8718, 6163.243
274.3539, 6172.397
274.8360, 6181.136
275.3181, 6186.811
275.8002, 6180.527
276.2823, 6159.943
276.7645, 6136.266
277.2466, 6112.943
277.7287, 6088.944
278.2108, 6078.396
278.6929, 6086.261
279.1750, 6104.027
279.6572, 6108.865
280.1393, 6098.075
280.6214, 6089.898
281.1035, 6095.623
281.5856, 6115.255
282.0677, 6140.538
282.5499, 6174.817
283.0320, 6208.884
283.5141, 6220.423
283.9962, 6207.778
284.4783, 6192.039
284.9604, 6184.087
285.4425, 6183.737
285.9247, 6190.783
286.4068, 6209.971
286.8889, 6226.996
287.3710, 6205.504
287.8531, 6145.726
288.3352, 6100.725
288.8174, 6114.695
289.2995, 6174.856
289.7816, 6205.004
290.2637, 6195.743
290.7458, 6167.662
291.2279, 6146.895
291.7101, 6133.167
292.1922, 6124.006
292.6743, 6117.444
293.1564, 6114.348
293.6385, 6118.412
294.1206, 6130.404
294.6028, 6147.349
295.0849, 6173.127
295.5670, 6204.150
296.0491, 6221.509
296.5312, 6203.910
297.0133, 6167.630
297.4955, 6150.588
297.9776, 6156.520
298.4597, 6168.588
298.9418, 6163.480
299.4239, 6148.420
299.9060, 6145.744
300.3882, 6177.748
300.8703, 6224.645
301.3524, 6254.147
301.8345, 6264.647
302.3166, 6267.620
302.7987, 6268.445
303.2809, 6269.207
303.7630, 6274.716
304.2451, 6289.966
304.7272, 6309.131
305.2093, 6325.470
305.6914, 6338.959
306.1736, 6351.415
306.6557, 6364.257
307.1378, 6377.300
307.6199, 6390.323
308.1020, 6403.620
308.5841, 6417.029
309.0663, 6432.407
309.5484, 6449.637
310.0305, 6462.386
310.5126, 6462.487
310.9947, 6457.728
311.4768, 6457.076
311.9590, 6467.482
312.4411, 6478.994
312.9232, 6482.498
313.4053, 6480.033
313.8874, 6483.896
314.3695, 6508.460
314.8516, 6538.107
315.3337, 6558.689
315.8159, 6556.533
316.2980, 6556.869
316.7801, 6576.672
317.2622, 6609.925
317.7443, 6633.182
318.2264, 6626.766
318.7086, 6613.978
319.1907, 6609.220
319.6728, 6614.248
320.1549, 6629.299
320.6370, 6667.434
321.1191, 6717.116
321.6013, 6747.587
322.0834, 6730.885
322.5655, 6708.076
323.0476, 6698.069
323.5297, 6707.501
324.0118, 6720.749
324.4940, 6737.707
324.9761, 6756.756
325.4582, 6774.865
325.9403, 6778.748
326.4224, 6792.910
326.9045, 6829.817
327.3867, 6906.969
327.8688, 6963.132
328.3509, 6984.781
328.8330, 6988.257
329.3151, 6996.538
329.7972, 7015.340
330.2794, 7032.365
330.7615, 7041.247
331.2436, 7037.003
331.7257, 7053.275
332.2078, 7105.955
332.6899, 7167.827
333.1721, 7208.050
333.6542, 7212.127
334.1363, 7220.709
334.6184, 7246.777
335.1005, 7289.922
335.5826, 7310.304
336.0648, 7292.232
336.5469, 7273.320
337.0290, 7290.950
337.5111, 7359.486
337.9932, 7417.883
338.4753, 7452.911
338.9575, 7469.590
339.4396, 7495.807
339.9217, 7534.937
340.4038, 7573.744
340.8859, 7601.476
341.3680, 7616.687
341.8502, 7634.438
342.3323, 7655.902
342.8144, 7681.413
343.2965, 7715.683
343.7786, 7760.980
344.2607, 7796.543
344.7429, 7811.319
345.2250, 7805.842
345.7071, 7782.315
346.1892, 7737.329
346.6713, 7682.564
347.1534, 7636.154
347.6355, 7597.012
348.1176, 7552.166
348.5998, 7486.228
349.0819, 7408.871
349.5640, 7345.104
350.0461, 7295.028
350.5282, 7258.903
351.0103, 7243.921
351.4925, 7243.485
351.9746, 7238.476
352.4567, 7212.426
352.9388, 7180.249
353.4209, 7163.242
353.9030, 7161.665
354.3852, 7165.424
354.8673, 7168.917
355.3494, 7172.226
355.8315, 7175.449
356.3136, 7179.319
356.7957, 7183.002
357.2779, 7186.290
357.7600, 7189.201
358.2421, 7190.855
358.7242, 7197.331
359.2063, 7199.335
359.6884, 7185.936
360.1706, 7134.842
360.6527, 7095.470
361.1348, 7098.826
361.6169, 7133.817
362.0990, 7166.389
362.5811, 7186.795
363.0633, 7199.224
363.5454, 7205.594
364.0275, 7205.047
364.5096, 7200.734
364.9917, 7182.682
365.4738, 7162.562
365.9560, 7161.245
366.4381, 7203.369
366.9202, 7246.129
367.4023, 7273.801
367.8844, 7279.136
368.3665, 7294.376
368.8487, 7328.287
369.3308, 7370.028
369.8129, 7407.206
370.2950, 7428.597
370.7771, 7460.429
371.2592, 7513.832
371.7414, 7588.700
372.2235, 7643.785
372.7056, 7664.555
373.1877, 7681.523
373.6698, 7720.063
374.1519, 7789.624
374.6341, 7854.182
375.1162, 7906.520
375.5983, 7950.495
376.0804, 8001.928
376.5625, 8062.554
377.0446, 8124.196
377.5267, 8183.285
378.0089, 8241.021
378.4910, 8290.036
378.9731, 8332.217
379.4552, 8362.129
379.9373, 8366.764
380.4194, 8345.887
380.9016, 8313.384
381.3837, 8268.150
381.8658, 8214.832
382.3479, 8180.928
382.8300, 8170.659
383.3121, 8158.945
383.7943, 8112.085
384.2764, 8037.727
384.7585, 7964.016
385.2406, 7901.871
385.7227, 7846.523
386.2048, 7788.380
386.6870, 7728.084
387.1691, 7679.534
387.6512, 7668.227
388.1333, 7672.805
388.6154, 7658.223
389.0975, 7601.199
389.5797, 7541.651
390.0618, 7517.245
390.5439, 7519.444
391.0260, 7521.408
391.5081, 7507.549
391.9902, 7488.817
392.4724, 7471.450
392.9545, 7453.292
393.4366, 7447.309
393.9187, 7463.861
394.4008, 7495.711
394.8829, 7531.629
395.3651, 7562.987
395.8472, 7602.390
396.3293, 7658.889
396.8114, 7736.206
397.2935, 7806.340
397.7756, 7855.046
398.2578, 7898.867
398.7399, 7953.351
399.2220, 8029.694
399.7041, 8104.981
400.1862, 8179.335
400.6683, 8251.803
401.1505, 8311.083
401.6326, 8333.396
402.1147, 8368.773
402.5968, 8450.682
403.0789, 8607.995
403.5610, 8740.961
404.0432, 8838.585
404.5253, 8913.941
405.0074, 8996.728
405.4895, 9089.037
405.9716, 9184.111
406.4537, 9288.504
406.9359, 9403.782
407.4180, 9482.689
407.9001, 9532.393
408.3822, 9525.634
408.8643, 9410.644
409.3464, 9191.019
409.8285, 8955.063
410.3106, 8720.624
410.7928, 8496.130
411.2749, 8296.024
411.7570, 8119.716
412.2391, 7975.508
412.7212, 7880.309
413.2033, 7820.015
413.6855, 7761.954
414.1676, 7696.933
414.6497, 7636.950
415.1318, 7597.122
415.6139, 7574.113
416.0960, 7558.801
416.5782, 7554.201
417.0603, 7549.926
417.5424, 7534.495
418.0245, 7504.935
418.5066, 7475.288
418.9887, 7452.028
419.4709, 7433.616
419.9530, 7417.604
420.4351, 7395.561
420.9172, 7383.196
421.3993, 7392.585
421.8814, 7422.781
422.3636, 7447.671
422.8457, 7461.596
423.3278, 7468.327
423.8099, 7470.102
424.2920, 7459.575
424.7741, 7453.667
425.2563, 7455.209
425.7384, 7462.094
426.2205, 7468.281
426.7026, 7472.314
427.1847, 7477.625
427.6668, 7486.474
428.1490, 7501.030
428.6311, 7507.227
429.1132, 7497.788
429.5953, 7488.309
430.0774, 7503.785
430.5595, 7551.736
431.0417, 7586.370
431.5238, 7589.692
432.0059, 7570.498
432.4880, 7575.967
432.9701, 7609.737
433.4522, 7642.993
433.9344, 7649.409
434.4165, 7633.552
434.8986, 7623.972
435.3807, 7626.117
435.8628, 7633.104
436.3449, 7636.347
436.8271, 7636.044
437.3092, 7632.815
437.7913, 7621.016
438.2734, 7609.057
438.7555, 7610.889
439.2376, 7627.918
439.7197, 7645.152
440.2018, 7653.720
440.6840, 7654.729
441.1661, 7649.638
441.6482, 7623.675
442.1303, 7605.559
442.6124, 7617.803
443.0945, 7654.025
443.5767, 7681.751
444.0588, 7683.743
444.5409, 7677.817
445.0230, 7674.267
445.5051, 7676.273
445.9872, 7677.472
446.4694, 7673.441
446.9515, 7668.924
447.4336, 7672.132
447.9157, 7699.085
448.3978, 7714.995
448.8799, 7704.144
449.3621, 7662.861
449.8442, 7653.321
450.3263, 7691.936
450.8084, 7739.999
451.2905, 7763.869
451.7726, 7756.115
452.2548, 7753.914
452.7369, 7763.987
453.2190, 7780.721
453.7011, 7788.446
454.1832, 7786.020
454.6653, 7784.187
455.1475, 7787.768
455.6296, 7796.600
456.1117, 7811.974
456.5938, 7834.928
457.0759, 7858.014
457.5580, 7869.306
458.0402, 7873.250
458.5223, 7883.146
459.0044, 7908.853
459.4865, 7938.329
459.9686, 7952.994
460.4507, 7956.399
460.9329, 7969.519
461.4150, 8019.939
461.8971, 8078.115
462.3792, 8113.354
462.8613, 8106.421
463.3434, 8111.195
463.8256, 8161.613
464.3077, 8237.958
464.7898, 8309.278
465.2719, 8370.746
465.7540, 8421.291
466.2361, 8453.968
466.7183, 8466.945
467.2004, 8495.911
467.6825, 8556.257
468.1646, 8623.781
468.6467, 8683.336
469.1288, 8724.158
469.6109, 8776.563
470.0930, 8850.413
470.5752, 8933.460
471.0573, 8990.838
471.5394, 9008.993
472.0215, 9038.636
472.5036, 9104.039
472.9857, 9204.611
473.4679, 9312.095
473.9500, 9432.582
474.4321, 9532.155
474.9142, 9569.173
475.3963, 9549.516
475.8784, 9510.950
476.3606, 9465.231
476.8427, 9402.909
477.3248, 9296.625
477.8069, 9154.702
478.2890, 9020.918
478.7711, 8927.228
479.2533, 8854.920
479.7354, 8779.195
480.2175, 8694.749
480.6996, 8623.917
481.1817, 8588.906
481.6638, 8574.557
482.1460, 8561.505
482.6281, 8535.940
483.1102, 8517.144
483.5923, 8514.989
484.0744, 8527.104
484.5565, 8537.928
485.0387, 8553.668
485.5208, 8559.359
486.0029, 8546.265
486.4850, 8505.908
486.9671, 8463.462
487.4492, 8411.591
487.9314, 8362.483
488.4135, 8336.981
488.8956, 8348.165
489.3777, 8352.066
489.8598, 8334.506
490.3419, 8300.003
490.8241, 8280.348
491.3062, 8278.280
491.7883, 8280.112
492.2704, 8275.024
492.7525, 8264.200
493.2346, 8254.671
493.7168, 8245.632
494.1989, 8243.228
494.6810, 8263.934
495.1631, 8300.376
495.6452, 8327.364
496.1273, 8322.675
496.6095, 8307.689
497.0916, 8304.685
497.5737, 8313.569
498.0558, 8332.726
498.5379, 8361.535
499.0201, 8400.060
499.5022, 8449.911
499.9843, 8521.762
500.4664, 8586.742
500.9485, 8629.110
501.4306, 8658.630
501.9127, 8691.462
502.3948, 8713.390
502.8770, 8756.358
503.3591, 8834.373
503.8412, 8948.182
504.3233, 9062.028
504.8054, 9170.078
505.2875, 9283.369
505.7697, 9410.307
506.2518, 9554.222
506.7339, 9704.712
507.2160, 9863.141
507.6981, 10025.17
508.1802, 10173.58
508.6624, 10305.90
509.1445, 10467.40
509.6266, 10694.64
510.1087, 10963.76
510.5908, 11187.33
511.0729, 11364.82
511.5551, 11549.76
512.0372, 11797.60
512.5193, 12084.05
513.0014, 12357.04
513.4835, 12597.85
513.9656, 12848.69
514.4478, 13149.58
514.9299, 13485.11
515.4120, 13823.91
515.8941, 14155.99
516.3762, 14486.19
516.8583, 14829.23
517.3405, 15186.93
517.8226, 15487.91
518.3047, 15744.60
518.7868, 15920.31
519.2689, 15989.73
519.7510, 15977.26
520.2332, 15821.10
520.7153, 15495.81
521.1974, 15042.49
521.6795, 14526.85
522.1616, 13923.93
522.6437, 13322.01
523.1259, 12741.37
523.6080, 12184.71
524.0901, 11694.17
524.5722, 11267.97
525.0543, 10903.58
525.5364, 10596.80
526.0186, 10343.38
526.5007, 10126.10
526.9828, 9946.557
527.4649, 9796.477
527.9470, 9678.428
528.4291, 9584.635
528.9113, 9489.786
529.3934, 9372.013
529.8755, 9258.398
530.3576, 9167.351
530.8397, 9099.543
531.3218, 9051.069
531.8040, 9050.727
532.2861, 9049.255
532.7682, 9009.358
533.2503, 8896.537
533.7324, 8809.727
534.2145, 8774.533
534.6967, 8768.175
535.1788, 8760.455
535.6609, 8750.386
536.1430, 8741.024
536.6251, 8733.599
537.1072, 8727.613
537.5894, 8722.489
538.0715, 8721.439
538.5536, 8711.136
539.0357, 8675.922
539.5178, 8618.260
539.9999, 8580.275
540.4821, 8565.609
540.9642, 8563.174
541.4463, 8558.785
541.9284, 8555.792
542.4105, 8565.869
542.8926, 8598.146
543.3748, 8637.933
543.8569, 8679.149
544.3390, 8716.044
544.8211, 8730.473
545.3032, 8685.144
545.7853, 8634.610
546.2675, 8619.028
546.7495, 8646.857
547.2316, 8672.716
547.7137, 8685.639
548.1959, 8690.330
548.6780, 8691.011
549.1601, 8689.106
549.6422, 8681.311
550.1243, 8660.622
550.6064, 8635.891
551.0886, 8633.061
551.5707, 8666.891
552.0528, 8683.030
552.5349, 8650.872
553.0170, 8578.472
553.4991, 8550.671
553.9813, 8571.857
554.4634, 8607.309
554.9455, 8633.384
555.4276, 8649.959
555.9097, 8651.574
556.3918, 8631.716
556.8740, 8617.267
557.3561, 8650.009
557.8382, 8709.163
558.3203, 8751.828
558.8024, 8749.443
559.2845, 8733.507
559.7667, 8720.730
560.2488, 8711.034
560.7309, 8700.972
561.2130, 8682.045
561.6951, 8668.140
562.1772, 8666.398
562.6594, 8679.634
563.1415, 8700.715
563.6236, 8741.681
564.1057, 8780.729
564.5878, 8792.601
565.0699, 8765.801
565.5521, 8744.761
566.0342, 8735.010
566.5163, 8736.298
566.9984, 8753.096
567.4805, 8786.447
567.9626, 8813.465
568.4448, 8815.360
568.9269, 8802.728
569.4090, 8803.521
569.8911, 8817.997
570.3732, 8844.001
570.8553, 8893.768
571.3375, 8949.291
571.8196, 8982.233
572.3017, 8978.610
572.7838, 8972.440
573.2659, 8979.224
573.7480, 8996.311
574.2302, 9019.554
574.7123, 9052.298
575.1944, 9086.256
575.6765, 9122.913
576.1586, 9161.050
576.6407, 9186.060
577.1229, 9184.656
577.6050, 9188.664
578.0871, 9216.350
578.5692, 9274.225
579.0513, 9318.922
579.5334, 9346.770
580.0156, 9370.935
580.4977, 9408.078
580.9798, 9456.705
581.4619, 9503.852
581.9440, 9549.961
582.4261, 9587.107
582.9083, 9594.361
583.3904, 9579.847
583.8725, 9571.240
584.3546, 9606.453
584.8367, 9635.979
585.3188, 9608.373
585.8010, 9525.264
586.2831, 9452.910
586.7652, 9435.838
587.2473, 9427.912
587.7294, 9397.335
588.2115, 9327.391
588.6937, 9259.786
589.1758, 9186.703
589.6579, 9122.673
590.1400, 9090.111
590.6221, 9107.389
591.1042, 9105.389
591.5864, 9060.713
592.0685, 8994.854
592.5506, 8980.910
593.0327, 9021.538
593.5148, 9064.703
593.9969, 9087.371
594.4791, 9091.008
594.9612, 9069.843
595.4433, 9024.241
595.9254, 8990.641
596.4075, 9016.550
596.8896, 9063.912
597.3718, 9082.361
597.8539, 9049.822
598.3360, 9018.152
598.8181, 9014.953
599.3002, 9027.255
599.7823, 9035.817
600.2645, 9022.923
600.7466, 9022.044
601.2287, 9052.603
601.7108, 9103.200
602.1929, 9116.246
602.6750, 9070.411
603.1572, 9028.268
603.6393, 9019.106
604.1214, 9042.910
604.6035, 9061.380
605.0856, 9074.355
605.5677, 9082.703
606.0499, 9085.818
606.5320, 9084.880
607.0141, 9084.191
607.4962, 9084.762
607.9783, 9084.673
608.4604, 9079.084
608.9425, 9071.734
609.4246, 9069.624
609.9067, 9074.132
610.3889, 9085.795
610.8710, 9117.212
611.3531, 9160.005
611.8352, 9176.104
612.3173, 9117.803
612.7994, 9070.224
613.2816, 9072.367
613.7637, 9136.003
614.2458, 9163.136
614.7279, 9135.579
615.2100, 9103.125
615.6921, 9112.527
616.1743, 9166.394
616.6564, 9202.009
617.1385, 9210.483
617.6206, 9207.220
618.1027, 9214.247
618.5848, 9227.946
619.0670, 9235.217
619.5491, 9224.359
620.0312, 9212.200
620.5133, 9214.097
620.9954, 9228.174
621.4775, 9248.197
621.9597, 9280.802
622.4418, 9310.209
622.9239, 9327.170
623.4060, 9329.862
623.8881, 9332.107
624.3702, 9333.702
624.8524, 9336.507
625.3345, 9342.627
625.8166, 9356.042
626.2987, 9359.513
626.7808, 9347.728
627.2629, 9334.796
627.7451, 9344.264
628.2272, 9375.087
628.7093, 9398.418
629.1914, 9406.817
629.6735, 9404.723
630.1556, 9392.968
630.6378, 9375.605
631.1199, 9366.341
631.6020, 9379.683
632.0841, 9398.473
632.5662, 9409.693
633.0483, 9413.517
633.5305, 9416.771
634.0126, 9426.315
634.4947, 9432.666
