##NAMES=Epidote
##RRUFFID=R110127
##IDEAL CHEMISTRY=Ca_2_Fe^3+^Al_2_(Si_2_O_7_)(SiO_4_)O(OH)
##LOCALITY=Alchori, Pakistan
##OWNER=RRUFF
##SOURCE=Jack Lowell
##DESCRIPTION=Pale brown transparent prismatic crystals associated with green diopside, R110128
##STATUS=The identification of this mineral has been confirmed only by single crystal X-ray diffraction.
##URL=rruff.info/R110127
179.2017, 799.9805
179.6838, 800.5605
180.1659, 799.4763
180.6480, 796.6450
181.1301, 793.5656
181.6122, 792.0049
182.0944, 791.4837
182.5765, 790.4162
183.0586, 787.4196
183.5407, 783.5244
184.0228, 780.8668
184.5049, 779.6006
184.9871, 778.9318
185.4692, 777.9123
185.9513, 776.6290
186.4334, 775.6645
186.9155, 775.2960
187.3976, 775.4283
187.8798, 775.9189
188.3619, 776.8550
188.8440, 777.7242
189.3261, 777.5179
189.8082, 776.3288
190.2903, 775.4801
190.7725, 775.7147
191.2546, 776.8982
191.7367, 778.4573
192.2188, 780.5922
192.7009, 782.5438
193.1830, 782.6150
193.6652, 780.7985
194.1473, 779.2206
194.6294, 779.3362
195.1115, 780.9756
195.5936, 781.9313
196.0757, 781.8964
196.5579, 781.4407
197.0400, 781.7421
197.5221, 782.8716
198.0042, 783.9764
198.4863, 784.4993
198.9684, 784.4318
199.4506, 784.6099
199.9327, 785.1200
200.4148, 785.8687
200.8969, 786.6624
201.3790, 787.5131
201.8611, 788.4183
202.3433, 789.4191
202.8254, 790.5350
203.3075, 791.5081
203.7896, 792.1953
204.2717, 792.8192
204.7538, 794.1264
205.2360, 796.3632
205.7181, 798.3258
206.2002, 798.8698
206.6823, 797.5374
207.1644, 797.9008
207.6465, 801.0067
208.1287, 805.5430
208.6108, 807.3242
209.0929, 805.4316
209.5750, 803.3063
210.0571, 803.2122
210.5392, 805.6281
211.0214, 807.7423
211.5035, 809.1544
211.9856, 810.1654
212.4677, 811.9175
212.9498, 814.6608
213.4319, 817.6427
213.9140, 820.5233
214.3962, 823.4021
214.8783, 825.8737
215.3604, 827.7556
215.8425, 829.2318
216.3246, 830.9027
216.8067, 832.7195
217.2889, 834.8341
217.7710, 837.4393
218.2531, 840.7772
218.7352, 843.8427
219.2173, 846.4080
219.6994, 848.6490
220.1816, 851.2604
220.6637, 854.2576
221.1458, 857.6144
221.6279, 861.3970
222.1100, 866.0103
222.5921, 869.9843
223.0743, 872.9122
223.5564, 875.1024
224.0385, 878.2031
224.5206, 882.4901
225.0027, 887.1668
225.4848, 891.8256
225.9670, 896.5911
226.4491, 900.9609
226.9312, 904.6584
227.4133, 907.9218
227.8954, 912.1363
228.3775, 917.5936
228.8597, 923.4645
229.3418, 929.0977
229.8239, 933.9752
230.3060, 939.7967
230.7881, 946.8856
231.2702, 955.0259
231.7524, 962.8857
232.2345, 969.9107
232.7166, 977.2442
233.1987, 985.5869
233.6808, 995.6650
234.1629, 1004.991
234.6451, 1013.056
235.1272, 1020.238
235.6093, 1028.508
236.0914, 1038.719
236.5735, 1048.845
237.0556, 1057.758
237.5378, 1065.111
238.0199, 1072.006
238.5020, 1078.209
238.9841, 1084.045
239.4662, 1090.607
239.9483, 1098.435
240.4305, 1106.330
240.9126, 1113.557
241.3947, 1119.130
241.8768, 1126.389
242.3589, 1136.374
242.8410, 1148.073
243.3232, 1157.994
243.8053, 1165.050
244.2874, 1171.749
244.7695, 1179.128
245.2516, 1186.916
245.7337, 1196.080
246.2159, 1207.181
246.6980, 1219.616
247.1801, 1231.214
247.6622, 1241.563
248.1443, 1251.817
248.6264, 1262.464
249.1086, 1273.939
249.5907, 1284.913
250.0728, 1295.394
250.5549, 1305.369
251.0370, 1314.906
251.5191, 1324.573
252.0013, 1332.978
252.4834, 1339.718
252.9655, 1344.961
253.4476, 1347.998
253.9297, 1348.623
254.4118, 1347.162
254.8940, 1344.381
255.3761, 1340.555
255.8582, 1334.881
256.3403, 1326.770
256.8224, 1315.474
257.3046, 1304.294
257.7867, 1293.681
258.2688, 1282.966
258.7509, 1270.717
259.2330, 1256.287
259.7151, 1241.860
260.1973, 1228.067
260.6794, 1215.113
261.1615, 1202.922
261.6436, 1191.557
262.1257, 1181.052
262.6078, 1171.568
263.0900, 1163.365
263.5721, 1155.831
264.0542, 1148.905
264.5363, 1142.552
265.0184, 1136.621
265.5005, 1130.887
265.9827, 1125.754
266.4648, 1121.753
266.9469, 1119.111
267.4290, 1117.071
267.9111, 1115.610
268.3932, 1114.802
268.8754, 1113.187
269.3575, 1110.523
269.8396, 1107.381
270.3217, 1104.449
270.8038, 1101.698
271.2859, 1099.186
271.7681, 1096.881
272.2502, 1094.785
272.7323, 1093.274
273.2144, 1092.553
273.6965, 1092.035
274.1786, 1091.224
274.6608, 1090.172
275.1429, 1088.517
275.6250, 1086.163
276.1071, 1083.149
276.5892, 1079.634
277.0714, 1075.754
277.5535, 1071.148
278.0356, 1065.006
278.5177, 1057.077
278.9998, 1050.251
279.4819, 1045.496
279.9641, 1042.192
280.4462, 1037.738
280.9283, 1031.884
281.4104, 1025.882
281.8925, 1020.660
282.3746, 1016.228
282.8568, 1012.167
283.3389, 1008.616
283.8210, 1005.267
284.3031, 1000.958
284.7852, 995.5401
285.2673, 990.5135
285.7495, 987.0911
286.2316, 985.1719
286.7137, 983.2476
287.1958, 981.0943
287.6779, 978.9184
288.1600, 977.1617
288.6422, 975.8242
289.1243, 974.6073
289.6064, 973.2942
290.0885, 971.9161
290.5706, 970.6624
291.0527, 969.4250
291.5349, 968.5555
292.0170, 969.0668
292.4991, 970.7880
292.9812, 972.0150
293.4633, 971.2599
293.9454, 969.2164
294.4276, 968.1949
294.9097, 968.4535
295.3918, 969.1893
295.8739, 969.5812
296.3560, 969.6381
296.8381, 969.3965
297.3203, 968.6531
297.8024, 967.6729
298.2845, 967.1819
298.7666, 967.2697
299.2487, 967.0824
299.7308, 965.5367
300.2130, 962.9755
300.6951, 960.4081
301.1772, 958.2100
301.6593, 956.2525
302.1414, 954.2912
302.6235, 952.3429
303.1057, 950.5546
303.5878, 949.1205
304.0699, 947.9387
304.5520, 946.8846
305.0341, 946.2382
305.5162, 945.4151
305.9984, 943.2919
306.4805, 940.1373
306.9626, 937.6456
307.4447, 937.4937
307.9268, 938.5560
308.4089, 939.2803
308.8911, 938.6874
309.3732, 938.5512
309.8553, 941.0862
310.3374, 945.4758
310.8195, 949.0084
311.3016, 949.5027
311.7838, 948.7366
312.2659, 948.2091
312.7480, 948.1290
313.2301, 948.4978
313.7122, 949.0594
314.1943, 950.0607
314.6765, 952.0191
315.1586, 956.4660
315.6407, 961.0239
316.1228, 963.9895
316.6049, 964.6975
317.0870, 965.7017
317.5692, 968.3006
318.0513, 971.8334
318.5334, 975.3653
319.0155, 978.4080
319.4976, 981.5510
319.9797, 985.0769
320.4619, 989.0357
320.9440, 992.9932
321.4261, 996.8503
321.9082, 1000.587
322.3903, 1004.166
322.8724, 1007.173
323.3546, 1010.408
323.8367, 1014.161
324.3188, 1018.413
324.8009, 1022.646
325.2830, 1026.869
325.7651, 1030.963
326.2473, 1034.844
326.7294, 1038.470
327.2115, 1041.969
327.6936, 1045.242
328.1757, 1048.367
328.6578, 1051.798
329.1400, 1055.265
329.6221, 1059.309
330.1042, 1064.189
330.5863, 1069.947
331.0684, 1076.545
331.5505, 1084.332
332.0327, 1092.840
332.5148, 1100.945
332.9969, 1108.277
333.4790, 1115.641
333.9611, 1123.302
334.4432, 1131.112
334.9254, 1139.812
335.4075, 1149.967
335.8896, 1160.369
336.3717, 1169.274
336.8538, 1176.130
337.3359, 1182.554
337.8180, 1188.765
338.3001, 1194.750
338.7823, 1201.276
339.2644, 1208.556
339.7465, 1215.873
340.2286, 1222.675
340.7107, 1228.993
341.1928, 1234.418
341.6750, 1238.620
342.1571, 1241.920
342.6392, 1245.253
343.1213, 1248.692
343.6034, 1252.007
344.0855, 1254.832
344.5677, 1257.193
345.0498, 1260.394
345.5319, 1264.749
346.0140, 1269.720
346.4961, 1274.217
346.9782, 1278.245
347.4604, 1282.512
347.9425, 1287.203
348.4246, 1292.420
348.9067, 1298.791
349.3888, 1306.649
349.8709, 1314.179
350.3531, 1319.884
350.8352, 1323.583
351.3173, 1324.610
351.7994, 1322.001
352.2815, 1316.751
352.7636, 1310.688
353.2458, 1303.798
353.7279, 1294.966
354.2100, 1282.789
354.6921, 1268.076
355.1742, 1252.302
355.6563, 1235.859
356.1385, 1218.357
356.6206, 1198.535
357.1027, 1176.818
357.5848, 1155.906
358.0669, 1137.117
358.5490, 1119.819
359.0312, 1103.450
359.5133, 1087.622
359.9954, 1072.962
360.4775, 1060.026
360.9596, 1048.457
361.4417, 1037.694
361.9239, 1027.584
362.4060, 1018.045
362.8881, 1008.878
363.3702, 999.9167
363.8523, 992.1523
364.3344, 986.6263
364.8166, 982.2167
365.2987, 977.6048
365.7808, 971.6645
366.2629, 966.4403
366.7450, 962.8012
367.2271, 960.7433
367.7093, 958.4142
368.1914, 954.9601
368.6735, 951.5549
369.1556, 948.9440
369.6377, 947.9014
370.1198, 946.7712
370.6020, 945.5090
371.0841, 944.1051
371.5662, 942.5120
372.0483, 940.4980
372.5304, 938.5807
373.0125, 936.9932
373.4947, 935.8858
373.9768, 934.6799
374.4589, 933.2784
374.9410, 931.8415
375.4231, 930.6664
375.9052, 929.8328
376.3874, 929.0505
376.8695, 928.1913
377.3516, 927.2723
377.8337, 926.8973
378.3158, 927.2508
378.7979, 927.6865
379.2801, 927.4101
379.7622, 926.3759
380.2443, 925.7397
380.7264, 925.6387
381.2085, 926.1453
381.6906, 927.7929
382.1728, 930.5929
382.6549, 933.1664
383.1370, 934.1325
383.6191, 933.9681
384.1012, 934.6006
384.5833, 936.3055
385.0655, 938.5078
385.5476, 940.5743
386.0297, 942.5184
386.5118, 944.3083
386.9939, 946.1004
387.4760, 947.6840
387.9582, 948.7820
388.4403, 949.4054
388.9224, 949.6021
389.4045, 949.1577
389.8866, 948.3987
390.3687, 947.8000
390.8509, 947.8802
391.3330, 947.8149
391.8151, 947.0878
392.2972, 945.7440
392.7793, 943.9453
393.2614, 940.8455
393.7436, 937.9191
394.2257, 936.4022
394.7078, 937.3604
395.1899, 937.6486
395.6720, 935.5486
396.1541, 932.1649
396.6363, 929.2775
397.1184, 927.9051
397.6005, 926.5378
398.0826, 924.7083
398.5647, 922.3672
399.0468, 919.7412
399.5290, 916.1827
400.0111, 912.7234
400.4932, 910.1959
400.9753, 909.4034
401.4574, 908.4708
401.9395, 907.1671
402.4217, 905.5932
402.9038, 904.2270
403.3859, 903.0807
403.8680, 902.1326
404.3501, 901.4406
404.8322, 901.1713
405.3144, 900.5278
405.7965, 899.2924
406.2786, 897.9481
406.7607, 897.3217
407.2428, 897.5140
407.7249, 897.8536
408.2071, 898.0449
408.6892, 898.1735
409.1713, 898.7242
409.6534, 899.6699
410.1355, 901.2084
410.6176, 903.5458
411.0998, 906.6428
411.5819, 910.4037
412.0640, 915.1404
412.5461, 919.9737
413.0282, 923.4583
413.5103, 925.7361
413.9925, 927.7487
414.4746, 929.7228
414.9567, 931.9100
415.4388, 934.8275
415.9209, 938.6191
416.4030, 942.4210
416.8852, 945.3036
417.3673, 947.7900
417.8494, 950.7370
418.3315, 954.7786
418.8136, 959.1783
419.2957, 963.6047
419.7779, 968.0305
420.2600, 972.5189
420.7421, 977.0675
421.2242, 981.7117
421.7063, 986.3652
422.1884, 991.1091
422.6706, 995.8632
423.1527, 1000.326
423.6348, 1004.855
424.1169, 1010.126
424.5990, 1016.902
425.0811, 1023.851
425.5633, 1030.697
426.0454, 1037.480
426.5275, 1043.743
427.0096, 1049.332
427.4917, 1054.553
427.9738, 1059.664
428.4560, 1064.642
428.9381, 1069.507
429.4202, 1074.315
429.9023, 1078.922
430.3844, 1083.116
430.8665, 1086.891
431.3487, 1090.190
431.8308, 1092.352
432.3129, 1093.194
432.7950, 1096.833
433.2771, 1103.906
433.7592, 1112.196
434.2414, 1118.644
434.7235, 1123.473
435.2056, 1129.307
435.6877, 1137.191
436.1698, 1146.429
436.6519, 1155.716
437.1341, 1165.088
437.6162, 1174.862
438.0983, 1185.695
438.5804, 1197.102
439.0625, 1208.040
439.5446, 1218.038
440.0268, 1228.582
440.5089, 1240.897
440.9910, 1254.790
441.4731, 1269.639
441.9552, 1286.922
442.4373, 1303.818
442.9195, 1318.086
443.4016, 1329.741
443.8837, 1342.100
444.3658, 1357.122
444.8479, 1373.095
445.3300, 1388.498
445.8122, 1402.680
446.2943, 1416.893
446.7764, 1432.042
447.2585, 1447.459
447.7406, 1461.443
448.2227, 1473.727
448.7049, 1484.735
449.1870, 1495.011
449.6691, 1504.856
450.1512, 1511.723
450.6333, 1515.195
451.1154, 1516.119
451.5976, 1515.189
452.0797, 1512.387
452.5618, 1507.958
453.0439, 1501.937
453.5260, 1494.371
454.0081, 1485.158
454.4903, 1474.363
454.9724, 1461.262
455.4545, 1444.517
455.9366, 1424.730
456.4187, 1405.041
456.9008, 1385.736
457.3830, 1366.224
457.8651, 1345.903
458.3472, 1325.003
458.8293, 1305.282
459.3114, 1287.075
459.7935, 1270.275
460.2757, 1254.393
460.7578, 1239.535
461.2399, 1225.920
461.7220, 1214.320
462.2041, 1203.652
462.6862, 1192.893
463.1684, 1181.716
463.6505, 1171.442
464.1326, 1163.033
464.6147, 1155.998
465.0968, 1149.564
465.5789, 1143.733
466.0611, 1138.473
466.5432, 1133.740
467.0253, 1129.569
467.5074, 1125.970
467.9895, 1122.803
468.4716, 1120.348
468.9538, 1118.840
469.4359, 1118.880
469.9180, 1118.536
470.4001, 1117.458
470.8822, 1116.209
471.3643, 1115.769
471.8465, 1116.568
472.3286, 1116.840
472.8107, 1115.938
473.2928, 1114.112
473.7749, 1112.822
474.2570, 1112.148
474.7392, 1111.592
475.2213, 1110.846
475.7034, 1109.914
476.1855, 1108.782
476.6676, 1107.408
477.1497, 1106.010
477.6319, 1104.957
478.1140, 1104.159
478.5961, 1103.322
479.0782, 1102.293
479.5603, 1101.183
480.0424, 1100.332
480.5246, 1099.643
481.0067, 1098.382
481.4888, 1094.786
481.9709, 1091.120
482.4530, 1089.740
482.9352, 1092.271
483.4173, 1094.127
483.8994, 1093.183
484.3815, 1090.478
484.8636, 1087.614
485.3457, 1084.688
485.8279, 1081.917
486.3100, 1079.824
486.7921, 1078.378
487.2742, 1075.364
487.7563, 1069.349
488.2384, 1063.217
488.7206, 1058.757
489.2027, 1056.981
489.6848, 1054.173
490.1669, 1049.927
490.6490, 1045.052
491.1311, 1040.577
491.6133, 1036.492
492.0954, 1033.195
492.5775, 1031.107
493.0596, 1029.815
493.5417, 1027.637
494.0238, 1024.560
494.5060, 1021.427
494.9881, 1018.387
495.4702, 1015.790
495.9523, 1014.610
496.4344, 1015.126
496.9165, 1016.335
497.3987, 1017.663
497.8808, 1018.931
498.3629, 1019.775
498.8450, 1019.447
499.3271, 1019.167
499.8092, 1019.818
500.2914, 1021.284
500.7735, 1022.809
501.2556, 1023.781
501.7377, 1025.015
502.2198, 1027.003
502.7019, 1029.971
503.1841, 1033.355
503.6662, 1037.618
504.1483, 1042.067
504.6304, 1045.802
505.1125, 1048.058
505.5946, 1050.802
506.0768, 1054.661
506.5589, 1059.277
507.0410, 1062.674
507.5231, 1064.197
508.0052, 1066.296
508.4873, 1070.990
508.9695, 1078.249
509.4516, 1083.153
509.9337, 1085.411
510.4158, 1086.359
510.8979, 1086.956
511.3800, 1087.405
511.8622, 1088.713
512.3443, 1091.525
512.8264, 1094.761
513.3085, 1097.035
513.7906, 1098.527
514.2728, 1099.874
514.7549, 1101.841
515.2370, 1103.571
515.7191, 1104.018
516.2012, 1103.037
516.6833, 1102.482
517.1655, 1103.616
517.6476, 1105.352
518.1297, 1106.784
518.6118, 1108.718
519.0939, 1109.113
519.5760, 1107.022
520.0582, 1103.189
520.5403, 1099.375
521.0224, 1095.567
521.5045, 1091.848
521.9866, 1088.257
522.4688, 1084.771
522.9509, 1081.230
523.4330, 1077.523
523.9151, 1073.926
524.3972, 1070.586
524.8793, 1067.510
525.3615, 1064.872
525.8436, 1062.777
526.3257, 1060.787
526.8078, 1058.454
527.2899, 1055.726
527.7720, 1052.396
528.2542, 1048.310
528.7363, 1043.675
529.2184, 1038.651
529.7005, 1033.289
530.1826, 1027.621
530.6647, 1021.404
531.1469, 1015.085
531.6290, 1009.091
532.1111, 1003.688
532.5932, 997.8124
533.0753, 990.6289
533.5574, 982.9470
534.0396, 975.7256
534.5217, 968.9075
535.0038, 962.7680
535.4859, 957.4100
535.9680, 952.7323
536.4501, 948.3642
536.9323, 944.3801
537.4144, 940.5809
537.8965, 936.8210
538.3786, 933.0912
538.8607, 930.0880
539.3428, 927.8455
539.8250, 926.2636
540.3071, 925.6251
540.7892, 925.7892
541.2713, 925.2430
541.7534, 923.5534
542.2355, 921.6503
542.7177, 920.7633
543.1998, 920.7327
543.6819, 921.0837
544.1640, 921.8105
544.6461, 922.6644
545.1282, 923.2832
545.6104, 923.7552
546.0925, 924.6218
546.5746, 926.8864
547.0567, 929.1355
547.5388, 930.1207
548.0209, 928.9196
548.5031, 929.0293
548.9852, 932.0140
549.4673, 936.2609
549.9494, 940.0869
550.4315, 943.4156
550.9136, 946.3114
551.3958, 948.3368
551.8779, 950.0408
552.3600, 953.0546
552.8421, 957.5724
553.3242, 962.7452
553.8063, 968.3214
554.2885, 974.2745
554.7706, 980.1211
555.2527, 985.7578
555.7348, 992.3907
556.2169, 1001.942
556.6990, 1013.250
557.1812, 1023.458
557.6633, 1031.949
558.1454, 1039.953
558.6275, 1048.667
559.1096, 1057.700
559.5917, 1066.555
560.0739, 1074.670
560.5560, 1082.772
561.0381, 1091.371
561.5202, 1100.256
562.0023, 1108.838
562.4844, 1115.975
562.9666, 1123.641
563.4487, 1132.955
563.9308, 1144.389
564.4129, 1154.840
564.8950, 1163.542
565.3771, 1172.079
565.8593, 1181.849
566.3414, 1193.057
566.8235, 1204.888
567.3056, 1217.714
567.7877, 1230.643
568.2698, 1242.166
568.7520, 1252.411
569.2341, 1261.844
569.7162, 1271.086
570.1983, 1279.463
570.6804, 1286.776
571.1625, 1292.687
571.6447, 1295.049
572.1268, 1293.093
572.6089, 1286.588
573.0910, 1274.812
573.5731, 1257.259
574.0552, 1237.250
574.5374, 1215.150
575.0195, 1191.655
575.5016, 1167.332
575.9837, 1140.199
576.4658, 1114.873
576.9479, 1090.787
577.4301, 1068.750
577.9122, 1050.342
578.3943, 1035.974
578.8764, 1024.073
579.3585, 1014.560
579.8406, 1007.195
580.3228, 1000.337
580.8049, 993.9301
581.2870, 988.4056
581.7691, 983.9531
582.2512, 980.6027
582.7333, 978.5092
583.2155, 977.7526
583.6975, 977.6755
584.1796, 977.8719
584.6617, 978.2844
585.1439, 978.7919
585.6260, 979.2957
586.1081, 980.0428
586.5902, 981.1381
587.0723, 982.5997
587.5544, 984.4258
588.0366, 986.5296
588.5187, 989.1031
589.0008, 992.3818
589.4829, 996.3120
589.9650, 1000.019
590.4471, 1003.376
590.9293, 1006.628
591.4114, 1009.761
591.8935, 1012.694
592.3756, 1016.183
592.8577, 1020.421
593.3398, 1024.699
593.8220, 1028.243
594.3041, 1031.153
594.7862, 1034.174
595.2683, 1037.463
595.7504, 1040.915
596.2325, 1044.765
596.7147, 1048.761
597.1968, 1052.156
597.6789, 1054.036
598.1610, 1055.757
598.6431, 1058.425
599.1252, 1061.842
599.6074, 1065.073
600.0895, 1067.608
600.5716, 1070.055
601.0537, 1072.898
601.5358, 1076.418
602.0179, 1078.882
602.5001, 1079.767
602.9822, 1080.102
603.4643, 1080.737
603.9464, 1081.965
604.4285, 1082.271
604.9106, 1081.345
605.3928, 1079.884
605.8749, 1079.420
606.3570, 1079.760
606.8391, 1078.352
607.3212, 1073.860
607.8033, 1067.943
608.2855, 1062.994
608.7676, 1058.781
609.2497, 1054.283
609.7318, 1049.212
610.2139, 1043.459
610.6960, 1036.495
611.1782, 1028.379
611.6603, 1021.174
612.1424, 1016.017
612.6245, 1011.622
613.1066, 1007.218
613.5887, 1002.567
614.0709, 998.2835
614.5530, 994.6121
615.0351, 991.0726
615.5172, 987.0184
615.9993, 982.2166
616.4814, 977.8346
616.9636, 974.0668
617.4457, 970.7645
617.9278, 967.7352
618.4099, 964.9346
618.8920, 961.9820
619.3741, 958.6459
619.8563, 955.0623
620.3384, 951.4901
620.8205, 947.8975
621.3026, 944.1612
621.7847, 939.5219
622.2668, 935.1798
622.7490, 932.5473
623.2311, 931.9442
623.7132, 930.4163
624.1953, 926.1898
624.6774, 921.4716
625.1595, 917.8134
625.6417, 915.8057
626.1238, 913.7894
626.6059, 911.7406
627.0880, 909.7711
627.5701, 907.9421
628.0522, 906.2138
628.5344, 905.1181
629.0165, 904.8760
629.4986, 905.1584
629.9807, 905.5651
630.4628, 906.0062
630.9449, 906.0240
631.4271, 904.7156
631.9092, 903.2844
632.3913, 903.3665
632.8734, 904.6885
633.3555, 905.5627
633.8376, 904.4387
634.3198, 903.1439
634.8019, 902.8955
635.2840, 904.0722
635.7661, 904.8922
636.2482, 905.2919
636.7303, 905.1960
637.2125, 904.3965
637.6946, 902.3455
638.1767, 901.2767
638.6588, 901.4999
639.1409, 902.3506
639.6230, 902.9138
640.1052, 903.2220
640.5873, 903.6647
641.0694, 904.4043
641.5515, 905.2234
642.0336, 905.8765
642.5157, 906.3361
642.9979, 906.5272
643.4800, 905.7295
643.9621, 905.2068
644.4442, 906.2687
644.9263, 908.5948
645.4084, 910.2598
645.8906, 909.7628
646.3727, 909.2259
646.8548, 909.7802
647.3369, 911.6266
647.8190, 913.0031
648.3011, 913.6425
648.7833, 914.2009
649.2654, 915.2187
649.7475, 916.7666
650.2296, 917.9658
650.7117, 918.6774
651.1938, 919.3961
651.6760, 920.9156
652.1581, 922.9575
652.6402, 924.5848
653.1223, 925.4224
653.6044, 926.0381
654.0865, 926.8601
654.5687, 927.8514
655.0508, 928.9450
655.5329, 930.3160
656.0150, 931.5932
656.4971, 932.6262
656.9792, 933.4418
657.4614, 934.2120
657.9435, 935.1066
658.4256, 935.7366
658.9077, 935.9944
659.3898, 935.8771
659.8719, 935.3033
660.3541, 934.1918
660.8362, 932.9980
661.3183, 932.0633
661.8004, 931.3156
662.2825, 930.3489
662.7646, 929.1253
663.2468, 928.0053
663.7289, 927.2672
664.2110, 926.8473
664.6931, 926.6945
665.1752, 926.8824
665.6573, 927.1387
666.1395, 927.4871
666.6216, 927.7987
667.1037, 927.9116
667.5858, 927.9207
668.0679, 927.5217
668.5500, 926.2369
669.0322, 924.7335
669.5143, 924.7532
669.9964, 926.7216
670.4785, 928.0782
670.9606, 927.8761
671.4427, 926.6387
671.9249, 925.5427
672.4070, 924.6293
672.8891, 924.3268
673.3712, 925.6044
673.8533, 927.2067
674.3354, 927.3724
674.8176, 926.2307
675.2997, 925.5158
675.7818, 926.2089
676.2639, 927.5285
