##NAMES=Epidote
##RRUFFID=R100148
##IDEAL CHEMISTRY=Ca_2_Fe^3+^Al_2_(Si_2_O_7_)(SiO_4_)O(OH)
##LOCALITY=Ethiopia
##OWNER=RRUFF
##SOURCE=William W. Pinch
##DESCRIPTION=Single dark green prismatic crystal
##STATUS=The identification of this mineral has been confirmed by single-crystal X-ray diffraction.
##URL=rruff.info/R100148
160.0302, 100.1643
160.5123, 100.1516
160.9945, 100.2192
161.4766, 100.5430
161.9587, 101.3130
162.4408, 102.0906
162.9229, 102.9043
163.4050, 103.7066
163.8871, 104.3998
164.3693, 104.9539
164.8514, 105.4879
165.3335, 106.3031
165.8156, 107.5827
166.2977, 108.8828
166.7798, 110.2898
167.2620, 111.6737
167.7441, 112.8779
168.2262, 113.8689
168.7083, 114.5575
169.1904, 114.5610
169.6725, 113.3096
170.1547, 112.5132
170.6368, 113.1739
171.1189, 114.9242
171.6010, 116.5754
172.0831, 117.8010
172.5652, 118.3696
173.0474, 118.0990
173.5295, 116.8143
174.0116, 115.0421
174.4937, 113.0307
174.9758, 110.7771
175.4579, 108.6179
175.9401, 106.7578
176.4222, 105.0429
176.9043, 103.3532
177.3864, 101.6943
177.8685, 99.97166
178.3506, 97.94556
178.8328, 95.44058
179.3149, 93.26255
179.7970, 91.70966
180.2791, 90.57089
180.7612, 89.76271
181.2433, 89.27707
181.7255, 88.99935
182.2076, 88.66332
182.6897, 88.13034
183.1718, 87.81330
183.6539, 87.67834
184.1360, 87.79773
184.6181, 88.28821
185.1003, 89.21828
185.5824, 90.48306
186.0645, 91.69682
186.5466, 92.70552
187.0287, 93.86823
187.5108, 95.41856
187.9930, 97.08961
188.4751, 98.59964
188.9572, 99.79660
189.4393, 100.6569
189.9214, 100.9975
190.4035, 100.5991
190.8857, 99.92881
191.3678, 99.05868
191.8499, 97.97395
192.3320, 96.56893
192.8141, 94.72847
193.2962, 92.55178
193.7784, 90.80463
194.2605, 89.47092
194.7426, 88.45283
195.2247, 87.78672
195.7068, 87.42067
196.1889, 87.22114
196.6711, 87.12332
197.1532, 87.13129
197.6353, 87.22021
198.1174, 87.49724
198.5995, 87.74892
199.0816, 87.61921
199.5638, 87.22236
200.0459, 87.36487
200.5280, 88.78825
201.0101, 91.05472
201.4922, 92.73016
201.9743, 93.37939
202.4565, 93.82549
202.9386, 94.85279
203.4207, 96.48374
203.9028, 97.96941
204.3849, 98.73719
204.8670, 99.15797
205.3492, 99.77660
205.8313, 100.8238
206.3134, 101.9289
206.7955, 102.6578
207.2776, 102.9924
207.7597, 103.0293
208.2419, 102.6447
208.7240, 102.0440
209.2061, 101.3673
209.6882, 100.6125
210.1703, 99.89466
210.6524, 99.46743
211.1346, 99.49598
211.6167, 99.39071
212.0988, 98.86158
212.5809, 98.16970
213.0630, 97.48901
213.5451, 96.85771
214.0273, 96.41131
214.5094, 96.56738
214.9915, 97.94193
215.4736, 98.78372
215.9557, 98.36427
216.4378, 97.51096
216.9200, 96.98707
217.4021, 97.12892
217.8842, 97.83260
218.3663, 98.86218
218.8484, 100.7600
219.3305, 102.1763
219.8127, 102.5385
220.2948, 102.5538
220.7769, 102.9556
221.2590, 104.0779
221.7411, 105.7425
222.2232, 107.4344
222.7054, 109.5172
223.1875, 111.1529
223.6696, 111.8168
224.1517, 112.1800
224.6338, 113.0012
225.1159, 114.6211
225.5980, 116.8441
226.0802, 119.1186
226.5623, 121.1611
227.0444, 123.6006
227.5265, 126.8251
228.0086, 130.3778
228.4907, 133.6308
228.9729, 136.3158
229.4550, 138.6178
229.9371, 140.9707
230.4192, 143.5400
230.9013, 145.9074
231.3834, 148.0429
231.8656, 149.9228
232.3477, 151.5882
232.8298, 153.0965
233.3119, 154.2301
233.7940, 154.3923
234.2761, 153.4741
234.7583, 152.1714
235.2404, 150.4618
235.7225, 148.5072
236.2046, 146.5291
236.6867, 144.5422
237.1688, 142.6776
237.6510, 141.1201
238.1331, 139.8077
238.6152, 138.8705
239.0973, 138.5789
239.5794, 138.6815
240.0615, 138.5590
240.5437, 137.8935
241.0258, 137.2881
241.5079, 137.6314
241.9900, 138.8874
242.4721, 140.2429
242.9542, 141.1308
243.4364, 141.8566
243.9185, 143.3365
244.4006, 146.0764
244.8827, 148.9969
245.3648, 151.0180
245.8469, 152.2395
246.3290, 153.1896
246.8112, 154.2553
247.2933, 155.2578
247.7754, 155.6301
248.2575, 155.1511
248.7396, 154.2367
249.2217, 153.2068
249.7039, 152.0592
250.1860, 150.7699
250.6681, 149.3596
251.1502, 147.8063
251.6323, 145.9482
252.1144, 143.5750
252.5966, 141.2440
253.0787, 139.2403
253.5608, 137.5178
254.0429, 135.9608
254.5250, 134.5763
255.0071, 133.3196
255.4893, 131.9575
255.9714, 130.2730
256.4535, 128.8681
256.9356, 128.1222
257.4177, 127.7682
257.8998, 127.3651
258.3820, 126.6552
258.8641, 125.7343
259.3462, 124.9296
259.8283, 124.2356
260.3104, 123.6878
260.7925, 123.2122
261.2747, 122.8758
261.7568, 122.8163
262.2389, 123.1595
262.7210, 123.7130
263.2031, 123.8310
263.6852, 122.9122
264.1674, 122.6278
264.6495, 123.4487
265.1316, 124.9525
265.6137, 126.6812
266.0958, 128.4288
266.5779, 130.3495
267.0601, 132.8125
267.5422, 135.9237
268.0243, 139.4504
268.5064, 143.0178
268.9885, 147.0668
269.4706, 151.9586
269.9528, 157.8231
270.4349, 164.5497
270.9170, 172.0126
271.3991, 180.4887
271.8812, 189.1223
272.3633, 197.8284
272.8455, 206.6324
273.3276, 216.0137
273.8097, 225.9097
274.2918, 235.1362
274.7739, 242.0040
275.2560, 246.5704
275.7382, 248.2569
276.2202, 247.1862
276.7024, 243.8560
277.1845, 238.1437
277.6666, 230.2581
278.1487, 220.9787
278.6308, 211.0177
279.1129, 199.8300
279.5951, 189.9901
280.0772, 181.7380
280.5593, 174.3138
281.0414, 167.2717
281.5235, 160.6401
282.0056, 154.7547
282.4878, 149.9688
282.9699, 146.3364
283.4520, 143.3270
283.9341, 141.3350
284.4162, 139.4697
284.8983, 137.1870
285.3805, 134.6984
285.8626, 132.6517
286.3447, 131.5979
286.8268, 131.5204
287.3089, 131.1510
287.7910, 130.1863
288.2732, 129.2829
288.7553, 128.6155
289.2374, 128.1499
289.7195, 127.8239
290.2016, 127.6122
290.6837, 127.4820
291.1659, 127.2403
291.6480, 126.9013
292.1301, 126.4356
292.6122, 125.6482
293.0943, 124.7766
293.5764, 124.1960
294.0586, 124.0848
294.5407, 124.2451
295.0228, 124.1405
295.5049, 123.2415
295.9870, 122.7268
296.4691, 123.0138
296.9513, 123.5437
297.4334, 123.5951
297.9155, 122.9563
298.3976, 122.1741
298.8797, 122.1958
299.3618, 123.7361
299.8440, 124.7717
300.3261, 125.0326
300.8082, 124.9651
301.2903, 124.8570
301.7724, 124.7888
302.2545, 124.7867
302.7367, 124.8905
303.2188, 125.1374
303.7009, 125.3507
304.1830, 125.4734
304.6651, 125.6113
305.1472, 126.0440
305.6294, 126.6483
306.1115, 126.8242
306.5936, 125.9619
307.0757, 123.9727
307.5578, 122.6381
308.0399, 122.4981
308.5221, 122.3507
309.0042, 121.5878
309.4863, 120.3764
309.9684, 119.2409
310.4505, 118.5295
310.9326, 118.1721
311.4148, 117.7060
311.8969, 117.0799
312.3790, 116.4222
312.8611, 115.6207
313.3432, 114.8340
313.8253, 114.3226
314.3075, 114.2153
314.7896, 114.4023
315.2717, 114.6211
315.7538, 115.2260
316.2359, 115.3447
316.7180, 114.6151
317.2001, 113.4936
317.6823, 112.4848
318.1644, 111.7293
318.6465, 111.0251
319.1286, 110.0537
319.6107, 108.6434
320.0928, 107.3784
320.5750, 106.4556
321.0571, 105.5324
321.5392, 104.1789
322.0213, 102.4356
322.5034, 100.8524
322.9855, 100.0039
323.4677, 99.98981
323.9498, 100.0742
324.4319, 100.5066
324.9140, 100.7937
325.3961, 100.4162
325.8782, 99.62807
326.3604, 99.23002
326.8425, 99.83933
327.3246, 101.3443
327.8067, 102.4852
328.2888, 102.9952
328.7709, 103.5040
329.2531, 104.0770
329.7352, 104.7691
330.2173, 105.6327
330.6994, 106.6892
331.1815, 107.9614
331.6636, 109.5293
332.1458, 112.0717
332.6279, 114.0587
333.1100, 115.3798
333.5921, 116.1493
334.0742, 116.2400
334.5563, 115.6841
335.0385, 115.0738
335.5206, 115.3312
336.0027, 117.0642
336.4848, 118.0963
336.9669, 118.5172
337.4490, 118.2698
337.9312, 116.9321
338.4133, 114.7295
338.8954, 112.6247
339.3775, 111.5689
339.8596, 111.6843
340.3417, 111.2841
340.8239, 109.7051
341.3060, 108.3686
341.7881, 107.7438
342.2702, 107.7478
342.7523, 108.1852
343.2344, 108.9596
343.7166, 109.9992
344.1987, 110.9491
344.6808, 110.9165
345.1629, 111.8783
345.6450, 114.5592
346.1271, 118.1008
346.6093, 121.6396
347.0914, 124.8200
347.5735, 127.7733
348.0556, 130.6627
348.5377, 133.3881
349.0198, 136.2667
349.5020, 140.1120
349.9841, 143.5073
350.4662, 145.4600
350.9483, 145.8752
351.4304, 145.2667
351.9125, 144.1448
352.3947, 142.5167
352.8768, 140.3270
353.3589, 137.1819
353.8410, 133.8801
354.3231, 130.7022
354.8052, 127.5881
355.2874, 124.2908
355.7695, 120.6053
356.2516, 116.6650
356.7337, 113.1545
357.2158, 110.2992
357.6979, 107.6125
358.1800, 104.9362
358.6621, 102.3923
359.1443, 100.1199
359.6264, 98.16074
360.1085, 96.50373
360.5906, 95.13246
361.0727, 94.10555
361.5548, 93.22526
362.0370, 92.57459
362.5191, 91.97713
363.0012, 91.22501
363.4833, 90.35190
363.9654, 89.68336
364.4475, 89.70702
364.9297, 90.49368
365.4118, 90.76721
365.8939, 90.14395
366.3760, 89.38918
366.8581, 88.61414
367.3402, 87.95068
367.8224, 87.66031
368.3045, 88.02125
368.7866, 88.75877
369.2687, 89.00988
369.7508, 88.51415
370.2329, 88.10339
370.7151, 88.32404
371.1972, 88.63741
371.6793, 88.50122
372.1614, 87.74587
372.6435, 86.63502
373.1256, 85.41239
373.6078, 84.06680
374.0899, 82.80320
374.5720, 81.64543
375.0541, 80.61182
375.5362, 79.79990
376.0183, 79.16991
376.5005, 78.43238
376.9826, 77.11804
377.4647, 75.50034
377.9468, 74.66003
378.4289, 74.91171
378.9110, 75.39291
379.3932, 75.59344
379.8753, 75.59917
380.3574, 75.53694
380.8395, 75.29832
381.3216, 75.14510
381.8037, 75.41624
382.2859, 76.11649
382.7680, 77.00735
383.2501, 78.04150
383.7322, 79.18607
384.2143, 80.35274
384.6964, 81.49535
385.1786, 82.79892
385.6607, 84.29099
386.1428, 86.01179
386.6249, 88.18670
387.1070, 90.99426
387.5891, 93.88412
388.0713, 96.07670
388.5534, 97.64593
389.0355, 99.54048
389.5176, 102.1785
389.9997, 105.0883
390.4818, 107.9580
390.9640, 110.7435
391.4461, 113.1518
391.9282, 115.0389
392.4103, 116.3404
392.8924, 116.9689
393.3745, 117.1408
393.8567, 116.4791
394.3388, 114.5068
394.8209, 111.6284
395.3030, 108.6049
395.7851, 105.6752
396.2672, 102.7998
396.7494, 99.85526
397.2315, 96.74592
397.7136, 93.83287
398.1957, 91.07447
398.6778, 88.53001
399.1599, 86.30991
399.6420, 84.38387
400.1241, 82.52383
400.6063, 80.49132
401.0884, 78.25964
401.5705, 76.55708
402.0526, 75.44594
402.5347, 74.70470
403.0168, 74.46141
403.4990, 74.50542
403.9811, 74.51785
404.4632, 74.34492
404.9453, 74.08860
405.4274, 73.97372
405.9095, 73.84185
406.3917, 74.16680
406.8738, 75.20753
407.3559, 76.47452
407.8380, 77.59657
408.3201, 78.55052
408.8022, 79.59124
409.2844, 81.02326
409.7665, 82.87216
410.2486, 84.60728
410.7307, 86.04982
411.2128, 87.56678
411.6949, 89.11230
412.1771, 90.83181
412.6592, 92.97216
413.1413, 95.68543
413.6234, 98.77940
414.1055, 101.7278
414.5876, 104.2550
415.0698, 107.5370
415.5519, 112.2803
416.0340, 117.5852
416.5161, 122.7657
416.9982, 127.8043
417.4803, 133.2899
417.9625, 139.6126
418.4446, 146.7773
418.9267, 155.0813
419.4088, 164.7244
419.8909, 175.1524
420.3730, 185.7370
420.8552, 196.7395
421.3373, 208.7342
421.8194, 222.2813
422.3015, 236.5014
422.7836, 250.7260
423.2657, 264.9132
423.7479, 278.0757
424.2300, 289.9215
424.7121, 300.3077
425.1942, 309.6378
425.6763, 318.1760
426.1584, 324.4175
426.6406, 327.8366
427.1227, 328.5119
427.6048, 326.2228
428.0869, 320.8300
428.5690, 313.6590
429.0511, 305.6299
429.5333, 296.6909
430.0154, 287.8312
430.4975, 278.9598
430.9796, 270.2395
431.4617, 261.6269
431.9438, 253.2689
432.4260, 245.3559
432.9081, 237.9660
433.3902, 231.3085
433.8723, 225.9507
434.3544, 222.4648
434.8365, 219.4492
435.3187, 217.0278
435.8008, 214.9459
436.2829, 212.7837
436.7650, 210.6349
437.2471, 209.1904
437.7292, 209.1385
438.2114, 210.5071
438.6935, 212.1882
439.1756, 214.4962
439.6577, 216.7796
440.1398, 218.6633
440.6219, 220.5067
441.1040, 222.7868
441.5862, 225.6951
442.0683, 229.0599
442.5504, 232.5209
443.0325, 235.9934
443.5146, 239.8658
443.9967, 244.1918
444.4789, 248.9076
444.9610, 254.0560
445.4431, 259.5634
445.9252, 265.2973
446.4073, 271.0085
446.8894, 276.8430
447.3716, 283.3238
447.8537, 290.3951
448.3358, 298.2497
448.8179, 307.8295
449.3000, 317.9065
449.7821, 327.2370
450.2643, 335.5570
450.7464, 343.1741
451.2285, 350.3529
451.7106, 357.0663
452.1927, 362.9755
452.6748, 368.0073
453.1570, 372.1721
453.6391, 375.1078
454.1212, 377.0576
454.6033, 378.9820
455.0854, 381.5844
455.5675, 383.8853
456.0497, 385.0530
456.5318, 385.1148
457.0139, 384.3277
457.4960, 382.6631
457.9781, 380.4218
458.4602, 378.4514
458.9424, 377.1905
459.4245, 375.2716
459.9066, 372.2486
460.3887, 368.5758
460.8708, 364.8300
461.3529, 361.0375
461.8351, 356.6118
462.3172, 350.8255
462.7993, 343.6441
463.2814, 337.2222
463.7635, 332.5135
464.2456, 327.4167
464.7278, 321.2672
465.2099, 314.4054
465.6920, 307.3151
466.1741, 300.1550
466.6562, 292.9170
467.1383, 285.5858
467.6205, 278.0787
468.1026, 270.5354
468.5847, 262.8651
469.0668, 255.2368
469.5489, 247.6930
470.0310, 240.2633
470.5132, 233.0689
470.9953, 226.1481
471.4774, 219.5330
471.9595, 213.3779
472.4416, 207.8136
472.9237, 202.2533
473.4059, 196.4167
473.8880, 190.5668
474.3701, 184.9337
474.8522, 179.5770
475.3343, 174.3599
475.8164, 169.0966
476.2986, 163.9534
476.7807, 159.3931
477.2628, 155.5883
477.7449, 151.8105
478.2270, 147.4204
478.7091, 142.5884
479.1913, 138.1064
479.6734, 133.9629
480.1555, 130.2392
480.6376, 126.9628
481.1197, 124.1428
481.6018, 121.8756
482.0839, 120.2162
482.5660, 118.8291
483.0482, 117.2210
483.5303, 115.2624
484.0124, 113.5991
484.4945, 112.4109
484.9766, 111.3331
485.4587, 110.2077
485.9409, 109.0259
486.4230, 107.7788
486.9051, 106.4407
487.3872, 105.1255
487.8693, 104.1545
488.3514, 103.4570
488.8336, 103.2687
489.3157, 104.2121
489.7978, 105.1116
490.2799, 105.0662
490.7620, 104.1478
491.2441, 103.1109
491.7263, 102.5874
492.2084, 102.4466
492.6905, 101.9856
493.1726, 100.9622
493.6547, 100.2073
494.1368, 100.3389
494.6190, 100.7823
495.1011, 100.8848
495.5832, 100.4691
496.0653, 100.2264
496.5474, 100.8383
497.0295, 102.0428
497.5117, 103.0042
497.9938, 103.5395
498.4759, 104.0849
498.9580, 104.9729
499.4401, 106.1918
499.9222, 107.5983
500.4044, 109.2008
500.8865, 110.9726
501.3686, 112.9800
501.8507, 115.1448
502.3328, 117.3375
502.8149, 119.5068
503.2971, 121.6996
503.7792, 123.9754
504.2613, 126.3723
504.7434, 128.7955
505.2255, 131.5508
505.7076, 134.0313
506.1898, 136.0479
506.6719, 137.5608
507.1540, 138.5310
507.6361, 138.9398
508.1182, 138.8089
508.6003, 138.1336
509.0825, 136.7333
509.5646, 135.2682
510.0467, 133.9111
510.5288, 132.4148
511.0109, 130.6201
511.4930, 128.5496
511.9752, 126.3242
512.4573, 123.9993
512.9394, 121.5787
513.4215, 119.1539
513.9036, 116.7852
514.3857, 113.9333
514.8679, 109.9958
515.3500, 105.7302
515.8321, 102.1434
516.3142, 99.31246
516.7963, 96.63590
517.2784, 93.58833
517.7606, 90.65459
518.2427, 88.49646
518.7248, 87.16729
519.2069, 86.45116
519.6890, 86.32022
520.1711, 86.64502
520.6533, 86.78491
521.1354, 86.15693
521.6175, 86.14046
522.0996, 87.55582
522.5817, 89.34604
523.0638, 90.41187
523.5460, 90.60471
524.0281, 90.52772
524.5102, 90.79536
524.9923, 91.38378
525.4744, 91.41130
525.9565, 90.86277
526.4387, 89.69994
526.9208, 87.66001
527.4029, 85.17005
527.8850, 82.64451
528.3671, 80.19389
528.8492, 77.72708
529.3314, 75.12666
529.8135, 72.41415
530.2956, 69.68907
530.7777, 66.80807
531.2598, 64.24483
531.7419, 62.36916
532.2241, 60.99569
532.7062, 59.86991
533.1883, 58.99397
533.6704, 58.27358
534.1525, 57.70736
534.6346, 57.24002
535.1168, 56.69689
535.5989, 56.02448
536.0810, 55.42597
536.5631, 55.11083
537.0452, 55.09404
537.5273, 55.16154
538.0095, 55.46914
538.4916, 55.67989
538.9737, 55.53698
539.4558, 55.26335
539.9379, 55.19299
540.4200, 55.43230
540.9022, 55.85085
541.3843, 56.30996
541.8664, 56.86174
542.3485, 57.15620
542.8306, 56.86521
543.3127, 56.66599
543.7948, 56.74248
544.2769, 57.05522
544.7590, 57.54662
545.2411, 58.20557
545.7233, 58.96726
546.2054, 59.71607
546.6875, 60.46629
547.1696, 61.36234
547.6517, 62.35706
548.1339, 63.62672
548.6160, 65.60445
549.0981, 68.00590
549.5802, 70.03384
550.0623, 71.24702
550.5444, 72.34830
551.0266, 73.76999
551.5087, 75.42674
551.9908, 77.12233
552.4729, 78.79602
552.9550, 80.53006
553.4371, 82.42580
553.9193, 84.50898
554.4014, 86.65769
554.8835, 88.67195
555.3656, 90.95866
555.8477, 93.74978
556.3298, 96.89596
556.8120, 100.1200
557.2941, 103.3412
557.7762, 106.6795
558.2583, 110.2904
558.7404, 114.1315
559.2225, 118.3718
559.7047, 122.4816
560.1868, 127.7380
560.6689, 134.7458
561.1510, 143.1412
561.6331, 152.3031
562.1152, 161.8622
562.5974, 172.5900
563.0795, 185.2012
563.5616, 199.5742
564.0437, 215.4830
564.5258, 233.1578
565.0079, 251.4821
565.4901, 269.9442
565.9722, 288.3554
566.4543, 304.8568
566.9364, 321.1659
567.4185, 333.6523
567.9006, 341.8096
568.3828, 344.9636
568.8649, 341.8764
569.3470, 332.4277
569.8291, 317.9534
570.3112, 299.6176
570.7933, 277.1105
571.2755, 255.0226
571.7576, 232.2448
572.2397, 211.3054
572.7218, 192.6072
573.2039, 175.9918
573.6860, 161.3152
574.1682, 148.4681
574.6503, 137.2992
575.1324, 127.7190
575.6145, 119.6878
576.0966, 113.1864
576.5787, 108.4203
577.0609, 104.3839
577.5430, 100.4501
578.0251, 96.92728
578.5072, 94.49123
578.9893, 93.51509
579.4714, 92.81516
579.9536, 91.90652
580.4357, 91.04662
580.9178, 90.53246
581.3999, 90.40282
581.8820, 90.53145
582.3641, 90.79556
582.8463, 91.26323
583.3284, 92.35017
583.8105, 94.78478
584.2926, 96.79750
584.7747, 97.74608
585.2568, 98.63908
585.7390, 100.2876
586.2211, 102.6748
586.7032, 105.2146
587.1853, 107.3543
587.6674, 109.4470
588.1495, 112.6832
588.6317, 117.3465
589.1138, 121.4073
589.5959, 124.0181
590.0780, 125.9264
590.5601, 127.8543
591.0422, 129.8050
591.5244, 132.1452
592.0065, 135.3396
592.4886, 138.6870
592.9707, 141.1155
593.4528, 143.0467
593.9349, 146.0674
594.4171, 150.9128
594.8992, 156.8083
595.3813, 162.4324
595.8634, 167.5865
596.3455, 173.0930
596.8276, 179.0319
597.3098, 185.1775
597.7919, 191.6569
598.2740, 198.2419
598.7561, 204.6780
599.2382, 210.8849
599.7203, 216.6685
600.2025, 221.8757
600.6846, 226.5202
601.1667, 230.4466
601.6488, 233.8449
602.1309, 236.0879
602.6130, 236.4759
603.0952, 235.4121
603.5773, 233.5613
604.0594, 231.1433
604.5415, 227.6870
605.0236, 222.6974
605.5057, 216.5952
605.9879, 209.8041
606.4700, 202.4960
606.9521, 195.1940
607.4342, 188.3700
607.9163, 181.9756
608.3984, 175.5273
608.8806, 168.8037
609.3627, 162.3719
609.8448, 156.0392
610.3269, 150.1848
610.8090, 145.2881
611.2911, 141.2193
611.7733, 137.3074
612.2554, 133.0941
612.7375, 128.7197
613.2196, 124.2956
613.7017, 119.7210
614.1838, 116.0437
614.6660, 114.1236
615.1481, 112.5497
615.6302, 109.3843
616.1123, 104.7572
616.5944, 100.7620
617.0765, 98.26967
617.5587, 96.12259
618.0408, 93.63103
618.5229, 90.87852
619.0050, 88.03158
619.4871, 85.15639
619.9692, 82.43467
620.4514, 80.16683
620.9335, 78.43968
621.4156, 76.42712
621.8977, 73.62399
622.3798, 71.13542
622.8619, 69.41375
623.3441, 68.07395
623.8262, 66.71956
624.3083, 65.25726
624.7904, 63.74186
625.2725, 62.10923
625.7546, 60.47737
626.2367, 59.25651
626.7188, 58.50106
627.2009, 57.73279
627.6830, 56.69379
628.1652, 55.48866
628.6473, 54.27967
629.1294, 52.92488
629.6115, 51.99932
630.0936, 51.96889
630.5757, 52.06498
631.0579, 51.75861
631.5400, 51.09642
632.0221, 50.28740
632.5042, 49.43339
632.9863, 48.63235
633.4684, 48.12872
633.9506, 48.02352
634.4327, 47.69088
634.9148, 46.90979
635.3969, 46.13920
635.8790, 45.58198
636.3611, 45.19265
636.8433, 44.91354
637.3254, 44.77002
637.8075, 44.60971
638.2896, 44.35901
638.7717, 44.00694
639.2538, 43.44320
639.7360, 42.66948
640.2181, 42.02083
640.7002, 41.74055
641.1823, 41.76473
641.6644, 41.83360
642.1465, 42.04899
642.6287, 42.16579
643.1108, 42.22298
643.5929, 42.14676
644.0750, 41.79228
644.5571, 41.25912
645.0392, 40.81690
645.5214, 40.63249
646.0035, 40.56149
646.4856, 40.25184
646.9677, 39.70631
647.4498, 39.68625
647.9319, 40.56268
648.4141, 41.49568
648.8962, 41.74366
649.3783, 41.46667
649.8604, 41.25305
650.3425, 41.04942
650.8246, 41.04843
651.3068, 41.47959
651.7889, 42.07518
652.2710, 42.45932
652.7531, 42.61822
653.2352, 42.85921
653.7173, 43.44639
654.1995, 44.26648
654.6816, 44.83601
655.1637, 45.04039
655.6458, 45.26431
656.1279, 45.45493
656.6100, 45.78172
657.0922, 46.41941
657.5743, 47.29333
658.0564, 48.14589
658.5385, 48.92191
