##NAMES=Epidote
##RRUFFID=R050191
##IDEAL CHEMISTRY=Ca_2_Fe^3+^Al_2_(Si_2_O_7_)(SiO_4_)O(OH)
##LOCALITY=Pampa Blanca, Castrovirreyna Province, Huancavelica Department, Peru
##OWNER=RRUFF
##SOURCE=Dave Bunk Minerals
##DESCRIPTION=Cluster of green elongated prismatic crystals
##STATUS=The identification of this mineral has been confirmed by X-ray diffraction and chemical analysis
##URL=rruff.info/R050191
##MEASURED CHEMISTRY=Ca_2.00_Al_2.00_(Fe^3+^_0.84_Al_0.16_)(SiO_4_)(Si_2_O_7_)O(OH)
92.81116, 0.0000000E+00
93.29327, 0.0000000E+00
93.77539, 5.203741
94.25751, 5.126906
94.73962, 5.156884
95.22174, 5.280673
95.70386, 5.451902
96.18597, 5.670349
96.66809, 5.923997
97.15021, 6.140731
97.63232, 6.295887
98.11444, 6.520434
98.59656, 7.072522
99.07867, 7.963624
99.56079, 8.780640
100.0429, 9.237354
100.5250, 9.324308
101.0071, 9.623557
101.4893, 10.13290
101.9714, 10.87855
102.4535, 11.99614
102.9356, 13.64639
103.4177, 15.24249
103.8998, 16.38350
104.3820, 16.88611
104.8641, 17.54962
105.3462, 18.50314
105.8283, 19.67706
106.3104, 20.74423
106.7925, 21.68479
107.2747, 22.52962
107.7568, 23.29418
108.2389, 24.06338
108.7210, 24.63458
109.2031, 24.84957
109.6852, 24.67321
110.1674, 24.86025
110.6495, 25.53059
111.1316, 26.51485
111.6137, 27.66453
112.0958, 29.00500
112.5779, 30.49839
113.0601, 32.12479
113.5422, 33.88293
114.0243, 35.85481
114.5064, 38.41775
114.9885, 41.09624
115.4706, 43.33152
115.9528, 44.48226
116.4349, 45.54980
116.9170, 46.95015
117.3991, 48.85820
117.8812, 50.78946
118.3633, 52.69717
118.8455, 54.51149
119.3276, 56.08885
119.8097, 57.25716
120.2918, 58.25377
120.7739, 59.18360
121.2560, 59.90671
121.7382, 60.88837
122.2203, 62.60912
122.7024, 64.88346
123.1845, 67.09118
123.6666, 68.84151
124.1487, 70.32917
124.6309, 71.75632
125.1130, 72.85587
125.5951, 74.22915
126.0772, 76.42558
126.5593, 79.43028
127.0414, 83.10857
127.5236, 87.60190
128.0057, 92.67738
128.4878, 97.93034
128.9699, 102.8277
129.4520, 107.9643
129.9341, 114.5140
130.4162, 122.5164
130.8984, 131.0287
131.3805, 139.5668
131.8626, 147.9842
132.3447, 155.5519
132.8268, 162.3156
133.3089, 168.0479
133.7911, 171.3186
134.2732, 171.6277
134.7553, 169.3725
135.2374, 164.9485
135.7195, 158.3615
136.2016, 151.3945
136.6838, 144.7576
137.1659, 138.4661
137.6480, 131.8658
138.1301, 124.6400
138.6122, 117.4979
139.0943, 111.6400
139.5765, 107.1895
140.0586, 103.3153
140.5407, 99.55687
141.0228, 95.79597
141.5049, 92.60368
141.9870, 90.00723
142.4692, 87.90205
142.9513, 86.01014
143.4334, 84.16890
143.9155, 82.79006
144.3976, 82.13588
144.8797, 82.47972
145.3619, 82.86740
145.8440, 83.20214
146.3261, 83.52280
146.8082, 84.05616
147.2903, 85.16333
147.7724, 86.10209
148.2546, 86.39824
148.7367, 85.50144
149.2188, 84.77969
149.7009, 84.26024
150.1830, 83.95049
150.6651, 84.16307
151.1473, 85.19827
151.6294, 86.56282
152.1115, 87.89733
152.5936, 88.96947
153.0757, 90.26269
153.5578, 91.92184
154.0400, 93.95650
154.5221, 95.88068
155.0042, 97.55268
155.4863, 99.16966
155.9684, 100.9007
156.4505, 102.6552
156.9327, 104.6462
157.4148, 107.0647
157.8969, 109.9671
158.3790, 112.6259
158.8611, 114.6837
159.3432, 116.5194
159.8254, 118.5650
160.3075, 120.9125
160.7896, 123.4984
161.2717, 126.3981
161.7538, 129.6984
162.2359, 132.8520
162.7181, 135.3473
163.2002, 137.6548
163.6823, 140.4270
164.1644, 144.0393
164.6465, 148.0730
165.1286, 152.3137
165.6108, 156.7500
166.0929, 161.3943
166.5750, 166.3313
167.0571, 171.5065
167.5392, 176.8222
168.0213, 181.9588
168.5035, 187.3743
168.9856, 193.4934
169.4677, 200.5597
169.9498, 207.8452
170.4319, 215.2031
170.9140, 222.4577
171.3962, 229.1155
171.8783, 235.2121
172.3604, 240.4559
172.8425, 244.7150
173.3246, 248.2846
173.8067, 250.1554
174.2889, 249.2583
174.7710, 245.9146
175.2531, 241.0787
175.7352, 235.0013
176.2173, 227.9311
176.6994, 220.0793
177.1816, 211.1137
177.6637, 202.0107
178.1458, 193.7247
178.6279, 186.1411
179.1100, 179.1316
179.5921, 172.5819
180.0743, 166.4458
180.5564, 160.6930
181.0385, 155.1472
181.5206, 150.1096
182.0027, 146.0468
182.4848, 142.9386
182.9670, 140.6378
183.4491, 139.1375
183.9312, 138.3468
184.4133, 138.0494
184.8954, 138.2437
185.3775, 138.8428
185.8596, 139.8222
186.3418, 141.1718
186.8239, 142.5596
187.3060, 143.8533
187.7881, 145.0064
188.2702, 145.8184
188.7523, 146.4754
189.2345, 146.6134
189.7166, 145.3084
190.1987, 142.5249
190.6808, 138.8313
191.1629, 134.2469
191.6451, 128.9355
192.1272, 124.2732
192.6093, 120.6516
193.0914, 117.8451
193.5735, 115.0825
194.0556, 112.3036
194.5378, 109.8059
195.0199, 107.9620
195.5020, 106.7472
195.9841, 105.6526
196.4662, 104.4322
196.9483, 103.2519
197.4305, 102.9512
197.9126, 103.6463
198.3947, 104.6818
198.8768, 105.3242
199.3589, 105.5461
199.8410, 106.0067
200.3232, 106.8720
200.8053, 108.1030
201.2874, 109.5920
201.7695, 111.4064
202.2516, 113.2470
202.7337, 114.8591
203.2159, 116.2352
203.6980, 117.3346
204.1801, 118.1377
204.6622, 118.6527
205.1443, 118.8903
205.6264, 118.7708
206.1086, 118.5696
206.5907, 118.6709
207.0728, 119.1954
207.5549, 119.3640
208.0370, 118.8119
208.5191, 117.6116
209.0013, 117.0675
209.4834, 117.3553
209.9655, 117.9642
210.4476, 118.3098
210.9297, 118.2621
211.4118, 118.4309
211.8940, 118.9464
212.3761, 119.8068
212.8582, 120.9300
213.3403, 122.3099
213.8224, 123.9714
214.3045, 125.9981
214.7867, 128.5757
215.2688, 130.9966
215.7509, 133.0440
216.2330, 134.7049
216.7151, 136.6137
217.1972, 138.6928
217.6794, 141.1351
218.1615, 144.1693
218.6436, 147.9931
219.1257, 151.9624
219.6078, 155.8596
220.0899, 159.7148
220.5721, 163.6833
221.0542, 167.6464
221.5363, 171.8239
222.0184, 176.3064
222.5005, 180.9423
222.9826, 186.3511
223.4648, 192.6533
223.9469, 199.9379
224.4290, 207.4253
224.9111, 215.3255
225.3932, 223.2609
225.8753, 230.9704
226.3575, 238.2606
226.8396, 245.6476
227.3217, 253.1801
227.8038, 260.9645
228.2859, 268.3986
228.7680, 275.8246
229.2502, 282.5201
229.7323, 287.7523
230.2144, 291.6510
230.6965, 293.9224
231.1786, 294.4248
231.6607, 293.1617
232.1429, 290.6839
232.6250, 286.6960
233.1071, 281.8309
233.5892, 276.6539
234.0713, 271.0933
234.5534, 265.3548
235.0356, 259.2301
235.5177, 252.8107
235.9998, 247.4055
236.4819, 243.0927
236.9640, 239.6348
237.4461, 236.7592
237.9283, 234.1626
238.4104, 232.7912
238.8925, 233.1576
239.3746, 235.1669
239.8567, 236.6962
240.3388, 237.4000
240.8210, 238.0398
241.3031, 239.1999
241.7852, 241.0024
242.2673, 243.1131
242.7494, 245.8222
243.2315, 248.9948
243.7137, 250.9836
244.1958, 251.7407
244.6779, 251.4082
245.1600, 250.1008
245.6421, 247.9112
246.1242, 244.4994
246.6064, 239.3926
247.0885, 232.8862
247.5706, 226.9870
248.0527, 221.9125
248.5348, 217.2288
249.0169, 212.7336
249.4990, 208.3756
249.9812, 204.2187
250.4633, 200.0172
250.9454, 195.9907
251.4275, 193.2469
251.9096, 192.1994
252.3917, 191.8673
252.8739, 191.7105
253.3560, 191.6469
253.8381, 191.9856
254.3202, 192.9512
254.8023, 194.3172
255.2844, 195.2670
255.7666, 195.8123
256.2487, 195.9190
256.7308, 195.5992
257.2129, 194.9496
257.6950, 193.6044
258.1772, 191.5106
258.6593, 188.7306
259.1414, 185.3107
259.6235, 181.0124
260.1056, 176.4782
260.5877, 171.8317
261.0699, 166.9674
261.5520, 162.4643
262.0341, 158.3161
262.5162, 154.5455
262.9983, 151.1253
263.4804, 148.1460
263.9626, 145.3673
264.4447, 142.6583
264.9268, 139.9077
265.4089, 137.5950
265.8910, 135.6219
266.3731, 134.1582
266.8553, 133.5405
267.3374, 133.9669
267.8195, 134.7158
268.3016, 135.5446
268.7837, 136.4606
269.2658, 137.4433
269.7480, 138.3501
270.2301, 139.5158
270.7122, 141.4304
271.1943, 144.1728
271.6764, 147.3625
272.1585, 150.9203
272.6407, 154.8439
273.1228, 158.7295
273.6049, 162.5733
274.0870, 166.3146
274.5691, 170.1999
275.0512, 174.4751
275.5334, 177.5142
276.0155, 178.8806
276.4976, 178.6165
276.9797, 177.1872
277.4618, 174.6097
277.9439, 170.8286
278.4260, 165.4452
278.9081, 158.3202
279.3903, 151.2305
279.8724, 144.4718
280.3545, 138.1435
280.8366, 132.3685
281.3187, 127.1202
281.8008, 122.5440
282.2830, 118.8217
282.7651, 115.9588
283.2472, 113.6039
283.7293, 111.7028
284.2114, 110.2583
284.6935, 109.4193
285.1757, 109.2254
285.6578, 109.1994
286.1399, 108.8291
286.6220, 108.1806
287.1041, 108.2169
287.5862, 109.1942
288.0684, 110.7202
288.5505, 112.0124
289.0326, 113.0753
289.5147, 114.0768
289.9968, 115.0214
290.4789, 115.9604
290.9611, 117.1799
291.4432, 118.7425
291.9253, 120.5100
292.4074, 122.4312
292.8895, 124.4733
293.3716, 126.1243
293.8538, 127.1400
294.3359, 127.5725
294.8180, 127.5900
295.3001, 127.2086
295.7822, 126.3776
296.2643, 124.9639
296.7465, 123.0185
297.2286, 120.7645
297.7107, 117.9145
298.1928, 114.8706
298.6749, 112.6929
299.1570, 111.4180
299.6392, 110.2069
300.1213, 108.1393
300.6034, 105.4851
301.0855, 103.0179
301.5676, 101.0223
302.0497, 99.32835
302.5319, 97.63923
303.0140, 95.96072
303.4961, 94.63735
303.9782, 94.16512
304.4603, 94.18979
304.9424, 94.05665
305.4246, 93.44978
305.9067, 92.76700
306.3888, 92.46581
306.8709, 92.48584
307.3530, 92.53123
307.8351, 92.26111
308.3173, 91.96214
308.7994, 92.05870
309.2815, 92.87774
309.7636, 93.60827
310.2457, 93.48965
310.7278, 92.75462
311.2100, 92.03165
311.6921, 91.75547
312.1742, 91.57766
312.6563, 91.12256
313.1384, 90.21053
313.6205, 89.52017
314.1027, 89.53470
314.5848, 90.02754
315.0669, 90.60118
315.5490, 91.18428
316.0311, 91.73171
316.5132, 92.12581
316.9954, 92.32467
317.4775, 92.73641
317.9596, 93.65233
318.4417, 94.83011
318.9238, 96.00945
319.4059, 96.60502
319.8881, 97.63952
320.3702, 99.72054
320.8523, 102.8204
321.3344, 105.7928
321.8165, 108.2597
322.2986, 110.4924
322.7808, 112.6974
323.2629, 114.9004
323.7450, 117.0948
324.2271, 119.3904
324.7092, 121.7079
325.1913, 123.7512
325.6735, 125.6686
326.1556, 127.1647
326.6377, 128.0632
327.1198, 127.8081
327.6019, 127.7492
328.0840, 128.2377
328.5662, 128.9888
329.0483, 129.2857
329.5304, 128.4993
330.0125, 127.8582
330.4946, 127.7635
330.9767, 128.3751
331.4589, 129.0904
331.9410, 129.9057
332.4231, 130.8276
332.9052, 131.8769
333.3873, 133.1603
333.8694, 134.4188
334.3516, 135.5539
334.8337, 136.5542
335.3158, 137.6123
335.7979, 138.5160
336.2800, 139.7095
336.7621, 141.6999
337.2443, 144.9075
337.7264, 147.8048
338.2085, 150.0620
338.6906, 151.7949
339.1727, 153.7951
339.6548, 156.0935
340.1370, 158.6021
340.6191, 161.2370
341.1012, 163.8964
341.5833, 167.1124
342.0654, 170.9336
342.5475, 175.2876
343.0297, 180.0398
343.5118, 185.1641
343.9939, 190.5847
344.4760, 196.1625
344.9581, 201.8532
345.4402, 208.2100
345.9224, 215.2925
346.4045, 222.7211
346.8866, 230.1139
347.3687, 237.4756
347.8508, 244.1074
348.3329, 249.9558
348.8151, 254.8504
349.2972, 258.4448
349.7793, 260.7520
350.2614, 261.4208
350.7435, 259.6861
351.2256, 255.9917
351.7078, 251.6196
352.1899, 247.3118
352.6720, 242.0911
353.1541, 234.0773
353.6362, 223.5344
354.1183, 212.5033
354.6005, 201.8521
355.0826, 191.7596
355.5647, 182.3628
356.0468, 173.7660
356.5289, 165.7893
357.0110, 158.2684
357.4932, 151.1659
357.9753, 144.3966
358.4574, 137.7518
358.9395, 131.5162
359.4216, 126.0404
359.9037, 121.3803
360.3859, 117.1540
360.8680, 113.2580
361.3501, 109.6751
361.8322, 106.4070
362.3143, 103.5564
362.7964, 100.9261
363.2786, 98.44827
363.7607, 96.12019
364.2428, 93.92979
364.7249, 91.78074
365.2070, 89.84653
365.6891, 88.25960
366.1713, 87.27989
366.6534, 86.34657
367.1355, 85.37718
367.6176, 84.38773
368.0997, 83.43454
368.5818, 82.45705
369.0640, 81.57650
369.5461, 80.86822
370.0282, 80.48665
370.5103, 79.89875
370.9924, 78.91001
371.4745, 77.79760
371.9567, 76.90691
372.4388, 76.16978
372.9209, 75.77050
373.4030, 75.78178
373.8851, 76.21108
374.3672, 76.82411
374.8494, 77.76961
375.3315, 78.70436
375.8136, 79.30312
376.2957, 79.44814
376.7778, 79.65488
377.2599, 79.95955
377.7421, 80.37627
378.2242, 80.90298
378.7063, 81.47939
379.1884, 82.38745
379.6705, 83.98045
380.1526, 86.27858
380.6348, 87.99341
381.1169, 88.92504
381.5990, 89.65750
382.0811, 91.07758
382.5632, 93.14150
383.0453, 95.34014
383.5275, 97.37929
384.0096, 99.41322
384.4917, 101.9184
384.9738, 104.9089
385.4559, 107.9424
385.9380, 110.6694
386.4202, 113.1542
386.9023, 115.6054
387.3844, 118.1929
387.8665, 120.6373
388.3486, 122.4467
388.8307, 123.7666
389.3129, 125.1814
389.7950, 127.6077
390.2771, 130.0486
390.7592, 131.3778
391.2413, 131.3867
391.7234, 130.5914
392.2056, 128.9520
392.6877, 126.8074
393.1698, 124.6609
393.6519, 123.1656
394.1340, 121.3356
394.6161, 118.3992
395.0983, 114.3857
395.5804, 110.6653
396.0625, 107.9765
396.5446, 105.6369
397.0267, 103.1303
397.5089, 99.96887
397.9910, 97.09606
398.4731, 94.65908
398.9552, 92.62938
399.4373, 90.92207
399.9194, 89.77505
400.4016, 88.72726
400.8837, 87.57294
401.3658, 86.12467
401.8479, 85.12344
402.3300, 84.72788
402.8121, 84.67970
403.2942, 84.66129
403.7763, 84.56033
404.2585, 84.72060
404.7406, 85.31208
405.2227, 86.27683
405.7048, 86.92836
406.1869, 87.10921
406.6690, 87.31700
407.1512, 87.86384
407.6333, 88.74957
408.1154, 89.98678
408.5975, 91.61411
409.0796, 93.54939
409.5617, 95.83033
410.0439, 98.46819
410.5260, 100.9702
411.0081, 102.9031
411.4902, 104.4559
411.9723, 106.5495
412.4544, 109.2353
412.9366, 112.1783
413.4187, 115.2020
413.9008, 118.2896
414.3829, 121.3057
414.8650, 124.0955
415.3471, 126.9838
415.8293, 130.3123
416.3114, 134.0856
416.7935, 138.1862
417.2756, 142.4759
417.7577, 147.1034
418.2398, 152.2138
418.7220, 157.9549
419.2041, 163.8335
419.6862, 169.2752
420.1683, 174.8179
420.6504, 181.1122
421.1325, 189.3628
421.6147, 197.6970
422.0968, 205.1070
422.5789, 211.6817
423.0610, 218.6003
423.5431, 226.4778
424.0252, 234.6618
424.5074, 242.8956
424.9895, 252.1635
425.4716, 259.8967
425.9537, 265.1733
426.4358, 268.8787
426.9179, 273.0019
427.4001, 277.9732
427.8822, 282.8763
428.3643, 287.3880
428.8464, 291.4185
429.3285, 295.6324
429.8106, 299.9268
430.2928, 304.5182
430.7749, 309.6380
431.2570, 315.2288
431.7391, 321.5807
432.2212, 329.0203
432.7033, 337.0989
433.1855, 344.3733
433.6676, 350.7850
434.1497, 356.9031
434.6318, 363.6971
435.1139, 370.7402
435.5960, 375.2239
436.0782, 376.8514
436.5603, 376.9386
437.0424, 377.4125
437.5245, 377.7818
438.0066, 376.3091
438.4887, 371.8723
438.9709, 365.6417
439.4530, 358.8888
439.9351, 351.6154
440.4172, 344.0918
440.8993, 335.9191
441.3814, 327.7805
441.8636, 320.3490
442.3457, 313.7055
442.8278, 307.9032
443.3099, 302.9670
443.7920, 298.9120
444.2741, 295.6566
444.7563, 292.7036
445.2384, 291.0285
445.7205, 291.3308
446.2026, 293.6230
446.6847, 296.2743
447.1668, 299.1624
447.6490, 302.1557
448.1311, 305.1760
448.6132, 308.1358
449.0953, 311.2261
449.5774, 314.8232
450.0595, 318.4450
450.5417, 321.1743
451.0238, 323.5625
451.5059, 323.9925
451.9880, 321.4970
452.4701, 315.8835
452.9522, 311.0060
453.4344, 307.0473
453.9165, 303.2285
454.3986, 298.6892
454.8807, 293.3663
455.3628, 288.3598
455.8449, 284.0111
456.3271, 279.7218
456.8092, 273.9665
457.2913, 266.8141
457.7734, 259.8970
458.2555, 254.2884
458.7376, 249.4691
459.2198, 244.3244
459.7019, 238.8547
460.1840, 232.7375
460.6661, 225.2761
461.1482, 217.0399
461.6303, 209.0891
462.1125, 201.8813
462.5946, 194.8637
463.0767, 187.6330
463.5588, 180.2854
464.0409, 173.2791
464.5230, 166.8303
465.0052, 160.8372
465.4873, 155.3502
465.9694, 150.4184
466.4515, 145.7997
466.9336, 141.4118
467.4157, 137.3595
467.8979, 133.7415
468.3800, 130.7720
468.8621, 128.0036
469.3442, 125.4454
469.8263, 123.0728
470.3084, 120.7056
470.7906, 118.1837
471.2727, 115.9468
471.7548, 114.3112
472.2369, 113.4509
472.7190, 112.0329
473.2011, 109.9181
473.6833, 107.4757
474.1654, 105.0438
474.6475, 102.6141
475.1296, 100.3885
475.6117, 98.42437
476.0938, 96.67022
476.5760, 95.06118
477.0581, 93.58562
477.5402, 92.20034
478.0223, 90.72342
478.5044, 89.35098
478.9865, 88.56996
479.4687, 88.45253
479.9508, 88.44630
480.4329, 87.90701
480.9150, 87.20364
481.3971, 86.89339
481.8792, 87.26691
482.3614, 87.97395
482.8435, 88.87873
483.3256, 89.95702
483.8077, 91.12698
484.2898, 92.48685
484.7719, 93.81420
485.2541, 94.89356
485.7362, 95.52768
486.2183, 96.64110
486.7004, 98.85267
487.1825, 101.3370
487.6646, 103.3215
488.1468, 104.2175
488.6289, 105.4672
489.1110, 107.2484
489.5931, 109.4757
490.0752, 111.9591
490.5573, 114.7954
491.0395, 117.6636
491.5216, 120.4212
492.0037, 123.0867
492.4858, 125.8423
492.9679, 128.6920
493.4500, 131.7368
493.9322, 135.0465
494.4143, 138.6396
494.8964, 142.4345
495.3785, 146.4668
495.8606, 150.6844
496.3427, 155.0303
496.8249, 159.4926
497.3070, 164.1377
497.7891, 169.2234
498.2712, 174.3387
498.7533, 178.9214
499.2354, 182.9808
499.7176, 186.9040
500.1997, 191.1194
500.6818, 195.2205
501.1639, 198.8096
501.6460, 201.7102
502.1281, 204.2805
502.6103, 206.5739
503.0924, 208.6253
503.5745, 210.4621
504.0566, 212.5385
504.5387, 213.8958
505.0208, 214.0170
505.5030, 212.8284
505.9851, 212.2620
506.4672, 212.7474
506.9493, 213.2824
507.4314, 213.1584
507.9135, 212.2582
508.3957, 211.2030
508.8778, 210.0344
509.3599, 208.7112
509.8420, 207.3462
510.3241, 205.9339
510.8062, 203.7515
511.2884, 200.6059
511.7705, 196.4661
512.2526, 191.0996
512.7347, 184.5558
513.2168, 177.6301
513.6989, 170.7968
514.1810, 163.9762
514.6631, 156.9220
515.1453, 149.4422
515.6274, 142.4142
516.1095, 136.5902
516.5916, 131.4625
517.0737, 126.3529
517.5558, 120.4933
518.0380, 115.1651
518.5201, 110.8722
519.0022, 107.5134
519.4843, 104.5699
519.9664, 102.2283
520.4485, 100.0780
520.9307, 97.95728
521.4128, 95.79495
521.8949, 93.93308
522.3770, 92.52745
522.8591, 91.24925
523.3412, 89.78367
523.8234, 88.14397
524.3055, 86.39539
524.7876, 84.58426
525.2697, 82.62271
525.7518, 80.17715
526.2339, 77.24150
526.7161, 74.57300
527.1982, 72.65948
527.6803, 71.27029
528.1624, 69.76849
528.6445, 68.14782
529.1266, 66.64937
529.6088, 65.51153
530.0909, 64.57448
530.5730, 63.59863
531.0551, 62.44584
531.5372, 61.47005
532.0193, 60.93552
532.5015, 60.68856
532.9836, 60.49660
533.4657, 60.40300
533.9478, 60.22931
534.4299, 59.83232
534.9120, 59.25141
535.3942, 58.83148
535.8763, 58.49562
536.3584, 58.44214
536.8405, 58.87276
537.3226, 60.05906
537.8047, 60.60909
538.2869, 60.26237
538.7690, 59.63784
539.2511, 59.43642
539.7332, 59.69423
540.2153, 60.02326
540.6974, 60.36900
541.1796, 60.72276
541.6617, 61.05511
542.1438, 61.37117
542.6259, 61.73554
543.1080, 62.13031
543.5901, 62.61439
544.0723, 63.34491
544.5544, 64.30554
545.0365, 65.25925
545.5186, 65.76120
546.0007, 66.29533
546.4828, 67.39513
546.9650, 69.30779
547.4471, 71.41979
547.9292, 73.48241
548.4113, 75.59331
548.8934, 77.88737
549.3755, 80.46910
549.8577, 83.15121
550.3398, 85.99877
550.8219, 88.96017
551.3040, 91.62763
551.7861, 93.71617
552.2682, 96.05727
552.7504, 99.15157
553.2325, 103.1010
553.7146, 106.4847
554.1967, 109.1276
554.6788, 111.7354
555.1609, 115.0239
555.6431, 118.9007
556.1252, 123.1101
556.6073, 127.6016
557.0894, 132.4090
557.5715, 137.4535
558.0536, 142.8353
558.5358, 148.8717
559.0179, 155.7650
559.5000, 163.2953
559.9821, 171.1635
560.4642, 179.4190
560.9464, 188.2091
561.4285, 197.7652
561.9106, 207.7962
562.3927, 218.1025
562.8748, 228.9242
563.3569, 239.4629
563.8391, 250.2012
564.3212, 260.3283
564.8033, 269.3329
565.2854, 277.8281
565.7675, 284.1059
566.2496, 288.5315
566.7318, 290.3718
567.2139, 287.5254
567.6960, 279.7177
568.1781, 269.2323
568.6602, 256.4537
569.1423, 241.8028
569.6245, 226.8657
570.1066, 211.4777
570.5887, 196.9630
571.0708, 183.5459
571.5529, 171.4954
572.0350, 161.4882
572.5172, 153.5727
572.9993, 147.2603
573.4814, 142.5613
573.9635, 139.0806
574.4456, 136.4082
574.9277, 134.3923
575.4099, 133.1873
575.8920, 132.9380
576.3741, 133.5306
576.8562, 134.6441
577.3383, 136.4626
577.8204, 138.5481
578.3026, 140.7791
578.7847, 143.1362
579.2668, 145.9971
579.7489, 149.3840
580.2310, 153.2026
580.7131, 157.3836
581.1953, 161.9071
581.6774, 166.6855
582.1595, 171.6528
582.6416, 177.0593
583.1237, 183.3069
583.6058, 190.1774
584.0880, 197.0993
584.5701, 203.8153
585.0522, 210.5748
585.5343, 217.6774
586.0164, 225.0484
586.4985, 232.3769
586.9807, 239.5924
