##NAMES=Epidote
##RRUFFID=R050131
##IDEAL CHEMISTRY=Ca_2_Fe^3+^Al_2_(Si_2_O_7_)(SiO_4_)O(OH)
##LOCALITY=Calumet mine, Chaffee County, Colorado, USA
##OWNER=RRUFF
##SOURCE=Dave Bunk Minerals
##DESCRIPTION=Green prismatic crystal
##STATUS=The identification of this mineral has been confirmed by X-ray diffraction and chemical analysis
##URL=rruff.info/R050131
##MEASURED CHEMISTRY=Ca_2.00_Al_2.00_(Fe^3+^_0.75_Al_0.25_)(SiO_4_)(Si_2_O_7_)O(OH)
93.08527, 0.0000000E+00
93.56738, 308.0395
94.04950, 318.5650
94.53162, 326.0616
95.01373, 326.1068
95.49585, 320.7711
95.97797, 312.9213
96.46008, 304.7508
96.94220, 297.0225
97.42432, 288.7306
97.90643, 279.2169
98.38855, 269.6048
98.87067, 260.5544
99.35278, 252.2811
99.83490, 244.5849
100.3170, 236.9980
100.7991, 229.2117
101.2813, 221.2906
101.7634, 212.5848
102.2455, 203.8922
102.7276, 196.0211
103.2097, 189.3576
103.6918, 183.8554
104.1740, 179.4828
104.6561, 176.6181
105.1382, 174.0835
105.6203, 171.2808
106.1024, 168.3128
106.5845, 165.7677
107.0667, 164.1000
107.5488, 163.2413
108.0309, 162.5320
108.5130, 161.6406
108.9951, 160.9951
109.4772, 161.1262
109.9594, 162.1366
110.4415, 163.6545
110.9236, 165.4227
111.4057, 167.4466
111.8878, 169.8204
112.3699, 172.6865
112.8521, 176.0086
113.3342, 179.3860
113.8163, 183.0389
114.2984, 186.5219
114.7805, 189.5420
115.2626, 192.2049
115.7448, 194.7706
116.2269, 197.4586
116.7090, 200.1651
117.1911, 203.3624
117.6732, 207.6054
118.1553, 211.8532
118.6375, 215.1878
119.1196, 217.5649
119.6017, 219.9034
120.0838, 223.7087
120.5659, 230.4173
121.0480, 236.5049
121.5302, 241.1319
122.0123, 245.4342
122.4944, 250.7170
122.9765, 257.5200
123.4586, 265.3421
123.9407, 272.8231
124.4228, 279.8145
124.9050, 286.8618
125.3871, 294.0725
125.8692, 301.4335
126.3513, 309.1186
126.8334, 317.3003
127.3155, 325.7704
127.7977, 334.2309
128.2798, 342.9931
128.7619, 351.2572
129.2440, 358.2730
129.7261, 363.9360
130.2083, 368.8268
130.6904, 373.2585
131.1725, 377.0057
131.6546, 379.8138
132.1367, 381.6308
132.6188, 382.3511
133.1010, 381.8112
133.5831, 380.3953
134.0652, 376.7372
134.5473, 370.3347
135.0294, 361.8723
135.5115, 352.0392
135.9937, 341.1069
136.4758, 329.1794
136.9579, 318.2905
137.4400, 309.1642
137.9221, 300.3628
138.4042, 291.3914
138.8864, 282.4526
139.3685, 273.9215
139.8506, 266.0559
140.3327, 258.7828
140.8148, 253.2755
141.2969, 250.2738
141.7791, 248.0699
142.2612, 245.6571
142.7433, 242.9727
143.2254, 240.7025
143.7075, 239.6196
144.1896, 239.9228
144.6718, 240.7353
145.1539, 242.4800
145.6360, 244.5270
146.1181, 246.1962
146.6002, 247.3702
147.0823, 248.1039
147.5645, 248.4356
148.0466, 248.4230
148.5287, 247.9645
149.0108, 246.7561
149.4929, 245.0212
149.9750, 243.4282
150.4572, 241.9004
150.9393, 240.8778
151.4214, 240.4550
151.9035, 240.6546
152.3856, 241.6533
152.8677, 243.8287
153.3499, 247.2457
153.8320, 250.6831
154.3141, 253.6680
154.7962, 256.8492
155.2783, 260.5027
155.7604, 264.6993
156.2425, 269.3692
156.7247, 274.4277
157.2068, 279.9595
157.6889, 285.8493
158.1710, 292.1810
158.6531, 298.7402
159.1352, 305.3958
159.6174, 312.0915
160.0995, 318.8851
160.5816, 325.8454
161.0637, 333.4109
161.5458, 340.5269
162.0279, 347.3055
162.5101, 353.6118
162.9922, 359.3957
163.4743, 364.6635
163.9564, 369.1705
164.4385, 372.1556
164.9206, 373.8647
165.4028, 373.9404
165.8849, 371.9509
166.3670, 368.2942
166.8491, 363.6409
167.3312, 358.3158
167.8133, 352.1809
168.2955, 344.8897
168.7776, 335.9508
169.2597, 326.8285
169.7418, 318.1389
170.2239, 309.8598
170.7060, 301.8790
171.1882, 293.9335
171.6703, 286.3582
172.1524, 279.6593
172.6345, 274.2947
173.1166, 269.1705
173.5987, 262.9766
174.0809, 255.4927
174.5630, 248.7603
175.0451, 244.5963
175.5272, 241.4473
176.0093, 237.8992
176.4914, 233.5285
176.9736, 228.6873
177.4557, 223.7403
177.9378, 218.3450
178.4199, 213.7538
178.9020, 210.5828
179.3841, 208.1991
179.8663, 205.9628
180.3484, 203.5956
180.8305, 201.2074
181.3126, 199.1788
181.7947, 197.6808
182.2768, 196.3332
182.7590, 194.9380
183.2411, 193.6510
183.7232, 192.7027
184.2053, 192.2482
184.6874, 192.1939
185.1695, 191.9742
185.6517, 191.4612
186.1338, 190.8969
186.6159, 190.4510
187.0980, 189.9649
187.5801, 189.1142
188.0622, 187.6312
188.5444, 185.6055
189.0265, 184.2224
189.5086, 184.5343
189.9907, 184.3041
190.4728, 182.3901
190.9549, 179.2914
191.4371, 176.3401
191.9192, 174.4058
192.4013, 173.4889
192.8834, 172.9180
193.3655, 173.1790
193.8476, 173.2956
194.3298, 172.5290
194.8119, 171.0288
195.2940, 169.7005
195.7761, 169.1024
196.2582, 169.2944
196.7403, 169.8882
197.2225, 171.1623
197.7046, 172.6394
198.1867, 174.0863
198.6688, 175.5066
199.1509, 176.5838
199.6330, 176.8641
200.1152, 176.6596
200.5973, 176.6625
201.0794, 176.9007
201.5615, 177.4531
202.0436, 178.6071
202.5257, 180.5391
203.0079, 182.2542
203.4900, 182.8301
203.9721, 182.8964
204.4542, 183.2153
204.9363, 184.0506
205.4184, 185.2816
205.9006, 186.8255
206.3827, 188.9899
206.8648, 190.7058
207.3469, 191.0356
207.8290, 190.8399
208.3111, 191.2148
208.7933, 192.7655
209.2754, 195.1237
209.7575, 197.2375
210.2396, 198.9968
210.7217, 200.6504
211.2038, 201.8416
211.6860, 203.0933
212.1681, 205.1531
212.6502, 208.5195
213.1323, 212.8641
213.6144, 216.6619
214.0965, 219.5773
214.5787, 222.3139
215.0608, 224.6277
215.5429, 226.9411
216.0250, 229.8046
216.5071, 233.5765
216.9892, 238.1093
217.4714, 242.6487
217.9535, 247.1056
218.4356, 251.6833
218.9177, 256.6346
219.3998, 261.6789
219.8819, 266.3026
220.3641, 270.1756
220.8462, 273.5015
221.3283, 277.5854
221.8104, 282.8024
222.2925, 288.3083
222.7746, 294.0255
223.2568, 299.9191
223.7389, 305.9446
224.2210, 312.1104
224.7031, 318.3654
225.1852, 324.3102
225.6673, 329.7731
226.1495, 335.2189
226.6316, 341.0864
227.1137, 347.0192
227.5958, 352.2416
228.0779, 356.2110
228.5600, 359.2673
229.0422, 362.6346
229.5243, 366.6142
230.0064, 370.4815
230.4885, 374.1254
230.9706, 377.4695
231.4527, 380.2247
231.9349, 382.0029
232.4170, 383.3466
232.8991, 385.6027
233.3812, 388.8593
233.8633, 392.6985
234.3454, 396.7906
234.8276, 401.2368
235.3097, 406.5433
235.7918, 413.1908
236.2739, 420.5944
236.7560, 427.5706
237.2381, 433.8044
237.7203, 440.4946
238.2024, 448.8038
238.6845, 458.4710
239.1666, 467.5523
239.6487, 475.0248
240.1308, 481.9644
240.6130, 489.6896
241.0951, 498.3644
241.5772, 507.1029
242.0593, 515.7407
242.5414, 524.1951
243.0235, 531.2181
243.5057, 536.1940
243.9878, 539.6671
244.4699, 542.6188
244.9520, 545.0922
245.4341, 545.6465
245.9162, 542.8816
246.3984, 536.8099
246.8805, 529.2309
247.3626, 520.0118
247.8447, 509.5335
248.3268, 497.9709
248.8089, 485.3984
249.2911, 472.1238
249.7732, 458.1666
250.2553, 443.4773
250.7374, 429.3656
251.2195, 415.7080
251.7016, 403.0202
252.1838, 391.7180
252.6659, 381.6909
253.1480, 372.1591
253.6301, 362.3491
254.1122, 352.1105
254.5943, 343.3235
255.0765, 337.2019
255.5586, 331.5282
256.0407, 325.3116
256.5228, 318.7941
257.0049, 312.8885
257.4870, 308.5732
257.9691, 305.9010
258.4513, 302.3191
258.9334, 296.0787
259.4155, 290.5072
259.8976, 286.8258
260.3797, 284.5625
260.8618, 282.5712
261.3440, 279.9677
261.8261, 276.7883
262.3082, 274.3306
262.7903, 273.3162
263.2724, 272.3735
263.7545, 271.1111
264.2367, 269.7213
264.7188, 268.5663
265.2009, 267.8887
265.6830, 267.6541
266.1651, 267.6089
266.6472, 268.1739
267.1294, 268.4789
267.6115, 268.2960
268.0936, 267.7780
268.5757, 267.1696
269.0578, 266.6105
269.5399, 266.0491
270.0221, 265.2564
270.5042, 263.3654
270.9863, 262.2542
271.4684, 262.6843
271.9505, 263.8353
272.4326, 264.7183
272.9148, 264.8865
273.3969, 264.4982
273.8790, 263.9963
274.3611, 263.2444
274.8432, 262.5336
275.3253, 262.0617
275.8075, 261.5572
276.2896, 260.6490
276.7717, 259.2072
277.2538, 257.5101
277.7359, 256.0650
278.2180, 254.8794
278.7002, 253.9961
279.1823, 253.4156
279.6644, 253.1411
280.1465, 253.2838
280.6286, 253.8466
281.1107, 254.5474
281.5929, 254.9955
282.0750, 255.1176
282.5571, 255.1008
283.0392, 254.4338
283.5213, 253.9492
284.0034, 254.4209
284.4856, 255.9327
284.9677, 257.9374
285.4498, 259.9098
285.9319, 261.8656
286.4140, 263.6064
286.8961, 264.9380
287.3783, 266.2127
287.8604, 267.5221
288.3425, 268.9346
288.8246, 270.7587
289.3067, 273.3799
289.7888, 276.8184
290.2710, 279.4978
290.7531, 281.0997
291.2352, 282.3151
291.7173, 283.6121
292.1994, 284.9021
292.6815, 285.7305
293.1637, 285.7628
293.6458, 285.0692
294.1279, 284.2475
294.6100, 284.0084
295.0921, 282.9535
295.5742, 280.3824
296.0564, 276.5215
296.5385, 271.9614
297.0206, 266.9261
297.5027, 261.4147
297.9848, 255.3247
298.4669, 248.3584
298.9491, 241.4705
299.4312, 234.7315
299.9133, 228.2489
300.3954, 222.2240
300.8775, 216.6876
301.3596, 211.6693
301.8418, 207.3094
302.3239, 203.4341
302.8060, 200.3447
303.2881, 198.4048
303.7702, 197.1908
304.2523, 196.1447
304.7345, 195.1361
305.2166, 194.2863
305.6987, 193.7169
306.1808, 193.3989
306.6629, 193.6292
307.1451, 194.7814
307.6272, 196.3249
308.1093, 197.7259
308.5914, 198.9158
309.0735, 200.0518
309.5556, 201.1815
310.0378, 202.3456
310.5199, 203.9228
311.0020, 206.1540
311.4841, 208.6348
311.9662, 211.0999
312.4483, 213.5471
312.9305, 216.0467
313.4126, 218.7349
313.8947, 221.5094
314.3768, 224.0160
314.8589, 225.9976
315.3410, 227.9754
315.8232, 230.2664
316.3053, 232.7946
316.7874, 235.2691
317.2695, 237.5482
317.7516, 239.6997
318.2337, 241.9028
318.7159, 244.1506
319.1980, 246.4514
319.6801, 248.4528
320.1622, 250.5439
320.6443, 253.6826
321.1264, 258.3283
321.6086, 263.5485
322.0907, 267.7850
322.5728, 270.9983
323.0549, 274.1141
323.5370, 276.9819
324.0191, 280.0119
324.5013, 283.7025
324.9834, 288.1670
325.4655, 293.1596
325.9476, 298.7136
326.4297, 304.7972
326.9118, 310.2622
327.3940, 314.5123
327.8761, 318.4299
328.3582, 322.6119
328.8403, 327.1006
329.3224, 331.8806
329.8045, 336.9574
330.2867, 342.3431
330.7688, 347.9761
331.2509, 354.4289
331.7330, 360.5491
332.2151, 365.6380
332.6972, 369.8980
333.1794, 374.0282
333.6615, 378.3788
334.1436, 382.7687
334.6257, 386.7484
335.1078, 390.3368
335.5899, 393.5829
336.0721, 396.0385
336.5542, 398.2752
337.0363, 401.2382
337.5184, 405.2674
338.0005, 409.9420
338.4826, 414.7419
338.9648, 419.6406
339.4469, 424.7070
339.9290, 429.7256
340.4111, 435.0400
340.8932, 441.0025
341.3753, 447.6548
341.8575, 454.9383
342.3396, 462.8678
342.8217, 471.5775
343.3038, 480.1719
343.7859, 488.5941
344.2680, 496.9528
344.7502, 505.5771
345.2323, 514.2718
345.7144, 522.4258
346.1965, 529.7675
346.6786, 536.1954
347.1607, 540.9758
347.6429, 545.3163
348.1250, 547.0849
348.6071, 545.1662
349.0892, 540.3865
349.5713, 534.2209
350.0534, 527.2553
350.5356, 518.9382
351.0177, 507.8661
351.4998, 493.0437
351.9819, 477.2886
352.4640, 460.3793
352.9461, 442.7705
353.4283, 424.4144
353.9104, 405.4080
354.3925, 386.6475
354.8746, 369.1078
355.3567, 352.9960
355.8388, 337.3523
356.3210, 321.1540
356.8031, 306.1776
357.2852, 293.7037
357.7673, 283.3531
358.2494, 273.7203
358.7315, 263.8316
359.2137, 253.7874
359.6958, 245.2912
360.1779, 239.0189
360.6600, 233.3899
361.1421, 228.2867
361.6242, 223.5666
362.1064, 219.0044
362.5885, 214.5257
363.0706, 210.3040
363.5527, 206.7842
364.0348, 204.3937
364.5169, 202.1104
364.9991, 200.3988
365.4812, 198.4917
365.9633, 195.5033
366.4454, 191.4724
366.9275, 187.4213
367.4096, 184.5352
367.8918, 183.0932
368.3739, 181.3785
368.8560, 179.2262
369.3381, 176.9895
369.8202, 174.7042
370.3023, 172.4300
370.7845, 170.2782
371.2666, 168.3293
371.7487, 166.5340
372.2308, 164.6136
372.7129, 162.5157
373.1950, 160.3400
373.6772, 157.7906
374.1593, 155.3180
374.6414, 153.4615
375.1235, 152.3979
375.6056, 151.8003
376.0877, 151.1054
376.5699, 150.1745
377.0520, 149.5439
377.5341, 149.4568
378.0162, 149.5038
378.4983, 149.3578
378.9804, 149.0774
379.4626, 149.0616
379.9447, 149.8037
380.4268, 151.2747
380.9089, 152.3651
381.3910, 152.7775
381.8731, 153.1640
382.3553, 153.6408
382.8374, 154.2826
383.3195, 155.2526
383.8016, 156.7243
384.2837, 158.3943
384.7658, 159.6716
385.2480, 160.5246
385.7301, 161.0664
386.2122, 160.8125
386.6943, 160.5507
387.1764, 161.1648
387.6585, 162.8306
388.1407, 164.2772
388.6228, 163.9750
389.1049, 162.0837
389.5870, 160.9092
390.0691, 161.1940
390.5512, 161.7167
391.0334, 161.7202
391.5155, 161.2219
391.9976, 160.2644
392.4797, 158.5133
392.9618, 156.4221
393.4439, 155.0034
393.9261, 154.4495
394.4082, 153.5117
394.8903, 151.0077
395.3724, 147.7945
395.8545, 145.3346
396.3366, 144.0106
396.8188, 143.0409
397.3009, 141.9891
397.7830, 140.8310
398.2651, 139.3702
398.7472, 137.4162
399.2293, 135.3698
399.7115, 133.8057
400.1936, 132.6946
400.6757, 131.8960
401.1578, 131.4163
401.6399, 131.2094
402.1220, 131.3586
402.6042, 131.8659
403.0863, 132.2382
403.5684, 131.9537
404.0505, 131.1087
404.5326, 130.8542
405.0147, 131.4468
405.4969, 132.3500
405.9790, 133.4842
406.4611, 134.7323
406.9432, 135.7408
407.4253, 136.3059
407.9074, 136.7699
408.3896, 137.9334
408.8717, 140.2353
409.3538, 142.4166
409.8359, 144.3567
410.3180, 146.1689
410.8001, 147.8000
411.2823, 149.3154
411.7644, 151.0627
412.2465, 153.3691
412.7286, 156.2645
413.2107, 159.5260
413.6928, 163.7473
414.1750, 167.6700
414.6571, 170.5747
415.1392, 172.9376
415.6213, 175.5122
416.1034, 178.6787
416.5855, 182.3882
417.0677, 186.5741
417.5498, 191.7566
418.0319, 196.5029
418.5140, 200.2519
418.9961, 203.9269
419.4782, 208.1339
419.9604, 212.9680
420.4425, 218.2895
420.9246, 224.1275
421.4067, 230.5444
421.8888, 236.2844
422.3709, 240.6093
422.8531, 245.1311
423.3352, 250.7349
423.8173, 256.8484
424.2994, 262.5572
424.7815, 267.4001
425.2636, 271.7256
425.7458, 276.0607
426.2279, 280.3905
426.7100, 284.8842
427.1921, 289.8491
427.6742, 294.8159
428.1563, 299.2536
428.6385, 303.1823
429.1206, 307.3859
429.6027, 312.5703
430.0848, 318.4943
430.5669, 324.3281
431.0490, 329.8929
431.5312, 335.6554
432.0133, 342.3074
432.4954, 349.3975
432.9775, 355.9992
433.4596, 361.8854
433.9417, 367.2868
434.4239, 372.1731
434.9060, 376.6546
435.3881, 381.3450
435.8702, 386.6104
436.3523, 391.9911
436.8344, 396.5639
437.3166, 400.1801
437.7987, 404.0397
438.2808, 408.4340
438.7629, 413.2456
439.2450, 418.3677
439.7271, 423.7747
440.2093, 429.3209
440.6914, 434.7673
441.1735, 440.1723
441.6556, 446.7263
442.1377, 454.8899
442.6198, 463.4701
443.1020, 471.9793
443.5841, 480.7063
444.0662, 490.2326
444.5483, 500.8690
445.0304, 511.8907
445.5125, 522.2282
445.9947, 531.9724
446.4768, 540.5735
446.9589, 548.8113
447.4410, 555.4997
447.9231, 560.2191
448.4052, 562.8268
448.8874, 563.2448
449.3695, 561.5416
449.8516, 557.5163
450.3337, 549.8559
450.8158, 536.8364
451.2979, 522.5933
451.7801, 507.9803
452.2622, 492.6546
452.7443, 475.9796
453.2264, 457.8528
453.7085, 439.6825
454.1906, 422.8080
454.6728, 407.2361
455.1549, 392.7155
455.6370, 379.2720
456.1191, 366.9296
456.6012, 355.8687
457.0833, 345.8006
457.5655, 336.1549
458.0476, 326.8830
458.5297, 317.7611
459.0118, 308.2527
459.4939, 298.3360
459.9760, 289.5041
460.4582, 282.8444
460.9403, 277.1060
461.4224, 270.2815
461.9045, 262.1837
462.3866, 254.7239
462.8687, 249.3111
463.3508, 244.7462
463.8329, 239.0524
464.3151, 231.9839
464.7972, 224.8140
465.2793, 218.4059
465.7614, 212.7791
466.2435, 207.9240
466.7256, 204.5632
467.2078, 201.1286
467.6899, 196.7371
468.1720, 191.9839
468.6541, 187.9169
469.1362, 184.8929
469.6183, 182.2966
470.1005, 179.1656
470.5826, 175.1265
471.0647, 171.8747
471.5468, 169.5404
472.0289, 167.7431
472.5110, 166.5567
472.9932, 165.7431
473.4753, 164.8489
473.9574, 163.5881
474.4395, 162.1143
474.9216, 160.9079
475.4037, 160.0857
475.8859, 159.3081
476.3680, 158.1684
476.8501, 157.3067
477.3322, 157.3480
477.8143, 158.2377
478.2964, 159.2635
478.7786, 159.6961
479.2607, 159.6931
479.7428, 160.2943
480.2249, 161.7561
480.7070, 163.2736
481.1891, 164.2861
481.6713, 165.1943
482.1534, 166.5953
482.6355, 168.7867
483.1176, 170.9280
483.5997, 171.9958
484.0818, 172.3549
484.5640, 173.5762
485.0461, 176.1994
485.5282, 179.1547
486.0103, 181.2741
486.4924, 182.6675
486.9745, 184.3311
487.4567, 186.2122
487.9388, 188.5541
488.4209, 191.9118
488.9030, 195.9059
489.3851, 199.4217
489.8672, 201.8900
490.3494, 203.8037
490.8315, 206.1873
491.3136, 209.3242
491.7957, 212.4340
492.2778, 215.3125
492.7599, 218.3283
493.2421, 221.8701
493.7242, 225.8320
494.2063, 229.7236
494.6884, 233.2062
495.1705, 236.3535
495.6526, 239.5923
496.1348, 243.0925
496.6169, 246.4269
497.0990, 249.3625
497.5811, 252.2543
498.0632, 255.3635
498.5453, 258.7552
499.0275, 262.3763
499.5096, 266.3685
499.9917, 270.6731
500.4738, 274.5205
500.9559, 277.8541
501.4380, 280.7901
501.9202, 283.3538
502.4023, 285.5800
502.8844, 287.4345
503.3665, 288.8061
503.8486, 290.0852
504.3307, 291.8930
504.8129, 293.9097
505.2950, 294.9361
505.7771, 294.6145
506.2592, 293.6080
506.7413, 292.6189
507.2234, 291.5953
507.7056, 289.7661
508.1877, 286.8835
508.6698, 283.3690
509.1519, 279.4517
509.6340, 275.0927
510.1161, 270.2140
510.5983, 264.7546
511.0804, 258.7030
511.5625, 251.9392
512.0446, 244.1962
512.5267, 236.3766
513.0089, 228.5619
513.4910, 220.6122
513.9731, 212.3096
514.4552, 203.8305
514.9373, 195.3967
515.4194, 187.1468
515.9016, 179.2210
516.3837, 172.0419
516.8658, 165.7388
517.3479, 159.9030
517.8300, 154.6076
518.3121, 149.6250
518.7943, 144.7119
519.2764, 139.9574
519.7585, 135.8311
520.2406, 132.8848
520.7227, 130.6824
521.2048, 128.1784
521.6870, 125.2966
522.1691, 122.8213
522.6512, 121.3916
523.1333, 120.3761
523.6154, 118.5886
524.0975, 115.7942
524.5797, 113.3419
525.0618, 112.0319
525.5439, 111.1805
526.0260, 109.9776
526.5081, 108.3290
526.9902, 106.4847
527.4724, 104.6123
527.9545, 102.6942
528.4366, 100.6689
528.9187, 98.18236
529.4008, 96.03985
529.8829, 94.41483
530.3651, 93.14425
530.8472, 92.11938
531.3293, 91.29144
531.8114, 90.62740
532.2935, 90.13549
532.7756, 89.79858
533.2578, 89.23606
533.7399, 88.20031
534.2220, 87.31728
534.7041, 86.73173
535.1862, 86.37612
535.6683, 86.20895
536.1505, 86.21865
536.6326, 86.33391
537.1147, 86.57357
537.5968, 86.88400
538.0789, 86.92365
538.5610, 86.51809
539.0432, 86.31533
539.5253, 86.88036
540.0074, 87.94510
540.4895, 88.89401
540.9716, 89.63499
541.4537, 90.32633
541.9359, 90.98521
542.4180, 91.66063
542.9001, 92.39848
543.3822, 93.21280
543.8643, 94.20866
544.3464, 95.49733
544.8286, 97.08359
545.3107, 98.86240
545.7928, 100.4789
546.2749, 102.6812
546.7570, 105.9610
547.2391, 109.8011
547.7213, 113.6398
548.2034, 117.3150
548.6855, 120.9533
549.1676, 124.6838
549.6497, 128.5008
550.1318, 132.6140
550.6140, 137.0793
551.0961, 141.8165
551.5782, 146.8420
552.0603, 152.0729
552.5424, 157.3874
553.0245, 162.7900
553.5067, 168.0664
553.9888, 172.8158
554.4709, 177.2365
554.9530, 182.1797
555.4351, 187.8284
555.9172, 193.6956
556.3994, 199.2206
556.8815, 204.6179
557.3636, 210.9475
557.8457, 218.5203
558.3278, 226.6310
558.8099, 235.2990
559.2921, 244.2080
559.7742, 252.7858
560.2563, 260.9555
560.7384, 269.4846
561.2205, 279.2413
561.7026, 290.3342
562.1848, 300.8125
562.6669, 310.5567
563.1490, 319.8506
563.6311, 329.5356
564.1132, 338.3602
564.5953, 345.0809
565.0775, 349.3823
565.5596, 351.4911
566.0417, 352.0118
566.5238, 350.7826
567.0059, 345.8842
567.4880, 336.7393
567.9702, 325.2175
568.4523, 311.3650
568.9344, 296.0266
569.4165, 280.1968
569.8986, 263.7670
570.3807, 247.5286
570.8629, 231.6517
571.3450, 216.4608
571.8271, 202.4019
572.3092, 189.5203
572.7913, 178.6644
573.2734, 170.5532
573.7556, 164.9341
574.2377, 159.8098
574.7198, 155.1089
575.2019, 150.9597
575.6840, 146.9837
576.1661, 143.8241
576.6483, 142.3833
577.1304, 142.5142
577.6125, 143.0125
578.0946, 142.7859
578.5767, 142.0969
579.0588, 142.5294
579.5410, 144.6210
580.0231, 146.6095
580.5052, 147.6312
580.9873, 148.6131
581.4694, 150.3221
581.9515, 152.7918
582.4337, 155.4711
582.9158, 158.3653
583.3979, 161.1284
583.8800, 162.7090
584.3621, 163.1884
584.8442, 164.6769
585.3264, 168.3719
585.8085, 173.3462
586.2906, 177.8905
586.7727, 182.0383
587.2548, 185.6393
587.7369, 188.4077
588.2191, 190.8552
588.7012, 193.0013
