##NAMES=Epidote
##RRUFFID=R050303
##IDEAL CHEMISTRY=Ca_2_Fe^3+^Al_2_(Si_2_O_7_)(SiO_4_)O(OH)
##LOCALITY=San Martin mine, Zacatecas, Mexico
##OWNER=RRUFF
##SOURCE=Eugene Schlepp
##DESCRIPTION=Green elongated prismatic crystals
##STATUS=The identification of this mineral has been confirmed by X-ray diffraction and chemical analysis
##URL=rruff.info/R050303
##MEASURED CHEMISTRY=Ca_2.00_Al_2.00_(Fe^3+^_0.97_Al_0.03_)(SiO_4_)(Si_2_O_7_)O(OH)
108.7455, 18.18368
109.2276, 18.84909
109.7097, 19.77086
110.1918, 20.73491
110.6740, 21.65403
111.1561, 22.36248
111.6382, 23.20971
112.1203, 24.18183
112.6024, 25.30057
113.0845, 26.64641
113.5667, 28.46521
114.0488, 30.38027
114.5309, 32.15839
115.0130, 33.53727
115.4951, 34.95465
115.9772, 36.54272
116.4594, 38.31515
116.9415, 40.16027
117.4236, 42.24042
117.9057, 44.30838
118.3878, 46.09209
118.8699, 47.04218
119.3521, 48.03458
119.8342, 49.67142
120.3163, 52.04086
120.7984, 54.48206
121.2805, 56.61160
121.7626, 58.53914
122.2448, 60.45221
122.7269, 62.52903
123.2090, 64.59016
123.6911, 66.36646
124.1732, 67.73638
124.6553, 69.21214
125.1375, 71.22212
125.6196, 73.71879
126.1017, 76.55161
126.5838, 79.55432
127.0659, 82.85083
127.5480, 86.73268
128.0302, 91.37952
128.5123, 96.38298
128.9944, 101.2765
129.4765, 106.0586
129.9586, 110.7164
130.4407, 115.6981
130.9229, 120.6839
131.4050, 124.4153
131.8871, 126.6109
132.3692, 127.3631
132.8513, 126.5724
133.3334, 123.9876
133.8156, 120.0133
134.2977, 115.1980
134.7798, 109.9892
135.2619, 105.3582
135.7440, 101.6020
136.2261, 98.60174
136.7083, 95.44566
137.1904, 92.02987
137.6725, 88.74891
138.1546, 85.97530
138.6367, 83.73835
139.1188, 81.74860
139.6010, 79.95229
140.0831, 78.35535
140.5652, 76.67817
141.0473, 74.71155
141.5294, 72.91097
142.0115, 71.95142
142.4937, 72.09649
142.9758, 72.40849
143.4579, 72.59250
143.9400, 72.56385
144.4221, 72.83503
144.9042, 73.62856
145.3864, 74.58920
145.8685, 75.08518
146.3506, 74.90773
146.8327, 74.56165
147.3148, 74.17980
147.7969, 73.68614
148.2791, 73.33082
148.7612, 73.13221
149.2433, 73.06803
149.7254, 73.08791
150.2075, 73.17699
150.6896, 73.36320
151.1718, 73.63185
151.6539, 73.59985
152.1360, 74.19662
152.6181, 75.75367
153.1002, 77.99477
153.5823, 80.08887
154.0645, 82.09657
154.5466, 83.88438
155.0287, 85.38027
155.5108, 86.20395
155.9929, 87.21429
156.4750, 88.57985
156.9572, 90.24274
157.4393, 91.94669
157.9214, 93.76182
158.4035, 95.54240
158.8856, 97.20304
159.3677, 98.46770
159.8499, 99.87544
160.3320, 101.6144
160.8141, 103.6388
161.2962, 105.6975
161.7783, 107.7774
162.2604, 109.8032
162.7426, 111.7126
163.2247, 113.1035
163.7068, 114.7105
164.1889, 116.8899
164.6710, 119.6055
165.1531, 122.5837
165.6353, 125.7524
166.1174, 129.0869
166.5995, 132.5604
167.0816, 136.3893
167.5637, 140.1853
168.0458, 143.6510
168.5280, 146.7536
169.0101, 149.8799
169.4922, 153.4423
169.9743, 157.1160
170.4564, 160.4244
170.9385, 163.6799
171.4207, 166.1911
171.9028, 167.2943
172.3849, 166.9389
172.8670, 165.6206
173.3491, 163.5418
173.8312, 160.7788
174.3134, 157.4595
174.7955, 153.4158
175.2776, 148.9837
175.7597, 144.5615
176.2418, 140.1360
176.7239, 135.7078
177.2061, 130.8219
177.6882, 125.7609
178.1703, 121.3839
178.6524, 118.4616
179.1345, 116.3422
179.6166, 113.8665
180.0988, 110.8423
180.5809, 108.0032
181.0630, 106.1764
181.5451, 105.2333
182.0272, 104.7396
182.5093, 104.6150
182.9915, 104.7591
183.4736, 104.9259
183.9557, 105.0888
184.4378, 105.3098
184.9199, 105.6886
185.4020, 106.2077
185.8842, 106.7983
186.3663, 107.6841
186.8484, 108.6607
187.3305, 108.9243
187.8126, 108.3658
188.2947, 107.2245
188.7769, 105.8613
189.2590, 104.2718
189.7411, 102.3436
190.2232, 99.68098
190.7053, 96.47157
191.1874, 93.90921
191.6696, 92.16802
192.1517, 90.90343
192.6338, 89.40647
193.1159, 87.65910
193.5980, 86.15327
194.0801, 85.23875
194.5623, 84.88506
195.0444, 84.66239
195.5265, 84.57483
196.0086, 84.54479
196.4907, 84.29400
196.9728, 83.76202
197.4550, 83.50644
197.9371, 83.99381
198.4192, 85.23710
198.9013, 86.33002
199.3834, 87.12544
199.8655, 87.79332
200.3477, 88.87610
200.8298, 90.49955
201.3119, 91.95421
201.7940, 92.78024
202.2761, 92.93178
202.7582, 92.96001
203.2404, 92.85620
203.7225, 92.70164
204.2046, 92.76148
204.6867, 93.10344
205.1688, 93.43099
205.6509, 93.51377
206.1331, 93.29540
206.6152, 93.21323
207.0973, 93.32571
207.5794, 93.58664
208.0615, 93.83012
208.5436, 94.00317
209.0258, 94.29966
209.5079, 94.85583
209.9900, 95.70848
210.4721, 96.62769
210.9542, 97.59048
211.4363, 98.60764
211.9185, 99.71018
212.4006, 100.8856
212.8827, 102.1826
213.3648, 103.6048
213.8469, 105.1741
214.3290, 106.8290
214.8112, 108.5444
215.2933, 110.3393
215.7754, 112.3491
216.2575, 114.5979
216.7396, 117.0237
217.2217, 119.6007
217.7038, 122.3751
218.1860, 125.1329
218.6681, 127.8292
219.1502, 130.4866
219.6323, 133.1061
220.1144, 135.4963
220.5965, 138.1395
221.0787, 141.3304
221.5608, 145.2485
222.0429, 149.2222
222.5250, 153.2623
223.0071, 157.3235
223.4892, 161.0172
223.9714, 164.0975
224.4535, 167.2527
224.9356, 170.9713
225.4177, 175.6111
225.8998, 179.9398
226.3819, 184.0510
226.8641, 187.8103
227.3462, 190.5481
227.8283, 191.8730
228.3104, 192.7717
228.7925, 193.8450
229.2746, 195.7395
229.7568, 196.2869
230.2389, 194.9457
230.7210, 192.2854
231.2031, 190.1912
231.6852, 189.0564
232.1673, 187.9059
232.6495, 186.2303
233.1316, 183.6727
233.6137, 181.3479
234.0958, 179.0938
234.5779, 177.1512
235.0600, 176.3370
235.5422, 177.3053
236.0243, 178.4447
236.5064, 178.9555
236.9885, 178.1868
237.4706, 178.2721
237.9527, 179.5641
238.4349, 181.6157
238.9170, 183.3252
239.3991, 184.6323
239.8812, 185.6894
240.3633, 186.6575
240.8454, 187.9491
241.3276, 188.0921
241.8097, 186.7690
242.2918, 184.4136
242.7739, 181.9873
243.2560, 179.6919
243.7381, 177.0132
244.2203, 173.6950
244.7024, 169.4780
245.1845, 165.3470
245.6666, 161.2882
246.1487, 157.3315
246.6308, 153.3845
247.1130, 149.1103
247.5951, 145.3841
248.0772, 142.5825
248.5593, 140.8449
249.0414, 139.4597
249.5235, 138.4405
250.0057, 137.7659
250.4878, 137.4113
250.9699, 137.4911
251.4520, 137.6871
251.9341, 137.9022
252.4162, 138.1276
252.8984, 138.4299
253.3805, 138.8733
253.8626, 139.3466
254.3447, 139.7556
254.8268, 140.3795
255.3089, 140.3843
255.7911, 139.4525
256.2732, 137.4880
256.7553, 135.3696
257.2374, 133.0301
257.7195, 130.5940
258.2017, 128.2356
258.6838, 126.0338
259.1659, 123.6747
259.6480, 120.9686
260.1301, 117.9146
260.6122, 115.1674
261.0944, 112.7570
261.5765, 110.6059
262.0586, 108.6129
262.5407, 106.7518
263.0228, 105.1323
263.5049, 103.7947
263.9871, 102.7273
264.4692, 101.9149
264.9513, 101.3784
265.4334, 101.0521
265.9155, 100.8790
266.3976, 100.8715
266.8798, 100.9733
267.3619, 101.1246
267.8440, 101.3613
268.3261, 101.9845
268.8082, 103.0603
269.2903, 104.3771
269.7725, 105.7938
270.2546, 107.3136
270.7367, 108.8433
271.2188, 110.3944
271.7009, 111.9251
272.1830, 113.2651
272.6652, 114.3484
273.1473, 115.3933
273.6294, 116.7299
274.1115, 118.5243
274.5936, 119.5367
275.0757, 119.6150
275.5579, 118.8693
276.0400, 117.5293
276.5221, 115.5223
277.0042, 113.2118
277.4863, 110.6700
277.9684, 107.8542
278.4506, 105.4201
278.9327, 103.4792
279.4148, 101.8572
279.8969, 100.1480
280.3790, 98.31076
280.8611, 96.67870
281.3433, 95.51750
281.8254, 94.81907
282.3075, 93.92020
282.7896, 92.67525
283.2717, 91.49192
283.7538, 91.07583
284.2360, 91.44767
284.7181, 92.04908
285.2002, 92.65906
285.6823, 93.28870
286.1644, 94.02034
286.6465, 94.83049
287.1287, 95.79860
287.6108, 97.10432
288.0929, 98.72778
288.5750, 100.3170
289.0571, 101.7332
289.5392, 103.0156
290.0214, 104.3438
290.5035, 105.7365
290.9856, 106.9834
291.4677, 107.9066
291.9498, 108.5055
292.4319, 108.7661
292.9141, 108.7284
293.3962, 108.3347
293.8783, 107.3962
294.3604, 105.9129
294.8425, 104.1039
295.3246, 101.9007
295.8068, 99.46104
296.2889, 97.40158
296.7710, 96.01988
297.2531, 94.87446
297.7352, 93.13708
298.2173, 90.88818
298.6995, 88.74142
299.1816, 87.28579
299.6637, 86.25268
300.1458, 85.07242
300.6279, 83.53346
301.1100, 82.02694
301.5922, 81.06694
302.0743, 80.58184
302.5564, 80.28596
303.0385, 80.04355
303.5206, 79.87082
304.0027, 79.79850
304.4849, 79.84238
304.9670, 79.93776
305.4491, 79.99316
305.9312, 80.04989
306.4133, 80.20716
306.8954, 80.59011
307.3776, 81.05933
307.8597, 81.48036
308.3418, 81.84892
308.8239, 82.17406
309.3060, 82.35941
309.7881, 82.52631
310.2703, 82.85860
310.7524, 83.71482
311.2345, 84.56032
311.7166, 84.86991
312.1987, 84.66242
312.6808, 84.62251
313.1630, 85.30115
313.6451, 86.28851
314.1272, 87.14915
314.6093, 87.60399
315.0914, 88.01561
315.5735, 88.54641
316.0557, 89.17909
316.5378, 89.82494
317.0199, 90.29546
317.5020, 90.84870
317.9841, 91.69849
318.4662, 93.03723
318.9484, 94.43693
319.4305, 95.75951
319.9126, 97.03673
320.3947, 98.35169
320.8768, 99.79851
321.3589, 101.2368
321.8411, 102.5972
322.3232, 103.8274
322.8053, 105.0508
323.2874, 106.5335
323.7695, 107.9793
324.2516, 108.9193
324.7338, 108.8189
325.2159, 108.6280
325.6980, 108.6772
326.1801, 109.0809
326.6622, 109.2755
327.1443, 109.0832
327.6265, 108.7272
328.1086, 108.4314
328.5907, 108.3549
329.0728, 108.1645
329.5549, 107.5781
330.0370, 106.5850
330.5192, 106.4253
331.0013, 107.7964
331.4834, 109.4079
331.9655, 110.3407
332.4476, 109.9292
332.9297, 110.0090
333.4119, 111.0043
333.8940, 112.6366
334.3761, 113.5891
334.8582, 113.3514
335.3403, 113.2091
335.8224, 113.8434
336.3046, 115.5042
336.7867, 117.2137
337.2688, 118.9746
337.7509, 120.7662
338.2330, 122.6381
338.7151, 124.6608
339.1973, 126.4880
339.6794, 127.7795
340.1615, 128.4571
340.6436, 130.1338
341.1257, 132.9433
341.6078, 136.4195
342.0899, 140.1059
342.5721, 143.9586
343.0542, 147.8043
343.5363, 151.6084
344.0184, 155.3240
344.5005, 158.7717
344.9826, 161.8906
345.4648, 164.9908
345.9469, 168.4593
346.4290, 172.2450
346.9111, 175.6317
347.3932, 178.6141
347.8753, 180.9925
348.3575, 182.3128
348.8396, 182.5907
349.3217, 182.0448
349.8038, 180.9343
350.2859, 179.0952
350.7680, 175.9454
351.2502, 171.2247
351.7323, 165.9289
352.2144, 161.4024
352.6965, 157.2666
353.1786, 152.5075
353.6607, 145.9387
354.1429, 138.7762
354.6250, 132.4954
355.1071, 127.1719
355.5892, 122.3686
356.0713, 117.8748
356.5534, 113.6587
357.0356, 109.6725
357.5177, 105.9060
357.9998, 102.3391
358.4819, 99.05293
358.9640, 96.02121
359.4461, 93.18613
359.9283, 90.43962
360.4104, 87.91635
360.8925, 85.75391
361.3746, 84.13488
361.8567, 82.61314
362.3388, 80.94180
362.8210, 79.23875
363.3031, 77.73305
363.7852, 76.63950
364.2673, 75.64617
364.7494, 74.57912
365.2315, 73.35083
365.7137, 72.30111
366.1958, 71.48310
366.6779, 70.89352
367.1600, 70.52139
367.6421, 70.71669
368.1242, 70.76672
368.6064, 70.41869
369.0885, 69.64045
369.5706, 69.13206
370.0527, 69.10478
370.5348, 69.18127
371.0169, 69.10926
371.4991, 68.74472
371.9812, 68.47386
372.4633, 68.29314
372.9454, 68.22533
373.4275, 68.35667
373.9096, 68.73150
374.3918, 69.23360
374.8739, 69.82813
375.3560, 70.55888
375.8381, 71.19529
376.3202, 71.67123
376.8023, 72.12858
377.2845, 72.79453
377.7666, 73.68897
378.2487, 74.64883
378.7308, 75.56675
379.2129, 76.48779
379.6950, 77.66813
380.1772, 79.14867
380.6593, 80.72586
381.1414, 82.23122
381.6235, 83.66487
382.1056, 85.11854
382.5877, 86.50568
383.0699, 88.04932
383.5520, 90.44921
384.0341, 93.61840
384.5162, 96.44588
384.9983, 97.95277
385.4804, 98.67010
385.9626, 99.81727
386.4447, 101.5828
386.9268, 103.4096
387.4089, 104.7994
387.8910, 105.8241
388.3731, 106.6130
388.8553, 107.2083
389.3374, 107.6078
389.8195, 107.9004
390.3016, 108.0621
390.7837, 107.7667
391.2658, 106.5293
391.7480, 104.8468
392.2301, 103.2550
392.7122, 102.1562
393.1943, 100.8270
393.6764, 98.64534
394.1585, 95.92603
394.6407, 93.60505
395.1228, 92.28930
395.6049, 91.20969
396.0870, 89.99437
396.5691, 88.59414
397.0512, 87.10240
397.5334, 85.20437
398.0155, 83.32425
398.4976, 82.01562
398.9797, 81.92551
399.4618, 81.75998
399.9439, 81.14864
400.4261, 80.09421
400.9082, 79.45984
401.3903, 79.42261
401.8724, 79.63480
402.3545, 79.86279
402.8366, 79.96885
403.3188, 80.41233
403.8009, 81.38362
404.2830, 82.63512
404.7651, 83.45265
405.2472, 83.59165
405.7293, 83.97285
406.2115, 85.03114
406.6936, 86.77517
407.1757, 88.58422
407.6578, 90.50019
408.1399, 92.38168
408.6220, 94.07693
409.1042, 95.58944
409.5863, 97.02612
410.0684, 98.29276
410.5505, 99.59512
411.0326, 101.6488
411.5147, 104.4388
411.9969, 107.1994
412.4790, 109.1997
412.9611, 110.8076
413.4432, 112.9008
413.9253, 115.6768
414.4074, 118.7179
414.8896, 121.5275
415.3717, 124.2584
415.8538, 127.2570
416.3359, 130.8138
416.8180, 134.6103
417.3001, 138.2305
417.7823, 141.7268
418.2644, 145.4531
418.7465, 149.8573
419.2286, 154.5703
419.7107, 159.1662
420.1928, 163.3577
420.6750, 167.7347
421.1571, 172.8998
421.6392, 178.4761
422.1213, 183.3519
422.6034, 186.5920
423.0855, 189.6092
423.5677, 193.1256
424.0498, 197.4811
424.5319, 201.2138
425.0140, 204.1001
425.4961, 206.3992
425.9782, 208.3416
426.4604, 209.3374
426.9425, 210.8454
427.4246, 213.0878
427.9067, 216.0363
428.3888, 219.2821
428.8709, 222.6026
429.3531, 226.5933
429.8352, 231.9842
430.3173, 239.1899
430.7994, 245.1547
431.2815, 249.4318
431.7636, 253.0173
432.2458, 257.7941
432.7279, 263.8965
433.2100, 268.8935
433.6921, 271.9600
434.1742, 273.2567
434.6563, 273.2693
435.1385, 271.9977
435.6206, 269.6141
436.1027, 265.7969
436.5848, 260.9705
437.0669, 256.3188
437.5490, 252.1325
438.0312, 247.9936
438.5133, 243.1480
438.9954, 237.8821
439.4775, 232.9857
439.9596, 228.8347
440.4417, 225.2577
440.9239, 222.0743
441.4060, 219.2748
441.8881, 217.0334
442.3702, 215.5590
442.8523, 214.6680
443.3344, 214.1732
443.8166, 214.0208
444.2987, 214.2608
444.7808, 214.8155
445.2629, 215.7588
445.7450, 217.3250
446.2271, 220.2728
446.7093, 223.1902
447.1914, 225.5944
447.6735, 227.4792
448.1556, 228.7805
448.6377, 229.3271
449.1198, 229.3942
449.6020, 229.3704
450.0841, 229.9230
450.5662, 228.9525
451.0483, 225.8029
451.5304, 220.8878
452.0125, 216.1278
452.4947, 211.5403
452.9768, 206.9315
453.4589, 202.1367
453.9410, 197.1097
454.4231, 192.0673
454.9052, 186.8956
455.3874, 181.8602
455.8695, 177.4244
456.3516, 173.4556
456.8337, 169.1289
457.3158, 163.9202
457.7979, 158.3501
458.2801, 153.3031
458.7622, 148.7555
459.2443, 144.3569
459.7264, 139.9337
460.2085, 135.5359
460.6906, 131.2740
461.1728, 127.1628
461.6549, 123.2320
462.1370, 119.5516
462.6191, 116.1170
463.1012, 113.0087
463.5833, 110.3915
464.0655, 107.9707
464.5476, 105.6187
465.0297, 103.3583
465.5118, 101.3088
465.9939, 99.67037
466.4760, 98.17094
466.9582, 96.66453
467.4403, 95.00894
467.9224, 93.55630
468.4045, 92.45982
468.8866, 91.51067
469.3687, 90.39251
469.8509, 89.07296
470.3330, 87.67080
470.8151, 86.16202
471.2972, 84.57203
471.7793, 83.15604
472.2614, 81.89629
472.7436, 80.82389
473.2257, 80.06307
473.7078, 79.61949
474.1899, 78.85611
474.6720, 77.62336
475.1541, 76.32644
475.6363, 75.62469
476.1184, 75.43867
476.6005, 75.25407
477.0826, 74.72987
477.5647, 74.16470
478.0468, 74.09496
478.5290, 74.48392
479.0111, 74.99918
479.4932, 75.40002
479.9753, 75.79838
480.4574, 76.31936
480.9395, 76.98289
481.4217, 77.78619
481.9038, 78.78591
482.3859, 79.89835
482.8680, 80.98917
483.3501, 81.70098
483.8322, 82.68690
484.3144, 84.36164
484.7965, 86.65685
485.2786, 88.73542
485.7607, 90.12363
486.2428, 91.51586
486.7249, 93.27170
487.2071, 95.55079
487.6892, 97.80435
488.1713, 99.99435
488.6534, 102.1832
489.1355, 104.4683
489.6176, 106.8162
490.0998, 109.4274
490.5819, 112.4743
491.0640, 115.8606
491.5461, 118.9100
492.0282, 121.5696
492.5103, 124.4185
492.9925, 128.0289
493.4746, 132.2515
493.9567, 135.9540
494.4388, 139.0426
494.9209, 141.9651
495.4030, 145.3928
495.8852, 149.0826
496.3673, 152.5334
496.8494, 155.6331
497.3315, 158.2902
497.8136, 160.3060
498.2957, 161.7753
498.7779, 163.0105
499.2600, 164.1914
499.7421, 165.2047
500.2242, 166.0032
500.7063, 166.6188
501.1884, 166.8874
501.6706, 166.4828
502.1527, 165.8335
502.6348, 165.3772
503.1169, 165.5030
503.5990, 165.4286
504.0811, 165.0023
504.5633, 164.3142
505.0454, 163.6994
505.5275, 163.3025
506.0096, 162.7509
506.4917, 161.9243
506.9738, 160.8177
507.4560, 159.4211
507.9381, 157.7699
508.4202, 155.7325
508.9023, 153.1492
509.3844, 150.0306
509.8665, 146.5565
510.3487, 142.7540
510.8308, 138.6234
511.3129, 133.9848
511.7950, 128.9491
512.2772, 124.0313
512.7593, 119.5117
513.2414, 115.2636
513.7235, 111.0563
514.2056, 106.8902
514.6877, 102.8903
515.1699, 98.83731
515.6520, 95.14135
516.1341, 92.25818
516.6162, 90.69775
517.0983, 89.13591
517.5804, 86.99710
518.0626, 84.59180
518.5447, 82.42970
519.0268, 80.69188
519.5089, 79.09655
519.9910, 77.64407
520.4731, 76.31672
520.9553, 74.91251
521.4374, 73.39301
521.9195, 71.87868
522.4016, 70.40585
522.8837, 68.95737
523.3658, 67.77206
523.8480, 66.96368
524.3301, 66.17834
524.8122, 64.79640
525.2943, 62.87783
525.7764, 61.32436
526.2585, 60.48631
526.7407, 60.02965
527.2228, 59.37907
527.7049, 58.55042
528.1870, 57.66032
528.6691, 56.53831
529.1512, 55.50602
529.6334, 55.03385
530.1155, 55.16554
530.5976, 55.31607
531.0797, 55.14412
531.5618, 54.81116
532.0439, 54.47708
532.5261, 54.17140
533.0082, 53.87577
533.4903, 53.45953
533.9724, 53.05622
534.4545, 52.94621
534.9366, 53.44489
535.4188, 53.90824
535.9009, 54.18319
536.3830, 54.27449
536.8651, 54.34990
537.3472, 54.35577
537.8293, 54.45220
538.3115, 54.79531
538.7936, 55.41019
539.2757, 55.87922
539.7578, 56.14094
540.2399, 56.36539
540.7220, 56.88720
541.2042, 57.62078
541.6863, 58.06359
542.1684, 57.80042
542.6505, 57.48659
543.1326, 58.20850
543.6147, 59.74136
544.0969, 61.25439
544.5790, 61.96887
545.0611, 62.62351
545.5432, 63.88237
546.0253, 65.81733
546.5074, 67.82581
546.9896, 69.68933
547.4717, 71.48344
547.9538, 73.26099
548.4359, 74.74859
548.9180, 76.61492
549.4001, 79.17360
549.8823, 82.07043
550.3644, 84.68722
550.8465, 86.86728
551.3286, 89.10458
551.8107, 91.47189
552.2928, 94.00179
552.7750, 96.88274
553.2571, 100.1843
553.7392, 103.5635
554.2213, 106.6836
554.7034, 109.6283
555.1855, 113.0264
555.6677, 116.9062
556.1498, 121.2600
556.6319, 126.2203
557.1140, 131.5958
557.5961, 136.9485
558.0782, 142.1069
558.5604, 147.3019
559.0425, 152.4351
559.5246, 157.7100
560.0067, 163.5644
560.4888, 171.0446
560.9709, 178.3026
561.4531, 184.4462
561.9352, 189.4695
562.4173, 193.9315
562.8994, 198.6156
563.3815, 202.1516
563.8636, 203.9288
564.3458, 203.9210
564.8279, 202.1339
565.3100, 198.3334
565.7921, 193.0318
566.2742, 186.8173
566.7563, 179.6263
567.2385, 171.7603
567.7206, 163.0256
568.2027, 154.0312
568.6848, 146.5147
569.1669, 140.2655
569.6490, 134.4932
570.1312, 128.4496
570.6133, 122.6822
571.0954, 118.0543
571.5775, 114.5104
572.0596, 111.7941
572.5417, 109.8977
573.0239, 108.5965
573.5060, 107.7154
573.9881, 107.1710
574.4702, 107.1565
574.9523, 107.8610
575.4344, 109.0820
575.9166, 110.5519
576.3987, 112.3384
576.8808, 114.2683
577.3629, 116.2601
577.8450, 118.4013
578.3271, 121.0276
578.8093, 124.2034
579.2914, 127.6516
579.7735, 131.3198
580.2556, 135.1290
580.7377, 138.7827
581.2198, 142.2290
581.7020, 145.8907
582.1841, 150.1309
582.6662, 154.8288
583.1483, 159.9678
583.6304, 165.5951
584.1125, 170.9415
584.5947, 174.9377
585.0768, 178.3026
585.5589, 182.1066
586.0410, 187.6340
586.5231, 192.6445
587.0052, 195.6545
587.4873, 197.3893
587.9694, 199.7337
588.4515, 203.5545
588.9337, 207.5486
589.4158, 211.3790
589.8979, 215.0470
590.3800, 218.6045
590.8621, 221.8265
591.3442, 225.3493
591.8264, 229.6442
592.3085, 234.7844
592.7906, 239.8372
593.2727, 244.8591
593.7548, 249.5044
594.2369, 253.2407
594.7191, 256.2824
595.2012, 259.4988
595.6833, 263.4581
596.1654, 267.0128
596.6475, 268.8910
597.1296, 269.3755
597.6118, 269.1706
598.0939, 268.9047
598.5760, 267.7654
599.0581, 265.1784
599.5402, 261.2526
600.0223, 256.6788
600.5045, 251.0428
600.9866, 245.2990
601.4687, 239.8519
601.9508, 234.8074
602.4329, 229.6076
602.9150, 224.2653
603.3972, 218.7970
603.8793, 213.0027
604.3614, 206.7261
