##NAMES=Epidote
##RRUFFID=R050202
##IDEAL CHEMISTRY=Ca_2_Fe^3+^Al_2_(Si_2_O_7_)(SiO_4_)O(OH)
##LOCALITY=Iron Cap mine, Landsman Camp, Graham County, Arizona, USA
##OWNER=RRUFF
##SOURCE=Bob Downs
##DESCRIPTION=Green colored prismatic single crystal associated with quartz, diopside and tremolite
##STATUS=The identification of this mineral has been confirmed by X-ray diffraction and chemical analysis
##URL=rruff.info/R050202
##MEASURED CHEMISTRY=Ca_2.00_Al_2.00_(Fe^3+^_0.68_Al_0.32_)(SiO_4_)(Si_2_O_7_)O(OH)
92.96582, 1424.271
93.44794, 1410.567
93.93005, 1412.927
94.41217, 1429.974
94.89429, 1439.975
95.37640, 1446.402
95.85852, 1450.851
96.34064, 1453.606
96.82275, 1455.251
97.30487, 1455.385
97.78699, 1454.956
98.26910, 1457.406
98.75122, 1457.407
99.23334, 1453.258
99.71545, 1444.449
100.1976, 1426.755
100.6797, 1399.669
101.1618, 1366.716
101.6439, 1331.761
102.1260, 1294.129
102.6081, 1254.892
103.0903, 1216.419
103.5724, 1176.741
104.0545, 1140.423
104.5366, 1108.298
105.0187, 1079.877
105.5008, 1054.265
105.9830, 1030.602
106.4651, 1009.689
106.9472, 989.8440
107.4293, 974.9842
107.9114, 962.0619
108.3935, 950.7952
108.8757, 940.9436
109.3578, 932.3369
109.8399, 924.7725
110.3220, 918.4485
110.8041, 912.8577
111.2862, 907.4405
111.7684, 902.8697
112.2505, 900.2264
112.7326, 899.7872
113.2147, 900.2260
113.6968, 898.5807
114.1789, 893.3587
114.6611, 888.9686
115.1432, 886.4694
115.6253, 885.3491
116.1074, 884.5763
116.5895, 883.7225
117.0716, 882.9535
117.5538, 882.6356
118.0359, 882.9720
118.5180, 883.3730
119.0001, 883.3216
119.4822, 882.7972
119.9643, 882.4313
120.4465, 882.6337
120.9286, 883.1537
121.4107, 883.7501
121.8928, 884.3395
122.3749, 884.9841
122.8570, 885.7384
123.3392, 886.3617
123.8213, 887.6135
124.3034, 890.4435
124.7855, 893.8006
125.2676, 896.1863
125.7497, 896.3593
126.2319, 894.5679
126.7140, 894.3734
127.1961, 897.3252
127.6782, 900.6151
128.1603, 904.1209
128.6424, 907.4999
129.1246, 910.1526
129.6067, 911.4260
130.0888, 910.8927
130.5709, 911.1877
131.0530, 912.6564
131.5351, 914.4882
132.0173, 916.1852
132.4994, 917.7037
132.9815, 919.3837
133.4636, 921.7755
133.9457, 925.3460
134.4278, 928.0098
134.9100, 928.7902
135.3921, 928.9177
135.8742, 929.8360
136.3563, 931.9465
136.8384, 934.8288
137.3205, 938.2644
137.8027, 942.4288
138.2848, 945.6309
138.7669, 946.1600
139.2490, 944.8428
139.7311, 945.0597
140.2132, 948.4948
140.6954, 953.2847
141.1775, 957.3007
141.6596, 960.3938
142.1417, 963.4382
142.6238, 967.3304
143.1059, 972.2379
143.5881, 977.0145
144.0702, 981.1514
144.5523, 985.1734
145.0344, 989.8580
145.5165, 995.4797
145.9986, 1000.717
146.4807, 1002.779
146.9629, 999.1467
147.4450, 996.9365
147.9271, 996.9537
148.4092, 998.7379
148.8913, 1002.053
149.3734, 1006.819
149.8556, 1012.702
150.3377, 1018.354
150.8198, 1022.843
151.3019, 1028.151
151.7840, 1034.570
152.2661, 1041.981
152.7483, 1050.144
153.2304, 1058.947
153.7125, 1068.427
154.1946, 1078.403
154.6767, 1089.105
155.1588, 1099.946
155.6410, 1110.698
156.1231, 1121.377
156.6052, 1132.023
157.0873, 1142.584
157.5694, 1153.071
158.0515, 1163.831
158.5337, 1175.111
159.0158, 1186.456
159.4979, 1197.795
159.9800, 1209.155
160.4621, 1219.582
160.9442, 1228.295
161.4264, 1235.437
161.9085, 1240.999
162.3906, 1244.341
162.8727, 1246.249
163.3548, 1248.135
163.8369, 1250.328
164.3191, 1251.776
164.8012, 1251.392
165.2833, 1249.775
165.7654, 1248.152
166.2475, 1247.599
166.7296, 1247.774
167.2118, 1246.613
167.6939, 1243.257
168.1760, 1239.459
168.6581, 1235.614
169.1402, 1231.988
169.6223, 1229.077
170.1045, 1227.478
170.5866, 1227.306
171.0687, 1227.165
171.5508, 1227.524
172.0329, 1227.508
172.5150, 1227.043
172.9972, 1225.959
173.4793, 1223.909
173.9614, 1220.413
174.4435, 1215.051
174.9256, 1209.603
175.4077, 1204.360
175.8899, 1198.792
176.3720, 1191.919
176.8541, 1183.951
177.3362, 1176.586
177.8183, 1172.275
178.3004, 1173.138
178.7826, 1172.072
179.2647, 1167.693
179.7468, 1162.348
180.2289, 1157.446
180.7110, 1153.428
181.1931, 1150.775
181.6752, 1150.707
182.1574, 1154.652
182.6395, 1156.941
183.1216, 1156.206
183.6037, 1153.728
184.0858, 1150.837
184.5679, 1147.705
185.0501, 1145.037
185.5322, 1144.413
186.0143, 1145.935
186.4964, 1147.325
186.9785, 1148.071
187.4606, 1148.110
187.9428, 1147.106
188.4249, 1144.470
188.9070, 1141.450
189.3891, 1139.616
189.8712, 1138.995
190.3533, 1138.684
190.8355, 1138.268
191.3176, 1137.731
191.7997, 1136.981
192.2818, 1135.852
192.7639, 1134.590
193.2460, 1133.153
193.7282, 1131.530
194.2103, 1130.473
194.6924, 1130.790
195.1745, 1132.596
195.6566, 1134.710
196.1387, 1136.932
196.6209, 1139.417
197.1030, 1142.510
197.5851, 1146.220
198.0672, 1149.865
198.5493, 1152.314
199.0314, 1152.863
199.5136, 1154.550
199.9957, 1158.228
200.4778, 1162.692
200.9599, 1167.259
201.4420, 1171.768
201.9241, 1176.442
202.4063, 1181.800
202.8884, 1188.725
203.3705, 1194.610
203.8526, 1198.213
204.3347, 1201.622
204.8168, 1206.777
205.2990, 1214.114
205.7811, 1222.292
206.2632, 1228.763
206.7453, 1231.615
207.2274, 1235.338
207.7095, 1241.772
208.1917, 1248.134
208.6738, 1251.541
209.1559, 1251.056
209.6380, 1248.269
210.1201, 1246.329
210.6022, 1245.419
211.0844, 1245.192
211.5665, 1245.870
212.0486, 1247.150
212.5307, 1248.812
213.0128, 1250.809
213.4949, 1252.877
213.9771, 1254.369
214.4592, 1254.631
214.9413, 1255.777
215.4234, 1258.935
215.9055, 1263.063
216.3876, 1266.475
216.8698, 1268.489
217.3519, 1269.894
217.8340, 1272.143
218.3161, 1275.112
218.7982, 1278.811
219.2803, 1283.539
219.7625, 1289.005
220.2446, 1294.394
220.7267, 1299.121
221.2088, 1304.311
221.6909, 1312.080
222.1730, 1322.778
222.6552, 1332.845
223.1373, 1339.877
223.6194, 1344.695
224.1015, 1350.372
224.5836, 1357.835
225.0657, 1366.289
225.5479, 1374.643
226.0300, 1382.889
226.5121, 1391.429
226.9942, 1401.269
227.4763, 1411.990
227.9584, 1420.981
228.4406, 1426.681
228.9227, 1431.406
229.4048, 1437.518
229.8869, 1444.930
230.3690, 1451.467
230.8511, 1455.124
231.3333, 1455.960
231.8154, 1456.769
232.2975, 1459.123
232.7796, 1460.257
233.2617, 1458.359
233.7438, 1453.572
234.2260, 1447.495
234.7081, 1440.964
235.1902, 1433.863
235.6723, 1428.057
236.1544, 1425.186
236.6365, 1422.375
237.1187, 1418.107
237.6008, 1412.568
238.0829, 1407.025
238.5650, 1402.387
239.0471, 1398.554
239.5292, 1396.367
240.0114, 1397.423
240.4935, 1398.861
240.9756, 1399.345
241.4577, 1399.130
241.9398, 1399.418
242.4219, 1401.354
242.9041, 1405.066
243.3862, 1409.494
243.8683, 1415.572
244.3504, 1421.526
244.8325, 1427.060
245.3146, 1431.931
245.7968, 1435.788
246.2789, 1438.193
246.7610, 1439.004
247.2431, 1439.747
247.7252, 1440.476
248.2073, 1441.108
248.6895, 1441.888
249.1716, 1442.591
249.6537, 1442.676
250.1358, 1441.678
250.6179, 1439.551
251.1000, 1436.857
251.5822, 1432.574
252.0643, 1428.765
252.5464, 1426.781
253.0285, 1425.973
253.5106, 1424.683
253.9927, 1421.664
254.4748, 1416.929
254.9570, 1411.374
255.4391, 1404.669
255.9212, 1397.630
256.4033, 1390.765
256.8854, 1383.832
257.3676, 1376.253
257.8497, 1367.693
258.3318, 1358.150
258.8139, 1347.157
259.2960, 1334.376
259.7781, 1320.950
260.2603, 1306.834
260.7424, 1292.325
261.2245, 1277.918
261.7066, 1263.955
262.1887, 1250.387
262.6708, 1237.114
263.1530, 1223.340
263.6351, 1210.565
264.1172, 1199.855
264.5993, 1190.470
265.0814, 1180.441
265.5635, 1168.520
266.0457, 1155.788
266.5278, 1145.960
267.0099, 1139.401
267.4920, 1134.193
267.9741, 1130.168
268.4562, 1127.037
268.9384, 1124.329
269.4204, 1121.959
269.9026, 1119.723
270.3847, 1116.896
270.8668, 1112.723
271.3489, 1110.034
271.8310, 1110.978
272.3131, 1113.898
272.7953, 1115.625
273.2774, 1115.097
273.7595, 1113.292
274.2416, 1111.823
274.7237, 1110.910
275.2058, 1109.042
275.6880, 1105.442
276.1701, 1100.645
276.6522, 1095.827
277.1343, 1091.430
277.6164, 1086.311
278.0985, 1077.889
278.5807, 1066.550
279.0628, 1056.566
279.5449, 1049.796
280.0270, 1044.920
280.5091, 1039.749
280.9912, 1033.826
281.4734, 1028.295
281.9555, 1024.560
282.4376, 1022.241
282.9197, 1020.179
283.4018, 1017.972
283.8839, 1015.909
284.3661, 1014.540
284.8482, 1014.014
285.3303, 1013.432
285.8124, 1011.573
286.2945, 1009.118
286.7766, 1007.829
287.2588, 1009.007
287.7409, 1011.010
288.2230, 1011.959
288.7051, 1011.779
289.1872, 1011.380
289.6693, 1011.707
290.1515, 1012.023
290.6336, 1010.927
291.1157, 1007.585
291.5978, 1003.541
292.0799, 1000.202
292.5620, 997.5638
293.0442, 995.1670
293.5263, 992.9617
294.0084, 990.8232
294.4905, 988.4580
294.9726, 985.6083
295.4547, 983.1697
295.9369, 981.7603
296.4190, 981.3767
296.9011, 982.0821
297.3832, 984.4625
297.8653, 987.4796
298.3474, 989.7299
298.8296, 991.0533
299.3117, 992.8340
299.7938, 996.3513
300.2759, 1001.273
300.7580, 1005.738
301.2401, 1009.085
301.7223, 1012.265
302.2044, 1016.366
302.6865, 1021.267
303.1686, 1025.739
303.6507, 1029.241
304.1328, 1031.829
304.6150, 1033.445
305.0971, 1033.549
305.5792, 1033.723
306.0613, 1035.201
306.5434, 1037.671
307.0255, 1040.380
307.5077, 1043.639
307.9898, 1046.794
308.4719, 1048.292
308.9540, 1047.680
309.4361, 1046.748
309.9182, 1046.241
310.4004, 1046.200
310.8825, 1046.873
311.3646, 1048.829
311.8467, 1051.055
312.3288, 1052.182
312.8109, 1052.158
313.2931, 1051.391
313.7752, 1048.986
314.2573, 1046.414
314.7394, 1045.625
315.2215, 1047.477
315.7036, 1049.752
316.1858, 1050.219
316.6679, 1048.891
317.1500, 1047.351
317.6321, 1045.985
318.1142, 1044.681
318.5963, 1043.383
319.0785, 1042.101
319.5606, 1040.634
320.0427, 1038.616
320.5248, 1036.182
321.0069, 1034.248
321.4890, 1033.196
321.9712, 1032.404
322.4533, 1030.904
322.9354, 1028.909
323.4175, 1027.942
323.8996, 1029.172
324.3817, 1032.004
324.8639, 1034.849
325.3460, 1037.538
325.8281, 1040.388
326.3102, 1043.333
326.7923, 1046.554
327.2744, 1050.624
327.7566, 1056.207
328.2387, 1062.495
328.7208, 1068.008
329.2029, 1072.466
329.6850, 1077.738
330.1671, 1086.187
330.6493, 1095.715
331.1314, 1103.240
331.6135, 1107.707
332.0956, 1110.841
332.5777, 1113.957
333.0598, 1117.058
333.5420, 1120.467
334.0241, 1124.603
334.5062, 1128.846
334.9883, 1132.753
335.4704, 1136.534
335.9525, 1138.824
336.4347, 1137.840
336.9168, 1134.419
337.3989, 1131.848
337.8810, 1131.113
338.3631, 1130.989
338.8452, 1130.329
339.3274, 1129.176
339.8094, 1127.476
340.2916, 1124.283
340.7737, 1120.785
341.2558, 1119.200
341.7379, 1119.981
342.2200, 1121.683
342.7021, 1123.555
343.1843, 1125.465
343.6664, 1126.939
344.1485, 1126.823
344.6306, 1126.932
345.1127, 1129.654
345.5948, 1134.924
346.0770, 1139.687
346.5591, 1142.096
347.0412, 1142.794
347.5233, 1143.948
348.0054, 1146.480
348.4875, 1148.008
348.9697, 1147.264
349.4518, 1144.391
349.9339, 1139.923
350.4160, 1134.135
350.8981, 1126.623
351.3802, 1116.458
351.8624, 1103.757
352.3445, 1089.490
352.8266, 1072.988
353.3087, 1055.396
353.7908, 1038.476
354.2729, 1022.626
354.7551, 1007.028
355.2372, 990.4843
355.7193, 972.9276
356.2014, 956.6901
356.6835, 942.6345
357.1656, 929.5588
357.6478, 916.2664
358.1299, 902.7955
358.6120, 889.8661
359.0941, 877.8889
359.5762, 866.9664
360.0583, 857.0217
360.5405, 847.7981
361.0226, 839.6225
361.5047, 833.0126
361.9868, 827.5146
362.4689, 822.0518
362.9510, 816.1750
363.4332, 810.1277
363.9153, 804.6653
364.3974, 800.0254
364.8795, 795.3834
365.3616, 790.2497
365.8438, 785.2372
366.3259, 781.3143
366.8080, 778.6145
367.2901, 776.0790
367.7722, 772.3721
368.2543, 767.0951
368.7365, 762.3353
369.2186, 758.3864
369.7007, 754.6840
370.1828, 750.9297
370.6649, 747.1144
371.1470, 743.3580
371.6292, 739.7717
372.1113, 736.3260
372.5934, 732.6083
373.0755, 728.1116
373.5576, 723.9633
374.0397, 720.5858
374.5219, 717.6761
375.0040, 714.9193
375.4861, 712.1631
375.9682, 709.3080
376.4503, 706.1078
376.9324, 702.4677
377.4146, 698.5647
377.8967, 694.0282
378.3788, 689.5215
378.8609, 685.3771
379.3430, 681.7203
379.8251, 678.6537
380.3073, 676.4539
380.7894, 675.3639
381.2715, 673.3777
381.7536, 669.2324
382.2357, 665.4213
382.7178, 662.8799
383.2000, 661.2978
383.6821, 659.8511
384.1642, 657.9713
384.6463, 655.9714
385.1284, 655.1673
385.6105, 656.3419
386.0927, 657.4765
386.5748, 658.3285
387.0569, 658.9037
387.5390, 659.1592
388.0211, 659.0935
388.5032, 658.8554
388.9854, 658.7643
389.4675, 658.9706
389.9496, 658.5052
390.4317, 656.2120
390.9138, 654.1058
391.3959, 653.6156
391.8781, 654.3722
392.3602, 654.7535
392.8423, 653.6038
393.3244, 651.1077
393.8065, 648.0267
394.2886, 643.9929
394.7708, 640.1411
395.2529, 637.2490
395.7350, 634.7672
396.2171, 631.9081
396.6992, 628.2758
397.1813, 624.4564
397.6635, 620.9976
398.1456, 617.8855
398.6277, 615.4784
399.1098, 614.1021
399.5919, 613.3729
400.0740, 612.8153
400.5562, 612.4065
401.0383, 612.3260
401.5204, 612.6166
402.0025, 613.3116
402.4846, 614.5073
402.9667, 616.2302
403.4489, 618.3965
403.9310, 621.1274
404.4131, 624.2819
404.8952, 627.3765
405.3773, 629.6673
405.8594, 632.3645
406.3416, 637.0304
406.8237, 643.3567
407.3058, 649.0491
407.7879, 652.7820
408.2700, 655.2681
408.7521, 658.2718
409.2343, 661.4980
409.7164, 665.6844
410.1985, 671.6461
410.6806, 678.5067
411.1627, 684.8265
411.6448, 690.2699
412.1269, 695.7242
412.6090, 702.1624
413.0912, 709.7249
413.5733, 717.9073
414.0554, 727.4108
414.5375, 736.8928
415.0196, 745.3193
415.5017, 753.0177
415.9839, 761.0744
416.4660, 770.1160
416.9481, 780.1412
417.4302, 791.1746
417.9123, 804.7662
418.3944, 817.4840
418.8766, 828.3615
419.3587, 838.5687
419.8408, 849.0844
420.3229, 860.2147
420.8050, 872.1427
421.2871, 885.3298
421.7693, 900.5286
422.2514, 914.2341
422.7335, 926.2018
423.2156, 937.0899
423.6977, 947.0629
424.1798, 956.2196
424.6620, 964.7760
425.1441, 973.0682
425.6262, 980.6265
426.1083, 985.4749
426.5904, 986.5080
427.0725, 986.8742
427.5547, 986.9158
428.0368, 986.9371
428.5189, 987.2214
429.0010, 987.8311
429.4831, 988.5939
429.9652, 989.1773
430.4474, 989.5829
430.9295, 990.6432
431.4116, 992.4830
431.8937, 995.0076
432.3758, 998.6186
432.8579, 1002.826
433.3401, 1006.185
433.8222, 1007.200
434.3043, 1007.552
434.7864, 1010.294
435.2685, 1015.687
435.7506, 1020.721
436.2328, 1023.745
436.7149, 1025.792
437.1970, 1028.730
437.6791, 1033.063
438.1612, 1036.705
438.6433, 1037.740
439.1255, 1037.422
439.6076, 1038.638
440.0897, 1042.156
440.5718, 1046.001
441.0539, 1048.049
441.5360, 1048.274
442.0182, 1048.949
442.5003, 1050.348
442.9824, 1052.091
443.4645, 1054.265
443.9466, 1056.625
444.4287, 1058.228
444.9109, 1058.414
445.3930, 1058.066
445.8751, 1059.631
446.3572, 1064.059
446.8393, 1069.009
447.3214, 1074.663
447.8036, 1080.618
448.2857, 1086.654
448.7678, 1092.667
449.2499, 1098.629
449.7320, 1104.538
450.2141, 1110.426
450.6963, 1115.599
451.1784, 1119.608
451.6605, 1123.412
452.1426, 1126.922
452.6247, 1130.450
453.1068, 1134.542
453.5890, 1139.432
454.0711, 1144.484
454.5532, 1148.428
455.0353, 1151.020
455.5174, 1153.400
455.9995, 1154.900
456.4817, 1156.865
456.9638, 1160.469
457.4459, 1165.328
457.9280, 1169.778
458.4101, 1172.744
458.8922, 1174.476
459.3744, 1175.492
459.8565, 1175.400
460.3386, 1175.857
460.8207, 1178.622
461.3028, 1181.957
461.7849, 1183.554
462.2671, 1182.641
462.7492, 1181.680
463.2313, 1183.626
463.7134, 1187.038
464.1955, 1186.981
464.6776, 1181.774
465.1598, 1175.235
465.6419, 1171.717
466.1240, 1170.802
466.6061, 1167.619
467.0882, 1161.142
467.5703, 1152.639
468.0525, 1142.409
468.5346, 1130.819
469.0167, 1119.111
469.4988, 1108.157
469.9809, 1096.576
470.4630, 1080.772
470.9452, 1057.551
471.4273, 1035.764
471.9094, 1016.572
472.3915, 998.2388
472.8736, 979.5403
473.3557, 960.3497
473.8379, 941.1301
474.3200, 922.2850
474.8021, 903.7386
475.2842, 885.4046
475.7663, 867.0091
476.2484, 849.3549
476.7306, 832.3657
477.2127, 816.2598
477.6948, 801.2997
478.1769, 787.6251
478.6590, 775.1575
479.1411, 763.9041
479.6233, 753.8353
480.1054, 745.0547
480.5875, 738.1286
481.0696, 731.9163
481.5517, 725.6748
482.0338, 719.6539
482.5159, 714.2966
482.9980, 709.7244
483.4802, 706.0416
483.9623, 703.6833
484.4444, 702.6539
484.9265, 701.8022
485.4086, 701.0663
485.8907, 699.9890
486.3729, 697.3749
486.8550, 693.0739
487.3371, 690.6823
487.8192, 693.1151
488.3013, 697.1647
488.7834, 698.8156
489.2656, 697.9232
489.7477, 696.8607
490.2298, 697.0801
490.7119, 698.3815
491.1940, 699.8076
491.6761, 701.0730
492.1583, 702.8069
492.6404, 705.7855
493.1225, 708.9633
493.6046, 711.0121
494.0867, 711.7512
494.5688, 712.1291
495.0510, 713.1232
495.5331, 714.7592
496.0152, 716.6071
496.4973, 718.2798
496.9794, 720.6097
497.4615, 724.0834
497.9437, 728.2401
498.4258, 732.7054
498.9079, 737.3323
499.3900, 741.4913
499.8721, 743.8597
500.3542, 744.0580
500.8364, 745.3531
501.3185, 748.8869
501.8006, 752.6854
502.2827, 755.6450
502.7648, 757.9639
503.2469, 760.2862
503.7291, 762.8857
504.2112, 765.6026
504.6933, 768.3733
505.1754, 771.1766
505.6575, 773.4088
506.1396, 774.8207
506.6218, 775.5898
507.1039, 775.8096
507.5860, 775.4198
508.0681, 775.3493
508.5502, 776.8797
509.0323, 778.1742
509.5145, 776.8237
509.9966, 773.1241
510.4787, 769.7540
510.9608, 768.5250
511.4429, 768.7410
511.9250, 767.6013
512.4072, 764.4418
512.8893, 760.7955
513.3714, 756.2956
513.8535, 751.6360
514.3356, 747.3830
514.8177, 743.6215
515.2999, 740.0750
515.7820, 736.4897
516.2641, 732.9065
516.7462, 729.6849
517.2283, 726.6198
517.7104, 724.3285
518.1926, 723.5040
518.6747, 723.1307
519.1568, 722.0729
519.6389, 720.0812
520.1210, 718.0947
520.6031, 716.9078
521.0853, 716.4950
521.5674, 716.7719
522.0495, 717.9336
522.5316, 719.3133
523.0137, 720.6755
523.4958, 721.9125
523.9780, 722.7332
524.4601, 722.8942
524.9422, 722.9651
525.4243, 723.1827
525.9064, 723.5983
526.3885, 724.2789
526.8707, 725.2266
527.3528, 726.6270
527.8349, 728.7667
528.3170, 731.7661
528.7991, 734.5449
529.2813, 737.3041
529.7634, 739.6429
530.2455, 741.0338
530.7276, 741.9791
531.2097, 743.2184
531.6918, 745.0528
532.1740, 747.4477
532.6561, 750.4415
533.1382, 754.1946
533.6203, 757.9293
534.1024, 761.8355
534.5845, 765.5285
535.0667, 768.8874
535.5488, 771.9247
536.0309, 774.6822
536.5130, 777.1185
536.9951, 779.4594
537.4772, 782.1445
537.9594, 785.1907
538.4415, 788.0274
538.9236, 790.7249
539.4057, 792.9073
539.8878, 793.7468
540.3699, 793.5809
540.8521, 794.4218
541.3342, 798.0081
541.8163, 801.8754
542.2984, 803.8832
542.7805, 804.3069
543.2626, 804.0065
543.7448, 803.0717
544.2269, 802.6603
544.7090, 804.9883
545.1911, 811.8665
545.6732, 816.7405
546.1553, 818.1868
546.6375, 818.9924
547.1196, 820.5396
547.6017, 822.7672
548.0838, 825.0121
548.5659, 826.8903
549.0480, 828.9285
549.5302, 832.6580
550.0123, 839.0530
550.4944, 844.1712
550.9765, 846.8801
551.4586, 848.7732
551.9407, 850.3265
552.4229, 851.6858
552.9050, 853.0924
553.3871, 854.8041
553.8692, 856.4719
554.3513, 857.5905
554.8334, 858.1619
555.3156, 858.1443
555.7977, 857.0178
556.2798, 855.9906
556.7619, 856.8943
557.2440, 859.6489
557.7261, 862.6062
558.2083, 865.3810
558.6904, 868.3232
559.1725, 871.7128
559.6546, 875.5137
560.1367, 879.5449
560.6188, 883.6664
561.1010, 888.1854
561.5831, 893.6537
562.0652, 900.3557
562.5473, 907.4922
563.0294, 914.9889
563.5115, 922.9030
563.9937, 931.6306
564.4758, 940.7621
564.9579, 949.8256
565.4400, 958.8071
565.9221, 966.5768
566.4042, 971.3546
566.8864, 973.1765
567.3685, 971.4940
567.8506, 966.0023
568.3327, 956.9467
568.8148, 944.0947
569.2969, 928.0451
569.7791, 910.8423
570.2612, 891.8875
570.7433, 873.2727
571.2254, 856.5102
571.7075, 841.6160
572.1896, 828.8173
572.6718, 818.1464
573.1539, 809.4689
573.6360, 802.6129
574.1181, 797.6483
574.6002, 794.4940
575.0823, 793.0984
575.5645, 793.4352
576.0466, 795.9736
576.5287, 800.1092
577.0108, 804.8409
577.4929, 809.7941
577.9750, 815.4753
578.4572, 822.8069
578.9393, 831.9597
579.4214, 841.2503
579.9035, 849.8834
580.3856, 859.7136
580.8677, 871.7811
581.3499, 885.3534
581.8320, 899.2253
582.3141, 913.0277
582.7962, 926.9529
583.2783, 941.1404
583.7604, 955.5300
584.2426, 969.7080
584.7247, 983.4376
585.2068, 997.6613
585.6889, 1013.031
586.1710, 1029.494
586.6531, 1046.867
