##NAMES=Epidote
##RRUFFID=R050064
##IDEAL CHEMISTRY=Ca_2_Fe^3+^Al_2_(Si_2_O_7_)(SiO_4_)O(OH)
##LOCALITY=East Xichang City, Meigu County, Sichuan Province, China
##OWNER=RRUFF
##SOURCE=Rock Currier
##DESCRIPTION=Green prismatic crystals
##STATUS=The identification of this mineral has been confirmed by X-ray diffraction and chemical analysis
##URL=rruff.info/R050064
##MEASURED CHEMISTRY=(Ca_1.99_Mn_0.01_)_Î£=2_Fe^3+^_1.00_Al_2.00_(Si_2.00_O_7_)(Si_1.00_O_4_)O(OH); 
143.6789, 488.2430
144.1610, 511.3026
144.6431, 532.8028
145.1252, 558.2170
145.6074, 593.9550
146.0895, 638.4655
146.5716, 681.6647
147.0537, 715.7558
147.5358, 739.9697
148.0179, 762.2594
148.5001, 772.6984
148.9822, 788.3927
149.4643, 832.4995
149.9464, 904.0916
150.4285, 962.4248
150.9106, 965.5391
151.3928, 919.0960
151.8749, 898.8390
152.3570, 930.5896
152.8391, 977.1918
153.3212, 1004.530
153.8033, 1009.773
154.2855, 1010.066
154.7676, 1015.414
155.2497, 1026.586
155.7318, 1046.675
156.2139, 1079.929
156.6960, 1120.569
157.1782, 1162.198
157.6603, 1204.235
158.1424, 1248.622
158.6245, 1293.080
159.1066, 1340.587
159.5887, 1400.746
160.0709, 1493.182
160.5530, 1593.146
161.0351, 1657.411
161.5172, 1674.808
161.9993, 1693.892
162.4814, 1756.730
162.9636, 1845.618
163.4457, 1931.708
163.9278, 2004.073
164.4099, 2067.452
164.8920, 2131.600
165.3741, 2200.230
165.8563, 2258.418
166.3384, 2292.745
166.8205, 2311.287
167.3026, 2326.315
167.7847, 2344.527
168.2668, 2361.871
168.7490, 2368.160
169.2311, 2358.965
169.7132, 2348.587
170.1953, 2341.585
170.6774, 2338.757
171.1595, 2342.900
171.6417, 2361.110
172.1238, 2384.706
172.6059, 2392.122
173.0880, 2381.193
173.5701, 2356.816
174.0522, 2320.063
174.5344, 2273.318
175.0165, 2220.027
175.4986, 2161.976
175.9807, 2098.164
176.4628, 2024.173
176.9449, 1935.958
177.4271, 1844.194
177.9092, 1747.213
178.3913, 1651.221
178.8734, 1564.900
179.3555, 1491.657
179.8376, 1430.411
180.3197, 1377.875
180.8019, 1337.775
181.2840, 1300.466
181.7661, 1259.242
182.2482, 1219.316
182.7303, 1188.496
183.2124, 1172.070
183.6946, 1164.637
184.1767, 1149.961
184.6588, 1121.542
185.1409, 1097.480
185.6230, 1081.672
186.1051, 1072.409
186.5873, 1068.879
187.0694, 1071.655
187.5515, 1077.307
188.0336, 1076.305
188.5157, 1064.457
188.9978, 1052.841
189.4800, 1044.511
189.9621, 1037.439
190.4442, 1028.637
190.9263, 1016.553
191.4084, 1004.016
191.8905, 998.4107
192.3727, 1004.297
192.8548, 1009.291
193.3369, 1003.135
193.8190, 998.8362
194.3011, 1013.375
194.7832, 1053.876
195.2654, 1104.139
195.7475, 1127.161
196.2296, 1104.500
196.7117, 1088.549
197.1938, 1084.482
197.6759, 1089.590
198.1581, 1103.663
198.6402, 1126.331
199.1223, 1152.970
199.6044, 1175.323
200.0865, 1192.996
200.5686, 1206.591
201.0508, 1215.319
201.5329, 1221.457
202.0150, 1227.391
202.4971, 1233.584
202.9792, 1237.434
203.4613, 1234.576
203.9435, 1223.112
204.4256, 1208.698
204.9077, 1190.918
205.3898, 1171.310
205.8719, 1149.954
206.3540, 1127.270
206.8362, 1104.969
207.3183, 1085.234
207.8004, 1068.756
208.2825, 1053.674
208.7646, 1039.068
209.2467, 1026.277
209.7289, 1016.523
210.2110, 1009.775
210.6931, 1004.646
211.1752, 998.4583
211.6573, 988.3561
212.1395, 988.3142
212.6216, 1009.489
213.1037, 1030.478
213.5858, 1038.260
214.0679, 1034.546
214.5500, 1031.140
215.0322, 1040.491
215.5143, 1065.018
215.9964, 1086.170
216.4785, 1098.423
216.9606, 1112.553
217.4427, 1133.276
217.9249, 1159.691
218.4070, 1188.131
218.8891, 1215.420
219.3712, 1241.448
219.8533, 1270.346
220.3354, 1307.327
220.8176, 1342.221
221.2997, 1368.728
221.7818, 1391.022
222.2639, 1417.164
222.7460, 1452.311
223.2281, 1496.477
223.7103, 1546.636
224.1924, 1610.007
224.6745, 1672.129
225.1566, 1727.448
225.6387, 1780.251
226.1208, 1837.565
226.6030, 1903.629
227.0851, 1976.219
227.5672, 2045.865
228.0493, 2110.697
228.5314, 2175.290
229.0135, 2245.980
229.4957, 2314.696
229.9778, 2371.966
230.4599, 2413.414
230.9420, 2442.660
231.4241, 2468.645
231.9062, 2491.487
232.3884, 2510.068
232.8705, 2520.854
233.3526, 2529.813
233.8347, 2540.278
234.3168, 2553.651
234.7989, 2573.157
235.2811, 2604.666
235.7632, 2651.391
236.2453, 2703.509
236.7274, 2760.396
237.2095, 2821.788
237.6916, 2886.805
238.1738, 2955.680
238.6559, 3031.381
239.1380, 3123.042
239.6201, 3240.808
240.1022, 3336.893
240.5843, 3409.017
241.0665, 3459.631
241.5486, 3488.415
242.0307, 3495.735
242.5128, 3483.005
242.9949, 3453.681
243.4770, 3408.731
243.9592, 3333.463
244.4413, 3203.084
244.9234, 3062.407
245.4055, 2921.850
245.8876, 2783.807
246.3697, 2651.174
246.8519, 2525.647
247.3340, 2406.327
247.8161, 2291.466
248.2982, 2174.598
248.7803, 2071.907
249.2624, 1991.130
249.7446, 1925.760
250.2267, 1865.083
250.7088, 1801.282
251.1909, 1740.089
251.6730, 1699.109
252.1551, 1685.872
252.6373, 1678.193
253.1194, 1672.949
253.6015, 1667.240
254.0836, 1656.942
254.5657, 1639.730
255.0478, 1620.669
255.5300, 1608.977
256.0121, 1607.464
256.4942, 1602.734
256.9763, 1586.958
257.4584, 1568.789
257.9406, 1554.771
258.4227, 1546.401
258.9048, 1538.982
259.3869, 1526.520
259.8690, 1508.642
260.3511, 1494.195
260.8333, 1488.723
261.3154, 1483.622
261.7975, 1469.721
262.2796, 1447.733
262.7617, 1430.639
263.2438, 1428.001
263.7260, 1438.430
264.2081, 1455.252
264.6902, 1483.347
265.1723, 1509.087
265.6544, 1517.968
266.1365, 1515.501
266.6187, 1520.162
267.1008, 1545.642
267.5829, 1583.245
268.0650, 1613.413
268.5471, 1632.832
269.0292, 1654.023
269.5114, 1688.252
269.9935, 1729.834
270.4756, 1769.751
270.9577, 1802.249
271.4398, 1834.934
271.9219, 1878.134
272.4041, 1932.264
272.8862, 1985.389
273.3683, 2029.758
273.8504, 2070.323
274.3325, 2118.268
274.8146, 2183.049
275.2968, 2239.015
275.7789, 2268.104
276.2610, 2273.642
276.7431, 2268.400
277.2252, 2254.634
277.7073, 2234.628
278.1895, 2211.855
278.6716, 2186.265
279.1537, 2159.391
279.6358, 2127.536
280.1179, 2095.746
280.6000, 2074.534
281.0822, 2067.162
281.5643, 2064.039
282.0464, 2052.074
282.5285, 2029.916
283.0106, 2017.095
283.4927, 2022.279
283.9749, 2033.648
284.4570, 2040.797
284.9391, 2042.924
285.4212, 2044.709
285.9033, 2050.417
286.3854, 2059.843
286.8676, 2065.133
287.3497, 2061.448
287.8318, 2058.709
288.3139, 2058.096
288.7960, 2061.968
289.2781, 2076.709
289.7603, 2106.869
290.2424, 2148.844
290.7245, 2187.098
291.2066, 2218.906
291.6887, 2250.707
292.1708, 2289.887
292.6530, 2327.291
293.1351, 2350.881
293.6172, 2356.518
294.0993, 2349.862
294.5814, 2340.988
295.0635, 2332.880
295.5457, 2315.721
296.0278, 2285.616
296.5099, 2250.172
296.9920, 2213.116
297.4741, 2175.733
297.9562, 2139.914
298.4384, 2108.149
298.9205, 2081.761
299.4026, 2049.603
299.8847, 2000.806
300.3668, 1957.255
300.8489, 1928.905
301.3311, 1911.628
301.8131, 1895.596
302.2953, 1873.926
302.7774, 1848.663
303.2595, 1830.269
303.7416, 1820.633
304.2237, 1815.931
304.7058, 1815.000
305.1880, 1818.082
305.6701, 1826.164
306.1522, 1839.714
306.6343, 1856.310
307.1164, 1870.935
307.5985, 1881.217
308.0807, 1898.223
308.5628, 1932.705
309.0449, 1968.446
309.5270, 1990.361
310.0091, 1999.278
310.4912, 2016.023
310.9734, 2067.219
311.4555, 2148.488
311.9376, 2209.636
312.4197, 2239.888
312.9018, 2258.883
313.3839, 2281.528
313.8661, 2304.300
314.3482, 2317.228
314.8303, 2311.043
315.3124, 2294.391
315.7945, 2284.076
316.2766, 2282.176
316.7588, 2274.060
317.2409, 2243.111
317.7230, 2203.985
318.2051, 2181.011
318.6872, 2180.180
319.1693, 2190.557
319.6515, 2207.010
320.1336, 2228.699
320.6157, 2251.891
321.0978, 2274.557
321.5799, 2299.214
322.0620, 2329.217
322.5442, 2362.853
323.0263, 2406.307
323.5084, 2466.572
323.9905, 2535.595
324.4726, 2605.122
324.9547, 2673.987
325.4369, 2738.515
325.9190, 2794.047
326.4011, 2839.408
326.8832, 2889.155
327.3653, 2953.833
327.8474, 3013.373
328.3296, 3059.912
328.8117, 3092.334
329.2938, 3107.897
329.7759, 3103.633
330.2580, 3083.942
330.7401, 3068.890
331.2223, 3069.977
331.7044, 3061.301
332.1865, 3033.667
332.6686, 2997.897
333.1507, 2964.759
333.6328, 2937.813
334.1150, 2914.879
334.5971, 2893.294
335.0792, 2875.550
335.5613, 2852.347
336.0434, 2809.846
336.5255, 2774.662
337.0077, 2760.554
337.4898, 2766.528
337.9719, 2784.674
338.4540, 2809.858
338.9361, 2841.790
339.4182, 2877.649
339.9004, 2914.753
340.3825, 2960.270
340.8646, 3010.668
341.3467, 3071.566
341.8288, 3150.908
342.3109, 3252.934
342.7931, 3369.403
343.2752, 3490.394
343.7573, 3616.956
344.2394, 3741.758
344.7215, 3859.168
345.2036, 3978.065
345.6858, 4110.132
346.1679, 4255.441
346.6500, 4393.750
347.1321, 4514.256
347.6142, 4617.965
348.0963, 4712.124
348.5785, 4802.816
349.0606, 4867.396
349.5427, 4886.348
350.0248, 4864.417
350.5069, 4808.473
350.9890, 4709.534
351.4712, 4584.584
351.9533, 4442.750
352.4354, 4285.144
352.9175, 4114.773
353.3996, 3929.009
353.8817, 3736.048
354.3639, 3557.068
354.8460, 3393.135
355.3281, 3238.030
355.8102, 3086.103
356.2923, 2944.491
356.7744, 2826.382
357.2566, 2733.239
357.7387, 2653.302
358.2208, 2572.275
358.7029, 2486.181
359.1850, 2422.926
359.6671, 2396.050
360.1493, 2375.046
360.6314, 2344.789
361.1135, 2309.728
361.5956, 2281.057
362.0777, 2265.034
362.5598, 2260.961
363.0420, 2267.175
363.5241, 2294.222
364.0062, 2314.637
364.4883, 2324.390
364.9704, 2327.536
365.4525, 2327.665
365.9347, 2325.449
366.4168, 2318.759
366.8989, 2304.461
367.3810, 2282.073
367.8631, 2258.856
368.3452, 2241.786
368.8274, 2214.860
369.3095, 2168.223
369.7916, 2106.322
370.2737, 2040.084
370.7558, 1973.777
371.2379, 1906.662
371.7201, 1835.526
372.2022, 1759.266
372.6843, 1691.023
373.1664, 1640.573
373.6485, 1599.530
374.1306, 1553.934
374.6128, 1501.434
375.0949, 1451.577
375.5770, 1409.486
376.0591, 1373.847
376.5412, 1342.360
377.0233, 1314.580
377.5055, 1290.726
377.9876, 1270.570
378.4697, 1254.518
378.9518, 1245.208
379.4339, 1250.495
379.9160, 1255.551
380.3982, 1247.472
380.8803, 1231.429
381.3624, 1223.049
381.8445, 1231.248
382.3266, 1251.153
382.8087, 1268.248
383.2909, 1278.172
383.7730, 1290.824
384.2551, 1308.891
384.7372, 1328.082
385.2193, 1343.391
385.7014, 1354.959
386.1836, 1368.796
386.6657, 1392.502
387.1478, 1426.764
387.6299, 1455.986
388.1120, 1479.998
388.5941, 1498.695
389.0763, 1510.610
389.5584, 1517.750
390.0405, 1522.828
390.5226, 1526.886
391.0047, 1529.937
391.4868, 1534.950
391.9690, 1543.444
392.4511, 1538.437
392.9332, 1506.865
393.4153, 1467.266
393.8974, 1438.443
394.3795, 1420.425
394.8617, 1401.009
395.3438, 1374.774
395.8259, 1343.197
396.3080, 1305.595
396.7901, 1261.376
397.2722, 1222.092
397.7544, 1196.545
398.2365, 1183.259
398.7186, 1170.516
399.2007, 1157.383
399.6828, 1145.931
400.1649, 1137.692
400.6471, 1131.515
401.1292, 1125.810
401.6113, 1120.025
402.0934, 1113.431
402.5755, 1104.017
403.0576, 1087.657
403.5398, 1082.016
404.0219, 1094.349
404.5040, 1109.034
404.9861, 1118.054
405.4682, 1122.638
405.9503, 1127.393
406.4325, 1135.029
406.9146, 1145.453
407.3967, 1158.407
407.8788, 1174.738
408.3609, 1191.920
408.8430, 1207.420
409.3252, 1224.901
409.8073, 1249.260
410.2894, 1280.623
410.7715, 1311.109
411.2536, 1331.531
411.7357, 1344.511
412.2179, 1362.466
412.7000, 1385.636
413.1821, 1414.984
413.6642, 1459.162
414.1463, 1509.544
414.6284, 1546.729
415.1106, 1559.357
415.5927, 1567.650
416.0748, 1584.357
416.5569, 1608.573
417.0390, 1638.236
417.5211, 1673.184
418.0033, 1711.022
418.4854, 1747.651
418.9675, 1780.923
419.4496, 1820.926
419.9317, 1865.768
420.4138, 1919.068
420.8960, 1987.346
421.3781, 2067.061
421.8602, 2147.899
422.3423, 2223.899
422.8244, 2295.473
423.3065, 2364.295
423.7887, 2431.572
424.2708, 2494.063
424.7529, 2554.744
425.2350, 2608.967
425.7171, 2650.523
426.1992, 2679.882
426.6814, 2705.153
427.1635, 2730.076
427.6456, 2755.840
428.1277, 2794.325
428.6098, 2846.577
429.0919, 2909.824
429.5741, 2979.415
430.0562, 3059.771
430.5383, 3160.004
431.0204, 3286.573
431.5025, 3424.127
431.9846, 3563.594
432.4668, 3704.116
432.9489, 3846.628
433.4310, 3995.646
433.9131, 4132.247
434.3952, 4234.355
434.8773, 4299.276
435.3595, 4341.604
435.8416, 4362.851
436.3237, 4360.463
436.8058, 4327.389
437.2879, 4269.423
437.7701, 4196.585
438.2522, 4112.806
438.7343, 4025.325
439.2164, 3952.294
439.6985, 3891.575
440.1806, 3851.288
440.6628, 3834.391
441.1449, 3832.208
441.6270, 3833.676
442.1091, 3842.995
442.5912, 3878.196
443.0733, 3958.959
443.5555, 4073.710
444.0376, 4174.494
444.5197, 4250.823
445.0018, 4342.715
445.4839, 4466.279
445.9660, 4614.512
446.4482, 4790.138
446.9303, 4997.017
447.4124, 5197.623
447.8945, 5372.865
448.3766, 5524.896
448.8587, 5654.843
449.3409, 5762.824
449.8230, 5857.146
450.3051, 5946.817
450.7872, 6029.157
451.2693, 6085.683
451.7514, 6111.357
452.2336, 6119.461
452.7157, 6109.594
453.1978, 6086.324
453.6799, 6059.206
454.1620, 6029.937
454.6441, 5985.943
455.1263, 5910.515
455.6084, 5801.171
456.0905, 5675.119
456.5726, 5527.709
457.0547, 5368.211
457.5368, 5201.406
458.0190, 5023.588
458.5011, 4826.539
458.9832, 4604.589
459.4653, 4371.420
459.9474, 4140.271
460.4295, 3911.844
460.9117, 3696.636
461.3938, 3497.861
461.8759, 3311.867
462.3580, 3131.068
462.8401, 2957.118
463.3222, 2800.365
463.8044, 2668.089
464.2865, 2549.756
464.7686, 2435.809
465.2507, 2327.840
465.7328, 2234.208
466.2149, 2159.850
466.6971, 2097.314
467.1792, 2033.315
467.6613, 1964.367
468.1434, 1901.451
468.6255, 1843.336
469.1076, 1792.036
469.5898, 1752.458
470.0719, 1721.338
470.5540, 1690.152
471.0361, 1652.712
471.5182, 1613.191
472.0003, 1583.807
472.4825, 1568.326
472.9646, 1553.246
473.4467, 1532.173
473.9288, 1513.412
474.4109, 1504.298
474.8930, 1504.208
475.3752, 1503.998
475.8573, 1496.490
476.3394, 1486.313
476.8215, 1482.173
477.3036, 1484.325
477.7857, 1486.174
478.2679, 1484.383
478.7500, 1480.253
479.2321, 1476.081
479.7142, 1468.939
480.1963, 1468.627
480.6784, 1480.740
481.1606, 1497.979
481.6427, 1514.059
482.1248, 1528.531
482.6069, 1544.056
483.0890, 1563.031
483.5711, 1584.431
484.0533, 1602.612
484.5354, 1613.074
485.0175, 1627.913
485.4996, 1651.151
485.9817, 1677.230
486.4638, 1700.439
486.9460, 1720.920
487.4281, 1744.638
487.9102, 1779.297
488.3923, 1820.667
488.8744, 1854.496
489.3565, 1878.952
489.8387, 1905.338
490.3208, 1937.617
490.8029, 1976.567
491.2850, 2022.886
491.7671, 2078.951
492.2492, 2135.497
492.7314, 2187.415
493.2135, 2238.838
493.6956, 2292.371
494.1777, 2349.136
494.6598, 2413.876
495.1419, 2491.225
495.6241, 2578.818
496.1062, 2663.845
496.5883, 2752.998
497.0704, 2828.648
497.5525, 2890.297
498.0346, 2938.090
498.5168, 2971.400
498.9989, 2990.527
499.4810, 2997.059
499.9631, 2991.695
500.4452, 2974.803
500.9273, 2945.265
501.4095, 2899.723
501.8916, 2855.943
502.3737, 2826.708
502.8558, 2800.258
503.3379, 2755.062
503.8200, 2683.568
504.3022, 2624.629
504.7843, 2600.038
505.2664, 2591.642
505.7485, 2579.472
506.2306, 2562.261
506.7127, 2549.787
507.1949, 2550.373
507.6770, 2558.259
508.1591, 2548.276
508.6412, 2509.590
509.1233, 2467.607
509.6054, 2423.055
510.0876, 2376.425
510.5697, 2329.038
511.0518, 2280.329
511.5339, 2227.899
512.0161, 2169.897
512.4982, 2107.142
512.9803, 2037.978
513.4624, 1960.049
513.9445, 1893.001
514.4266, 1846.904
514.9088, 1812.812
515.3909, 1779.460
515.8730, 1746.947
516.3551, 1713.406
516.8372, 1675.299
517.3193, 1638.028
517.8015, 1603.611
518.2836, 1573.896
518.7657, 1554.888
519.2478, 1550.833
519.7299, 1555.101
520.2120, 1551.401
520.6942, 1531.465
521.1763, 1519.426
521.6584, 1523.323
522.1405, 1526.672
522.6226, 1521.711
523.1047, 1508.784
523.5869, 1490.561
524.0690, 1467.341
524.5511, 1441.837
525.0332, 1417.833
525.5153, 1395.333
525.9974, 1375.168
526.4796, 1357.995
526.9617, 1342.443
527.4438, 1327.611
527.9259, 1313.369
528.4080, 1298.954
528.8901, 1281.812
529.3723, 1266.868
529.8544, 1259.003
530.3365, 1255.037
530.8186, 1249.065
531.3007, 1239.016
531.7828, 1226.353
532.2650, 1212.318
532.7471, 1195.783
533.2292, 1184.637
533.7113, 1181.817
534.1934, 1181.301
534.6755, 1182.939
535.1577, 1185.103
535.6398, 1185.210
536.1219, 1182.251
536.6040, 1179.814
537.0861, 1182.831
537.5682, 1189.113
538.0504, 1190.493
538.5325, 1185.276
539.0146, 1180.963
539.4967, 1183.491
539.9788, 1191.292
540.4609, 1196.339
540.9431, 1196.125
541.4252, 1196.980
541.9073, 1198.206
542.3894, 1202.326
542.8715, 1213.493
543.3536, 1230.833
543.8358, 1248.541
544.3179, 1262.250
544.8000, 1272.387
545.2821, 1279.834
545.7642, 1281.907
546.2463, 1288.659
546.7285, 1306.159
547.2106, 1326.761
547.6927, 1344.776
548.1748, 1360.156
548.6569, 1376.092
549.1390, 1390.119
549.6211, 1407.971
550.1032, 1440.654
550.5853, 1484.092
551.0674, 1517.922
551.5496, 1532.842
552.0317, 1542.432
552.5138, 1569.494
552.9959, 1621.267
553.4780, 1666.546
553.9601, 1697.690
554.4423, 1731.673
554.9244, 1773.567
555.4065, 1823.355
555.8886, 1881.304
556.3707, 1947.925
556.8528, 2018.078
557.3350, 2083.307
557.8171, 2145.314
558.2992, 2218.781
558.7813, 2306.723
559.2634, 2400.661
559.7455, 2493.334
560.2277, 2588.698
560.7098, 2696.665
561.1919, 2823.780
561.6740, 2952.652
562.1561, 3084.575
562.6382, 3211.405
563.1204, 3332.324
563.6025, 3442.208
564.0846, 3527.167
564.5667, 3579.368
565.0488, 3596.166
565.5309, 3565.424
566.0131, 3474.254
566.4952, 3368.290
566.9773, 3255.614
567.4594, 3128.543
567.9415, 2971.530
568.4236, 2792.246
568.9058, 2624.994
569.3879, 2481.884
569.8700, 2358.261
570.3521, 2250.413
570.8342, 2157.312
571.3163, 2074.984
571.7985, 2002.018
572.2806, 1941.732
572.7627, 1899.491
573.2448, 1876.689
573.7269, 1857.779
574.2090, 1839.994
574.6912, 1828.933
575.1733, 1828.656
575.6554, 1834.453
576.1375, 1841.985
576.6196, 1849.989
577.1017, 1857.903
577.5839, 1862.848
578.0660, 1867.327
578.5481, 1880.838
579.0302, 1904.285
579.5123, 1929.122
579.9944, 1949.253
580.4766, 1970.403
580.9587, 2004.260
581.4408, 2051.894
581.9229, 2104.222
582.4050, 2164.603
582.8871, 2224.749
583.3693, 2283.245
583.8514, 2336.365
584.3335, 2375.959
584.8156, 2397.812
585.2977, 2413.933
585.7798, 2446.239
586.2620, 2496.994
586.7441, 2536.747
587.2262, 2564.427
587.7083, 2580.846
588.1904, 2578.344
588.6725, 2567.162
589.1547, 2563.027
589.6368, 2566.768
590.1189, 2580.956
590.6010, 2609.526
591.0831, 2647.837
591.5652, 2691.867
592.0474, 2740.073
592.5295, 2789.344
593.0116, 2837.654
593.4937, 2884.925
593.9758, 2931.981
594.4579, 2980.207
594.9401, 3024.369
595.4222, 3063.921
595.9043, 3098.934
596.3864, 3134.197
596.8685, 3164.558
597.3506, 3176.712
597.8328, 3162.084
598.3149, 3134.794
598.7970, 3107.168
599.2791, 3076.789
599.7612, 3036.485
600.2433, 2984.688
600.7255, 2926.964
601.2076, 2867.010
601.6897, 2805.328
602.1718, 2745.954
602.6539, 2685.169
603.1360, 2632.276
603.6182, 2591.589
604.1003, 2556.063
604.5824, 2520.782
605.0645, 2485.585
605.5466, 2452.794
606.0287, 2423.206
606.5109, 2397.166
606.9930, 2373.275
607.4751, 2352.324
607.9572, 2342.336
608.4393, 2347.021
608.9214, 2356.446
609.4036, 2361.674
609.8857, 2362.660
610.3678, 2359.963
610.8499, 2358.770
611.3320, 2347.830
611.8141, 2326.305
612.2963, 2292.628
612.7784, 2242.423
613.2605, 2177.423
613.7426, 2107.479
614.2247, 2039.321
614.7068, 1972.068
615.1890, 1904.363
615.6711, 1836.357
616.1532, 1763.492
616.6353, 1682.188
617.1174, 1600.280
617.5995, 1526.863
618.0817, 1461.970
618.5638, 1398.710
619.0459, 1333.880
619.5280, 1274.158
620.0101, 1224.562
620.4922, 1180.331
620.9744, 1133.988
621.4565, 1085.011
621.9386, 1040.635
622.4207, 1007.900
622.9028, 984.6989
623.3849, 964.1691
623.8671, 946.8228
624.3492, 929.3144
624.8313, 911.4455
625.3134, 892.0467
625.7955, 866.6849
626.2776, 835.7853
626.7598, 815.2320
627.2419, 817.3413
627.7240, 819.4182
628.2061, 808.8251
628.6882, 791.5227
629.1703, 775.7470
629.6525, 763.8857
630.1346, 755.2302
630.6167, 750.0923
631.0988, 747.4338
631.5809, 741.0392
632.0630, 729.9365
632.5452, 718.6932
633.0273, 707.8728
633.5094, 698.2296
633.9915, 690.2984
634.4736, 684.0621
634.9557, 679.9380
635.4379, 681.0327
635.9200, 681.1450
636.4021, 675.7629
636.8842, 667.5000
637.3663, 660.3837
637.8484, 655.4208
638.3306, 651.2816
638.8127, 646.6488
