##NAMES=Epidote
##RRUFFID=R050131
##IDEAL CHEMISTRY=Ca_2_Fe^3+^Al_2_(Si_2_O_7_)(SiO_4_)O(OH)
##LOCALITY=Calumet mine, Chaffee County, Colorado, USA
##OWNER=RRUFF
##SOURCE=Dave Bunk Minerals
##DESCRIPTION=Green prismatic crystal
##STATUS=The identification of this mineral has been confirmed by X-ray diffraction and chemical analysis
##URL=rruff.info/R050131
##MEASURED CHEMISTRY=Ca_2.00_Al_2.00_(Fe^3+^_0.75_Al_0.25_)(SiO_4_)(Si_2_O_7_)O(OH)
93.88477, 34.08498
94.36688, 32.10214
94.84900, 32.90578
95.33112, 36.10323
95.81323, 39.83764
96.29535, 43.22977
96.77747, 46.38949
97.25958, 49.70429
97.74170, 53.12719
98.22382, 56.91750
98.70593, 61.42503
99.18805, 66.66202
99.67017, 72.69735
100.1523, 80.12456
100.6344, 89.01338
101.1165, 96.61319
101.5986, 102.3870
102.0807, 106.6028
102.5629, 110.1328
103.0450, 112.9678
103.5271, 115.2031
104.0092, 116.7777
104.4913, 117.4395
104.9734, 118.1576
105.4556, 119.0258
105.9377, 120.0154
106.4198, 121.6621
106.9019, 124.4648
107.3840, 127.5536
107.8661, 129.7022
108.3483, 129.3289
108.8304, 130.0481
109.3125, 132.8535
109.7946, 138.4522
110.2767, 144.3115
110.7588, 150.0961
111.2410, 156.2137
111.7231, 163.4043
112.2052, 172.4456
112.6873, 182.0176
113.1694, 191.6609
113.6515, 201.0167
114.1337, 211.1388
114.6158, 222.4654
115.0979, 234.6691
115.5800, 247.0189
116.0621, 259.5269
116.5442, 271.9686
117.0264, 284.0202
117.5085, 295.7869
117.9906, 307.2831
118.4727, 318.5100
118.9548, 329.4747
119.4369, 340.1779
119.9191, 350.6323
120.4012, 360.9620
120.8833, 371.2051
121.3654, 380.5381
121.8475, 390.5077
122.3296, 402.4178
122.8118, 416.3026
123.2939, 430.4675
123.7760, 444.1296
124.2581, 457.2179
124.7402, 469.8748
125.2223, 479.6470
125.7045, 489.8767
126.1866, 504.3939
126.6687, 523.6700
127.1508, 545.7845
127.6329, 569.7380
128.1150, 595.0632
128.5972, 621.1096
129.0793, 647.2810
129.5614, 673.7201
130.0435, 700.3452
130.5256, 726.9650
131.0077, 754.2229
131.4899, 784.4485
131.9720, 817.2981
132.4541, 847.8997
132.9362, 870.5521
133.4183, 884.4257
133.9004, 893.1616
134.3826, 897.3897
134.8647, 896.3109
135.3468, 887.4802
135.8289, 870.8646
136.3110, 848.6354
136.7931, 820.9670
137.2753, 787.8328
137.7574, 754.7277
138.2395, 721.9281
138.7216, 689.8748
139.2037, 659.4150
139.6858, 630.1855
140.1680, 602.9990
140.6501, 578.2574
141.1322, 555.7501
141.6143, 535.6185
142.0964, 517.2401
142.5785, 500.4360
143.0607, 487.7637
143.5428, 479.8192
144.0249, 475.0499
144.5070, 471.4722
144.9891, 469.1334
145.4712, 467.9233
145.9534, 468.0237
146.4355, 469.8042
146.9176, 471.3736
147.3997, 472.8960
147.8818, 474.1602
148.3639, 474.8474
148.8461, 475.1823
149.3282, 474.6833
149.8103, 473.1656
150.2924, 470.3272
150.7745, 467.0564
151.2566, 462.3161
151.7388, 457.0689
152.2209, 453.9998
152.7030, 453.9291
153.1851, 455.2870
153.6672, 457.5143
154.1493, 460.6454
154.6315, 464.5008
155.1136, 469.0027
155.5957, 474.2044
156.0778, 480.3345
156.5599, 488.0362
157.0420, 496.3194
157.5242, 504.7045
158.0063, 512.5812
158.4884, 520.9738
158.9705, 529.9399
159.4526, 539.5128
159.9347, 550.1191
160.4169, 562.2648
160.8990, 575.2601
161.3811, 588.6063
161.8632, 602.7921
162.3453, 616.7228
162.8274, 629.9945
163.3096, 642.6295
163.7917, 654.9974
164.2738, 668.5820
164.7559, 681.4781
165.2380, 691.8090
165.7201, 697.9756
166.2023, 702.2242
166.6844, 706.4861
167.1665, 710.8219
167.6486, 711.9255
168.1307, 706.2751
168.6128, 696.7508
169.0950, 687.1110
169.5771, 678.8503
170.0592, 671.0310
170.5413, 662.9041
171.0234, 654.3564
171.5055, 645.9764
171.9877, 639.1353
172.4698, 632.6951
172.9519, 624.6275
173.4340, 612.4229
173.9161, 598.8736
174.3982, 586.9569
174.8804, 577.0109
175.3625, 567.4177
175.8446, 557.2507
176.3267, 546.4514
176.8088, 534.9713
177.2909, 521.8249
177.7731, 508.2617
178.2552, 495.8957
178.7373, 484.7274
179.2194, 474.9044
179.7015, 466.7649
180.1836, 460.0510
180.6658, 453.9620
181.1479, 447.7711
181.6300, 441.8229
182.1121, 436.8196
182.5942, 432.7803
183.0763, 429.8709
183.5585, 428.5080
184.0406, 428.5766
184.5227, 429.3273
185.0048, 430.4874
185.4869, 431.9713
185.9690, 433.6395
186.4511, 435.5806
186.9333, 437.4837
187.4154, 438.7437
187.8975, 439.4001
188.3796, 439.9360
188.8617, 441.5034
189.3438, 443.5316
189.8260, 443.2653
190.3081, 440.1446
190.7902, 434.6786
191.2723, 427.3546
191.7544, 418.1292
192.2365, 408.6612
192.7187, 399.6566
193.2008, 391.2311
193.6829, 384.1910
194.1650, 378.7503
194.6471, 374.6234
195.1292, 371.2353
195.6114, 368.6347
196.0935, 366.2323
196.5756, 363.0575
197.0577, 359.1411
197.5398, 357.1132
198.0219, 357.8364
198.5041, 360.6386
198.9862, 363.0853
199.4683, 365.1378
199.9504, 367.0465
200.4325, 368.9328
200.9146, 370.7658
201.3968, 372.8799
201.8789, 375.4201
202.3610, 378.2733
202.8431, 380.8363
203.3252, 382.9869
203.8073, 385.1764
204.2895, 387.8251
204.7716, 390.9877
205.2537, 394.2738
205.7358, 397.6401
206.2179, 401.0834
206.7000, 404.5858
207.1822, 408.1773
207.6643, 411.6995
208.1464, 414.8357
208.6285, 417.3938
209.1106, 420.4895
209.5927, 424.3388
210.0749, 428.9254
210.5570, 434.1405
211.0391, 440.0376
211.5212, 446.3609
212.0033, 452.9351
212.4854, 459.7582
212.9676, 466.7921
213.4497, 473.9481
213.9318, 481.2746
214.4139, 489.2643
214.8960, 498.2696
215.3781, 507.4796
215.8603, 516.1616
216.3424, 523.9596
216.8245, 532.0029
217.3066, 540.4423
217.7887, 549.3204
218.2708, 558.8842
218.7530, 569.4499
219.2351, 580.4662
219.7172, 591.0649
220.1993, 601.1605
220.6814, 611.4538
221.1635, 622.0975
221.6457, 633.1920
222.1278, 643.6852
222.6099, 652.9449
223.0920, 662.5456
223.5741, 673.8889
224.0562, 687.6151
224.5384, 702.0436
225.0205, 717.4709
225.5026, 733.8273
225.9847, 748.2810
226.4668, 759.7372
226.9489, 770.3959
227.4311, 782.2916
227.9132, 796.4735
228.3953, 810.1210
228.8774, 822.7186
229.3595, 834.3745
229.8416, 845.2111
230.3238, 856.0462
230.8059, 865.3672
231.2880, 871.3930
231.7701, 872.3530
232.2522, 873.6472
232.7343, 876.8254
233.2165, 882.0593
233.6986, 884.5380
234.1807, 882.8801
234.6628, 879.8712
235.1449, 878.0986
235.6270, 877.4413
236.1092, 878.2366
236.5913, 880.4814
237.0734, 884.1593
237.5555, 889.6996
238.0376, 897.3813
238.5197, 906.6163
239.0019, 916.7789
239.4840, 927.8912
239.9661, 939.9072
240.4482, 952.7294
240.9303, 966.3635
241.4124, 981.8586
241.8946, 1000.216
242.3767, 1019.366
242.8588, 1037.287
243.3409, 1053.680
243.8230, 1069.581
244.3051, 1085.916
244.7873, 1102.575
245.2694, 1115.705
245.7515, 1125.380
246.2336, 1131.455
246.7157, 1133.841
247.1978, 1132.654
247.6800, 1127.518
248.1621, 1118.283
248.6442, 1104.938
249.1263, 1088.396
249.6084, 1068.031
250.0905, 1045.147
250.5726, 1020.427
251.0548, 992.7599
251.5369, 965.4532
252.0190, 938.8149
252.5011, 912.7639
252.9832, 888.7471
253.4653, 866.5475
253.9475, 846.3879
254.4296, 828.5909
254.9117, 813.7791
255.3938, 799.7294
255.8759, 786.2293
256.3581, 773.2083
256.8402, 761.1064
257.3223, 750.0031
257.8044, 739.5382
258.2865, 729.6194
258.7686, 720.8409
259.2508, 711.2354
259.7329, 700.0540
260.2150, 688.0336
260.6971, 677.4158
261.1792, 668.7864
261.6613, 660.7380
262.1435, 652.4919
262.6256, 644.1116
263.1077, 635.4657
263.5898, 626.0724
264.0719, 616.6140
264.5540, 609.3698
265.0362, 604.7477
265.5183, 601.3301
266.0004, 598.3605
266.4825, 595.8178
266.9646, 593.9219
267.4467, 592.9042
267.9289, 592.3997
268.4110, 591.3718
268.8931, 589.3909
269.3752, 587.9366
269.8573, 588.0314
270.3394, 590.1990
270.8216, 591.2307
271.3037, 590.7307
271.7858, 589.3763
272.2679, 588.4242
272.7500, 587.7556
273.2321, 587.8969
273.7143, 589.5613
274.1964, 593.0946
274.6785, 595.1976
275.1606, 595.8156
275.6427, 595.0724
276.1248, 592.9322
276.6070, 589.1957
277.0891, 585.0954
277.5712, 580.8997
278.0533, 576.6003
278.5354, 573.1822
279.0175, 570.9753
279.4996, 568.9521
279.9818, 565.2424
280.4639, 559.5851
280.9460, 554.9767
281.4281, 552.7015
281.9102, 552.5399
282.3923, 552.1910
282.8745, 551.5353
283.3566, 551.0748
283.8387, 551.4283
284.3208, 552.6122
284.8029, 554.1216
285.2850, 555.8677
285.7672, 557.8293
286.2493, 559.8745
286.7314, 561.9844
287.2135, 564.3115
287.6956, 566.7440
288.1777, 569.3600
288.6599, 573.1393
289.1420, 578.7795
289.6241, 585.5255
290.1062, 591.3060
290.5883, 596.1161
291.0704, 600.3448
291.5526, 604.0800
292.0347, 607.4639
292.5168, 611.2096
292.9989, 615.5703
293.4810, 620.2676
293.9631, 625.4418
294.4453, 631.0048
294.9274, 635.2498
295.4095, 636.9977
295.8916, 636.4171
296.3737, 633.9510
296.8558, 629.6375
297.3380, 623.5456
297.8201, 615.8348
298.3022, 606.4089
298.7843, 595.0054
299.2664, 580.2845
299.7485, 563.4018
300.2307, 547.2078
300.7128, 531.7228
301.1949, 517.1391
301.6770, 503.0168
302.1591, 489.6261
302.6412, 478.1349
303.1234, 469.3957
303.6055, 462.7343
304.0876, 457.1341
304.5697, 452.6647
305.0518, 448.9897
305.5339, 445.7385
306.0161, 443.0964
306.4982, 441.5284
306.9803, 441.3268
307.4624, 442.2285
307.9445, 444.0879
308.4266, 446.8964
308.9088, 450.3155
309.3909, 454.2352
309.8730, 458.6039
310.3551, 463.3496
310.8372, 468.6947
311.3193, 474.2738
311.8015, 479.7307
312.2836, 485.1783
312.7657, 490.9274
313.2478, 497.6160
313.7299, 504.5439
314.2120, 511.1010
314.6942, 516.8813
315.1763, 522.4496
315.6584, 527.8854
316.1405, 533.3487
316.6226, 539.1107
317.1047, 546.2372
317.5869, 553.1984
318.0690, 558.8000
318.5511, 562.0212
319.0332, 565.2997
319.5153, 569.4520
319.9974, 574.2988
320.4796, 579.3556
320.9617, 585.1209
321.4438, 590.5929
321.9259, 595.0635
322.4080, 597.8814
322.8901, 601.4265
323.3723, 606.1602
323.8544, 611.9528
324.3365, 618.6476
324.8186, 626.8731
325.3007, 635.3127
325.7828, 643.6346
326.2650, 651.8322
326.7471, 659.8896
327.2292, 668.2232
327.7113, 676.2461
328.1934, 683.4278
328.6755, 689.2761
329.1577, 694.7003
329.6398, 699.4708
330.1219, 703.6063
330.6040, 708.4392
331.0861, 714.0468
331.5682, 720.2686
332.0504, 727.0664
332.5325, 734.8299
333.0146, 742.4374
333.4967, 750.0635
333.9788, 757.5576
334.4609, 764.0411
334.9431, 769.2787
335.4252, 773.9218
335.9073, 778.2643
336.3894, 782.4562
336.8715, 786.0197
337.3536, 788.7452
337.8358, 791.0180
338.3179, 793.7578
338.8000, 797.1378
339.2821, 800.4915
339.7642, 803.4780
340.2463, 806.0035
340.7285, 808.8156
341.2106, 811.4869
341.6927, 815.1495
342.1748, 821.3030
342.6569, 830.0928
343.1390, 840.3055
343.6212, 851.4382
344.1033, 863.6497
344.5854, 877.4630
345.0675, 892.7267
345.5496, 909.2813
346.0317, 927.8096
346.5139, 948.0893
346.9960, 965.7645
347.4781, 979.8795
347.9602, 991.0731
348.4423, 1001.240
348.9244, 1010.334
349.4066, 1016.808
349.8887, 1020.455
350.3708, 1020.735
350.8529, 1015.940
351.3350, 1005.880
351.8171, 990.8215
352.2993, 970.1315
352.7814, 944.6397
353.2635, 916.8307
353.7456, 887.5997
354.2277, 856.7803
354.7098, 823.1819
355.1920, 786.5974
355.6741, 750.0858
356.1562, 715.5021
356.6383, 683.4083
357.1204, 654.1423
357.6025, 628.4293
358.0847, 605.2316
358.5668, 584.0476
359.0489, 564.6532
359.5310, 546.7958
360.0131, 530.1136
360.4952, 514.8743
360.9774, 501.5734
361.4595, 490.7157
361.9416, 481.1530
362.4237, 472.5369
362.9058, 464.8327
363.3879, 457.9261
363.8701, 451.7484
364.3522, 446.3583
364.8343, 442.0548
365.3164, 439.5368
365.7985, 436.4457
366.2806, 431.7636
366.7628, 426.2494
367.2449, 421.1858
367.7270, 416.5963
368.2091, 412.6105
368.6912, 409.5795
369.1733, 407.8706
369.6555, 405.2538
370.1376, 400.8931
370.6197, 396.0136
371.1018, 391.6113
371.5839, 388.2311
372.0660, 384.5293
372.5482, 380.1226
373.0303, 375.1772
373.5124, 370.7961
373.9945, 366.8888
374.4766, 363.6494
374.9587, 361.2286
375.4409, 359.8617
375.9230, 358.6464
376.4051, 357.6095
376.8872, 356.6480
377.3693, 355.3411
377.8514, 353.4000
378.3336, 352.1638
378.8157, 352.3212
379.2978, 353.8945
379.7799, 355.7880
380.2620, 358.1234
380.7441, 360.5078
381.2263, 362.0869
381.7084, 362.9095
382.1905, 364.8708
382.6726, 368.8957
383.1547, 374.2604
383.6368, 378.6772
384.1190, 382.1642
384.6011, 385.8505
385.0832, 391.0185
385.5653, 397.1097
386.0474, 402.5645
386.5295, 406.8242
387.0117, 410.8434
387.4938, 416.2454
387.9759, 422.5929
388.4580, 428.3628
388.9401, 432.6949
389.4222, 435.9941
389.9044, 438.6278
390.3865, 440.6265
390.8686, 442.2341
391.3507, 444.2513
391.8328, 445.8786
392.3149, 445.9123
392.7971, 443.3636
393.2792, 439.5439
393.7613, 435.1021
394.2434, 429.9987
394.7255, 424.1411
395.2076, 417.0226
395.6898, 409.4070
396.1719, 401.8214
396.6540, 394.2453
397.1361, 386.8991
397.6182, 379.5607
398.1003, 372.4863
398.5825, 366.2601
399.0646, 361.2381
399.5467, 356.8386
400.0288, 352.9325
400.5109, 349.6076
400.9930, 346.4243
401.4752, 343.0050
401.9573, 339.9228
402.4394, 337.7692
402.9215, 336.7872
403.4036, 336.3346
403.8857, 336.2664
404.3678, 336.6264
404.8499, 337.8269
405.3321, 340.1385
405.8142, 342.8175
406.2963, 345.1710
406.7784, 346.9233
407.2605, 349.9733
407.7426, 354.5929
408.2248, 360.3526
408.7069, 366.5138
409.1890, 372.9555
409.6711, 379.9213
410.1532, 387.4381
410.6353, 395.5282
411.1175, 404.4713
411.5996, 414.2360
412.0817, 424.4423
412.5638, 434.6893
413.0459, 444.9153
413.5280, 455.6410
414.0102, 467.1581
414.4923, 479.0208
414.9744, 490.6873
415.4565, 502.3013
415.9386, 514.2465
416.4207, 526.8558
416.9029, 540.0646
417.3850, 553.6459
417.8671, 567.5532
418.3492, 582.5128
418.8313, 599.6874
419.3134, 618.2366
419.7956, 637.1056
420.2777, 655.9291
420.7598, 674.8604
421.2419, 694.1898
421.7240, 713.8725
422.2061, 734.3537
422.6883, 756.7379
423.1704, 779.4950
423.6525, 801.8953
424.1346, 824.1888
424.6167, 845.3704
425.0988, 865.4838
425.5810, 884.1020
426.0631, 900.2174
426.5452, 912.9022
427.0273, 923.8836
427.5094, 933.8574
427.9915, 942.9894
428.4737, 949.9341
428.9558, 953.7261
429.4379, 956.3563
429.9200, 959.5795
430.4021, 963.0947
430.8842, 968.2078
431.3664, 975.3821
431.8485, 984.2598
432.3306, 993.4397
432.8127, 1002.908
433.2948, 1012.763
433.7769, 1023.010
434.2591, 1033.653
434.7412, 1045.049
435.2233, 1057.406
435.7054, 1069.756
436.1875, 1081.303
436.6696, 1091.950
437.1518, 1101.191
437.6339, 1108.501
438.1160, 1114.560
438.5981, 1120.268
439.0802, 1125.657
439.5623, 1131.130
440.0445, 1137.211
440.5266, 1143.474
441.0087, 1149.314
441.4908, 1154.283
441.9729, 1159.664
442.4550, 1165.655
442.9372, 1172.755
443.4193, 1181.978
443.9014, 1194.328
444.3835, 1208.371
444.8656, 1223.175
445.3477, 1238.713
445.8299, 1255.717
446.3120, 1275.950
446.7941, 1296.933
447.2762, 1316.506
447.7583, 1333.956
448.2404, 1350.778
448.7226, 1369.178
449.2047, 1387.183
449.6868, 1398.616
450.1689, 1404.460
450.6510, 1402.538
451.1331, 1391.493
451.6153, 1370.394
452.0974, 1345.491
452.5795, 1315.945
453.0616, 1283.702
453.5437, 1249.325
454.0258, 1212.738
454.5080, 1176.576
454.9901, 1141.084
455.4722, 1106.617
455.9543, 1072.720
456.4364, 1039.485
456.9185, 1008.423
457.4007, 980.5101
457.8828, 955.4604
458.3649, 931.6270
458.8470, 909.2119
459.3291, 887.3251
459.8112, 864.9990
460.2934, 842.7287
460.7755, 821.7485
461.2576, 803.0377
461.7397, 785.0787
462.2218, 766.3082
462.7039, 746.8330
463.1861, 728.0061
463.6682, 710.4766
464.1503, 693.6198
464.6324, 677.3260
465.1145, 661.6154
465.5966, 645.4240
466.0788, 627.1924
466.5609, 608.5627
467.0430, 591.9222
467.5251, 579.0613
468.0072, 566.7981
468.4893, 554.3998
468.9715, 541.8792
469.4536, 529.9805
469.9357, 518.9202
470.4178, 508.2406
470.8999, 497.6798
471.3820, 486.7144
471.8642, 477.2975
472.3463, 469.7384
472.8284, 463.4370
473.3105, 457.3881
473.7926, 451.6740
474.2747, 445.9189
474.7569, 440.0498
475.2390, 434.0435
475.7211, 427.4406
476.2032, 420.1223
476.6853, 413.6385
477.1674, 409.4188
477.6496, 406.9346
478.1317, 404.5679
478.6138, 402.0377
479.0959, 399.8589
479.5780, 398.5743
480.0602, 398.0794
480.5423, 398.1397
481.0244, 398.7978
481.5065, 399.8571
481.9886, 401.0255
482.4707, 402.3770
482.9529, 404.4238
483.4350, 407.7342
483.9171, 411.6658
484.3992, 415.7336
484.8813, 419.8987
485.3634, 424.1797
485.8456, 428.2758
486.3277, 432.5327
486.8098, 437.4456
487.2919, 444.1482
487.7740, 450.3185
488.2561, 454.7926
488.7383, 457.8026
489.2204, 463.1291
489.7025, 471.5467
490.1846, 480.9584
490.6667, 490.5439
491.1488, 500.6219
491.6310, 508.3369
492.1131, 512.6960
492.5952, 516.2708
493.0773, 523.4695
493.5594, 534.3033
494.0415, 545.0115
494.5237, 554.3046
495.0058, 562.7375
495.4879, 571.7336
495.9700, 581.2578
496.4521, 591.2772
496.9342, 601.9746
497.4164, 613.1166
497.8985, 624.0914
498.3806, 634.8740
498.8627, 645.7263
499.3448, 657.0992
499.8269, 668.7379
500.3091, 680.3307
500.7912, 692.0816
501.2733, 703.4043
501.7554, 714.2305
502.2375, 724.4954
502.7196, 734.1054
503.2018, 742.8348
503.6839, 751.2086
504.1660, 759.3799
504.6481, 767.5622
505.1302, 775.4346
505.6123, 783.8961
506.0945, 791.3922
506.5766, 796.0316
507.0587, 797.2682
507.5408, 796.9977
508.0229, 795.2249
508.5050, 792.2877
508.9872, 789.7844
509.4693, 788.0916
509.9514, 784.3105
510.4335, 776.3249
510.9156, 764.6678
511.3977, 753.0548
511.8799, 741.7014
512.3619, 728.7396
512.8441, 711.7576
513.3262, 691.6498
513.8083, 670.3456
514.2904, 648.0783
514.7725, 625.2727
515.2546, 601.6459
515.7368, 577.8323
516.2189, 554.8779
516.7010, 533.0653
517.1831, 512.4616
517.6652, 493.0724
518.1473, 474.8918
518.6295, 458.0382
519.1116, 442.4351
519.5937, 428.1768
520.0758, 415.4957
520.5579, 404.6005
521.0400, 394.9529
521.5222, 386.9738
522.0043, 380.0312
522.4864, 372.9877
522.9685, 365.7519
523.4506, 358.5782
523.9327, 351.6393
524.4149, 344.8925
524.8970, 338.4115
525.3791, 332.1544
525.8612, 326.2878
526.3433, 321.3297
526.8254, 316.9723
527.3076, 311.3104
527.7897, 304.0277
528.2718, 296.2044
528.7539, 288.8089
529.2360, 281.8126
529.7181, 274.9595
530.2003, 267.9065
530.6824, 261.2240
531.1645, 255.1646
531.6466, 249.8495
532.1287, 245.2998
532.6108, 241.6249
533.0930, 238.6770
533.5751, 236.4824
534.0572, 235.2160
534.5393, 233.8759
535.0214, 231.9995
535.5035, 230.1185
535.9857, 228.7320
536.4678, 227.8101
536.9499, 227.4055
537.4320, 227.6069
537.9141, 228.2916
538.3962, 229.1986
538.8784, 230.3922
539.3605, 231.6333
539.8426, 232.8344
540.3247, 234.0102
540.8068, 235.1506
541.2889, 236.2462
541.7711, 237.3512
542.2532, 238.1330
542.7353, 238.9373
543.2174, 240.8700
543.6995, 244.1699
544.1816, 248.1677
544.6638, 252.4077
545.1459, 256.8558
545.6280, 261.3668
546.1101, 265.2352
546.5922, 269.7458
547.0743, 275.5732
547.5565, 282.6498
548.0386, 290.7249
548.5207, 300.5326
549.0028, 310.6228
549.4849, 319.8054
549.9670, 327.0631
550.4492, 337.5261
550.9313, 353.1125
551.4134, 370.2606
551.8955, 386.3788
552.3776, 400.4516
552.8597, 416.2030
553.3419, 434.5099
553.8240, 454.0801
554.3061, 472.3067
554.7882, 489.1280
555.2703, 505.7543
555.7524, 522.0694
556.2346, 538.4578
556.7167, 555.5153
557.1988, 573.2408
557.6809, 591.5997
558.1630, 610.1649
558.6451, 629.5815
559.1273, 650.4861
559.6094, 673.1785
560.0915, 697.1105
560.5736, 722.0053
561.0557, 748.1379
561.5378, 775.8276
562.0200, 806.6480
562.5021, 837.3897
562.9842, 867.3004
563.4663, 896.5385
563.9484, 926.6240
564.4305, 959.4713
564.9127, 990.5971
565.3948, 1019.665
565.8769, 1046.497
566.3590, 1067.755
566.8411, 1084.406
567.3232, 1093.405
567.8054, 1093.551
568.2875, 1084.789
568.7696, 1064.718
569.2517, 1032.425
569.7338, 991.0575
570.2159, 940.6602
570.6981, 884.0487
571.1802, 827.0469
571.6623, 769.6580
572.1444, 715.2864
572.6265, 665.6664
573.1086, 621.2814
573.5908, 583.0663
574.0729, 552.3732
574.5550, 526.7516
575.0371, 504.8551
575.5192, 486.6516
576.0013, 472.0086
576.4835, 461.6311
576.9656, 454.5516
577.4477, 450.1714
577.9298, 449.6293
578.4119, 449.4610
578.8940, 449.0561
579.3762, 449.5710
579.8583, 452.8122
580.3404, 459.1907
580.8225, 466.2873
581.3046, 473.4552
581.7867, 481.0953
582.2689, 489.9836
582.7510, 500.1591
583.2331, 511.4904
583.7152, 524.2964
584.1973, 538.1925
584.6794, 552.2849
585.1616, 566.5691
585.6437, 581.4464
586.1258, 597.6578
586.6079, 614.3165
587.0900, 630.5182
587.5721, 645.6670
588.0543, 661.9656
588.5364, 681.2858
589.0185, 701.7786
589.5006, 721.1258
