##NAMES=Epidote
##RRUFFID=R040092
##IDEAL CHEMISTRY=Ca_2_Fe^3+^Al_2_(Si_2_O_7_)(SiO_4_)O(OH)
##LOCALITY=Nahant, Massachusetts, USA
##OWNER=RRUFF
##SOURCE=University of Arizona Mineral Museum
##DESCRIPTION=Green prismatic crystals imbedded in quartz
##STATUS=The identification of this mineral has been confirmed by X-ray diffraction and chemical analysis
##URL=rruff.info/R040092
##MEASURED CHEMISTRY=Ca_2.01_Al_2.00_Fe_1.00_(Si_1.00_O_4_)(Si_1.97_Fe_0.02_Al_0.01_Ti_0.01_O_7_)O(OH)
120.6006, 1039.656
121.0827, 1119.501
121.5648, 1226.240
122.0469, 1329.964
122.5290, 1408.776
123.0111, 1473.838
123.4933, 1540.328
123.9754, 1614.375
124.4575, 1691.441
124.9396, 1769.968
125.4217, 1849.418
125.9038, 1921.550
126.3860, 1961.689
126.8681, 1961.140
127.3502, 1948.170
127.8323, 1953.375
128.3144, 1965.070
128.7965, 1955.541
129.2787, 1921.000
129.7608, 1878.818
130.2429, 1852.759
130.7250, 1840.728
131.2071, 1825.826
131.6892, 1793.216
132.1714, 1746.180
132.6535, 1708.238
133.1356, 1681.386
133.6177, 1664.005
134.0998, 1655.257
134.5819, 1655.775
135.0640, 1657.679
135.5462, 1652.329
136.0283, 1638.543
136.5104, 1632.676
136.9925, 1641.842
137.4746, 1663.329
137.9567, 1669.421
138.4389, 1656.836
138.9210, 1637.188
139.4031, 1623.721
139.8852, 1617.623
140.3673, 1613.278
140.8494, 1608.345
141.3316, 1601.746
141.8137, 1602.215
142.2958, 1613.397
142.7779, 1629.124
143.2600, 1637.473
143.7421, 1634.624
144.2243, 1631.174
144.7064, 1631.666
145.1885, 1639.773
145.6706, 1644.891
146.1527, 1646.930
146.6348, 1646.044
147.1170, 1642.202
147.5991, 1629.250
148.0812, 1618.527
148.5633, 1616.585
149.0454, 1632.554
149.5275, 1645.739
150.0097, 1649.299
150.4918, 1642.957
150.9739, 1651.125
151.4560, 1686.829
151.9381, 1730.194
152.4202, 1765.957
152.9024, 1771.547
153.3845, 1789.926
153.8666, 1835.172
154.3487, 1913.561
154.8308, 1985.323
155.3129, 2034.618
155.7950, 2077.298
156.2772, 2132.708
156.7593, 2212.837
157.2414, 2299.595
157.7235, 2386.676
158.2056, 2471.447
158.6877, 2558.388
159.1699, 2651.988
159.6520, 2748.238
160.1341, 2838.455
160.6162, 2911.171
161.0983, 2982.681
161.5804, 3063.890
162.0626, 3163.674
162.5447, 3262.736
163.0268, 3353.842
163.5089, 3437.971
163.9910, 3518.733
164.4731, 3608.651
164.9553, 3691.433
165.4374, 3752.516
165.9195, 3784.782
166.4016, 3796.272
166.8837, 3788.060
167.3658, 3760.849
167.8480, 3724.470
168.3301, 3685.388
168.8122, 3640.516
169.2943, 3585.725
169.7764, 3513.317
170.2585, 3433.603
170.7407, 3355.237
171.2228, 3278.332
171.7049, 3200.199
172.1870, 3120.462
172.6691, 3037.674
173.1512, 2950.278
173.6334, 2851.340
174.1155, 2748.591
174.5976, 2651.787
175.0797, 2562.005
175.5618, 2478.782
176.0439, 2401.443
176.5260, 2330.144
177.0082, 2267.052
177.4903, 2212.304
177.9724, 2165.753
178.4545, 2128.650
178.9366, 2100.754
179.4187, 2081.550
179.9009, 2072.314
180.3830, 2072.374
180.8651, 2077.285
181.3472, 2086.482
181.8293, 2098.438
182.3114, 2107.855
182.7936, 2110.791
183.2757, 2113.363
183.7578, 2128.381
184.2399, 2155.647
184.7220, 2186.222
185.2041, 2216.312
185.6863, 2244.415
186.1684, 2261.901
186.6505, 2264.550
187.1326, 2255.234
187.6147, 2242.466
188.0968, 2226.323
188.5790, 2204.733
189.0611, 2166.530
189.5432, 2114.356
190.0253, 2078.918
190.5074, 2077.169
190.9895, 2102.982
191.4717, 2123.731
191.9538, 2138.430
192.4359, 2152.444
192.9180, 2171.165
193.4001, 2194.744
193.8822, 2226.403
194.3644, 2272.342
194.8465, 2331.430
195.3286, 2380.069
195.8107, 2414.352
196.2928, 2444.891
196.7749, 2493.042
197.2570, 2560.735
197.7392, 2627.442
198.2213, 2681.307
198.7034, 2722.070
199.1855, 2761.381
199.6676, 2801.776
200.1497, 2839.349
200.6319, 2866.373
201.1140, 2883.442
201.5961, 2887.076
202.0782, 2873.753
202.5603, 2842.501
203.0424, 2800.540
203.5246, 2745.014
204.0067, 2681.072
204.4888, 2627.918
204.9709, 2587.699
205.4530, 2552.288
205.9352, 2514.253
206.4173, 2471.140
206.8994, 2437.239
207.3815, 2416.136
207.8636, 2406.313
208.3457, 2400.085
208.8279, 2396.428
209.3100, 2398.476
209.7921, 2410.052
210.2742, 2433.488
210.7563, 2458.062
211.2384, 2478.759
211.7206, 2496.708
212.2027, 2530.310
212.6848, 2583.767
213.1669, 2646.763
213.6490, 2706.578
214.1311, 2758.873
214.6133, 2821.118
215.0954, 2899.354
215.5775, 2992.613
216.0596, 3089.235
216.5417, 3190.599
217.0238, 3293.783
217.5059, 3396.354
217.9881, 3497.346
218.4702, 3600.693
218.9523, 3710.428
219.4344, 3828.095
219.9165, 3937.163
220.3986, 4035.150
220.8808, 4127.708
221.3629, 4226.393
221.8450, 4338.916
222.3271, 4443.364
222.8092, 4533.435
223.2913, 4606.488
223.7735, 4673.813
224.2556, 4736.766
224.7377, 4793.092
225.2198, 4837.370
225.7019, 4868.760
226.1840, 4889.862
226.6662, 4905.370
227.1483, 4926.181
227.6304, 4907.589
228.1125, 4841.319
228.5946, 4739.128
229.0767, 4623.850
229.5589, 4493.225
230.0410, 4354.882
230.5231, 4208.459
231.0052, 4045.179
231.4873, 3895.586
231.9694, 3756.161
232.4516, 3629.630
232.9337, 3522.456
233.4158, 3439.986
233.8979, 3369.310
234.3800, 3304.340
234.8621, 3239.469
235.3443, 3192.980
235.8264, 3169.598
236.3085, 3164.641
236.7906, 3162.284
237.2727, 3161.292
237.7548, 3164.504
238.2369, 3174.751
238.7191, 3199.292
239.2012, 3215.992
239.6833, 3223.223
240.1654, 3221.666
240.6475, 3214.928
241.1296, 3207.716
241.6118, 3189.181
242.0939, 3150.464
242.5760, 3076.948
243.0581, 3013.726
243.5402, 2967.877
244.0223, 2936.037
244.5045, 2897.243
244.9866, 2846.634
245.4687, 2795.314
245.9508, 2749.831
246.4329, 2709.869
246.9150, 2676.363
247.3972, 2648.642
247.8793, 2627.345
248.3614, 2615.848
248.8435, 2616.888
249.3256, 2624.398
249.8077, 2634.287
250.2899, 2646.632
250.7720, 2661.453
251.2541, 2680.174
251.7362, 2701.893
252.2183, 2720.087
252.7004, 2733.979
253.1826, 2744.961
253.6647, 2754.212
254.1468, 2762.802
254.6289, 2767.283
255.1110, 2768.280
255.5931, 2765.228
256.0753, 2750.923
256.5574, 2716.032
257.0395, 2682.389
257.5216, 2667.627
258.0037, 2674.978
258.4858, 2693.063
258.9680, 2721.031
259.4501, 2758.826
259.9322, 2800.984
260.4143, 2841.587
260.8964, 2895.278
261.3785, 2972.592
261.8607, 3074.463
262.3428, 3199.846
262.8249, 3353.712
263.3070, 3532.867
263.7891, 3718.547
264.2712, 3906.101
264.7534, 4102.205
265.2355, 4309.208
265.7176, 4530.329
266.1997, 4758.351
266.6818, 4995.904
267.1639, 5241.301
267.6461, 5488.429
268.1282, 5739.839
268.6103, 5987.074
269.0924, 6223.747
269.5745, 6445.167
270.0566, 6668.546
270.5387, 6900.579
271.0208, 7138.682
271.5030, 7377.790
271.9851, 7629.551
272.4672, 7855.021
272.9493, 8027.021
273.4314, 8148.683
273.9135, 8197.673
274.3957, 8168.586
274.8778, 8062.583
275.3599, 7882.726
275.8420, 7624.661
276.3241, 7306.195
276.8062, 6922.542
277.2884, 6463.812
277.7705, 6030.754
278.2526, 5639.440
278.7347, 5289.765
279.2168, 4984.485
279.6989, 4721.878
280.1811, 4496.378
280.6632, 4300.346
281.1453, 4133.783
281.6274, 3996.467
282.1095, 3894.646
282.5916, 3819.937
283.0738, 3739.150
283.5559, 3649.654
284.0380, 3568.778
284.5201, 3515.882
285.0022, 3489.513
285.4843, 3464.360
285.9665, 3431.292
286.4486, 3398.500
286.9307, 3393.186
287.4128, 3417.074
287.8949, 3449.184
288.3770, 3471.800
288.8592, 3486.701
289.3413, 3505.048
289.8234, 3529.181
290.3055, 3558.245
290.7876, 3589.494
291.2697, 3623.082
291.7519, 3660.562
292.2340, 3703.192
292.7161, 3750.760
293.1982, 3803.065
293.6803, 3861.194
294.1624, 3923.318
294.6446, 3992.430
295.1267, 4067.292
295.6088, 4126.943
296.0909, 4150.790
296.5730, 4146.729
297.0551, 4137.922
297.5373, 4131.427
298.0194, 4117.444
298.5015, 4076.699
298.9836, 4012.734
299.4657, 3945.913
299.9478, 3885.715
300.4300, 3834.011
300.9121, 3795.272
301.3942, 3771.092
301.8763, 3759.343
302.3584, 3760.786
302.8405, 3773.939
303.3227, 3792.647
303.8048, 3812.684
304.2869, 3836.256
304.7690, 3868.444
305.2511, 3912.626
305.7332, 3958.322
306.2154, 3994.570
306.6975, 4024.445
307.1796, 4057.966
307.6617, 4103.886
308.1438, 4153.969
308.6259, 4202.774
309.1081, 4250.798
309.5901, 4291.431
310.0723, 4317.839
310.5544, 4333.586
311.0365, 4346.620
311.5186, 4380.816
312.0007, 4401.408
312.4828, 4380.168
312.9650, 4310.378
313.4471, 4216.559
313.9292, 4104.955
314.4113, 3979.327
314.8934, 3845.839
315.3755, 3697.031
315.8577, 3547.780
316.3398, 3405.763
316.8219, 3269.044
317.3040, 3150.297
317.7861, 3058.326
318.2682, 2985.992
318.7504, 2924.368
319.2325, 2870.559
319.7146, 2826.196
320.1967, 2793.686
320.6788, 2773.648
321.1609, 2758.160
321.6431, 2752.740
322.1252, 2747.961
322.6073, 2734.326
323.0894, 2697.136
323.5715, 2663.668
324.0536, 2644.688
324.5358, 2641.880
325.0179, 2629.249
325.5000, 2600.309
325.9821, 2562.488
326.4642, 2521.396
326.9464, 2474.934
327.4285, 2427.866
327.9106, 2379.325
328.3927, 2329.941
328.8748, 2283.986
329.3569, 2246.682
329.8391, 2209.268
330.3212, 2165.866
330.8033, 2108.776
331.2854, 2057.444
331.7675, 2013.657
332.2496, 1976.901
332.7318, 1947.080
333.2139, 1927.725
333.6960, 1910.423
334.1781, 1889.000
334.6602, 1857.223
335.1423, 1836.828
335.6245, 1830.155
336.1066, 1835.060
336.5887, 1845.658
337.0708, 1863.337
337.5529, 1883.580
338.0350, 1902.028
338.5172, 1916.339
338.9993, 1943.596
339.4814, 1988.126
339.9635, 2041.783
340.4456, 2088.722
340.9277, 2128.263
341.4099, 2166.982
341.8920, 2207.664
342.3741, 2249.948
342.8562, 2295.445
343.3383, 2344.610
343.8204, 2394.836
344.3026, 2444.840
344.7847, 2493.656
345.2668, 2538.266
345.7489, 2577.828
346.2310, 2612.065
346.7131, 2637.961
347.1953, 2655.215
347.6774, 2666.228
348.1595, 2677.136
348.6416, 2684.947
349.1237, 2677.526
349.6058, 2645.037
350.0880, 2598.229
350.5700, 2554.008
351.0522, 2512.541
351.5343, 2471.155
352.0164, 2423.270
352.4985, 2374.338
352.9806, 2335.616
353.4627, 2316.405
353.9449, 2301.513
354.4270, 2272.709
354.9091, 2232.882
355.3912, 2195.826
355.8733, 2169.111
356.3554, 2150.820
356.8376, 2138.756
357.3197, 2133.200
357.8018, 2132.181
358.2839, 2133.636
358.7660, 2138.501
359.2481, 2149.245
359.7303, 2177.756
360.2124, 2205.259
360.6945, 2217.274
361.1766, 2204.643
361.6587, 2197.298
362.1408, 2216.993
362.6230, 2247.842
363.1051, 2264.353
363.5872, 2247.858
364.0693, 2225.786
364.5514, 2208.639
365.0335, 2198.027
365.5157, 2187.584
365.9978, 2181.804
366.4799, 2173.476
366.9620, 2154.806
367.4441, 2115.806
367.9262, 2075.878
368.4084, 2038.825
368.8905, 2004.562
369.3726, 1968.872
369.8547, 1931.014
370.3368, 1892.569
370.8189, 1854.344
371.3011, 1812.724
371.7832, 1777.334
372.2653, 1748.867
372.7474, 1727.358
373.2295, 1712.021
373.7116, 1704.373
374.1938, 1700.656
374.6759, 1698.732
375.1580, 1698.259
375.6401, 1701.352
376.1222, 1708.488
376.6043, 1719.073
377.0865, 1732.584
377.5686, 1749.236
378.0507, 1767.307
378.5328, 1785.936
379.0149, 1805.202
379.4970, 1824.866
379.9792, 1844.530
380.4613, 1865.280
380.9434, 1886.949
381.4255, 1909.999
381.9076, 1937.215
382.3897, 1972.172
382.8719, 2011.699
383.3540, 2045.314
383.8361, 2072.991
384.3182, 2100.290
384.8003, 2137.802
385.2824, 2179.270
385.7646, 2208.588
386.2467, 2217.230
386.7288, 2215.911
387.2109, 2218.338
387.6930, 2223.245
388.1751, 2222.866
388.6573, 2214.421
389.1394, 2197.101
389.6215, 2169.870
390.1036, 2131.924
390.5857, 2085.635
391.0678, 2023.326
391.5499, 1953.112
392.0320, 1893.134
392.5142, 1859.069
392.9963, 1832.858
393.4784, 1803.157
393.9605, 1766.895
394.4426, 1735.672
394.9247, 1716.246
395.4069, 1703.091
395.8890, 1689.189
396.3711, 1669.433
396.8532, 1652.458
397.3353, 1639.715
397.8174, 1631.167
398.2996, 1629.075
398.7817, 1639.717
399.2638, 1653.266
399.7459, 1662.521
400.2280, 1659.667
400.7101, 1663.515
401.1923, 1675.667
401.6744, 1695.656
402.1565, 1722.149
402.6386, 1756.178
403.1207, 1795.116
403.6028, 1837.344
404.0850, 1882.226
404.5671, 1933.881
405.0492, 1994.430
405.5313, 2060.091
406.0134, 2120.113
406.4955, 2170.499
406.9777, 2235.688
407.4598, 2326.881
407.9419, 2443.228
408.4240, 2570.242
408.9061, 2707.632
409.3882, 2854.208
409.8704, 3006.261
410.3525, 3165.577
410.8346, 3337.518
411.3167, 3523.560
411.7988, 3726.639
412.2809, 3950.256
412.7631, 4194.656
413.2452, 4445.506
413.7273, 4681.108
414.2094, 4916.281
414.6915, 5176.401
415.1736, 5469.431
415.6558, 5777.685
416.1379, 6071.370
416.6200, 6363.629
417.1021, 6675.293
417.5842, 7040.265
418.0663, 7417.251
418.5485, 7769.144
419.0306, 8091.401
419.5127, 8416.920
419.9948, 8789.320
420.4769, 9165.455
420.9590, 9499.890
421.4412, 9808.371
421.9233, 10049.50
422.4054, 10217.25
422.8875, 10309.58
423.3696, 10325.44
423.8517, 10249.57
424.3339, 10106.02
424.8160, 9907.224
425.2981, 9633.043
425.7802, 9335.364
426.2623, 8997.816
426.7444, 8638.521
427.2266, 8299.545
427.7087, 7963.569
428.1908, 7671.153
428.6729, 7439.186
429.1550, 7274.326
429.6371, 7129.232
430.1193, 7005.190
430.6014, 6900.654
431.0835, 6812.128
431.5656, 6738.848
432.0477, 6691.159
432.5298, 6680.607
433.0119, 6695.426
433.4940, 6696.742
433.9762, 6684.447
434.4583, 6657.883
434.9404, 6604.399
435.4225, 6534.601
435.9046, 6481.130
436.3867, 6449.096
436.8689, 6438.194
437.3510, 6445.731
437.8331, 6473.738
438.3152, 6528.891
438.7973, 6620.877
439.2794, 6738.581
439.7616, 6869.237
440.2437, 7009.613
440.7258, 7174.648
441.2079, 7372.168
441.6900, 7599.738
442.1721, 7854.388
442.6543, 8157.405
443.1364, 8465.865
443.6185, 8760.021
444.1006, 9042.051
444.5827, 9337.431
445.0648, 9662.694
445.5470, 9997.908
446.0291, 10333.73
446.5112, 10691.28
446.9933, 11016.91
447.4754, 11315.42
447.9576, 11581.15
448.4397, 11808.79
448.9218, 11987.73
449.4039, 12141.79
449.8860, 12281.79
450.3681, 12408.54
450.8503, 12486.16
451.3324, 12506.06
451.8145, 12491.37
452.2966, 12468.01
452.7787, 12438.52
453.2608, 12376.43
453.7430, 12284.88
454.2251, 12150.82
454.7072, 11929.67
455.1893, 11619.84
455.6714, 11266.56
456.1535, 10899.24
456.6357, 10512.60
457.1178, 10074.64
457.5999, 9579.993
458.0820, 9069.419
458.5641, 8587.710
459.0462, 8126.462
459.5284, 7676.089
460.0105, 7225.102
460.4926, 6791.708
460.9747, 6400.818
461.4568, 6047.667
461.9389, 5719.513
462.4211, 5406.762
462.9032, 5115.805
463.3853, 4857.077
463.8674, 4644.788
464.3495, 4444.336
464.8316, 4240.315
465.3138, 4042.364
465.7959, 3867.501
466.2780, 3728.727
466.7601, 3606.209
467.2422, 3496.762
467.7243, 3400.936
468.2065, 3307.367
468.6886, 3215.553
469.1707, 3126.303
469.6528, 3038.937
470.1349, 2952.813
470.6170, 2871.620
471.0992, 2795.129
471.5813, 2723.924
472.0634, 2664.457
472.5455, 2619.087
473.0276, 2571.114
473.5097, 2505.076
473.9918, 2423.754
474.4739, 2362.735
474.9561, 2325.597
475.4382, 2298.744
475.9203, 2265.947
476.4024, 2229.468
476.8845, 2197.927
477.3666, 2174.627
477.8488, 2157.765
478.3309, 2144.107
478.8130, 2134.167
479.2951, 2131.738
479.7772, 2144.868
480.2593, 2163.683
480.7415, 2179.128
481.2236, 2189.542
481.7057, 2196.374
482.1878, 2194.558
482.6699, 2190.593
483.1520, 2194.990
483.6342, 2218.031
484.1163, 2242.482
484.5984, 2260.366
485.0805, 2270.480
485.5626, 2291.462
486.0447, 2327.884
486.5269, 2371.991
487.0090, 2419.948
487.4911, 2474.922
487.9732, 2526.103
488.4553, 2571.823
488.9374, 2614.493
489.4196, 2659.241
489.9017, 2705.192
490.3838, 2757.573
490.8659, 2820.839
491.3480, 2893.619
491.8301, 2965.280
492.3123, 3036.330
492.7944, 3106.911
493.2765, 3176.755
493.7586, 3246.413
494.2407, 3322.083
494.7228, 3408.758
495.2050, 3494.331
495.6871, 3561.273
496.1692, 3614.160
496.6513, 3665.565
497.1334, 3727.416
497.6155, 3788.153
498.0977, 3839.765
498.5798, 3881.156
499.0619, 3913.124
499.5440, 3930.588
500.0261, 3940.587
500.5082, 3949.905
500.9904, 3965.195
501.4725, 3974.149
501.9546, 3969.464
502.4367, 3955.154
502.9188, 3948.525
503.4009, 3959.531
503.8831, 3967.234
504.3652, 3961.178
504.8473, 3935.402
505.3294, 3926.198
505.8115, 3941.125
506.2936, 3962.066
506.7758, 3967.494
507.2579, 3955.239
507.7400, 3944.660
508.2221, 3940.868
508.7042, 3940.288
509.1863, 3934.950
509.6685, 3924.938
510.1506, 3909.716
510.6327, 3885.185
511.1148, 3856.073
511.5969, 3830.939
512.0790, 3810.118
512.5612, 3796.700
513.0433, 3788.974
513.5254, 3791.441
514.0075, 3811.243
514.4896, 3860.109
514.9717, 3917.503
515.4539, 3974.477
515.9360, 4031.283
516.4181, 4089.002
516.9002, 4145.603
517.3823, 4204.842
517.8644, 4271.180
518.3466, 4350.773
518.8287, 4419.341
519.3108, 4490.261
519.7929, 4540.439
520.2750, 4544.661
520.7571, 4487.949
521.2393, 4415.904
521.7214, 4335.541
522.2035, 4244.329
522.6856, 4132.028
523.1677, 3998.486
523.6498, 3847.835
524.1320, 3674.923
524.6141, 3482.178
525.0962, 3295.721
525.5783, 3115.152
526.0604, 2940.930
526.5425, 2766.653
527.0247, 2600.335
527.5068, 2454.352
527.9889, 2335.191
528.4710, 2234.566
528.9531, 2143.949
529.4352, 2064.371
529.9174, 1996.304
530.3995, 1947.407
530.8816, 1904.954
531.3637, 1857.629
531.8458, 1802.731
532.3279, 1757.809
532.8101, 1732.664
533.2922, 1717.286
533.7743, 1703.295
534.2564, 1690.781
534.7385, 1678.255
535.2206, 1664.324
535.7027, 1650.331
536.1848, 1639.377
536.6669, 1629.797
537.1490, 1627.054
537.6312, 1635.243
538.1133, 1654.002
538.5954, 1668.693
539.0775, 1678.344
539.5596, 1688.480
540.0417, 1704.768
540.5239, 1726.360
541.0060, 1748.108
541.4881, 1767.809
541.9702, 1790.178
542.4523, 1823.140
542.9344, 1863.871
543.4166, 1904.451
543.8987, 1932.142
544.3808, 1964.667
544.8629, 2014.230
545.3450, 2081.256
545.8271, 2162.089
546.3093, 2264.375
546.7914, 2373.557
547.2735, 2480.797
547.7556, 2572.715
548.2377, 2681.145
548.7198, 2812.369
549.2020, 2960.443
549.6841, 3118.055
550.1662, 3291.909
550.6483, 3462.385
551.1304, 3620.512
551.6125, 3770.944
552.0947, 3949.265
552.5768, 4158.899
553.0589, 4380.717
553.5410, 4597.257
554.0231, 4812.317
554.5052, 5053.979
554.9874, 5323.766
555.4695, 5610.721
555.9516, 5909.143
556.4337, 6215.376
556.9158, 6514.943
557.3979, 6796.933
557.8801, 7081.482
558.3622, 7382.783
558.8443, 7698.886
559.3264, 8020.316
559.8085, 8357.298
560.2906, 8683.243
560.7728, 8992.738
561.2549, 9295.685
561.7370, 9535.004
562.2191, 9728.558
562.7012, 9838.914
563.1833, 9835.177
563.6655, 9713.379
564.1476, 9484.322
564.6297, 9133.989
565.1118, 8686.333
565.5939, 8166.500
566.0760, 7553.182
566.5582, 6968.343
567.0403, 6447.633
567.5224, 5988.284
568.0045, 5557.706
568.4866, 5159.255
568.9688, 4803.878
569.4509, 4496.587
569.9330, 4242.957
570.4151, 4043.932
570.8972, 3906.603
571.3793, 3806.683
571.8615, 3738.502
572.3436, 3694.481
572.8257, 3664.491
573.3078, 3638.782
573.7899, 3632.563
574.2720, 3657.358
574.7542, 3709.233
575.2363, 3763.892
575.7184, 3817.709
576.2005, 3875.056
576.6826, 3935.758
577.1647, 3997.599
577.6469, 4073.176
578.1290, 4161.466
578.6111, 4262.726
579.0932, 4381.110
579.5753, 4516.664
580.0574, 4654.254
580.5396, 4790.553
581.0217, 4929.072
581.5038, 5076.168
581.9859, 5228.838
582.4680, 5379.162
582.9501, 5521.827
583.4323, 5660.779
583.9144, 5800.292
584.3965, 5939.596
584.8786, 6071.153
585.3607, 6193.909
585.8428, 6304.982
586.3250, 6401.290
586.8071, 6474.771
587.2892, 6553.015
587.7713, 6641.819
588.2534, 6738.037
588.7355, 6837.268
589.2177, 6936.898
589.6998, 7045.136
590.1819, 7164.922
590.6640, 7294.375
591.1461, 7426.306
591.6282, 7559.689
592.1104, 7701.310
592.5925, 7866.641
593.0746, 8045.372
593.5567, 8184.705
594.0388, 8282.642
594.5209, 8358.341
595.0031, 8439.078
595.4852, 8504.881
595.9673, 8522.786
596.4494, 8482.303
596.9315, 8405.157
597.4136, 8301.521
597.8958, 8173.059
598.3779, 8021.089
598.8600, 7838.782
599.3421, 7640.542
599.8242, 7422.724
600.3063, 7189.793
600.7885, 6971.258
601.2706, 6777.493
601.7527, 6591.284
602.2348, 6402.699
602.7169, 6210.728
603.1990, 6047.852
603.6812, 5919.466
604.1633, 5803.512
604.6454, 5671.658
605.1275, 5528.483
605.6096, 5410.601
606.0917, 5326.151
606.5739, 5256.911
607.0560, 5178.915
607.5381, 5097.120
608.0202, 5021.691
608.5023, 4964.029
608.9844, 4909.497
609.4666, 4852.126
609.9487, 4790.315
610.4308, 4718.920
610.9129, 4637.586
611.3950, 4545.428
611.8771, 4442.271
612.3593, 4325.506
612.8414, 4202.828
613.3235, 4069.637
613.8056, 3937.288
614.2877, 3819.705
614.7698, 3722.750
615.2520, 3612.321
