##NAMES=Epididymite
##RRUFFID=R110029
##IDEAL CHEMISTRY=Na_2_Be_2_Si_6_O_15_&#183;H_2_O
##LOCALITY=Mount Malosa, Zomba District, Malawi
##OWNER=RRUFF
##SOURCE=Marcus Origlieri
##DESCRIPTION=Colorless micaceous blade
##STATUS=The identification of this mineral has been confirmed by single-crystal X-ray diffraction.
##URL=rruff.info/R110029
174.4414, 66.90465
174.9236, 69.38760
175.4057, 71.47661
175.8878, 73.17391
176.3699, 74.75572
176.8520, 76.82239
177.3341, 78.98335
177.8163, 80.38145
178.2984, 79.81643
178.7805, 78.55786
179.2626, 78.69515
179.7447, 80.34733
180.2268, 82.26006
180.7090, 82.93983
181.1911, 82.78197
181.6732, 83.00219
182.1553, 84.05949
182.6374, 85.88053
183.1195, 88.43047
183.6017, 91.81644
184.0838, 95.46078
184.5659, 99.10829
185.0480, 102.6295
185.5301, 105.5222
186.0123, 107.6855
186.4944, 109.0465
186.9765, 108.7910
187.4586, 106.4690
187.9407, 104.1073
188.4228, 105.2106
188.9050, 109.4205
189.3871, 113.0621
189.8692, 113.4541
190.3513, 111.3920
190.8334, 110.8793
191.3155, 112.1646
191.7977, 114.8529
192.2798, 119.1050
192.7619, 124.9202
193.2440, 129.7360
193.7261, 131.1699
194.2082, 129.6817
194.6904, 131.2762
195.1725, 137.1089
195.6546, 144.4637
196.1367, 148.2377
196.6188, 148.3434
197.1009, 146.7047
197.5831, 143.6374
198.0652, 139.1240
198.5473, 135.8951
199.0294, 134.3049
199.5115, 133.7581
199.9937, 133.2250
200.4758, 132.7643
200.9579, 131.9995
201.4400, 130.7857
201.9221, 129.1335
202.4042, 126.8060
202.8864, 123.5634
203.3685, 119.8661
203.8506, 116.7261
204.3327, 114.1816
204.8148, 112.1368
205.2969, 110.8613
205.7791, 110.5958
206.2612, 109.1718
206.7433, 105.9368
207.2254, 101.8742
207.7075, 99.72060
208.1896, 100.0528
208.6718, 100.5950
209.1539, 99.87399
209.6360, 97.44790
210.1181, 96.14757
210.6002, 96.53395
211.0823, 97.90986
211.5645, 98.33025
212.0466, 97.64678
212.5287, 96.36626
213.0108, 94.39847
213.4929, 91.12918
213.9750, 89.67468
214.4572, 90.89593
214.9393, 93.75605
215.4214, 95.09001
215.9035, 94.23391
216.3856, 93.20821
216.8678, 93.15637
217.3499, 94.40352
217.8320, 95.55822
218.3141, 96.59756
218.7962, 97.48283
219.2783, 97.86492
219.7605, 97.03531
220.2426, 96.97758
220.7247, 99.13248
221.2068, 104.8548
221.6889, 108.8071
222.1710, 110.1532
222.6532, 109.7197
223.1353, 109.9571
223.6174, 110.8406
224.0995, 112.4430
224.5816, 114.9067
225.0637, 118.6859
225.5459, 122.2584
226.0280, 125.6192
226.5101, 128.7484
226.9922, 131.3677
227.4743, 133.0167
227.9564, 134.9143
228.4386, 137.5685
228.9207, 140.6239
229.4028, 145.3323
229.8849, 152.8133
230.3670, 161.6914
230.8492, 168.2540
231.3313, 171.5871
231.8134, 173.9020
232.2955, 175.8727
232.7776, 176.1701
233.2597, 179.2388
233.7419, 185.9085
234.2240, 195.1531
234.7061, 204.2126
235.1882, 213.1751
235.6703, 221.7978
236.1524, 229.9616
236.6346, 237.1518
237.1167, 245.0545
237.5988, 254.0556
238.0809, 263.6408
238.5630, 272.9094
239.0451, 282.3692
239.5273, 290.6439
240.0094, 297.1470
240.4915, 301.6210
240.9736, 305.0432
241.4557, 307.6884
241.9378, 309.1848
242.4200, 308.8355
242.9021, 306.8463
243.3842, 302.6523
243.8663, 295.7274
244.3484, 285.0672
244.8306, 274.5075
245.3127, 263.5177
245.7948, 252.9955
246.2769, 244.8727
246.7590, 240.5288
247.2411, 236.3717
247.7233, 230.8994
248.2054, 223.2248
248.6875, 217.6423
249.1696, 215.0220
249.6517, 213.9574
250.1338, 212.1180
250.6160, 208.7495
251.0981, 205.9716
251.5802, 204.6838
252.0623, 205.3113
252.5444, 205.1250
253.0265, 203.6701
253.5087, 201.7777
253.9908, 200.6510
254.4729, 200.4926
254.9550, 200.6741
255.4371, 201.0818
255.9192, 201.7421
256.4014, 202.3960
256.8835, 203.0892
257.3656, 203.7305
257.8477, 204.1349
258.3298, 203.9823
258.8120, 204.3373
259.2941, 205.6575
259.7762, 208.0385
260.2583, 209.9486
260.7404, 211.7560
261.2225, 212.6530
261.7047, 211.4946
262.1868, 207.2837
262.6689, 203.5724
263.1510, 200.9737
263.6331, 199.5010
264.1152, 199.2441
264.5974, 200.8553
265.0795, 202.6765
265.5616, 203.1824
266.0437, 202.3095
266.5258, 200.3198
267.0079, 196.9735
267.4901, 192.4313
267.9722, 188.4491
268.4543, 185.2406
268.9364, 182.0903
269.4185, 178.5900
269.9006, 174.9245
270.3828, 170.0774
270.8649, 163.5717
271.3470, 155.7648
271.8291, 148.1279
272.3112, 140.4677
272.7933, 133.2419
273.2755, 126.8019
273.7576, 121.1389
274.2397, 116.2155
274.7218, 112.1684
275.2039, 108.8186
275.6860, 105.6800
276.1682, 102.7412
276.6503, 99.94735
277.1324, 97.10385
277.6145, 94.17711
278.0966, 91.96892
278.5787, 90.53197
279.0609, 89.85950
279.5430, 90.33430
280.0251, 92.22634
280.5072, 93.59566
280.9893, 92.70964
281.4715, 89.59630
281.9536, 88.75719
282.4357, 91.03879
282.9178, 94.37002
283.3999, 94.95735
283.8820, 92.65482
284.3642, 90.21560
284.8463, 89.14402
285.3284, 89.26463
285.8105, 88.46461
286.2926, 86.52659
286.7747, 84.30701
287.2569, 83.15668
287.7390, 83.02615
288.2211, 82.59834
288.7032, 80.72412
289.1853, 78.02303
289.6674, 77.84035
290.1496, 80.56821
290.6317, 83.24679
291.1138, 81.45094
291.5959, 75.97440
292.0780, 72.46104
292.5602, 73.62029
293.0423, 77.64695
293.5244, 80.21053
294.0065, 81.27873
294.4886, 81.28199
294.9707, 79.70007
295.4529, 77.16653
295.9350, 76.17001
296.4171, 78.19919
296.8992, 81.29770
297.3813, 81.67652
297.8634, 79.54468
298.3456, 77.23522
298.8277, 76.51678
299.3098, 76.93855
299.7919, 77.59702
300.2740, 78.41895
300.7561, 79.19646
301.2383, 79.67564
301.7204, 79.87257
302.2025, 79.82112
302.6846, 79.21159
303.1667, 78.46358
303.6488, 78.24312
304.1310, 78.73772
304.6131, 79.50478
305.0952, 80.26873
305.5773, 80.97540
306.0594, 81.47633
306.5415, 81.36628
307.0237, 81.17586
307.5058, 81.41879
307.9879, 82.13628
308.4700, 83.33972
308.9521, 85.94362
309.4343, 88.95381
309.9164, 90.69146
310.3985, 89.19418
310.8806, 87.00346
311.3627, 86.10007
311.8448, 86.57687
312.3270, 87.28831
312.8091, 87.71841
313.2912, 87.94254
313.7733, 88.04976
314.2554, 87.16521
314.7375, 86.95364
315.2197, 88.95611
315.7018, 92.86450
316.1839, 95.93493
316.6660, 95.74198
317.1481, 94.81169
317.6302, 95.27673
318.1124, 99.37913
318.5945, 102.7902
319.0766, 103.5197
319.5587, 102.2700
320.0408, 101.4999
320.5229, 102.5068
321.0051, 103.8351
321.4872, 104.6376
321.9693, 104.3681
322.4514, 104.3368
322.9335, 105.1868
323.4156, 106.4228
323.8978, 107.0899
324.3799, 105.4283
324.8620, 104.5579
325.3441, 105.7967
325.8262, 109.9226
326.3083, 113.9508
326.7905, 118.5427
327.2726, 122.6456
327.7547, 124.9127
328.2368, 123.0640
328.7189, 121.7324
329.2010, 121.7103
329.6832, 123.0367
330.1653, 125.2200
330.6474, 128.9562
331.1295, 133.0452
331.6116, 136.5851
332.0938, 139.5999
332.5759, 142.0125
333.0580, 143.5619
333.5401, 144.4003
334.0222, 145.5765
334.5043, 147.2935
334.9865, 149.0798
335.4686, 150.5402
335.9507, 151.2059
336.4328, 152.8851
336.9149, 155.9451
337.3970, 159.9821
337.8792, 163.7422
338.3613, 167.0852
338.8434, 170.6960
339.3255, 175.0589
339.8076, 180.3479
340.2898, 185.1411
340.7719, 189.3537
341.2540, 193.2946
341.7361, 197.3057
342.2182, 201.2365
342.7003, 206.0955
343.1825, 212.9387
343.6646, 221.2232
344.1467, 226.9231
344.6288, 229.9932
345.1109, 230.9614
345.5930, 230.2215
346.0752, 227.8011
346.5573, 223.9288
347.0394, 218.4143
347.5215, 211.6651
348.0036, 204.2126
348.4857, 196.0964
348.9679, 187.8102
349.4500, 178.5990
349.9321, 169.3557
350.4142, 163.0452
350.8963, 160.7169
351.3784, 159.7903
351.8606, 157.2892
352.3427, 153.4597
352.8248, 149.1283
353.3069, 143.6807
353.7890, 138.4754
354.2711, 135.7595
354.7533, 135.9613
355.2354, 136.3642
355.7175, 133.9909
356.1996, 130.3034
356.6817, 127.8508
357.1638, 129.1869
357.6460, 131.0865
358.1281, 130.9905
358.6102, 129.0000
359.0923, 126.7597
359.5744, 124.5995
360.0565, 122.9229
360.5387, 122.1730
361.0208, 123.2330
361.5029, 124.2899
361.9850, 124.3979
362.4671, 123.8370
362.9492, 123.4641
363.4314, 123.3809
363.9135, 123.7080
364.3956, 124.5764
364.8777, 126.2341
365.3598, 127.8909
365.8419, 129.5472
366.3241, 131.0679
366.8062, 132.2368
367.2883, 131.9401
367.7704, 132.3326
368.2526, 134.4545
368.7347, 138.8653
369.2168, 141.8319
369.6989, 141.7350
370.1810, 141.1579
370.6631, 142.2509
371.1453, 146.1293
371.6274, 150.0149
372.1095, 153.3863
372.5916, 156.4547
373.0737, 160.5731
373.5558, 166.3961
374.0380, 172.3464
374.5201, 177.5854
375.0022, 181.8097
375.4843, 186.0410
375.9664, 189.9590
376.4485, 194.2051
376.9307, 200.5621
377.4128, 209.5530
377.8949, 218.2087
378.3770, 225.2227
378.8591, 230.6389
379.3412, 236.1974
379.8234, 242.1970
380.3055, 247.1217
380.7876, 248.8504
381.2697, 247.5319
381.7518, 245.6323
382.2339, 244.2460
382.7161, 242.3728
383.1982, 237.1251
383.6803, 228.6334
384.1624, 219.2943
384.6445, 210.6161
385.1266, 202.5230
385.6088, 194.9381
386.0909, 188.0149
386.5730, 181.1417
387.0551, 173.3956
387.5372, 165.1808
388.0193, 157.5071
388.5015, 150.6212
388.9836, 144.7806
389.4657, 140.5713
389.9478, 138.0606
390.4299, 135.8872
390.9120, 132.8613
391.3942, 129.7049
391.8763, 127.3514
392.3584, 126.0961
392.8405, 125.7408
393.3226, 126.3451
393.8047, 127.8223
394.2869, 129.7758
394.7690, 132.7194
395.2511, 135.6368
395.7332, 137.7956
396.2154, 138.4899
396.6975, 139.6609
397.1796, 141.6507
397.6617, 144.4019
398.1438, 147.7814
398.6259, 151.5323
399.1081, 156.1606
399.5902, 161.7871
400.0723, 168.4075
400.5544, 176.0298
401.0365, 184.5193
401.5186, 194.1503
402.0008, 205.0207
402.4829, 217.1923
402.9650, 230.6958
403.4471, 246.2141
403.9292, 263.1201
404.4113, 278.1506
404.8935, 290.4903
405.3756, 303.0273
405.8577, 318.0113
406.3398, 336.0422
406.8219, 351.7069
407.3040, 366.0113
407.7862, 375.9703
408.2683, 377.5537
408.7504, 370.7304
409.2325, 357.1041
409.7146, 335.7665
410.1967, 308.4925
410.6789, 278.1899
411.1610, 244.6784
411.6431, 212.6007
412.1252, 185.6926
412.6073, 163.5434
413.0894, 145.5241
413.5716, 132.3154
414.0537, 122.2607
414.5358, 114.0631
415.0179, 107.6450
415.5000, 102.4767
415.9821, 98.79662
416.4643, 96.00908
416.9464, 93.67376
417.4285, 91.79473
417.9106, 89.92714
418.3927, 87.35616
418.8748, 84.76793
419.3570, 83.02208
419.8391, 82.81985
420.3212, 83.09169
420.8033, 83.85162
421.2854, 84.86649
421.7675, 85.07705
422.2497, 83.61755
422.7318, 81.67790
423.2139, 79.84942
423.6960, 78.14558
424.1781, 76.68368
424.6602, 75.08865
425.1424, 73.86004
425.6245, 73.79670
426.1066, 76.29684
426.5887, 78.17376
427.0709, 78.58131
427.5530, 77.52026
428.0351, 76.70402
428.5172, 76.23781
428.9993, 75.85825
429.4814, 75.18770
429.9636, 73.84830
430.4457, 73.84892
430.9278, 75.87393
431.4099, 78.81010
431.8920, 80.16572
432.3741, 79.80476
432.8563, 78.98879
433.3384, 77.86787
433.8205, 76.63667
434.3026, 76.94332
434.7847, 78.95516
435.2668, 81.16244
435.7490, 82.08562
436.2311, 81.93270
436.7132, 81.31040
437.1953, 80.04628
437.6774, 78.85659
438.1595, 78.89515
438.6417, 79.92159
439.1238, 80.94108
439.6059, 80.78790
440.0880, 80.61193
440.5701, 82.02398
441.0522, 85.49425
441.5344, 88.46937
442.0165, 89.21693
442.4986, 88.59560
442.9807, 87.64561
443.4628, 86.46647
443.9449, 85.26180
444.4271, 83.82605
444.9092, 82.30875
445.3913, 81.53528
445.8734, 82.94737
446.3555, 84.22215
446.8376, 84.09036
447.3198, 81.39787
447.8019, 79.40810
448.2840, 78.55354
448.7661, 78.29597
449.2482, 77.87077
449.7303, 76.92708
450.2125, 76.42837
450.6946, 76.66584
451.1767, 77.59304
451.6588, 78.48941
452.1409, 79.35056
452.6230, 80.20837
453.1052, 80.91637
453.5873, 81.41580
454.0694, 82.76089
454.5515, 85.23453
455.0337, 88.15544
455.5158, 90.37858
455.9979, 91.95116
456.4800, 93.26372
456.9621, 94.02583
457.4442, 94.79223
457.9264, 97.26548
458.4085, 101.3690
458.8906, 105.3823
459.3727, 107.7764
459.8548, 109.1634
460.3369, 110.3326
460.8191, 111.1960
461.3012, 112.5379
461.7833, 115.0886
462.2654, 118.5834
462.7475, 122.4548
463.2296, 127.2445
463.7118, 131.7459
464.1939, 134.9248
464.6760, 136.7279
465.1581, 139.2029
465.6402, 143.1513
466.1223, 147.8806
466.6045, 152.8602
467.0866, 158.1628
467.5687, 163.5035
468.0508, 168.2871
468.5329, 173.1800
469.0150, 179.7637
469.4972, 188.2511
469.9793, 197.9828
470.4614, 208.9227
470.9435, 221.1358
471.4256, 233.3409
471.9077, 245.7216
472.3899, 257.7336
472.8720, 268.8174
473.3541, 279.0699
473.8362, 289.0197
474.3183, 299.1154
474.8004, 308.5114
475.2826, 316.3994
475.7647, 322.6222
476.2468, 324.9175
476.7289, 322.2202
477.2110, 314.7271
477.6931, 302.0714
478.1753, 284.2442
478.6574, 264.4893
479.1395, 243.8097
479.6216, 223.3766
480.1037, 204.7901
480.5858, 188.0380
481.0680, 173.9147
481.5501, 163.2779
482.0322, 155.5952
482.5143, 149.8843
482.9964, 147.6027
483.4786, 145.6153
483.9607, 141.9772
484.4428, 136.4037
484.9249, 132.2932
485.4070, 131.6647
485.8892, 131.9106
486.3713, 131.1871
486.8534, 128.6665
487.3355, 126.3643
487.8176, 124.5004
488.2997, 122.8285
488.7819, 120.7770
489.2640, 118.2424
489.7461, 115.5104
490.2282, 112.5250
490.7103, 109.3107
491.1924, 106.7416
491.6746, 104.8254
492.1567, 103.4452
492.6388, 102.7566
493.1209, 102.6497
493.6030, 102.0081
494.0851, 100.3372
494.5673, 99.01572
495.0494, 100.7683
495.5315, 104.7784
496.0136, 108.0353
496.4957, 108.7023
496.9778, 108.1605
497.4600, 107.2843
497.9421, 106.2623
498.4242, 106.6757
498.9063, 110.3320
499.3884, 115.3449
499.8705, 120.1149
500.3527, 124.0478
500.8348, 128.3461
501.3169, 133.1688
501.7990, 138.5916
502.2811, 144.7769
502.7632, 151.0228
503.2454, 158.7384
503.7275, 168.6727
504.2096, 180.6101
504.6917, 192.8929
505.1738, 205.3804
505.6559, 218.1988
506.1381, 231.0916
506.6202, 243.6771
507.1023, 257.9492
507.5844, 274.0007
508.0665, 291.5244
508.5486, 310.1602
509.0308, 330.0154
509.5129, 349.5624
509.9950, 367.5640
510.4771, 385.9793
510.9592, 409.1217
511.4413, 436.8301
511.9235, 468.2852
512.4056, 503.7862
512.8877, 542.3076
513.3698, 583.1161
513.8519, 626.1746
514.3340, 670.8859
514.8162, 717.7602
515.2983, 765.6769
515.7804, 813.4113
516.2625, 862.2471
516.7446, 908.9184
517.2267, 953.0649
517.7089, 993.9114
518.1910, 1029.000
518.6731, 1063.752
519.1552, 1087.215
519.6373, 1096.531
520.1194, 1092.768
520.6016, 1069.305
521.0837, 1022.034
521.5658, 960.0726
522.0479, 887.2513
522.5300, 799.9102
523.0121, 716.9942
523.4943, 638.9295
523.9764, 566.9708
524.4585, 502.8844
524.9406, 447.7210
525.4227, 400.0051
525.9048, 360.2853
526.3870, 327.4485
526.8691, 298.1274
527.3513, 272.2095
527.8334, 249.7482
528.3155, 231.0282
528.7976, 215.3874
529.2797, 202.1660
529.7618, 191.4432
530.2440, 181.5243
530.7261, 170.6458
531.2082, 160.0961
531.6903, 151.7238
532.1724, 147.5234
532.6545, 143.9984
533.1367, 140.1776
533.6188, 136.1239
534.1009, 131.9435
534.5830, 127.0823
535.0651, 122.7006
535.5472, 119.4336
536.0294, 117.5068
536.5115, 114.7179
536.9936, 110.2687
537.4757, 106.0724
537.9578, 103.9932
538.4399, 104.4296
538.9221, 104.3405
539.4042, 103.3580
539.8863, 101.8217
540.3684, 100.1617
540.8505, 98.40569
541.3326, 96.91041
541.8148, 96.12827
542.2969, 95.51672
542.7790, 93.84093
543.2611, 91.25320
543.7432, 88.91360
544.2253, 87.83667
544.7075, 87.28489
545.1896, 86.57278
545.6717, 85.63335
546.1538, 84.37840
546.6359, 81.66483
547.1180, 79.06916
547.6002, 78.30669
548.0823, 82.73911
548.5644, 85.62080
549.0465, 84.74599
549.5286, 81.40801
550.0107, 79.34280
550.4929, 78.94758
550.9750, 79.26774
551.4571, 80.34982
551.9392, 82.20457
552.4213, 82.57266
552.9034, 81.01720
553.3856, 79.35130
553.8677, 79.50602
554.3498, 81.23463
554.8319, 81.25447
555.3140, 78.90686
555.7961, 76.03573
556.2783, 75.25141
556.7604, 75.92800
557.2425, 76.31001
557.7246, 75.58578
558.2067, 74.45841
558.6888, 73.30763
559.1710, 72.26367
559.6531, 71.79304
560.1352, 72.65093
560.6173, 73.73976
561.0994, 74.23562
561.5815, 73.93275
562.0637, 74.31136
562.5458, 76.58141
563.0279, 79.03328
563.5100, 80.47885
563.9921, 80.84534
564.4742, 80.17727
564.9564, 77.72757
565.4385, 74.83151
565.9206, 74.01107
566.4027, 75.73382
566.8848, 77.16721
567.3669, 77.26125
567.8491, 76.61460
568.3312, 77.38725
568.8133, 79.51630
569.2954, 81.45739
569.7775, 81.68305
570.2596, 81.18449
570.7418, 81.89693
571.2239, 83.97024
571.7060, 86.22727
572.1881, 87.91203
572.6702, 89.23027
573.1523, 90.38885
573.6345, 91.22913
574.1166, 92.27599
574.5987, 93.57814
575.0808, 95.22732
575.5629, 97.41051
576.0450, 100.1963
576.5272, 103.4605
577.0093, 107.4563
577.4914, 111.9804
577.9735, 115.7756
578.4556, 118.5821
578.9377, 121.1312
579.4199, 123.7000
579.9020, 126.2513
580.3841, 129.3302
580.8662, 133.0070
581.3483, 136.7870
581.8304, 140.4083
582.3126, 143.7237
582.7947, 146.1658
583.2768, 147.5436
583.7589, 148.2892
584.2410, 149.2002
584.7231, 149.7880
585.2053, 149.0865
585.6874, 147.2430
586.1696, 143.4792
586.6517, 136.0951
587.1338, 126.0189
587.6159, 117.3464
588.0980, 112.1121
588.5801, 107.6390
589.0623, 102.5960
589.5444, 96.64148
590.0265, 92.29048
590.5086, 90.21965
590.9907, 88.88992
591.4728, 87.15526
591.9550, 84.97149
592.4371, 82.74349
592.9192, 80.47962
593.4013, 78.28925
593.8834, 75.95935
594.3655, 73.68347
594.8477, 72.85256
595.3298, 74.75634
595.8119, 77.26138
596.2940, 77.16371
596.7761, 75.13233
597.2582, 73.41119
597.7404, 73.29662
598.2225, 73.82947
598.7046, 74.72092
599.1867, 75.91599
599.6688, 76.22745
600.1509, 74.53310
600.6331, 72.40126
601.1152, 70.75436
601.5973, 69.52197
602.0794, 69.00221
602.5615, 69.34911
603.0436, 70.26646
603.5258, 71.76452
604.0079, 74.22847
604.4900, 75.08581
604.9721, 73.61623
605.4542, 70.78967
605.9363, 67.73860
606.4185, 64.69901
606.9006, 63.60797
607.3827, 66.80839
607.8648, 71.57930
608.3469, 74.05875
608.8290, 74.48752
609.3112, 74.07964
609.7933, 73.13765
610.2754, 71.94102
610.7575, 70.39793
611.2396, 68.36504
611.7217, 67.35432
612.2039, 68.69957
612.6860, 70.66711
613.1681, 71.94946
613.6502, 72.15898
614.1323, 72.30551
614.6144, 72.57589
615.0966, 72.62681
615.5787, 71.66589
616.0608, 69.40091
616.5429, 68.02068
617.0250, 68.03738
617.5071, 69.22810
617.9893, 71.81705
618.4714, 75.52894
618.9535, 78.12772
619.4356, 77.39124
619.9177, 75.51244
620.3998, 75.62131
620.8820, 77.49988
621.3641, 78.85851
621.8462, 77.22382
622.3283, 75.41443
622.8104, 75.66537
623.2925, 78.77022
623.7747, 81.80751
624.2568, 85.40556
624.7389, 87.97139
625.2210, 88.03235
625.7031, 83.90163
626.1852, 81.02843
626.6674, 80.10922
627.1495, 80.12777
627.6316, 79.22817
628.1137, 77.34068
628.5958, 76.26260
629.0779, 76.59544
629.5601, 77.93807
630.0422, 80.09648
630.5243, 82.76418
631.0064, 84.57990
631.4885, 84.01842
631.9706, 82.77315
632.4528, 82.53522
632.9349, 83.25893
633.4170, 83.75658
633.8991, 83.45824
634.3812, 82.81238
634.8633, 82.06828
635.3455, 81.26083
635.8276, 80.33305
636.3097, 79.22988
636.7918, 78.05859
637.2739, 76.89848
637.7560, 75.75975
638.2382, 74.66035
638.7203, 73.67875
639.2024, 72.60386
639.6845, 70.46983
640.1666, 67.57845
640.6487, 66.69088
641.1309, 69.76782
641.6130, 73.62621
642.0951, 73.52326
642.5772, 70.50010
643.0594, 67.48457
643.5415, 65.57905
644.0236, 64.37991
644.5057, 63.66975
644.9879, 63.43939
645.4700, 63.70358
645.9521, 65.08788
646.4342, 66.40626
646.9163, 67.17555
647.3984, 67.36428
647.8806, 67.23490
648.3627, 66.68691
648.8448, 66.01311
649.3269, 65.33067
649.8090, 64.64350
650.2911, 64.53597
650.7733, 65.18826
651.2554, 65.80283
651.7375, 65.05216
652.2196, 63.53572
652.7017, 62.76706
653.1838, 63.42217
653.6660, 64.43758
654.1481, 65.27039
654.6302, 65.84560
655.1123, 66.03921
655.5944, 64.94045
656.0765, 64.36677
656.5587, 65.44586
657.0408, 67.67191
657.5229, 68.59999
658.0050, 67.28188
658.4871, 66.28617
658.9692, 66.83809
659.4514, 68.68337
659.9335, 68.77316
660.4156, 66.93558
660.8977, 64.78097
661.3798, 63.12819
661.8619, 62.09292
662.3441, 62.18140
662.8262, 63.44860
663.3083, 64.83237
663.7904, 65.86629
664.2725, 66.37901
664.7546, 65.97273
665.2368, 63.97857
665.7189, 62.69852
666.2010, 63.79583
666.6831, 65.60213
667.1652, 66.14469
667.6473, 64.08765
668.1295, 62.91688
668.6116, 63.24010
669.0937, 64.29827
669.5758, 64.53173
670.0579, 63.83884
670.5400, 63.32533
671.0222, 63.34519
671.5043, 63.70863
671.9864, 64.13905
672.4685, 64.59666
