##NAMES=Epidote
##RRUFFID=R050202
##IDEAL CHEMISTRY=Ca_2_Fe^3+^Al_2_(Si_2_O_7_)(SiO_4_)O(OH)
##LOCALITY=Iron Cap mine, Landsman Camp, Graham County, Arizona, USA
##OWNER=RRUFF
##SOURCE=Bob Downs
##DESCRIPTION=Green colored prismatic single crystal associated with quartz, diopside and tremolite
##STATUS=The identification of this mineral has been confirmed by X-ray diffraction and chemical analysis
##URL=rruff.info/R050202
##MEASURED CHEMISTRY=Ca_2.00_Al_2.00_(Fe^3+^_0.68_Al_0.32_)(SiO_4_)(Si_2_O_7_)O(OH)
93.77539, 57.69875
94.25751, 55.59792
94.73962, 56.48922
95.22174, 59.96373
95.70386, 64.55682
96.18597, 70.03712
96.66809, 76.23190
97.15021, 82.64005
97.63232, 89.29343
98.11444, 96.19457
98.59656, 102.8586
99.07867, 109.2762
99.56079, 116.9728
100.0429, 127.0397
100.5250, 139.4615
101.0071, 151.5223
101.4893, 162.6345
101.9714, 173.7774
102.4535, 186.8279
102.9356, 202.0157
103.4177, 218.7271
103.8998, 236.8819
104.3820, 257.6585
104.8641, 276.8648
105.3462, 294.3321
105.8283, 310.0807
106.3104, 325.1823
106.7925, 339.6220
107.2747, 353.2837
107.7568, 365.8553
108.2389, 377.0751
108.7210, 387.7768
109.2031, 397.6083
109.6852, 406.5406
110.1674, 416.8482
110.6495, 428.7480
111.1316, 442.0264
111.6137, 456.4919
112.0958, 471.9524
112.5779, 488.9681
113.0601, 507.7038
113.5422, 528.3832
114.0243, 550.5521
114.5064, 574.6231
114.9885, 599.9277
115.4706, 625.9805
115.9528, 653.5565
116.4349, 681.0424
116.9170, 707.3602
117.3991, 732.6262
117.8812, 757.3917
118.3633, 782.1234
118.8455, 806.5175
119.3276, 829.8776
119.8097, 851.6899
120.2918, 872.8431
120.7739, 893.8552
121.2560, 915.2154
121.7382, 936.0473
122.2203, 956.0165
122.7024, 975.0711
123.1845, 993.0391
123.6666, 1009.823
124.1487, 1025.399
124.6309, 1039.742
125.1130, 1051.014
125.5951, 1062.650
126.0772, 1078.571
126.5593, 1098.439
127.0414, 1119.212
127.5236, 1137.635
128.0057, 1155.119
128.4878, 1175.312
128.9699, 1200.621
129.4520, 1228.501
129.9341, 1253.733
130.4162, 1276.157
130.8984, 1299.570
131.3805, 1328.510
131.8626, 1362.172
132.3447, 1396.468
132.8268, 1429.486
133.3089, 1461.831
133.7911, 1492.473
134.2732, 1517.415
134.7553, 1536.702
135.2374, 1553.846
135.7195, 1569.059
136.2016, 1580.484
136.6838, 1586.116
137.1659, 1586.088
137.6480, 1587.929
138.1301, 1592.957
138.6122, 1597.866
139.0943, 1595.906
139.5765, 1585.683
140.0586, 1574.744
140.5407, 1566.525
141.0228, 1561.352
141.5049, 1556.749
141.9870, 1552.589
142.4692, 1548.829
142.9513, 1545.220
143.4334, 1541.008
143.9155, 1538.188
144.3976, 1538.216
144.8797, 1542.879
145.3619, 1545.837
145.8440, 1546.143
146.3261, 1544.303
146.8082, 1542.941
147.2903, 1542.475
147.7724, 1541.998
148.2546, 1540.852
148.7367, 1537.767
149.2188, 1535.922
149.7009, 1535.519
150.1830, 1536.540
150.6651, 1539.159
151.1473, 1544.942
151.6294, 1551.359
152.1115, 1556.561
152.5936, 1558.690
153.0757, 1561.664
153.5578, 1565.906
154.0400, 1571.395
154.5221, 1577.743
155.0042, 1586.122
155.4863, 1594.792
155.9684, 1602.234
156.4505, 1607.196
156.9327, 1611.985
157.4148, 1616.898
157.8969, 1621.797
158.3790, 1627.626
158.8611, 1635.240
159.3432, 1643.676
159.8254, 1651.905
160.3075, 1658.998
160.7896, 1666.452
161.2717, 1675.103
161.7538, 1685.307
162.2359, 1695.236
162.7181, 1704.030
163.2002, 1712.284
163.6823, 1720.813
164.1644, 1731.312
164.6465, 1741.189
165.1286, 1748.809
165.6108, 1753.610
166.0929, 1757.769
166.5750, 1762.639
167.0571, 1767.600
167.5392, 1771.541
168.0213, 1773.910
168.5035, 1775.046
168.9856, 1775.034
169.4677, 1773.635
169.9498, 1771.768
170.4319, 1770.264
170.9140, 1768.778
171.3962, 1766.519
171.8783, 1763.152
172.3604, 1758.781
172.8425, 1753.452
173.3246, 1747.044
173.8067, 1739.989
174.2889, 1733.427
174.7710, 1726.767
175.2531, 1718.067
175.7352, 1704.232
176.2173, 1688.304
176.6994, 1674.340
177.1816, 1662.976
177.6637, 1654.014
178.1458, 1648.132
178.6279, 1644.794
179.1100, 1641.703
179.5921, 1636.613
180.0743, 1630.681
180.5564, 1626.220
181.0385, 1623.729
181.5206, 1622.749
182.0027, 1622.599
182.4848, 1623.309
182.9670, 1625.257
183.4491, 1629.286
183.9312, 1634.847
184.4133, 1640.310
184.8954, 1645.257
185.3775, 1650.039
185.8597, 1655.043
186.3418, 1660.266
186.8239, 1666.595
187.3060, 1675.909
187.7881, 1687.388
188.2702, 1697.020
188.7523, 1703.840
189.2345, 1708.401
189.7166, 1712.253
190.1987, 1715.510
190.6808, 1717.114
191.1629, 1716.136
191.6451, 1712.688
192.1272, 1707.234
192.6093, 1698.929
193.0914, 1689.108
193.5735, 1681.614
194.0556, 1676.444
194.5378, 1673.228
195.0199, 1672.018
195.5020, 1672.742
195.9841, 1674.038
196.4662, 1675.426
196.9483, 1677.098
197.4305, 1679.771
197.9126, 1683.286
198.3947, 1688.229
198.8768, 1695.091
199.3589, 1703.865
199.8410, 1714.212
200.3232, 1726.664
200.8053, 1740.606
201.2874, 1752.791
201.7695, 1762.850
202.2516, 1771.960
202.7337, 1781.341
203.2159, 1790.980
203.6980, 1800.433
204.1801, 1809.899
204.6622, 1819.240
205.1443, 1826.883
205.6264, 1832.713
206.1086, 1837.230
206.5907, 1840.766
207.0728, 1843.160
207.5549, 1845.411
208.0370, 1847.914
208.5191, 1850.610
209.0013, 1852.316
209.4834, 1852.854
209.9655, 1852.751
210.4476, 1852.370
210.9297, 1851.482
211.4118, 1851.228
211.8940, 1851.963
212.3761, 1853.678
212.8582, 1855.394
213.3403, 1856.635
213.8224, 1858.677
214.3045, 1863.111
214.7867, 1870.713
215.2688, 1878.427
215.7509, 1885.280
216.2330, 1891.225
216.7151, 1899.366
217.1972, 1910.343
217.6794, 1922.643
218.1615, 1934.619
218.6436, 1946.333
219.1257, 1957.683
219.6078, 1968.040
220.0899, 1977.455
220.5721, 1988.523
221.0542, 2001.645
221.5363, 2015.755
222.0184, 2029.288
222.5005, 2041.293
222.9826, 2055.327
223.4648, 2072.520
223.9469, 2093.159
224.4290, 2112.011
224.9111, 2128.686
225.3932, 2144.251
225.8753, 2159.961
226.3575, 2175.590
226.8396, 2191.759
227.3217, 2208.916
227.8038, 2227.343
228.2859, 2242.922
228.7680, 2255.441
229.2502, 2265.401
229.7323, 2273.039
230.2144, 2278.245
230.6965, 2281.645
231.1786, 2284.077
231.6607, 2285.547
232.1429, 2281.359
232.6250, 2269.615
233.1071, 2254.363
233.5892, 2239.190
234.0713, 2224.180
234.5534, 2209.127
235.0356, 2193.882
235.5177, 2178.587
235.9998, 2163.831
236.4819, 2148.810
236.9640, 2134.976
237.4461, 2123.398
237.9283, 2113.930
238.4104, 2106.966
238.8925, 2102.522
239.3746, 2100.608
239.8567, 2101.866
240.3388, 2107.832
240.8210, 2115.145
241.3031, 2120.914
241.7852, 2123.034
242.2673, 2127.845
242.7494, 2136.485
243.2315, 2148.776
243.7137, 2162.165
244.1958, 2177.618
244.6779, 2193.124
245.1600, 2207.342
245.6421, 2220.307
246.1242, 2232.016
246.6064, 2243.002
247.0885, 2252.926
247.5706, 2259.208
248.0527, 2260.531
248.5348, 2259.921
249.0169, 2259.412
249.4990, 2259.948
249.9812, 2258.583
250.4633, 2255.301
250.9454, 2249.985
251.4275, 2241.372
251.9096, 2226.762
252.3917, 2212.917
252.8739, 2204.327
253.3560, 2203.605
253.8381, 2201.582
254.3202, 2197.370
254.8023, 2191.473
255.2844, 2185.665
255.7666, 2179.393
256.2487, 2174.082
256.7308, 2170.956
257.2129, 2171.533
257.6950, 2169.927
258.1772, 2165.245
258.6593, 2158.484
259.1414, 2152.193
259.6235, 2146.571
260.1056, 2141.000
260.5877, 2134.818
261.0699, 2127.348
261.5520, 2121.726
262.0341, 2118.592
262.5162, 2116.950
262.9983, 2114.310
263.4804, 2109.665
263.9626, 2106.331
264.4447, 2105.615
264.9268, 2107.696
265.4089, 2111.635
265.8910, 2117.496
266.3731, 2125.209
266.8553, 2134.732
267.3374, 2145.818
267.8195, 2159.282
268.3016, 2174.886
268.7837, 2192.676
269.2658, 2214.086
269.7480, 2238.898
270.2301, 2267.591
270.7122, 2300.915
271.1943, 2339.454
271.6764, 2380.171
272.1585, 2421.415
272.6407, 2463.149
273.1228, 2507.732
273.6049, 2556.696
274.0870, 2604.766
274.5691, 2647.873
275.0512, 2686.756
275.5334, 2715.552
276.0155, 2733.877
276.4976, 2741.259
276.9797, 2732.071
277.4618, 2705.349
277.9439, 2664.789
278.4261, 2610.506
278.9081, 2541.272
279.3903, 2473.278
279.8724, 2409.928
280.3545, 2351.413
280.8366, 2295.248
281.3187, 2240.924
281.8008, 2191.296
282.2830, 2149.008
282.7651, 2114.107
283.2472, 2084.172
283.7293, 2059.399
284.2114, 2038.790
284.6935, 2019.602
285.1757, 2001.552
285.6578, 1986.474
286.1399, 1976.592
286.6220, 1971.554
287.1041, 1966.913
287.5862, 1962.173
288.0684, 1957.392
288.5505, 1952.168
289.0326, 1946.452
289.5147, 1942.389
289.9968, 1942.795
290.4789, 1946.601
290.9611, 1947.290
291.4432, 1943.739
291.9253, 1938.481
292.4074, 1935.250
292.8895, 1933.907
293.3716, 1933.361
293.8538, 1933.100
294.3359, 1933.184
294.8180, 1934.072
295.3001, 1935.954
295.7822, 1937.763
296.2643, 1937.837
296.7465, 1936.557
297.2286, 1935.634
297.7107, 1935.656
298.1928, 1936.598
298.6749, 1938.773
299.1570, 1942.273
299.6392, 1945.751
300.1213, 1947.566
300.6034, 1948.262
301.0855, 1949.142
301.5676, 1950.730
302.0497, 1952.746
302.5319, 1955.246
303.0140, 1958.159
303.4961, 1960.067
303.9782, 1959.636
304.4603, 1957.472
304.9424, 1954.417
305.4246, 1949.702
305.9067, 1945.405
306.3888, 1944.901
306.8709, 1947.333
307.3530, 1948.546
307.8351, 1944.060
308.3173, 1937.452
308.7994, 1933.107
309.2815, 1932.406
309.7636, 1933.072
310.2457, 1933.869
310.7278, 1934.690
311.2100, 1935.207
311.6921, 1934.595
312.1742, 1934.005
312.6563, 1934.552
313.1384, 1936.616
313.6205, 1939.004
314.1027, 1941.294
314.5848, 1943.451
315.0669, 1945.419
315.5490, 1947.043
316.0311, 1948.592
316.5132, 1950.443
316.9954, 1952.739
317.4775, 1954.156
317.9596, 1954.081
318.4417, 1952.795
318.9238, 1950.603
319.4059, 1947.098
319.8881, 1943.080
320.3702, 1938.855
320.8523, 1934.388
321.3344, 1929.514
321.8165, 1923.413
322.2986, 1917.272
322.7808, 1911.995
323.2629, 1907.238
323.7450, 1903.935
324.2271, 1903.152
324.7092, 1904.365
325.1913, 1904.770
325.6735, 1903.446
326.1556, 1901.643
326.6377, 1900.017
327.1198, 1899.063
327.6019, 1897.723
328.0840, 1896.080
328.5662, 1894.058
329.0483, 1891.371
329.5304, 1887.404
330.0125, 1883.425
330.4946, 1879.718
330.9767, 1876.028
331.4589, 1873.339
331.9410, 1872.432
332.4231, 1872.134
332.9052, 1870.825
333.3873, 1868.141
333.8694, 1864.875
334.3516, 1860.735
334.8337, 1855.485
335.3158, 1852.462
335.7979, 1852.917
336.2800, 1854.143
336.7621, 1853.640
337.2443, 1850.971
337.7264, 1847.589
338.2085, 1843.174
338.6906, 1838.175
339.1727, 1835.350
339.6548, 1835.579
340.1370, 1835.927
340.6191, 1833.604
341.1012, 1827.916
341.5833, 1825.410
342.0654, 1827.315
342.5475, 1832.092
343.0297, 1836.323
343.5118, 1839.867
343.9939, 1843.706
344.4760, 1847.607
344.9581, 1851.712
345.4402, 1859.517
345.9224, 1871.756
346.4045, 1885.419
346.8866, 1895.771
347.3687, 1903.178
347.8508, 1911.107
348.3329, 1921.910
348.8151, 1934.074
349.2972, 1943.589
349.7793, 1950.435
350.2614, 1954.780
350.7435, 1956.395
351.2256, 1955.542
351.7078, 1952.933
352.1899, 1948.773
352.6720, 1942.954
353.1541, 1935.558
353.6362, 1926.420
354.1183, 1914.915
354.6005, 1898.917
355.0826, 1880.874
355.5647, 1863.860
356.0468, 1848.391
356.5289, 1834.339
357.0110, 1821.675
357.4932, 1810.193
357.9753, 1799.421
358.4574, 1789.512
358.9395, 1779.949
359.4216, 1770.164
359.9037, 1759.991
360.3859, 1750.820
360.8680, 1743.548
361.3501, 1737.773
361.8322, 1733.051
362.3143, 1730.369
362.7964, 1727.652
363.2786, 1723.512
363.7607, 1718.143
364.2428, 1713.820
364.7249, 1711.749
365.2070, 1710.759
365.6891, 1710.097
366.1713, 1710.370
366.6534, 1710.020
367.1355, 1708.637
367.6176, 1706.425
368.0997, 1703.957
368.5818, 1699.640
369.0640, 1696.533
369.5461, 1696.070
370.0282, 1699.868
370.5103, 1702.599
370.9924, 1704.871
371.4745, 1705.882
371.9567, 1704.247
372.4388, 1696.603
372.9209, 1691.368
373.4030, 1691.044
373.8851, 1695.775
374.3672, 1698.865
374.8494, 1699.352
375.3315, 1699.503
375.8136, 1701.407
376.2957, 1705.907
376.7778, 1709.093
377.2599, 1709.778
377.7421, 1709.085
378.2242, 1710.825
378.7063, 1715.328
379.1884, 1720.736
379.6705, 1725.898
380.1526, 1730.842
380.6348, 1736.817
381.1169, 1744.224
381.5990, 1751.737
382.0811, 1757.174
382.5632, 1760.642
383.0453, 1764.417
383.5275, 1768.924
384.0096, 1774.516
384.4917, 1782.553
384.9738, 1793.123
385.4559, 1804.115
385.9380, 1813.483
386.4202, 1821.892
386.9023, 1831.139
387.3844, 1842.047
387.8665, 1853.596
388.3486, 1864.631
388.8307, 1875.260
389.3129, 1885.929
389.7950, 1898.024
390.2771, 1909.776
390.7592, 1919.059
391.2413, 1925.433
391.7234, 1930.005
392.2056, 1934.256
392.6877, 1936.971
393.1698, 1936.340
393.6519, 1930.872
394.1340, 1922.538
394.6161, 1911.627
395.0983, 1898.268
395.5804, 1884.766
396.0625, 1871.800
396.5446, 1859.113
397.0267, 1846.510
397.5089, 1833.553
397.9910, 1821.161
398.4731, 1808.637
398.9552, 1796.680
399.4373, 1787.380
399.9194, 1783.248
400.4016, 1779.753
400.8837, 1775.065
401.3658, 1768.054
401.8479, 1763.201
402.3300, 1761.273
402.8121, 1761.018
403.2942, 1760.775
403.7763, 1759.351
404.2585, 1760.281
404.7406, 1764.615
405.2227, 1772.110
405.7048, 1780.096
406.1869, 1788.337
406.6690, 1797.433
407.1512, 1807.762
407.6333, 1819.341
408.1154, 1832.136
408.5975, 1846.430
409.0796, 1861.593
409.5617, 1876.628
410.0439, 1891.485
410.5260, 1907.901
411.0081, 1927.545
411.4902, 1949.473
411.9723, 1970.166
412.4544, 1989.577
412.9366, 2009.225
413.4187, 2029.892
413.9008, 2052.397
414.3829, 2078.897
414.8650, 2111.456
415.3471, 2146.980
415.8293, 2180.689
416.3114, 2213.500
416.7935, 2248.280
417.2756, 2286.397
417.7577, 2327.789
418.2398, 2371.663
418.7220, 2418.246
419.2041, 2467.748
419.6862, 2520.622
420.1683, 2577.390
420.6504, 2637.175
421.1325, 2702.911
421.6147, 2770.230
422.0968, 2837.427
422.5789, 2905.010
423.0610, 2972.295
423.5431, 3044.064
424.0252, 3112.825
424.5074, 3174.956
424.9895, 3230.262
425.4716, 3276.501
425.9537, 3316.814
426.4358, 3347.870
426.9179, 3362.330
427.4001, 3356.013
427.8822, 3338.117
428.3643, 3310.045
428.8464, 3270.785
429.3285, 3227.901
429.8106, 3180.330
430.2928, 3130.765
430.7749, 3080.608
431.2570, 3029.395
431.7391, 2980.631
432.2212, 2934.602
432.7033, 2891.614
433.1855, 2852.761
433.6676, 2818.158
434.1497, 2786.793
434.6318, 2757.627
435.1139, 2731.003
435.5960, 2709.571
436.0782, 2693.691
436.5603, 2680.829
437.0424, 2667.983
437.5245, 2655.573
438.0066, 2645.273
438.4887, 2638.124
438.9709, 2633.074
439.4530, 2628.337
439.9351, 2624.164
440.4172, 2622.350
440.8993, 2624.343
441.3814, 2629.153
441.8636, 2635.946
442.3457, 2644.906
442.8278, 2654.840
443.3099, 2663.625
443.7920, 2673.143
444.2741, 2686.665
444.7563, 2708.680
445.2384, 2731.614
445.7205, 2751.228
446.2026, 2767.402
446.6847, 2787.865
447.1668, 2815.853
447.6490, 2847.234
448.1311, 2879.508
448.6132, 2912.426
449.0953, 2946.208
449.5774, 2983.093
450.0595, 3020.110
450.5417, 3050.637
451.0238, 3073.170
451.5059, 3091.309
451.9880, 3105.594
452.4701, 3115.993
452.9522, 3125.083
453.4344, 3133.134
453.9165, 3139.557
454.3986, 3144.220
454.8807, 3147.179
455.3628, 3146.689
455.8449, 3141.702
456.3271, 3134.227
456.8092, 3128.648
457.2913, 3124.709
457.7734, 3119.691
458.2555, 3111.961
458.7376, 3102.130
459.2198, 3091.460
459.7019, 3080.088
460.1840, 3067.134
460.6661, 3052.329
461.1482, 3035.313
461.6303, 3015.521
462.1125, 2991.313
462.5946, 2966.358
463.0767, 2944.459
463.5588, 2924.236
464.0409, 2902.191
464.5230, 2876.220
465.0052, 2848.562
465.4873, 2820.562
465.9694, 2792.402
466.4515, 2764.015
466.9336, 2735.729
467.4157, 2707.207
467.8979, 2678.129
468.3800, 2648.652
468.8621, 2618.282
469.3442, 2586.178
469.8263, 2553.161
470.3084, 2521.900
470.7906, 2493.900
471.2727, 2465.752
471.7548, 2435.616
472.2369, 2402.695
472.7190, 2372.504
473.2011, 2344.810
473.6833, 2319.368
474.1654, 2296.348
474.6475, 2275.876
475.1296, 2254.990
475.6117, 2232.711
476.0938, 2209.813
476.5760, 2188.550
477.0581, 2168.739
477.5402, 2149.511
478.0223, 2129.602
478.5044, 2110.030
478.9865, 2092.749
479.4687, 2077.903
479.9508, 2065.052
480.4329, 2054.572
480.9150, 2045.796
481.3971, 2037.814
481.8792, 2030.284
482.3614, 2023.540
482.8435, 2017.393
483.3256, 2012.182
483.8077, 2009.026
484.2898, 2010.160
484.7719, 2012.075
485.2541, 2013.107
485.7362, 2012.946
486.2183, 2012.523
486.7004, 2010.113
487.1825, 2008.449
487.6646, 2010.214
488.1468, 2018.757
488.6289, 2025.223
489.1110, 2027.582
489.5931, 2027.292
490.0752, 2029.712
490.5573, 2035.854
491.0395, 2042.218
491.5216, 2047.389
492.0037, 2051.387
492.4858, 2054.812
492.9679, 2057.596
493.4500, 2060.261
493.9322, 2063.055
494.4143, 2066.102
494.8964, 2069.949
495.3785, 2074.640
495.8606, 2080.392
496.3427, 2087.812
496.8249, 2096.621
497.3070, 2106.013
497.7891, 2116.739
498.2712, 2127.019
498.7533, 2133.397
499.2354, 2135.749
499.7176, 2140.684
500.1997, 2154.367
500.6818, 2171.396
501.1639, 2186.607
501.6460, 2197.191
502.1281, 2208.484
502.6103, 2222.922
503.0924, 2239.141
503.5745, 2253.959
504.0566, 2265.241
504.5387, 2276.713
505.0208, 2289.675
505.5030, 2304.238
505.9851, 2316.805
506.4672, 2326.769
506.9493, 2335.438
507.4314, 2343.768
507.9135, 2352.086
508.3957, 2358.901
508.8778, 2364.071
509.3599, 2367.812
509.8420, 2370.571
510.3241, 2372.325
510.8062, 2372.542
511.2884, 2370.615
511.7705, 2367.170
512.2526, 2364.106
512.7347, 2361.280
513.2168, 2357.089
513.6989, 2349.426
514.1810, 2340.041
514.6631, 2331.310
515.1453, 2323.578
515.6274, 2316.408
516.1095, 2308.162
516.5916, 2300.612
517.0737, 2296.122
517.5558, 2297.816
518.0380, 2300.333
518.5201, 2301.029
519.0022, 2300.671
519.4843, 2303.022
519.9664, 2310.060
520.4485, 2318.774
520.9307, 2328.301
521.4128, 2339.314
521.8949, 2348.517
522.3770, 2355.673
522.8591, 2361.266
523.3412, 2365.819
523.8234, 2369.358
524.3055, 2371.798
524.7876, 2374.166
525.2697, 2374.270
525.7518, 2366.466
526.2339, 2350.781
526.7161, 2331.968
527.1982, 2311.660
527.6803, 2290.012
528.1624, 2267.225
528.6445, 2243.121
529.1266, 2218.170
529.6088, 2191.273
530.0909, 2163.865
530.5730, 2138.273
531.0551, 2114.649
531.5372, 2092.842
532.0193, 2071.674
532.5015, 2051.933
532.9836, 2035.133
533.4657, 2023.382
533.9478, 2012.750
534.4299, 2001.229
534.9120, 1989.219
535.3942, 1979.804
535.8763, 1974.753
536.3584, 1971.083
536.8405, 1967.722
537.3226, 1964.646
537.8047, 1962.034
538.2869, 1959.873
538.7690, 1958.270
539.2511, 1957.481
539.7332, 1957.591
540.2153, 1957.850
540.6974, 1958.082
541.1796, 1958.464
541.6617, 1959.213
542.1438, 1960.362
542.6259, 1962.275
543.1080, 1965.194
543.5901, 1968.962
544.0723, 1973.404
544.5544, 1978.474
545.0365, 1984.010
545.5186, 1990.375
546.0007, 1996.840
546.4828, 2002.276
546.9650, 2005.385
547.4471, 2010.292
547.9292, 2018.910
548.4113, 2030.275
548.8934, 2043.057
549.3755, 2056.986
549.8577, 2072.367
550.3398, 2090.147
550.8219, 2109.776
551.3040, 2127.655
551.7861, 2142.608
552.2682, 2158.230
552.7504, 2176.326
553.2325, 2197.119
553.7146, 2217.457
554.1967, 2237.022
554.6788, 2257.069
555.1609, 2279.117
555.6431, 2302.686
556.1252, 2326.919
556.6073, 2351.411
557.0894, 2377.075
557.5715, 2405.022
558.0536, 2435.175
558.5358, 2467.417
559.0179, 2498.577
559.5000, 2533.880
559.9821, 2577.762
560.4642, 2629.791
560.9464, 2685.961
561.4285, 2745.639
561.9106, 2808.238
562.3927, 2872.821
562.8748, 2939.997
563.3569, 3008.530
563.8391, 3080.908
564.3212, 3153.360
564.8033, 3223.943
565.2854, 3296.721
565.7675, 3360.097
566.2496, 3415.001
566.7318, 3459.367
567.2139, 3488.210
567.6960, 3502.750
568.1781, 3496.903
568.6602, 3467.560
569.1423, 3416.068
569.6245, 3345.313
570.1066, 3254.544
570.5887, 3155.325
571.0708, 3048.709
571.5529, 2939.281
572.0350, 2834.383
572.5172, 2733.013
572.9993, 2641.685
573.4814, 2566.820
573.9635, 2503.513
574.4456, 2446.890
574.9277, 2392.629
575.4099, 2347.973
575.8920, 2317.585
576.3741, 2298.233
576.8562, 2280.636
577.3383, 2261.151
577.8204, 2246.421
578.3026, 2238.932
578.7847, 2238.661
579.2668, 2238.370
579.7489, 2237.274
580.2310, 2238.075
580.7131, 2242.910
581.1953, 2251.710
581.6774, 2261.447
582.1595, 2271.709
582.6416, 2283.881
583.1237, 2300.338
583.6058, 2319.922
584.0880, 2339.440
584.5701, 2357.481
585.0522, 2375.643
585.5343, 2395.163
586.0164, 2416.109
586.4985, 2438.290
586.9807, 2462.256
587.4628, 2487.109
