##NAMES=Epidote
##RRUFFID=R100129
##IDEAL CHEMISTRY=Ca_2_Fe^3+^Al_2_(Si_2_O_7_)(SiO_4_)O(OH)
##LOCALITY=Pakistan-Afganistan
##OWNER=RRUFF
##SOURCE=William W. Pinch
##DESCRIPTION=Dark green cut gemstone
##STATUS=The identification of this mineral has been confirmed by single-crystal X-ray diffraction.
##URL=rruff.info/R100129
91.03516, 37.89930
91.51727, 39.40421
91.99939, 38.19778
92.48151, 35.08926
92.96362, 32.36953
93.44574, 31.48614
93.92786, 31.78682
94.40997, 31.94767
94.89210, 31.90825
95.37421, 31.63253
95.85633, 30.83584
96.33845, 29.55103
96.82056, 28.55065
97.30268, 28.51191
97.78480, 29.33477
98.26691, 30.07598
98.74903, 30.74661
99.23115, 31.16117
99.71326, 30.58066
100.1954, 28.79574
100.6775, 26.84218
101.1596, 25.47334
101.6417, 24.72645
102.1239, 24.46771
102.6060, 24.82265
103.0881, 25.74411
103.5702, 26.34597
104.0523, 26.50337
104.5344, 26.50017
105.0166, 26.63340
105.4987, 26.94704
105.9808, 27.32620
106.4629, 27.82030
106.9450, 28.54883
107.4271, 28.86111
107.9093, 28.62515
108.3914, 28.02271
108.8735, 27.30832
109.3556, 26.04541
109.8377, 25.08719
110.3198, 24.68349
110.8020, 25.08940
111.2841, 25.56057
111.7662, 26.75465
112.2483, 28.01043
112.7304, 27.88997
113.2125, 24.34352
113.6947, 20.69864
114.1768, 18.55829
114.6589, 18.90001
115.1410, 19.69167
115.6231, 20.64755
116.1052, 21.72648
116.5874, 22.79670
117.0695, 24.43158
117.5516, 25.72577
118.0337, 25.96975
118.5158, 23.67723
118.9980, 21.45420
119.4801, 20.62458
119.9622, 21.08938
120.4443, 21.61508
120.9264, 21.61930
121.4085, 21.26448
121.8907, 20.74821
122.3728, 19.65256
122.8549, 18.73653
123.3370, 18.83118
123.8191, 19.99703
124.3012, 21.21411
124.7834, 21.85046
125.2655, 21.93961
125.7476, 21.55099
126.2297, 19.93989
126.7118, 18.11349
127.1939, 17.75510
127.6761, 19.16274
128.1582, 21.06226
128.6403, 22.05179
129.1224, 22.25978
129.6045, 22.30597
130.0867, 22.34073
130.5688, 22.46479
131.0509, 23.12864
131.5330, 24.57508
132.0151, 26.15269
132.4972, 26.58565
132.9794, 25.87194
133.4615, 25.08352
133.9436, 24.95785
134.4257, 25.45270
134.9078, 25.96453
135.3899, 26.31945
135.8721, 26.71435
136.3542, 27.77236
136.8363, 29.56804
137.3184, 31.70549
137.8005, 33.96977
138.2826, 36.43655
138.7648, 38.53601
139.2469, 39.84096
139.7290, 40.61945
140.2111, 42.90907
140.6932, 47.17168
141.1753, 52.12397
141.6575, 56.46469
142.1396, 59.94297
142.6217, 63.62804
143.1038, 67.83742
143.5859, 72.65354
144.0681, 76.98611
144.5502, 80.57545
145.0323, 83.94594
145.5144, 87.80474
145.9965, 92.48873
146.4786, 97.10453
146.9608, 101.2784
147.4429, 104.8979
147.9250, 108.8235
148.4071, 113.0531
148.8892, 117.6007
149.3713, 122.3899
149.8535, 127.4050
150.3356, 132.7413
150.8177, 138.4387
151.2998, 144.5311
151.7819, 150.9008
152.2640, 156.9222
152.7462, 163.3050
153.2283, 171.2090
153.7104, 181.8067
154.1925, 193.0431
154.6746, 204.1924
155.1567, 214.9573
155.6389, 225.7872
156.1210, 236.4898
156.6031, 247.3166
157.0852, 258.9904
157.5673, 272.0358
158.0495, 285.6392
158.5316, 299.6420
159.0137, 314.8276
159.4958, 329.0904
159.9779, 341.0941
160.4600, 351.6219
160.9422, 363.2303
161.4243, 377.7841
161.9064, 393.1295
162.3885, 407.7300
162.8706, 420.6316
163.3527, 433.6559
163.8349, 448.4285
164.3170, 464.4129
164.7991, 479.0453
165.2812, 492.2224
165.7633, 503.0301
166.2454, 510.6397
166.7276, 514.5569
167.2097, 515.4113
167.6918, 513.0621
168.1739, 507.6946
168.6560, 500.7091
169.1381, 491.8605
169.6203, 481.9886
170.1024, 469.2148
170.5845, 456.1579
171.0666, 443.7460
171.5487, 431.1547
172.0309, 418.4949
172.5130, 406.8421
172.9951, 397.6906
173.4772, 389.9129
173.9593, 381.7217
174.4414, 372.9413
174.9236, 363.1939
175.4057, 352.1377
175.8878, 339.6820
176.3699, 326.3926
176.8520, 311.7145
177.3341, 296.3924
177.8163, 282.0154
178.2984, 269.6262
178.7805, 258.5295
179.2626, 247.6390
179.7447, 237.0692
180.2268, 227.1737
180.7090, 218.5520
181.1911, 211.0373
181.6732, 204.2536
182.1553, 197.9038
182.6374, 192.1852
183.1195, 187.8160
183.6017, 184.8356
184.0838, 182.6890
184.5659, 180.8461
185.0480, 179.2782
185.5301, 177.7543
186.0123, 175.9907
186.4944, 174.1661
186.9765, 173.0255
187.4586, 172.6923
187.9407, 172.6114
188.4228, 171.9449
188.9050, 170.7520
189.3871, 169.6280
189.8692, 168.9526
190.3513, 168.6362
190.8334, 168.1993
191.3155, 167.5930
191.7977, 166.9409
192.2798, 166.3848
192.7619, 165.9247
193.2440, 165.6617
193.7261, 165.5120
194.2082, 165.5192
194.6904, 166.2641
195.1725, 167.8974
195.6546, 170.0383
196.1367, 171.8566
196.6188, 173.3168
197.1009, 175.0264
197.5831, 177.4330
198.0652, 180.5528
198.5473, 183.5097
199.0294, 186.2949
199.5115, 188.8418
199.9937, 190.9656
200.4758, 192.5982
200.9579, 194.0793
201.4400, 195.6584
201.9221, 197.3759
202.4042, 198.6845
202.8864, 199.6809
203.3685, 200.1296
203.8506, 199.4403
204.3327, 197.5531
204.8148, 194.8288
205.2969, 191.2571
205.7791, 186.6967
206.2612, 182.3205
206.7433, 178.2031
207.2254, 174.3004
207.7075, 170.4298
208.1896, 166.4496
208.6718, 162.8826
209.1539, 160.0651
209.6360, 158.1746
210.1181, 156.1965
210.6002, 153.8657
211.0823, 151.5305
211.5645, 150.3468
212.0466, 150.7786
212.5287, 151.2613
213.0108, 150.6769
213.4929, 148.3945
213.9750, 147.5776
214.4572, 148.7788
214.9393, 151.3941
215.4214, 153.7191
215.9035, 155.6856
216.3856, 157.5182
216.8678, 159.1978
217.3499, 160.5291
217.8320, 162.3713
218.3141, 164.6689
218.7962, 167.5053
219.2783, 171.3656
219.7605, 176.9370
220.2426, 182.2109
220.7247, 185.7013
221.2068, 186.0488
221.6889, 188.5450
222.1710, 193.9936
222.6532, 201.5918
223.1353, 208.6233
223.6174, 214.7920
224.0995, 221.0227
224.5816, 227.7547
225.0637, 235.1377
225.5459, 242.8100
226.0280, 250.6553
226.5101, 258.8327
226.9922, 267.6122
227.4743, 277.3940
227.9564, 287.2647
228.4386, 296.8976
228.9207, 305.8693
229.4028, 315.2178
229.8849, 325.1693
230.3670, 335.4675
230.8492, 345.7639
231.3313, 356.1436
231.8134, 366.2362
232.2955, 375.8936
232.7776, 384.3960
233.2597, 393.8384
233.7419, 404.6416
234.2240, 416.3191
234.7061, 427.1736
235.1882, 436.3076
235.6703, 445.9546
236.1524, 457.1696
236.6346, 470.2580
237.1167, 484.2201
237.5988, 499.4114
238.0809, 515.3658
238.5630, 531.3110
239.0451, 547.1940
239.5273, 562.9791
240.0094, 578.7825
240.4915, 595.1592
240.9736, 610.3148
241.4557, 625.0342
241.9378, 638.2787
242.4200, 647.9723
242.9021, 654.3737
243.3842, 656.9591
243.8663, 655.6384
244.3484, 650.6310
244.8306, 640.9968
245.3127, 626.6043
245.7948, 607.7866
246.2769, 584.6711
246.7590, 555.4807
247.2411, 525.4681
247.7233, 496.2685
248.2054, 467.8399
248.6875, 440.1398
249.1696, 412.6450
249.6517, 386.4910
250.1338, 363.8500
250.6160, 345.6553
251.0981, 329.2035
251.5802, 313.6694
252.0623, 298.6309
252.5444, 286.2588
253.0265, 277.2761
253.5087, 270.4524
253.9908, 264.2632
254.4729, 258.5866
254.9550, 253.6986
255.4371, 249.6890
255.9192, 246.6208
256.4014, 244.2410
256.8835, 242.8005
257.3656, 241.8001
257.8477, 240.5408
258.3298, 238.7468
258.8120, 237.3113
259.2941, 236.5142
259.7762, 236.3923
260.2583, 236.2540
260.7404, 236.1643
261.2225, 235.9689
261.7047, 235.3148
262.1868, 233.6846
262.6689, 232.9579
263.1510, 233.6822
263.6331, 235.8111
264.1152, 238.0006
264.5974, 240.1162
265.0795, 242.4809
265.5616, 245.3796
266.0437, 248.9896
266.5258, 252.6791
267.0079, 256.2325
267.4901, 259.7530
267.9722, 263.8820
268.4543, 268.8151
268.9364, 274.0684
269.4185, 279.1906
269.9006, 284.0339
270.3828, 289.3856
270.8649, 295.4425
271.3470, 302.1219
271.8291, 309.1481
272.3112, 316.6175
272.7933, 324.3840
273.2755, 332.6232
273.7576, 341.6112
274.2397, 349.2554
274.7218, 355.2674
275.2039, 359.7298
275.6860, 362.8419
276.1682, 364.5890
276.6503, 365.1543
277.1324, 364.6711
277.6145, 363.1643
278.0966, 360.3908
278.5787, 356.1309
279.0609, 350.8846
279.5430, 345.2584
280.0251, 339.0787
280.5072, 333.8340
280.9893, 330.3904
281.4715, 328.7707
281.9536, 328.0381
282.4357, 328.2383
282.9178, 329.1437
283.3999, 330.4817
283.8820, 332.2630
284.3642, 334.1801
284.8463, 335.8868
285.3284, 337.4674
285.8105, 339.9080
286.2926, 343.3014
286.7747, 347.2700
287.2569, 351.1275
287.7390, 354.9030
288.2211, 359.5254
288.7032, 365.9218
289.1853, 373.5541
289.6674, 379.8344
290.1496, 384.5835
290.6317, 389.3640
291.1138, 395.8990
291.5959, 404.0888
292.0780, 413.0110
292.5602, 423.0291
293.0423, 433.4076
293.5244, 442.6172
294.0065, 450.6393
294.4886, 456.8895
294.9707, 461.3604
295.4529, 463.7876
295.9350, 463.0666
296.4171, 458.4101
296.8992, 450.9377
297.3813, 441.9599
297.8634, 431.6415
298.3456, 421.3301
298.8277, 412.4978
299.3098, 404.5001
299.7919, 395.8829
300.2740, 386.1724
300.7561, 376.1488
301.2383, 367.0375
301.7204, 358.6530
302.2025, 350.7691
302.6846, 343.3896
303.1667, 336.3143
303.6488, 328.8343
304.1310, 320.5673
304.6131, 312.9810
305.0952, 307.8037
305.5773, 304.5887
306.0594, 302.1401
306.5415, 299.7483
307.0237, 297.8148
307.5058, 296.6955
307.9879, 296.4294
308.4700, 297.0145
308.9521, 298.4517
309.4343, 300.7402
309.9164, 303.8877
310.3985, 308.1844
310.8806, 313.1791
311.3627, 318.6840
311.8448, 324.7402
312.3270, 330.8358
312.8091, 337.3061
313.2912, 343.4544
313.7733, 348.4580
314.2554, 351.5209
314.7375, 353.8040
315.2197, 355.9892
315.7018, 358.0237
316.1839, 359.2400
316.6660, 359.5444
317.1481, 358.7997
317.6302, 356.8516
318.1124, 352.7659
318.5945, 348.5999
319.0766, 344.6429
319.5587, 341.0529
320.0408, 338.3055
320.5229, 335.8520
321.0051, 334.7667
321.4872, 335.8094
321.9693, 340.0826
322.4514, 344.6030
322.9335, 348.4517
323.4156, 352.1695
323.8978, 356.7995
324.3799, 362.7781
324.8620, 369.4732
325.3441, 376.7623
325.8262, 384.6849
326.3083, 392.8224
326.7905, 401.6470
327.2726, 410.5414
327.7547, 418.6286
328.2368, 425.5894
328.7189, 432.1188
329.2010, 438.2863
329.6832, 444.0151
330.1653, 449.6903
330.6474, 456.1447
331.1295, 461.9404
331.6116, 465.9251
332.0938, 467.2186
332.5759, 468.0831
333.0580, 468.6489
333.5401, 468.9586
334.0222, 469.3664
334.5043, 470.2607
334.9865, 470.7220
335.4686, 469.8713
335.9507, 466.5005
336.4328, 465.2007
336.9149, 466.7610
337.3970, 470.2801
337.8792, 473.0381
338.3613, 474.3973
338.8434, 476.8869
339.3255, 481.5688
339.8076, 488.5241
340.2898, 497.4127
340.7719, 508.5461
341.2540, 521.2097
341.7361, 534.3271
342.2182, 547.4785
342.7003, 562.9922
343.1825, 582.1549
343.6646, 604.5391
344.1467, 625.8600
344.6288, 646.0703
345.1109, 666.3729
345.5930, 689.2009
346.0752, 713.9064
346.5573, 736.9023
347.0394, 757.5036
347.5215, 775.8696
348.0036, 794.0075
348.4857, 811.7166
348.9679, 824.9799
349.4500, 831.0624
349.9321, 830.4131
350.4142, 824.4459
350.8963, 813.3387
351.3784, 797.2396
351.8606, 775.4783
352.3427, 748.8316
352.8248, 719.5410
353.3069, 687.5950
353.7890, 654.5963
354.2711, 622.0221
354.7533, 590.0914
355.2354, 558.8131
355.7175, 527.5504
356.1996, 497.3458
356.6817, 470.0181
357.1638, 446.6837
357.6460, 426.2887
358.1281, 407.9311
358.6102, 391.6557
359.0923, 377.2881
359.5744, 365.4038
360.0565, 355.2584
360.5387, 346.1515
361.0208, 338.0705
361.5029, 330.7351
361.9850, 323.9060
362.4671, 317.7268
362.9492, 312.7522
363.4314, 309.8914
363.9135, 307.7654
364.3956, 305.6868
364.8777, 303.6376
365.3598, 301.4244
365.8419, 298.5735
366.3241, 295.6302
366.8062, 293.4332
367.2883, 293.6668
367.7704, 293.1448
368.2526, 290.9855
368.7347, 286.9935
369.2168, 282.2639
369.6989, 276.7577
370.1810, 270.5569
370.6631, 263.6613
371.1453, 255.9770
371.6274, 247.6649
372.1095, 238.1630
372.5916, 227.7803
373.0737, 218.9575
373.5558, 212.2194
374.0380, 206.1468
374.5201, 199.9136
375.0022, 193.5150
375.4843, 187.1357
375.9664, 180.6480
376.4485, 174.3040
376.9307, 168.2568
377.4128, 162.3569
377.8949, 157.6196
378.3770, 154.8262
378.8591, 153.8769
379.3412, 152.4888
379.8234, 150.5202
380.3055, 148.6524
380.7876, 147.8691
381.2697, 148.0958
381.7518, 148.0521
382.2339, 147.1103
382.7161, 145.9100
383.1982, 146.1263
383.6803, 147.7178
384.1624, 149.5376
384.6445, 150.5077
385.1266, 151.0518
385.6088, 152.3643
386.0909, 154.8235
386.5730, 157.4389
387.0551, 158.7826
387.5372, 159.2657
388.0193, 160.0949
388.5015, 162.4086
388.9836, 165.1057
389.4657, 167.0168
389.9478, 168.0677
390.4299, 168.7236
390.9120, 169.5982
391.3942, 170.1725
391.8763, 169.7836
392.3584, 167.4494
392.8405, 164.8206
393.3226, 162.7083
393.8047, 161.0161
394.2869, 159.3030
394.7690, 157.4902
395.2511, 155.5408
395.7332, 153.4209
396.2154, 151.0707
396.6975, 148.6765
397.1796, 145.9707
397.6617, 143.2693
398.1438, 141.1294
398.6259, 139.8531
399.1081, 138.8954
399.5902, 138.2607
400.0723, 138.0485
400.5544, 137.3890
401.0365, 135.4207
401.5186, 133.6409
402.0008, 133.3934
402.4829, 135.7511
402.9650, 137.5742
403.4471, 138.2937
403.9292, 138.2235
404.4113, 138.6165
404.8935, 139.4471
405.3756, 140.7941
405.8577, 142.7513
406.3398, 145.3417
406.8219, 148.2870
407.3040, 151.6916
407.7862, 155.2613
408.2683, 158.6017
408.7504, 161.7061
409.2325, 164.8473
409.7146, 167.9460
410.1967, 171.1730
410.6789, 175.4248
411.1610, 180.7275
411.6431, 186.4425
412.1252, 192.0360
412.6073, 197.5733
413.0894, 203.2127
413.5716, 208.8776
414.0537, 214.6176
414.5358, 220.2012
415.0179, 225.7772
415.5000, 232.0340
415.9821, 239.5316
416.4643, 247.7110
416.9464, 255.9178
417.4285, 264.0327
417.9106, 272.6743
418.3927, 282.2746
418.8748, 292.6351
419.3570, 303.3434
419.8391, 314.1014
420.3212, 325.4411
420.8033, 338.0548
421.2854, 351.6447
421.7675, 365.0499
422.2497, 377.6337
422.7318, 390.1711
423.2139, 403.1627
423.6960, 417.5748
424.1781, 430.4092
424.6602, 441.2906
425.1424, 450.3718
425.6245, 457.7104
426.1066, 462.3107
426.5887, 466.3349
427.0709, 469.8555
427.5530, 472.8714
428.0351, 476.7798
428.5172, 481.6862
428.9993, 487.3973
429.4814, 493.5748
429.9636, 499.8057
430.4457, 508.1357
430.9278, 518.9208
431.4099, 531.7003
431.8920, 545.1796
432.3741, 559.2936
432.8563, 575.5922
433.3384, 595.8746
433.8205, 619.4662
434.3026, 641.0106
434.7847, 660.4915
435.2668, 678.9113
435.7490, 697.7594
436.2311, 716.5949
436.7132, 733.1688
437.1953, 746.7562
437.6774, 758.0621
438.1595, 767.4805
438.6417, 775.3859
439.1238, 783.3259
439.6059, 792.3327
440.0880, 801.8036
440.5701, 810.5115
441.0522, 817.9832
441.5344, 827.4970
442.0165, 841.4351
442.4986, 858.4824
442.9807, 876.9753
443.4628, 894.2049
443.9449, 914.8881
444.4271, 941.3787
444.9092, 973.1614
445.3913, 1007.488
445.8734, 1044.229
446.3555, 1082.144
446.8376, 1120.624
447.3198, 1160.297
447.8019, 1199.364
448.2840, 1239.191
448.7661, 1277.496
449.2482, 1311.178
449.7303, 1340.596
450.2125, 1364.291
450.6946, 1382.101
451.1767, 1394.090
451.6588, 1400.055
452.1409, 1399.097
452.6230, 1394.363
453.1052, 1387.868
453.5873, 1379.560
454.0694, 1369.440
454.5515, 1357.554
455.0337, 1343.819
455.5158, 1328.556
455.9979, 1311.591
456.4800, 1292.465
456.9621, 1271.871
457.4442, 1248.530
457.9264, 1219.104
458.4085, 1183.814
458.8906, 1143.999
459.3727, 1100.122
459.8548, 1052.865
460.3369, 1003.828
460.8191, 951.9338
461.3012, 900.3755
461.7833, 851.8040
462.2654, 805.3334
462.7475, 759.3146
463.2296, 710.5640
463.7118, 663.4765
464.1939, 620.3777
464.6760, 581.0364
465.1581, 544.6711
465.6402, 511.7634
466.1223, 481.5466
466.6045, 453.9408
467.0866, 429.6745
467.5687, 407.1922
468.0508, 386.3538
468.5329, 367.1035
469.0150, 349.0314
469.4972, 332.0678
469.9793, 316.7207
470.4614, 303.4168
470.9435, 292.2129
471.4256, 282.0469
471.9077, 273.0853
472.3899, 264.8394
472.8720, 256.8589
473.3541, 249.0067
473.8362, 241.9513
474.3183, 235.7587
474.8004, 230.3359
475.2826, 225.5495
475.7647, 221.3918
476.2468, 217.7699
476.7289, 214.5968
477.2110, 211.9212
477.6931, 210.0237
478.1753, 208.8910
478.6574, 208.0249
479.1395, 207.0558
479.6216, 206.0793
480.1037, 205.1900
480.5858, 204.2421
481.0680, 203.7073
481.5501, 203.8611
482.0322, 204.6610
482.5143, 206.0244
482.9964, 208.3945
483.4786, 210.9145
483.9607, 213.0654
484.4428, 214.7443
484.9249, 216.9152
485.4070, 220.4179
485.8892, 224.0468
486.3713, 226.9132
486.8534, 227.7661
487.3355, 229.6357
487.8176, 232.6905
488.2997, 236.7616
488.7819, 241.6994
489.2640, 247.9531
489.7461, 254.0882
490.2282, 259.4823
490.7103, 264.2544
491.1924, 269.6492
491.6746, 275.7144
492.1567, 282.3232
492.6388, 289.2070
493.1209, 296.4991
493.6030, 304.6340
494.0851, 313.9706
494.5673, 323.6417
495.0494, 332.0329
495.5315, 339.5739
496.0136, 347.4988
496.4957, 356.8852
496.9778, 366.7184
497.4600, 376.3428
497.9421, 385.6865
498.4242, 394.5001
498.9063, 403.6463
499.3884, 411.6952
499.8705, 417.4224
500.3527, 420.0567
500.8348, 421.5446
501.3169, 422.9172
501.7990, 423.4261
502.2811, 421.9940
502.7632, 417.4227
503.2454, 411.9865
503.7275, 405.9955
504.2096, 399.4980
504.6917, 392.5558
505.1738, 385.2699
505.6559, 377.5333
506.1381, 369.1667
506.6202, 359.7671
507.1023, 351.5156
507.5844, 344.7871
508.0665, 338.5575
508.5486, 331.6667
509.0308, 324.0768
509.5129, 316.0483
509.9950, 307.6656
510.4771, 298.8085
510.9592, 289.0460
511.4413, 278.4281
511.9235, 267.1402
512.4056, 254.7326
512.8877, 241.9658
513.3698, 229.6116
513.8519, 217.7068
514.3340, 206.6186
514.8162, 196.7863
515.2983, 187.8655
515.7804, 179.4125
516.2625, 170.7249
516.7446, 163.1896
517.2267, 157.6379
517.7089, 153.6971
518.1910, 150.5264
518.6731, 148.3009
519.1552, 146.4782
519.6373, 144.9250
520.1194, 143.6181
520.6016, 142.5805
521.0837, 141.8486
521.5658, 141.3541
522.0479, 141.1195
522.5300, 141.2890
523.0121, 141.2646
523.4943, 141.1637
523.9764, 140.6395
524.4585, 138.9019
524.9406, 135.9598
525.4227, 132.7841
525.9048, 129.7448
526.3870, 126.3331
526.8691, 123.2062
527.3513, 119.2363
527.8334, 115.2479
528.3155, 111.3150
528.7976, 107.6039
529.2797, 104.3980
529.7618, 101.7620
530.2440, 99.30946
530.7261, 96.69077
531.2082, 94.13135
531.6903, 91.96819
532.1724, 90.51466
532.6545, 89.22820
533.1367, 87.86262
533.6188, 86.49908
534.1009, 85.37883
534.5830, 84.49959
535.0651, 83.93005
535.5472, 83.79928
536.0294, 84.20766
536.5115, 84.30908
536.9936, 83.98400
537.4757, 83.52016
537.9578, 83.09820
538.4399, 82.67784
538.9221, 82.54566
539.4042, 82.75797
539.8863, 83.22082
540.3684, 83.92186
540.8505, 84.82038
541.3326, 85.40417
541.8148, 85.13233
542.2969, 84.61623
542.7790, 84.87194
543.2611, 85.87797
543.7432, 87.44361
544.2253, 89.87617
544.7075, 92.57097
545.1896, 94.80396
545.6717, 96.35704
546.1538, 98.13676
546.6359, 100.3283
547.1180, 103.0907
547.6002, 106.5684
548.0823, 111.3925
548.5644, 116.2526
549.0465, 120.5665
549.5286, 124.7579
550.0107, 130.1054
550.4929, 137.4929
550.9750, 144.6939
551.4571, 150.8474
551.9392, 155.9695
552.4213, 161.7967
552.9034, 168.4914
553.3856, 175.4717
553.8677, 182.0359
554.3498, 188.2910
554.8319, 195.5396
555.3140, 203.9202
555.7961, 213.3118
556.2783, 223.6644
556.7604, 234.8423
557.2425, 246.2974
557.7246, 257.1893
558.2067, 268.9957
558.6888, 283.0749
559.1710, 299.2048
559.6531, 316.5367
560.1352, 334.5254
560.6173, 353.5640
561.0994, 373.4597
561.5815, 394.1925
562.0637, 416.7290
562.5458, 443.5660
563.0279, 470.7372
563.5100, 495.8172
563.9921, 519.8417
564.4742, 540.2454
564.9564, 557.9779
565.4385, 571.2692
565.9206, 577.3967
566.4027, 576.5670
566.8848, 567.0449
567.3669, 547.4880
567.8491, 519.3244
568.3312, 485.9106
568.8133, 447.5804
569.2954, 408.9612
569.7775, 372.2121
570.2596, 337.7135
570.7418, 306.7603
571.2239, 279.1391
571.7060, 255.4956
572.1881, 236.9697
572.6702, 222.3572
573.1523, 210.1952
573.6345, 200.4920
574.1166, 192.7866
574.5987, 187.5040
575.0808, 184.0855
575.5629, 181.5293
576.0450, 179.9725
576.5272, 179.0413
577.0093, 178.6790
577.4914, 178.8846
577.9735, 179.6162
578.4556, 180.6585
578.9377, 182.6644
579.4199, 186.1814
579.9020, 191.1930
580.3841, 196.3889
580.8662, 201.7737
581.3483, 207.2396
581.8304, 212.1264
582.3126, 216.8795
582.7947, 223.2754
583.2768, 232.0219
583.7589, 241.3310
584.2410, 249.0513
584.7231, 255.9541
585.2053, 263.5655
585.6874, 273.6449
586.1696, 283.5627
586.6517, 291.5779
587.1338, 298.1050
587.6159, 305.0547
588.0980, 313.1959
588.5801, 321.6003
589.0623, 329.9743
589.5444, 338.3493
