##NAMES=Epididymite
##RRUFFID=R070580
##IDEAL CHEMISTRY=Na_2_Be_2_Si_6_O_15_&#183;H_2_O
##LOCALITY=Narsarsuk, Narsaq, Kitaa, Greenland
##OWNER=RRUFF
##SOURCE=James Shigley
##DESCRIPTION=A translucent to white elongated prism.
##STATUS=The identification of this mineral is confirmed by single-crystal X-ray diffraction and chemical analysis.
##URL=rruff.info/R070580
##MEASURED CHEMISTRY=(Na_1.97_K_0.03_)_Σ=2_Be_2_Si_6.00_O_15_·H_2_O; trace amounts of Al; Be and H_2_O assumed by stoichiometry
110.2292, 19313.49
110.7113, 19370.25
111.1934, 19484.12
111.6755, 19671.29
112.1577, 19902.53
112.6398, 20160.18
113.1219, 20447.52
113.6040, 20776.18
114.0861, 21155.48
114.5682, 21589.13
115.0504, 22068.55
115.5325, 22583.08
116.0146, 23144.18
116.4967, 23752.46
116.9788, 24412.42
117.4609, 25128.39
117.9431, 25914.59
118.4252, 26915.40
118.9073, 27787.62
119.3894, 28552.94
119.8715, 29182.45
120.3536, 29646.65
120.8358, 29933.37
121.3179, 30042.97
121.8000, 29940.19
122.2821, 29448.23
122.7642, 28988.94
123.2464, 28697.74
123.7285, 28554.06
124.2106, 28479.41
124.6927, 28416.78
125.1748, 28396.51
125.6569, 28493.36
126.1391, 28652.31
126.6212, 28960.75
127.1033, 29489.84
127.5854, 30245.68
128.0675, 31229.56
128.5496, 32599.72
129.0318, 34213.79
129.5139, 35781.36
129.9960, 37463.59
130.4781, 39055.63
130.9602, 39900.58
131.4423, 39874.23
131.9245, 39065.02
132.4066, 37443.18
132.8887, 35133.51
133.3708, 32650.14
133.8529, 30354.50
134.3350, 28244.41
134.8172, 26346.49
135.2993, 24652.45
135.7814, 23186.21
136.2635, 22007.97
136.7456, 21117.41
137.2277, 20431.67
137.7099, 19835.20
138.1920, 19333.79
138.6741, 18926.14
139.1562, 18627.15
139.6383, 18396.09
140.1204, 18201.75
140.6026, 18031.77
141.0847, 17884.68
141.5668, 17757.41
142.0489, 17657.47
142.5310, 17571.59
143.0131, 17500.88
143.4953, 17443.54
143.9774, 17397.12
144.4595, 17359.96
144.9416, 17332.45
145.4237, 17316.96
145.9058, 17298.34
146.3880, 17301.68
146.8701, 17349.68
147.3522, 17436.01
147.8343, 17527.47
148.3164, 17602.58
148.7985, 17658.01
149.2807, 17690.64
149.7628, 17711.27
150.2449, 17703.59
150.7270, 17645.33
151.2091, 17530.00
151.6912, 17389.34
152.1734, 17249.71
152.6555, 17110.07
153.1376, 16961.55
153.6197, 16790.29
154.1018, 16608.67
154.5839, 16442.67
155.0661, 16292.07
155.5482, 16168.69
156.0303, 16080.65
156.5124, 16025.54
156.9945, 15987.98
157.4766, 15966.08
157.9588, 15959.31
158.4409, 15939.67
158.9230, 15890.58
159.4051, 15834.86
159.8872, 15779.24
160.3694, 15725.65
160.8515, 15687.61
161.3336, 15689.76
161.8157, 15751.18
162.2978, 15791.40
162.7799, 15774.14
163.2621, 15746.38
163.7442, 15741.42
164.2263, 15771.02
164.7084, 15822.40
165.1905, 15870.09
165.6726, 15920.64
166.1548, 15954.75
166.6369, 15961.65
167.1190, 15955.67
167.6011, 15952.78
168.0832, 15961.54
168.5653, 15977.83
169.0475, 15981.38
169.5296, 15957.87
170.0117, 15935.81
170.4938, 15911.58
170.9759, 15892.21
171.4580, 15890.36
171.9402, 15916.45
172.4223, 15969.67
172.9044, 16009.84
173.3865, 16032.55
173.8686, 16049.78
174.3507, 16055.39
174.8329, 16056.16
175.3150, 16075.39
175.7971, 16137.41
176.2792, 16247.77
176.7613, 16328.08
177.2434, 16339.64
177.7256, 16351.40
178.2077, 16425.89
178.6898, 16567.14
179.1719, 16710.40
179.6540, 16778.74
180.1361, 16768.67
180.6183, 16807.77
181.1004, 16953.58
181.5825, 17138.65
182.0646, 17277.57
182.5467, 17348.76
183.0288, 17402.81
183.5110, 17497.14
183.9931, 17626.15
184.4752, 17763.52
184.9573, 17892.70
185.4394, 18023.64
185.9215, 18185.03
186.4037, 18393.66
186.8858, 18616.84
187.3679, 18818.68
187.8500, 19000.08
188.3321, 19188.81
188.8142, 19414.13
189.2964, 19668.79
189.7785, 19897.10
190.2606, 20055.48
190.7427, 20212.08
191.2248, 20422.90
191.7069, 20692.69
192.1891, 20981.00
192.6712, 21264.35
193.1533, 21546.54
193.6354, 21785.90
194.1175, 21952.34
194.5996, 22083.49
195.0818, 22202.17
195.5639, 22313.26
196.0460, 22397.41
196.5281, 22428.29
197.0102, 22399.89
197.4923, 22331.91
197.9745, 22229.80
198.4566, 22093.45
198.9387, 21926.78
199.4208, 21730.08
199.9029, 21490.61
200.3850, 21166.96
200.8672, 20675.69
201.3493, 20252.55
201.8314, 19961.46
202.3135, 19725.86
202.7956, 19473.14
203.2777, 19171.41
203.7599, 18842.42
204.2420, 18546.40
204.7241, 18303.11
205.2062, 18073.88
205.6883, 17842.95
206.1704, 17626.96
206.6526, 17447.58
207.1347, 17318.45
207.6168, 17230.43
208.0989, 17138.95
208.5810, 17052.29
209.0631, 16952.76
209.5453, 16815.98
210.0274, 16667.44
210.5095, 16547.43
210.9916, 16481.76
211.4737, 16463.65
211.9559, 16430.02
212.4380, 16379.53
212.9201, 16316.91
213.4022, 16222.48
213.8843, 16115.17
214.3664, 16037.07
214.8486, 16019.17
215.3307, 16058.00
215.8128, 16079.32
216.2949, 16068.87
216.7770, 16058.97
217.2591, 16070.31
217.7413, 16095.85
218.2234, 16107.02
218.7055, 16076.21
219.1876, 16006.84
219.6697, 15988.26
220.1518, 16047.35
220.6340, 16126.81
221.1161, 16200.78
221.5982, 16267.68
222.0803, 16331.48
222.5624, 16392.75
223.0445, 16452.72
223.5267, 16524.86
224.0088, 16600.23
224.4909, 16693.71
224.9730, 16818.42
225.4551, 16973.94
225.9372, 17150.94
226.4194, 17351.46
226.9015, 17572.49
227.3836, 17766.35
227.8657, 17900.88
228.3478, 18025.30
228.8299, 18187.27
229.3121, 18391.26
229.7942, 18608.28
230.2763, 18808.94
230.7584, 19000.52
231.2405, 19218.28
231.7226, 19465.87
232.2048, 19744.39
232.6869, 20063.88
233.1690, 20430.71
233.6511, 20803.87
234.1332, 21127.13
234.6153, 21424.03
235.0975, 21771.22
235.5796, 22229.74
236.0617, 22735.60
236.5438, 23194.10
237.0259, 23599.04
237.5080, 23966.35
237.9902, 24312.63
238.4723, 24634.21
238.9544, 24905.13
239.4365, 25126.71
239.9186, 25290.69
240.4007, 25389.17
240.8829, 25429.60
241.3650, 25379.11
241.8471, 25183.13
242.3292, 24882.43
242.8113, 24556.60
243.2934, 24212.84
243.7756, 23867.95
244.2577, 23562.66
244.7398, 23307.40
245.2219, 23072.99
245.7040, 22826.27
246.1861, 22582.15
246.6683, 22379.93
247.1504, 22237.85
247.6325, 22151.37
248.1146, 22112.43
248.5967, 22135.90
249.0788, 22182.54
249.5610, 22238.36
250.0431, 22298.09
250.5252, 22351.26
251.0073, 22392.92
251.4894, 22423.76
251.9715, 22444.88
252.4537, 22453.27
252.9358, 22456.25
253.4179, 22431.97
253.9000, 22405.46
254.3821, 22429.02
254.8642, 22557.17
255.3464, 22758.25
255.8285, 22908.38
256.3106, 22973.34
256.7927, 23038.64
257.2748, 23160.49
257.7570, 23309.76
258.2391, 23432.32
258.7212, 23491.61
259.2033, 23500.51
259.6854, 23513.37
260.1675, 23543.88
260.6497, 23555.27
261.1318, 23520.74
261.6139, 23461.13
262.0960, 23413.54
262.5781, 23407.71
263.0602, 23428.10
263.5424, 23412.41
264.0245, 23350.33
264.5066, 23263.73
264.9887, 23182.58
265.4708, 23083.87
265.9529, 22933.39
266.4351, 22712.80
266.9172, 22425.58
267.3993, 22078.48
267.8814, 21644.49
268.3635, 21189.31
268.8456, 20744.14
269.3278, 20295.53
269.8099, 19818.60
270.2920, 19290.35
270.7741, 18733.83
271.2562, 18233.58
271.7383, 17801.77
272.2205, 17412.77
272.7026, 17063.82
273.1847, 16743.94
273.6668, 16441.27
274.1489, 16149.23
274.6310, 15873.82
275.1132, 15635.80
275.5953, 15449.86
276.0774, 15280.69
276.5595, 15116.42
277.0416, 14962.26
277.5237, 14821.82
278.0059, 14696.25
278.4880, 14589.13
278.9701, 14510.95
279.4522, 14478.27
279.9343, 14445.31
280.4164, 14390.08
280.8986, 14333.64
281.3807, 14303.25
281.8628, 14313.37
282.3449, 14336.96
282.8270, 14311.79
283.3091, 14205.15
283.7913, 14121.91
284.2734, 14101.37
284.7555, 14101.88
285.2376, 14083.84
285.7197, 14032.69
286.2018, 13970.74
286.6840, 13942.24
287.1661, 13967.47
287.6482, 13972.61
288.1303, 13928.99
288.6124, 13870.93
289.0945, 13823.00
289.5767, 13792.16
290.0588, 13770.22
290.5409, 13742.49
291.0230, 13702.18
291.5051, 13679.33
291.9872, 13694.58
292.4694, 13717.62
292.9515, 13731.17
293.4336, 13731.37
293.9157, 13722.47
294.3978, 13704.04
294.8799, 13669.95
295.3621, 13655.67
295.8442, 13690.82
296.3263, 13729.20
296.8084, 13746.87
297.2905, 13740.98
297.7726, 13723.37
298.2548, 13700.46
298.7369, 13669.91
299.2190, 13654.75
299.7011, 13667.48
300.1832, 13688.34
300.6653, 13708.65
301.1475, 13728.21
301.6296, 13750.81
302.1117, 13788.11
302.5938, 13840.77
303.0759, 13863.25
303.5580, 13817.41
304.0402, 13778.76
304.5223, 13789.94
305.0044, 13840.83
305.4865, 13893.77
305.9686, 13923.91
306.4507, 13932.70
306.9329, 13928.82
307.4150, 13886.34
307.8971, 13867.78
308.3792, 13912.87
308.8613, 14000.77
309.3434, 14085.69
309.8256, 14137.30
310.3077, 14165.52
310.7898, 14206.12
311.2719, 14264.17
311.7540, 14325.34
312.2361, 14390.63
312.7183, 14452.94
313.2004, 14499.33
313.6825, 14520.30
314.1646, 14525.42
314.6467, 14530.72
315.1288, 14530.13
315.6110, 14547.23
316.0931, 14597.87
316.5752, 14669.16
317.0573, 14752.20
317.5394, 14850.96
318.0215, 14947.64
318.5037, 15007.80
318.9858, 15021.84
319.4679, 15055.86
319.9500, 15167.32
320.4321, 15296.86
320.9142, 15383.14
321.3964, 15405.91
321.8785, 15414.31
322.3606, 15453.31
322.8427, 15522.79
323.3248, 15607.02
323.8069, 15705.87
324.2891, 15814.79
324.7712, 15925.04
325.2533, 16034.84
325.7354, 16157.96
326.2175, 16319.15
326.6996, 16508.95
327.1818, 16667.94
327.6639, 16771.88
328.1460, 16855.08
328.6281, 16941.95
329.1102, 17031.50
329.5923, 17160.79
330.0745, 17368.69
330.5566, 17629.15
331.0387, 17876.97
331.5208, 18094.99
332.0029, 18314.75
332.4850, 18586.42
332.9672, 18897.72
333.4493, 19170.76
333.9314, 19353.86
334.4135, 19496.31
334.8957, 19661.07
335.3778, 19852.77
335.8599, 20062.99
336.3420, 20278.07
336.8241, 20504.49
337.3062, 20767.13
337.7884, 21060.40
338.2705, 21398.54
338.7526, 21790.79
339.2347, 22236.58
339.7168, 22739.14
340.1989, 23304.89
340.6811, 23930.10
341.1632, 24581.73
341.6453, 25342.10
342.1274, 26045.15
342.6095, 26662.41
343.0916, 27165.00
343.5738, 27467.52
344.0559, 27529.53
344.5380, 27365.71
345.0201, 26991.93
345.5022, 26360.79
345.9843, 25656.15
346.4665, 24887.24
346.9486, 24082.76
347.4307, 23269.08
347.9128, 22454.77
348.3949, 21673.31
348.8770, 20996.23
349.3592, 20462.89
349.8413, 19952.93
350.3234, 19438.37
350.8055, 18959.92
351.2876, 18556.31
351.7697, 18235.25
352.2519, 17969.95
352.7340, 17732.99
353.2161, 17527.07
353.6982, 17347.43
354.1803, 17203.63
354.6624, 17074.37
355.1446, 16946.66
355.6267, 16822.02
356.1088, 16711.62
356.5909, 16625.93
357.0730, 16565.48
357.5551, 16505.92
358.0373, 16426.32
358.5194, 16369.17
359.0015, 16367.05
359.4836, 16394.11
359.9657, 16402.77
360.4478, 16363.32
360.9300, 16290.06
361.4121, 16241.18
361.8942, 16199.03
362.3763, 16212.11
362.8584, 16317.43
363.3405, 16463.29
363.8227, 16591.37
364.3048, 16680.46
364.7869, 16763.38
365.2690, 16900.43
365.7511, 17109.74
366.2332, 17330.30
366.7154, 17571.14
367.1975, 17809.51
367.6796, 18025.73
368.1617, 18220.30
368.6438, 18413.09
369.1259, 18618.48
369.6081, 18834.02
370.0902, 19085.42
370.5723, 19387.90
371.0544, 19715.99
371.5365, 20059.20
372.0186, 20415.54
372.5008, 20785.31
372.9829, 21154.69
373.4650, 21536.93
373.9471, 21983.70
374.4292, 22509.68
374.9113, 23070.19
375.3935, 23654.05
375.8756, 24255.36
376.3577, 24868.01
376.8398, 25511.82
377.3219, 26142.12
377.8040, 26728.79
378.2862, 27277.57
378.7683, 27693.85
379.2504, 27960.38
379.7325, 28036.01
380.2146, 27881.90
380.6967, 27467.38
381.1789, 26895.93
381.6610, 26209.85
382.1431, 25415.41
382.6252, 24519.89
383.1073, 23478.65
383.5894, 22418.09
384.0716, 21514.85
384.5537, 20776.26
385.0358, 20061.58
385.5179, 19303.17
386.0000, 18565.44
386.4821, 17930.02
386.9643, 17409.04
387.4464, 16956.83
387.9285, 16533.62
388.4106, 16141.24
388.8927, 15791.77
389.3748, 15469.00
389.8570, 15200.12
390.3391, 15005.97
390.8212, 14880.74
391.3033, 14802.70
391.7854, 14756.82
392.2675, 14746.80
392.7497, 14800.85
393.2318, 14940.34
393.7139, 15112.80
394.1960, 15335.22
394.6781, 15577.87
395.1602, 15794.31
395.6424, 15968.72
396.1245, 16129.97
396.6066, 16335.15
397.0887, 16600.64
397.5708, 16882.82
398.0529, 17172.04
398.5351, 17482.29
399.0172, 17813.35
399.4993, 18170.54
399.9814, 18571.34
400.4635, 19023.81
400.9456, 19522.02
401.4278, 20134.13
401.9099, 20862.66
402.3920, 21717.15
402.8741, 22710.33
403.3562, 23830.38
403.8383, 25088.37
404.3205, 26542.74
404.8026, 28082.64
405.2847, 29461.01
405.7668, 30793.42
406.2489, 31655.72
406.7310, 31878.90
407.2132, 31578.79
407.6953, 30767.14
408.1774, 29398.44
408.6595, 27734.24
409.1416, 25926.64
409.6237, 23993.07
410.1059, 22161.42
410.5880, 20437.67
411.0701, 18894.16
411.5522, 17590.21
412.0343, 16519.79
412.5164, 15600.95
412.9986, 14812.40
413.4807, 14147.98
413.9628, 13622.00
414.4449, 13242.75
414.9270, 12937.89
415.4091, 12658.59
415.8913, 12408.68
416.3734, 12192.94
416.8555, 12028.88
417.3376, 11885.86
417.8197, 11745.01
418.3018, 11609.80
418.7840, 11490.39
419.2661, 11391.45
419.7482, 11312.70
420.2303, 11255.73
420.7124, 11234.30
421.1945, 11213.52
421.6767, 11190.35
422.1588, 11165.73
422.6409, 11140.29
423.1230, 11114.36
423.6051, 11088.99
424.0872, 11065.68
424.5694, 11045.88
425.0515, 11023.24
425.5336, 10990.60
426.0157, 10962.38
426.4978, 10949.57
426.9799, 10947.05
427.4621, 10940.40
427.9442, 10918.22
428.4263, 10884.80
428.9084, 10861.17
429.3905, 10846.47
429.8727, 10844.07
430.3548, 10856.58
430.8369, 10878.53
431.3190, 10904.82
431.8011, 10934.02
432.2833, 10965.57
432.7654, 11007.57
433.2475, 11062.40
433.7296, 11081.75
434.2117, 11035.02
434.6938, 10971.13
435.1760, 10923.75
435.6581, 10893.74
436.1402, 10881.04
436.6223, 10897.01
437.1044, 10927.36
437.5865, 10947.48
438.0687, 10956.20
438.5508, 10950.95
439.0329, 10918.39
439.5150, 10870.17
439.9971, 10849.62
440.4792, 10877.84
440.9614, 10916.05
441.4435, 10947.55
441.9256, 10972.49
442.4077, 10991.57
442.8898, 11005.70
443.3719, 11012.42
443.8541, 11006.01
444.3362, 10977.70
444.8183, 10953.52
445.3004, 10941.96
445.7825, 10929.87
446.2646, 10911.67
446.7468, 10883.65
447.2289, 10832.96
447.7110, 10738.77
448.1931, 10596.16
448.6752, 10526.53
449.1573, 10621.60
449.6395, 10692.55
450.1216, 10665.50
450.6037, 10593.06
451.0858, 10556.63
451.5679, 10595.43
452.0500, 10677.37
452.5322, 10738.20
453.0143, 10768.27
453.4964, 10809.16
453.9785, 10891.52
454.4606, 10970.88
454.9427, 11008.41
455.4249, 11005.87
455.9070, 11015.58
456.3891, 11092.03
456.8712, 11213.26
457.3533, 11300.14
457.8354, 11341.61
458.3176, 11366.01
458.7997, 11392.83
459.2818, 11416.95
459.7639, 11424.22
460.2460, 11389.22
460.7281, 11359.98
461.2103, 11371.40
461.6924, 11418.92
462.1745, 11493.12
462.6566, 11600.21
463.1387, 11710.34
463.6208, 11760.75
464.1030, 11729.96
464.5851, 11701.84
465.0672, 11682.24
465.5493, 11671.56
466.0314, 11671.50
466.5135, 11681.49
466.9957, 11695.23
467.4778, 11702.53
467.9599, 11703.43
468.4420, 11760.35
468.9241, 11927.86
469.4063, 12091.74
469.8884, 12211.67
470.3705, 12319.56
470.8526, 12458.31
471.3347, 12645.28
471.8168, 12864.82
472.2990, 13096.09
472.7811, 13346.23
473.2632, 13580.07
473.7453, 13849.00
474.2274, 14048.76
474.7095, 14102.17
475.1917, 14022.53
475.6738, 13892.60
476.1559, 13750.97
476.6380, 13596.08
477.1201, 13412.02
477.6022, 13188.04
478.0844, 12992.68
478.5665, 12864.91
479.0486, 12793.62
479.5307, 12744.28
480.0128, 12708.96
480.4949, 12707.22
480.9771, 12750.41
481.4592, 12833.80
481.9413, 12961.14
482.4234, 13137.04
482.9055, 13320.05
483.3876, 13467.72
483.8698, 13588.56
484.3519, 13612.81
484.8340, 13509.73
485.3161, 13345.11
485.7982, 13128.13
486.2803, 12879.10
486.7625, 12635.57
487.2446, 12420.71
487.7267, 12223.37
488.2088, 12001.54
488.6909, 11718.37
489.1730, 11481.04
489.6552, 11293.77
490.1373, 11155.65
490.6194, 11083.63
491.1015, 11072.27
491.5836, 11076.24
492.0657, 11051.12
492.5479, 11002.85
493.0300, 10974.82
493.5121, 10967.94
493.9942, 10982.40
494.4763, 11028.21
494.9584, 11093.46
495.4406, 11158.96
495.9227, 11214.05
496.4048, 11277.30
496.8869, 11361.38
497.3690, 11465.85
497.8511, 11590.37
498.3333, 11738.41
498.8154, 11898.33
499.2975, 12050.96
499.7796, 12187.35
500.2617, 12353.87
500.7438, 12547.85
501.2260, 12777.44
501.7081, 13041.09
502.1902, 13344.31
502.6723, 13694.25
503.1544, 14091.34
503.6365, 14546.25
504.1187, 15092.91
504.6008, 15760.81
505.0829, 16484.36
505.5650, 17246.02
506.0471, 18060.86
506.5292, 18946.58
507.0114, 19902.13
507.4935, 20896.62
507.9756, 21896.28
508.4577, 22902.61
508.9398, 23955.13
509.4219, 25043.23
509.9041, 26196.96
510.3862, 27394.14
510.8683, 28677.40
511.3504, 30134.66
511.8325, 31790.85
512.3146, 33620.36
512.7968, 35577.78
513.2789, 37688.95
513.7610, 40076.45
514.2431, 42787.77
514.7252, 45760.07
515.2073, 48993.84
515.6895, 52578.49
516.1716, 55977.25
516.6537, 59582.27
517.1358, 62657.88
517.6179, 64966.99
518.1000, 66382.92
518.5822, 66643.73
519.0643, 65596.09
519.5464, 63378.36
520.0285, 60356.17
520.5106, 56102.39
520.9927, 51818.62
521.4749, 47418.32
521.9570, 43172.28
522.4391, 39208.36
522.9212, 35578.14
523.4033, 32306.12
523.8854, 29444.14
524.3676, 26957.94
524.8497, 24745.84
525.3318, 22802.03
525.8139, 21123.12
526.2960, 19784.69
526.7781, 18688.88
527.2603, 17703.24
527.7424, 16818.90
528.2245, 16038.33
528.7066, 15390.67
529.1887, 14839.50
529.6708, 14324.92
530.1530, 13834.33
530.6351, 13393.71
531.1172, 13034.94
531.5993, 12764.42
532.0814, 12492.91
532.5635, 12202.10
533.0457, 11931.75
533.5278, 11685.92
534.0099, 11470.52
534.4920, 11297.52
534.9741, 11170.66
535.4562, 11071.86
535.9384, 10980.35
536.4205, 10905.02
536.9026, 10792.79
537.3847, 10595.74
537.8668, 10408.07
538.3489, 10268.34
538.8311, 10173.72
539.3132, 10114.68
539.7953, 10107.73
540.2774, 10111.17
540.7595, 10061.40
541.2416, 9963.839
541.7238, 9885.771
542.2059, 9858.391
542.6880, 9848.347
543.1701, 9798.919
543.6522, 9702.078
544.1343, 9621.358
544.6165, 9574.377
545.0986, 9539.620
545.5807, 9503.938
546.0628, 9465.987
546.5449, 9426.695
547.0270, 9386.255
547.5092, 9346.632
547.9913, 9314.323
548.4734, 9295.574
548.9555, 9273.716
549.4376, 9250.783
549.9197, 9222.324
550.4019, 9177.635
550.8840, 9121.243
551.3661, 9075.765
551.8482, 9066.771
552.3303, 9080.485
552.8124, 9070.994
553.2946, 9032.498
553.7767, 8999.079
554.2588, 8993.479
554.7409, 8998.466
555.2230, 8981.788
555.7051, 8933.467
556.1873, 8893.500
556.6694, 8889.032
557.1515, 8895.951
557.6336, 8880.330
558.1157, 8839.795
558.5978, 8797.825
559.0800, 8773.646
559.5621, 8765.218
560.0442, 8750.634
560.5263, 8693.871
561.0084, 8675.811
561.4905, 8733.181
561.9727, 8817.704
562.4548, 8898.670
562.9369, 8962.846
563.4190, 8987.829
563.9011, 8921.238
564.3832, 8777.396
564.8654, 8713.393
565.3475, 8753.218
565.8296, 8818.411
566.3117, 8882.539
566.7938, 8942.213
567.2759, 8989.057
567.7581, 9013.031
568.2402, 9045.627
568.7223, 9102.218
569.2044, 9179.944
569.6865, 9280.574
570.1686, 9403.312
570.6508, 9526.512
571.1329, 9625.874
571.6150, 9701.153
572.0971, 9815.750
572.5792, 9990.743
573.0613, 10176.32
573.5435, 10370.65
574.0256, 10566.63
574.5077, 10748.68
574.9898, 10916.06
575.4719, 11099.55
575.9540, 11338.87
576.4362, 11633.32
576.9183, 11927.33
577.4004, 12208.95
577.8825, 12511.38
578.3646, 12840.93
578.8467, 13206.18
579.3289, 13634.35
579.8110, 14160.70
580.2932, 14683.37
580.7753, 15168.89
581.2574, 15603.15
581.7395, 15983.64
582.2216, 16307.43
582.7037, 16495.58
583.1859, 16470.39
583.6680, 16231.65
584.1501, 15882.30
584.6322, 15379.14
585.1143, 14825.94
585.5964, 14206.38
586.0786, 13565.34
586.5607, 12926.67
587.0428, 12305.26
587.5249, 11739.62
588.0070, 11291.44
588.4891, 10951.65
588.9713, 10610.21
589.4534, 10252.34
589.9355, 9917.514
590.4176, 9618.541
590.8997, 9360.635
591.3818, 9162.471
591.8640, 9035.339
592.3461, 8941.722
592.8282, 8881.350
593.3103, 8834.486
593.7924, 8765.947
594.2745, 8671.918
594.7567, 8579.688
595.2388, 8514.737
595.7209, 8474.554
596.2030, 8417.604
596.6851, 8306.757
597.1672, 8225.727
597.6494, 8210.049
598.1315, 8213.559
598.6136, 8191.438
599.0957, 8137.556
599.5778, 8078.952
600.0599, 8043.112
600.5421, 8023.150
601.0242, 7984.465
601.5063, 7918.941
601.9884, 7871.925
602.4705, 7876.595
602.9526, 7908.686
603.4348, 7917.090
603.9169, 7893.185
604.3990, 7871.556
