##NAMES=Epidote
##RRUFFID=R050303
##IDEAL CHEMISTRY=Ca_2_Fe^3+^Al_2_(Si_2_O_7_)(SiO_4_)O(OH)
##LOCALITY=San Martin mine, Zacatecas, Mexico
##OWNER=RRUFF
##SOURCE=Eugene Schlepp
##DESCRIPTION=Green elongated prismatic crystals
##STATUS=The identification of this mineral has been confirmed by X-ray diffraction and chemical analysis
##URL=rruff.info/R050303
##MEASURED CHEMISTRY=Ca_2.00_Al_2.00_(Fe^3+^_0.97_Al_0.03_)(SiO_4_)(Si_2_O_7_)O(OH)
108.9154, 55.84949
109.3975, 56.03310
109.8796, 56.61054
110.3617, 57.14539
110.8439, 57.51256
111.3260, 57.93585
111.8081, 58.54811
112.2902, 59.34411
112.7723, 60.21019
113.2544, 60.98856
113.7366, 61.64424
114.2187, 62.26105
114.7008, 62.84703
115.1829, 63.39553
115.6650, 63.84151
116.1471, 64.15995
116.6293, 64.48096
117.1114, 65.14987
117.5935, 66.31883
118.0756, 67.47983
118.5577, 68.49747
119.0398, 69.41799
119.5220, 70.31956
120.0041, 71.11279
120.4862, 72.04579
120.9683, 73.53570
121.4504, 75.70808
121.9325, 78.19270
122.4147, 80.76191
122.8968, 83.42397
123.3789, 86.06408
123.8610, 88.52061
124.3431, 90.96067
124.8252, 93.49836
125.3074, 96.07266
125.7895, 98.88028
126.2716, 102.3951
126.7537, 106.9201
127.2358, 111.6320
127.7179, 116.1691
128.2001, 120.7078
128.6822, 125.5844
129.1643, 131.0476
129.6464, 137.0434
130.1285, 142.5760
130.6106, 148.4893
131.0928, 153.0843
131.5749, 156.1107
132.0570, 157.4577
132.5391, 157.0047
133.0212, 154.5852
133.5033, 149.9985
133.9855, 144.2432
134.4676, 136.7360
134.9497, 128.8059
135.4318, 120.9237
135.9139, 113.2514
136.3960, 105.9907
136.8782, 99.45994
137.3603, 93.78165
137.8424, 88.41761
138.3245, 83.12812
138.8066, 78.23232
139.2887, 74.23315
139.7709, 71.33382
140.2530, 69.04421
140.7351, 66.78606
141.2172, 64.55904
141.6993, 62.62222
142.1814, 61.08825
142.6636, 59.94619
143.1457, 59.19718
143.6278, 59.10812
144.1099, 59.14122
144.5920, 58.77626
145.0741, 58.01678
145.5563, 57.26349
146.0384, 57.00145
146.5205, 57.33545
147.0026, 57.26994
147.4847, 56.32796
147.9668, 55.11676
148.4490, 53.80233
148.9311, 52.46345
149.4132, 51.28880
149.8953, 50.63000
150.3774, 50.84037
150.8595, 50.85277
151.3417, 50.44926
151.8238, 49.92657
152.3059, 49.50079
152.7880, 49.25843
153.2701, 49.15883
153.7522, 49.10375
154.2344, 48.89528
154.7165, 48.99026
155.1986, 49.64807
155.6807, 50.55321
156.1628, 51.33631
156.6449, 51.81574
157.1271, 52.02745
157.6092, 52.08863
158.0913, 51.57158
158.5734, 51.39575
159.0555, 51.99940
159.5376, 53.17290
160.0198, 54.39282
160.5019, 55.41717
160.9840, 56.23279
161.4661, 56.87099
161.9482, 57.17864
162.4303, 57.47774
162.9125, 57.95604
163.3946, 58.61032
163.8767, 59.40681
164.3588, 60.49965
164.8409, 61.66552
165.3230, 62.51156
165.8052, 62.76289
166.2873, 62.85529
166.7694, 63.43428
167.2515, 64.68320
167.7336, 65.79546
168.2157, 66.20400
168.6979, 66.30585
169.1800, 66.57065
169.6621, 67.25640
170.1442, 68.18989
170.6263, 68.88754
171.1084, 69.26405
171.5906, 69.51006
172.0727, 69.71209
172.5548, 69.84414
173.0369, 69.87985
173.5190, 69.81651
174.0011, 69.64127
174.4833, 69.24447
174.9654, 68.37492
175.4475, 67.50867
175.9296, 66.71846
176.4117, 66.00697
176.8938, 65.35392
177.3760, 64.74930
177.8581, 64.19422
178.3402, 63.64412
178.8223, 62.83936
179.3044, 62.28421
179.7865, 62.27924
180.2687, 62.71405
180.7508, 63.25560
181.2329, 63.63326
181.7150, 63.83272
182.1971, 63.97562
182.6792, 63.86897
183.1614, 63.86866
183.6435, 64.26319
184.1256, 65.02946
184.6077, 65.84273
185.0898, 66.43402
185.5719, 66.77396
186.0540, 67.02139
186.5362, 67.15034
187.0183, 67.20218
187.5004, 67.22959
187.9825, 67.24168
188.4646, 67.16855
188.9467, 66.93268
189.4289, 66.55253
189.9110, 66.06417
190.3931, 65.45724
190.8752, 64.75204
191.3573, 63.91103
191.8394, 62.83999
192.3216, 61.89753
192.8037, 61.35899
193.2858, 61.14366
193.7679, 61.12769
194.2500, 61.26359
194.7321, 61.55772
195.2143, 62.05230
195.6964, 62.82911
196.1785, 63.69622
196.6606, 64.60741
197.1427, 65.52094
197.6248, 66.32697
198.1070, 66.85583
198.5891, 67.15950
199.0712, 67.78110
199.5533, 68.98466
200.0354, 70.24321
200.5175, 71.44151
200.9997, 72.53444
201.4818, 73.45252
201.9639, 74.11327
202.4460, 74.51154
202.9281, 74.88920
203.4102, 75.10041
203.8924, 75.42539
204.3745, 76.11634
204.8566, 77.02366
205.3387, 77.74301
205.8208, 77.85756
206.3029, 77.24646
206.7851, 77.18896
207.2672, 78.20079
207.7493, 79.21983
208.2314, 79.83316
208.7135, 80.06444
209.1956, 80.13466
209.6778, 80.21186
210.1599, 80.26640
210.6420, 80.61321
211.1241, 81.23512
211.6062, 82.09131
212.0883, 83.30270
212.5705, 84.78582
213.0526, 86.21780
213.5347, 87.27189
214.0168, 87.88125
214.4989, 88.85105
214.9810, 90.60523
215.4632, 92.36270
215.9453, 93.33871
216.4274, 93.59013
216.9095, 94.18456
217.3916, 96.19325
217.8737, 99.67125
218.3559, 102.5979
218.8380, 104.6384
219.3201, 106.3376
219.8022, 108.1139
220.2843, 109.9997
220.7664, 111.9375
221.2486, 113.7916
221.7307, 115.6619
222.2128, 117.8783
222.6949, 120.7362
223.1770, 123.8419
223.6591, 126.8948
224.1413, 129.9475
224.6234, 132.5354
225.1055, 134.0411
225.5876, 134.8351
226.0697, 135.5128
226.5518, 136.2384
227.0340, 136.9199
227.5161, 137.5470
227.9982, 138.2688
228.4803, 138.3939
228.9624, 137.3683
229.4445, 135.5585
229.9267, 133.2777
230.4088, 130.5067
230.8909, 127.4510
231.3730, 124.5029
231.8551, 121.6631
232.3372, 118.9529
232.8194, 116.1988
233.3015, 113.5957
233.7836, 111.3797
234.2657, 109.6583
234.7478, 108.3619
235.2299, 107.3132
235.7121, 106.4040
236.1942, 106.0107
236.6763, 106.3518
237.1584, 107.1225
237.6405, 108.0707
238.1227, 109.1226
238.6048, 110.1823
239.0869, 110.9626
239.5690, 111.1746
240.0511, 111.6279
240.5332, 112.7124
241.0154, 113.9696
241.4975, 115.0655
241.9796, 115.8686
242.4617, 116.2028
242.9438, 115.5650
243.4259, 113.3160
243.9081, 111.0110
244.3902, 108.8711
244.8723, 106.7530
245.3544, 104.4883
245.8365, 102.0053
246.3186, 99.43070
246.8007, 97.01930
247.2829, 94.81704
247.7650, 92.75510
248.2471, 90.69923
248.7292, 88.83215
249.2113, 87.37142
249.6934, 86.37918
250.1756, 85.67996
250.6577, 84.93178
251.1398, 84.05376
251.6219, 83.25155
252.1040, 82.51665
252.5861, 81.86266
253.0683, 81.28783
253.5504, 80.79781
254.0325, 80.43026
254.5146, 80.28097
254.9967, 80.75182
255.4788, 80.63884
255.9610, 79.55202
256.4431, 78.11934
256.9252, 76.88280
257.4073, 75.96623
257.8894, 75.14016
258.3716, 74.09612
258.8537, 72.74562
259.3358, 71.36792
259.8179, 69.82997
260.3000, 68.33868
260.7821, 67.04655
261.2643, 65.98281
261.7464, 65.14132
262.2285, 64.53793
262.7106, 64.23158
263.1927, 63.92266
263.6748, 63.55382
264.1570, 63.21523
264.6391, 63.02875
265.1212, 62.99609
265.6033, 62.93126
266.0854, 62.57977
266.5675, 61.94115
267.0497, 61.74121
267.5318, 62.27797
268.0139, 63.06340
268.4960, 63.78377
268.9781, 64.40836
269.4602, 64.90051
269.9424, 65.12927
270.4245, 65.17812
270.9066, 65.57500
271.3887, 66.62337
271.8708, 67.80608
272.3529, 68.78023
272.8351, 69.54497
273.3172, 70.16221
273.7993, 70.71996
274.2814, 71.11516
274.7635, 71.14274
275.2456, 70.57034
275.7278, 69.88461
276.2099, 69.54842
276.6920, 69.48959
277.1741, 69.09399
277.6562, 67.98695
278.1383, 66.38584
278.6204, 64.78779
279.1025, 63.02180
279.5847, 61.59200
280.0668, 61.02373
280.5489, 61.17526
281.0310, 61.20580
281.5131, 60.74152
281.9952, 60.10207
282.4774, 59.74536
282.9595, 59.70002
283.4416, 59.75269
283.9237, 59.71560
284.4058, 59.65145
284.8879, 59.85109
285.3701, 60.47491
285.8522, 61.27206
286.3343, 61.94067
286.8164, 62.48897
287.2985, 63.13173
287.7806, 64.04562
288.2628, 65.15371
288.7449, 66.19666
289.2270, 67.13365
289.7091, 68.01424
290.1912, 68.89457
290.6733, 69.76479
291.1555, 70.60704
291.6376, 71.65627
292.1197, 72.64600
292.6018, 72.88143
293.0839, 72.14072
293.5660, 71.07273
294.0482, 70.09859
294.5303, 69.12630
295.0124, 67.93999
295.4945, 66.35506
295.9766, 64.57124
296.4587, 62.95906
296.9409, 61.56621
297.4230, 60.17826
297.9051, 58.58622
298.3872, 56.95044
298.8693, 55.45583
299.3514, 54.14963
299.8336, 53.01166
300.3157, 52.03117
300.7978, 51.21833
301.2799, 50.46815
301.7620, 49.69637
302.2441, 48.99598
302.7263, 48.46307
303.2084, 48.12423
303.6905, 47.89626
304.1726, 47.73571
304.6547, 47.64863
305.1368, 47.47968
305.6190, 47.06148
306.1011, 46.65540
306.5832, 46.46647
307.0653, 46.50555
307.5474, 46.64078
308.0295, 46.83412
308.5117, 47.07017
308.9938, 47.13892
309.4759, 46.84343
309.9580, 46.57830
310.4401, 46.63157
310.9222, 46.94458
311.4044, 47.28358
311.8865, 47.49739
312.3686, 47.61372
312.8507, 47.74625
313.3328, 47.86026
313.8149, 48.06031
314.2971, 48.43035
314.7792, 48.91228
315.2613, 49.40276
315.7434, 49.84572
316.2255, 50.27660
316.7076, 50.76893
317.1898, 51.32961
317.6719, 51.94765
318.1540, 52.64215
318.6361, 53.38117
319.1182, 54.13073
319.6003, 54.88005
320.0825, 55.64948
320.5646, 56.46627
321.0467, 57.33127
321.5288, 58.24154
322.0109, 59.33325
322.4930, 60.38262
322.9752, 61.21661
323.4573, 61.80475
323.9394, 62.20366
324.4215, 62.40129
324.9036, 62.40136
325.3857, 62.46379
325.8679, 62.83942
326.3500, 63.05868
326.8321, 62.78429
327.3142, 62.05321
327.7963, 61.13908
328.2784, 60.10433
328.7606, 59.00509
329.2427, 58.10936
329.7248, 57.47088
330.2069, 56.98381
330.6890, 56.68274
331.1711, 56.46799
331.6533, 56.11334
332.1354, 55.41165
332.6175, 54.55967
333.0996, 53.91597
333.5817, 53.45041
334.0638, 53.28698
334.5460, 53.86694
335.0281, 54.65570
335.5102, 55.00272
335.9923, 54.62667
336.4744, 54.03441
336.9565, 53.83919
337.4387, 54.06758
337.9208, 54.24209
338.4029, 54.06845
338.8850, 53.88119
339.3671, 54.00870
339.8492, 54.48879
340.3314, 55.11671
340.8135, 55.79177
341.2956, 56.50606
341.7777, 57.15086
342.2598, 57.60975
342.7419, 58.14305
343.2241, 59.00419
343.7062, 60.14198
344.1883, 61.29660
344.6704, 62.41780
345.1525, 63.45947
345.6346, 64.30520
346.1168, 64.92003
346.5989, 65.43003
347.0810, 65.98729
347.5631, 66.49493
348.0452, 66.75397
348.5273, 66.76272
349.0095, 66.45813
349.4916, 65.63930
349.9737, 64.29753
350.4558, 63.00932
350.9379, 62.18774
351.4200, 61.48731
351.9022, 60.33760
352.3843, 58.58948
352.8664, 56.74914
353.3485, 55.10094
353.8306, 53.63110
354.3127, 52.31153
354.7949, 51.18278
355.2770, 50.11421
355.7591, 48.86150
356.2412, 47.42461
356.7233, 46.18811
357.2054, 45.41040
357.6876, 44.87992
358.1697, 44.23639
358.6518, 43.41188
359.1339, 42.63438
359.6160, 42.13443
360.0981, 41.86824
360.5803, 41.60781
361.0624, 41.40097
361.5445, 41.13549
362.0266, 40.62210
362.5087, 39.90633
362.9908, 39.36864
363.4730, 39.28949
363.9551, 39.49842
364.4372, 39.44715
364.9193, 38.98422
365.4014, 38.53867
365.8835, 38.24770
366.3657, 38.10286
366.8478, 38.15078
367.3299, 38.45155
367.8120, 38.76197
368.2941, 38.60746
368.7762, 37.80640
369.2584, 37.37098
369.7405, 37.74444
370.2226, 38.36811
370.7047, 38.66628
371.1868, 38.58068
371.6689, 38.46962
372.1511, 38.67204
372.6332, 39.20686
373.1153, 39.58935
373.5974, 39.68462
374.0795, 39.77972
374.5616, 40.07814
375.0438, 40.49308
375.5259, 40.74945
376.0080, 40.65893
376.4901, 40.38970
376.9722, 40.54997
377.4543, 41.61312
377.9365, 42.48621
378.4186, 42.91220
378.9007, 43.16034
379.3828, 43.51440
379.8649, 44.05468
380.3470, 44.68919
380.8292, 45.29155
381.3113, 45.85087
381.7934, 46.41562
382.2755, 46.96444
382.7576, 47.53660
383.2397, 48.15364
383.7219, 48.81506
384.2040, 49.50401
384.6861, 50.20785
385.1682, 50.92623
385.6503, 51.62999
386.1324, 52.23738
386.6146, 52.92185
387.0967, 53.88214
387.5788, 54.87495
388.0609, 55.61810
388.5430, 55.98758
389.0251, 56.03772
389.5073, 55.82378
389.9894, 55.08297
390.4715, 54.63718
390.9536, 54.81760
391.4357, 55.04102
391.9178, 54.96663
392.4000, 54.55093
392.8821, 53.92462
393.3642, 53.20763
393.8463, 52.39965
394.3284, 51.42604
394.8105, 49.91888
395.2927, 48.67429
395.7748, 48.12658
396.2569, 47.98293
396.7390, 47.75363
397.2211, 47.19379
397.7032, 46.41193
398.1854, 45.57272
398.6675, 44.52821
399.1496, 43.87399
399.6317, 44.17808
400.1138, 44.69017
400.5959, 44.82383
401.0780, 44.48357
401.5602, 44.05104
402.0423, 43.90230
402.5244, 44.00581
403.0065, 43.95229
403.4886, 43.42547
403.9707, 43.14978
404.4529, 43.82951
404.9350, 45.15516
405.4171, 46.26063
405.8992, 46.60975
406.3813, 46.60643
406.8634, 46.90113
407.3456, 47.52553
407.8277, 48.16473
408.3098, 48.69167
408.7919, 49.12867
409.2740, 49.51721
409.7561, 49.85374
410.2383, 50.16117
410.7204, 50.29845
411.2025, 50.40874
411.6846, 50.97332
412.1667, 52.20689
412.6488, 53.66408
413.1310, 54.78330
413.6131, 55.58196
414.0952, 56.46720
414.5773, 57.55703
415.0594, 58.73157
415.5415, 59.91639
416.0237, 61.09341
416.5058, 62.15422
416.9879, 62.93574
417.4700, 63.57188
417.9521, 64.79521
418.4342, 67.05597
418.9164, 69.25420
419.3985, 71.10544
419.8806, 72.71188
420.3627, 74.18056
420.8448, 75.55273
421.3269, 76.88088
421.8091, 78.25876
422.2912, 79.76140
422.7733, 81.05657
423.2554, 82.07179
423.7375, 82.95798
424.2196, 83.78309
424.7018, 84.54981
425.1839, 85.25124
425.6660, 85.89887
426.1481, 86.46078
426.6302, 86.71985
427.1123, 86.37688
427.5945, 86.07685
428.0766, 85.80577
428.5587, 85.65997
429.0408, 85.67630
429.5229, 85.88304
430.0050, 86.38663
430.4872, 87.49395
430.9693, 89.47948
431.4514, 90.89877
431.9335, 91.24905
432.4156, 91.42244
432.8977, 91.81342
433.3799, 92.31834
433.8620, 92.63306
434.3441, 92.60229
434.8262, 92.22379
435.3083, 91.42513
435.7904, 90.06844
436.2726, 88.67850
436.7547, 87.39561
437.2368, 86.18127
437.7189, 84.98692
438.2010, 83.79568
438.6831, 82.72869
439.1653, 81.92992
439.6474, 81.36124
440.1295, 80.76099
440.6116, 79.96360
441.0937, 79.38334
441.5758, 79.47256
442.0580, 80.07181
442.5401, 80.76425
443.0222, 81.37930
443.5043, 82.07312
443.9864, 82.98849
444.4685, 84.12135
444.9507, 85.46957
445.4328, 87.05816
445.9149, 88.84164
446.3970, 90.74088
446.8791, 92.83117
447.3612, 94.79592
447.8434, 96.79308
448.3255, 98.50558
448.8076, 99.58743
449.2897, 99.97594
449.7718, 99.68723
450.2539, 98.68000
450.7361, 96.91435
451.2182, 95.00463
451.7003, 93.15903
452.1824, 90.97414
452.6645, 88.24731
453.1466, 85.08415
453.6288, 81.54957
454.1109, 77.66084
454.5930, 73.77380
455.0751, 70.61263
455.5572, 68.72546
456.0393, 66.50644
456.5215, 63.52041
457.0036, 60.62833
457.4857, 58.37474
457.9678, 56.69753
458.4499, 55.16043
458.9320, 53.41630
459.4142, 51.54015
459.8963, 49.95851
460.3784, 48.74706
460.8605, 47.72041
461.3426, 46.91127
461.8247, 46.18240
462.3069, 45.37696
462.7890, 44.45631
463.2711, 43.55778
463.7532, 42.79970
464.2353, 42.17958
464.7174, 41.76438
465.1996, 41.70989
465.6817, 41.62475
466.1638, 41.16246
466.6459, 40.45534
467.1280, 39.83130
467.6101, 39.42367
468.0923, 39.12444
468.5744, 38.82320
469.0565, 38.52245
469.5386, 38.28204
470.0207, 38.15015
470.5028, 38.05857
470.9850, 37.85405
471.4671, 37.48952
471.9492, 37.27077
472.4313, 37.47551
472.9134, 37.74632
473.3955, 37.63424
473.8777, 37.13530
474.3598, 36.63145
474.8419, 36.41870
475.3240, 36.46453
475.8061, 36.45161
476.2882, 36.22202
476.7704, 36.13530
477.2525, 36.35260
477.7346, 36.71352
478.2167, 37.02887
478.6988, 37.24821
479.1809, 37.43617
479.6631, 37.66131
480.1452, 37.89682
480.6273, 38.30471
481.1094, 39.11534
481.5915, 39.86048
482.0736, 40.27498
482.5558, 40.53863
483.0379, 40.98593
483.5200, 41.79435
484.0021, 42.78954
484.4842, 43.59462
484.9663, 44.11961
485.4485, 44.89449
485.9306, 46.33624
486.4127, 47.79137
486.8948, 48.76926
487.3769, 49.33124
487.8590, 49.90648
488.3412, 50.68446
488.8233, 51.65291
489.3054, 52.80302
489.7875, 54.13326
490.2696, 55.60798
490.7517, 57.33686
491.2339, 59.11675
491.7160, 60.54321
492.1981, 61.45764
492.6802, 62.46182
493.1623, 63.84026
493.6444, 65.44307
494.1266, 67.08673
494.6087, 68.74165
495.0908, 70.34931
495.5729, 71.90250
496.0550, 73.39017
496.5371, 74.54814
497.0193, 75.20641
497.5014, 75.78622
497.9835, 76.42738
498.4656, 77.06670
498.9477, 77.64694
499.4298, 78.13965
499.9120, 78.47294
500.3941, 78.53609
500.8762, 78.29813
501.3583, 77.90807
501.8404, 77.31763
502.3225, 76.62428
502.8047, 75.79804
503.2868, 74.90180
503.7689, 74.03239
504.2510, 73.21864
504.7331, 72.50745
505.2152, 72.11577
505.6974, 72.17393
506.1795, 71.69664
506.6616, 69.79558
507.1437, 67.96503
507.6258, 67.58603
508.1079, 68.38833
508.5901, 68.81980
509.0722, 67.95531
509.5543, 66.37312
510.0364, 64.86134
510.5185, 63.42829
511.0006, 61.93356
511.4828, 60.31468
511.9649, 58.59657
512.4470, 56.85018
512.9291, 55.09932
513.4112, 53.24820
513.8933, 51.12410
514.3754, 48.98911
514.8575, 47.03469
515.3397, 45.31778
515.8218, 44.02962
516.3039, 43.36443
516.7860, 43.21602
517.2681, 42.82499
517.7502, 41.97402
518.2324, 41.14539
518.7145, 40.43163
519.1966, 39.72274
519.6787, 38.85203
520.1608, 37.82750
520.6429, 36.86468
521.1251, 36.19019
521.6072, 35.79394
522.0893, 35.44715
522.5714, 35.18975
523.0535, 34.91703
523.5356, 34.72567
524.0178, 34.44337
524.4999, 33.78301
524.9820, 32.63463
525.4641, 31.49817
525.9462, 30.88762
526.4283, 30.69489
526.9105, 30.39475
527.3926, 29.87616
527.8747, 29.37552
528.3568, 29.09334
528.8389, 28.98280
529.3210, 28.87825
529.8032, 28.83059
530.2853, 28.71077
530.7674, 28.40331
531.2495, 27.98206
531.7316, 27.56431
532.2137, 27.18121
532.6959, 26.88963
533.1780, 26.77947
533.6601, 26.89581
534.1422, 26.91117
534.6243, 26.70006
535.1064, 26.54079
535.5886, 26.59697
536.0707, 26.75591
536.5528, 26.81615
537.0349, 26.70106
537.5170, 26.54986
537.9991, 26.60060
538.4813, 26.89763
538.9634, 27.16838
539.4455, 27.40710
539.9276, 27.60934
540.4097, 27.73727
540.8918, 27.83170
541.3740, 27.96171
541.8561, 28.13298
542.3382, 28.39511
542.8203, 28.84759
543.3024, 29.47059
543.7845, 30.06925
544.2667, 30.58386
544.7488, 31.08203
545.2309, 31.58463
545.7130, 32.10269
546.1951, 32.84208
546.6772, 33.94024
547.1594, 35.16376
547.6415, 36.48811
548.1236, 37.81328
548.6057, 38.89555
549.0878, 39.62291
549.5699, 40.20686
550.0521, 40.99744
550.5342, 42.07193
551.0163, 43.11338
551.4984, 44.12904
551.9805, 45.10256
552.4626, 45.91356
552.9448, 46.70380
553.4269, 47.75729
553.9090, 49.22017
554.3911, 50.88455
554.8732, 52.33166
555.3553, 53.49279
555.8375, 54.94409
556.3196, 56.75426
556.8017, 58.90415
557.2838, 61.50660
557.7659, 64.42056
558.2480, 67.21946
558.7302, 69.63509
559.2123, 72.00082
559.6944, 74.60889
560.1765, 77.44288
560.6586, 80.46227
561.1407, 83.71812
561.6229, 86.96924
562.1050, 90.04321
562.5871, 92.96714
563.0692, 95.12464
563.5513, 96.56068
564.0334, 97.16525
564.5156, 96.76731
564.9977, 95.51694
565.4798, 93.66223
565.9619, 91.30566
566.4440, 88.37920
566.9261, 84.65830
567.4083, 79.86290
567.8904, 75.40763
568.3725, 71.36727
568.8546, 67.62081
569.3367, 64.16317
569.8188, 60.96312
570.3010, 57.96875
570.7831, 55.10499
571.2652, 52.57588
571.7473, 50.69498
572.2294, 49.40294
572.7115, 48.12897
573.1937, 46.72549
573.6758, 45.48458
574.1579, 44.61788
574.6400, 44.12202
575.1221, 43.99245
575.6042, 44.50357
576.0864, 45.06897
576.5685, 45.32868
577.0506, 45.47115
577.5327, 45.82732
578.0148, 46.47411
578.4969, 47.23540
578.9791, 47.92701
579.4612, 48.54542
579.9433, 49.18620
580.4254, 49.77945
580.9075, 50.48175
581.3896, 51.45465
581.8718, 52.48930
582.3539, 53.30305
582.8360, 53.86048
583.3181, 54.44178
583.8002, 55.32466
584.2823, 56.48681
584.7645, 57.83070
585.2466, 59.53688
585.7287, 60.91458
586.2108, 61.43164
586.6929, 61.49675
587.1750, 61.66674
587.6572, 61.99204
588.1393, 62.36737
588.6214, 62.68808
589.1035, 63.05981
589.5856, 63.64999
590.0677, 64.45774
590.5499, 65.30604
591.0320, 66.06297
591.5141, 66.80447
591.9962, 67.80621
592.4783, 69.45040
592.9604, 70.80858
593.4426, 71.68600
593.9247, 72.43185
594.4068, 73.35593
594.8889, 74.38065
595.3710, 75.19729
595.8531, 75.59289
596.3353, 75.67284
596.8174, 75.71730
597.2995, 75.77310
597.7816, 75.49970
598.2637, 74.63956
598.7458, 73.61345
599.2280, 72.87038
599.7101, 72.32449
600.1922, 71.49497
600.6743, 70.15312
601.1564, 68.53783
601.6385, 66.76637
602.1207, 64.87655
602.6028, 62.90998
603.0849, 60.87360
603.5670, 58.95308
604.0491, 57.43199
604.5313, 56.40981
