##NAMES=Epidote
##RRUFFID=R110129
##IDEAL CHEMISTRY=Ca_2_Fe^3+^Al_2_(Si_2_O_7_)(SiO_4_)O(OH)
##LOCALITY=Quetta, Baluchistan, Pakistan
##OWNER=RRUFF
##SOURCE=Jack Lowell 
##DESCRIPTION=Dark green prismatic crystal
##STATUS=The identification of this mineral has been confirmed by single-crystal X-ray diffraction.
##URL=rruff.info/R110129
160.8812, 20.85844
161.3633, 21.95630
161.8455, 22.88968
162.3276, 23.45948
162.8097, 23.92597
163.2918, 24.44737
163.7739, 24.93793
164.2560, 25.64825
164.7382, 26.92310
165.2203, 28.58736
165.7024, 29.97095
166.1845, 30.50611
166.6666, 30.73052
167.1487, 31.11818
167.6309, 31.91424
168.1130, 32.79664
168.5951, 33.56334
169.0772, 34.23454
169.5593, 34.91153
170.0414, 35.80251
170.5236, 36.69294
171.0057, 37.30925
171.4878, 37.33200
171.9699, 37.23330
172.4520, 37.40954
172.9341, 37.84481
173.4163, 38.33712
173.8984, 38.85809
174.3805, 39.32825
174.8626, 39.60372
175.3447, 39.48658
175.8268, 39.23225
176.3090, 39.13178
176.7911, 39.18731
177.2732, 39.26760
177.7553, 38.97327
178.2374, 38.43522
178.7195, 38.13557
179.2017, 38.60610
179.6838, 39.31563
180.1659, 39.31263
180.6480, 38.54934
181.1301, 37.76432
181.6122, 37.69517
182.0944, 38.20084
182.5765, 38.82338
183.0586, 39.41656
183.5407, 39.97892
184.0228, 40.50884
184.5049, 40.98817
184.9871, 41.51569
185.4692, 42.20467
185.9513, 43.04443
186.4334, 43.94648
186.9155, 45.06507
187.3976, 46.24147
187.8798, 46.87443
188.3619, 46.86274
188.8440, 46.62885
189.3261, 46.76147
189.8082, 47.23558
190.2903, 47.72559
190.7725, 48.03417
191.2546, 48.20544
191.7367, 48.50029
192.2188, 48.97343
192.7009, 49.46598
193.1830, 49.57119
193.6652, 49.28350
194.1473, 49.23909
194.6294, 49.91188
195.1115, 51.23804
195.5936, 52.38545
196.0757, 53.24131
196.5579, 54.01282
197.0400, 55.16532
197.5221, 56.73838
198.0042, 58.26049
198.4863, 59.46227
198.9684, 60.33590
199.4506, 61.21601
199.9327, 62.15319
200.4148, 63.06239
200.8969, 63.73550
201.3790, 64.16013
201.8611, 64.45976
202.3433, 64.80232
202.8254, 65.23547
203.3075, 65.12419
203.7896, 64.30344
204.2717, 63.02303
204.7538, 61.91846
205.2360, 61.03196
205.7181, 60.15838
206.2002, 59.14375
206.6823, 57.94650
207.1644, 56.85283
207.6465, 55.83451
208.1287, 54.96016
208.6108, 54.43353
209.0929, 54.30798
209.5750, 54.37638
210.0571, 54.58706
210.5392, 55.02349
211.0214, 55.18701
211.5035, 54.91366
211.9856, 54.37951
212.4677, 54.21583
212.9498, 54.53758
213.4319, 54.97374
213.9140, 55.27683
214.3962, 55.36127
214.8783, 55.64048
215.3604, 56.21993
215.8425, 57.01064
216.3246, 57.60834
216.8067, 57.92227
217.2889, 58.22793
217.7710, 58.65868
218.2531, 59.15521
218.7352, 59.99224
219.2173, 61.37211
219.6994, 63.12529
220.1816, 64.32893
220.6637, 64.71682
221.1458, 65.04743
221.6279, 65.85812
222.1100, 67.48026
222.5921, 68.69715
223.0743, 69.26448
223.5564, 69.34714
224.0385, 69.77251
224.5206, 70.70259
225.0027, 71.70454
225.4848, 72.54187
225.9670, 73.24309
226.4491, 73.69441
226.9312, 73.84422
227.4133, 73.73717
227.8954, 73.57310
228.3775, 73.31763
228.8597, 73.06123
229.3418, 72.95223
229.8239, 73.37199
230.3060, 73.01319
230.7881, 71.45687
231.2702, 69.00381
231.7524, 67.16509
232.2345, 66.21103
232.7166, 65.51073
233.1987, 64.70666
233.6808, 63.68016
234.1629, 62.80262
234.6451, 62.04348
235.1272, 61.44206
235.6093, 61.18124
236.0914, 61.41386
236.5735, 61.77612
237.0556, 62.04342
237.5378, 62.04909
238.0199, 62.35708
238.5020, 63.22274
238.9841, 64.42418
239.4662, 64.98190
239.9483, 64.52054
240.4305, 63.93468
240.9126, 63.71051
241.3947, 64.06669
241.8768, 64.32741
242.3589, 64.57771
242.8410, 64.71004
243.3232, 64.29144
243.8053, 63.05732
244.2874, 61.63399
244.7695, 60.34762
245.2516, 59.27753
245.7337, 58.13673
246.2159, 56.85952
246.6980, 55.50604
247.1801, 54.29879
247.6622, 53.26472
248.1443, 52.31561
248.6264, 51.35754
249.1086, 50.11587
249.5907, 49.53559
250.0728, 49.86123
250.5549, 50.79150
251.0370, 51.52380
251.5191, 51.95030
252.0013, 52.35329
252.4834, 52.83692
252.9655, 53.33756
253.4476, 54.08711
253.9297, 55.18105
254.4118, 56.48000
254.8940, 57.63924
255.3761, 58.38967
255.8582, 59.48421
256.3403, 61.32748
256.8224, 64.23484
257.3046, 66.83028
257.7867, 69.06558
258.2688, 70.99504
258.7509, 72.66879
259.2330, 73.95199
259.7151, 75.21327
260.1973, 76.55012
260.6794, 77.87701
261.1615, 79.55118
261.6436, 81.59286
262.1257, 83.94168
262.6078, 86.59180
263.0900, 89.75815
263.5721, 92.65286
264.0542, 94.82305
264.5363, 96.09911
265.0184, 98.01163
265.5005, 100.7437
265.9827, 103.9313
266.4648, 107.1141
266.9469, 110.2277
267.4290, 113.4516
267.9111, 116.7758
268.3932, 120.1531
268.8754, 124.3289
269.3575, 129.6281
269.8396, 135.2117
270.3217, 139.8326
270.8038, 143.1880
271.2859, 146.7084
271.7681, 150.8790
272.2502, 155.6438
272.7323, 160.0391
273.2144, 164.1436
273.6965, 167.5595
274.1786, 169.9551
274.6608, 171.4248
275.1429, 171.4720
275.6250, 169.9625
276.1071, 166.9451
276.5892, 162.3932
277.0714, 156.0985
277.5535, 149.0672
278.0356, 142.0967
278.5177, 135.1656
278.9998, 128.4823
279.4819, 122.0107
279.9641, 115.8107
280.4462, 110.4258
280.9283, 105.8764
281.4104, 101.9903
281.8925, 98.60474
282.3746, 95.71952
282.8568, 93.33238
283.3389, 91.48450
283.8210, 90.10224
284.3031, 89.02613
284.7852, 88.26742
285.2673, 87.70920
285.7495, 87.28301
286.2316, 86.98781
286.7137, 86.78419
287.1958, 86.64394
287.6779, 86.62851
288.1600, 86.88017
288.6422, 87.40025
289.1243, 88.07934
289.6064, 88.88369
290.0885, 89.79530
290.5706, 90.65664
291.0527, 91.40482
291.5349, 92.21269
292.0170, 93.32848
292.4991, 94.73853
292.9812, 96.42542
293.4633, 98.41135
293.9454, 100.6577
294.4276, 103.1063
294.9097, 105.7849
295.3918, 108.4228
295.8739, 110.8952
296.3560, 113.0935
296.8381, 114.6154
297.3203, 114.9456
297.8024, 114.5104
298.2845, 114.3216
298.7666, 114.4589
299.2487, 114.2033
299.7308, 112.6853
300.2130, 110.1563
300.6951, 107.3613
301.1772, 104.3688
301.6593, 101.4023
302.1414, 98.69931
302.6235, 96.28298
303.1057, 94.16496
303.5878, 92.55657
304.0699, 91.25223
304.5520, 89.87829
305.0341, 88.00156
305.5162, 86.29298
305.9984, 85.52409
306.4805, 85.61819
306.9626, 86.00173
307.4447, 86.44816
307.9268, 86.90264
308.4089, 87.26048
308.8911, 87.36968
309.3732, 87.57011
309.8553, 88.22660
310.3374, 89.22457
310.8195, 90.19302
311.3016, 91.06470
311.7838, 91.72604
312.2659, 92.02900
312.7480, 91.80205
313.2301, 91.54934
313.7122, 92.03246
314.1943, 92.71622
314.6765, 92.45956
315.1586, 90.15308
315.6407, 87.17641
316.1228, 84.26479
316.6049, 81.48464
317.0870, 78.95499
317.5692, 76.82861
318.0513, 74.98116
318.5334, 73.25346
319.0155, 71.67522
319.4976, 70.13472
319.9797, 68.55071
320.4619, 66.89949
320.9440, 65.43233
321.4261, 64.24583
321.9082, 63.28002
322.3903, 62.48425
322.8724, 62.04372
323.3546, 61.57298
323.8367, 60.91556
324.3188, 60.08079
324.8009, 59.37911
325.2830, 58.95105
325.7651, 58.62296
326.2473, 58.28448
326.7294, 58.14833
327.2115, 57.74741
327.6936, 56.92207
328.1757, 55.76027
328.6578, 54.66243
329.1400, 53.82325
329.6221, 52.89187
330.1042, 51.68645
330.5863, 49.81670
331.0684, 48.32143
331.5505, 47.42912
332.0327, 46.87513
332.5148, 46.08069
332.9969, 44.89567
333.4790, 43.66099
333.9611, 42.44722
334.4432, 41.22071
334.9254, 40.14283
335.4075, 39.24314
335.8896, 38.47706
336.3717, 37.80674
336.8538, 37.28779
337.3359, 36.73317
337.8180, 36.02462
338.3001, 35.17192
338.7823, 34.68765
339.2644, 34.63197
339.7465, 34.83470
340.2286, 35.25248
340.7107, 35.97657
341.1928, 36.32888
341.6750, 36.06447
342.1571, 35.36583
342.6392, 34.90456
343.1213, 34.67052
343.6034, 34.70441
344.0855, 35.13866
344.5677, 35.95092
345.0498, 36.67183
345.5319, 37.22289
346.0140, 37.68788
346.4961, 38.24939
346.9782, 38.89946
347.4604, 39.49326
347.9425, 39.83228
348.4246, 40.02896
348.9067, 40.57454
349.3888, 41.56931
349.8709, 42.54319
350.3531, 42.79607
350.8352, 42.50447
351.3173, 42.32409
351.7994, 42.69839
352.2815, 43.30550
352.7636, 43.55088
353.2458, 43.43429
353.7279, 43.33260
354.2100, 43.67248
354.6921, 44.22824
355.1742, 44.59931
355.6563, 44.55379
356.1385, 44.39336
356.6206, 44.35153
357.1027, 44.42855
357.5848, 44.62360
358.0669, 45.02776
358.5490, 45.50469
359.0312, 45.91683
359.5133, 46.21104
359.9954, 46.50860
360.4775, 46.91761
360.9596, 47.38395
361.4417, 47.78564
361.9239, 47.98111
362.4060, 48.17482
362.8881, 48.48600
363.3702, 48.94420
363.8523, 49.42858
364.3344, 50.07040
364.8166, 50.65887
365.2987, 50.95567
365.7808, 50.43689
366.2629, 50.08147
366.7450, 50.36745
367.2271, 51.29071
367.7093, 51.68518
368.1914, 51.13288
368.6735, 50.18809
369.1556, 49.20066
369.6377, 48.28953
370.1198, 47.22646
370.6020, 45.84043
371.0841, 44.27250
371.5662, 43.04474
372.0483, 42.39622
372.5304, 41.81355
373.0125, 41.08921
373.4947, 40.18586
373.9768, 39.25434
374.4589, 38.25956
374.9410, 37.25411
375.4231, 36.31008
375.9052, 35.37376
376.3874, 34.63929
376.8695, 34.23858
377.3516, 34.15620
377.8337, 33.87758
378.3158, 33.33000
378.7979, 32.77982
379.2801, 32.52935
379.7622, 32.59159
380.2443, 32.61717
380.7264, 32.50799
381.2085, 32.34433
381.6906, 32.35889
382.1728, 32.55371
382.6549, 32.78215
383.1370, 32.92092
383.6191, 33.00447
384.1012, 33.19302
384.5833, 33.53694
385.0655, 33.87470
385.5476, 33.96086
386.0297, 33.84864
386.5118, 33.72720
386.9939, 33.63893
387.4760, 33.61493
387.9582, 33.76905
388.4403, 34.10659
388.9224, 34.35656
389.4045, 34.17433
389.8866, 33.79881
390.3687, 33.57918
390.8509, 33.84231
391.3330, 34.07069
391.8151, 33.82243
392.2972, 33.20037
392.7793, 32.62090
393.2614, 32.20799
393.7436, 31.96879
394.2257, 31.92652
394.7078, 32.16155
395.1899, 32.40849
395.6720, 32.41713
396.1541, 32.40459
396.6363, 32.72016
397.1184, 33.95154
397.6005, 35.05570
398.0826, 35.56384
398.5647, 35.35331
399.0468, 35.42175
399.5290, 36.01283
400.0111, 36.83729
400.4932, 37.66370
400.9753, 38.46086
401.4574, 39.29410
401.9395, 40.04822
402.4217, 40.81408
402.9038, 42.03351
403.3859, 43.89138
403.8680, 45.93191
404.3501, 47.94976
404.8322, 49.89436
405.3144, 51.90392
405.7965, 53.87658
406.2786, 56.00567
406.7607, 58.66245
407.2428, 61.93884
407.7249, 65.24888
408.2071, 68.32259
408.6892, 71.23701
409.1713, 74.45995
409.6534, 78.05302
410.1355, 81.67370
410.6176, 84.85983
411.0998, 87.74116
411.5819, 91.05164
412.0640, 95.06583
412.5461, 99.35690
413.0282, 103.2535
413.5103, 106.8198
413.9925, 110.5167
414.4746, 114.5219
414.9567, 118.9037
415.4388, 123.8246
415.9209, 129.3939
416.4030, 135.0019
416.8852, 140.0041
417.3673, 144.7856
417.8494, 149.9848
418.3315, 156.2473
418.8136, 162.7226
419.2957, 168.9641
419.7779, 174.9579
420.2600, 181.0161
420.7421, 187.5587
421.2242, 194.0261
421.7063, 199.9449
422.1884, 205.7542
422.6706, 210.2501
423.1527, 213.0374
423.6348, 214.3622
424.1169, 214.7231
424.5990, 214.6353
425.0811, 213.1768
425.5633, 209.8507
426.0454, 204.4665
426.5275, 198.6026
427.0096, 191.6317
427.4917, 184.6060
427.9738, 178.3472
428.4560, 172.9866
428.9381, 168.1166
429.4202, 163.6113
429.9023, 159.6422
430.3844, 156.5915
430.8665, 154.5228
431.3487, 153.2565
431.8308, 152.6900
432.3129, 152.8135
432.7950, 153.8997
433.2771, 156.1242
433.7592, 158.8575
434.2414, 161.2987
434.7235, 163.4900
435.2056, 165.9197
435.6877, 168.7095
436.1698, 171.8452
436.6519, 175.2874
437.1341, 179.0546
437.6162, 183.3270
438.0983, 188.6685
438.5804, 194.5489
439.0625, 199.9688
439.5446, 204.6190
440.0268, 209.2918
440.5089, 214.3453
440.9910, 219.9776
441.4731, 226.4942
441.9552, 234.9003
442.4373, 243.6106
442.9195, 251.5569
443.4016, 258.7292
443.8837, 266.2128
444.3658, 274.4629
444.8479, 283.2290
445.3300, 292.2258
445.8122, 301.6949
446.2943, 311.1036
446.7764, 320.7207
447.2585, 330.2694
447.7406, 339.0381
448.2227, 346.3976
448.7049, 353.5648
449.1870, 361.1936
449.6691, 369.5365
450.1512, 376.4503
450.6333, 381.6334
451.1154, 385.6447
451.5976, 389.0285
452.0797, 391.9038
452.5618, 393.7560
453.0439, 394.7371
453.5260, 394.5271
454.0081, 392.0664
454.4903, 387.2303
454.9724, 380.8539
455.4545, 373.5943
455.9366, 365.3188
456.4187, 354.3352
456.9008, 340.5115
457.3830, 324.8391
457.8651, 308.5521
458.3472, 291.5246
458.8293, 274.0729
459.3114, 255.6014
459.7935, 237.2555
460.2757, 219.9388
460.7578, 203.7266
461.2399, 188.6013
461.7220, 174.6329
462.2041, 161.6752
462.6862, 149.7533
463.1684, 138.8952
463.6505, 129.0842
464.1326, 120.6516
464.6147, 113.2971
465.0968, 106.4977
465.5789, 100.1540
466.0611, 94.49772
466.5432, 89.76183
467.0253, 85.89317
467.5074, 82.05113
467.9895, 77.77745
468.4716, 73.80269
468.9538, 70.52197
469.4359, 68.27168
469.9180, 66.04901
470.4001, 63.75678
470.8822, 61.53544
471.3643, 59.59929
471.8465, 58.01671
472.3286, 56.51779
472.8107, 55.02582
473.2928, 53.57127
473.7749, 52.20440
474.2570, 50.92821
474.7392, 49.76134
475.2213, 48.70804
475.7034, 47.77227
476.1855, 46.99158
476.6676, 46.38173
477.1497, 45.88614
477.6319, 45.50816
478.1140, 45.20065
478.5961, 44.81134
479.0782, 44.03722
479.5603, 43.29296
480.0424, 43.17053
480.5246, 43.60051
481.0067, 44.01894
481.4888, 43.96499
481.9709, 43.79971
482.4530, 43.87674
482.9352, 44.39633
483.4173, 44.82735
483.8994, 44.73791
484.3815, 44.47678
484.8636, 44.57578
485.3457, 45.60300
485.8279, 46.53982
486.3100, 47.00537
486.7921, 46.99789
487.2742, 47.31018
487.7563, 48.14677
488.2384, 49.10115
488.7206, 49.93228
489.2027, 50.53743
489.6848, 51.29237
490.1669, 52.23006
490.6490, 53.28980
491.1311, 54.43063
491.6133, 55.66403
492.0954, 56.82892
492.5775, 57.86108
493.0596, 58.78985
493.5417, 59.69244
494.0238, 60.56158
494.5060, 61.55038
494.9881, 62.93035
495.4702, 64.50072
495.9523, 65.76546
496.4344, 66.61030
496.9165, 67.33561
497.3987, 68.33332
497.8808, 69.42123
498.3629, 70.23598
498.8450, 70.68497
499.3271, 70.76755
499.8092, 70.29788
500.2914, 69.37434
500.7735, 68.56612
501.2556, 68.29074
501.7377, 68.03878
502.2198, 67.46318
502.7019, 66.30262
503.1841, 65.38805
503.6662, 64.97329
504.1483, 64.79494
504.6304, 64.56249
505.1125, 64.31544
505.5946, 63.94294
506.0768, 63.31691
506.5589, 62.53901
507.0410, 62.15714
507.5231, 62.30159
508.0052, 62.47374
508.4873, 62.41576
508.9695, 62.12608
509.4516, 61.77286
509.9337, 61.34203
510.4158, 60.90858
510.8979, 60.64808
511.3800, 60.48620
511.8622, 60.07033
512.3443, 59.18707
512.8264, 58.18246
513.3085, 57.48091
513.7906, 57.04017
514.2728, 56.70840
514.7549, 56.39661
515.2370, 56.15971
515.7191, 56.02375
516.2012, 55.98833
516.6833, 56.12550
517.1655, 56.61433
517.6476, 57.21313
518.1297, 57.71616
518.6118, 58.07012
519.0939, 58.34021
519.5760, 58.51038
520.0582, 58.60203
520.5403, 58.69258
521.0224, 59.01107
521.5045, 59.01194
521.9866, 58.56794
522.4688, 57.67360
522.9509, 56.32044
523.4330, 54.40175
523.9151, 52.25504
524.3972, 50.08265
524.8793, 47.89191
525.3615, 45.76765
525.8436, 43.71558
526.3257, 41.69173
526.8078, 39.59654
527.2899, 37.46702
527.7720, 35.51393
528.2542, 33.82291
528.7363, 32.37703
529.2184, 31.15272
529.7005, 30.15254
530.1826, 29.32889
530.6647, 28.76505
531.1469, 28.30182
531.6290, 27.78848
532.1111, 27.19197
532.5932, 26.62473
533.0753, 25.99213
533.5574, 25.46987
534.0396, 25.25036
534.5217, 25.87121
535.0038, 26.19891
535.4859, 25.86110
535.9680, 25.10533
536.4501, 24.72149
536.9323, 24.88477
537.4144, 25.12172
537.8965, 25.24802
538.3786, 25.25727
538.8607, 25.40796
539.3428, 25.71614
539.8250, 26.11156
540.3071, 26.56323
540.7892, 27.05513
541.2713, 27.44971
541.7534, 27.66315
542.2355, 27.93999
542.7177, 28.67472
543.1998, 29.77213
543.6819, 30.91143
544.1640, 31.89501
544.6461, 32.87191
545.1282, 33.92828
545.6104, 35.08106
546.0925, 36.45201
546.5746, 38.09049
547.0567, 39.97058
547.5388, 42.08636
548.0209, 44.41953
548.5031, 47.03662
548.9852, 50.15640
549.4673, 53.48812
549.9494, 56.72693
550.4315, 59.76385
550.9136, 62.87151
551.3958, 66.14764
551.8779, 69.50693
552.3600, 72.58591
552.8421, 75.29783
553.3242, 78.09013
553.8063, 81.19445
554.2885, 84.56115
554.7706, 87.70357
555.2527, 90.58101
555.7348, 93.66154
556.2169, 97.46227
556.6990, 101.7648
557.1812, 106.0430
557.6633, 110.1348
558.1454, 114.4954
558.6275, 119.6413
559.1096, 125.3360
559.5917, 131.2800
560.0739, 137.5702
560.5560, 143.7861
561.0381, 149.6559
561.5202, 155.2141
562.0023, 160.8527
562.4844, 167.5613
562.9666, 173.6198
563.4487, 178.3983
563.9308, 182.0824
564.4129, 183.7330
564.8950, 183.5909
565.3771, 181.1434
565.8593, 175.7389
566.3414, 166.9147
566.8235, 156.7981
567.3056, 145.0998
567.7877, 132.7781
568.2698, 121.2195
568.7520, 110.3581
569.2341, 100.7517
569.7162, 92.51372
570.1983, 85.62304
570.6804, 80.04121
571.1625, 75.72483
571.6447, 72.17720
572.1268, 69.14973
572.6089, 66.68155
573.0910, 64.92114
573.5731, 63.90808
574.0552, 63.26115
574.5374, 62.83044
575.0195, 62.66018
575.5016, 62.78812
575.9837, 63.41310
576.4658, 64.09684
576.9479, 64.72191
577.4301, 65.39880
577.9122, 66.32781
578.3943, 67.44604
578.8764, 68.98099
579.3585, 71.12094
579.8406, 73.75649
580.3228, 76.07664
580.8049, 78.02550
581.2870, 80.00494
581.7691, 82.33826
582.2512, 84.94678
582.7333, 87.51746
583.2155, 90.02920
583.6975, 92.63569
584.1796, 95.81149
584.6617, 99.16320
585.1439, 102.0484
585.6260, 104.1948
586.1081, 106.0178
586.5902, 107.5657
587.0723, 108.9991
587.5544, 110.5939
588.0366, 112.8258
588.5187, 114.8678
589.0008, 116.3382
589.4829, 117.2669
589.9650, 118.3990
590.4471, 119.7558
590.9293, 121.2872
591.4114, 122.9332
591.8935, 124.6748
592.3756, 126.7198
592.8577, 129.1148
593.3398, 131.6998
593.8220, 134.4628
594.3041, 137.3540
594.7862, 140.0029
595.2683, 142.3758
595.7504, 144.4139
596.2325, 146.1261
596.7147, 147.4829
597.1968, 148.3814
597.6789, 148.9815
598.1610, 148.9594
598.6431, 147.9560
599.1252, 146.0805
599.6074, 143.8432
600.0895, 141.4982
600.5716, 138.7604
601.0537, 135.3571
601.5358, 131.1098
602.0179, 127.1158
602.5001, 123.5022
602.9822, 120.0185
603.4643, 116.4250
603.9464, 112.5450
604.4285, 109.1488
604.9106, 106.2991
605.3928, 103.8583
605.8749, 101.5543
606.3570, 99.39265
606.8391, 97.60811
607.3212, 96.46519
607.8033, 95.48863
608.2855, 93.72461
608.7676, 91.43172
609.2497, 89.49807
609.7318, 88.81087
610.2139, 88.40659
610.6960, 87.58424
611.1782, 86.31300
611.6603, 84.88433
612.1424, 83.44631
612.6245, 81.83466
613.1066, 79.96685
613.5887, 77.86191
614.0709, 75.36316
614.5530, 72.13883
615.0351, 68.79326
615.5172, 65.94836
615.9993, 63.69313
616.4814, 61.43404
616.9636, 59.10622
617.4457, 56.71180
617.9278, 54.11650
618.4099, 51.35645
618.8920, 48.82259
619.3741, 46.78987
619.8563, 44.95995
620.3384, 42.84486
620.8205, 40.52974
621.3026, 38.44207
621.7847, 36.80288
622.2668, 35.49523
622.7490, 34.58924
623.2311, 34.12823
623.7132, 33.49126
624.1953, 32.28224
624.6774, 31.00021
625.1595, 29.98798
625.6417, 29.31341
626.1238, 28.80837
626.6059, 28.59913
627.0880, 28.42883
627.5701, 27.93832
628.0522, 27.09920
628.5344, 26.18404
629.0165, 25.17343
629.4986, 24.23067
629.9807, 23.75295
630.4628, 23.66649
630.9449, 23.58478
631.4271, 23.27203
631.9092, 22.89206
632.3913, 22.65339
632.8734, 22.52649
633.3555, 22.33075
633.8376, 21.90068
634.3198, 21.43025
634.8019, 21.02307
635.2840, 20.68956
635.7661, 20.41597
636.2482, 20.21580
636.7303, 20.05828
637.2125, 19.95517
637.6946, 20.01310
638.1767, 19.74443
638.6588, 18.96288
639.1409, 18.14441
639.6230, 18.09757
640.1052, 18.76420
640.5873, 19.28468
641.0694, 19.45159
641.5515, 19.34582
642.0336, 18.96386
642.5157, 18.39268
642.9979, 17.87859
643.4800, 17.47223
643.9621, 17.23044
644.4442, 17.32329
644.9263, 17.67516
645.4084, 17.85351
645.8906, 17.46114
646.3727, 17.08844
646.8548, 17.08006
647.3369, 17.51711
647.8190, 17.69261
648.3011, 17.52194
648.7833, 17.21410
649.2654, 16.86002
649.7475, 16.43275
650.2296, 16.30216
650.7117, 16.53824
651.1938, 16.87382
651.6760, 16.96530
652.1581, 16.88157
652.6402, 16.83815
653.1223, 16.91442
653.6044, 16.99876
654.0865, 16.98156
654.5687, 16.90149
655.0508, 16.83347
655.5329, 16.81894
656.0150, 16.80665
656.4971, 16.78449
656.9792, 16.75037
657.4614, 16.69350
657.9435, 16.57162
658.4256, 16.48975
658.9077, 16.51973
