##NAMES=Epidote
##RRUFFID=R110127
##IDEAL CHEMISTRY=Ca_2_Fe^3+^Al_2_(Si_2_O_7_)(SiO_4_)O(OH)
##LOCALITY=Alchori, Pakistan
##OWNER=RRUFF
##SOURCE=Jack Lowell
##DESCRIPTION=Pale brown transparent prismatic crystals associated with green diopside, R110128
##STATUS=The identification of this mineral has been confirmed only by single crystal X-ray diffraction.
##URL=rruff.info/R110127
92.56775, 1416.100
93.04987, 1444.848
93.53198, 1480.256
94.01410, 1498.605
94.49622, 1500.010
94.97833, 1490.912
95.46045, 1476.418
95.94257, 1456.482
96.42468, 1436.500
96.90680, 1417.107
97.38892, 1398.773
97.87103, 1380.268
98.35315, 1364.334
98.83527, 1345.599
99.31738, 1328.324
99.79950, 1313.044
100.2816, 1299.109
100.7637, 1284.952
101.2458, 1272.153
101.7280, 1262.345
102.2101, 1255.796
102.6922, 1251.565
103.1743, 1248.687
103.6564, 1246.999
104.1385, 1245.437
104.6207, 1243.528
105.1028, 1241.351
105.5849, 1239.204
106.0670, 1236.903
106.5491, 1234.428
107.0313, 1231.927
107.5134, 1229.410
107.9955, 1226.556
108.4776, 1222.835
108.9597, 1217.930
109.4418, 1213.348
109.9240, 1209.208
110.4061, 1205.629
110.8882, 1202.822
111.3703, 1200.871
111.8524, 1199.635
112.3345, 1198.782
112.8167, 1198.560
113.2988, 1198.442
113.7809, 1198.131
114.2630, 1197.900
114.7451, 1198.118
115.2272, 1199.031
115.7094, 1200.609
116.1915, 1202.223
116.6736, 1204.919
117.1557, 1206.644
117.6378, 1205.924
118.1199, 1203.341
118.6021, 1200.887
119.0842, 1200.182
119.5663, 1201.446
120.0484, 1203.131
120.5305, 1205.132
121.0126, 1207.578
121.4948, 1211.032
121.9769, 1215.719
122.4590, 1219.966
122.9411, 1221.329
123.4232, 1220.586
123.9053, 1220.105
124.3875, 1220.632
124.8696, 1222.008
125.3517, 1223.811
125.8338, 1226.090
126.3159, 1228.733
126.7980, 1231.588
127.2802, 1234.662
127.7623, 1237.945
128.2444, 1241.709
128.7265, 1246.059
129.2086, 1249.633
129.6907, 1250.963
130.1729, 1252.477
130.6550, 1255.546
131.1371, 1260.216
131.6192, 1265.374
132.1013, 1269.381
132.5834, 1271.339
133.0656, 1273.988
133.5477, 1277.238
134.0298, 1281.127
134.5119, 1285.904
134.9940, 1291.593
135.4761, 1297.771
135.9583, 1303.419
136.4404, 1307.736
136.9225, 1312.482
137.4046, 1318.322
137.8867, 1324.557
138.3688, 1330.270
138.8510, 1335.162
139.3331, 1339.061
139.8152, 1341.281
140.2973, 1341.157
140.7794, 1340.772
141.2615, 1341.351
141.7437, 1342.556
142.2258, 1342.782
142.7079, 1340.669
143.1900, 1337.229
143.6721, 1334.851
144.1542, 1334.449
144.6364, 1334.121
145.1185, 1331.500
145.6006, 1326.095
146.0827, 1321.401
146.5648, 1319.903
147.0469, 1319.864
147.5291, 1319.698
148.0112, 1318.922
148.4933, 1317.634
148.9754, 1315.951
149.4575, 1313.449
149.9396, 1311.301
150.4218, 1310.006
150.9039, 1309.191
151.3860, 1308.389
151.8681, 1307.331
152.3502, 1306.035
152.8323, 1304.714
153.3145, 1302.650
153.7966, 1301.307
154.2787, 1301.454
154.7608, 1302.563
155.2429, 1303.516
155.7250, 1303.327
156.2072, 1301.821
156.6893, 1301.829
157.1714, 1303.811
157.6535, 1306.516
158.1356, 1309.907
158.6177, 1313.705
159.0999, 1317.185
159.5820, 1319.579
160.0641, 1320.655
160.5462, 1322.299
161.0283, 1324.226
161.5104, 1326.853
161.9926, 1330.948
162.4747, 1336.566
162.9568, 1342.258
163.4389, 1346.370
163.9210, 1348.989
164.4031, 1351.358
164.8853, 1353.888
165.3674, 1356.229
165.8495, 1357.904
166.3316, 1358.931
166.8137, 1359.040
167.2958, 1357.897
167.7780, 1355.699
168.2601, 1352.792
168.7422, 1349.161
169.2243, 1344.906
169.7064, 1340.516
170.1885, 1336.148
170.6707, 1331.475
171.1528, 1326.308
171.6349, 1320.694
172.1170, 1314.796
172.5991, 1308.550
173.0812, 1301.918
173.5634, 1295.762
174.0455, 1290.662
174.5276, 1285.601
175.0097, 1280.039
175.4918, 1274.045
175.9739, 1268.151
176.4561, 1263.111
176.9382, 1259.315
177.4203, 1254.887
177.9024, 1249.298
178.3845, 1243.565
178.8666, 1237.948
179.3488, 1232.651
179.8309, 1227.962
180.3130, 1224.425
180.7951, 1222.699
181.2772, 1220.733
181.7593, 1218.649
182.2415, 1216.300
182.7236, 1213.483
183.2057, 1210.185
183.6878, 1206.693
184.1699, 1203.394
184.6520, 1200.064
185.1342, 1197.566
185.6163, 1196.419
186.0984, 1195.917
186.5805, 1195.461
187.0626, 1194.902
187.5447, 1194.069
188.0269, 1192.503
188.5090, 1189.984
188.9911, 1187.756
189.4732, 1186.318
189.9553, 1185.314
190.4374, 1184.111
190.9196, 1182.455
191.4017, 1180.670
191.8838, 1179.163
192.3659, 1177.911
192.8480, 1176.861
193.3301, 1176.106
193.8123, 1175.556
194.2944, 1174.875
194.7765, 1173.931
195.2586, 1172.870
195.7407, 1171.841
196.2228, 1170.847
196.7050, 1169.888
197.1871, 1168.820
197.6692, 1167.669
198.1513, 1167.055
198.6334, 1167.717
199.1155, 1168.452
199.5977, 1168.526
200.0798, 1167.886
200.5619, 1166.783
201.0440, 1165.117
201.5261, 1162.648
202.0082, 1161.229
202.4904, 1162.059
202.9725, 1163.352
203.4546, 1164.341
203.9367, 1164.898
204.4188, 1165.262
204.9009, 1165.714
205.3831, 1166.291
205.8652, 1166.837
206.3473, 1167.678
206.8294, 1168.250
207.3115, 1167.977
207.7936, 1166.886
208.2758, 1165.652
208.7579, 1165.275
209.2400, 1166.330
209.7221, 1167.004
210.2042, 1167.013
210.6863, 1166.905
211.1685, 1166.993
211.6506, 1167.363
212.1327, 1167.967
212.6148, 1168.751
213.0969, 1169.762
213.5790, 1170.874
214.0612, 1172.695
214.5433, 1174.245
215.0254, 1174.556
215.5075, 1173.458
215.9896, 1171.789
216.4717, 1170.716
216.9539, 1170.451
217.4360, 1170.384
217.9181, 1170.727
218.4002, 1171.153
218.8823, 1171.284
219.3644, 1171.027
219.8466, 1170.669
220.3287, 1170.463
220.8108, 1170.265
221.2929, 1171.033
221.7750, 1173.785
222.2571, 1177.241
222.7393, 1179.733
223.2214, 1180.837
223.7035, 1181.451
224.1856, 1182.574
224.6677, 1184.150
225.1498, 1186.003
225.6320, 1188.209
226.1141, 1190.639
226.5962, 1193.167
227.0783, 1195.868
227.5604, 1198.389
228.0425, 1199.932
228.5247, 1200.795
229.0068, 1202.498
229.4889, 1206.223
229.9710, 1211.126
230.4531, 1215.213
230.9352, 1217.834
231.4174, 1220.576
231.8995, 1224.768
232.3816, 1230.021
232.8637, 1235.352
233.3458, 1240.410
233.8279, 1245.193
234.3101, 1249.678
234.7922, 1253.449
235.2743, 1257.593
235.7564, 1262.885
236.2385, 1268.927
236.7206, 1274.980
237.2028, 1280.640
237.6849, 1285.949
238.1670, 1291.276
238.6491, 1297.181
239.1312, 1302.164
239.6133, 1305.073
240.0955, 1306.876
240.5776, 1309.216
241.0597, 1313.025
241.5418, 1318.138
242.0239, 1323.704
242.5060, 1329.885
242.9882, 1336.391
243.4703, 1343.238
243.9524, 1350.308
244.4345, 1357.437
244.9166, 1364.496
245.3987, 1371.580
245.8809, 1379.008
246.3630, 1386.895
246.8451, 1395.027
247.3272, 1403.395
247.8093, 1411.956
248.2914, 1420.615
248.7736, 1429.328
249.2557, 1438.117
249.7378, 1447.016
250.2199, 1456.947
250.7020, 1465.795
251.1841, 1473.104
251.6663, 1479.244
252.1484, 1484.825
252.6305, 1490.200
253.1126, 1494.792
253.5947, 1496.843
254.0768, 1494.505
254.5590, 1491.508
255.0411, 1488.534
255.5232, 1484.874
256.0053, 1479.691
256.4874, 1472.648
256.9695, 1464.016
257.4517, 1454.466
257.9338, 1442.226
258.4159, 1431.133
258.8980, 1421.958
259.3801, 1413.589
259.8622, 1404.836
260.3444, 1395.290
260.8265, 1385.221
261.3086, 1375.140
261.7907, 1364.729
262.2728, 1354.727
262.7549, 1344.808
263.2371, 1335.409
263.7192, 1327.020
264.2013, 1319.740
264.6834, 1313.382
265.1655, 1307.683
265.6476, 1302.744
266.1298, 1298.479
266.6119, 1295.562
267.0940, 1292.934
267.5761, 1289.505
268.0582, 1285.075
268.5403, 1280.453
269.0225, 1276.565
269.5046, 1273.598
269.9867, 1270.769
270.4688, 1268.066
270.9509, 1265.514
271.4330, 1263.130
271.9152, 1260.924
272.3973, 1258.915
272.8794, 1257.248
273.3615, 1255.937
273.8436, 1254.148
274.3257, 1251.549
274.8079, 1248.676
275.2900, 1246.018
275.7721, 1243.568
276.2542, 1240.950
276.7363, 1237.785
277.2184, 1234.149
277.7006, 1230.737
278.1827, 1227.444
278.6648, 1224.476
279.1469, 1222.342
279.6290, 1220.896
280.1111, 1218.896
280.5933, 1215.127
281.0754, 1210.418
281.5575, 1207.553
282.0396, 1208.156
282.5217, 1208.627
283.0038, 1206.446
283.4860, 1202.052
283.9681, 1197.642
284.4502, 1193.970
284.9323, 1191.125
285.4144, 1189.130
285.8965, 1188.216
286.3787, 1187.528
286.8608, 1186.861
287.3429, 1186.102
287.8250, 1184.736
288.3071, 1182.366
288.7892, 1179.620
289.2714, 1177.342
289.7535, 1175.518
290.2356, 1174.069
290.7177, 1173.034
291.1998, 1172.343
291.6819, 1171.897
292.1641, 1171.844
292.6462, 1171.686
293.1283, 1170.932
293.6104, 1169.641
294.0925, 1167.880
294.5746, 1164.547
295.0568, 1160.952
295.5389, 1160.330
296.0210, 1164.032
296.5031, 1167.787
296.9852, 1167.144
297.4673, 1163.504
297.9495, 1160.476
298.4316, 1159.887
298.9137, 1160.328
299.3958, 1159.533
299.8779, 1157.183
300.3600, 1154.927
300.8422, 1154.454
301.3243, 1154.739
301.8064, 1153.957
302.2885, 1151.156
302.7706, 1147.651
303.2527, 1144.907
303.7349, 1142.954
304.2170, 1141.154
304.6991, 1138.926
305.1812, 1136.859
305.6633, 1135.908
306.1454, 1136.618
306.6276, 1137.405
307.1097, 1136.688
307.5918, 1134.566
308.0739, 1132.695
308.5560, 1131.660
309.0381, 1131.115
309.5203, 1130.663
310.0024, 1130.303
310.4845, 1129.927
310.9666, 1129.332
311.4487, 1128.608
311.9308, 1128.214
312.4130, 1128.239
312.8951, 1128.635
313.3772, 1129.251
313.8593, 1130.100
314.3414, 1131.360
314.8235, 1133.253
315.3057, 1135.614
315.7878, 1138.393
316.2699, 1142.207
316.7520, 1144.872
317.2341, 1143.569
317.7162, 1139.918
318.1984, 1137.418
318.6805, 1137.780
319.1626, 1139.809
319.6447, 1141.865
320.1268, 1144.034
320.6089, 1145.823
321.0911, 1146.531
321.5732, 1146.809
322.0553, 1147.555
322.5374, 1149.064
323.0195, 1150.911
323.5016, 1152.701
323.9838, 1154.442
324.4659, 1156.165
324.9480, 1157.753
325.4301, 1159.426
325.9122, 1161.332
326.3943, 1163.453
326.8765, 1166.040
327.3586, 1169.693
327.8407, 1174.154
328.3228, 1177.836
328.8049, 1180.062
329.2870, 1181.815
329.7692, 1184.054
330.2513, 1186.737
330.7334, 1189.578
331.2155, 1192.167
331.6976, 1194.829
332.1797, 1198.372
332.6619, 1202.989
333.1440, 1208.180
333.6261, 1214.055
334.1082, 1220.232
334.5903, 1225.766
335.0724, 1229.950
335.5546, 1233.507
336.0367, 1237.444
336.5188, 1241.814
337.0009, 1245.908
337.4830, 1249.506
337.9651, 1252.456
338.4473, 1254.349
338.9294, 1254.369
339.4115, 1254.550
339.8936, 1256.888
340.3757, 1261.087
340.8578, 1264.811
341.3400, 1267.038
341.8221, 1268.542
342.3042, 1270.465
342.7863, 1272.790
343.2684, 1275.550
343.7505, 1278.851
344.2327, 1282.593
344.7148, 1286.411
345.1969, 1290.055
345.6790, 1294.226
346.1611, 1300.094
346.6432, 1307.383
347.1254, 1314.775
347.6075, 1322.389
348.0896, 1329.692
348.5717, 1335.818
349.0538, 1340.700
349.5359, 1345.042
350.0181, 1349.553
350.5002, 1353.929
350.9823, 1357.062
351.4644, 1359.101
351.9465, 1359.680
352.4286, 1358.714
352.9108, 1356.141
353.3929, 1351.589
353.8750, 1344.768
354.3571, 1335.893
354.8392, 1325.521
355.3214, 1313.389
355.8035, 1300.709
356.2856, 1287.802
356.7677, 1274.698
357.2498, 1261.400
357.7319, 1247.853
358.2141, 1234.304
358.6962, 1220.734
359.1783, 1206.947
359.6604, 1194.361
360.1425, 1183.156
360.6246, 1173.147
361.1068, 1164.508
361.5889, 1157.096
362.0710, 1150.243
362.5531, 1143.474
363.0352, 1136.762
363.5173, 1129.941
363.9995, 1122.085
364.4816, 1114.998
364.9637, 1109.883
365.4458, 1106.263
365.9279, 1102.816
366.4100, 1098.811
366.8922, 1094.626
367.3743, 1091.600
367.8564, 1090.399
368.3385, 1089.303
368.8206, 1088.065
369.3027, 1086.827
369.7849, 1086.000
370.2670, 1085.649
370.7491, 1085.012
371.2312, 1082.915
371.7133, 1078.580
372.1954, 1075.175
372.6776, 1073.352
373.1597, 1071.849
373.6418, 1069.841
374.1239, 1067.388
374.6060, 1065.072
375.0881, 1063.368
375.5703, 1062.260
376.0524, 1060.941
376.5345, 1059.096
377.0166, 1057.404
377.4987, 1056.174
377.9808, 1055.149
378.4630, 1053.814
378.9451, 1051.928
379.4272, 1049.949
379.9093, 1049.031
380.3914, 1050.184
380.8735, 1050.728
381.3557, 1050.213
381.8378, 1049.373
382.3199, 1048.433
382.8020, 1047.599
383.2841, 1047.388
383.7662, 1048.533
384.2484, 1051.292
384.7305, 1053.598
385.2126, 1055.429
385.6947, 1056.784
386.1768, 1057.372
386.6589, 1057.482
387.1411, 1057.682
387.6232, 1058.365
388.1053, 1059.313
388.5874, 1059.779
389.0695, 1059.751
389.5516, 1059.202
390.0338, 1057.918
390.5159, 1056.309
390.9980, 1054.731
391.4801, 1053.283
391.9622, 1051.875
392.4443, 1050.192
392.9265, 1048.123
393.4086, 1046.950
393.8907, 1047.845
394.3728, 1048.747
394.8549, 1048.539
395.3370, 1047.309
395.8192, 1045.605
396.3013, 1043.483
396.7834, 1041.158
397.2655, 1039.438
397.7476, 1038.560
398.2297, 1037.680
398.7119, 1036.302
399.1940, 1034.668
399.6761, 1033.016
400.1582, 1031.289
400.6403, 1029.812
401.1224, 1029.183
401.6046, 1029.322
402.0867, 1028.957
402.5688, 1027.530
403.0509, 1025.611
403.5330, 1023.674
404.0151, 1021.688
404.4973, 1020.408
404.9794, 1020.689
405.4615, 1021.739
405.9436, 1022.167
406.4257, 1021.772
406.9078, 1021.091
407.3900, 1020.467
407.8721, 1019.918
408.3542, 1019.478
408.8363, 1019.249
409.3184, 1019.054
409.8005, 1018.615
410.2827, 1018.085
410.7648, 1018.019
411.2469, 1018.708
411.7290, 1019.909
412.2111, 1021.172
412.6932, 1022.776
413.1754, 1023.772
413.6575, 1022.940
414.1396, 1021.979
414.6217, 1023.236
415.1038, 1026.894
415.5859, 1030.422
416.0681, 1031.115
416.5502, 1028.572
417.0323, 1027.576
417.5144, 1028.768
417.9965, 1030.548
418.4786, 1032.340
418.9608, 1034.235
419.4429, 1036.666
419.9250, 1039.895
420.4071, 1043.464
420.8892, 1046.057
421.3713, 1046.497
421.8535, 1047.727
422.3356, 1050.214
422.8177, 1053.206
423.2998, 1056.271
423.7819, 1059.275
424.2640, 1062.095
424.7462, 1064.430
425.2283, 1066.185
425.7104, 1069.076
426.1925, 1075.067
426.6746, 1080.062
427.1567, 1082.433
427.6389, 1083.160
428.1210, 1083.653
428.6031, 1084.504
429.0852, 1085.802
429.5673, 1087.878
430.0494, 1091.033
430.5316, 1093.889
431.0137, 1095.559
431.4958, 1097.202
431.9779, 1099.836
432.4600, 1103.415
432.9421, 1106.627
433.4243, 1108.003
433.9064, 1108.083
434.3885, 1109.255
434.8706, 1111.851
435.3527, 1115.048
435.8348, 1118.425
436.3170, 1122.025
436.7991, 1126.016
437.2812, 1130.452
437.7633, 1135.243
438.2454, 1140.486
438.7275, 1146.111
439.2097, 1151.364
439.6918, 1155.599
440.1739, 1159.886
440.6560, 1165.844
441.1381, 1173.450
441.6202, 1181.821
442.1024, 1190.855
442.5845, 1200.438
443.0666, 1210.609
443.5487, 1221.322
444.0308, 1231.773
444.5129, 1241.126
444.9951, 1249.611
445.4772, 1259.779
445.9593, 1273.024
446.4414, 1285.998
446.9235, 1297.349
447.4056, 1307.894
447.8878, 1319.057
448.3699, 1331.308
448.8520, 1343.794
449.3341, 1355.389
449.8162, 1366.312
450.2983, 1375.404
450.7805, 1382.488
451.2626, 1388.204
451.7447, 1393.275
452.2268, 1397.299
452.7089, 1399.336
453.1910, 1398.785
453.6732, 1395.690
454.1553, 1390.089
454.6374, 1381.037
455.1195, 1370.880
455.6016, 1360.493
456.0837, 1349.078
456.5659, 1335.676
457.0480, 1320.158
457.5301, 1304.056
458.0122, 1288.487
458.4943, 1273.410
458.9764, 1260.064
459.4586, 1249.457
459.9407, 1239.201
460.4228, 1227.716
460.9049, 1215.767
461.3870, 1204.653
461.8691, 1194.709
462.3513, 1185.988
462.8334, 1179.126
463.3155, 1174.042
463.7976, 1168.518
464.2797, 1161.550
464.7618, 1154.249
465.2440, 1147.760
465.7261, 1142.015
466.2082, 1137.469
466.6903, 1135.088
467.1724, 1133.531
467.6545, 1130.960
468.1367, 1127.322
468.6188, 1124.080
469.1009, 1122.333
469.5830, 1121.773
470.0651, 1120.776
470.5472, 1118.639
471.0294, 1117.016
471.5115, 1116.584
471.9936, 1116.785
472.4757, 1117.008
472.9578, 1117.070
473.4399, 1116.985
473.9221, 1116.788
474.4042, 1116.512
474.8863, 1115.893
475.3684, 1115.529
475.8505, 1114.239
476.3326, 1110.466
476.8148, 1105.693
477.2969, 1102.457
477.7790, 1102.030
478.2611, 1103.298
478.7432, 1103.912
479.2253, 1103.507
479.7075, 1103.496
480.1896, 1105.042
480.6717, 1106.190
481.1538, 1105.453
481.6359, 1103.177
482.1180, 1101.086
482.6002, 1100.541
483.0823, 1100.968
483.5644, 1100.737
484.0465, 1099.758
484.5286, 1098.460
485.0107, 1097.205
485.4929, 1095.608
485.9750, 1093.205
486.4571, 1089.938
486.9392, 1085.989
487.4213, 1080.841
487.9034, 1075.169
488.3856, 1070.693
488.8677, 1067.769
489.3498, 1065.084
489.8319, 1061.592
490.3140, 1057.282
490.7961, 1052.857
491.2783, 1047.469
491.7604, 1042.821
492.2425, 1040.366
492.7246, 1039.053
493.2067, 1036.742
493.6888, 1032.691
494.1710, 1028.102
494.6531, 1024.912
495.1352, 1023.652
495.6173, 1022.182
496.0994, 1020.334
496.5815, 1018.474
497.0637, 1016.667
497.5458, 1015.000
498.0279, 1013.687
498.5100, 1012.890
498.9921, 1012.283
499.4742, 1010.865
499.9564, 1007.973
500.4385, 1005.956
500.9206, 1005.084
501.4027, 1005.207
501.8848, 1006.685
502.3669, 1009.274
502.8491, 1011.924
503.3312, 1014.080
503.8133, 1015.741
504.2954, 1016.657
504.7775, 1016.576
505.2596, 1016.970
505.7418, 1018.901
506.2239, 1021.503
506.7060, 1023.560
507.1881, 1024.951
507.6702, 1026.037
508.1523, 1026.816
508.6345, 1027.468
509.1166, 1028.410
509.5987, 1029.710
510.0808, 1030.759
510.5629, 1030.914
511.0450, 1030.302
511.5272, 1030.453
512.0093, 1032.269
512.4914, 1033.662
512.9735, 1033.498
513.4556, 1032.777
513.9377, 1032.770
514.4199, 1033.831
514.9020, 1035.636
515.3841, 1038.042
515.8662, 1041.451
516.3483, 1042.707
516.8304, 1039.017
517.3126, 1036.105
517.7947, 1036.350
518.2768, 1038.147
518.7589, 1039.067
519.2410, 1038.136
519.7231, 1036.282
520.2053, 1034.630
520.6874, 1033.163
521.1695, 1032.356
521.6516, 1033.423
522.1337, 1033.629
522.6158, 1030.223
523.0980, 1024.502
523.5801, 1020.231
524.0622, 1019.637
524.5443, 1020.179
525.0264, 1019.092
525.5085, 1016.677
525.9907, 1014.828
526.4728, 1014.348
526.9549, 1014.391
527.4370, 1013.677
527.9191, 1012.080
528.4012, 1010.615
528.8834, 1009.699
529.3655, 1008.677
529.8476, 1007.617
530.3297, 1006.092
530.8118, 1002.893
531.2939, 997.2711
531.7761, 990.1686
532.2582, 983.9561
532.7403, 978.9174
533.2224, 974.2936
533.7045, 970.5356
534.1866, 966.7264
534.6688, 962.3377
535.1509, 957.3866
535.6330, 952.0205
536.1151, 946.0916
536.5972, 940.1332
537.0793, 935.6991
537.5615, 933.2153
538.0436, 930.5959
538.5257, 926.8605
539.0078, 923.1104
539.4899, 920.3422
539.9720, 918.5567
540.4542, 917.0549
540.9363, 915.8599
541.4184, 914.5870
541.9005, 912.4005
542.3826, 909.3502
542.8647, 906.7480
543.3469, 905.2764
543.8290, 904.6741
544.3111, 904.3576
544.7932, 904.5194
545.2753, 904.4645
545.7574, 903.6163
546.2396, 902.8452
546.7217, 903.1780
547.2038, 904.4089
547.6859, 905.4131
548.1680, 905.4098
548.6501, 904.5367
549.1323, 903.2966
549.6144, 900.7497
550.0965, 899.5411
550.5786, 900.5345
551.0607, 902.3249
551.5428, 904.0192
552.0250, 905.5117
552.5071, 907.0642
552.9892, 908.9427
553.4713, 911.0016
553.9534, 912.6992
554.4355, 913.8645
554.9177, 915.5710
555.3998, 918.6699
555.8819, 922.2353
556.3640, 924.9789
556.8461, 926.7858
557.3282, 928.5632
557.8104, 930.4771
558.2925, 932.6672
558.7746, 935.4435
559.2567, 938.7548
559.7388, 941.9636
560.2209, 944.6752
560.7031, 947.0765
561.1852, 949.7696
561.6673, 953.1370
562.1494, 956.3084
562.6315, 958.5982
563.1136, 961.2186
563.5958, 965.2626
564.0779, 970.5419
564.5600, 975.9151
565.0421, 980.5019
565.5242, 984.7426
566.0063, 990.1413
566.4885, 996.8480
566.9706, 1004.168
567.4527, 1012.171
567.9348, 1020.565
568.4169, 1029.529
568.8990, 1038.837
569.3812, 1047.524
569.8633, 1055.339
570.3454, 1062.015
570.8275, 1067.436
571.3096, 1071.520
571.7917, 1073.426
572.2739, 1072.943
572.7560, 1069.881
573.2381, 1063.531
573.7202, 1053.315
574.2023, 1042.306
574.6844, 1030.902
575.1666, 1018.637
575.6487, 1004.579
576.1308, 989.3790
576.6129, 974.4686
577.0950, 960.4828
577.5771, 947.6505
578.0593, 936.4900
578.5414, 927.3328
579.0235, 918.9451
579.5056, 910.1169
579.9877, 903.1724
580.4698, 900.5997
580.9520, 900.7064
581.4341, 899.4535
581.9162, 894.5272
582.3983, 888.5399
582.8804, 884.9401
583.3625, 883.5576
583.8447, 882.8683
584.3268, 882.7872
584.8089, 882.7009
585.2910, 881.8219
585.7731, 880.2589
586.2552, 879.1387
586.7374, 878.5814
587.2195, 878.4730
587.7016, 879.1431
588.1837, 880.1282
588.6658, 880.5385
589.1479, 880.1345
589.6301, 879.5536
