##NAMES=Epidote
##RRUFFID=R050064
##IDEAL CHEMISTRY=Ca_2_Fe^3+^Al_2_(Si_2_O_7_)(SiO_4_)O(OH)
##LOCALITY=East Xichang City, Meigu County, Sichuan Province, China
##OWNER=RRUFF
##SOURCE=Rock Currier
##DESCRIPTION=Green prismatic crystals
##STATUS=The identification of this mineral has been confirmed by X-ray diffraction and chemical analysis
##URL=rruff.info/R050064
##MEASURED CHEMISTRY=(Ca_1.99_Mn_0.01_)_Î£=2_Fe^3+^_1.00_Al_2.00_(Si_2.00_O_7_)(Si_1.00_O_4_)O(OH); 
139.0553, 492.9227
139.5374, 509.3117
140.0195, 516.0618
140.5016, 515.8973
140.9837, 518.8513
141.4658, 525.1423
141.9480, 534.2524
142.4301, 546.0165
142.9122, 561.3293
143.3943, 577.4297
143.8764, 594.8687
144.3585, 613.4297
144.8407, 629.4271
145.3228, 639.7189
145.8049, 649.7353
146.2870, 665.0775
146.7691, 695.2363
147.2512, 717.9928
147.7334, 726.6335
148.2155, 716.7775
148.6976, 712.8541
149.1797, 716.7905
149.6618, 726.1453
150.1439, 737.5973
150.6261, 749.6547
151.1082, 765.0181
151.5903, 784.5618
152.0724, 809.4113
152.5545, 835.8154
153.0366, 862.2648
153.5188, 890.0308
154.0009, 921.4759
154.4830, 961.8524
154.9651, 1002.647
155.4472, 1040.081
155.9293, 1068.599
156.4115, 1101.059
156.8936, 1141.719
157.3757, 1188.834
157.8578, 1236.883
158.3399, 1281.751
158.8221, 1328.419
159.3042, 1380.568
159.7863, 1441.818
160.2684, 1505.943
160.7505, 1573.910
161.2326, 1645.186
161.7148, 1710.766
162.1969, 1757.227
162.6790, 1800.199
163.1611, 1854.132
163.6432, 1943.518
164.1253, 2029.939
164.6075, 2090.803
165.0896, 2125.220
165.5717, 2154.308
166.0538, 2194.746
166.5359, 2236.388
167.0180, 2264.943
167.5002, 2260.073
167.9823, 2249.187
168.4644, 2254.112
168.9465, 2278.048
169.4286, 2306.626
169.9107, 2333.996
170.3929, 2358.364
170.8750, 2376.657
171.3571, 2389.022
171.8392, 2393.541
172.3213, 2389.263
172.8034, 2377.486
173.2856, 2352.366
173.7677, 2305.716
174.2498, 2240.010
174.7319, 2164.845
175.2140, 2088.422
175.6961, 2005.729
176.1783, 1905.257
176.6604, 1776.935
177.1425, 1646.785
177.6246, 1548.750
178.1067, 1480.449
178.5888, 1419.882
179.0710, 1351.501
179.5531, 1280.200
180.0352, 1218.053
180.5173, 1169.443
180.9994, 1130.474
181.4815, 1096.810
181.9637, 1068.141
182.4458, 1043.976
182.9279, 1022.784
183.4100, 1005.286
183.8921, 994.1944
184.3742, 993.4078
184.8564, 998.1274
185.3385, 996.3232
185.8206, 987.4948
186.3027, 978.0328
186.7848, 977.1353
187.2669, 983.1151
187.7491, 982.9992
188.2312, 968.6515
188.7133, 944.6016
189.1954, 928.5699
189.6775, 922.1032
190.1596, 917.1856
190.6418, 902.3129
191.1239, 877.8244
191.6060, 855.1746
192.0881, 838.1905
192.5702, 826.7858
193.0524, 820.5063
193.5345, 819.6698
194.0166, 823.1154
194.4987, 830.0684
194.9808, 840.7250
195.4629, 851.9759
195.9451, 862.2343
196.4272, 871.6546
196.9093, 881.1249
197.3914, 890.3448
197.8735, 900.1331
198.3556, 911.9109
198.8378, 925.6303
199.3199, 941.2937
199.8020, 961.2118
200.2841, 986.0116
200.7662, 1003.153
201.2483, 1011.604
201.7305, 1012.290
202.2126, 1006.371
202.6947, 992.7638
203.1768, 976.5992
203.6589, 960.2588
204.1410, 943.6921
204.6232, 928.4514
205.1053, 914.9839
205.5874, 902.8015
206.0695, 890.3007
206.5516, 877.3904
207.0337, 864.4012
207.5159, 850.3205
207.9980, 834.0252
208.4801, 823.6745
208.9622, 822.3245
209.4443, 827.6550
209.9264, 827.4747
210.4086, 819.1688
210.8907, 810.5849
211.3728, 807.6937
211.8549, 811.2315
212.3370, 817.9706
212.8191, 827.9564
213.3013, 840.8803
213.7834, 855.2868
214.2655, 872.0397
214.7476, 888.9517
215.2297, 902.8654
215.7118, 910.8668
216.1940, 924.6078
216.6761, 947.4500
217.1582, 979.0098
217.6403, 1009.111
218.1224, 1037.534
218.6045, 1064.333
219.0867, 1088.312
219.5688, 1105.489
220.0509, 1128.994
220.5330, 1161.648
221.0151, 1204.009
221.4972, 1249.096
221.9794, 1298.933
222.4615, 1349.669
222.9436, 1396.681
223.4257, 1435.018
223.9078, 1480.788
224.3899, 1539.065
224.8721, 1611.943
225.3542, 1679.440
225.8363, 1739.311
226.3184, 1796.477
226.8005, 1858.106
227.2827, 1926.044
227.7648, 1994.483
228.2469, 2064.626
228.7290, 2138.360
229.2111, 2197.201
229.6932, 2237.669
230.1754, 2265.394
230.6575, 2287.490
231.1396, 2302.393
231.6217, 2314.092
232.1038, 2323.481
232.5859, 2330.505
233.0681, 2334.672
233.5502, 2331.253
234.0323, 2328.330
234.5144, 2337.506
234.9965, 2360.094
235.4786, 2392.729
235.9608, 2436.063
236.4429, 2491.596
236.9250, 2548.152
237.4071, 2605.390
237.8892, 2663.479
238.3713, 2723.369
238.8535, 2788.523
239.3356, 2849.959
239.8177, 2908.332
240.2998, 2970.326
240.7819, 3003.238
241.2640, 3002.914
241.7462, 2976.486
242.2283, 2936.556
242.7104, 2886.107
243.1925, 2816.987
243.6746, 2722.506
244.1567, 2591.767
244.6389, 2471.088
245.1210, 2361.934
245.6031, 2262.160
246.0852, 2168.728
246.5673, 2080.464
247.0494, 2000.570
247.5316, 1930.596
248.0137, 1871.869
248.4958, 1818.309
248.9779, 1769.736
249.4600, 1726.729
249.9421, 1691.367
250.4243, 1663.503
250.9064, 1643.037
251.3885, 1630.197
251.8706, 1625.634
252.3527, 1627.116
252.8348, 1637.006
253.3170, 1651.435
253.7991, 1663.743
254.2812, 1675.177
254.7633, 1681.861
255.2454, 1681.622
255.7275, 1672.693
256.2097, 1661.668
256.6918, 1641.659
257.1739, 1624.380
257.6560, 1640.113
258.1381, 1718.833
258.6202, 1768.188
259.1024, 1740.281
259.5845, 1604.869
260.0666, 1521.533
260.5487, 1507.305
261.0308, 1532.484
261.5129, 1542.123
261.9951, 1529.533
262.4772, 1517.134
262.9593, 1513.008
263.4414, 1517.579
263.9235, 1528.635
264.4056, 1547.477
264.8878, 1571.768
265.3699, 1598.200
265.8520, 1627.451
266.3341, 1657.488
266.8162, 1685.970
267.2983, 1710.631
267.7805, 1748.715
268.2626, 1805.929
268.7447, 1869.896
269.2268, 1917.231
269.7089, 1942.799
270.1910, 1969.937
270.6732, 2007.209
271.1553, 2054.813
271.6374, 2110.305
272.1195, 2175.234
272.6016, 2245.926
273.0837, 2317.832
273.5659, 2394.037
274.0480, 2457.656
274.5301, 2502.755
275.0122, 2528.862
275.4943, 2541.380
275.9764, 2539.755
276.4586, 2525.575
276.9407, 2497.956
277.4228, 2455.841
277.9049, 2412.608
278.3870, 2371.295
278.8691, 2332.232
279.3513, 2304.171
279.8334, 2288.841
280.3155, 2280.077
280.7976, 2269.436
281.2798, 2256.802
281.7619, 2247.107
282.2440, 2242.891
282.7261, 2243.547
283.2082, 2245.597
283.6903, 2249.912
284.1725, 2252.404
284.6546, 2245.931
285.1367, 2230.951
285.6188, 2218.098
286.1009, 2212.484
286.5830, 2212.177
287.0652, 2206.437
287.5473, 2193.743
288.0294, 2184.978
288.5115, 2194.130
288.9936, 2219.648
289.4757, 2248.235
289.9579, 2278.268
290.4400, 2307.601
290.9221, 2331.295
291.4042, 2349.294
291.8863, 2362.349
292.3684, 2372.433
292.8506, 2378.572
293.3327, 2376.922
293.8148, 2365.891
294.2969, 2346.585
294.7790, 2317.752
295.2611, 2279.241
295.7433, 2241.310
296.2254, 2213.112
296.7075, 2192.092
297.1896, 2172.266
297.6717, 2152.484
298.1538, 2131.928
298.6360, 2110.492
299.1181, 2087.824
299.6002, 2062.126
300.0823, 2024.368
300.5644, 1983.183
301.0465, 1954.712
301.5287, 1944.937
302.0108, 1947.346
302.4929, 1956.231
302.9750, 1971.567
303.4571, 1992.679
303.9392, 2018.856
304.4214, 2050.688
304.9035, 2089.717
305.3856, 2135.670
305.8677, 2188.596
306.3498, 2248.478
306.8319, 2314.693
307.3141, 2386.593
307.7962, 2465.776
308.2783, 2548.490
308.7604, 2631.470
309.2425, 2710.036
309.7246, 2793.901
310.2068, 2896.036
310.6889, 3009.475
311.1710, 3117.246
311.6531, 3223.937
312.1352, 3314.226
312.6173, 3373.751
313.0995, 3394.308
313.5816, 3399.669
314.0637, 3400.121
314.5458, 3393.131
315.0279, 3374.082
315.5100, 3333.526
315.9922, 3286.225
316.4743, 3237.500
316.9564, 3185.578
317.4385, 3142.208
317.9206, 3108.989
318.4027, 3087.153
318.8849, 3078.423
319.3670, 3090.780
319.8491, 3109.714
320.3312, 3126.123
320.8133, 3135.781
321.2954, 3165.719
321.7776, 3234.119
322.2597, 3320.478
322.7418, 3402.939
323.2239, 3476.574
323.7060, 3547.820
324.1881, 3617.732
324.6703, 3686.298
325.1524, 3754.575
325.6345, 3826.638
326.1166, 3895.528
326.5987, 3956.356
327.0808, 4010.889
327.5630, 4055.322
328.0451, 4092.110
328.5272, 4120.691
329.0093, 4128.864
329.4914, 4116.621
329.9735, 4084.075
330.4557, 4029.561
330.9378, 3938.971
331.4199, 3850.816
331.9020, 3769.699
332.3841, 3693.262
332.8662, 3608.487
333.3484, 3509.474
333.8305, 3412.326
334.3126, 3324.148
334.7947, 3245.584
335.2768, 3176.722
335.7589, 3117.982
336.2411, 3068.876
336.7232, 3025.200
337.2053, 2984.576
337.6874, 2957.346
338.1695, 2949.110
338.6516, 2960.948
339.1338, 2983.729
339.6159, 3018.533
340.0980, 3062.044
340.5801, 3104.927
341.0622, 3146.170
341.5443, 3201.955
342.0265, 3285.076
342.5086, 3391.832
342.9907, 3495.258
343.4728, 3594.114
343.9549, 3691.086
344.4370, 3784.760
344.9192, 3875.744
345.4013, 3976.282
345.8834, 4099.747
346.3655, 4232.043
346.8476, 4331.868
347.3297, 4398.637
347.8119, 4442.405
348.2940, 4474.550
348.7761, 4490.842
349.2582, 4478.813
349.7403, 4434.626
350.2225, 4360.797
350.7046, 4253.487
351.1867, 4114.597
351.6688, 3966.172
352.1509, 3815.081
352.6331, 3666.576
353.1152, 3528.827
353.5973, 3404.972
354.0794, 3289.810
354.5615, 3176.800
355.0436, 3068.259
355.5258, 2971.232
356.0079, 2886.831
356.4900, 2817.171
356.9721, 2765.202
357.4542, 2733.230
357.9363, 2712.663
358.4185, 2700.494
358.9006, 2696.282
359.3827, 2699.261
359.8648, 2711.542
360.3469, 2729.032
360.8290, 2749.361
361.3112, 2772.115
361.7933, 2799.975
362.2754, 2837.683
362.7575, 2879.663
363.2396, 2920.027
363.7217, 2967.906
364.2039, 3003.044
364.6860, 3014.625
365.1681, 3002.369
365.6502, 2995.168
366.1323, 3019.717
366.6144, 3036.261
367.0966, 3017.020
367.5787, 2928.240
368.0608, 2844.482
368.5429, 2777.154
369.0250, 2720.307
369.5071, 2645.052
369.9893, 2542.986
370.4714, 2432.819
370.9535, 2322.237
371.4356, 2210.017
371.9177, 2102.127
372.3998, 1995.949
372.8820, 1895.144
373.3641, 1810.101
373.8462, 1744.461
374.3283, 1685.586
374.8104, 1629.204
375.2925, 1574.497
375.7747, 1526.289
376.2568, 1484.229
376.7389, 1448.529
377.2210, 1419.868
377.7031, 1398.277
378.1852, 1383.704
378.6674, 1378.277
379.1495, 1379.693
379.6316, 1376.727
380.1137, 1368.748
380.5958, 1362.332
381.0779, 1363.828
381.5601, 1372.389
382.0422, 1383.484
382.5243, 1396.085
383.0064, 1411.023
383.4885, 1429.641
383.9706, 1452.016
384.4528, 1477.392
384.9349, 1507.057
385.4170, 1539.129
385.8991, 1572.008
386.3812, 1606.873
386.8633, 1638.908
387.3455, 1662.881
387.8276, 1680.567
388.3097, 1696.392
388.7918, 1717.926
389.2739, 1734.824
389.7560, 1737.740
390.2382, 1725.311
390.7203, 1706.750
391.2024, 1684.843
391.6845, 1660.375
392.1666, 1633.934
392.6487, 1608.134
393.1309, 1578.242
393.6130, 1541.984
394.0951, 1499.552
394.5772, 1454.858
395.0593, 1402.656
395.5414, 1352.380
396.0236, 1310.442
396.5057, 1281.085
396.9878, 1255.957
397.4699, 1236.202
397.9520, 1220.549
398.4341, 1205.184
398.9163, 1190.460
399.3984, 1175.640
399.8805, 1159.625
400.3626, 1139.724
400.8447, 1126.629
401.3268, 1120.975
401.8090, 1121.686
402.2911, 1128.270
402.7732, 1143.296
403.2553, 1156.970
403.7374, 1164.468
404.2195, 1166.660
404.7017, 1181.119
405.1838, 1211.203
405.6659, 1244.761
406.1480, 1270.259
406.6301, 1287.680
407.1122, 1305.843
407.5944, 1325.647
408.0765, 1347.909
408.5586, 1373.911
409.0407, 1403.744
409.5228, 1437.672
410.0049, 1477.722
410.4871, 1521.683
410.9692, 1564.717
411.4513, 1607.014
411.9334, 1646.044
412.4155, 1677.884
412.8976, 1704.590
413.3798, 1730.877
413.8619, 1759.193
414.3440, 1788.555
414.8261, 1821.046
415.3082, 1856.685
415.7903, 1885.433
416.2725, 1894.766
416.7546, 1896.087
417.2367, 1902.372
417.7188, 1916.984
418.2009, 1937.970
418.6830, 1959.896
419.1652, 1986.277
419.6473, 2029.181
420.1294, 2105.828
420.6115, 2190.592
421.0937, 2271.277
421.5758, 2343.986
422.0579, 2414.111
422.5400, 2484.795
423.0221, 2552.955
423.5042, 2614.889
423.9864, 2663.144
424.4685, 2712.803
424.9506, 2769.622
425.4327, 2833.926
425.9148, 2890.464
426.3969, 2931.554
426.8791, 2973.597
427.3612, 3030.706
427.8433, 3106.035
428.3254, 3184.949
428.8075, 3261.456
429.2896, 3341.672
429.7718, 3446.429
430.2539, 3578.407
430.7360, 3720.789
431.2181, 3863.684
431.7002, 4007.290
432.1823, 4160.574
432.6645, 4330.238
433.1466, 4489.238
433.6287, 4600.866
434.1108, 4668.212
434.5929, 4705.329
435.0750, 4719.410
435.5572, 4705.476
436.0393, 4646.901
436.5214, 4545.068
437.0035, 4428.869
437.4856, 4310.742
437.9677, 4196.296
438.4499, 4092.524
438.9320, 3995.191
439.4141, 3919.209
439.8962, 3878.691
440.3783, 3868.403
440.8604, 3873.671
441.3426, 3889.529
441.8247, 3918.027
442.3068, 3959.761
442.7889, 4014.274
443.2710, 4084.601
443.7531, 4171.201
444.2353, 4274.010
444.7174, 4394.493
445.1995, 4548.857
445.6816, 4701.776
446.1637, 4847.638
446.6458, 4985.851
447.1280, 5125.512
447.6101, 5279.625
448.0922, 5421.327
448.5743, 5536.762
449.0564, 5631.061
449.5385, 5685.751
450.0207, 5691.758
450.5028, 5665.994
450.9849, 5638.229
451.4670, 5609.318
451.9491, 5575.396
452.4312, 5534.657
452.9134, 5487.525
453.3955, 5440.042
453.8776, 5394.480
454.3597, 5334.131
454.8418, 5248.259
455.3239, 5135.087
455.8061, 4988.146
456.2882, 4795.501
456.7703, 4581.854
457.2524, 4379.157
457.7345, 4185.694
458.2166, 3989.344
458.6988, 3781.444
459.1809, 3569.440
459.6630, 3361.624
460.1451, 3155.418
460.6272, 2963.289
461.1093, 2800.715
461.5915, 2655.112
462.0736, 2514.199
462.5557, 2370.312
463.0378, 2233.645
463.5199, 2107.506
464.0020, 1992.707
464.4842, 1890.101
464.9663, 1803.196
465.4484, 1727.309
465.9305, 1659.977
466.4126, 1603.439
466.8947, 1549.895
467.3769, 1500.555
467.8590, 1453.880
468.3411, 1405.899
468.8232, 1352.851
469.3053, 1306.682
469.7874, 1271.755
470.2696, 1247.409
470.7517, 1221.104
471.2338, 1192.068
471.7159, 1163.660
472.1980, 1139.125
472.6801, 1118.326
473.1623, 1099.149
473.6444, 1081.143
474.1265, 1064.608
474.6086, 1049.738
475.0907, 1036.647
475.5728, 1026.077
476.0550, 1020.170
476.5371, 1016.401
477.0192, 1009.719
477.5013, 999.8537
477.9834, 992.2399
478.4655, 992.0805
478.9477, 996.3836
479.4298, 1001.179
479.9119, 1004.407
480.3940, 1009.024
480.8761, 1016.618
481.3582, 1026.795
481.8404, 1038.367
482.3225, 1051.064
482.8046, 1064.972
483.2867, 1080.493
483.7688, 1098.211
484.2509, 1115.617
484.7331, 1129.380
485.2152, 1144.318
485.6973, 1165.594
486.1794, 1197.010
486.6615, 1228.127
487.1436, 1255.938
487.6258, 1282.393
488.1079, 1318.451
488.5900, 1367.634
489.0721, 1416.135
489.5542, 1453.049
490.0363, 1478.338
490.5185, 1515.841
491.0006, 1567.156
491.4827, 1626.357
491.9648, 1687.268
492.4470, 1749.532
492.9291, 1809.818
493.4112, 1862.594
493.8933, 1915.252
494.3754, 1978.690
494.8575, 2052.234
495.3397, 2127.792
495.8218, 2211.087
496.3039, 2289.515
496.7860, 2346.981
497.2681, 2378.829
497.7502, 2402.839
498.2324, 2435.656
498.7145, 2464.626
499.1966, 2473.146
499.6787, 2442.752
500.1608, 2404.552
500.6429, 2365.756
501.1251, 2326.672
501.6072, 2288.031
502.0893, 2246.594
502.5714, 2207.993
503.0535, 2174.799
503.5356, 2148.019
504.0178, 2124.745
504.4999, 2106.589
504.9820, 2090.673
505.4641, 2071.628
505.9462, 2048.429
506.4283, 2028.199
506.9105, 2015.463
507.3926, 2006.841
507.8747, 1989.106
508.3568, 1961.995
508.8389, 1928.722
509.3210, 1892.771
509.8032, 1852.044
510.2853, 1799.693
510.7674, 1733.964
511.2495, 1660.460
511.7316, 1578.358
512.2137, 1492.732
512.6959, 1415.198
513.1780, 1352.458
513.6601, 1296.924
514.1422, 1243.860
514.6243, 1193.554
515.1064, 1148.406
515.5886, 1111.036
516.0707, 1077.792
516.5528, 1046.392
517.0349, 1013.537
517.5170, 988.1791
517.9991, 973.7980
518.4813, 966.5389
518.9634, 962.3249
519.4455, 963.8073
519.9276, 963.9495
520.4097, 962.2675
520.8918, 958.3165
521.3740, 947.7987
521.8561, 929.0419
522.3382, 909.2558
522.8203, 893.0927
523.3024, 880.4688
523.7845, 868.5060
524.2667, 857.7442
524.7488, 844.6170
525.2309, 820.2195
525.7130, 788.5046
526.1951, 764.0316
526.6772, 755.9804
527.1594, 753.3060
527.6415, 742.4175
528.1236, 725.2939
528.6057, 710.3563
529.0878, 704.3193
529.5699, 701.1998
530.0521, 696.3480
530.5342, 688.3801
531.0163, 682.0376
531.4984, 679.8073
531.9805, 679.4921
532.4626, 678.7372
532.9448, 677.7025
533.4269, 675.6169
533.9090, 671.8904
534.3911, 666.9959
534.8732, 663.0056
535.3553, 660.4487
535.8375, 657.6641
536.3196, 653.0516
536.8017, 646.2390
537.2838, 644.4831
537.7659, 648.3749
538.2480, 655.3435
538.7302, 664.1333
539.2123, 674.2476
539.6944, 681.3111
540.1765, 683.3271
540.6586, 683.8264
541.1407, 688.2887
541.6229, 695.6910
542.1050, 702.4116
542.5871, 704.8057
543.0692, 706.7676
543.5513, 712.5984
544.0334, 722.4258
544.5156, 731.0520
544.9977, 731.5903
545.4798, 732.4878
545.9619, 740.6132
546.4440, 762.2239
546.9261, 783.7050
547.4083, 802.7979
547.8904, 820.7974
548.3725, 839.3460
548.8546, 856.0829
549.3367, 877.4897
549.8188, 905.8075
550.3010, 940.5763
550.7831, 976.0903
551.2652, 1011.676
551.7473, 1050.429
552.2294, 1096.525
552.7115, 1148.993
553.1937, 1193.837
553.6758, 1227.682
554.1579, 1263.333
554.6400, 1317.055
555.1221, 1385.768
555.6042, 1459.815
556.0864, 1540.731
556.5685, 1621.594
557.0506, 1691.423
557.5327, 1753.990
558.0148, 1822.300
558.4969, 1900.767
558.9791, 1988.746
559.4612, 2085.212
559.9433, 2189.463
560.4254, 2303.136
560.9075, 2441.477
561.3896, 2580.564
561.8718, 2701.851
562.3539, 2804.317
562.8360, 2891.829
563.3181, 2970.206
563.8002, 3030.363
564.2823, 3053.748
564.7645, 3042.088
565.2466, 2983.655
565.7287, 2861.063
566.2108, 2687.235
566.6929, 2525.710
567.1750, 2378.224
567.6572, 2233.113
568.1393, 2077.575
568.6214, 1920.278
569.1035, 1783.417
569.5856, 1669.593
570.0677, 1574.464
570.5499, 1493.408
571.0320, 1427.638
571.5141, 1378.380
571.9962, 1355.412
572.4783, 1339.713
572.9604, 1322.133
573.4426, 1304.797
573.9247, 1298.860
574.4068, 1310.893
574.8889, 1330.746
575.3710, 1355.879
575.8531, 1387.329
576.3353, 1416.623
576.8174, 1442.024
577.2995, 1467.428
577.7816, 1495.876
578.2637, 1526.960
578.7458, 1564.710
579.2280, 1610.360
579.7101, 1661.732
580.1922, 1713.904
580.6743, 1767.782
581.1564, 1828.472
581.6385, 1900.765
582.1207, 1980.028
582.6028, 2061.011
583.0849, 2142.802
583.5670, 2223.783
584.0491, 2305.342
584.5313, 2384.008
585.0134, 2456.857
585.4955, 2522.361
585.9776, 2584.992
586.4597, 2645.608
586.9418, 2703.684
587.4240, 2757.735
587.9061, 2804.312
588.3882, 2851.958
588.8703, 2895.488
589.3524, 2942.320
589.8345, 3019.360
590.3167, 3135.513
590.7988, 3248.155
591.2809, 3332.516
591.7630, 3396.319
592.2451, 3478.378
592.7272, 3579.439
593.2094, 3680.537
593.6915, 3763.090
594.1736, 3835.023
594.6557, 3915.550
595.1378, 4010.673
595.6199, 4095.141
596.1021, 4148.634
596.5842, 4179.383
597.0663, 4199.196
597.5485, 4222.227
598.0306, 4223.833
598.5127, 4187.479
598.9948, 4120.710
599.4769, 4055.972
599.9590, 3995.275
600.4412, 3936.048
600.9233, 3876.766
601.4054, 3816.583
601.8875, 3766.691
602.3696, 3730.990
602.8517, 3696.826
603.3339, 3648.474
603.8160, 3587.987
604.2981, 3549.352
604.7802, 3537.873
605.2623, 3544.734
605.7444, 3565.489
606.2266, 3596.266
606.7087, 3625.577
607.1908, 3647.983
607.6729, 3669.213
608.1550, 3696.451
608.6371, 3726.835
609.1193, 3752.004
609.6014, 3776.638
610.0835, 3788.053
610.5656, 3781.345
611.0477, 3756.675
611.5298, 3709.490
612.0120, 3641.731
612.4941, 3550.680
612.9762, 3432.985
613.4583, 3283.706
613.9404, 3125.381
614.4225, 2955.325
614.9047, 2783.955
615.3868, 2623.063
615.8689, 2471.179
616.3510, 2326.675
616.8331, 2188.066
617.3152, 2058.069
617.7974, 1939.629
618.2795, 1833.083
618.7616, 1733.392
619.2437, 1635.435
619.7258, 1545.681
620.2079, 1469.850
620.6901, 1408.501
621.1722, 1350.955
621.6543, 1296.278
622.1364, 1242.034
622.6185, 1186.393
623.1006, 1123.225
623.5828, 1071.374
624.0649, 1034.362
624.5470, 1005.436
625.0291, 976.8823
625.5112, 948.4030
625.9933, 922.0261
626.4755, 898.9431
626.9576, 877.4652
627.4397, 853.2650
627.9218, 826.9837
628.4039, 803.5150
628.8860, 785.6072
629.3682, 771.6645
629.8503, 760.7036
630.3324, 752.3499
630.8145, 744.3059
631.2966, 734.5807
631.7787, 725.2429
632.2609, 718.4601
632.7430, 715.7804
633.2251, 710.5421
633.7072, 698.5077
634.1893, 685.2727
