##NAMES=Epidote
##RRUFFID=R040092
##IDEAL CHEMISTRY=Ca_2_Fe^3+^Al_2_(Si_2_O_7_)(SiO_4_)O(OH)
##LOCALITY=Nahant, Massachusetts, USA
##OWNER=RRUFF
##SOURCE=University of Arizona Mineral Museum
##DESCRIPTION=Green prismatic crystals imbedded in quartz
##STATUS=The identification of this mineral has been confirmed by X-ray diffraction and chemical analysis
##URL=rruff.info/R040092
##MEASURED CHEMISTRY=Ca_2.01_Al_2.00_Fe_1.00_(Si_1.00_O_4_)(Si_1.97_Fe_0.02_Al_0.01_Ti_0.01_O_7_)O(OH)
127.4148, 1251.933
127.8969, 1302.040
128.3790, 1353.817
128.8611, 1413.158
129.3432, 1481.388
129.8254, 1545.231
130.3075, 1617.367
130.7896, 1675.005
131.2717, 1705.589
131.7538, 1710.999
132.2359, 1701.719
132.7181, 1687.101
133.2002, 1664.374
133.6823, 1647.044
134.1644, 1641.604
134.6465, 1635.550
135.1286, 1615.480
135.6108, 1582.983
136.0929, 1555.315
136.5750, 1554.464
137.0571, 1592.798
137.5392, 1627.719
138.0213, 1648.232
138.5035, 1672.246
138.9856, 1718.046
139.4677, 1788.114
139.9498, 1865.285
140.4319, 1923.063
140.9140, 1939.726
141.3962, 1988.592
141.8783, 2091.231
142.3604, 2217.298
142.8425, 2338.881
143.3246, 2447.928
143.8067, 2550.076
144.2889, 2655.003
144.7710, 2764.864
145.2531, 2871.258
145.7352, 2964.129
146.2173, 3015.821
146.6994, 3027.723
147.1816, 3033.792
147.6637, 3036.138
148.1458, 3039.008
148.6279, 3047.128
149.1100, 3044.049
149.5921, 3012.525
150.0743, 2968.866
150.5564, 2944.267
151.0385, 2950.580
151.5206, 2973.601
152.0027, 2989.802
152.4848, 2999.974
152.9670, 3002.588
153.4491, 2988.598
153.9312, 2965.095
154.4133, 2951.184
154.8954, 2954.019
155.3775, 2968.184
155.8597, 2981.287
156.3418, 2987.574
156.8239, 3005.736
157.3060, 3049.702
157.7881, 3114.105
158.2702, 3180.082
158.7524, 3240.665
159.2345, 3298.492
159.7166, 3356.229
160.1987, 3410.837
160.6808, 3473.534
161.1629, 3558.833
161.6451, 3662.290
162.1272, 3755.001
162.6093, 3818.616
163.0914, 3873.678
163.5735, 3949.278
164.0556, 4050.550
164.5378, 4159.752
165.0199, 4267.045
165.5020, 4372.806
165.9841, 4472.554
166.4662, 4566.482
166.9483, 4652.018
167.4305, 4727.147
167.9126, 4790.470
168.3947, 4847.409
168.8768, 4905.188
169.3589, 4964.168
169.8410, 5010.159
170.3232, 5037.955
170.8053, 5048.772
171.2874, 5046.037
171.7695, 5031.725
172.2516, 4998.383
172.7337, 4935.334
173.2159, 4840.831
173.6980, 4734.395
174.1801, 4615.307
174.6622, 4488.754
175.1443, 4356.691
175.6264, 4214.928
176.1086, 4079.539
176.5907, 3969.348
177.0728, 3886.646
177.5549, 3809.775
178.0370, 3732.730
178.5191, 3658.144
179.0013, 3587.071
179.4834, 3518.637
179.9655, 3457.593
180.4476, 3408.248
180.9297, 3370.216
181.4118, 3346.172
181.8940, 3349.849
182.3761, 3362.171
182.8582, 3368.752
183.3403, 3365.518
183.8224, 3359.448
184.3046, 3358.706
184.7867, 3363.823
185.2688, 3371.422
185.7509, 3396.992
186.2330, 3415.827
186.7151, 3405.759
187.1973, 3359.509
187.6794, 3296.630
188.1615, 3240.404
188.6436, 3193.507
189.1257, 3141.941
189.6078, 3071.428
190.0900, 3000.861
190.5721, 2943.321
191.0542, 2902.676
191.5363, 2872.324
192.0184, 2844.010
192.5005, 2817.012
192.9827, 2796.056
193.4648, 2785.128
193.9469, 2779.232
194.4290, 2774.177
194.9111, 2768.772
195.3932, 2768.552
195.8754, 2783.581
196.3575, 2818.046
196.8396, 2846.331
197.3217, 2851.989
197.8038, 2855.788
198.2859, 2873.858
198.7681, 2909.781
199.2502, 2948.099
199.7323, 2971.017
200.2144, 2976.631
200.6965, 2977.959
201.1786, 2972.469
201.6608, 2966.535
202.1429, 2966.709
202.6250, 2973.805
203.1071, 2977.436
203.5892, 2963.344
204.0713, 2928.559
204.5535, 2898.144
205.0356, 2879.811
205.5177, 2865.208
205.9998, 2849.154
206.4819, 2831.048
206.9640, 2814.910
207.4462, 2806.124
207.9283, 2805.490
208.4104, 2802.543
208.8925, 2789.787
209.3746, 2779.130
209.8567, 2777.496
210.3388, 2785.289
210.8210, 2798.877
211.3031, 2817.438
211.7852, 2841.249
212.2673, 2860.306
212.7494, 2868.694
213.2315, 2876.033
213.7137, 2883.547
214.1958, 2893.014
214.6779, 2912.700
215.1600, 2955.355
215.6421, 3019.831
216.1242, 3073.617
216.6064, 3102.050
217.0885, 3132.159
217.5706, 3179.925
218.0527, 3243.490
218.5348, 3312.089
219.0169, 3379.337
219.4991, 3445.405
219.9812, 3510.452
220.4633, 3569.691
220.9454, 3635.322
221.4275, 3714.937
221.9096, 3806.215
222.3918, 3900.598
222.8739, 3993.873
223.3560, 4086.699
223.8381, 4183.660
224.3202, 4292.987
224.8023, 4393.166
225.2845, 4471.589
225.7666, 4533.486
226.2487, 4590.808
226.7308, 4656.923
227.2129, 4722.019
227.6950, 4757.827
228.1772, 4758.768
228.6593, 4740.127
229.1414, 4702.778
229.6235, 4654.069
230.1056, 4606.584
230.5877, 4567.677
231.0699, 4532.021
231.5520, 4489.958
232.0341, 4441.663
232.5162, 4386.488
232.9983, 4311.922
233.4804, 4232.961
233.9626, 4169.211
234.4447, 4124.818
234.9268, 4100.595
235.4089, 4103.572
235.8910, 4138.162
236.3731, 4172.204
236.8553, 4187.361
237.3374, 4194.373
237.8195, 4207.068
238.3016, 4229.860
238.7837, 4255.646
239.2658, 4282.234
239.7480, 4309.912
240.2301, 4322.466
240.7122, 4313.991
241.1943, 4284.356
241.6764, 4234.328
242.1585, 4158.655
242.6407, 4075.542
243.1228, 3999.032
243.6049, 3927.639
244.0870, 3849.628
244.5691, 3755.943
245.0512, 3659.251
245.5334, 3577.024
246.0155, 3510.760
246.4976, 3452.564
246.9797, 3395.205
247.4618, 3342.511
247.9439, 3305.849
248.4261, 3290.906
248.9082, 3289.002
249.3903, 3290.596
249.8724, 3295.942
250.3545, 3299.713
250.8366, 3299.816
251.3188, 3297.101
251.8009, 3290.696
252.2830, 3278.692
252.7651, 3270.608
253.2472, 3283.830
253.7293, 3318.510
254.2115, 3337.866
254.6936, 3326.478
255.1757, 3300.859
255.6578, 3279.895
256.1399, 3266.127
256.6220, 3250.169
257.1042, 3221.733
257.5863, 3180.337
258.0684, 3146.302
258.5505, 3125.134
259.0326, 3108.025
259.5147, 3085.235
259.9969, 3058.144
260.4790, 3039.380
260.9611, 3038.511
261.4432, 3055.241
261.9253, 3075.032
262.4074, 3097.641
262.8896, 3122.997
263.3717, 3146.975
263.8538, 3173.284
264.3359, 3211.843
264.8180, 3268.349
265.3001, 3341.289
265.7823, 3423.051
266.2644, 3516.097
266.7465, 3614.133
267.2286, 3713.159
267.7107, 3816.976
268.1928, 3933.470
268.6750, 4066.171
269.1571, 4208.699
269.6392, 4343.261
270.1213, 4450.545
270.6034, 4574.831
271.0855, 4736.465
271.5677, 4904.882
272.0498, 5055.490
272.5319, 5179.592
273.0140, 5278.430
273.4961, 5353.556
273.9782, 5409.198
274.4604, 5426.553
274.9425, 5409.369
275.4246, 5357.837
275.9067, 5261.907
276.3888, 5126.884
276.8709, 4976.978
277.3531, 4835.893
277.8352, 4706.254
278.3173, 4571.197
278.7994, 4411.265
279.2815, 4264.780
279.7636, 4145.969
280.2458, 4052.360
280.7279, 3974.458
281.2100, 3906.680
281.6921, 3848.395
282.1742, 3794.834
282.6563, 3747.076
283.1385, 3702.644
283.6206, 3659.750
284.1027, 3619.920
284.5848, 3585.696
285.0669, 3558.942
285.5490, 3537.561
286.0312, 3516.842
286.5133, 3495.623
286.9954, 3478.068
287.4775, 3465.794
287.9596, 3457.135
288.4417, 3450.362
288.9239, 3444.822
289.4060, 3442.824
289.8881, 3446.855
290.3702, 3456.852
290.8523, 3473.459
291.3344, 3504.375
291.8166, 3536.081
292.2987, 3556.246
292.7808, 3564.198
293.2629, 3572.998
293.7450, 3592.269
294.2271, 3620.497
294.7093, 3652.733
295.1914, 3694.607
295.6735, 3729.317
296.1556, 3737.722
296.6377, 3725.248
297.1198, 3717.382
297.6020, 3734.783
298.0841, 3759.018
298.5662, 3756.216
299.0483, 3720.647
299.5304, 3684.748
300.0125, 3674.708
300.4947, 3683.677
300.9768, 3685.803
301.4589, 3667.749
301.9410, 3650.651
302.4231, 3651.075
302.9052, 3667.183
303.3874, 3687.765
303.8695, 3706.487
304.3516, 3726.467
304.8337, 3758.236
305.3158, 3813.006
305.7979, 3861.624
306.2801, 3890.634
306.7622, 3908.559
307.2443, 3929.409
307.7264, 3957.876
308.2085, 3991.710
308.6906, 4027.150
309.1728, 4067.535
309.6549, 4103.189
310.1370, 4132.294
310.6191, 4157.690
311.1012, 4185.774
311.5833, 4215.503
312.0655, 4235.626
312.5476, 4234.187
313.0297, 4209.779
313.5118, 4169.958
313.9939, 4115.983
314.4760, 4047.975
314.9582, 3957.903
315.4403, 3853.255
315.9224, 3750.487
316.4045, 3660.142
316.8866, 3580.965
317.3687, 3503.355
317.8509, 3419.796
318.3330, 3348.971
318.8151, 3294.416
319.2972, 3253.695
319.7793, 3226.396
320.2614, 3212.689
320.7436, 3206.104
321.2257, 3194.673
321.7078, 3175.756
322.1899, 3160.863
322.6720, 3154.876
323.1541, 3151.535
323.6363, 3146.947
324.1184, 3140.746
324.6005, 3135.524
325.0826, 3137.870
325.5647, 3146.121
326.0468, 3139.733
326.5290, 3110.376
327.0111, 3075.448
327.4932, 3042.914
327.9753, 3014.044
328.4574, 2993.326
328.9395, 2988.322
329.4217, 2990.513
329.9038, 2987.664
330.3859, 2979.928
330.8680, 2964.911
331.3501, 2935.795
331.8322, 2899.437
332.3144, 2872.125
332.7965, 2857.514
333.2786, 2848.888
333.7607, 2843.494
334.2428, 2840.989
334.7249, 2839.182
335.2070, 2835.710
335.6891, 2835.683
336.1713, 2850.386
336.6534, 2881.688
337.1355, 2918.925
337.6176, 2959.063
338.0997, 3004.799
338.5818, 3061.188
339.0640, 3128.371
339.5461, 3199.062
340.0282, 3264.414
340.5103, 3321.303
340.9924, 3393.744
341.4745, 3483.924
341.9567, 3584.542
342.4388, 3697.805
342.9209, 3818.667
343.4030, 3939.629
343.8851, 4056.593
344.3672, 4168.295
344.8494, 4268.830
345.3315, 4355.405
345.8136, 4432.378
346.2957, 4503.809
346.7778, 4565.667
347.2599, 4616.292
347.7421, 4655.070
348.2242, 4677.308
348.7063, 4676.501
349.1884, 4651.879
349.6705, 4608.291
350.1526, 4536.453
350.6348, 4452.661
351.1169, 4365.800
351.5990, 4274.953
352.0811, 4174.771
352.5632, 4053.990
353.0453, 3920.089
353.5275, 3800.206
354.0096, 3696.217
354.4917, 3600.819
354.9738, 3509.969
355.4559, 3425.231
355.9380, 3351.858
356.4202, 3292.126
356.9023, 3242.078
357.3844, 3199.631
357.8665, 3164.411
358.3486, 3133.774
358.8307, 3106.757
359.3129, 3083.590
359.7950, 3063.755
360.2771, 3045.051
360.7592, 3035.115
361.2413, 3047.847
361.7234, 3064.962
362.2056, 3060.848
362.6877, 3031.921
363.1698, 2999.118
363.6519, 2984.499
364.1340, 2991.187
364.6161, 2989.304
365.0983, 2975.609
365.5804, 2958.039
366.0625, 2939.156
366.5446, 2919.154
367.0267, 2898.707
367.5089, 2878.461
367.9910, 2856.473
368.4731, 2825.402
368.9552, 2776.064
369.4373, 2732.706
369.9194, 2701.465
370.4016, 2674.365
370.8837, 2645.151
371.3658, 2612.549
371.8479, 2579.066
372.3300, 2544.736
372.8121, 2508.986
373.2943, 2485.630
373.7764, 2482.668
374.2585, 2483.968
374.7406, 2483.212
375.2227, 2479.801
375.7048, 2472.316
376.1870, 2456.879
376.6691, 2439.193
377.1512, 2427.724
377.6333, 2422.392
378.1154, 2424.047
378.5975, 2435.152
379.0797, 2452.933
379.5618, 2470.678
380.0439, 2486.865
380.5260, 2506.813
381.0081, 2537.741
381.4902, 2573.438
381.9724, 2600.885
382.4545, 2616.573
382.9366, 2629.368
383.4187, 2648.963
383.9008, 2676.644
384.3829, 2707.220
384.8651, 2745.235
385.3472, 2781.929
385.8293, 2814.697
386.3114, 2842.084
386.7935, 2860.954
387.2756, 2869.080
387.7578, 2868.066
388.2399, 2864.543
388.7220, 2858.764
389.2041, 2849.823
389.6862, 2838.056
390.1683, 2823.193
390.6505, 2805.090
391.1326, 2783.756
391.6147, 2758.862
392.0968, 2728.690
392.5789, 2692.620
393.0610, 2659.011
393.5432, 2626.485
394.0253, 2598.941
394.5074, 2578.006
394.9895, 2563.222
395.4716, 2553.645
395.9537, 2550.067
396.4359, 2550.333
396.9180, 2553.339
397.4001, 2559.312
397.8822, 2559.934
398.3643, 2548.329
398.8464, 2532.134
399.3286, 2525.393
399.8107, 2531.566
400.2928, 2534.766
400.7749, 2523.754
401.2570, 2508.015
401.7391, 2501.727
402.2213, 2507.254
402.7034, 2517.605
403.1855, 2525.724
403.6676, 2531.122
404.1497, 2543.315
404.6318, 2568.368
405.1140, 2592.826
405.5961, 2611.348
406.0782, 2625.531
406.5603, 2637.211
407.0424, 2647.032
407.5245, 2658.483
408.0067, 2678.879
408.4888, 2708.631
408.9709, 2747.008
409.4530, 2802.583
409.9351, 2859.227
410.4172, 2904.188
410.8994, 2939.136
411.3815, 2976.424
411.8636, 3023.208
412.3457, 3079.728
412.8278, 3149.738
413.3099, 3235.945
413.7921, 3328.589
414.2742, 3422.994
414.7563, 3521.046
415.2384, 3627.313
415.7205, 3742.191
416.2026, 3864.592
416.6848, 3993.785
417.1669, 4129.488
417.6490, 4270.724
418.1311, 4418.807
418.6132, 4571.603
419.0953, 4727.310
419.5775, 4886.225
420.0596, 5048.311
420.5417, 5228.268
421.0238, 5399.561
421.5059, 5544.795
421.9880, 5667.053
422.4702, 5780.698
422.9523, 5894.652
423.4344, 6001.316
423.9165, 6071.893
424.3986, 6090.386
424.8807, 6094.610
425.3629, 6084.479
425.8450, 6064.781
426.3271, 6031.327
426.8092, 5987.966
427.2913, 5953.966
427.7734, 5948.232
428.2556, 5968.850
428.7377, 5996.990
429.2198, 6034.613
429.7019, 6076.280
430.1840, 6115.895
430.6661, 6158.370
431.1483, 6213.689
431.6304, 6290.084
432.1125, 6367.625
432.5946, 6438.480
433.0767, 6498.301
433.5588, 6530.478
434.0410, 6529.503
434.5231, 6503.055
435.0052, 6459.903
435.4873, 6399.663
435.9694, 6320.027
436.4515, 6197.755
436.9337, 6075.787
437.4158, 5986.867
437.8979, 5922.740
438.3800, 5853.657
438.8621, 5760.004
439.3442, 5656.745
439.8264, 5590.367
440.3085, 5573.146
440.7906, 5574.512
441.2727, 5587.773
441.7548, 5619.305
442.2369, 5678.477
442.7191, 5762.998
443.2012, 5857.226
443.6833, 5944.795
444.1654, 6030.479
444.6475, 6138.665
445.1296, 6273.557
445.6118, 6420.366
446.0939, 6576.771
446.5760, 6739.382
447.0581, 6906.390
447.5402, 7084.116
448.0223, 7250.188
448.5045, 7384.847
448.9866, 7498.249
449.4687, 7620.298
449.9508, 7758.591
450.4329, 7886.519
450.9150, 7974.896
451.3972, 8019.348
451.8793, 8052.008
452.3614, 8067.696
452.8435, 8077.438
453.3256, 8096.082
453.8077, 8109.958
454.2899, 8097.083
454.7720, 8047.708
455.2541, 7965.766
455.7362, 7857.262
456.2183, 7719.416
456.7004, 7563.587
457.1826, 7379.504
457.6647, 7184.826
458.1468, 6986.374
458.6289, 6784.387
459.1110, 6577.904
459.5931, 6362.424
460.0753, 6144.877
460.5574, 5933.150
461.0395, 5725.442
461.5216, 5548.278
462.0037, 5424.752
462.4858, 5324.896
462.9680, 5194.918
463.4501, 5025.202
463.9322, 4875.080
464.4143, 4762.542
464.8964, 4677.155
465.3785, 4619.706
465.8607, 4584.199
466.3428, 4542.826
466.8249, 4473.094
467.3070, 4382.112
467.7891, 4314.022
468.2712, 4286.327
468.7534, 4261.161
469.2355, 4241.824
469.7176, 4219.341
470.1997, 4182.178
470.6818, 4130.383
471.1639, 4078.077
471.6461, 4037.384
472.1282, 4008.002
472.6103, 3992.179
473.0924, 4000.339
473.5745, 3999.229
474.0566, 3956.627
474.5388, 3897.500
475.0209, 3857.527
475.5030, 3846.138
475.9851, 3845.162
476.4672, 3844.423
476.9493, 3845.584
477.4315, 3855.206
477.9136, 3875.068
478.3957, 3891.562
478.8778, 3888.548
479.3599, 3863.845
479.8420, 3854.425
480.3242, 3868.207
480.8063, 3885.814
481.2884, 3903.146
481.7705, 3919.639
482.2526, 3935.105
482.7347, 3949.434
483.2169, 3962.837
483.6990, 3974.978
484.1811, 3985.457
484.6632, 3998.470
485.1453, 4016.187
485.6274, 4034.057
486.1096, 4049.155
486.5917, 4062.642
487.0738, 4076.736
487.5559, 4090.954
488.0380, 4107.868
488.5201, 4130.176
489.0023, 4157.276
489.4844, 4186.099
489.9665, 4215.237
490.4486, 4248.088
490.9307, 4290.177
491.4128, 4343.830
491.8950, 4394.916
492.3771, 4435.876
492.8592, 4481.621
493.3413, 4542.409
493.8234, 4613.190
494.3055, 4684.800
494.7877, 4753.169
495.2698, 4819.982
495.7519, 4888.887
496.2340, 4961.860
496.7161, 5031.198
497.1982, 5092.711
497.6804, 5154.035
498.1625, 5223.552
498.6446, 5296.211
499.1267, 5356.525
499.6088, 5388.979
500.0909, 5416.628
500.5730, 5473.492
501.0551, 5552.888
501.5373, 5615.336
502.0194, 5646.758
502.5015, 5658.877
502.9836, 5664.871
503.4657, 5661.827
503.9478, 5666.313
504.4300, 5691.068
504.9121, 5711.722
505.3942, 5711.360
505.8763, 5696.849
506.3584, 5686.827
506.8405, 5690.931
507.3227, 5694.281
507.8048, 5664.323
508.2869, 5591.226
508.7690, 5524.840
509.2511, 5481.672
509.7332, 5433.397
510.2154, 5358.640
510.6975, 5266.144
511.1796, 5182.091
511.6617, 5120.912
512.1439, 5067.582
512.6260, 5004.249
513.1081, 4933.502
513.5902, 4868.967
514.0723, 4816.034
514.5544, 4766.760
515.0366, 4708.525
515.5187, 4634.413
516.0008, 4585.010
516.4829, 4584.027
516.9650, 4583.555
517.4471, 4556.419
517.9293, 4513.825
518.4114, 4480.039
518.8935, 4465.553
519.3756, 4457.884
519.8577, 4434.207
520.3398, 4391.132
520.8220, 4356.673
521.3041, 4340.418
521.7862, 4324.009
522.2683, 4296.209
522.7504, 4260.050
523.2325, 4222.646
523.7147, 4185.247
524.1968, 4148.431
524.6789, 4113.119
525.1610, 4078.582
525.6431, 4043.669
526.1252, 4008.162
526.6074, 3969.217
527.0895, 3922.208
527.5716, 3864.427
528.0537, 3819.345
528.5358, 3792.589
529.0179, 3770.462
529.5001, 3750.488
529.9822, 3732.093
530.4643, 3715.755
530.9464, 3701.491
531.4285, 3686.136
531.9106, 3661.956
532.3928, 3630.196
532.8749, 3613.475
533.3570, 3617.020
533.8391, 3626.262
534.3212, 3633.476
534.8033, 3640.223
535.2855, 3649.726
535.7676, 3663.482
536.2497, 3677.822
536.7318, 3695.292
537.2139, 3710.469
537.6960, 3710.491
538.1782, 3695.681
538.6603, 3686.724
539.1424, 3703.391
539.6245, 3741.976
540.1066, 3765.115
540.5887, 3754.781
541.0709, 3755.217
541.5530, 3776.939
542.0351, 3808.705
542.5172, 3846.834
542.9993, 3888.124
543.4814, 3919.542
543.9636, 3920.222
544.4457, 3907.352
544.9278, 3921.577
545.4099, 3964.309
545.8920, 4011.296
546.3741, 4055.892
546.8563, 4093.360
547.3384, 4109.174
547.8205, 4088.859
548.3026, 4091.272
548.7847, 4142.836
549.2668, 4202.379
549.7490, 4240.199
550.2311, 4260.754
550.7132, 4282.893
551.1953, 4316.913
551.6774, 4359.145
552.1595, 4397.178
552.6417, 4424.725
553.1238, 4481.351
553.6059, 4593.941
554.0880, 4712.215
554.5701, 4794.754
555.0522, 4853.771
555.5344, 4931.551
556.0165, 5049.029
556.4986, 5179.722
556.9807, 5301.197
557.4628, 5420.873
557.9449, 5556.315
558.4271, 5713.300
558.9092, 5883.346
559.3913, 6060.093
559.8734, 6244.715
560.3555, 6420.404
560.8376, 6594.741
561.3198, 6750.756
561.8019, 6884.230
562.2840, 6997.265
562.7661, 7100.030
563.2482, 7193.526
563.7303, 7243.322
564.2125, 7215.789
564.6946, 7121.701
565.1767, 6989.740
565.6588, 6820.673
566.1409, 6619.420
566.6230, 6373.123
567.1052, 6106.337
567.5873, 5883.827
568.0694, 5713.999
568.5515, 5560.316
569.0336, 5426.119
569.5157, 5301.490
569.9979, 5169.782
570.4800, 5040.866
570.9621, 4942.340
571.4442, 4892.397
571.9263, 4878.026
572.4084, 4875.936
572.8906, 4888.275
573.3727, 4897.962
573.8548, 4899.505
574.3369, 4901.386
574.8190, 4910.329
575.3011, 4924.907
575.7833, 4940.682
576.2654, 4956.198
576.7475, 4973.142
577.2296, 4991.281
577.7117, 5011.944
578.1938, 5039.673
578.6760, 5074.949
579.1581, 5108.779
579.6402, 5130.690
580.1223, 5141.230
580.6044, 5161.602
581.0865, 5201.836
581.5686, 5236.640
582.0507, 5252.921
582.5328, 5266.528
583.0150, 5294.505
583.4971, 5338.203
583.9792, 5380.384
584.4613, 5411.896
584.9434, 5434.948
585.4255, 5450.529
585.9077, 5459.723
586.3898, 5469.264
586.8719, 5481.818
587.3540, 5497.189
587.8361, 5515.334
588.3182, 5538.283
588.8004, 5558.063
589.2825, 5567.608
589.7646, 5581.574
590.2467, 5602.079
590.7288, 5632.472
591.2109, 5679.598
591.6931, 5746.708
592.1752, 5821.110
592.6573, 5888.448
593.1394, 5950.466
593.6215, 6020.188
594.1036, 6102.565
594.5858, 6174.797
595.0679, 6224.395
595.5500, 6251.958
596.0321, 6259.646
596.5142, 6243.753
596.9963, 6217.182
597.4785, 6187.589
597.9606, 6143.731
598.4427, 6074.808
598.9248, 5982.597
599.4069, 5874.796
599.8890, 5753.780
600.3712, 5626.846
600.8533, 5509.675
601.3354, 5403.132
601.8175, 5297.449
602.2996, 5194.045
602.7817, 5086.410
603.2639, 4955.167
603.7460, 4810.509
604.2281, 4704.459
604.7102, 4675.139
605.1923, 4647.215
605.6744, 4586.643
606.1566, 4511.058
606.6387, 4440.411
607.1208, 4379.612
607.6029, 4328.091
608.0850, 4286.939
608.5671, 4253.353
609.0493, 4211.727
609.5314, 4159.533
610.0135, 4106.637
610.4956, 4054.616
610.9777, 4003.987
611.4598, 3956.496
611.9420, 3911.584
612.4241, 3863.830
612.9062, 3813.265
613.3883, 3757.789
613.8704, 3698.948
614.3525, 3633.306
614.8347, 3551.328
615.3168, 3450.835
615.7989, 3346.897
616.2810, 3258.451
616.7631, 3185.554
617.2452, 3110.364
617.7274, 3030.486
618.2095, 2953.528
618.6916, 2886.442
619.1737, 2821.065
619.6558, 2745.520
620.1379, 2658.448
620.6201, 2583.396
621.1022, 2536.899
621.5843, 2502.672
622.0664, 2466.196
