##NAMES=Epistolite
##RRUFFID=R070396
##IDEAL CHEMISTRY=(Na[box])Nb^5+^_2_Na_3_Ti^4+^(Si_2_O_7_)_2_O_2_(OH)_2_(H_2_O)_4_
##LOCALITY=Tugtup Agtakorfia, Ilimaussaq complex, Narsaq, Kitaa (West Greenland) Province, Greenland
##OWNER=RRUFF
##SOURCE=Michael Scott
##DESCRIPTION=White platy crystals associated with pectolite
##STATUS=The identification of this mineral is confirmed by single-crystal X-ray diffraction and chemical analysis.
##URL=rruff.info/R070396
##MEASURED CHEMISTRY=(Na_3.07_Ca_0.20_K_0.13_Mg_0.10_Mn_0.09_)_Σ=3.59_(Ti_0.71_Fe_0.12_V_0.02_)_Σ=0.85_Nb_2.03_[(Si_2_O_7_)_1.92_(Al_2_O_7_)_0.8_]_Σ=2_[O_1_F_0.43_Cl_0.02_(OH)_2_]_Σ=3.45_[(PO_4_)_0.24_(SO_4_)_0.01_]•2.58H_2_O
156.2139, 2455.955
156.6960, 2470.728
157.1782, 2478.547
157.6603, 2477.601
158.1424, 2478.034
158.6245, 2490.881
159.1066, 2511.446
159.5887, 2528.452
160.0709, 2531.261
160.5530, 2531.790
161.0351, 2549.984
161.5172, 2590.474
161.9993, 2632.574
162.4814, 2661.801
162.9636, 2682.049
163.4457, 2699.488
163.9278, 2713.847
164.4099, 2727.185
164.8920, 2743.861
165.3741, 2765.437
165.8563, 2785.828
166.3384, 2798.548
166.8205, 2807.729
167.3026, 2820.761
167.7847, 2844.559
168.2668, 2872.917
168.7490, 2891.165
169.2311, 2894.964
169.7132, 2898.536
170.1953, 2912.111
170.6774, 2930.129
171.1595, 2943.750
171.6417, 2948.110
172.1238, 2945.835
172.6059, 2943.052
173.0880, 2939.180
173.5701, 2936.021
174.0522, 2934.199
174.5344, 2933.497
175.0165, 2933.529
175.4986, 2933.487
175.9807, 2934.420
176.4628, 2940.280
176.9449, 2955.568
177.4271, 2967.313
177.9092, 2966.667
178.3913, 2960.909
178.8734, 2960.231
179.3555, 2970.714
179.8376, 2988.477
180.3197, 3002.272
180.8019, 3010.971
181.2840, 3017.278
181.7661, 3020.320
182.2482, 3022.451
182.7303, 3026.377
183.2124, 3033.258
183.6946, 3043.010
184.1767, 3056.031
184.6588, 3075.305
185.1409, 3092.435
185.6230, 3103.837
186.1051, 3112.646
186.5873, 3122.437
187.0694, 3134.880
187.5515, 3149.198
188.0336, 3163.810
188.5157, 3179.240
188.9978, 3193.795
189.4800, 3210.192
189.9621, 3224.417
190.4442, 3230.645
190.9263, 3225.512
191.4084, 3215.417
191.8905, 3216.775
192.3727, 3238.364
192.8548, 3256.103
193.3369, 3262.619
193.8190, 3265.560
194.3011, 3273.574
194.7832, 3290.211
195.2654, 3309.625
195.7475, 3318.775
196.2296, 3312.717
196.7117, 3305.033
197.1938, 3296.724
197.6759, 3288.319
198.1581, 3276.353
198.6402, 3260.172
199.1223, 3249.647
199.6044, 3270.330
200.0865, 3362.980
200.5686, 3402.271
201.0508, 3343.365
201.5329, 3258.438
202.0150, 3200.705
202.4971, 3185.193
202.9792, 3194.267
203.4613, 3200.985
203.9435, 3205.013
204.4256, 3207.148
204.9077, 3206.714
205.3898, 3205.260
205.8719, 3203.459
206.3540, 3201.606
206.8362, 3200.067
207.3183, 3199.964
207.8004, 3203.540
208.2825, 3202.552
208.7646, 3191.116
209.2467, 3180.146
209.7289, 3176.813
210.2110, 3181.431
210.6931, 3188.732
211.1752, 3192.272
211.6573, 3190.119
212.1395, 3191.324
212.6216, 3203.109
213.1037, 3211.933
213.5858, 3207.765
214.0679, 3192.813
214.5500, 3178.112
215.0322, 3174.788
215.5143, 3184.434
215.9964, 3195.236
216.4785, 3212.612
216.9606, 3226.187
217.4427, 3227.883
217.9249, 3221.515
218.4070, 3218.134
218.8891, 3227.811
219.3712, 3251.012
219.8533, 3270.329
220.3354, 3288.285
220.8176, 3299.433
221.2997, 3297.604
221.7818, 3287.691
222.2639, 3278.651
222.7460, 3276.419
223.2281, 3280.762
223.7103, 3289.445
224.1924, 3312.059
224.6745, 3328.446
225.1566, 3331.514
225.6387, 3326.371
226.1208, 3320.122
226.6030, 3316.506
227.0851, 3315.666
227.5672, 3318.075
228.0493, 3322.600
228.5314, 3332.736
229.0135, 3352.431
229.4957, 3376.347
229.9778, 3399.896
230.4599, 3421.229
230.9420, 3438.351
231.4241, 3445.377
231.9062, 3433.863
232.3884, 3426.484
232.8705, 3427.275
233.3526, 3432.151
233.8347, 3438.427
234.3168, 3445.062
234.7989, 3451.092
235.2811, 3454.376
235.7632, 3452.919
236.2453, 3453.526
236.7274, 3460.525
237.2095, 3466.962
237.6916, 3467.540
238.1738, 3461.551
238.6559, 3452.935
239.1380, 3446.800
239.6201, 3444.397
240.1022, 3439.742
240.5843, 3433.470
241.0665, 3424.228
241.5486, 3408.508
242.0307, 3387.831
242.5128, 3368.947
242.9949, 3359.890
243.4770, 3361.887
243.9592, 3358.684
244.4413, 3343.439
244.9234, 3329.201
245.4055, 3322.453
245.8876, 3320.922
246.3697, 3317.979
246.8519, 3307.677
247.3340, 3291.236
247.8161, 3280.011
248.2982, 3274.053
248.7803, 3274.073
249.2624, 3282.873
249.7446, 3296.683
250.2267, 3307.561
250.7088, 3307.297
251.1909, 3305.780
251.6730, 3339.895
252.1551, 3445.074
252.6373, 3512.241
253.1194, 3482.148
253.6015, 3410.706
254.0836, 3355.662
254.5657, 3338.051
255.0478, 3343.144
255.5300, 3351.145
256.0121, 3364.591
256.4942, 3371.090
256.9763, 3356.921
257.4584, 3340.221
257.9406, 3334.789
258.4227, 3343.726
258.9048, 3358.293
259.3869, 3370.502
259.8690, 3380.329
260.3511, 3388.921
260.8333, 3398.637
261.3154, 3404.939
261.7975, 3402.508
262.2796, 3391.920
262.7617, 3382.692
263.2438, 3382.461
263.7260, 3389.835
264.2081, 3397.247
264.6902, 3405.812
265.1723, 3411.184
265.6544, 3407.692
266.1365, 3398.124
266.6187, 3391.894
267.1008, 3399.890
267.5829, 3413.067
268.0650, 3409.480
268.5471, 3383.574
269.0292, 3357.470
269.5114, 3348.338
269.9935, 3349.364
270.4756, 3349.724
270.9577, 3344.706
271.4398, 3339.481
271.9219, 3341.466
272.4041, 3350.931
272.8862, 3358.226
273.3683, 3357.339
273.8504, 3351.688
274.3325, 3348.659
274.8146, 3350.997
275.2968, 3351.547
275.7789, 3345.585
276.2610, 3333.836
276.7431, 3317.233
277.2252, 3291.622
277.7073, 3267.625
278.1895, 3264.879
278.6716, 3286.861
279.1537, 3308.050
279.6358, 3319.907
280.1179, 3324.869
280.6000, 3324.975
281.0822, 3319.670
281.5643, 3315.719
282.0464, 3321.685
282.5285, 3338.088
283.0106, 3357.274
283.4927, 3384.353
283.9749, 3410.097
284.4570, 3423.146
284.9391, 3423.737
285.4212, 3425.672
285.9033, 3441.060
286.3854, 3469.679
286.8676, 3492.288
287.3497, 3501.200
287.8318, 3512.127
288.3139, 3536.949
288.7960, 3570.471
289.2781, 3597.045
289.7603, 3606.803
290.2424, 3605.098
290.7245, 3614.416
291.2066, 3642.366
291.6887, 3671.059
292.1708, 3695.215
292.6530, 3719.628
293.1351, 3751.640
293.6172, 3793.682
294.0993, 3840.272
294.5814, 3881.560
295.0635, 3915.743
295.5457, 3947.523
296.0278, 3964.834
296.5099, 3988.266
296.9920, 4037.102
297.4741, 4110.456
297.9562, 4189.481
298.4384, 4256.785
298.9205, 4313.104
299.4026, 4352.082
299.8847, 4369.323
300.3668, 4374.297
300.8489, 4371.727
301.3311, 4359.179
301.8131, 4329.958
302.2953, 4278.027
302.7774, 4207.628
303.2595, 4139.716
303.7416, 4070.390
304.2237, 4010.310
304.7058, 3965.140
305.1880, 3927.696
305.6701, 3890.083
306.1522, 3849.315
306.6343, 3808.927
307.1164, 3773.565
307.5985, 3742.291
308.0807, 3720.163
308.5628, 3719.444
309.0449, 3720.475
309.5270, 3709.780
310.0091, 3686.922
310.4912, 3664.233
310.9734, 3654.664
311.4555, 3656.604
311.9376, 3651.132
312.4197, 3629.113
312.9018, 3611.264
313.3839, 3617.753
313.8661, 3638.694
314.3482, 3647.798
314.8303, 3625.179
315.3124, 3587.031
315.7945, 3563.017
316.2766, 3555.647
316.7588, 3547.533
317.2409, 3523.729
317.7230, 3495.500
318.2051, 3483.399
318.6872, 3499.791
319.1693, 3515.191
319.6515, 3503.391
320.1336, 3470.342
320.6157, 3443.304
321.0978, 3433.540
321.5799, 3430.668
322.0620, 3415.739
322.5442, 3385.930
323.0263, 3363.807
323.5084, 3360.474
323.9905, 3366.289
324.4726, 3368.140
324.9547, 3363.854
325.4369, 3360.780
325.9190, 3367.166
326.4011, 3384.260
326.8832, 3394.417
327.3653, 3394.267
327.8474, 3390.651
328.3296, 3387.287
328.8117, 3383.689
329.2938, 3376.779
329.7759, 3363.941
330.2580, 3347.725
330.7401, 3340.154
331.2223, 3348.993
331.7044, 3356.891
332.1865, 3361.240
332.6686, 3364.182
333.1507, 3369.051
333.6328, 3376.546
334.1150, 3383.148
334.5971, 3382.720
335.0792, 3370.358
335.5613, 3364.412
336.0434, 3369.695
336.5255, 3376.326
337.0077, 3379.658
337.4898, 3379.765
337.9719, 3378.940
338.4540, 3379.039
338.9361, 3379.833
339.4182, 3378.945
339.9004, 3373.547
340.3825, 3370.809
340.8646, 3368.996
341.3467, 3371.973
341.8288, 3388.261
342.3109, 3423.870
342.7931, 3460.523
343.2752, 3465.103
343.7573, 3431.315
344.2394, 3410.553
344.7215, 3422.459
345.2036, 3446.530
345.6858, 3469.435
346.1679, 3490.141
346.6500, 3505.326
347.1321, 3509.927
347.6142, 3507.456
348.0963, 3507.740
348.5785, 3512.253
349.0606, 3517.885
349.5427, 3521.594
350.0248, 3524.396
350.5069, 3529.520
350.9890, 3539.793
351.4712, 3550.831
351.9533, 3557.963
352.4354, 3562.210
352.9175, 3568.719
353.3996, 3579.556
353.8817, 3594.556
354.3639, 3615.033
354.8460, 3647.088
355.3281, 3670.884
355.8102, 3676.922
356.2923, 3674.646
356.7744, 3674.424
357.2566, 3678.602
357.7387, 3684.424
358.2208, 3688.355
358.7029, 3689.060
359.1850, 3696.001
359.6671, 3714.164
360.1493, 3732.590
360.6314, 3747.581
361.1135, 3758.939
361.5956, 3765.571
362.0777, 3765.914
362.5598, 3764.378
363.0420, 3778.241
363.5241, 3822.665
364.0062, 3858.251
364.4883, 3872.439
364.9704, 3881.803
365.4525, 3902.561
365.9347, 3937.069
366.4168, 3972.153
366.8989, 3990.121
367.3810, 3989.608
367.8631, 3997.779
368.3452, 4024.580
368.8274, 4049.561
369.3095, 4058.152
369.7916, 4057.075
370.2737, 4063.229
370.7558, 4090.263
371.2379, 4124.339
371.7201, 4140.663
372.2022, 4137.642
372.6843, 4132.278
373.1664, 4133.318
373.6485, 4134.651
374.1306, 4125.807
374.6128, 4102.761
375.0949, 4082.961
375.5770, 4081.892
376.0591, 4089.485
376.5412, 4084.075
377.0233, 4060.252
377.5055, 4031.172
377.9876, 4009.901
378.4697, 3997.515
378.9518, 3983.934
379.4339, 3968.464
379.9160, 3952.350
380.3982, 3936.496
380.8803, 3920.698
381.3624, 3904.255
381.8445, 3886.657
382.3266, 3868.627
382.8087, 3851.984
383.2909, 3832.971
383.7730, 3821.094
384.2551, 3824.402
384.7372, 3829.724
385.2193, 3825.413
385.7014, 3810.274
386.1836, 3791.378
386.6657, 3773.244
387.1478, 3755.025
387.6299, 3756.026
388.1120, 3799.965
388.5941, 3836.039
389.0763, 3841.933
389.5584, 3830.780
390.0405, 3823.940
390.5226, 3831.325
391.0047, 3844.426
391.4868, 3848.227
391.9690, 3841.172
392.4511, 3839.538
392.9332, 3848.742
393.4153, 3864.408
393.8974, 3883.653
394.3795, 3906.334
394.8617, 3926.569
395.3438, 3943.485
395.8259, 3955.454
396.3080, 3954.985
396.7901, 3940.328
397.2722, 3933.538
397.7544, 3953.884
398.2365, 3995.539
398.7186, 4024.987
399.2007, 4036.622
399.6828, 4042.453
400.1649, 4045.463
400.6471, 4046.054
401.1292, 4043.691
401.6113, 4038.156
402.0934, 4033.146
402.5755, 4034.198
403.0576, 4043.108
403.5398, 4053.104
404.0219, 4072.485
404.5040, 4085.288
404.9861, 4079.647
405.4682, 4060.432
405.9503, 4040.494
406.4325, 4027.985
406.9146, 4020.722
407.3967, 4011.901
407.8788, 4003.873
408.3609, 3989.131
408.8430, 3963.791
409.3252, 3933.323
409.8073, 3898.478
410.2894, 3860.418
410.7715, 3828.050
411.2536, 3815.321
411.7357, 3816.805
412.2179, 3802.870
412.7000, 3765.945
413.1821, 3727.383
413.6642, 3703.121
414.1463, 3687.692
414.6284, 3671.700
415.1106, 3653.965
415.5927, 3634.379
416.0748, 3610.509
416.5569, 3584.410
417.0390, 3563.174
417.5211, 3549.845
418.0033, 3540.137
418.4854, 3527.488
418.9675, 3510.203
419.4496, 3496.026
419.9317, 3485.120
420.4138, 3477.604
420.8960, 3475.156
421.3781, 3476.366
421.8602, 3477.684
422.3423, 3477.062
422.8244, 3474.188
423.3065, 3467.330
423.7887, 3450.204
424.2708, 3439.085
424.7529, 3440.540
425.2350, 3444.791
425.7171, 3443.162
426.1992, 3434.858
426.6814, 3426.231
427.1635, 3423.199
427.6456, 3425.403
428.1277, 3429.540
428.6098, 3438.024
429.0919, 3443.720
429.5741, 3444.146
430.0562, 3439.289
430.5383, 3426.530
431.0204, 3399.399
431.5025, 3376.943
431.9846, 3382.133
432.4668, 3406.346
432.9489, 3417.959
433.4310, 3407.621
433.9131, 3386.610
434.3952, 3363.036
434.8773, 3335.319
435.3595, 3329.077
435.8416, 3371.761
436.3237, 3412.931
436.8058, 3415.690
437.2879, 3391.309
437.7701, 3371.869
438.2522, 3373.813
438.7343, 3390.504
439.2164, 3405.404
439.6985, 3417.813
440.1806, 3429.499
440.6628, 3443.831
441.1449, 3454.994
441.6270, 3457.810
442.1091, 3453.522
442.5912, 3447.711
443.0733, 3443.459
443.5555, 3441.389
444.0376, 3444.860
444.5197, 3456.233
445.0018, 3466.510
445.4839, 3468.602
445.9660, 3469.926
446.4482, 3480.374
446.9303, 3502.888
447.4124, 3520.281
447.8945, 3515.605
448.3766, 3499.595
448.8587, 3495.575
449.3409, 3507.173
449.8230, 3522.774
450.3051, 3533.892
450.7872, 3540.980
451.2693, 3549.262
451.7514, 3557.244
452.2336, 3568.006
452.7157, 3584.766
453.1978, 3604.101
453.6799, 3619.923
454.1620, 3630.879
454.6441, 3642.619
455.1263, 3662.854
455.6084, 3693.114
456.0905, 3723.029
456.5726, 3750.574
457.0547, 3779.651
457.5368, 3809.973
458.0190, 3842.987
458.5011, 3881.373
458.9832, 3926.844
459.4653, 3975.543
459.9474, 4020.133
460.4295, 4060.240
460.9117, 4110.378
461.3938, 4175.128
461.8759, 4248.567
462.3580, 4326.683
462.8401, 4409.005
463.3222, 4494.721
463.8044, 4577.662
464.2865, 4669.058
464.7686, 4777.850
465.2507, 4903.422
465.7328, 5044.453
466.2149, 5201.652
466.6971, 5369.003
467.1792, 5531.777
467.6613, 5682.784
468.1434, 5846.154
468.6255, 6023.307
469.1076, 6211.473
469.5898, 6406.596
470.0719, 6610.341
470.5540, 6826.010
471.0361, 7057.892
471.5182, 7300.466
472.0003, 7542.145
472.4825, 7777.287
472.9646, 8022.798
473.4467, 8284.063
473.9288, 8555.020
474.4109, 8834.863
474.8930, 9122.084
475.3752, 9411.530
475.8573, 9712.716
476.3394, 10008.83
476.8215, 10271.28
477.3036, 10498.71
477.7857, 10710.09
478.2679, 10917.30
478.7500, 11111.86
479.2321, 11275.23
479.7142, 11410.95
480.1963, 11512.50
480.6784, 11568.90
481.1606, 11597.04
481.6427, 11620.93
482.1248, 11635.59
482.6069, 11609.09
483.0890, 11516.16
483.5711, 11363.59
484.0533, 11186.82
484.5354, 10989.48
485.0175, 10758.26
485.4996, 10473.35
485.9817, 10171.23
486.4638, 9878.074
486.9460, 9597.526
487.4281, 9327.640
487.9102, 9071.621
488.3923, 8824.545
488.8744, 8568.904
489.3565, 8302.335
489.8387, 8041.578
490.3208, 7790.100
490.8029, 7554.455
491.2850, 7347.427
491.7671, 7177.320
492.2492, 7010.143
492.7314, 6827.672
493.2135, 6647.578
493.6956, 6493.836
494.1777, 6366.844
494.6598, 6245.154
495.1419, 6112.042
495.6241, 5970.900
496.1062, 5840.214
496.5883, 5727.372
497.0704, 5616.116
497.5525, 5499.466
498.0346, 5386.790
498.5168, 5286.825
498.9989, 5200.034
499.4810, 5120.572
499.9631, 5049.043
500.4452, 4980.659
500.9273, 4893.110
501.4095, 4778.434
501.8916, 4678.203
502.3737, 4616.103
502.8558, 4575.958
503.3379, 4532.724
503.8200, 4486.462
504.3022, 4435.705
504.7843, 4372.236
505.2664, 4308.499
505.7485, 4262.550
506.2306, 4233.469
506.7127, 4205.197
507.1949, 4166.207
507.6770, 4120.175
508.1591, 4084.266
508.6412, 4079.900
509.1233, 4053.216
509.6054, 3980.126
510.0876, 3901.205
510.5697, 3844.808
511.0518, 3812.268
511.5339, 3790.879
512.0161, 3776.277
512.4982, 3763.294
512.9803, 3735.889
513.4624, 3692.043
513.9445, 3646.747
514.4266, 3603.933
514.9088, 3563.292
515.3909, 3522.033
515.8730, 3479.186
516.3551, 3446.513
516.8372, 3434.918
517.3193, 3429.504
517.8015, 3416.226
518.2836, 3396.059
518.7657, 3377.245
519.2478, 3364.682
519.7299, 3353.979
520.2120, 3333.704
520.6942, 3292.123
521.1763, 3263.523
521.6584, 3260.244
522.1405, 3256.880
522.6226, 3236.426
523.1047, 3204.485
523.5869, 3178.460
524.0690, 3169.051
524.5511, 3166.285
525.0332, 3153.114
525.5153, 3129.616
525.9974, 3107.442
526.4796, 3087.385
526.9617, 3072.680
527.4438, 3072.067
527.9259, 3083.239
528.4080, 3084.029
528.8901, 3061.884
529.3723, 3037.871
529.8544, 3023.152
530.3365, 3015.781
530.8186, 3013.185
531.3007, 3014.194
531.7828, 3014.125
532.2650, 3005.284
532.7471, 2984.949
533.2292, 2972.732
533.7113, 2976.243
534.1934, 2979.364
534.6755, 2978.333
535.1577, 2973.593
535.6398, 2964.589
536.1219, 2950.502
536.6040, 2938.174
537.0861, 2934.994
537.5682, 2938.732
538.0504, 2942.919
538.5325, 2947.068
539.0146, 2949.600
539.4967, 2949.284
539.9788, 2946.368
540.4609, 2942.390
540.9431, 2946.135
541.4252, 2937.055
541.9073, 2893.635
542.3894, 2846.773
542.8715, 2828.628
543.3536, 2839.682
543.8358, 2858.067
544.3179, 2867.591
544.8000, 2869.165
545.2821, 2865.787
545.7642, 2854.959
546.2463, 2846.075
546.7285, 2844.212
547.2106, 2843.173
547.6927, 2837.022
548.1748, 2826.213
548.6569, 2817.836
549.1390, 2817.169
549.6211, 2818.989
550.1032, 2818.852
550.5853, 2816.386
551.0674, 2809.873
551.5496, 2798.010
552.0317, 2784.686
552.5138, 2776.527
552.9959, 2776.200
553.4780, 2771.877
553.9601, 2755.233
554.4423, 2744.022
554.9244, 2749.323
555.4065, 2763.529
555.8886, 2774.928
556.3707, 2779.284
556.8528, 2779.475
557.3350, 2777.667
557.8171, 2774.265
558.2992, 2773.139
558.7813, 2775.669
559.2634, 2777.304
559.7455, 2775.809
560.2277, 2770.829
560.7098, 2761.562
561.1919, 2741.504
561.6740, 2728.501
562.1561, 2732.540
562.6382, 2743.709
563.1204, 2757.015
563.6025, 2768.265
564.0846, 2764.304
564.5667, 2731.969
565.0488, 2683.178
565.5309, 2667.401
566.0131, 2700.796
566.4952, 2726.341
566.9773, 2726.970
567.4594, 2722.635
567.9415, 2727.085
568.4236, 2738.283
568.9058, 2744.098
569.3879, 2734.651
569.8700, 2721.895
570.3521, 2717.674
570.8342, 2720.323
571.3163, 2726.025
571.7985, 2734.231
572.2806, 2738.760
572.7627, 2731.115
573.2448, 2709.452
573.7269, 2692.775
574.2090, 2679.353
574.6912, 2672.486
575.1733, 2676.426
575.6554, 2685.574
576.1375, 2694.655
576.6196, 2702.209
577.1017, 2708.218
577.5839, 2712.482
578.0660, 2715.202
578.5481, 2717.362
579.0302, 2719.167
579.5123, 2718.740
579.9944, 2715.270
580.4766, 2709.012
580.9587, 2699.217
581.4408, 2683.948
581.9229, 2673.466
582.4050, 2670.138
582.8871, 2671.237
583.3693, 2678.141
583.8514, 2687.638
584.3335, 2692.933
584.8156, 2690.831
585.2977, 2686.371
585.7798, 2689.094
586.2620, 2700.187
586.7441, 2703.834
587.2262, 2695.483
587.7083, 2685.906
588.1904, 2680.811
588.6725, 2678.629
589.1547, 2676.505
589.6368, 2672.444
590.1189, 2672.711
590.6010, 2685.245
591.0831, 2701.149
591.5652, 2709.724
592.0474, 2710.046
592.5295, 2704.237
593.0116, 2692.677
593.4937, 2678.912
593.9758, 2674.144
594.4579, 2681.677
594.9401, 2690.405
595.4222, 2703.019
595.9043, 2713.300
596.3864, 2716.762
596.8685, 2715.357
597.3506, 2714.231
597.8328, 2715.579
598.3149, 2717.198
598.7970, 2716.052
599.2791, 2713.709
599.7612, 2715.427
600.2433, 2722.244
600.7255, 2727.262
601.2076, 2723.463
601.6897, 2712.725
602.1718, 2710.395
602.6539, 2721.469
603.1360, 2734.612
603.6182, 2756.648
604.1003, 2774.396
604.5824, 2774.088
605.0645, 2759.216
605.5466, 2746.771
606.0287, 2747.463
606.5109, 2754.484
606.9930, 2759.110
607.4751, 2761.216
607.9572, 2758.816
608.4393, 2750.263
608.9214, 2741.430
609.4036, 2737.640
609.8857, 2738.947
610.3678, 2744.734
610.8499, 2760.525
611.3320, 2773.331
611.8141, 2774.740
612.2963, 2775.153
612.7784, 2785.091
613.2605, 2805.441
613.7426, 2830.406
614.2247, 2856.911
614.7068, 2883.860
615.1890, 2907.269
615.6711, 2926.805
616.1532, 2951.667
616.6353, 2988.222
617.1174, 3023.975
617.5995, 3040.887
618.0817, 3038.537
618.5638, 3050.293
619.0459, 3083.786
619.5280, 3124.156
620.0101, 3170.414
620.4922, 3218.022
620.9744, 3260.804
621.4565, 3298.269
621.9386, 3336.246
622.4207, 3380.859
622.9028, 3429.848
623.3849, 3473.038
623.8671, 3509.363
624.3492, 3546.466
624.8313, 3588.720
625.3134, 3630.390
625.7955, 3668.886
626.2776, 3704.326
626.7598, 3717.613
627.2419, 3690.817
627.7240, 3657.727
628.2061, 3639.076
628.6882, 3623.439
629.1703, 3594.435
629.6525, 3548.078
630.1346, 3488.735
630.6167, 3417.422
631.0988, 3337.327
631.5809, 3265.637
632.0630, 3202.908
632.5452, 3145.466
633.0273, 3092.321
633.5094, 3043.711
633.9915, 2998.797
634.4736, 2957.667
634.9557, 2923.239
635.4379, 2906.782
635.9200, 2886.349
636.4021, 2839.004
636.8842, 2783.557
637.3663, 2754.818
637.8484, 2758.093
638.3306, 2762.179
638.8127, 2732.497
639.2948, 2677.224
639.7769, 2649.635
640.2590, 2657.726
640.7411, 2664.951
641.2233, 2661.010
641.7054, 2651.912
642.1875, 2643.197
642.6696, 2634.859
643.1517, 2608.349
643.6339, 2628.049
644.1160, 2637.576
644.5981, 2637.474
645.0802, 2598.908
645.5623, 2610.011
