##NAMES=Epistilbite
##RRUFFID=R061105
##IDEAL CHEMISTRY=Ca_3_(Si_18_Al_6_)O_48_&#183;16H_2_O
##LOCALITY=Berufiord, Iceland
##OWNER=RRUFF
##SOURCE=Michael Scott
##DESCRIPTION=Globular aggregate of thin tabular peach and white fibrous crystals
##STATUS=The identification of this mineral has been confirmed by X-ray diffraction and chemical analysis
##URL=rruff.info/R061105
##MEASURED CHEMISTRY=(Ca_2.38_Na_1.04_K_0.09_)_Σ=3.51_(Si_18.11_Al_5.89_)O_48·_11.38H_2_O ; = lighter gray phase : (Na_2.91_Ca_0.13_K_0.12_)_Σ=3.16_Ca_2.00_Al_7.29_Si_28.85_O_72_·16.19H_2_O = darker gray phase = heulandite-Na
122.0469, 4214.050
122.5290, 4415.005
123.0111, 4588.898
123.4933, 4778.711
123.9754, 5006.145
124.4575, 5247.528
124.9396, 5404.948
125.4217, 5500.261
125.9038, 5598.018
126.3860, 5710.569
126.8681, 5829.153
127.3502, 5928.941
127.8323, 5991.115
128.3144, 6028.837
128.7965, 6071.127
129.2787, 6120.399
129.7608, 6166.009
130.2429, 6196.167
130.7250, 6210.432
131.2071, 6209.209
131.6892, 6189.647
132.1714, 6152.441
132.6535, 6103.405
133.1356, 6034.441
133.6177, 5959.645
134.0998, 5926.714
134.5819, 5941.119
135.0640, 5957.003
135.5462, 5929.574
136.0283, 5855.453
136.5104, 5790.714
136.9925, 5746.386
137.4746, 5721.717
137.9567, 5716.516
138.4389, 5740.850
138.9210, 5766.699
139.4031, 5752.791
139.8852, 5686.731
140.3673, 5625.020
140.8494, 5588.137
141.3316, 5583.382
141.8137, 5569.477
142.2958, 5538.598
142.7779, 5502.877
143.2600, 5491.528
143.7421, 5516.356
144.2243, 5547.171
144.7064, 5569.716
145.1885, 5581.283
145.6706, 5590.167
146.1527, 5597.100
146.6348, 5601.651
147.1170, 5601.835
147.5991, 5603.303
148.0812, 5595.589
148.5633, 5570.517
149.0454, 5491.303
149.5275, 5436.431
150.0097, 5426.348
150.4918, 5468.628
150.9739, 5491.066
151.4560, 5480.683
151.9381, 5454.938
152.4202, 5431.596
152.9024, 5411.853
153.3845, 5394.564
153.8666, 5379.449
154.3487, 5367.294
154.8308, 5355.947
155.3129, 5350.210
155.7950, 5344.867
156.2772, 5330.821
156.7593, 5294.208
157.2414, 5257.739
157.7235, 5231.696
158.2056, 5220.773
158.6877, 5216.179
159.1699, 5219.139
159.6520, 5227.705
160.1341, 5235.111
160.6162, 5240.505
161.0983, 5243.248
161.5804, 5242.888
162.0626, 5237.943
162.5447, 5231.193
163.0268, 5222.706
163.5089, 5212.672
163.9910, 5203.647
164.4731, 5197.946
164.9553, 5193.447
165.4374, 5187.812
165.9195, 5177.716
166.4016, 5167.870
166.8837, 5161.394
167.3658, 5158.579
167.8480, 5156.560
168.3301, 5154.773
168.8122, 5152.362
169.2943, 5147.876
169.7764, 5136.488
170.2585, 5124.649
170.7407, 5119.578
171.2228, 5123.815
171.7049, 5128.434
172.1870, 5129.016
172.6691, 5124.689
173.1512, 5112.892
173.6334, 5082.357
174.1155, 5046.165
174.5976, 5023.430
175.0797, 5021.460
175.5618, 5027.676
176.0439, 5026.829
176.5260, 5020.718
177.0082, 5020.652
177.4903, 5046.427
177.9724, 5083.998
178.4545, 5102.353
178.9366, 5086.767
179.4187, 5053.550
179.9009, 5024.064
180.3830, 4998.040
180.8651, 4978.567
181.3472, 4972.273
181.8293, 4975.552
182.3114, 4976.298
182.7936, 4968.958
183.2757, 4956.228
183.7578, 4942.438
184.2399, 4927.129
184.7220, 4914.377
185.2041, 4913.133
185.6863, 4921.184
186.1684, 4924.017
186.6505, 4911.893
187.1326, 4888.680
187.6147, 4869.056
188.0968, 4853.973
188.5790, 4840.836
189.0611, 4822.881
189.5432, 4800.514
190.0253, 4784.542
190.5074, 4787.797
190.9895, 4806.510
191.4717, 4809.638
191.9538, 4790.908
192.4359, 4760.895
192.9180, 4738.979
193.4001, 4724.915
193.8822, 4719.013
194.3644, 4727.061
194.8465, 4748.452
195.3286, 4758.210
195.8107, 4750.116
196.2928, 4729.336
196.7749, 4711.580
197.2570, 4697.081
197.7392, 4684.125
198.2213, 4670.074
198.7034, 4654.305
199.1855, 4645.320
199.6676, 4648.102
200.1497, 4659.329
200.6319, 4659.569
201.1140, 4647.672
201.5961, 4628.634
202.0782, 4604.458
202.5603, 4572.919
203.0424, 4550.425
203.5246, 4543.867
204.0067, 4552.664
204.4888, 4560.740
204.9709, 4570.316
205.4530, 4575.628
205.9352, 4566.877
206.4173, 4540.231
206.8994, 4513.808
207.3815, 4493.079
207.8636, 4477.699
208.3457, 4469.125
208.8279, 4469.146
209.3100, 4473.779
209.7921, 4477.078
210.2742, 4479.681
210.7563, 4478.765
211.2384, 4471.095
211.7206, 4453.212
212.2027, 4444.443
212.6848, 4448.994
213.1669, 4459.862
213.6490, 4459.832
214.1311, 4444.086
214.6133, 4427.792
215.0954, 4418.943
215.5775, 4420.721
216.0596, 4419.755
216.5417, 4414.416
217.0238, 4406.311
217.5059, 4400.015
217.9881, 4394.872
218.4702, 4392.830
218.9523, 4397.207
219.4344, 4414.752
219.9165, 4419.910
220.3986, 4405.461
220.8808, 4376.634
221.3629, 4360.251
221.8450, 4361.530
222.3271, 4367.951
222.8092, 4371.978
223.2913, 4375.077
223.7735, 4371.870
224.2556, 4358.779
224.7377, 4337.107
225.2198, 4323.364
225.7019, 4320.531
226.1840, 4321.726
226.6662, 4320.511
227.1483, 4311.831
227.6304, 4311.519
228.1125, 4327.636
228.5946, 4359.891
229.0767, 4371.007
229.5589, 4348.204
230.0410, 4317.066
230.5231, 4302.856
231.0052, 4316.690
231.4873, 4326.977
231.9694, 4326.411
232.4516, 4313.953
232.9337, 4305.603
233.4158, 4302.455
233.8979, 4302.626
234.3800, 4305.333
234.8621, 4316.985
235.3443, 4319.807
235.8264, 4304.981
236.3085, 4267.241
236.7906, 4249.061
237.2727, 4258.203
237.7548, 4281.118
238.2369, 4301.165
238.7191, 4320.314
239.2012, 4332.752
239.6833, 4335.099
240.1654, 4324.288
240.6475, 4316.520
241.1296, 4312.020
241.6118, 4310.076
242.0939, 4309.321
242.5760, 4307.742
243.0581, 4310.311
243.5402, 4319.219
244.0223, 4336.089
244.5045, 4354.116
244.9866, 4379.359
245.4687, 4402.778
245.9508, 4405.872
246.4329, 4376.603
246.9150, 4346.874
247.3972, 4327.271
247.8793, 4318.828
248.3614, 4319.417
248.8435, 4334.663
249.3256, 4356.738
249.8077, 4368.195
250.2899, 4363.946
250.7720, 4357.533
251.2541, 4354.128
251.7362, 4354.534
252.2183, 4355.897
252.7004, 4360.258
253.1826, 4364.504
253.6647, 4360.133
254.1468, 4340.664
254.6289, 4322.862
255.1110, 4314.506
255.5931, 4319.679
256.0753, 4323.978
256.5574, 4328.076
257.0395, 4331.085
257.5216, 4329.776
258.0037, 4321.287
258.4858, 4313.935
258.9680, 4311.867
259.4501, 4316.267
259.9322, 4323.673
260.4143, 4337.089
260.8964, 4352.629
261.3785, 4357.859
261.8607, 4350.386
262.3428, 4337.603
262.8249, 4320.913
263.3070, 4295.996
263.7891, 4283.073
264.2712, 4288.428
264.7534, 4304.731
265.2355, 4307.368
265.7176, 4289.604
266.1997, 4272.863
266.6818, 4270.774
267.1639, 4288.476
267.6461, 4300.337
268.1282, 4302.927
268.6103, 4299.305
269.0924, 4298.587
269.5745, 4301.004
270.0566, 4305.619
270.5387, 4313.297
271.0208, 4325.542
271.5030, 4331.814
271.9851, 4328.079
272.4672, 4319.409
272.9493, 4323.140
273.4314, 4342.974
273.9135, 4362.921
274.3957, 4373.494
274.8778, 4374.320
275.3599, 4366.773
275.8420, 4346.483
276.3241, 4320.931
276.8062, 4315.340
277.2884, 4334.770
277.7705, 4352.770
278.2526, 4346.169
278.7347, 4312.701
279.2168, 4298.317
279.6989, 4312.756
280.1811, 4344.831
280.6632, 4368.153
281.1453, 4382.835
281.6274, 4388.584
282.1095, 4379.665
282.5916, 4356.408
283.0738, 4345.169
283.5559, 4352.149
284.0380, 4369.132
284.5201, 4374.442
285.0022, 4366.872
285.4843, 4362.861
285.9665, 4376.569
286.4486, 4406.074
286.9307, 4430.839
287.4128, 4446.507
287.8949, 4458.334
288.3770, 4478.751
288.8592, 4507.786
289.3413, 4533.395
289.8234, 4549.839
290.3055, 4556.767
290.7876, 4548.981
291.2697, 4520.290
291.7519, 4487.042
292.2340, 4479.633
292.7161, 4496.918
293.1982, 4519.243
293.6803, 4535.630
294.1624, 4547.493
294.6446, 4558.936
295.1267, 4570.664
295.6088, 4582.041
296.0909, 4592.871
296.5730, 4602.769
297.0551, 4610.435
297.5373, 4613.237
298.0194, 4613.327
298.5015, 4615.149
298.9836, 4619.336
299.4657, 4625.119
299.9478, 4634.093
300.4300, 4644.688
300.9121, 4650.556
301.3942, 4641.042
301.8763, 4626.211
302.3584, 4623.510
302.8405, 4637.651
303.3227, 4654.640
303.8048, 4660.410
304.2869, 4657.613
304.7690, 4654.188
305.2511, 4651.953
305.7332, 4652.464
306.2154, 4659.207
306.6975, 4674.188
307.1796, 4688.044
307.6617, 4692.675
308.1438, 4690.398
308.6259, 4686.237
309.1081, 4683.150
309.5901, 4679.029
310.0723, 4669.761
310.5544, 4653.174
311.0365, 4641.994
311.5186, 4649.350
312.0007, 4667.092
312.4828, 4680.826
312.9650, 4676.128
313.4471, 4671.531
313.9292, 4682.284
314.4113, 4712.367
314.8934, 4736.606
315.3755, 4740.220
315.8577, 4731.415
316.3398, 4721.197
316.8219, 4705.783
317.3040, 4696.034
317.7861, 4702.317
318.2682, 4727.534
318.7504, 4741.501
319.2325, 4722.783
319.7146, 4691.954
320.1967, 4671.800
320.6788, 4675.136
321.1609, 4682.933
321.6431, 4689.908
322.1252, 4695.758
322.6073, 4702.817
323.0894, 4720.284
323.5715, 4735.085
324.0536, 4735.843
324.5358, 4695.516
325.0179, 4667.505
325.5000, 4667.648
325.9821, 4696.559
326.4642, 4717.376
326.9464, 4723.140
327.4285, 4723.118
327.9106, 4723.779
328.3927, 4730.390
328.8748, 4731.170
329.3569, 4721.330
329.8391, 4702.455
330.3212, 4691.583
330.8033, 4694.044
331.2854, 4699.667
331.7675, 4702.035
332.2496, 4697.470
332.7318, 4696.499
333.2139, 4700.580
333.6960, 4708.855
334.1781, 4718.451
334.6602, 4731.812
335.1423, 4742.604
335.6245, 4746.740
336.1066, 4741.688
336.5887, 4737.073
337.0708, 4732.309
337.5529, 4728.682
338.0350, 4731.376
338.5172, 4743.625
338.9993, 4752.670
339.4814, 4748.935
339.9635, 4729.925
340.4456, 4722.249
340.9277, 4729.052
341.4099, 4744.067
341.8920, 4755.925
342.3741, 4764.007
342.8562, 4774.395
343.3383, 4793.913
343.8204, 4820.808
344.3026, 4834.532
344.7847, 4832.797
345.2668, 4823.367
345.7489, 4813.810
346.2310, 4804.349
346.7131, 4799.216
347.1953, 4796.408
347.6774, 4799.111
348.1595, 4823.708
348.6416, 4872.109
349.1237, 4919.023
349.6058, 4935.320
350.0880, 4927.750
350.5700, 4916.492
351.0522, 4905.211
351.5343, 4896.681
352.0164, 4893.344
352.4985, 4895.458
352.9806, 4906.982
353.4627, 4944.835
353.9449, 4991.853
354.4270, 5018.975
354.9091, 5003.989
355.3912, 4980.402
355.8733, 4976.784
356.3554, 4991.065
356.8376, 5012.039
357.3197, 5038.013
357.8018, 5065.129
358.2839, 5089.592
358.7660, 5109.877
359.2481, 5128.217
359.7303, 5146.224
360.2124, 5163.053
360.6945, 5177.273
361.1766, 5187.699
361.6587, 5195.414
362.1408, 5198.853
362.6230, 5191.330
363.1051, 5194.898
363.5872, 5226.283
364.0693, 5271.932
364.5514, 5307.039
365.0335, 5316.604
365.5157, 5323.532
365.9978, 5334.879
366.4799, 5350.544
366.9620, 5372.915
367.4441, 5411.731
367.9262, 5454.117
368.4084, 5483.754
368.8905, 5486.421
369.3726, 5492.776
369.8547, 5510.532
370.3368, 5541.308
370.8189, 5565.229
371.3011, 5576.439
371.7832, 5586.031
372.2653, 5603.409
372.7474, 5628.447
373.2295, 5661.817
373.7116, 5706.253
374.1938, 5759.849
374.6759, 5807.150
375.1580, 5844.829
375.6401, 5882.338
376.1222, 5927.424
376.6043, 5980.756
377.0865, 6033.669
377.5686, 6087.419
378.0507, 6137.878
378.5328, 6167.080
379.0149, 6171.760
379.4970, 6183.884
379.9792, 6226.950
380.4613, 6298.111
380.9434, 6360.978
381.4255, 6412.025
381.9076, 6461.423
382.3897, 6528.506
382.8719, 6610.655
383.3540, 6685.467
383.8361, 6738.712
384.3182, 6778.103
384.8003, 6820.273
385.2824, 6865.519
385.7646, 6913.306
386.2467, 6964.679
386.7288, 7018.544
387.2109, 7072.666
387.6930, 7122.688
388.1751, 7175.774
388.6573, 7246.705
389.1394, 7333.382
389.6215, 7409.656
390.1036, 7454.997
390.5857, 7482.898
391.0678, 7506.812
391.5499, 7522.410
392.0320, 7545.193
392.5142, 7591.079
392.9963, 7651.862
393.4784, 7702.864
393.9605, 7727.939
394.4426, 7744.411
394.9247, 7762.254
395.4069, 7784.873
395.8890, 7804.771
396.3711, 7824.015
396.8532, 7838.907
397.3353, 7842.916
397.8174, 7823.131
398.2996, 7803.859
398.7817, 7794.623
399.2638, 7800.525
399.7459, 7794.638
400.2280, 7760.781
400.7101, 7725.323
401.1923, 7716.975
401.6744, 7761.617
402.1565, 7787.379
402.6386, 7777.292
403.1207, 7734.659
403.6028, 7698.068
404.0850, 7669.484
404.5671, 7643.153
405.0492, 7616.103
405.5313, 7589.402
406.0134, 7552.985
406.4955, 7499.187
406.9777, 7441.477
407.4598, 7417.117
407.9419, 7428.750
408.4240, 7447.664
408.9061, 7468.108
409.3882, 7485.584
409.8704, 7462.772
410.3525, 7388.115
410.8346, 7309.148
411.3167, 7301.387
411.7988, 7348.157
412.2809, 7372.845
412.7631, 7327.233
413.2452, 7245.433
413.7273, 7178.984
414.2094, 7127.560
414.6915, 7085.254
415.1736, 7050.106
415.6558, 7020.772
416.1379, 6996.617
416.6200, 6979.841
417.1021, 6964.883
417.5842, 6943.110
418.0663, 6918.200
418.5485, 6904.815
419.0306, 6920.563
419.5127, 6943.218
419.9948, 6957.927
420.4769, 6960.930
420.9590, 6957.206
421.4412, 6938.354
421.9233, 6914.741
422.4054, 6904.352
422.8875, 6930.838
423.3696, 6952.142
423.8517, 6949.593
424.3339, 6913.713
424.8160, 6897.450
425.2981, 6920.560
425.7802, 6950.846
426.2623, 6957.807
426.7444, 6917.959
427.2266, 6896.951
427.7087, 6912.915
428.1908, 6957.529
428.6729, 6978.049
429.1550, 6966.493
429.6371, 6949.192
430.1193, 6944.749
430.6014, 6956.023
431.0835, 6956.188
431.5656, 6940.217
432.0477, 6917.831
432.5298, 6905.944
433.0119, 6904.623
433.4940, 6909.231
433.9762, 6921.092
434.4583, 6937.511
434.9404, 6948.608
435.4225, 6954.045
435.9046, 6956.231
436.3867, 6957.967
436.8689, 6958.220
437.3510, 6954.031
437.8331, 6939.461
438.3152, 6924.749
438.7973, 6926.932
439.2794, 6941.733
439.7616, 6946.747
440.2437, 6916.032
440.7258, 6875.355
441.2079, 6850.263
441.6900, 6853.278
442.1721, 6853.251
442.6543, 6828.546
443.1364, 6791.639
443.6185, 6765.080
444.1006, 6779.097
444.5827, 6784.228
445.0648, 6753.646
445.5470, 6677.389
446.0291, 6623.875
446.5112, 6626.977
446.9933, 6641.666
447.4754, 6628.597
447.9576, 6555.282
448.4397, 6503.151
448.9218, 6487.898
449.4039, 6501.900
449.8860, 6508.537
450.3681, 6507.395
450.8503, 6499.824
451.3324, 6483.880
451.8145, 6456.904
452.2966, 6437.131
452.7787, 6424.230
453.2608, 6419.277
453.7430, 6425.958
454.2251, 6444.225
454.7072, 6464.565
455.1893, 6487.552
455.6714, 6509.091
456.1535, 6510.943
456.6357, 6492.558
457.1178, 6477.728
457.5999, 6496.099
458.0820, 6533.197
458.5641, 6555.618
459.0462, 6548.629
459.5284, 6536.827
460.0105, 6542.941
460.4926, 6564.369
460.9747, 6593.360
461.4568, 6632.849
461.9389, 6674.172
462.4211, 6711.225
462.9032, 6743.564
463.3853, 6772.495
463.8674, 6794.920
464.3495, 6815.516
464.8316, 6839.559
465.3138, 6875.432
465.7959, 6907.045
466.2780, 6926.804
466.7601, 6935.858
467.2422, 6952.049
467.7243, 6986.215
468.2065, 7018.052
468.6886, 7037.667
469.1707, 7040.917
469.6528, 7041.538
470.1349, 7041.562
470.6170, 7037.652
471.0992, 7023.641
471.5813, 6998.870
472.0634, 6966.527
472.5455, 6926.632
473.0276, 6879.707
473.5097, 6828.530
473.9918, 6772.004
474.4739, 6715.027
474.9561, 6664.264
475.4382, 6617.303
475.9203, 6564.457
476.4024, 6503.066
476.8845, 6435.221
477.3666, 6360.161
477.8488, 6279.963
478.3309, 6202.869
478.8130, 6139.960
479.2951, 6078.852
479.7772, 6003.018
480.2593, 5908.923
480.7415, 5820.585
481.2236, 5753.682
481.7057, 5699.569
482.1878, 5648.406
482.6699, 5598.025
483.1520, 5549.220
483.6342, 5507.524
484.1163, 5469.727
484.5984, 5419.530
485.0805, 5337.348
485.5626, 5256.743
486.0447, 5191.820
486.5269, 5147.766
487.0090, 5107.200
487.4911, 5068.728
487.9732, 5035.240
488.4553, 5012.449
488.9374, 5005.868
489.4196, 4993.615
489.9017, 4967.679
490.3838, 4931.344
490.8659, 4903.918
491.3480, 4887.087
491.8301, 4869.856
492.3123, 4839.701
492.7944, 4800.363
493.2765, 4773.314
493.7586, 4764.850
494.2407, 4758.300
494.7228, 4724.664
495.2050, 4673.680
495.6871, 4635.500
496.1692, 4633.018
496.6513, 4644.382
497.1334, 4650.656
497.6155, 4651.361
498.0977, 4646.462
498.5798, 4628.003
499.0619, 4607.973
499.5440, 4598.559
500.0261, 4612.766
500.5082, 4621.039
500.9904, 4608.737
501.4725, 4584.876
501.9546, 4568.724
502.4367, 4569.759
502.9188, 4572.132
503.4009, 4572.995
503.8831, 4572.885
504.3652, 4564.135
504.8473, 4539.433
505.3294, 4515.064
505.8115, 4508.287
506.2936, 4526.563
506.7758, 4529.295
507.2579, 4506.311
507.7400, 4470.889
508.2221, 4455.664
508.7042, 4461.283
509.1863, 4466.533
509.6685, 4457.649
510.1506, 4440.148
510.6327, 4431.403
511.1148, 4431.904
511.5969, 4435.176
512.0790, 4433.964
512.5612, 4431.638
513.0433, 4434.349
513.5254, 4445.667
514.0075, 4459.524
514.4896, 4477.356
514.9717, 4494.670
515.4539, 4499.968
515.9360, 4474.761
516.4181, 4447.471
516.9002, 4432.660
517.3823, 4433.375
517.8644, 4437.760
518.3466, 4449.622
518.8287, 4461.406
519.3108, 4466.504
519.7929, 4460.750
520.2750, 4454.817
520.7571, 4447.790
521.2393, 4441.474
521.7214, 4441.357
522.2035, 4447.890
522.6856, 4459.042
523.1677, 4477.551
523.6498, 4502.349
524.1320, 4512.954
524.6141, 4507.804
525.0962, 4495.385
525.5783, 4479.537
526.0604, 4462.694
526.5425, 4456.076
527.0247, 4467.872
527.5068, 4481.959
527.9889, 4474.961
528.4710, 4453.185
528.9531, 4436.264
529.4352, 4400.104
529.9174, 4445.460
530.3995, 4470.669
530.8816, 4476.812
531.3637, 4406.787
531.8458, 4435.117
532.3279, 4424.031
532.8101, 4411.329
533.2922, 4453.502
533.7743, 4394.556
534.2564, 4435.859
534.7385, 4437.145
535.2206, 4456.745
535.7027, 4436.686
536.1848, 4433.707
536.6669, 4444.326
537.1490, 4450.844
537.6312, 4446.153
538.1133, 4426.559
538.5954, 4406.511
539.0775, 4400.177
539.5596, 4406.521
540.0417, 4414.009
540.5239, 4421.344
541.0060, 4428.250
541.4881, 4436.989
541.9702, 4445.706
542.4523, 4447.510
542.9344, 4428.063
543.4166, 4406.752
543.8987, 4408.051
544.3808, 4430.854
544.8629, 4447.704
545.3450, 4436.443
545.8271, 4416.810
546.3093, 4403.913
546.7914, 4399.231
547.2735, 4404.122
547.7556, 4432.933
548.2377, 4468.725
548.7198, 4480.836
549.2020, 4440.408
549.6841, 4416.110
550.1662, 4431.471
550.6483, 4481.005
551.1304, 4498.384
551.6125, 4473.964
552.0947, 4442.859
552.5768, 4431.961
553.0589, 4440.815
553.5410, 4430.489
554.0231, 4393.703
554.5052, 4355.407
554.9874, 4351.479
555.4695, 4374.484
555.9516, 4399.296
556.4337, 4423.157
556.9158, 4438.482
557.3979, 4429.026
557.8801, 4400.985
558.3622, 4380.953
558.8443, 4391.007
559.3264, 4408.430
559.8085, 4416.832
560.2906, 4412.509
560.7728, 4408.538
561.2549, 4408.454
561.7370, 4410.174
562.2191, 4411.645
562.7012, 4412.142
563.1833, 4413.344
563.6655, 4416.818
564.1476, 4420.697
564.6297, 4419.650
565.1118, 4413.126
565.5939, 4403.068
566.0760, 4388.065
566.5582, 4369.396
567.0403, 4356.497
567.5224, 4349.545
568.0045, 4347.976
568.4866, 4356.464
568.9688, 4370.128
569.4509, 4373.939
569.9330, 4362.082
570.4151, 4348.956
570.8972, 4348.182
571.3793, 4356.532
571.8615, 4367.613
572.3436, 4385.802
572.8257, 4399.786
573.3078, 4400.160
573.7899, 4388.620
574.2720, 4381.807
574.7542, 4387.476
575.2363, 4395.579
575.7184, 4401.335
576.2005, 4404.938
576.6826, 4405.080
577.1647, 4399.343
577.6469, 4392.500
578.1290, 4390.053
578.6111, 4392.187
579.0932, 4397.391
579.5753, 4405.401
580.0574, 4416.240
580.5396, 4434.441
581.0217, 4459.127
581.5038, 4473.833
581.9859, 4464.331
582.4680, 4440.609
582.9501, 4412.766
583.4323, 4381.358
583.9144, 4365.451
584.3965, 4393.935
584.8786, 4437.508
585.3607, 4466.396
585.8428, 4471.635
586.3250, 4465.769
586.8071, 4442.926
587.2892, 4413.801
587.7713, 4395.541
588.2534, 4395.208
588.7355, 4400.690
589.2177, 4415.816
589.6998, 4436.979
590.1819, 4436.979
590.6640, 4405.605
591.1461, 4378.048
591.6282, 4377.258
592.1104, 4402.668
592.5925, 4418.698
593.0746, 4424.420
593.5567, 4423.384
594.0388, 4416.694
594.5209, 4406.205
595.0031, 4397.205
595.4852, 4391.575
595.9673, 4387.047
596.4494, 4384.779
596.9315, 4382.112
597.4136, 4372.895
597.8958, 4340.473
598.3779, 4313.896
598.8600, 4311.398
599.3421, 4332.987
599.8242, 4349.361
600.3063, 4356.821
600.7885, 4357.275
601.2706, 4350.177
601.7527, 4330.199
602.2348, 4318.505
602.7169, 4316.218
603.1990, 4320.686
603.6812, 4330.568
604.1633, 4346.128
604.6454, 4359.926
605.1275, 4371.198
605.6096, 4378.313
606.0917, 4374.557
606.5739, 4362.356
607.0560, 4354.044
607.5381, 4358.619
608.0202, 4369.074
608.5023, 4379.833
608.9844, 4390.343
609.4666, 4396.733
609.9487, 4394.427
610.4308, 4388.952
610.9129, 4383.727
611.3950, 4377.113
611.8771, 4375.461
612.3593, 4387.158
612.8414, 4400.460
613.3235, 4400.897
613.8056, 4379.006
