##NAMES=Ericssonite
##RRUFFID=R070615
##IDEAL CHEMISTRY=BaMn^2+^_2_Fe^3+^(Si_2_O_7_)O(OH)
##LOCALITY=Langban, Filipstad, Varmland, Sweden
##OWNER=RRUFF
##SOURCE=Rock Currier (large piece), Michael Scott (small piece)
##DESCRIPTION=Dark reddish brown platy crystals associated with rhodonite and diopside, this is the orthorhombic polytype, formally known as orthoericssonite.
##STATUS=The identification of this mineral has been confirmed by single-crystal X-ray diffraction.
##URL=rruff.info/R070615
92.46118, 2688.923
92.94330, 2856.281
93.42542, 3038.378
93.90753, 3232.848
94.38965, 3438.091
94.87177, 3652.241
95.35388, 3871.671
95.83600, 4106.758
96.31812, 4333.385
96.80023, 4554.779
97.28235, 4765.917
97.76447, 4958.134
98.24658, 5129.006
98.72870, 5272.117
99.21082, 5383.897
99.69293, 5464.065
100.1750, 5515.932
100.6572, 5540.172
101.1393, 5528.438
101.6214, 5460.527
102.1035, 5271.196
102.5856, 5080.012
103.0677, 4906.554
103.5499, 4752.957
104.0320, 4618.596
104.5141, 4506.967
104.9962, 4433.496
105.4783, 4359.192
105.9604, 4259.215
106.4426, 4138.563
106.9247, 4018.323
107.4068, 3921.130
107.8889, 3853.669
108.3710, 3769.781
108.8531, 3647.397
109.3353, 3521.410
109.8174, 3406.669
110.2995, 3307.481
110.7816, 3223.351
111.2637, 3152.834
111.7458, 3102.873
112.2280, 3058.083
112.7101, 3023.252
113.1922, 2990.210
113.6743, 2947.544
114.1564, 2887.695
114.6385, 2816.052
115.1207, 2769.965
115.6028, 2765.676
116.0849, 2765.303
116.5670, 2758.334
117.0491, 2745.609
117.5313, 2732.742
118.0134, 2724.506
118.4955, 2721.014
118.9776, 2712.948
119.4597, 2693.685
119.9418, 2673.745
120.4240, 2662.170
120.9061, 2660.320
121.3882, 2664.498
121.8703, 2675.489
122.3524, 2691.791
122.8345, 2702.150
123.3167, 2701.240
123.7988, 2691.293
124.2809, 2678.677
124.7630, 2665.243
125.2451, 2647.764
125.7272, 2619.630
126.2094, 2580.717
126.6915, 2547.986
127.1736, 2540.523
127.6557, 2562.021
128.1378, 2578.217
128.6199, 2577.104
129.1021, 2570.051
129.5842, 2566.114
130.0663, 2568.374
130.5484, 2567.934
131.0305, 2545.503
131.5126, 2483.761
131.9948, 2429.476
132.4769, 2392.875
132.9590, 2366.032
133.4411, 2341.033
133.9232, 2313.487
134.4053, 2283.991
134.8875, 2256.848
135.3696, 2237.833
135.8517, 2215.349
136.3338, 2180.016
136.8159, 2138.705
137.2980, 2107.211
137.7802, 2100.903
138.2623, 2124.637
138.7444, 2124.469
139.2265, 2085.087
139.7086, 2038.992
140.1907, 2003.011
140.6729, 1979.044
141.1550, 1961.066
141.6371, 1942.815
142.1192, 1924.133
142.6013, 1905.687
143.0834, 1886.593
143.5656, 1868.109
144.0477, 1850.330
144.5298, 1832.156
145.0119, 1818.369
145.4940, 1819.864
145.9761, 1837.975
146.4583, 1852.562
146.9404, 1851.412
147.4225, 1839.347
147.9046, 1834.593
148.3867, 1849.512
148.8689, 1867.675
149.3510, 1867.015
149.8331, 1843.078
150.3152, 1814.719
150.7973, 1793.556
151.2794, 1778.888
151.7616, 1779.711
152.2437, 1822.699
152.7258, 1873.327
153.2079, 1902.091
153.6900, 1897.815
154.1721, 1874.461
154.6543, 1855.400
155.1364, 1841.525
155.6185, 1830.556
156.1006, 1817.345
156.5827, 1807.242
157.0648, 1808.354
157.5470, 1827.752
158.0291, 1860.161
158.5112, 1877.777
158.9933, 1862.598
159.4754, 1851.196
159.9575, 1852.463
160.4397, 1863.801
160.9218, 1879.922
161.4039, 1897.584
161.8860, 1917.199
162.3681, 1932.135
162.8502, 1938.653
163.3324, 1944.257
163.8145, 1952.503
164.2966, 1962.802
164.7787, 1971.640
165.2608, 1974.520
165.7429, 1967.723
166.2251, 1969.478
166.7072, 1986.207
167.1893, 2005.855
167.6714, 2020.041
168.1535, 2027.275
168.6356, 2031.826
169.1178, 2039.942
169.5999, 2055.234
170.0820, 2064.834
170.5641, 2059.433
171.0462, 2051.096
171.5283, 2054.955
172.0105, 2076.363
172.4926, 2107.435
172.9747, 2134.836
173.4568, 2159.266
173.9389, 2180.123
174.4210, 2192.349
174.9032, 2200.558
175.3853, 2216.688
175.8674, 2247.441
176.3495, 2285.509
176.8316, 2317.712
177.3137, 2344.213
177.7959, 2365.633
178.2780, 2378.584
178.7601, 2384.249
179.2422, 2394.829
179.7243, 2414.718
180.2064, 2443.620
180.6886, 2483.080
181.1707, 2542.245
181.6528, 2596.633
182.1349, 2613.391
182.6170, 2585.288
183.0991, 2563.286
183.5813, 2579.800
184.0634, 2611.580
184.5455, 2637.276
185.0276, 2648.798
185.5097, 2652.450
185.9918, 2659.899
186.4740, 2673.157
186.9561, 2685.803
187.4382, 2699.726
187.9203, 2710.728
188.4024, 2713.040
188.8845, 2702.676
189.3667, 2681.906
189.8488, 2659.392
190.3309, 2633.150
190.8130, 2607.760
191.2951, 2586.859
191.7772, 2567.418
192.2594, 2544.001
192.7415, 2512.030
193.2236, 2471.991
193.7057, 2436.030
194.1878, 2396.832
194.6699, 2369.533
195.1521, 2365.475
195.6342, 2377.592
196.1163, 2390.817
196.5984, 2393.290
197.0805, 2384.671
197.5626, 2367.466
198.0448, 2327.778
198.5269, 2292.604
199.0090, 2271.619
199.4911, 2265.033
199.9732, 2268.972
200.4553, 2280.507
200.9375, 2302.516
201.4196, 2320.400
201.9017, 2337.486
202.3838, 2349.010
202.8659, 2346.656
203.3480, 2332.306
203.8302, 2320.128
204.3123, 2328.264
204.7944, 2368.172
205.2765, 2395.946
205.7586, 2401.845
206.2407, 2402.559
206.7229, 2413.430
207.2050, 2437.073
207.6871, 2461.924
208.1692, 2471.570
208.6513, 2458.056
209.1334, 2448.337
209.6156, 2445.239
210.0977, 2445.714
210.5798, 2446.813
211.0619, 2447.772
211.5440, 2448.851
212.0261, 2449.747
212.5083, 2448.662
212.9904, 2453.156
213.4725, 2468.697
213.9546, 2489.719
214.4367, 2509.896
214.9188, 2528.719
215.4010, 2541.662
215.8831, 2538.076
216.3652, 2516.771
216.8473, 2492.869
217.3294, 2463.392
217.8115, 2434.942
218.2937, 2424.513
218.7758, 2441.807
219.2579, 2472.701
219.7400, 2494.459
220.2221, 2505.727
220.7042, 2516.114
221.1864, 2531.319
221.6685, 2549.879
222.1506, 2565.505
222.6327, 2574.537
223.1148, 2581.673
223.5969, 2593.332
224.0791, 2610.071
224.5612, 2629.023
225.0433, 2648.642
225.5254, 2669.028
226.0075, 2689.666
226.4896, 2705.054
226.9718, 2726.038
227.4539, 2767.514
227.9360, 2835.196
228.4181, 2901.778
228.9002, 2942.486
229.3823, 2957.231
229.8645, 2971.911
230.3466, 2991.740
230.8287, 3017.103
231.3108, 3049.321
231.7929, 3089.501
232.2750, 3131.526
232.7572, 3168.719
233.2393, 3200.549
233.7214, 3232.699
234.2035, 3268.215
234.6856, 3303.903
235.1677, 3336.827
235.6499, 3365.725
236.1320, 3394.477
236.6141, 3432.626
237.0962, 3485.308
237.5783, 3520.188
238.0604, 3515.851
238.5426, 3496.449
239.0247, 3477.001
239.5068, 3461.429
239.9889, 3446.577
240.4710, 3430.953
240.9531, 3418.240
241.4353, 3391.043
241.9174, 3336.146
242.3995, 3270.799
242.8816, 3205.031
243.3637, 3140.869
243.8458, 3081.249
244.3280, 3031.572
244.8101, 2995.474
245.2922, 2959.364
245.7743, 2923.484
246.2564, 2884.834
246.7385, 2837.697
247.2207, 2780.225
247.7028, 2722.825
248.1849, 2684.737
248.6670, 2674.492
249.1491, 2663.666
249.6312, 2652.243
250.1134, 2635.841
250.5955, 2607.529
251.0776, 2565.009
251.5597, 2519.003
252.0418, 2490.843
252.5239, 2496.592
253.0061, 2485.444
253.4882, 2431.588
253.9703, 2371.662
254.4524, 2336.809
254.9345, 2337.091
255.4166, 2355.644
255.8988, 2361.677
256.3809, 2349.508
256.8630, 2335.605
257.3451, 2324.691
257.8272, 2311.538
258.3094, 2287.304
258.7915, 2250.047
259.2736, 2212.821
259.7557, 2203.087
260.2378, 2246.819
260.7199, 2266.856
261.2021, 2241.166
261.6842, 2203.287
262.1663, 2177.548
262.6484, 2171.703
263.1305, 2179.750
263.6126, 2192.517
264.0948, 2214.931
264.5769, 2232.242
265.0590, 2244.650
265.5411, 2252.087
266.0232, 2252.173
266.5053, 2244.996
266.9875, 2236.251
267.4696, 2236.354
267.9517, 2253.771
268.4338, 2263.415
268.9159, 2252.390
269.3980, 2242.269
269.8802, 2252.251
270.3623, 2285.534
270.8444, 2327.506
271.3265, 2355.156
271.8086, 2363.004
272.2907, 2366.539
272.7729, 2354.737
273.2550, 2346.979
273.7371, 2360.400
274.2192, 2396.709
274.7013, 2440.650
275.1834, 2471.054
275.6656, 2481.736
276.1477, 2491.762
276.6298, 2492.194
277.1119, 2498.312
277.5940, 2524.902
278.0761, 2571.334
278.5583, 2621.279
279.0404, 2653.005
279.5225, 2657.550
280.0046, 2668.172
280.4867, 2686.216
280.9688, 2707.972
281.4510, 2720.935
281.9331, 2711.754
282.4152, 2759.226
282.8973, 2796.750
283.3794, 2824.858
283.8615, 2815.353
284.3437, 2854.422
284.8258, 2874.023
285.3079, 2892.823
285.7900, 2938.725
286.2721, 2934.689
286.7542, 2980.161
287.2364, 3005.875
287.7185, 2997.690
288.2006, 2955.433
288.6827, 2931.337
289.1648, 2971.172
289.6469, 3055.950
290.1291, 3124.212
290.6112, 3115.883
291.0933, 3022.688
291.5754, 2958.878
292.0575, 2948.986
292.5396, 2943.976
293.0218, 2931.842
293.5039, 2911.772
293.9860, 2886.480
294.4681, 2857.709
294.9502, 2825.556
295.4323, 2791.724
295.9145, 2753.191
296.3966, 2716.282
296.8787, 2685.823
297.3608, 2657.882
297.8429, 2624.840
298.3250, 2580.407
298.8072, 2526.705
299.2893, 2481.659
299.7714, 2454.403
300.2535, 2426.254
300.7356, 2394.408
301.2177, 2359.325
301.6999, 2320.908
302.1820, 2278.803
302.6641, 2234.730
303.1462, 2195.543
303.6283, 2161.316
304.1104, 2132.243
304.5926, 2113.360
305.0747, 2097.432
305.5568, 2075.567
306.0389, 2043.618
306.5210, 2005.883
307.0031, 1973.278
307.4853, 1945.554
307.9674, 1924.348
308.4495, 1915.161
308.9316, 1908.809
309.4137, 1896.900
309.8958, 1876.498
310.3780, 1851.166
310.8601, 1825.392
311.3422, 1794.260
311.8243, 1774.819
312.3064, 1774.546
312.7885, 1781.093
313.2707, 1787.912
313.7528, 1792.871
314.2349, 1794.513
314.7170, 1788.980
315.1991, 1772.327
315.6812, 1762.678
316.1634, 1769.057
316.6455, 1776.824
317.1276, 1776.311
317.6097, 1767.697
318.0918, 1759.959
318.5739, 1762.862
319.0561, 1777.463
319.5382, 1793.573
320.0203, 1820.731
320.5024, 1840.136
320.9845, 1836.443
321.4666, 1815.299
321.9488, 1797.689
322.4309, 1803.216
322.9130, 1830.560
323.3951, 1850.918
323.8772, 1858.287
324.3593, 1865.825
324.8415, 1880.594
325.3236, 1900.037
325.8057, 1918.129
326.2878, 1930.255
326.7699, 1938.463
327.2520, 1950.601
327.7342, 1968.202
328.2163, 1987.372
328.6984, 2006.646
329.1805, 2026.166
329.6626, 2045.680
330.1447, 2063.724
330.6269, 2083.353
331.1090, 2112.472
331.5911, 2154.895
332.0732, 2193.889
332.5553, 2221.100
333.0374, 2241.655
333.5196, 2260.107
334.0017, 2277.913
334.4838, 2293.280
334.9659, 2300.885
335.4480, 2299.674
335.9301, 2306.849
336.4123, 2333.105
336.8944, 2368.000
337.3765, 2401.964
337.8586, 2435.099
338.3407, 2463.108
338.8228, 2479.514
339.3050, 2486.214
339.7871, 2496.457
340.2692, 2516.601
340.7513, 2537.462
341.2334, 2547.413
341.7155, 2546.098
342.1977, 2546.786
342.6798, 2561.409
343.1619, 2582.384
343.6440, 2589.378
344.1261, 2574.801
344.6082, 2557.239
345.0904, 2559.843
345.5725, 2578.858
346.0546, 2592.988
346.5367, 2591.291
347.0188, 2584.348
347.5009, 2586.456
347.9831, 2599.270
348.4652, 2613.268
348.9473, 2620.548
349.4294, 2621.892
349.9115, 2624.932
350.3936, 2628.105
350.8758, 2634.660
351.3579, 2648.237
351.8400, 2667.955
352.3221, 2689.057
352.8042, 2709.214
353.2863, 2728.270
353.7685, 2746.014
354.2506, 2753.199
354.7327, 2769.035
355.2148, 2805.109
355.6969, 2854.654
356.1790, 2905.818
356.6612, 2954.457
357.1433, 2998.467
357.6254, 3032.275
358.1075, 3051.238
358.5896, 3067.701
359.0717, 3079.100
359.5539, 3090.390
360.0360, 3103.676
360.5181, 3120.149
361.0002, 3148.191
361.4823, 3203.449
361.9644, 3312.223
362.4466, 3380.567
362.9287, 3404.189
363.4108, 3394.647
363.8929, 3343.361
364.3750, 3259.688
364.8571, 3178.669
365.3393, 3134.690
365.8214, 3132.327
366.3035, 3128.347
366.7856, 3118.326
367.2677, 3111.205
367.7498, 3112.651
368.2320, 3119.428
368.7141, 3122.910
369.1962, 3115.771
369.6783, 3102.430
370.1604, 3109.123
370.6425, 3145.881
371.1247, 3191.894
371.6068, 3250.027
372.0889, 3312.104
372.5710, 3365.530
373.0531, 3404.753
373.5352, 3442.644
374.0174, 3505.793
374.4995, 3604.379
374.9816, 3702.170
375.4637, 3784.612
375.9458, 3870.266
376.4279, 3966.109
376.9101, 4074.762
377.3922, 4206.589
377.8743, 4392.522
378.3564, 4635.286
378.8385, 4818.292
379.3206, 4871.246
379.8028, 4922.796
380.2849, 5063.433
380.7670, 5274.614
381.2491, 5477.654
381.7312, 5617.543
382.2133, 5712.704
382.6955, 5816.921
383.1776, 5936.138
383.6597, 6049.804
384.1418, 6156.412
384.6239, 6247.771
385.1060, 6303.527
385.5882, 6317.028
386.0703, 6293.979
386.5524, 6236.932
387.0345, 6146.132
387.5166, 6031.591
387.9987, 5898.931
388.4809, 5742.305
388.9630, 5555.167
389.4451, 5326.718
389.9272, 5090.454
390.4093, 4854.175
390.8914, 4622.325
391.3736, 4405.149
391.8557, 4206.020
392.3378, 4021.526
392.8199, 3849.750
393.3020, 3693.606
393.7841, 3535.324
394.2663, 3362.084
394.7484, 3192.356
395.2305, 3044.834
395.7126, 2921.192
396.1947, 2816.688
396.6768, 2728.984
397.1590, 2660.406
397.6411, 2583.587
398.1232, 2484.905
398.6053, 2393.594
399.0874, 2320.125
399.5695, 2263.423
400.0517, 2220.696
400.5338, 2191.155
401.0159, 2171.184
401.4980, 2145.528
401.9801, 2102.396
402.4622, 2068.897
402.9444, 2047.080
403.4265, 2035.546
403.9086, 2028.943
404.3907, 2026.780
404.8728, 2039.818
405.3549, 2096.200
405.8371, 2229.607
406.3192, 2301.100
406.8013, 2251.849
407.2834, 2185.735
407.7655, 2147.831
408.2477, 2139.811
408.7298, 2143.407
409.2119, 2144.145
409.6940, 2143.546
410.1761, 2155.231
410.6582, 2189.091
411.1404, 2218.641
411.6225, 2227.178
412.1046, 2225.068
412.5867, 2229.358
413.0688, 2250.951
413.5509, 2275.166
414.0331, 2282.719
414.5152, 2273.272
414.9973, 2251.248
415.4794, 2212.480
415.9615, 2165.187
416.4436, 2121.233
416.9258, 2081.656
417.4079, 2042.253
417.8900, 2000.895
418.3721, 1957.835
418.8542, 1913.037
419.3363, 1865.834
419.8185, 1819.321
420.3006, 1779.414
420.7827, 1746.804
421.2648, 1703.076
421.7469, 1628.776
422.2290, 1555.120
422.7112, 1508.350
423.1933, 1487.457
423.6754, 1478.113
424.1575, 1473.658
424.6396, 1471.874
425.1217, 1453.130
425.6039, 1398.008
426.0860, 1351.605
426.5681, 1329.731
427.0502, 1320.854
427.5323, 1308.109
428.0144, 1285.267
428.4966, 1258.964
428.9787, 1241.630
429.4608, 1237.880
429.9429, 1234.032
430.4250, 1231.284
430.9071, 1227.515
431.3893, 1222.709
431.8714, 1215.992
432.3535, 1204.557
432.8356, 1182.405
433.3177, 1150.966
433.7998, 1137.228
434.2820, 1152.524
434.7641, 1170.343
435.2462, 1185.692
435.7283, 1196.171
436.2104, 1197.048
436.6925, 1184.034
437.1747, 1166.787
437.6568, 1158.877
438.1389, 1160.775
438.6210, 1168.047
439.1031, 1185.227
439.5852, 1202.520
440.0674, 1208.081
440.5495, 1200.529
441.0316, 1194.686
441.5137, 1200.426
441.9958, 1213.191
442.4779, 1222.484
442.9601, 1226.052
443.4422, 1231.531
443.9243, 1248.447
444.4064, 1275.441
444.8885, 1293.392
445.3706, 1295.286
445.8528, 1293.264
446.3349, 1292.473
446.8170, 1293.804
447.2991, 1298.659
447.7812, 1307.605
448.2633, 1320.844
448.7455, 1338.949
449.2276, 1366.191
449.7097, 1392.851
450.1918, 1423.381
450.6739, 1450.324
451.1560, 1464.019
451.6382, 1464.310
452.1203, 1461.802
452.6024, 1467.543
453.0845, 1481.555
453.5666, 1503.311
454.0487, 1542.532
454.5309, 1580.068
455.0130, 1608.401
455.4951, 1631.045
455.9772, 1654.791
456.4593, 1683.176
456.9415, 1714.545
457.4236, 1744.198
457.9057, 1770.532
458.3878, 1801.087
458.8699, 1850.295
459.3521, 1897.211
459.8342, 1919.330
460.3163, 1913.284
460.7984, 1911.292
461.2805, 1942.147
461.7626, 1995.013
462.2448, 2034.159
462.7269, 2051.205
463.2090, 2068.477
463.6911, 2112.280
464.1732, 2175.457
464.6553, 2219.491
465.1375, 2230.806
465.6196, 2229.497
466.1017, 2224.553
466.5838, 2217.810
467.0659, 2214.568
467.5480, 2218.098
468.0302, 2224.670
468.5123, 2225.303
468.9944, 2224.577
469.4765, 2209.958
469.9586, 2172.326
470.4407, 2126.081
470.9229, 2082.500
471.4050, 2043.394
471.8871, 2005.202
472.3692, 1965.932
472.8513, 1925.906
473.3334, 1874.499
473.8156, 1796.268
474.2977, 1723.761
474.7798, 1667.478
475.2619, 1621.189
475.7440, 1575.006
476.2261, 1524.554
476.7083, 1475.597
477.1904, 1440.034
477.6725, 1420.702
478.1546, 1393.109
478.6367, 1346.474
479.1188, 1295.258
479.6010, 1247.894
480.0831, 1205.240
480.5652, 1171.687
481.0473, 1154.306
481.5294, 1145.415
482.0115, 1132.358
482.4937, 1114.150
482.9758, 1095.981
483.4579, 1082.835
483.9400, 1072.013
484.4221, 1052.481
484.9042, 1012.256
485.3864, 978.3526
485.8685, 966.1116
486.3506, 964.3555
486.8327, 954.4251
487.3148, 931.0911
487.7969, 905.6699
488.2791, 895.5041
488.7612, 909.4212
489.2433, 906.7430
489.7254, 871.7095
490.2075, 838.4225
490.6896, 822.8677
491.1718, 821.3777
491.6539, 823.2990
492.1360, 822.7432
492.6181, 820.5065
493.1002, 819.6255
493.5823, 822.6887
494.0645, 820.2333
494.5466, 806.3784
495.0287, 788.5700
495.5108, 767.4770
495.9929, 744.1069
496.4750, 731.6829
496.9572, 748.1733
497.4393, 782.8187
497.9214, 803.3689
498.4035, 805.0853
498.8856, 802.2026
499.3677, 805.1958
499.8499, 811.5287
500.3320, 812.0335
500.8141, 800.1884
501.2962, 788.7621
501.7783, 786.0611
502.2604, 788.2885
502.7426, 787.5931
503.2247, 781.2894
503.7068, 771.9761
504.1889, 763.5285
504.6710, 756.3257
505.1531, 748.9399
505.6353, 744.2179
506.1174, 736.7173
506.5995, 718.1910
507.0816, 694.3950
507.5637, 679.6995
508.0458, 684.0604
508.5280, 701.2237
509.0101, 711.7332
509.4922, 712.1058
509.9743, 714.0388
510.4564, 721.5934
510.9385, 730.5773
511.4207, 739.3302
511.9028, 747.2735
512.3849, 751.3529
512.8670, 747.1969
513.3491, 737.6002
513.8312, 730.4581
514.3134, 726.7344
514.7955, 723.1096
515.2776, 715.2010
515.7597, 706.0076
516.2418, 705.3527
516.7239, 722.7097
517.2061, 737.0415
517.6882, 737.8087
518.1703, 729.4990
518.6524, 718.3893
519.1345, 706.3085
519.6166, 695.1859
520.0988, 687.5866
520.5809, 684.2340
521.0630, 681.4456
521.5451, 681.6688
522.0272, 679.8561
522.5093, 670.7256
522.9915, 658.5607
523.4736, 651.9654
523.9557, 655.6879
524.4378, 664.1951
524.9199, 665.5521
525.4020, 657.5085
525.8842, 652.2136
526.3663, 653.3455
526.8484, 656.7637
527.3305, 660.2339
527.8126, 663.5391
528.2947, 666.1078
528.7769, 667.4630
529.2590, 668.0084
529.7411, 667.3361
530.2232, 665.5239
530.7053, 666.6097
531.1874, 673.6239
531.6696, 684.2791
532.1517, 692.6021
532.6338, 699.8614
533.1159, 702.9690
533.5980, 696.9387
534.0801, 689.0802
534.5623, 687.3708
535.0444, 692.2635
535.5265, 697.7780
536.0086, 697.9087
536.4907, 693.2089
536.9728, 695.6859
537.4550, 712.3965
537.9371, 727.2163
538.4192, 738.1657
538.9013, 745.0101
539.3834, 746.4532
539.8655, 742.2756
540.3477, 736.8877
540.8298, 735.1061
541.3119, 736.4290
541.7940, 736.3425
542.2761, 733.0447
542.7582, 731.4690
543.2404, 735.4050
543.7225, 743.9211
544.2046, 755.3580
544.6867, 777.1290
545.1688, 793.3166
545.6509, 786.0544
546.1331, 766.9623
546.6152, 761.7509
547.0973, 778.7031
547.5794, 807.7498
548.0615, 837.1791
548.5436, 870.7536
549.0258, 888.9688
549.5079, 876.3166
549.9900, 866.8178
550.4721, 876.3320
550.9542, 898.8086
551.4363, 920.9963
551.9185, 936.2606
552.4006, 950.6310
552.8827, 975.1299
553.3648, 1010.892
553.8469, 1050.763
554.3290, 1100.679
554.8112, 1146.753
555.2933, 1171.944
555.7754, 1182.264
556.2575, 1205.681
556.7396, 1263.174
557.2217, 1331.519
557.7039, 1383.070
558.1860, 1421.549
558.6681, 1470.994
559.1502, 1544.284
559.6323, 1626.877
560.1144, 1690.173
560.5966, 1715.809
561.0787, 1763.165
561.5608, 1847.755
562.0429, 1941.998
562.5250, 2032.540
563.0071, 2117.260
563.4893, 2193.706
563.9714, 2258.452
564.4535, 2319.486
564.9356, 2403.569
565.4177, 2522.257
565.8998, 2630.220
566.3820, 2715.336
566.8641, 2787.548
567.3462, 2853.570
567.8283, 2913.317
568.3104, 2962.130
568.7925, 3005.789
569.2747, 3033.130
569.7568, 3022.953
570.2389, 2976.297
570.7210, 2916.147
571.2031, 2853.136
571.6852, 2784.323
572.1674, 2701.800
572.6495, 2599.064
573.1316, 2497.568
573.6137, 2400.567
574.0958, 2303.544
574.5779, 2203.768
575.0601, 2100.460
575.5422, 1991.047
576.0243, 1871.576
576.5064, 1748.412
576.9885, 1648.165
577.4706, 1575.739
577.9528, 1515.652
578.4349, 1474.897
578.9170, 1438.044
579.3991, 1394.581
579.8812, 1343.890
580.3633, 1292.847
580.8455, 1239.665
581.3276, 1190.760
581.8097, 1161.460
582.2918, 1151.223
582.7739, 1134.682
583.2560, 1096.574
583.7382, 1046.976
584.2203, 1010.528
584.7024, 990.7941
585.1845, 975.9091
585.6666, 969.9022
586.1487, 964.4863
586.6309, 951.4916
