##NAMES=Erionite-Ca
##RRUFFID=R060836
##IDEAL CHEMISTRY=Ca_5_(Si_26_Al_10_O_72_)&#183;30H_2_O
##LOCALITY=Moeraki, Otago, South Island, New Zealand
##OWNER=RRUFF
##SOURCE=Michael Scott
##DESCRIPTION=Radiating group of colorless acicular hexagonal prisms
##STATUS=The identification of this mineral is confirmed by single-crystal X-ray diffraction and chemical analysis.
##URL=rruff.info/R060836
##MEASURED CHEMISTRY=(Ca_2.08_K_1.21_Na_0.94_Mg_0.77_Fe^3+^_0.41_Cr_0.10_)_Σ=5.51_(Si_26.62_Al_9.38_)O_72_·23.41H_2_O; H_2_O estimated by difference
161.0610, 1574.606
161.5431, 1578.242
162.0252, 1585.772
162.5073, 1596.173
162.9895, 1607.507
163.4716, 1625.527
163.9537, 1636.360
164.4358, 1632.988
164.9179, 1624.623
165.4000, 1621.923
165.8822, 1628.983
166.3643, 1641.981
166.8464, 1652.573
167.3285, 1658.528
167.8106, 1665.265
168.2927, 1676.933
168.7749, 1688.577
169.2570, 1692.822
169.7391, 1686.398
170.2212, 1673.962
170.7033, 1666.587
171.1854, 1669.099
171.6676, 1668.979
172.1497, 1662.954
172.6318, 1653.551
173.1139, 1644.661
173.5960, 1637.950
174.0781, 1631.767
174.5603, 1621.844
175.0424, 1607.243
175.5245, 1591.156
176.0066, 1572.205
176.4887, 1552.427
176.9708, 1535.809
177.4530, 1524.249
177.9351, 1515.314
178.4172, 1502.330
178.8993, 1479.410
179.3814, 1463.038
179.8635, 1461.327
180.3457, 1468.331
180.8278, 1474.855
181.3099, 1478.119
181.7920, 1477.064
182.2741, 1467.009
182.7562, 1441.896
183.2384, 1421.873
183.7205, 1416.330
184.2026, 1419.339
184.6847, 1419.961
185.1668, 1413.994
185.6489, 1403.763
186.1311, 1393.940
186.6132, 1383.902
187.0953, 1375.326
187.5774, 1367.939
188.0595, 1362.405
188.5416, 1361.150
189.0238, 1366.257
189.5059, 1373.438
189.9880, 1373.838
190.4701, 1367.904
190.9522, 1357.137
191.4343, 1335.682
191.9165, 1310.183
192.3986, 1294.263
192.8807, 1293.415
193.3628, 1302.053
193.8449, 1310.710
194.3270, 1320.323
194.8092, 1327.670
195.2913, 1331.813
195.7734, 1333.036
196.2555, 1331.427
196.7376, 1326.527
197.2197, 1320.025
197.7019, 1314.855
198.1840, 1311.126
198.6661, 1307.606
199.1482, 1304.990
199.6303, 1302.163
200.1124, 1296.507
200.5946, 1286.610
201.0767, 1275.419
201.5588, 1267.186
202.0409, 1260.960
202.5230, 1259.393
203.0051, 1267.980
203.4873, 1280.765
203.9694, 1286.911
204.4515, 1282.531
204.9336, 1274.296
205.4157, 1272.453
205.8978, 1277.604
206.3800, 1281.768
206.8621, 1283.260
207.3442, 1282.498
207.8263, 1279.406
208.3084, 1273.546
208.7905, 1267.440
209.2727, 1265.620
209.7548, 1268.773
210.2369, 1268.523
210.7190, 1257.100
211.2011, 1243.491
211.6832, 1242.401
212.1654, 1258.008
212.6475, 1275.681
213.1296, 1275.915
213.6117, 1257.469
214.0938, 1244.723
214.5760, 1245.528
215.0581, 1251.964
215.5402, 1254.257
216.0223, 1250.639
216.5044, 1247.738
216.9865, 1254.057
217.4687, 1270.227
217.9508, 1280.983
218.4329, 1281.388
218.9150, 1277.715
219.3971, 1276.186
219.8792, 1277.482
220.3614, 1277.871
220.8435, 1272.517
221.3256, 1261.225
221.8077, 1256.710
222.2898, 1266.182
222.7719, 1277.897
223.2541, 1281.815
223.7362, 1277.708
224.2183, 1272.201
224.7004, 1270.793
225.1825, 1273.406
225.6646, 1272.837
226.1468, 1262.189
226.6289, 1254.011
227.1110, 1258.474
227.5931, 1274.095
228.0752, 1291.238
228.5573, 1304.332
229.0395, 1312.850
229.5216, 1315.148
230.0037, 1308.130
230.4858, 1298.555
230.9679, 1288.568
231.4500, 1278.589
231.9322, 1268.286
232.4143, 1255.715
232.8964, 1243.437
233.3785, 1230.308
233.8606, 1252.192
234.3427, 1264.937
234.8249, 1269.035
235.3070, 1238.587
235.7891, 1252.748
236.2712, 1249.032
236.7533, 1244.583
237.2354, 1265.023
237.7176, 1239.600
238.1997, 1259.645
238.6818, 1259.487
239.1639, 1270.511
239.6460, 1279.176
240.1281, 1280.999
240.6103, 1277.553
241.0924, 1272.472
241.5745, 1264.284
242.0566, 1256.485
242.5387, 1247.075
243.0208, 1239.116
243.5030, 1237.138
243.9851, 1242.459
244.4672, 1251.053
244.9493, 1256.095
245.4314, 1256.922
245.9135, 1254.584
246.3957, 1244.832
246.8778, 1234.532
247.3599, 1231.588
247.8420, 1236.756
248.3241, 1242.052
248.8062, 1236.137
249.2884, 1211.308
249.7705, 1197.002
250.2526, 1200.560
250.7347, 1207.331
251.2168, 1208.396
251.6989, 1203.184
252.1811, 1196.174
252.6632, 1191.650
253.1453, 1189.816
253.6274, 1189.473
254.1095, 1193.203
254.5916, 1195.797
255.0738, 1193.484
255.5559, 1187.861
256.0380, 1183.620
256.5201, 1184.693
257.0022, 1190.996
257.4843, 1196.406
257.9665, 1202.045
258.4486, 1205.470
258.9307, 1205.515
259.4128, 1202.979
259.8949, 1198.693
260.3770, 1192.695
260.8592, 1186.067
261.3413, 1183.987
261.8234, 1190.098
262.3055, 1196.147
262.7876, 1202.914
263.2697, 1207.985
263.7519, 1207.664
264.2340, 1200.041
264.7161, 1188.875
265.1982, 1182.740
265.6803, 1183.863
266.1624, 1185.376
266.6446, 1187.818
267.1267, 1189.131
267.6088, 1186.115
268.0909, 1178.005
268.5730, 1170.174
269.0551, 1171.573
269.5373, 1185.133
270.0194, 1194.176
270.5015, 1194.349
270.9836, 1190.159
271.4657, 1182.452
271.9478, 1171.751
272.4300, 1160.691
272.9121, 1149.835
273.3942, 1139.390
273.8763, 1136.120
274.3584, 1148.169
274.8405, 1159.025
275.3227, 1156.504
275.8048, 1143.282
276.2869, 1130.767
276.7690, 1124.490
277.2511, 1124.233
277.7332, 1131.322
278.2154, 1150.658
278.6975, 1166.607
279.1796, 1165.916
279.6617, 1154.672
280.1438, 1144.959
280.6259, 1141.722
281.1081, 1141.945
281.5902, 1142.648
282.0723, 1144.321
282.5544, 1142.208
283.0365, 1128.509
283.5186, 1110.634
284.0008, 1103.306
284.4829, 1114.474
284.9650, 1128.382
285.4471, 1134.339
285.9292, 1132.694
286.4113, 1125.050
286.8935, 1109.603
287.3756, 1090.749
287.8577, 1076.928
288.3398, 1067.938
288.8219, 1063.630
289.3040, 1066.563
289.7862, 1073.802
290.2683, 1079.559
290.7504, 1081.877
291.2325, 1083.150
291.7146, 1087.689
292.1967, 1097.316
292.6789, 1102.673
293.1610, 1096.454
293.6431, 1088.659
294.1252, 1091.161
294.6073, 1105.185
295.0894, 1120.637
295.5716, 1127.218
296.0537, 1123.157
296.5358, 1120.654
297.0179, 1119.836
297.5000, 1120.241
297.9821, 1122.453
298.4643, 1125.818
298.9464, 1128.177
299.4285, 1127.512
299.9106, 1124.430
300.3927, 1126.542
300.8748, 1138.590
301.3570, 1150.287
301.8391, 1160.378
302.3212, 1168.522
302.8033, 1174.223
303.2854, 1177.192
303.7675, 1178.289
304.2497, 1179.615
304.7318, 1179.894
305.2139, 1182.735
305.6960, 1188.999
306.1781, 1197.228
306.6602, 1208.715
307.1424, 1222.763
307.6245, 1233.473
308.1066, 1229.832
308.5887, 1205.237
309.0708, 1193.151
309.5529, 1204.700
310.0351, 1221.250
310.5172, 1239.028
310.9993, 1255.457
311.4814, 1265.064
311.9635, 1258.540
312.4456, 1239.183
312.9278, 1234.711
313.4099, 1255.352
313.8920, 1275.044
314.3741, 1283.301
314.8562, 1282.296
315.3383, 1274.286
315.8205, 1254.792
316.3026, 1234.515
316.7847, 1233.803
317.2668, 1256.217
317.7489, 1276.613
318.2310, 1284.351
318.7132, 1283.876
319.1953, 1280.220
319.6774, 1272.664
320.1595, 1265.335
320.6416, 1259.881
321.1237, 1256.811
321.6059, 1259.073
322.0880, 1269.027
322.5701, 1282.141
323.0522, 1292.987
323.5343, 1301.889
324.0164, 1307.567
324.4986, 1305.163
324.9807, 1301.277
325.4628, 1305.436
325.9449, 1319.027
326.4270, 1335.249
326.9091, 1349.189
327.3913, 1360.630
327.8734, 1365.055
328.3555, 1354.075
328.8376, 1343.980
329.3197, 1344.455
329.8018, 1353.594
330.2840, 1365.271
330.7661, 1376.426
331.2482, 1386.281
331.7303, 1391.164
332.2124, 1383.538
332.6945, 1380.155
333.1767, 1389.772
333.6588, 1401.782
334.1409, 1402.869
334.6230, 1388.936
335.1051, 1368.326
335.5873, 1353.720
336.0694, 1345.276
336.5515, 1343.365
337.0336, 1352.090
337.5157, 1363.041
337.9979, 1375.097
338.4800, 1385.959
338.9621, 1390.176
339.4442, 1381.243
339.9263, 1359.872
340.4084, 1340.944
340.8906, 1322.051
341.3727, 1309.298
341.8548, 1308.690
342.3369, 1314.229
342.8190, 1315.900
343.3011, 1308.040
343.7833, 1296.372
344.2654, 1291.011
344.7475, 1293.065
345.2296, 1294.523
345.7117, 1293.487
346.1938, 1289.733
346.6760, 1281.608
347.1581, 1267.605
347.6402, 1256.609
348.1223, 1257.876
348.6044, 1267.069
349.0865, 1270.048
349.5687, 1262.645
350.0508, 1252.115
350.5329, 1247.448
351.0150, 1248.197
351.4971, 1245.054
351.9792, 1231.012
352.4614, 1216.054
352.9435, 1211.007
353.4256, 1215.112
353.9077, 1218.193
354.3898, 1212.996
354.8719, 1200.724
355.3541, 1191.190
355.8362, 1184.989
356.3183, 1180.253
356.8004, 1180.373
357.2825, 1180.611
357.7646, 1172.580
358.2468, 1153.136
358.7289, 1129.196
359.2110, 1113.449
359.6931, 1111.031
360.1752, 1107.346
360.6573, 1101.645
361.1395, 1095.512
361.6216, 1089.386
362.1037, 1083.633
362.5858, 1079.094
363.0679, 1077.359
363.5500, 1078.119
364.0322, 1073.977
364.5143, 1058.760
364.9964, 1047.027
365.4785, 1047.345
365.9606, 1052.763
366.4427, 1052.499
366.9249, 1040.749
367.4070, 1025.351
367.8891, 1019.521
368.3712, 1024.451
368.8533, 1026.306
369.3354, 1018.408
369.8176, 1007.820
370.2997, 1001.597
370.7818, 1000.063
371.2639, 1001.002
371.7460, 1004.467
372.2281, 1009.331
372.7103, 1013.891
373.1924, 1018.113
373.6745, 1020.450
374.1566, 1018.760
374.6387, 1013.296
375.1208, 1009.288
375.6030, 1007.670
376.0851, 1006.911
376.5672, 1007.256
377.0493, 1007.815
377.5314, 1005.961
378.0135, 1000.116
378.4957, 991.9032
378.9778, 985.7283
379.4599, 983.4227
379.9420, 980.9709
380.4241, 977.2110
380.9063, 973.9857
381.3884, 974.5991
381.8705, 978.5955
382.3526, 980.4260
382.8347, 972.1475
383.3168, 951.5540
383.7990, 943.2455
384.2811, 963.9487
384.7632, 979.9745
385.2453, 977.7691
385.7274, 964.4010
386.2095, 952.2335
386.6917, 946.9971
387.1738, 946.9518
387.6559, 950.1847
388.1380, 957.9447
388.6201, 962.4642
389.1022, 958.7198
389.5844, 952.5146
390.0665, 948.9016
390.5486, 948.3119
391.0307, 948.9800
391.5128, 951.1209
391.9949, 953.5949
392.4771, 953.1584
392.9592, 948.8588
393.4413, 944.7586
393.9234, 945.3578
394.4055, 949.8458
394.8876, 949.9559
395.3698, 939.6288
395.8519, 930.2537
396.3340, 929.5745
396.8161, 935.0144
397.2982, 940.0678
397.7803, 941.8701
398.2625, 941.3435
398.7446, 940.5715
399.2267, 940.8307
399.7088, 938.6210
400.1909, 930.7152
400.6730, 922.7966
401.1552, 918.9353
401.6373, 919.3995
402.1194, 922.1346
402.6015, 925.8456
403.0836, 930.4066
403.5657, 932.4037
404.0479, 928.5313
404.5300, 926.7547
405.0121, 931.5140
405.4942, 938.7700
405.9763, 943.3876
406.4584, 943.5888
406.9406, 941.0720
407.4227, 937.1303
407.9048, 931.8010
408.3869, 927.7487
408.8690, 925.8953
409.3511, 925.1210
409.8333, 923.8953
410.3154, 922.3447
410.7975, 922.4646
411.2796, 925.2473
411.7617, 929.8601
412.2438, 936.6533
412.7260, 945.2249
413.2081, 951.3029
413.6902, 951.5037
414.1723, 947.3986
414.6544, 946.4236
415.1365, 951.0192
415.6187, 955.0312
416.1008, 956.6507
416.5829, 957.3644
417.0650, 959.0487
417.5471, 962.0923
418.0292, 965.2838
418.5114, 966.9569
418.9935, 966.5952
419.4756, 967.7133
419.9577, 970.4257
420.4398, 974.6055
420.9219, 981.9421
421.4041, 990.4864
421.8862, 997.0623
422.3683, 1000.217
422.8504, 984.0280
423.3325, 1006.900
423.8146, 1020.633
424.2968, 1025.720
424.7789, 996.2604
425.2610, 1011.410
425.7431, 1008.682
426.2252, 1005.221
426.7073, 1026.649
427.1895, 1002.215
427.6716, 1023.248
428.1537, 1026.131
428.6358, 1037.322
429.1179, 1030.524
429.6000, 1034.176
430.0822, 1034.146
430.5643, 1037.008
431.0464, 1047.363
431.5285, 1054.784
432.0106, 1054.211
432.4927, 1049.869
432.9749, 1047.323
433.4570, 1048.111
433.9391, 1049.723
434.4212, 1047.820
434.9033, 1039.468
435.3854, 1041.839
435.8676, 1066.978
436.3497, 1090.623
436.8318, 1104.092
437.3139, 1110.049
437.7960, 1114.213
438.2781, 1119.045
438.7603, 1124.485
439.2424, 1130.467
439.7245, 1137.019
440.2066, 1143.629
440.6887, 1148.419
441.1708, 1155.003
441.6530, 1167.683
442.1351, 1186.340
442.6172, 1203.819
443.0993, 1213.663
443.5814, 1222.338
444.0635, 1240.709
444.5457, 1268.775
445.0278, 1294.759
445.5099, 1310.113
445.9920, 1318.176
446.4741, 1333.643
446.9562, 1360.182
447.4384, 1388.099
447.9205, 1417.439
448.4026, 1446.703
448.8847, 1472.061
449.3668, 1493.924
449.8489, 1518.626
450.3311, 1554.239
450.8132, 1601.413
451.2953, 1643.601
451.7774, 1678.394
452.2595, 1710.861
452.7416, 1739.766
453.2238, 1768.193
453.7059, 1799.055
454.1880, 1832.243
454.6701, 1873.297
455.1522, 1936.065
455.6343, 2017.979
456.1165, 2083.277
456.5986, 2120.533
457.0807, 2147.961
457.5628, 2181.785
458.0449, 2221.052
458.5270, 2262.184
459.0092, 2305.546
459.4913, 2349.568
459.9734, 2393.901
460.4555, 2437.873
460.9376, 2480.879
461.4197, 2522.640
461.9019, 2561.822
462.3840, 2594.598
462.8661, 2617.589
463.3482, 2639.899
463.8303, 2664.381
464.3124, 2685.814
464.7946, 2697.655
465.2767, 2702.929
465.7588, 2711.354
466.2409, 2730.232
466.7230, 2756.617
467.2051, 2781.322
467.6873, 2804.967
468.1694, 2825.138
468.6515, 2839.931
469.1336, 2851.453
469.6157, 2859.938
470.0978, 2865.170
470.5800, 2873.188
471.0621, 2889.310
471.5442, 2909.659
472.0263, 2928.064
472.5084, 2943.946
472.9905, 2958.145
473.4727, 2969.619
473.9548, 2980.021
474.4369, 2998.762
474.9190, 3029.214
475.4011, 3062.086
475.8832, 3095.885
476.3654, 3131.242
476.8475, 3168.220
477.3296, 3207.136
477.8117, 3249.623
478.2938, 3296.759
478.7759, 3348.554
479.2581, 3408.697
479.7402, 3491.814
480.2223, 3561.783
480.7044, 3597.898
481.1865, 3619.568
481.6686, 3653.229
482.1508, 3708.029
482.6329, 3758.974
483.1150, 3779.903
483.5971, 3777.024
484.0792, 3775.314
484.5613, 3779.671
485.0435, 3781.535
485.5256, 3776.357
486.0077, 3762.477
486.4898, 3733.013
486.9719, 3686.196
487.4540, 3625.377
487.9362, 3544.638
488.4183, 3453.012
488.9004, 3364.431
489.3825, 3283.247
489.8646, 3204.684
490.3467, 3122.168
490.8289, 3035.724
491.3110, 2945.990
491.7931, 2850.009
492.2752, 2753.819
492.7573, 2656.727
493.2394, 2560.608
493.7216, 2468.681
494.2037, 2381.907
494.6858, 2298.877
495.1679, 2216.993
495.6500, 2136.579
496.1321, 2059.777
496.6143, 1986.487
497.0964, 1918.908
497.5785, 1862.125
498.0606, 1814.852
498.5427, 1765.887
499.0248, 1708.245
499.5070, 1654.542
499.9891, 1614.327
500.4712, 1582.900
500.9533, 1552.633
501.4355, 1520.588
501.9176, 1484.747
502.3997, 1440.362
502.8818, 1381.733
503.3639, 1335.815
503.8460, 1310.497
504.3282, 1290.581
504.8103, 1273.498
505.2924, 1257.657
505.7745, 1241.447
506.2566, 1224.568
506.7387, 1205.833
507.2209, 1182.291
507.7030, 1154.627
508.1851, 1128.063
508.6672, 1102.012
509.1493, 1081.097
509.6314, 1073.760
510.1136, 1078.726
510.5957, 1075.601
511.0778, 1056.296
511.5599, 1034.766
512.0420, 1016.838
512.5241, 1002.463
513.0062, 992.4544
513.4883, 986.9475
513.9705, 981.1621
514.4526, 966.5441
514.9347, 939.0054
515.4168, 920.3090
515.8989, 915.5519
516.3810, 914.9188
516.8632, 918.4014
517.3453, 922.9074
517.8274, 923.0844
518.3095, 915.9536
518.7916, 907.4775
519.2737, 906.2253
519.7559, 910.0384
520.2380, 906.7974
520.7201, 892.4294
521.2022, 876.6412
521.6843, 867.5393
522.1664, 865.5530
522.6486, 867.3624
523.1307, 881.0068
523.6128, 889.4427
524.0949, 881.8984
524.5770, 866.6249
525.0591, 855.4909
525.5413, 851.9058
526.0234, 851.2665
526.5055, 847.8165
526.9876, 841.2534
527.4697, 836.3956
527.9518, 833.1030
528.4340, 831.9175
528.9161, 835.6984
529.3982, 840.4887
529.8803, 838.3552
530.3624, 824.3467
530.8445, 804.4188
531.3267, 822.8523
531.8088, 832.1486
532.2909, 832.7974
532.7730, 798.9001
533.2551, 809.6120
533.7372, 802.4469
534.2194, 794.5478
534.7015, 811.5385
535.1836, 782.6660
535.6657, 799.2617
536.1478, 799.1400
536.6299, 810.3520
537.1121, 817.8153
537.5942, 820.0593
538.0763, 820.4116
538.5584, 821.3407
539.0405, 822.8755
539.5226, 825.5688
540.0048, 830.1682
540.4869, 833.3720
540.9690, 832.7347
541.4511, 830.8072
541.9332, 830.9824
542.4153, 833.6821
542.8975, 836.1082
543.3796, 835.9182
543.8617, 835.8308
544.3438, 840.0364
544.8259, 847.5491
545.3080, 852.2687
545.7902, 850.2041
546.2723, 845.0613
546.7544, 847.0910
547.2365, 861.1127
547.7186, 873.0102
548.2007, 883.0066
548.6829, 890.4622
549.1650, 893.5574
549.6471, 893.7450
550.1292, 894.8441
550.6113, 899.2654
551.0934, 904.7027
551.5756, 905.0278
552.0577, 901.6815
552.5398, 909.5356
553.0219, 935.4638
553.5040, 965.7853
553.9861, 986.6655
554.4683, 997.0917
554.9504, 1002.723
555.4325, 993.7228
555.9146, 990.5817
556.3967, 1008.273
556.8788, 1034.859
557.3610, 1050.911
557.8431, 1051.198
558.3252, 1049.660
558.8073, 1065.884
559.2894, 1100.119
559.7715, 1124.033
560.2537, 1135.465
560.7358, 1140.631
561.2179, 1137.571
561.7000, 1131.772
562.1821, 1130.941
562.6642, 1137.608
563.1464, 1143.141
563.6285, 1141.957
564.1106, 1137.792
564.5927, 1138.181
565.0748, 1142.201
565.5569, 1138.717
566.0391, 1119.300
566.5212, 1088.492
567.0033, 1063.054
567.4854, 1045.231
567.9675, 1028.995
568.4496, 1014.897
568.9318, 1001.323
569.4139, 987.5167
569.8960, 973.3959
570.3781, 958.7380
570.8602, 942.6857
571.3423, 927.1901
571.8245, 916.1464
572.3066, 908.7941
572.7887, 899.1031
573.2708, 884.8695
573.7529, 869.2622
574.2350, 855.3907
574.7172, 843.3578
575.1993, 833.5325
575.6814, 826.9825
576.1635, 821.2661
576.6456, 817.3624
577.1277, 812.9819
577.6099, 803.9100
578.0920, 789.5917
578.5741, 775.7719
579.0562, 769.7444
579.5383, 770.4037
580.0204, 768.2792
580.5026, 762.6909
580.9847, 756.5797
581.4668, 752.2622
581.9489, 747.6683
582.4310, 737.7559
582.9132, 718.9561
583.3953, 708.0963
583.8774, 717.8010
584.3596, 731.4014
584.8417, 733.3273
585.3238, 725.5152
585.8059, 718.2234
586.2880, 717.0516
586.7701, 719.7074
587.2523, 722.3146
587.7344, 726.3825
588.2165, 723.9924
588.6986, 708.7878
589.1807, 693.5126
589.6628, 684.4749
590.1450, 680.5976
590.6271, 679.6060
591.1092, 682.5026
591.5913, 685.2433
592.0734, 685.3948
592.5555, 683.3290
593.0377, 677.9631
593.5198, 669.6138
594.0019, 665.0903
594.4840, 671.5341
594.9661, 686.5093
595.4482, 690.4927
595.9304, 674.5662
596.4125, 661.6438
596.8946, 654.0253
597.3767, 650.4338
597.8588, 651.9359
598.3409, 657.1780
598.8231, 660.6075
599.3052, 658.1460
599.7873, 653.0884
600.2694, 649.3420
600.7515, 646.8110
601.2336, 644.6956
601.7158, 642.6053
602.1979, 641.7954
602.6800, 644.4986
603.1621, 651.6534
603.6442, 654.1310
604.1263, 647.7913
604.6085, 642.1395
605.0906, 639.3275
605.5727, 638.7565
606.0548, 640.8995
606.5369, 645.3374
607.0190, 647.9681
607.5012, 643.2278
607.9833, 634.2582
608.4654, 631.0557
608.9475, 634.0851
609.4296, 633.2455
609.9117, 621.7900
610.3939, 607.4744
610.8760, 604.4830
611.3581, 617.5351
611.8402, 627.1711
612.3223, 633.3134
612.8044, 635.5892
613.2866, 631.7916
613.7687, 624.5674
614.2508, 617.2699
614.7329, 611.1848
615.2150, 608.0947
615.6971, 613.2109
616.1793, 624.5010
616.6614, 625.9858
617.1435, 614.1008
617.6256, 604.1836
618.1077, 606.0206
618.5898, 614.9754
619.0720, 619.3389
619.5541, 617.4992
620.0362, 615.6929
620.5183, 616.4613
621.0004, 616.2885
621.4825, 611.1442
621.9647, 602.9446
622.4468, 596.6069
622.9289, 594.5617
623.4110, 595.3768
623.8931, 596.7647
624.3752, 598.7260
624.8574, 603.7517
625.3395, 615.0261
625.8216, 622.0471
626.3037, 614.5198
626.7858, 597.7904
627.2679, 588.6681
627.7501, 590.6481
628.2322, 594.2754
628.7143, 598.9880
629.1964, 602.9283
629.6785, 603.9615
630.1606, 602.5537
630.6428, 600.8111
631.1249, 599.9462
631.6070, 599.6053
632.0891, 598.9598
632.5712, 597.9382
633.0533, 597.4193
633.5355, 597.1038
634.0176, 598.0647
634.4997, 601.7780
634.9818, 607.4529
635.4639, 612.6433
635.9460, 618.3116
636.4282, 621.7451
636.9103, 619.5469
637.3924, 616.2747
637.8745, 617.4174
638.3566, 622.5049
638.8387, 626.7521
639.3209, 626.7817
639.8030, 624.5171
640.2851, 625.6323
640.7672, 631.0550
641.2493, 630.8409
641.7314, 620.0131
642.2136, 608.6461
642.6957, 606.0070
643.1778, 609.6475
643.6599, 610.5986
644.1420, 605.8666
644.6241, 601.4169
645.1063, 598.5748
645.5884, 597.4614
646.0705, 600.1665
646.5526, 605.3059
647.0347, 606.7366
647.5168, 599.3394
647.9990, 587.5429
648.4811, 582.8294
648.9632, 586.0217
649.4453, 587.5241
649.9274, 584.8331
650.4095, 581.5138
650.8917, 580.5792
651.3738, 581.5815
651.8559, 582.3461
652.3380, 583.3898
652.8201, 583.3726
653.3022, 580.9073
653.7844, 577.8303
654.2665, 575.6993
