##NAMES=Erionite-Ca
##RRUFFID=R060836
##IDEAL CHEMISTRY=Ca_5_(Si_26_Al_10_O_72_)&#183;30H_2_O
##LOCALITY=Moeraki, Otago, South Island, New Zealand
##OWNER=RRUFF
##SOURCE=Michael Scott
##DESCRIPTION=Radiating group of colorless acicular hexagonal prisms
##STATUS=The identification of this mineral is confirmed by single-crystal X-ray diffraction and chemical analysis.
##URL=rruff.info/R060836
##MEASURED CHEMISTRY=(Ca_2.08_K_1.21_Na_0.94_Mg_0.77_Fe^3+^_0.41_Cr_0.10_)_Σ=5.51_(Si_26.62_Al_9.38_)O_72_·23.41H_2_O; H_2_O estimated by difference
155.7533, 3170.006
156.2354, 3144.561
156.7175, 3124.367
157.1996, 3111.619
157.6817, 3104.861
158.1639, 3102.591
158.6460, 3111.782
159.1281, 3118.815
159.6102, 3117.309
160.0923, 3105.187
160.5744, 3094.019
161.0566, 3092.275
161.5387, 3092.686
162.0208, 3085.084
162.5029, 3055.004
162.9850, 3023.279
163.4671, 3002.570
163.9493, 2998.172
164.4314, 2993.757
164.9135, 2981.684
165.3956, 2964.017
165.8777, 2945.098
166.3598, 2926.516
166.8420, 2907.903
167.3241, 2888.959
167.8062, 2869.453
168.2883, 2850.184
168.7704, 2829.365
169.2525, 2808.458
169.7346, 2792.457
170.2168, 2792.470
170.6989, 2796.394
171.1810, 2789.935
171.6631, 2763.487
172.1452, 2732.022
172.6273, 2707.020
173.1095, 2688.349
173.5916, 2673.389
174.0737, 2661.921
174.5558, 2652.719
175.0379, 2643.830
175.5201, 2632.662
176.0022, 2622.449
176.4843, 2619.256
176.9664, 2623.017
177.4485, 2625.813
177.9306, 2620.094
178.4128, 2607.980
178.8949, 2594.569
179.3770, 2580.240
179.8591, 2566.338
180.3412, 2556.412
180.8233, 2550.987
181.3055, 2544.922
181.7876, 2528.414
182.2697, 2504.907
182.7518, 2487.868
183.2339, 2490.321
183.7160, 2504.200
184.1981, 2507.004
184.6803, 2495.717
185.1624, 2480.274
185.6445, 2476.358
186.1266, 2482.354
186.6087, 2483.765
187.0908, 2467.004
187.5730, 2437.194
188.0551, 2417.552
188.5372, 2411.280
189.0193, 2413.052
189.5014, 2415.100
189.9835, 2417.444
190.4657, 2418.494
190.9478, 2419.052
191.4299, 2418.469
191.9120, 2409.373
192.3941, 2387.477
192.8762, 2360.434
193.3584, 2347.799
193.8405, 2350.778
194.3226, 2355.705
194.8047, 2353.027
195.2868, 2342.849
195.7689, 2328.806
196.2511, 2308.529
196.7332, 2285.922
197.2153, 2275.979
197.6974, 2280.135
198.1795, 2289.773
198.6616, 2299.831
199.1437, 2310.882
199.6259, 2315.580
200.1080, 2310.068
200.5901, 2296.603
201.0722, 2290.073
201.5543, 2292.270
202.0364, 2295.955
202.5186, 2293.466
203.0007, 2283.862
203.4828, 2273.453
203.9649, 2262.270
204.4470, 2250.684
204.9291, 2246.411
205.4113, 2251.049
205.8934, 2259.457
206.3755, 2265.445
206.8576, 2268.025
207.3397, 2272.312
207.8218, 2281.633
208.3040, 2296.472
208.7861, 2302.594
209.2682, 2297.906
209.7503, 2287.583
210.2324, 2278.153
210.7145, 2269.877
211.1967, 2262.184
211.6788, 2253.343
212.1609, 2241.960
212.6430, 2206.348
213.1251, 2252.595
213.6072, 2279.451
214.0894, 2287.957
214.5715, 2223.153
215.0536, 2253.014
215.5357, 2244.937
216.0178, 2235.305
216.4999, 2278.489
216.9820, 2224.348
217.4642, 2266.694
217.9463, 2270.525
218.4284, 2291.983
218.9105, 2275.270
219.3926, 2270.346
219.8747, 2303.607
220.3569, 2315.725
220.8390, 2294.618
221.3211, 2317.197
221.8032, 2261.722
222.2853, 2274.740
222.7674, 2294.038
223.2496, 2300.950
223.7317, 2298.214
224.2138, 2298.545
224.6959, 2303.816
225.1780, 2311.841
225.6601, 2316.516
226.1423, 2315.872
226.6244, 2314.947
227.1065, 2316.793
227.5886, 2324.768
228.0707, 2327.186
228.5528, 2320.219
229.0350, 2307.588
229.5171, 2302.875
229.9992, 2309.579
230.4813, 2318.956
230.9634, 2327.281
231.4455, 2337.501
231.9276, 2339.854
232.4098, 2329.922
232.8919, 2311.349
233.3740, 2301.078
233.8561, 2302.896
234.3382, 2307.780
234.8203, 2310.280
235.3025, 2307.039
235.7846, 2309.062
236.2667, 2321.878
236.7488, 2341.611
237.2309, 2346.084
237.7130, 2325.912
238.1952, 2302.455
238.6773, 2289.016
239.1594, 2291.104
239.6415, 2291.930
240.1236, 2289.258
240.6057, 2283.945
241.0879, 2281.805
241.5700, 2286.347
242.0521, 2289.783
242.5342, 2286.284
243.0163, 2270.383
243.4984, 2258.628
243.9806, 2253.889
244.4627, 2255.052
244.9448, 2254.277
245.4269, 2251.661
245.9090, 2246.779
246.3911, 2238.809
246.8732, 2225.301
247.3554, 2213.503
247.8375, 2204.287
248.3196, 2197.448
248.8017, 2191.296
249.2838, 2184.912
249.7659, 2180.460
250.2481, 2180.719
250.7302, 2191.581
251.2123, 2194.286
251.6944, 2183.622
252.1765, 2161.824
252.6586, 2146.368
253.1408, 2140.431
253.6229, 2136.891
254.1050, 2130.513
254.5871, 2120.089
255.0692, 2109.905
255.5513, 2099.809
256.0334, 2090.215
256.5156, 2083.795
256.9977, 2081.280
257.4798, 2080.885
257.9619, 2081.223
258.4440, 2081.925
258.9261, 2084.520
259.4083, 2091.373
259.8904, 2101.067
260.3725, 2100.824
260.8546, 2085.382
261.3367, 2067.898
261.8188, 2058.904
262.3010, 2061.733
262.7831, 2062.935
263.2652, 2059.207
263.7473, 2052.024
264.2294, 2051.991
264.7115, 2062.621
265.1937, 2074.173
265.6758, 2079.650
266.1579, 2078.677
266.6400, 2072.272
267.1221, 2057.867
267.6042, 2037.860
268.0864, 2027.094
268.5685, 2027.915
269.0506, 2032.936
269.5327, 2037.962
270.0148, 2044.050
270.4969, 2045.383
270.9791, 2040.026
271.4612, 2029.536
271.9433, 2020.688
272.4254, 2013.495
272.9075, 2008.035
273.3896, 2004.476
273.8718, 2002.902
274.3539, 2003.429
274.8360, 2007.631
275.3181, 2013.391
275.8002, 2010.913
276.2823, 1997.284
276.7645, 1985.546
277.2466, 1989.093
277.7287, 2010.811
278.2108, 2018.188
278.6929, 2003.619
279.1750, 1974.620
279.6572, 1951.765
280.1393, 1934.909
280.6214, 1924.854
281.1035, 1923.041
281.5856, 1929.527
282.0677, 1941.085
282.5499, 1960.489
283.0320, 1981.499
283.5141, 1986.552
283.9962, 1974.170
284.4783, 1959.457
284.9604, 1952.096
285.4425, 1951.738
285.9247, 1952.888
286.4068, 1955.977
286.8889, 1958.760
287.3710, 1954.818
287.8531, 1944.013
288.3352, 1935.392
288.8174, 1937.010
289.2995, 1946.856
289.7816, 1952.304
290.2637, 1951.505
290.7458, 1947.015
291.2279, 1941.252
291.7101, 1934.441
292.1922, 1930.166
292.6743, 1933.047
293.1564, 1940.559
293.6385, 1943.698
294.1206, 1941.102
294.6028, 1935.734
295.0849, 1931.124
295.5670, 1927.206
296.0491, 1923.429
296.5312, 1916.621
297.0133, 1910.042
297.4955, 1913.110
297.9776, 1928.061
298.4597, 1945.483
298.9418, 1954.545
299.4239, 1956.776
299.9060, 1957.149
300.3882, 1955.420
300.8703, 1954.136
301.3524, 1959.399
301.8345, 1972.509
302.3166, 1984.258
302.7987, 1980.647
303.2809, 1968.366
303.7630, 1963.404
304.2451, 1941.092
304.7272, 1993.118
305.2093, 2025.752
305.6914, 2040.036
306.1736, 1981.012
306.6557, 2016.651
307.1378, 2014.352
307.6199, 2010.498
308.1020, 2059.459
308.5841, 2034.680
309.0663, 2025.508
309.5484, 2069.151
310.0305, 2050.664
310.5126, 2058.240
310.9947, 2063.747
311.4768, 2065.128
311.9590, 2058.571
312.4411, 2050.153
312.9232, 2041.292
313.4053, 2032.491
313.8874, 2029.493
314.3695, 2040.814
314.8516, 2056.785
315.3337, 2068.230
315.8159, 2069.996
316.2980, 2069.083
316.7801, 2066.486
317.2622, 2062.910
317.7443, 2062.208
318.2264, 2071.333
318.7086, 2080.777
319.1907, 2083.587
319.6728, 2071.440
320.1549, 2061.104
320.6370, 2056.272
321.1191, 2056.680
321.6013, 2061.397
322.0834, 2072.425
322.5655, 2086.009
323.0476, 2100.714
323.5297, 2120.477
324.0118, 2134.600
324.4940, 2139.028
324.9761, 2136.619
325.4582, 2134.316
325.9403, 2129.716
326.4224, 2127.962
326.9045, 2131.480
327.3867, 2144.190
327.8688, 2154.491
328.3509, 2162.852
328.8330, 2168.505
329.3151, 2170.117
329.7972, 2162.265
330.2794, 2156.364
330.7615, 2155.922
331.2436, 2162.518
331.7257, 2168.810
332.2078, 2175.357
332.6899, 2181.343
333.1721, 2185.363
333.6542, 2185.064
334.1363, 2186.998
334.6184, 2193.833
335.1005, 2205.992
335.5826, 2214.400
336.0648, 2218.029
336.5469, 2219.245
337.0290, 2220.875
337.5111, 2224.179
337.9932, 2223.554
338.4753, 2216.393
338.9575, 2203.919
339.4396, 2195.576
339.9217, 2192.549
340.4038, 2190.360
340.8859, 2184.372
341.3680, 2173.976
341.8502, 2166.550
342.3323, 2163.274
342.8144, 2163.866
343.2965, 2170.077
343.7786, 2183.093
344.2607, 2192.597
344.7429, 2188.116
345.2250, 2171.583
345.7071, 2162.837
346.1892, 2166.733
346.6713, 2174.284
347.1534, 2168.999
347.6355, 2151.651
348.1176, 2132.847
348.5998, 2118.115
349.0819, 2106.403
349.5640, 2093.709
350.0461, 2078.663
350.5282, 2066.294
351.0103, 2065.538
351.4925, 2072.851
351.9746, 2077.092
352.4567, 2068.927
352.9388, 2056.036
353.4209, 2050.963
353.9030, 2054.512
354.3852, 2056.330
354.8673, 2046.120
355.3494, 2028.642
355.8315, 2011.820
356.3136, 1996.893
356.7957, 1985.239
357.2779, 1979.085
357.7600, 1978.127
358.2421, 1978.808
358.7242, 1980.810
359.2063, 1982.652
359.6884, 1982.911
360.1706, 1981.783
360.6527, 1978.249
361.1348, 1972.657
361.6169, 1964.438
362.0990, 1951.696
362.5811, 1926.015
363.0633, 1900.624
363.5454, 1883.665
364.0275, 1879.047
364.5096, 1878.206
364.9917, 1882.634
365.4738, 1889.341
365.9560, 1892.144
366.4381, 1889.148
366.9202, 1882.747
367.4023, 1872.367
367.8844, 1854.390
368.3665, 1842.883
368.8487, 1845.574
369.3308, 1852.568
369.8129, 1851.208
370.2950, 1827.590
370.7771, 1813.780
371.2592, 1821.781
371.7414, 1853.776
372.2235, 1867.874
372.7056, 1852.115
373.1877, 1830.638
373.6698, 1827.136
374.1519, 1852.269
374.6341, 1866.959
375.1162, 1861.447
375.5983, 1840.522
376.0804, 1830.634
376.5625, 1835.793
377.0446, 1841.472
377.5267, 1800.225
378.0089, 1844.397
378.4910, 1869.177
378.9731, 1875.608
379.4552, 1808.728
379.9373, 1836.513
380.4194, 1826.360
380.9016, 1814.652
381.3837, 1855.761
381.8658, 1799.544
382.3479, 1839.815
382.8300, 1841.569
383.3121, 1860.952
383.7943, 1842.163
384.2764, 1835.164
384.7585, 1866.349
385.2406, 1876.391
385.7227, 1853.208
386.2048, 1873.711
386.6870, 1816.161
387.1691, 1827.103
387.6512, 1867.597
388.1333, 1846.333
388.6154, 1828.662
389.0975, 1825.037
389.5797, 1824.304
390.0618, 1831.926
390.5439, 1845.435
391.0260, 1854.802
391.5081, 1853.876
391.9902, 1847.031
392.4724, 1836.238
392.9545, 1818.102
393.4366, 1805.370
393.9187, 1809.174
394.4008, 1821.701
394.8829, 1828.817
395.3651, 1820.155
395.8472, 1810.316
396.3293, 1805.104
396.8114, 1805.428
397.2935, 1808.103
397.7756, 1816.313
398.2578, 1824.990
398.7399, 1829.086
399.2220, 1826.242
399.7041, 1820.824
400.1862, 1811.256
400.6683, 1797.932
401.1505, 1790.004
401.6326, 1789.326
402.1147, 1792.132
402.5968, 1796.134
403.0789, 1800.956
403.5610, 1808.448
404.0432, 1821.112
404.5253, 1835.522
405.0074, 1842.250
405.4895, 1840.250
405.9716, 1833.579
406.4537, 1820.975
406.9359, 1801.474
407.4180, 1794.192
407.9001, 1802.087
408.3822, 1815.013
408.8643, 1818.215
409.3464, 1812.060
409.8285, 1808.670
410.3106, 1814.571
410.7928, 1825.479
411.2749, 1829.403
411.7570, 1826.256
412.2391, 1821.159
412.7212, 1815.491
413.2033, 1811.178
413.6855, 1814.431
414.1676, 1831.316
414.6497, 1848.234
415.1318, 1846.257
415.6139, 1830.017
416.0960, 1815.880
416.5782, 1812.287
417.0603, 1815.578
417.5424, 1823.640
418.0245, 1837.356
418.5066, 1850.063
418.9887, 1857.214
419.4709, 1861.232
419.9530, 1865.726
420.4351, 1875.384
420.9172, 1882.646
421.3993, 1881.345
421.8814, 1871.513
422.3636, 1868.044
422.8457, 1880.314
423.3278, 1896.631
423.8099, 1908.845
424.2920, 1917.544
424.7741, 1920.550
425.2563, 1914.397
425.7384, 1902.084
426.2205, 1893.419
426.7026, 1887.446
427.1847, 1886.243
427.6668, 1892.114
428.1490, 1908.613
428.6311, 1918.343
429.1132, 1918.523
429.5953, 1914.978
430.0774, 1915.123
430.5595, 1918.679
431.0417, 1927.564
431.5238, 1946.102
432.0059, 1970.739
432.4880, 1978.219
432.9701, 1966.153
433.4522, 1951.916
433.9344, 1949.927
434.4165, 1958.829
434.8986, 1970.595
435.3807, 1985.489
435.8628, 1999.620
436.3449, 2004.945
436.8271, 2003.237
437.3092, 2003.162
437.7913, 2011.344
438.2734, 2023.388
438.7555, 2033.900
439.2376, 2042.565
439.7197, 2048.879
440.2018, 2047.806
440.6840, 2045.182
441.1661, 2049.409
441.6482, 2065.983
442.1303, 2088.046
442.6124, 2115.672
443.0945, 2147.416
443.5767, 2173.915
444.0588, 2182.477
444.5409, 2191.289
445.0230, 2212.175
445.5051, 2253.850
445.9872, 2295.536
446.4694, 2333.584
446.9515, 2369.871
447.4336, 2407.682
447.9157, 2449.813
448.3978, 2490.470
448.8799, 2526.714
449.3621, 2558.013
449.8442, 2593.635
450.3263, 2632.356
450.8084, 2676.697
451.2905, 2730.966
451.7726, 2798.244
452.2548, 2859.970
452.7369, 2910.688
453.2190, 2955.841
453.7011, 3014.294
454.1832, 3087.128
454.6653, 3161.237
455.1475, 3229.349
455.6296, 3292.241
456.1117, 3359.518
456.5938, 3432.309
457.0759, 3502.774
457.5580, 3558.410
458.0402, 3602.961
458.5223, 3647.293
459.0044, 3692.154
459.4865, 3741.784
459.9686, 3806.418
460.4507, 3883.213
460.9329, 3957.609
461.4150, 4020.416
461.8971, 4074.469
462.3792, 4122.336
462.8613, 4162.972
463.3434, 4199.906
463.8256, 4233.794
464.3077, 4264.735
464.7898, 4293.379
465.2719, 4327.026
465.7540, 4351.316
466.2361, 4352.818
466.7183, 4326.782
467.2004, 4326.129
467.6825, 4380.361
468.1646, 4443.078
468.6467, 4483.501
469.1288, 4490.345
469.6109, 4492.979
470.0930, 4488.719
470.5752, 4482.853
471.0573, 4492.280
471.5394, 4522.153
472.0215, 4552.772
472.5036, 4577.126
472.9857, 4595.188
473.4679, 4602.767
473.9500, 4597.124
474.4321, 4590.926
474.9142, 4597.389
475.3963, 4615.901
475.8784, 4642.299
476.3606, 4676.313
476.8427, 4717.120
477.3248, 4764.466
477.8069, 4817.860
478.2890, 4873.019
478.7711, 4929.829
479.2533, 4985.929
479.7354, 5037.461
480.2175, 5083.127
480.6996, 5129.535
481.1817, 5179.680
481.6638, 5233.114
482.1460, 5289.187
482.6281, 5357.846
483.1102, 5418.089
483.5923, 5463.502
484.0744, 5493.644
484.5565, 5508.212
485.0387, 5504.967
485.5208, 5487.029
486.0029, 5455.028
486.4850, 5404.345
486.9671, 5349.127
487.4492, 5295.229
487.9314, 5234.346
488.4135, 5151.863
488.8956, 5040.914
489.3777, 4927.096
489.8598, 4816.654
490.3419, 4709.506
490.8241, 4595.736
491.3062, 4474.576
491.7883, 4349.015
492.2704, 4216.611
492.7525, 4079.708
493.2346, 3945.757
493.7168, 3816.519
494.1989, 3695.695
494.6810, 3590.800
495.1631, 3500.836
495.6452, 3418.358
496.1273, 3346.910
496.6095, 3277.607
497.0916, 3199.698
497.5737, 3113.918
498.0558, 3031.529
498.5379, 2960.712
499.0201, 2896.873
499.5022, 2837.061
499.9843, 2780.536
500.4664, 2726.594
500.9485, 2676.077
501.4306, 2627.966
501.9127, 2581.761
502.3948, 2541.344
502.8770, 2498.867
503.3591, 2449.926
503.8412, 2393.722
504.3233, 2345.559
504.8054, 2306.797
505.2875, 2274.975
505.7697, 2249.131
506.2518, 2231.207
506.7339, 2211.645
507.2160, 2189.383
507.6981, 2165.358
508.1802, 2140.535
508.6624, 2114.703
509.1445, 2091.641
509.6266, 2073.207
510.1087, 2058.845
510.5908, 2048.439
511.0729, 2042.156
511.5551, 2033.740
512.0372, 2016.941
512.5193, 1994.292
513.0014, 1969.569
513.4835, 1940.697
513.9656, 1916.300
514.4478, 1904.278
514.9299, 1901.852
515.4120, 1903.245
515.8941, 1914.445
516.3762, 1921.594
516.8583, 1914.178
517.3405, 1891.277
517.8226, 1873.792
518.3047, 1871.556
518.7868, 1872.938
519.2689, 1869.984
519.7510, 1858.485
520.2332, 1848.366
520.7153, 1840.666
521.1974, 1834.143
521.6795, 1826.514
522.1616, 1817.504
522.6437, 1808.124
523.1259, 1798.774
523.6080, 1789.411
524.0901, 1778.996
524.5722, 1766.825
525.0543, 1757.319
525.5364, 1753.540
526.0186, 1755.201
526.5007, 1762.752
526.9828, 1778.197
527.4649, 1792.972
527.9470, 1794.404
528.4291, 1786.693
528.9113, 1780.591
529.3934, 1785.986
529.8755, 1791.245
530.3576, 1783.314
530.8397, 1764.230
531.3218, 1752.080
531.8040, 1766.774
532.2861, 1783.800
532.7682, 1784.534
533.2503, 1754.787
533.7324, 1733.613
534.2145, 1728.978
534.6967, 1734.941
535.1788, 1743.778
535.6609, 1760.462
536.1430, 1771.809
536.6251, 1773.185
537.1072, 1766.553
537.5894, 1765.495
538.0715, 1771.775
538.5536, 1777.953
539.0357, 1778.661
539.5178, 1774.274
539.9999, 1771.382
540.4821, 1770.173
540.9642, 1770.903
541.4463, 1772.860
541.9284, 1776.854
542.4105, 1786.170
542.8926, 1806.042
543.3748, 1826.607
543.8569, 1836.059
544.3390, 1836.448
544.8211, 1835.485
545.3032, 1833.131
545.7853, 1833.704
546.2675, 1841.184
546.7495, 1856.893
547.2316, 1872.555
547.7137, 1887.835
548.1959, 1900.956
548.6780, 1910.597
549.1601, 1908.719
549.6422, 1914.179
550.1243, 1930.778
550.6064, 1954.596
551.0886, 1976.639
551.5707, 1997.958
552.0528, 2014.599
552.5349, 2022.604
553.0170, 2023.386
553.4991, 2032.049
553.9813, 2049.229
554.4634, 2069.990
554.9455, 2092.719
555.4276, 2115.947
555.9097, 2132.948
556.3918, 2141.131
556.8740, 2148.099
557.3561, 2160.727
557.8382, 2178.302
558.3203, 2199.311
558.8024, 2232.117
559.2845, 2260.470
559.7667, 2270.122
560.2488, 2264.083
560.7309, 2263.107
561.2130, 2283.422
561.6951, 2303.351
562.1772, 2311.097
562.6594, 2300.852
563.1415, 2289.599
563.6236, 2276.208
564.1057, 2262.945
564.5878, 2252.747
565.0699, 2247.875
565.5521, 2239.700
566.0342, 2227.332
566.5163, 2210.478
566.9984, 2185.972
567.4805, 2153.474
567.9626, 2121.976
568.4448, 2095.935
568.9269, 2074.346
569.4090, 2054.963
569.8911, 2037.964
570.3732, 2019.072
570.8553, 1993.668
571.3375, 1964.594
571.8196, 1936.066
572.3017, 1907.272
572.7838, 1882.099
573.2659, 1866.436
573.7480, 1854.869
574.2302, 1838.224
574.7123, 1802.699
575.1944, 1773.608
575.6765, 1761.375
576.1586, 1764.375
576.6407, 1763.530
577.1229, 1757.931
577.6050, 1749.724
578.0871, 1739.243
578.5692, 1725.593
579.0513, 1715.403
579.5334, 1710.399
580.0156, 1704.662
580.4977, 1688.112
580.9798, 1622.306
581.4619, 1662.305
581.9440, 1682.914
582.4261, 1685.171
582.9083, 1614.119
583.3904, 1637.731
583.8725, 1623.407
584.3546, 1607.526
584.8367, 1644.463
585.3188, 1584.074
585.8010, 1620.171
586.2831, 1617.754
586.7652, 1632.965
587.2473, 1610.004
587.7294, 1606.982
588.2115, 1578.865
588.6937, 1559.955
589.1758, 1556.670
589.6579, 1560.406
590.1400, 1560.370
590.6221, 1554.038
591.1042, 1551.032
591.5864, 1555.061
592.0685, 1562.550
592.5506, 1560.788
593.0327, 1549.225
593.5148, 1539.080
593.9969, 1539.180
594.4791, 1544.950
594.9612, 1541.385
595.4433, 1528.441
595.9254, 1519.865
596.4075, 1533.978
596.8896, 1555.869
597.3718, 1566.646
597.8539, 1560.229
598.3360, 1548.280
598.8181, 1529.755
599.3002, 1510.855
599.7823, 1500.587
600.2645, 1508.691
600.7466, 1516.601
601.2287, 1522.187
601.7108, 1525.009
602.1929, 1521.893
602.6750, 1509.061
603.1572, 1497.746
603.6393, 1493.496
604.1214, 1496.262
604.6035, 1496.313
605.0856, 1492.867
605.5677, 1490.696
606.0499, 1497.212
606.5320, 1509.013
607.0141, 1514.052
607.4962, 1509.109
607.9783, 1501.102
608.4604, 1494.992
608.9425, 1491.053
609.4246, 1489.918
609.9067, 1495.428
610.3889, 1500.307
610.8710, 1499.279
611.3531, 1494.020
611.8352, 1492.402
612.3173, 1506.595
612.7994, 1514.353
613.2816, 1503.372
613.7637, 1468.944
614.2458, 1454.056
614.7279, 1467.260
615.2100, 1450.704
615.6921, 1494.051
616.1743, 1518.006
616.6564, 1523.612
617.1385, 1455.908
617.6206, 1482.868
618.1027, 1471.891
618.5848, 1459.359
619.0670, 1499.642
619.5491, 1442.601
620.0312, 1482.047
620.5133, 1482.977
620.9954, 1501.535
621.4775, 1481.922
621.9597, 1474.098
622.4418, 1504.458
622.9239, 1513.676
623.4060, 1489.668
623.8881, 1509.347
624.3702, 1450.972
624.8524, 1461.090
625.3345, 1500.760
625.8166, 1478.671
626.2987, 1499.047
626.7808, 1503.251
627.2629, 1433.955
627.7451, 1492.482
628.2272, 1495.730
628.7093, 1458.807
629.1914, 1479.304
629.6735, 1505.578
630.1556, 1508.847
630.6378, 1495.095
631.1199, 1483.871
631.6020, 1491.000
632.0841, 1500.409
632.5662, 1495.436
633.0483, 1477.623
633.5305, 1469.465
634.0126, 1491.874
634.4947, 1516.737
634.9768, 1527.504
635.4589, 1517.563
635.9410, 1510.024
636.4232, 1504.311
636.9053, 1501.488
637.3874, 1504.232
637.8695, 1514.442
638.3516, 1517.869
638.8337, 1510.503
639.3159, 1499.936
639.7980, 1501.814
640.2801, 1513.516
640.7622, 1519.200
641.2443, 1506.668
641.7264, 1490.295
642.2086, 1491.601
642.6907, 1505.561
643.1728, 1512.136
643.6549, 1491.540
644.1370, 1468.443
644.6191, 1458.557
645.1013, 1464.686
645.5834, 1468.584
646.0655, 1461.587
646.5476, 1456.378
647.0297, 1462.100
647.5118, 1488.436
647.9940, 1496.939
648.4761, 1480.461
648.9582, 1457.685
