##NAMES=Erionite-Na
##RRUFFID=R061126
##IDEAL CHEMISTRY=Na_10_(Si_26_Al_10_O_72_)&#183;30H_2_O
##LOCALITY=Dunseverick, Ireland
##OWNER=RRUFF
##SOURCE=Michael Scott
##DESCRIPTION=Colorless prismatic crystals frozen in basalt nodules with chabazite
##STATUS=The identification of this mineral is confirmed by single-crystal X-ray diffraction and chemical analysis.
##URL=rruff.info/R061126
##MEASURED CHEMISTRY=(Na_5.05_K_2.42_Ca_1.08_[box]_1.05_Mg_0.40_)_Σ=10_(Si_25.57_Al_10.43_)_Σ=36_O_72_·22.80H_2_O; H_2_O estimated by difference
184.3045, 16775.40
184.7866, 16796.52
185.2688, 16806.11
185.7509, 16796.45
186.2330, 16782.56
186.7151, 16768.04
187.1972, 16751.18
187.6793, 16728.75
188.1615, 16698.33
188.6436, 16660.70
189.1257, 16621.69
189.6078, 16580.68
190.0899, 16539.06
190.5720, 16489.20
191.0542, 16440.18
191.5363, 16406.42
192.0184, 16397.81
192.5005, 16409.84
192.9826, 16415.05
193.4647, 16428.45
193.9469, 16417.48
194.4290, 16344.65
194.9111, 16250.37
195.3932, 16199.69
195.8753, 16231.32
196.3574, 16322.99
196.8396, 16365.99
197.3217, 16299.29
197.8038, 16248.37
198.2859, 16238.09
198.7680, 16249.86
199.2501, 16256.97
199.7323, 16245.23
200.2144, 16221.92
200.6965, 16214.37
201.1786, 16246.36
201.6607, 16268.38
202.1428, 16273.08
202.6250, 16266.68
203.1071, 16255.38
203.5892, 16241.75
204.0713, 16227.81
204.5534, 16220.13
205.0355, 16238.95
205.5177, 16238.09
205.9998, 16199.22
206.4819, 16145.38
206.9640, 16100.70
207.4461, 16074.94
207.9282, 16062.92
208.4104, 16052.89
208.8925, 16045.49
209.3746, 16038.74
209.8567, 16037.87
210.3388, 16034.86
210.8209, 16021.49
211.3030, 15995.04
211.7852, 15959.62
212.2673, 15920.75
212.7494, 15854.12
213.2315, 15824.06
213.7136, 15859.90
214.1957, 15912.98
214.6779, 15944.63
215.1600, 15944.14
215.6421, 15924.50
216.1242, 15905.51
216.6063, 15889.16
217.0884, 15870.55
217.5706, 15849.32
218.0527, 15826.96
218.5348, 15800.31
219.0169, 15770.94
219.4990, 15748.77
219.9811, 15748.00
220.4633, 15778.41
220.9454, 15805.45
221.4275, 15838.07
221.9096, 15861.33
222.3917, 15858.20
222.8738, 15831.86
223.3560, 15805.43
223.8381, 15806.94
224.3202, 15848.26
224.8023, 15866.28
225.2844, 15846.75
225.7665, 15820.09
226.2487, 15796.80
226.7308, 15779.16
227.2129, 15767.61
227.6950, 15764.33
228.1771, 15771.16
228.6592, 15765.63
229.1414, 15731.14
229.6235, 15700.84
230.1056, 15691.18
230.5877, 15696.18
231.0698, 15698.27
231.5519, 15682.27
232.0341, 15649.05
232.5162, 15634.75
232.9983, 15662.16
233.4804, 15685.94
233.9625, 15698.95
234.4446, 15700.88
234.9268, 15690.49
235.4089, 15665.05
235.8910, 15629.57
236.3731, 15613.96
236.8552, 15640.45
237.3373, 15662.27
237.8195, 15672.80
238.3016, 15674.21
238.7837, 15668.64
239.2658, 15656.83
239.7479, 15641.32
240.2300, 15630.50
240.7122, 15634.73
241.1943, 15627.03
241.6764, 15591.13
242.1585, 15549.03
242.6406, 15524.80
243.1227, 15527.16
243.6049, 15540.95
244.0870, 15534.73
244.5691, 15491.20
245.0512, 15465.70
245.5333, 15477.83
246.0154, 15498.26
246.4975, 15504.55
246.9797, 15491.88
247.4618, 15472.46
247.9439, 15464.73
248.4260, 15475.33
248.9081, 15473.01
249.3902, 15438.68
249.8724, 15403.80
250.3545, 15386.44
250.8366, 15387.05
251.3187, 15392.43
251.8008, 15392.84
252.2829, 15389.14
252.7651, 15371.35
253.2472, 15319.34
253.7293, 15271.47
254.2114, 15243.40
254.6935, 15233.94
255.1756, 15235.46
255.6578, 15246.98
256.1399, 15266.76
256.6220, 15277.82
257.1041, 15276.48
257.5862, 15271.02
258.0684, 15261.42
258.5505, 15251.20
259.0326, 15247.79
259.5147, 15260.40
259.9968, 15279.86
260.4789, 15279.11
260.9611, 15249.35
261.4432, 15219.83
261.9253, 15208.19
262.4074, 15202.64
262.8895, 15186.53
263.3716, 15148.89
263.8537, 15107.88
264.3358, 15094.70
264.8180, 15115.62
265.3001, 15127.86
265.7822, 15106.22
266.2643, 15072.04
266.7464, 15045.34
267.2285, 15029.35
267.7107, 15020.34
268.1928, 15015.88
268.6749, 15015.77
269.1570, 15019.44
269.6391, 15032.48
270.1212, 15042.90
270.6034, 15033.70
271.0855, 15002.41
271.5676, 14978.04
272.0497, 14987.01
272.5318, 15016.83
273.0139, 15028.39
273.4961, 15010.28
273.9782, 14980.92
274.4603, 14952.58
274.9424, 14925.77
275.4245, 14915.35
275.9066, 14944.52
276.3888, 14985.64
276.8709, 14995.06
277.3530, 14965.75
277.8351, 14931.45
278.3172, 14925.06
278.7993, 14940.99
279.2815, 14937.00
279.7636, 14885.18
280.2457, 14830.49
280.7278, 14807.99
281.2099, 14816.67
281.6920, 14841.37
282.1742, 14880.95
282.6563, 14927.27
283.1384, 14942.96
283.6205, 14913.43
284.1026, 14873.03
284.5847, 14815.14
285.0669, 14756.86
285.5490, 14743.31
286.0311, 14801.93
286.5132, 14895.90
286.9953, 14928.53
287.4774, 14852.98
287.9596, 14797.52
288.4417, 14787.58
288.9238, 14802.38
289.4059, 14822.68
289.8880, 14842.52
290.3701, 14858.33
290.8523, 14864.59
291.3344, 14856.33
291.8165, 14849.52
292.2986, 14849.79
292.7807, 14846.79
293.2628, 14826.22
293.7450, 14792.00
294.2271, 14767.22
294.7092, 14777.77
295.1913, 14829.36
295.6734, 14845.05
296.1555, 14795.46
296.6377, 14742.30
297.1198, 14695.14
297.6019, 14660.22
298.0840, 14647.96
298.5661, 14667.54
299.0482, 14710.34
299.5304, 14734.63
300.0125, 14724.81
300.4946, 14717.96
300.9767, 14729.06
301.4588, 14742.39
301.9409, 14737.50
302.4231, 14706.85
302.9052, 14668.38
303.3873, 14654.52
303.8694, 14674.90
304.3515, 14690.72
304.8336, 14685.79
305.3158, 14683.03
305.7979, 14704.51
306.2800, 14749.26
306.7621, 14787.36
307.2442, 14781.40
307.7263, 14733.03
308.2085, 14708.53
308.6906, 14727.34
309.1727, 14752.25
309.6548, 14762.90
310.1369, 14761.47
310.6190, 14755.43
311.1012, 14739.98
311.5833, 14724.26
312.0654, 14735.72
312.5475, 14784.42
313.0296, 14823.24
313.5117, 14805.76
313.9939, 14764.47
314.4760, 14750.72
314.9581, 14789.64
315.4402, 14837.99
315.9223, 14858.86
316.4044, 14853.97
316.8866, 14836.80
317.3687, 14805.68
317.8508, 14771.79
318.3329, 14756.23
318.8150, 14764.29
319.2971, 14770.63
319.7793, 14763.41
320.2614, 14748.69
320.7435, 14734.40
321.2256, 14721.71
321.7077, 14716.49
322.1898, 14728.79
322.6720, 14763.47
323.1541, 14787.53
323.6362, 14791.60
324.1183, 14790.62
324.6004, 14792.44
325.0826, 14798.89
325.5647, 14814.27
326.0468, 14844.90
326.5289, 14888.93
327.0110, 14908.53
327.4931, 14883.23
327.9753, 14860.80
328.4574, 14854.88
328.9395, 14860.07
329.4216, 14866.39
329.9037, 14869.31
330.3858, 14873.19
330.8680, 14889.41
331.3501, 14933.93
331.8322, 14964.43
332.3143, 14978.90
332.7964, 14980.87
333.2785, 14966.32
333.7606, 14938.09
334.2427, 14911.36
334.7249, 14903.37
335.2070, 14915.98
335.6891, 14932.03
336.1712, 14967.66
336.6533, 14989.48
337.1354, 14976.57
337.6176, 14939.96
338.0997, 14903.86
338.5818, 14881.11
339.0639, 14869.51
339.5460, 14866.46
340.0281, 14877.46
340.5103, 14881.22
340.9924, 14861.74
341.4745, 14833.60
341.9566, 14812.98
342.4387, 14805.73
342.9208, 14797.78
343.4030, 14769.65
343.8851, 14724.90
344.3672, 14698.30
344.8493, 14708.96
345.3314, 14727.43
345.8135, 14714.35
346.2957, 14670.33
346.7778, 14638.72
347.2599, 14649.32
347.7420, 14675.69
348.2241, 14676.94
348.7062, 14648.36
349.1884, 14621.00
349.6705, 14621.76
350.1526, 14648.90
350.6347, 14663.90
351.1168, 14661.40
351.5989, 14652.60
352.0811, 14640.08
352.5632, 14625.45
353.0453, 14611.78
353.5274, 14600.43
354.0095, 14590.97
354.4916, 14582.14
354.9738, 14571.47
355.4559, 14565.04
355.9380, 14567.28
356.4201, 14570.97
356.9022, 14571.94
357.3843, 14568.45
357.8665, 14557.85
358.3486, 14534.19
358.8307, 14493.13
359.3128, 14470.16
359.7949, 14492.00
360.2770, 14505.27
360.7592, 14481.70
361.2413, 14437.82
361.7234, 14406.72
362.2055, 14408.35
362.6876, 14431.47
363.1697, 14449.13
363.6519, 14464.01
364.1340, 14465.52
364.6161, 14436.12
365.0982, 14400.53
365.5803, 14380.68
366.0624, 14381.09
366.5446, 14384.16
367.0267, 14373.55
367.5088, 14351.91
367.9909, 14332.65
368.4730, 14315.58
368.9551, 14306.25
369.4373, 14314.91
369.9194, 14337.19
370.4015, 14355.43
370.8836, 14370.64
371.3657, 14375.97
371.8478, 14353.66
372.3300, 14307.44
372.8121, 14278.54
373.2942, 14295.11
373.7763, 14342.94
374.2584, 14370.19
374.7405, 14367.06
375.2227, 14361.53
375.7048, 14356.13
376.1869, 14354.05
376.6690, 14362.61
377.1511, 14383.15
377.6332, 14404.23
378.1154, 14409.79
378.5975, 14391.91
379.0796, 14386.51
379.5617, 14414.97
380.0438, 14433.18
380.5259, 14410.26
381.0081, 14359.13
381.4902, 14313.78
381.9723, 14296.18
382.4544, 14300.40
382.9365, 14303.13
383.4186, 14305.20
383.9008, 14303.74
384.3829, 14290.29
384.8650, 14277.99
385.3471, 14282.15
385.8292, 14305.79
386.3113, 14330.24
386.7935, 14334.64
387.2756, 14320.43
387.7577, 14307.37
388.2398, 14296.64
388.7219, 14289.17
389.2040, 14290.85
389.6862, 14297.31
390.1683, 14293.81
390.6504, 14264.57
391.1325, 14229.95
391.6146, 14212.31
392.0967, 14211.13
392.5789, 14220.00
393.0610, 14240.02
393.5431, 14264.70
394.0252, 14275.83
394.5073, 14264.32
394.9894, 14260.61
395.4716, 14281.20
395.9537, 14309.61
396.4358, 14330.12
396.9179, 14338.53
397.4000, 14328.86
397.8821, 14288.79
398.3643, 14208.71
398.8464, 14176.31
399.3285, 14241.31
399.8106, 14294.35
400.2927, 14285.07
400.7748, 14239.63
401.2570, 14208.12
401.7391, 14215.87
402.2212, 14242.03
402.7033, 14236.19
403.1854, 14179.96
403.6675, 14141.90
404.1497, 14152.10
404.6317, 14168.19
405.1139, 14161.31
405.5960, 14131.87
406.0781, 14104.06
406.5602, 14097.08
407.0423, 14105.59
407.5244, 14112.67
408.0066, 14118.84
408.4887, 14120.32
408.9708, 14112.00
409.4529, 14097.85
409.9350, 14084.55
410.4171, 14067.39
410.8993, 14059.83
411.3814, 14075.69
411.8635, 14107.70
412.3456, 14141.96
412.8277, 14176.55
413.3098, 14199.56
413.7920, 14191.53
414.2741, 14138.57
414.7562, 14102.38
415.2383, 14089.15
415.7204, 14087.32
416.2025, 14091.99
416.6847, 14102.07
417.1668, 14118.61
417.6489, 14143.48
418.1310, 14172.30
418.6131, 14186.28
419.0952, 14171.79
419.5774, 14164.71
420.0595, 14177.07
420.5416, 14192.31
421.0237, 14197.24
421.5058, 14189.93
421.9879, 14177.30
422.4701, 14159.72
422.9522, 14139.26
423.4343, 14142.44
423.9164, 14186.84
424.3985, 14222.33
424.8806, 14204.26
425.3628, 14160.78
425.8449, 14140.56
426.3270, 14166.10
426.8091, 14201.06
427.2912, 14215.51
427.7733, 14213.53
428.2555, 14209.66
428.7376, 14206.58
429.2197, 14208.18
429.7018, 14224.08
430.1839, 14260.90
430.6660, 14276.96
431.1482, 14249.56
431.6303, 14216.96
432.1124, 14203.37
432.5945, 14208.27
433.0766, 14223.67
433.5587, 14246.13
434.0409, 14272.00
434.5230, 14286.32
435.0051, 14274.19
435.4872, 14274.33
435.9693, 14296.23
436.4514, 14326.23
436.9336, 14352.84
437.4157, 14375.24
437.8978, 14400.98
438.3799, 14439.40
438.8620, 14488.71
439.3441, 14534.46
439.8263, 14580.24
440.3084, 14615.13
440.7905, 14617.00
441.2726, 14609.23
441.7547, 14625.58
442.2368, 14676.76
442.7190, 14744.05
443.2011, 14821.94
443.6832, 14905.25
444.1653, 14978.37
444.6474, 15035.95
445.1295, 15089.81
445.6117, 15152.95
446.0938, 15226.70
446.5759, 15303.44
447.0580, 15388.92
447.5401, 15471.09
448.0222, 15537.62
448.5044, 15596.43
448.9865, 15666.89
449.4686, 15758.75
449.9507, 15860.60
450.4328, 15943.60
450.9149, 15989.43
451.3971, 16058.47
451.8792, 16181.54
452.3613, 16303.50
452.8434, 16388.48
453.3255, 16443.02
453.8076, 16498.45
454.2898, 16575.30
454.7719, 16667.08
455.2540, 16763.66
455.7361, 16869.06
456.2182, 16955.34
456.7003, 17003.90
457.1825, 17031.57
457.6646, 17063.67
458.1467, 17100.97
458.6288, 17141.22
459.1109, 17196.41
459.5930, 17248.52
460.0752, 17258.47
460.5573, 17226.76
461.0394, 17215.62
461.5215, 17281.32
462.0036, 17413.16
462.4857, 17489.10
462.9679, 17474.27
463.4500, 17450.26
463.9321, 17416.92
464.4142, 17388.44
464.8963, 17382.99
465.3784, 17402.90
465.8606, 17429.35
466.3427, 17442.84
466.8248, 17443.29
467.3069, 17431.27
467.7890, 17386.71
468.2711, 17360.23
468.7533, 17394.48
469.2354, 17453.70
469.7175, 17479.34
470.1996, 17445.97
470.6817, 17400.08
471.1638, 17386.41
471.6460, 17395.98
472.1281, 17393.76
472.6102, 17369.29
473.0923, 17340.41
473.5744, 17324.06
474.0565, 17321.29
474.5387, 17329.15
475.0208, 17352.90
475.5029, 17381.80
475.9850, 17416.87
476.4671, 17452.03
476.9492, 17477.75
477.4313, 17490.11
477.9135, 17490.47
478.3956, 17480.95
478.8777, 17461.36
479.3598, 17432.79
479.8419, 17374.85
480.3240, 17327.67
480.8062, 17304.62
481.2883, 17306.36
481.7704, 17339.50
482.2525, 17434.53
482.7346, 17519.50
483.2167, 17468.62
483.6989, 17285.05
484.1810, 17106.99
484.6631, 16967.55
485.1452, 16860.27
485.6273, 16791.21
486.1094, 16761.01
486.5916, 16709.77
487.0737, 16617.05
487.5558, 16506.83
488.0379, 16391.70
488.5200, 16274.06
489.0021, 16155.50
489.4843, 16036.51
489.9664, 15918.69
490.4485, 15805.28
490.9306, 15689.53
491.4127, 15591.11
491.8948, 15530.82
492.3770, 15467.46
492.8591, 15371.88
493.3412, 15251.73
493.8233, 15136.00
494.3054, 15045.20
494.7875, 14967.23
495.2697, 14872.85
495.7518, 14758.64
496.2339, 14665.00
496.7160, 14613.63
497.1981, 14580.65
497.6802, 14536.64
498.1624, 14481.47
498.6445, 14423.19
499.1266, 14354.98
499.6087, 14290.96
500.0908, 14247.55
500.5729, 14221.14
501.0551, 14195.84
501.5372, 14163.17
502.0193, 14124.09
502.5014, 14079.93
502.9835, 14021.74
503.4656, 13974.60
503.9478, 13948.35
504.4299, 13924.05
504.9120, 13890.70
505.3941, 13848.92
505.8762, 13803.32
506.3583, 13752.88
506.8405, 13704.89
507.3226, 13677.13
507.8047, 13671.12
508.2868, 13672.53
508.7689, 13688.07
509.2510, 13697.35
509.7332, 13664.74
510.2153, 13587.47
510.6974, 13537.36
511.1795, 13550.83
511.6616, 13585.36
512.1437, 13614.42
512.6259, 13632.82
513.1080, 13629.77
513.5901, 13597.85
514.0722, 13551.12
514.5543, 13523.30
515.0364, 13530.25
515.5186, 13525.10
516.0007, 13497.91
516.4828, 13468.49
516.9649, 13445.53
517.4470, 13429.23
517.9291, 13416.00
518.4113, 13400.42
518.8934, 13392.40
519.3755, 13422.34
519.8576, 13490.62
520.3397, 13519.20
520.8218, 13473.26
521.3040, 13400.11
521.7861, 13351.12
522.2682, 13324.70
522.7503, 13313.09
523.2324, 13321.70
523.7145, 13338.63
524.1967, 13365.56
524.6788, 13394.01
525.1609, 13403.90
525.6430, 13386.55
526.1251, 13357.59
526.6072, 13344.74
527.0894, 13355.84
527.5715, 13356.69
528.0536, 13339.01
528.5357, 13318.92
529.0178, 13289.83
529.4999, 13265.01
529.9821, 13273.82
530.4642, 13339.89
530.9463, 13407.37
531.4284, 13410.46
531.9105, 13361.35
532.3926, 13312.81
532.8748, 13273.41
533.3569, 13245.26
533.8390, 13228.27
534.3211, 13223.67
534.8032, 13242.67
535.2853, 13319.31
535.7675, 13379.12
536.2496, 13386.45
536.7317, 13366.91
537.2138, 13347.67
537.6959, 13338.46
538.1780, 13344.86
538.6602, 13382.02
539.1423, 13448.71
539.6244, 13476.11
540.1065, 13443.81
540.5886, 13409.17
541.0707, 13387.73
541.5529, 13380.43
542.0350, 13394.52
542.5171, 13435.91
542.9992, 13470.38
543.4813, 13463.89
543.9634, 13444.03
544.4456, 13459.83
544.9277, 13513.02
545.4098, 13563.83
545.8919, 13583.80
546.3740, 13582.33
546.8561, 13598.33
547.3383, 13655.35
547.8204, 13695.95
548.3025, 13706.19
548.7846, 13709.20
549.2667, 13720.41
549.7488, 13739.96
550.2310, 13760.22
550.7131, 13774.64
551.1952, 13788.38
551.6773, 13814.93
552.1594, 13855.31
552.6415, 13890.98
553.1237, 13917.57
553.6058, 13936.50
554.0879, 13945.35
554.5700, 13944.52
555.0521, 13952.14
555.5342, 13982.26
556.0164, 14010.85
556.4985, 14025.80
556.9806, 14027.75
557.4627, 14015.57
557.9448, 13989.40
558.4269, 13961.52
558.9091, 13952.59
559.3912, 13967.22
559.8733, 13971.52
560.3554, 13971.92
560.8375, 13951.64
561.3196, 13876.53
561.8018, 13787.90
562.2839, 13757.49
562.7660, 13818.27
563.2481, 13867.85
563.7302, 13826.35
564.2123, 13724.07
564.6945, 13608.01
565.1766, 13486.57
565.6587, 13387.35
566.1408, 13336.35
566.6229, 13322.35
567.1050, 13287.92
567.5872, 13195.10
568.0693, 13133.38
568.5514, 13135.82
569.0335, 13148.16
569.5156, 13130.90
569.9977, 13084.42
570.4799, 13029.32
570.9620, 12974.53
571.4441, 12924.64
571.9262, 12890.52
572.4083, 12872.14
572.8904, 12859.79
573.3726, 12852.14
573.8547, 12846.92
574.3368, 12843.59
574.8189, 12842.38
575.3010, 12832.62
575.7831, 12802.61
576.2653, 12775.24
576.7474, 12769.13
577.2295, 12770.99
577.7116, 12754.29
578.1937, 12712.78
578.6758, 12672.05
579.1580, 12669.01
579.6401, 12703.93
580.1222, 12716.82
580.6042, 12700.68
581.0864, 12676.38
581.5685, 12639.24
582.0506, 12605.07
582.5327, 12596.71
583.0148, 12621.12
583.4969, 12643.78
583.9791, 12659.71
584.4612, 12658.94
584.9433, 12610.97
585.4254, 12528.64
585.9075, 12478.14
586.3896, 12498.85
586.8718, 12560.53
587.3539, 12587.86
587.8360, 12561.77
588.3181, 12547.32
588.8002, 12559.77
589.2823, 12570.97
589.7645, 12569.33
590.2466, 12556.91
590.7287, 12539.04
591.2108, 12516.42
591.6929, 12491.99
592.1750, 12462.64
592.6572, 12433.80
593.1393, 12426.78
593.6214, 12446.18
594.1035, 12458.08
594.5856, 12429.62
595.0677, 12368.49
595.5499, 12337.30
596.0320, 12364.62
596.5141, 12385.26
596.9962, 12387.04
597.4783, 12385.29
597.9604, 12394.29
598.4426, 12412.48
598.9247, 12427.38
599.4068, 12432.00
599.8889, 12427.32
600.3710, 12411.68
600.8531, 12385.84
601.3353, 12364.03
601.8174, 12350.25
602.2995, 12341.33
602.7816, 12330.77
603.2637, 12317.74
603.7458, 12326.99
604.2280, 12394.35
604.7101, 12441.86
605.1922, 12431.21
605.6743, 12391.69
606.1564, 12359.02
606.6385, 12340.82
607.1207, 12321.27
607.6028, 12275.06
608.0849, 12215.39
608.5670, 12209.25
609.0491, 12268.52
609.5313, 12315.31
610.0134, 12316.75
610.4955, 12295.09
610.9776, 12279.40
611.4597, 12268.85
611.9418, 12267.29
612.4240, 12284.22
612.9061, 12301.58
613.3882, 12315.17
613.8703, 12319.70
614.3524, 12300.66
614.8345, 12254.42
615.3167, 12206.82
615.7988, 12194.10
616.2809, 12215.77
616.7630, 12228.09
617.2451, 12225.86
617.7272, 12227.31
618.2094, 12251.40
618.6915, 12278.19
619.1736, 12274.55
619.6557, 12231.38
620.1378, 12195.51
620.6199, 12183.68
621.1021, 12182.45
621.5842, 12183.52
622.0663, 12185.29
622.5484, 12188.84
623.0305, 12194.91
623.5126, 12195.48
623.9948, 12171.33
624.4769, 12116.63
624.9590, 12086.05
625.4411, 12088.97
625.9232, 12103.14
626.4053, 12128.08
626.8875, 12153.68
627.3696, 12163.86
627.8517, 12155.12
628.3338, 12137.60
628.8159, 12101.77
629.2980, 12068.62
629.7802, 12070.25
630.2623, 12097.53
630.7444, 12108.71
631.2265, 12079.96
631.7086, 12032.06
632.1907, 12008.58
632.6729, 12016.06
633.1550, 12014.84
633.6371, 11993.03
634.1192, 11975.79
634.6013, 11986.96
635.0834, 12008.76
635.5656, 12005.54
636.0477, 11958.66
636.5298, 11922.78
637.0119, 11936.19
637.4940, 11967.26
637.9761, 11977.91
638.4583, 11968.07
638.9404, 11956.83
639.4225, 11954.85
639.9046, 11960.92
640.3867, 11977.56
640.8688, 12014.32
641.3510, 12019.03
641.8331, 11966.65
642.3152, 11909.18
642.7973, 11871.10
643.2794, 11849.31
643.7615, 11841.58
644.2437, 11857.13
644.7258, 11862.45
645.2079, 11821.00
645.6900, 11772.08
646.1721, 11768.32
646.6542, 11806.70
647.1364, 11851.25
647.6185, 11881.89
648.1006, 11896.76
648.5827, 11885.82
649.0648, 11839.71
649.5469, 11813.18
650.0291, 11818.42
650.5112, 11833.44
650.9933, 11857.07
651.4754, 11879.03
651.9575, 11876.48
652.4396, 11836.47
652.9218, 11795.26
653.4039, 11759.43
653.8860, 11736.93
654.3681, 11748.74
654.8502, 11784.98
655.3323, 11803.76
655.8145, 11779.75
656.2966, 11733.89
656.7787, 11708.26
657.2608, 11704.54
657.7429, 11711.11
658.2250, 11737.92
658.7072, 11756.82
659.1893, 11739.18
659.6714, 11704.10
660.1535, 11689.57
660.6356, 11707.51
661.1177, 11723.59
661.5999, 11733.46
662.0820, 11730.88
662.5641, 11694.47
663.0462, 11639.56
663.5283, 11613.72
664.0104, 11642.34
664.4926, 11693.24
664.9747, 11714.90
665.4568, 11706.77
665.9389, 11684.55
666.4210, 11642.34
666.9031, 11603.74
667.3853, 11581.39
667.8674, 11572.16
668.3495, 11568.20
668.8316, 11571.60
669.3137, 11574.54
669.7958, 11578.40
670.2780, 11578.94
670.7601, 11569.88
671.2422, 11555.83
671.7243, 11548.24
672.2064, 11551.90
672.6885, 11555.09
673.1707, 11534.74
673.6528, 11497.60
674.1349, 11495.37
674.6170, 11537.71
675.0991, 11567.00
675.5812, 11549.34
676.0634, 11506.53
676.5455, 11479.26
677.0276, 11468.36
677.5097, 11471.58
