##NAMES=Erionite-Na
##RRUFFID=R061126
##IDEAL CHEMISTRY=Na_10_(Si_26_Al_10_O_72_)&#183;30H_2_O
##LOCALITY=Dunseverick, Ireland
##OWNER=RRUFF
##SOURCE=Michael Scott
##DESCRIPTION=Colorless prismatic crystals frozen in basalt nodules with chabazite
##STATUS=The identification of this mineral is confirmed by single-crystal X-ray diffraction and chemical analysis.
##URL=rruff.info/R061126
##MEASURED CHEMISTRY=(Na_5.05_K_2.42_Ca_1.08_[box]_1.05_Mg_0.40_)_Σ=10_(Si_25.57_Al_10.43_)_Σ=36_O_72_·22.80H_2_O; H_2_O estimated by difference
165.6094, 8725.715
166.0915, 8751.541
166.5736, 8782.766
167.0558, 8823.037
167.5379, 8863.917
168.0200, 8902.476
168.5021, 8937.776
168.9842, 8965.222
169.4663, 8977.588
169.9485, 8981.963
170.4306, 8986.689
170.9127, 8995.116
171.3948, 9003.986
171.8769, 9008.100
172.3590, 9008.192
172.8412, 9012.159
173.3233, 9031.988
173.8054, 9059.089
174.2875, 9078.863
174.7696, 9079.438
175.2517, 9072.459
175.7339, 9070.490
176.2160, 9073.448
176.6981, 9083.222
177.1802, 9110.652
177.6623, 9147.926
178.1444, 9173.351
178.6266, 9167.405
179.1087, 9145.456
179.5908, 9135.273
180.0729, 9138.933
180.5550, 9149.536
181.0371, 9161.208
181.5193, 9173.714
182.0014, 9185.378
182.4835, 9193.465
182.9656, 9200.012
183.4477, 9210.983
183.9298, 9227.397
184.4120, 9247.080
184.8941, 9268.827
185.3762, 9292.418
185.8583, 9312.701
186.3404, 9323.005
186.8225, 9326.165
187.3047, 9335.125
187.7868, 9351.413
188.2689, 9374.785
188.7510, 9408.090
189.2331, 9451.491
189.7152, 9494.012
190.1974, 9533.521
190.6795, 9568.029
191.1616, 9576.271
191.6437, 9543.572
192.1258, 9486.845
192.6080, 9458.636
193.0901, 9460.737
193.5722, 9475.978
194.0543, 9488.485
194.5364, 9498.254
195.0185, 9516.623
195.5007, 9551.882
195.9828, 9598.672
196.4649, 9625.693
196.9470, 9630.537
197.4291, 9625.534
197.9112, 9623.395
198.3934, 9624.372
198.8755, 9625.086
199.3576, 9621.624
199.8397, 9614.938
200.3218, 9624.297
200.8039, 9654.741
201.2861, 9690.627
201.7682, 9710.352
202.2503, 9711.609
202.7324, 9708.886
203.2145, 9703.930
203.6966, 9695.804
204.1788, 9702.867
204.6609, 9730.651
205.1430, 9765.903
205.6251, 9785.180
206.1072, 9784.382
206.5893, 9782.112
207.0715, 9784.892
207.5536, 9792.456
208.0357, 9807.479
208.5178, 9833.353
208.9999, 9863.864
209.4820, 9886.199
209.9642, 9898.748
210.4463, 9907.341
210.9284, 9913.292
211.4105, 9914.513
211.8926, 9922.396
212.3747, 9941.861
212.8569, 9966.247
213.3390, 9975.036
213.8211, 9961.023
214.3032, 9946.347
214.7853, 9943.803
215.2674, 9957.044
215.7496, 9970.985
216.2317, 9985.229
216.7138, 9999.396
217.1959, 10011.35
217.6780, 10018.53
218.1601, 10028.08
218.6423, 10045.28
219.1244, 10073.96
219.6065, 10101.18
220.0886, 10129.14
220.5707, 10155.79
221.0528, 10164.08
221.5350, 10143.62
222.0171, 10120.11
222.4992, 10112.71
222.9813, 10128.57
223.4634, 10143.89
223.9455, 10154.54
224.4277, 10161.36
224.9098, 10174.01
225.3919, 10198.39
225.8740, 10221.57
226.3561, 10231.19
226.8382, 10216.19
227.3204, 10210.65
227.8025, 10221.44
228.2846, 10248.22
228.7667, 10278.50
229.2488, 10318.86
229.7310, 10354.85
230.2131, 10371.89
230.6952, 10359.43
231.1773, 10347.95
231.6594, 10341.94
232.1415, 10341.48
232.6237, 10346.86
233.1058, 10362.45
233.5879, 10379.73
234.0700, 10389.23
234.5521, 10385.30
235.0342, 10383.74
235.5164, 10386.01
235.9985, 10391.31
236.4806, 10410.90
236.9627, 10456.14
237.4448, 10505.37
237.9269, 10533.11
238.4091, 10527.87
238.8912, 10520.86
239.3733, 10521.00
239.8554, 10530.78
240.3375, 10527.88
240.8196, 10500.94
241.3018, 10470.26
241.7839, 10462.93
242.2660, 10494.47
242.7481, 10522.07
243.2302, 10534.74
243.7123, 10530.73
244.1945, 10519.53
244.6766, 10487.41
245.1587, 10458.35
245.6408, 10469.95
246.1229, 10553.38
246.6050, 10622.11
247.0872, 10646.72
247.5693, 10615.15
248.0514, 10599.34
248.5335, 10606.11
249.0156, 10623.94
249.4977, 10634.43
249.9799, 10629.75
250.4620, 10632.31
250.9441, 10651.88
251.4262, 10694.72
251.9083, 10725.64
252.3904, 10740.93
252.8726, 10746.65
253.3547, 10752.49
253.8368, 10761.12
254.3189, 10764.58
254.8010, 10756.48
255.2831, 10729.70
255.7653, 10725.49
256.2474, 10755.40
256.7295, 10799.32
257.2116, 10821.88
257.6937, 10812.38
258.1758, 10804.21
258.6580, 10812.32
259.1401, 10844.15
259.6222, 10854.32
260.1043, 10832.60
260.5864, 10797.36
261.0685, 10780.04
261.5507, 10783.87
262.0328, 10798.29
262.5149, 10823.51
262.9970, 10864.33
263.4791, 10888.74
263.9612, 10886.94
264.4434, 10878.14
264.9255, 10902.17
265.4076, 10978.79
265.8897, 11034.24
266.3718, 11030.52
266.8539, 10952.72
267.3361, 10915.57
267.8182, 10932.07
268.3003, 10975.43
268.7824, 11000.55
269.2645, 11000.40
269.7466, 11003.94
270.2288, 11027.60
270.7109, 11076.06
271.1930, 11098.81
271.6751, 11089.16
272.1572, 11063.00
272.6393, 11043.08
273.1215, 11028.21
273.6036, 11024.88
274.0857, 11041.06
274.5678, 11078.52
275.0499, 11100.52
275.5320, 11103.23
276.0142, 11097.20
276.4963, 11098.08
276.9784, 11106.43
277.4605, 11118.60
277.9426, 11135.69
278.4247, 11157.53
278.9069, 11172.42
279.3890, 11179.68
279.8711, 11181.17
280.3532, 11174.76
280.8354, 11158.86
281.3175, 11154.21
281.7996, 11173.28
282.2817, 11213.91
282.7638, 11251.84
283.2459, 11288.54
283.7281, 11318.16
284.2102, 11329.70
284.6923, 11323.10
285.1744, 11315.20
285.6565, 11312.12
286.1386, 11313.26
286.6208, 11315.29
287.1029, 11317.94
287.5850, 11322.58
288.0671, 11329.75
288.5492, 11339.69
289.0313, 11355.56
289.5135, 11384.51
289.9956, 11420.65
290.4777, 11442.06
290.9598, 11447.94
291.4419, 11446.04
291.9240, 11442.76
292.4062, 11438.39
292.8883, 11434.39
293.3704, 11425.85
293.8525, 11419.22
294.3346, 11435.55
294.8167, 11476.21
295.2989, 11517.59
295.7810, 11533.73
296.2631, 11530.42
296.7452, 11527.02
297.2273, 11527.31
297.7094, 11533.15
298.1916, 11551.18
298.6737, 11581.18
299.1558, 11611.09
299.6379, 11615.70
300.1200, 11611.96
300.6021, 11641.62
301.0843, 11758.81
301.5664, 11886.26
302.0485, 11910.85
302.5306, 11839.42
303.0127, 11757.79
303.4948, 11727.51
303.9770, 11730.73
304.4591, 11738.22
304.9412, 11741.03
305.4233, 11744.52
305.9054, 11755.15
306.3875, 11771.89
306.8697, 11788.60
307.3518, 11800.67
307.8339, 11810.48
308.3160, 11819.93
308.7981, 11824.59
309.2802, 11835.46
309.7624, 11868.42
310.2445, 11917.49
310.7266, 11957.11
311.2087, 11968.89
311.6908, 11967.34
312.1729, 11965.45
312.6551, 11965.53
313.1372, 11966.88
313.6193, 11970.05
314.1014, 11974.37
314.5835, 11977.71
315.0656, 11977.34
315.5478, 11976.83
316.0299, 11977.63
316.5120, 11976.24
316.9941, 11983.58
317.4762, 12010.40
317.9583, 12048.83
318.4405, 12082.11
318.9226, 12103.69
319.4047, 12119.33
319.8868, 12129.43
320.3689, 12126.94
320.8510, 12136.23
321.3332, 12182.04
321.8153, 12240.76
322.2974, 12271.99
322.7795, 12239.32
323.2616, 12202.90
323.7437, 12181.40
324.2259, 12175.34
324.7080, 12186.92
325.1901, 12237.88
325.6722, 12301.14
326.1543, 12339.20
326.6364, 12314.74
327.1186, 12300.32
327.6007, 12320.31
328.0828, 12388.78
328.5649, 12425.10
329.0470, 12401.82
329.5291, 12360.83
330.0113, 12346.90
330.4934, 12382.47
330.9755, 12412.92
331.4576, 12425.54
331.9397, 12419.20
332.4218, 12420.62
332.9040, 12431.75
333.3861, 12448.74
333.8682, 12469.96
334.3503, 12501.65
334.8324, 12522.80
335.3145, 12526.25
335.7967, 12514.93
336.2788, 12513.79
336.7609, 12525.74
337.2430, 12542.27
337.7251, 12557.64
338.2072, 12572.45
338.6894, 12583.60
339.1715, 12589.21
339.6536, 12591.70
340.1357, 12601.27
340.6178, 12620.58
341.0999, 12635.71
341.5821, 12636.35
342.0642, 12622.51
342.5463, 12605.51
343.0284, 12583.22
343.5105, 12563.50
343.9926, 12567.38
344.4748, 12595.00
344.9569, 12620.14
345.4390, 12623.28
345.9211, 12609.88
346.4032, 12606.08
346.8853, 12614.63
347.3675, 12628.39
347.8496, 12635.95
348.3317, 12639.18
348.8138, 12647.77
349.2959, 12676.04
349.7780, 12710.66
350.2602, 12722.44
350.7423, 12708.53
351.2244, 12691.65
351.7065, 12698.68
352.1887, 12719.63
352.6708, 12731.78
353.1529, 12720.81
353.6350, 12699.23
354.1171, 12671.93
354.5992, 12639.89
355.0814, 12626.20
355.5635, 12669.51
356.0456, 12734.43
356.5277, 12774.04
357.0098, 12746.43
357.4919, 12715.98
357.9741, 12738.26
358.4562, 12800.28
358.9383, 12838.48
359.4204, 12790.75
359.9025, 12722.10
360.3846, 12685.59
360.8668, 12710.18
361.3489, 12742.23
361.8310, 12764.97
362.3131, 12780.10
362.7952, 12791.66
363.2773, 12794.94
363.7595, 12799.33
364.2416, 12811.48
364.7237, 12840.89
365.2058, 12857.66
365.6879, 12841.64
366.1700, 12812.65
366.6522, 12802.96
367.1343, 12837.64
367.6164, 12871.01
368.0985, 12888.89
368.5806, 12885.95
369.0627, 12890.78
369.5449, 12914.05
370.0270, 12938.86
370.5091, 12946.77
370.9912, 12922.30
371.4733, 12905.58
371.9554, 12904.04
372.4376, 12917.41
372.9197, 12942.38
373.4018, 12993.06
373.8839, 13034.32
374.3660, 13029.40
374.8481, 12958.60
375.3303, 12919.04
375.8124, 12933.24
376.2945, 12983.89
376.7766, 13010.77
377.2587, 13009.21
377.7408, 13002.52
378.2230, 13007.39
378.7051, 13023.50
379.1872, 13028.12
379.6693, 13015.57
380.1514, 12998.53
380.6335, 12998.81
381.1157, 13016.01
381.5978, 13040.85
382.0799, 13077.22
382.5620, 13117.88
383.0441, 13136.88
383.5262, 13131.30
384.0084, 13120.47
384.4905, 13124.36
384.9726, 13139.97
385.4547, 13158.08
385.9368, 13181.09
386.4189, 13201.57
386.9011, 13205.82
387.3832, 13195.04
387.8653, 13187.37
388.3474, 13199.33
388.8295, 13221.24
389.3116, 13240.12
389.7938, 13247.36
390.2759, 13256.47
390.7580, 13283.03
391.2401, 13320.71
391.7222, 13346.78
392.2043, 13339.10
392.6865, 13323.50
393.1686, 13319.01
393.6507, 13337.58
394.1328, 13348.31
394.6149, 13328.56
395.0970, 13296.28
395.5792, 13282.92
396.0613, 13305.70
396.5434, 13339.01
397.0255, 13380.81
397.5076, 13437.58
397.9897, 13471.06
398.4719, 13458.67
398.9540, 13431.36
399.4361, 13419.00
399.9182, 13437.71
400.4003, 13449.08
400.8824, 13440.46
401.3646, 13413.97
401.8467, 13412.65
402.3288, 13449.86
402.8109, 13492.99
403.2930, 13517.92
403.7751, 13516.60
404.2573, 13526.68
404.7394, 13557.29
405.2215, 13597.51
405.7036, 13613.75
406.1857, 13600.80
406.6678, 13591.57
407.1500, 13612.59
407.6321, 13661.17
408.1142, 13673.00
408.5963, 13638.41
409.0784, 13592.90
409.5605, 13586.08
410.0427, 13613.80
410.5248, 13643.95
411.0069, 13665.19
411.4890, 13680.56
411.9711, 13695.92
412.4532, 13711.31
412.9354, 13725.68
413.4175, 13732.58
413.8996, 13738.51
414.3817, 13757.13
414.8638, 13804.70
415.3459, 13848.19
415.8281, 13846.09
416.3102, 13811.32
416.7923, 13787.93
417.2744, 13813.31
417.7565, 13852.46
418.2386, 13878.76
418.7208, 13887.28
419.2029, 13886.39
419.6850, 13863.53
420.1671, 13837.00
420.6492, 13833.68
421.1313, 13887.79
421.6135, 13941.56
422.0956, 13976.96
422.5777, 13991.74
423.0598, 13999.24
423.5420, 13984.83
424.0241, 13972.88
424.5062, 13982.45
424.9883, 14034.27
425.4704, 14079.39
425.9525, 14117.93
426.4347, 14147.79
426.9168, 14157.98
427.3989, 14135.58
427.8810, 14114.41
428.3631, 14111.30
428.8452, 14129.24
429.3274, 14155.67
429.8095, 14197.24
430.2916, 14237.39
430.7737, 14238.86
431.2558, 14195.97
431.7379, 14174.58
432.2201, 14211.95
432.7022, 14292.13
433.1843, 14331.48
433.6664, 14326.12
434.1485, 14315.84
434.6306, 14340.36
435.1128, 14391.01
435.5949, 14438.85
436.0770, 14476.61
436.5591, 14509.12
437.0412, 14540.77
437.5233, 14571.71
438.0055, 14601.91
438.4876, 14627.11
438.9697, 14653.76
439.4518, 14692.63
439.9339, 14749.60
440.4160, 14797.53
440.8982, 14807.75
441.3803, 14800.63
441.8624, 14806.26
442.3445, 14833.07
442.8266, 14876.90
443.3087, 14944.40
443.7909, 15035.01
444.2730, 15115.33
444.7551, 15168.14
445.2372, 15214.49
445.7193, 15268.81
446.2014, 15348.94
446.6836, 15416.28
447.1657, 15454.39
447.6478, 15479.66
448.1299, 15538.83
448.6120, 15655.79
449.0941, 15771.10
449.5763, 15862.12
450.0584, 15926.71
450.5405, 15984.38
451.0226, 16034.13
451.5047, 16079.35
451.9868, 16119.60
452.4690, 16152.16
452.9511, 16206.12
453.4332, 16297.28
453.9153, 16410.65
454.3974, 16491.91
454.8795, 16540.87
455.3617, 16584.27
455.8438, 16647.21
456.3259, 16720.57
456.8080, 16776.21
457.2901, 16805.51
457.7722, 16830.03
458.2544, 16875.04
458.7365, 16934.55
459.2186, 16991.74
459.7007, 17051.53
460.1828, 17097.74
460.6649, 17103.25
461.1471, 17068.91
461.6292, 17050.07
462.1113, 17089.14
462.5934, 17151.68
463.0755, 17206.35
463.5576, 17252.90
464.0398, 17282.06
464.5219, 17277.79
465.0040, 17252.53
465.4861, 17242.41
465.9682, 17260.80
466.4503, 17288.49
466.9325, 17321.02
467.4146, 17361.56
467.8967, 17395.98
468.3788, 17432.00
468.8609, 17455.93
469.3430, 17445.97
469.8252, 17378.06
470.3073, 17338.75
470.7894, 17348.53
471.2715, 17399.08
471.7536, 17455.33
472.2357, 17519.75
472.7179, 17578.49
473.2000, 17621.86
473.6821, 17650.69
474.1642, 17673.13
474.6463, 17689.22
475.1284, 17700.94
475.6106, 17701.76
476.0927, 17697.64
476.5748, 17713.00
477.0569, 17773.63
477.5390, 17851.51
478.0211, 17917.27
478.5033, 17970.02
478.9854, 17999.42
479.4675, 17983.34
479.9496, 17946.94
480.4317, 17914.83
480.9138, 17891.70
481.3960, 17876.07
481.8781, 17874.33
482.3602, 17879.21
482.8423, 17876.26
483.3244, 17870.31
483.8065, 17847.85
484.2887, 17799.60
484.7708, 17721.26
485.2529, 17645.18
485.7350, 17575.31
486.2171, 17505.57
486.6992, 17430.38
487.1814, 17345.15
487.6635, 17266.34
488.1456, 17199.76
488.6277, 17138.79
489.1098, 17059.48
489.5919, 16953.83
490.0741, 16858.13
490.5562, 16796.14
491.0383, 16764.71
491.5204, 16708.44
492.0026, 16623.06
492.4847, 16531.77
492.9668, 16457.07
493.4489, 16397.44
493.9310, 16347.18
494.4131, 16310.68
494.8953, 16275.72
495.3774, 16224.52
495.8595, 16159.91
496.3416, 16097.50
496.8237, 16032.81
497.3058, 15981.17
497.7880, 15966.24
498.2701, 15999.85
498.7522, 16013.46
499.2343, 15953.28
499.7164, 15863.57
500.1985, 15792.55
500.6807, 15764.10
501.1628, 15744.80
501.6449, 15729.46
502.1270, 15717.83
502.6091, 15708.63
503.0912, 15711.47
503.5734, 15706.31
504.0555, 15679.14
504.5376, 15614.67
505.0197, 15586.11
505.5018, 15606.50
505.9839, 15646.86
506.4661, 15670.90
506.9482, 15677.55
507.4303, 15677.17
507.9124, 15672.71
508.3945, 15662.72
508.8766, 15638.12
509.3588, 15599.12
509.8409, 15565.31
510.3230, 15553.55
510.8051, 15556.24
511.2872, 15555.97
511.7693, 15549.80
512.2515, 15547.25
512.7336, 15563.77
513.2157, 15588.73
513.6978, 15604.27
514.1799, 15592.51
514.6620, 15578.98
515.1442, 15578.45
515.6263, 15589.14
516.1084, 15600.63
516.5905, 15606.02
517.0726, 15613.96
517.5547, 15632.52
518.0369, 15679.24
518.5190, 15696.52
519.0011, 15654.29
519.4832, 15596.89
519.9653, 15578.96
520.4474, 15621.51
520.9296, 15661.79
521.4117, 15691.97
521.8938, 15710.87
522.3759, 15705.79
522.8580, 15669.01
523.3401, 15640.81
523.8223, 15657.34
524.3044, 15710.66
524.7865, 15730.42
525.2686, 15707.07
525.7507, 15678.86
526.2328, 15701.00
526.7150, 15755.42
527.1971, 15791.10
527.6792, 15777.97
528.1613, 15750.67
528.6434, 15741.60
529.1255, 15747.86
529.6077, 15757.28
530.0898, 15764.35
530.5719, 15771.77
531.0540, 15780.50
531.5361, 15789.46
532.0182, 15804.72
532.5004, 15839.96
532.9825, 15877.00
533.4646, 15896.07
533.9467, 15882.21
534.4288, 15867.39
534.9109, 15846.53
535.3931, 15826.55
535.8752, 15837.49
536.3573, 15892.56
536.8394, 15948.33
537.3215, 15987.28
537.8036, 16009.02
538.2858, 16016.80
538.7679, 16006.83
539.2500, 15998.45
539.7321, 16022.15
540.2142, 16068.88
540.6964, 16092.50
541.1785, 16072.82
541.6606, 16042.08
542.1427, 16036.05
542.6248, 16053.72
543.1069, 16091.72
543.5891, 16180.62
544.0712, 16266.60
544.5533, 16296.89
545.0354, 16267.14
545.5175, 16245.81
545.9996, 16268.05
546.4818, 16306.19
546.9639, 16338.35
547.4460, 16352.23
547.9281, 16371.43
548.4102, 16400.57
548.8923, 16435.56
549.3745, 16468.88
549.8566, 16499.63
550.3387, 16530.07
550.8208, 16558.59
551.3029, 16586.25
551.7850, 16632.42
552.2672, 16704.79
552.7493, 16763.97
553.2314, 16771.83
553.7135, 16735.86
554.1956, 16700.32
554.6777, 16665.95
555.1599, 16647.86
555.6420, 16677.12
556.1241, 16738.00
556.6062, 16791.92
557.0883, 16828.97
557.5704, 16847.21
558.0526, 16830.86
558.5347, 16788.92
559.0168, 16762.68
559.4989, 16793.96
559.9810, 16829.68
560.4631, 16838.24
560.9453, 16808.58
561.4274, 16777.12
561.9095, 16735.27
562.3916, 16701.14
562.8737, 16695.11
563.3558, 16741.80
563.8380, 16766.17
564.3201, 16752.19
564.8022, 16713.24
565.2843, 16691.60
565.7664, 16692.54
566.2485, 16680.50
566.7307, 16624.35
567.2128, 16538.61
567.6949, 16498.63
568.1770, 16505.64
568.6591, 16524.87
569.1412, 16524.98
569.6234, 16516.03
570.1055, 16519.65
570.5876, 16548.35
571.0697, 16568.98
571.5518, 16547.93
572.0339, 16503.00
572.5161, 16465.09
572.9982, 16438.12
573.4803, 16427.19
573.9624, 16443.53
574.4445, 16484.58
574.9266, 16512.56
575.4088, 16523.08
575.8909, 16521.29
576.3730, 16505.54
576.8551, 16467.15
577.3372, 16448.72
577.8193, 16456.90
578.3015, 16474.97
578.7836, 16485.54
579.2657, 16488.41
579.7478, 16483.69
580.2299, 16468.97
580.7120, 16450.11
581.1942, 16431.81
581.6763, 16416.80
582.1584, 16420.18
582.6405, 16471.82
583.1226, 16534.09
583.6047, 16561.61
584.0869, 16553.71
584.5690, 16537.26
585.0511, 16517.52
585.5332, 16501.44
586.0153, 16495.20
586.4974, 16504.24
586.9796, 16514.89
587.4617, 16522.90
587.9438, 16531.78
588.4259, 16548.21
588.9080, 16589.01
589.3901, 16607.99
589.8723, 16588.83
590.3544, 16541.31
590.8365, 16509.63
591.3186, 16493.41
591.8007, 16493.72
592.2828, 16521.03
592.7650, 16568.33
593.2471, 16594.43
593.7292, 16597.16
594.2113, 16596.98
594.6934, 16615.79
595.1755, 16644.48
595.6577, 16667.15
596.1398, 16678.39
596.6219, 16686.34
597.1040, 16698.63
597.5862, 16711.19
598.0683, 16716.90
598.5504, 16704.36
599.0325, 16693.59
599.5146, 16692.15
599.9968, 16699.70
600.4789, 16706.38
600.9610, 16711.68
601.4431, 16716.39
601.9252, 16718.07
602.4073, 16713.29
602.8895, 16730.47
603.3716, 16777.63
603.8537, 16826.79
604.3358, 16847.25
604.8179, 16841.21
605.3000, 16826.83
605.7822, 16803.48
606.2643, 16782.02
606.7464, 16776.12
607.2285, 16783.63
607.7106, 16798.44
608.1927, 16829.74
608.6749, 16857.48
609.1570, 16862.12
609.6391, 16846.42
610.1212, 16835.58
610.6033, 16844.70
611.0854, 16856.08
611.5676, 16857.07
612.0497, 16835.07
612.5318, 16839.04
613.0139, 16888.45
613.4960, 16945.32
613.9781, 16968.90
614.4603, 16951.92
614.9424, 16936.52
615.4245, 16926.43
615.9066, 16923.51
616.3887, 16935.77
616.8708, 16961.53
617.3530, 16983.65
617.8351, 16993.87
618.3172, 16996.17
618.7993, 16992.88
619.2814, 16985.25
619.7635, 16981.38
620.2457, 16982.44
620.7278, 16991.76
621.2099, 17017.14
621.6920, 17065.54
622.1741, 17098.83
622.6563, 17091.79
623.1384, 17073.82
623.6205, 17072.03
624.1026, 17102.33
624.5847, 17121.42
625.0668, 17124.27
625.5490, 17116.54
626.0311, 17104.22
626.5132, 17084.24
626.9953, 17083.82
627.4774, 17120.81
627.9595, 17178.05
628.4417, 17209.90
628.9238, 17217.78
629.4059, 17216.63
629.8880, 17210.80
630.3701, 17204.25
630.8522, 17203.91
631.3344, 17210.69
631.8165, 17212.87
632.2986, 17183.50
632.7807, 17158.23
633.2628, 17170.76
633.7449, 17271.04
634.2271, 17337.66
634.7092, 17345.31
635.1913, 17320.25
635.6734, 17293.92
636.1555, 17259.06
636.6376, 17243.03
637.1198, 17256.01
637.6019, 17288.73
638.0840, 17320.04
638.5661, 17350.21
639.0482, 17364.04
639.5303, 17334.31
640.0125, 17287.31
640.4946, 17283.50
640.9767, 17321.36
641.4588, 17365.34
641.9409, 17397.56
642.4230, 17419.58
642.9052, 17432.07
643.3873, 17434.76
643.8694, 17429.84
644.3515, 17410.91
644.8336, 17387.96
645.3157, 17371.54
645.7979, 17358.86
646.2800, 17358.77
646.7621, 17379.16
647.2442, 17408.42
647.7263, 17415.87
648.2084, 17396.34
648.6906, 17388.79
649.1727, 17410.70
649.6548, 17451.81
650.1369, 17488.78
650.6190, 17520.83
651.1011, 17541.90
651.5833, 17544.18
652.0654, 17535.01
652.5475, 17515.72
653.0296, 17485.81
653.5117, 17473.13
653.9938, 17515.75
654.4760, 17566.18
654.9581, 17586.08
655.4402, 17550.46
655.9223, 17516.59
656.4044, 17469.96
656.8865, 17437.63
657.3687, 17464.68
657.8508, 17577.21
658.3329, 17649.29
658.8150, 17648.08
