##NAMES=Erythrite
##RRUFFID=R050073
##IDEAL CHEMISTRY=Co^2+^_3_(As^5+^O_4_)_2_&#183;8H_2_O
##LOCALITY=Bou Azzer, Morocco
##OWNER=RRUFF
##SOURCE=Rock Currier
##DESCRIPTION=Crimson flattened crystals
##STATUS=The identification of this mineral has been confirmed by X-ray diffraction and chemical analysis
##URL=rruff.info/R050073
##MEASURED CHEMISTRY=(Co_0.65_Mg_0.35_)_3_(As_1.00_O_4_)_2_Â·8H_2_O
134.7162, 218.1765
135.1983, 233.2451
135.6804, 246.1655
136.1626, 255.8336
136.6447, 264.6548
137.1268, 278.0265
137.6089, 297.2967
138.0910, 316.0188
138.5731, 329.8546
139.0553, 337.5982
139.5374, 347.0352
140.0195, 359.0693
140.5016, 373.0320
140.9837, 385.6640
141.4658, 396.1841
141.9480, 406.7969
142.4301, 418.4264
142.9122, 429.4636
143.3943, 445.1441
143.8764, 468.5802
144.3585, 499.3107
144.8407, 524.1207
145.3228, 539.1210
145.8049, 550.9824
146.2870, 565.6813
146.7691, 583.9762
147.2512, 603.8790
147.7334, 625.6890
148.2155, 650.7164
148.6976, 672.6823
149.1797, 692.0550
149.6618, 708.2548
150.1439, 720.3922
150.6261, 730.3059
151.1082, 734.3655
151.5903, 731.7299
152.0724, 722.7687
152.5545, 706.2870
153.0366, 676.3231
153.5188, 639.0114
154.0009, 606.5483
154.4830, 583.1384
154.9651, 562.7573
155.4472, 542.3959
155.9293, 519.9398
156.4115, 500.1397
156.8936, 484.8616
157.3757, 473.1648
157.8578, 461.5201
158.3399, 447.4281
158.8221, 433.9425
159.3042, 422.9129
159.7863, 415.9964
160.2684, 410.4258
160.7505, 404.6548
161.2326, 398.9728
161.7148, 396.0708
162.1969, 401.2140
162.6790, 408.0983
163.1611, 410.5900
163.6432, 400.8917
164.1253, 390.9232
164.6075, 387.4510
165.0896, 390.7335
165.5717, 395.1317
166.0538, 397.3144
166.5359, 398.6729
167.0180, 401.1943
167.5002, 407.4807
167.9823, 414.1497
168.4644, 417.8404
168.9465, 417.7395
169.4286, 418.6104
169.9107, 425.6155
170.3929, 436.2134
170.8750, 445.2362
171.3571, 448.3375
171.8392, 449.1612
172.3213, 451.3861
172.8034, 455.4157
173.2856, 460.9526
173.7677, 470.0277
174.2498, 481.1176
174.7319, 488.8620
175.2140, 486.6752
175.6961, 479.8904
176.1783, 476.4353
176.6604, 477.6927
177.1425, 482.8441
177.6246, 492.8800
178.1067, 506.9914
178.5888, 520.6105
179.0710, 528.4354
179.5531, 533.1497
180.0352, 540.8108
180.5173, 553.9061
180.9994, 569.4708
181.4815, 582.5464
181.9637, 593.2935
182.4458, 603.1243
182.9279, 612.1855
183.4100, 621.1167
183.8921, 632.4489
184.3742, 647.0150
184.8564, 664.4248
185.3385, 684.7009
185.8206, 708.3501
186.3027, 730.8256
186.7848, 745.4841
187.2669, 753.6075
187.7491, 765.5013
188.2312, 786.7374
188.7133, 814.5233
189.1954, 839.8418
189.6775, 862.7587
190.1596, 882.1318
190.6418, 894.9261
191.1239, 901.2688
191.6060, 908.7560
192.0881, 921.8149
192.5702, 939.5324
193.0524, 954.0230
193.5345, 965.1450
194.0166, 973.3522
194.4987, 976.5900
194.9808, 974.2183
195.4629, 976.5878
195.9451, 991.0947
196.4272, 1017.607
196.9093, 1038.602
197.3914, 1051.663
197.8735, 1062.146
198.3556, 1081.944
198.8378, 1112.726
199.3199, 1141.775
199.8020, 1158.958
200.2841, 1162.706
200.7662, 1176.781
201.2483, 1205.267
201.7305, 1242.322
202.2126, 1272.920
202.6947, 1295.224
203.1768, 1317.928
203.6589, 1347.889
204.1410, 1386.498
204.6232, 1420.279
205.1053, 1447.002
205.5874, 1468.580
206.0695, 1491.658
206.5516, 1517.193
207.0337, 1541.707
207.5159, 1564.990
207.9980, 1588.808
208.4801, 1600.449
208.9622, 1595.617
209.4443, 1577.450
209.9264, 1562.910
210.4086, 1556.571
210.8907, 1544.564
211.3728, 1513.904
211.8549, 1457.801
212.3370, 1405.600
212.8191, 1362.612
213.3013, 1327.693
213.7834, 1287.783
214.2655, 1241.714
214.7476, 1192.321
215.2297, 1141.583
215.7118, 1086.943
216.1940, 1036.593
216.6761, 991.8135
217.1582, 952.3953
217.6403, 919.1199
218.1224, 894.7450
218.6045, 873.3321
219.0867, 848.3914
219.5688, 816.5525
220.0509, 789.6692
220.5330, 771.3975
221.0151, 761.6517
221.4972, 753.3035
221.9794, 747.5172
222.4615, 741.7513
222.9436, 732.9089
223.4257, 719.2565
223.9078, 705.8670
224.3899, 693.5601
224.8721, 682.0235
225.3542, 673.4821
225.8363, 668.0980
226.3184, 665.4721
226.8005, 665.5041
227.2827, 669.9465
227.7648, 673.6152
228.2469, 674.3133
228.7290, 671.0684
229.2111, 672.7032
229.6932, 681.8874
230.1754, 693.7643
230.6575, 701.5694
231.1396, 701.4710
231.6217, 704.1057
232.1038, 713.6724
232.5859, 732.4271
233.0681, 745.6854
233.5502, 750.9931
234.0323, 752.5432
234.5144, 756.1968
234.9965, 761.7716
235.4786, 769.8192
235.9608, 781.4321
236.4429, 797.8931
236.9250, 811.2993
237.4071, 821.1713
237.8892, 828.1725
238.3713, 832.6141
238.8535, 831.0075
239.3356, 832.7521
239.8177, 841.9804
240.2998, 861.8033
240.7819, 877.1322
241.2640, 886.7994
241.7462, 892.9009
242.2283, 899.2145
242.7104, 906.8200
243.1925, 912.8094
243.6746, 915.3701
244.1567, 912.1949
244.6389, 913.8752
245.1210, 922.6486
245.6031, 934.9161
246.0852, 944.1069
246.5673, 948.3309
247.0494, 952.7191
247.5316, 959.5270
248.0137, 970.3167
248.4958, 978.4081
248.9779, 984.1624
249.4600, 986.9531
249.9421, 984.3398
250.4243, 971.1746
250.9064, 961.8835
251.3885, 964.3823
251.8706, 986.5604
252.3527, 993.4170
252.8348, 980.2065
253.3170, 954.7120
253.7991, 930.7607
254.2812, 907.7242
254.7633, 887.9352
255.2454, 873.0763
255.7275, 865.2180
256.2097, 854.9930
256.6918, 841.6943
257.1739, 826.6352
257.6560, 811.5394
258.1381, 794.9968
258.6202, 781.3339
259.1024, 773.3601
259.5845, 773.8196
260.0666, 768.3598
260.5487, 754.1827
261.0308, 736.2191
261.5129, 723.4706
261.9951, 718.4357
262.4772, 712.8599
262.9593, 702.1366
263.4414, 683.4113
263.9235, 673.9000
264.4056, 677.8798
264.8878, 686.9859
265.3699, 685.6171
265.8520, 670.1723
266.3341, 654.5112
266.8162, 644.6532
267.2983, 642.1811
267.7805, 635.2016
268.2626, 621.5081
268.7447, 605.8235
269.2268, 597.3453
269.7089, 598.4216
270.1910, 598.2849
270.6732, 591.8536
271.1553, 578.2337
271.6374, 567.1459
272.1195, 558.5319
272.6016, 552.5225
273.0837, 550.7658
273.5659, 554.4125
274.0480, 556.3629
274.5301, 552.7336
275.0122, 543.2352
275.4943, 537.4958
275.9764, 536.5993
276.4586, 537.4237
276.9407, 535.0712
277.4228, 529.2142
277.9049, 523.2897
278.3870, 518.0235
278.8691, 513.5031
279.3513, 512.3791
279.8334, 515.5129
280.3155, 519.8283
280.7976, 520.9637
281.2798, 518.7795
281.7619, 516.4529
282.2440, 514.8220
282.7261, 513.9497
283.2082, 514.3806
283.6903, 516.1873
284.1725, 519.0294
284.6546, 522.9855
285.1367, 527.9631
285.6188, 532.3635
286.1009, 534.9579
286.5830, 536.4489
287.0652, 540.0038
287.5473, 545.7474
288.0294, 552.6105
288.5115, 559.6489
288.9936, 566.8770
289.4757, 574.1814
289.9579, 582.3601
290.4400, 590.4232
290.9221, 594.9310
291.4042, 595.5894
291.8863, 596.3660
292.3684, 601.1777
292.8506, 609.5273
293.3327, 619.3977
293.8148, 631.2631
294.2969, 643.6797
294.7790, 653.4001
295.2611, 660.4586
295.7433, 667.8741
296.2254, 680.6498
296.7075, 696.3011
297.1896, 707.1873
297.6717, 709.2901
298.1538, 707.3939
298.6360, 708.0961
299.1181, 711.2970
299.6002, 715.7338
300.0823, 722.9182
300.5644, 730.4141
301.0465, 733.2346
301.5287, 727.6873
302.0108, 719.9464
302.4929, 718.5587
302.9750, 722.1686
303.4571, 723.0884
303.9392, 713.1008
304.4214, 698.2157
304.9035, 686.6238
305.3856, 682.2180
305.8677, 678.8701
306.3498, 672.4069
306.8319, 662.9330
307.3141, 650.5901
307.7962, 632.2526
308.2783, 612.7469
308.7604, 596.4035
309.2425, 584.4069
309.7246, 575.7767
310.2068, 572.2514
310.6889, 571.8863
311.1710, 569.5951
311.6531, 560.0952
312.1352, 549.4489
312.6173, 542.6955
313.0995, 542.1777
313.5816, 541.2672
314.0637, 536.5179
314.5458, 529.2254
315.0279, 521.8086
315.5100, 512.9882
315.9922, 505.9484
316.4743, 503.5132
316.9564, 507.6652
317.4385, 509.5169
317.9206, 504.5881
318.4027, 495.9555
318.8849, 487.9193
319.3670, 480.3048
319.8491, 474.6487
320.3312, 471.6938
320.8133, 471.6984
321.2954, 473.1370
321.7776, 477.2236
322.2597, 482.0200
322.7418, 485.4608
323.2239, 487.1858
323.7060, 487.5919
324.1881, 485.8582
324.6703, 481.6428
325.1524, 479.5801
325.6345, 482.5696
326.1166, 486.4888
326.5987, 488.0109
327.0808, 482.8057
327.5630, 480.3307
328.0451, 483.9382
328.5272, 493.1146
329.0093, 496.4395
329.4914, 489.7598
329.9735, 480.9520
330.4557, 474.9003
330.9378, 471.5238
331.4199, 471.2462
331.9020, 475.5923
332.3841, 483.3059
332.8662, 488.2608
333.3484, 489.7745
333.8305, 489.4902
334.3126, 487.6517
334.7947, 482.7829
335.2768, 481.2834
335.7589, 484.8892
336.2411, 491.2562
336.7232, 494.9232
337.2053, 495.9651
337.6874, 493.9852
338.1695, 486.3210
338.6516, 471.3918
339.1338, 466.8354
339.6159, 476.6040
340.0980, 491.0704
340.5801, 492.3539
341.0622, 478.9663
341.5443, 466.1310
342.0265, 459.9871
342.5086, 460.0017
342.9907, 461.2535
343.4728, 464.0698
343.9549, 466.7972
344.4370, 467.2517
344.9192, 465.6007
345.4013, 463.3081
345.8834, 460.1345
346.3655, 456.9133
346.8476, 456.5009
347.3297, 458.9778
347.8119, 461.8650
348.2940, 462.6302
348.7761, 461.9001
349.2582, 461.6979
349.7403, 463.5225
350.2225, 465.1893
350.7046, 462.0162
351.1867, 454.7565
351.6688, 449.4513
352.1509, 452.4486
352.6331, 459.6546
353.1152, 464.7247
353.5973, 465.3036
354.0794, 465.2068
354.5615, 468.1868
355.0436, 473.3676
355.5258, 478.0840
356.0079, 481.5461
356.4900, 483.5286
356.9721, 482.6838
357.4542, 477.0149
357.9363, 474.5926
358.4185, 483.9341
358.9006, 499.1677
359.3827, 510.1341
359.8648, 510.3925
360.3469, 507.3296
360.8290, 503.6243
361.3112, 499.0649
361.7933, 497.2971
362.2754, 499.1732
362.7575, 504.5077
363.2396, 513.1374
363.7217, 529.6990
364.2039, 544.7728
364.6860, 556.6044
365.1681, 565.1500
365.6502, 569.4896
366.1323, 563.3005
366.6144, 556.6818
367.0966, 556.6551
367.5787, 572.1790
368.0608, 583.5363
368.5429, 587.7310
369.0250, 586.2401
369.5071, 586.5251
369.9893, 589.3358
370.4714, 593.0308
370.9535, 596.8721
371.4356, 600.7599
371.9177, 604.8879
372.3998, 609.0552
372.8820, 613.5898
373.3641, 619.7325
373.8462, 628.8901
374.3283, 635.9671
374.8104, 638.4490
375.2925, 635.9684
375.7747, 632.5380
376.2568, 626.6831
376.7389, 622.7326
377.2210, 628.8884
377.7031, 646.0969
378.1852, 659.5411
378.6674, 663.2004
379.1495, 659.5727
379.6316, 660.0564
380.1137, 665.0908
380.5958, 670.2203
381.0779, 669.5067
381.5601, 664.6017
382.0422, 664.5734
382.5243, 674.4771
383.0064, 686.3063
383.4885, 683.2892
383.9706, 667.6026
384.4528, 655.5010
384.9349, 663.3219
385.4170, 680.5608
385.8991, 688.9384
386.3812, 683.7371
386.8633, 676.2717
387.3455, 677.7315
387.8276, 685.0446
388.3097, 691.2212
388.7918, 691.8085
389.2739, 690.3804
389.7560, 690.0350
390.2382, 691.1865
390.7203, 691.2658
391.2024, 687.7808
391.6845, 682.8469
392.1666, 678.8555
392.6487, 679.2113
393.1309, 678.2239
393.6130, 670.5637
394.0951, 657.3101
394.5772, 651.2725
395.0593, 664.8726
395.5414, 680.9131
396.0236, 688.5014
396.5057, 676.1856
396.9878, 667.1801
397.4699, 664.7916
397.9520, 667.4250
398.4341, 670.1077
398.9163, 674.1289
399.3984, 676.8568
399.8805, 677.2401
400.3626, 674.6745
400.8447, 671.3171
401.3268, 665.7255
401.8090, 660.4153
402.2911, 659.5323
402.7732, 665.3773
403.2553, 669.3885
403.7374, 667.4556
404.2195, 660.3066
404.7017, 662.8649
405.1838, 678.2194
405.6659, 695.0176
406.1480, 701.8544
406.6301, 698.6003
407.1122, 696.9575
407.5944, 699.1957
408.0765, 704.0864
408.5586, 708.0193
409.0407, 711.0647
409.5228, 716.5977
410.0049, 729.8326
410.4871, 747.2753
410.9692, 758.9440
411.4513, 763.2935
411.9334, 764.0843
412.4155, 761.4292
412.8976, 758.1293
413.3798, 762.1225
413.8619, 783.8776
414.3440, 810.7678
414.8261, 830.1998
415.3082, 841.9251
415.7903, 850.3181
416.2725, 855.0038
416.7546, 859.2698
417.2367, 866.9470
417.7188, 879.4536
418.2009, 895.1872
418.6830, 915.5240
419.1652, 939.0948
419.6473, 960.0806
420.1294, 973.4124
420.6115, 986.1383
421.0937, 1002.149
421.5758, 1021.793
422.0579, 1044.445
422.5400, 1073.435
423.0221, 1104.716
423.5042, 1132.242
423.9864, 1153.088
424.4685, 1172.867
424.9506, 1191.681
425.4327, 1208.757
425.9148, 1232.281
426.3969, 1265.845
426.8791, 1301.743
427.3612, 1332.445
427.8433, 1355.450
428.3254, 1380.803
428.8075, 1409.718
429.2896, 1441.934
429.7718, 1477.193
430.2539, 1516.586
430.7360, 1553.647
431.2181, 1584.138
431.7002, 1608.293
432.1823, 1627.773
432.6645, 1640.930
433.1466, 1655.270
433.6287, 1685.866
434.1108, 1728.645
434.5929, 1763.088
435.0750, 1772.470
435.5572, 1771.486
436.0393, 1789.394
436.5214, 1825.212
437.0035, 1858.165
437.4856, 1873.939
437.9677, 1875.947
438.4499, 1866.842
438.9320, 1839.509
439.4141, 1814.507
439.8962, 1810.792
440.3783, 1821.277
440.8604, 1827.584
441.3426, 1817.969
441.8247, 1804.572
442.3068, 1795.177
442.7889, 1792.412
443.2710, 1785.029
443.7531, 1763.552
444.2353, 1738.488
444.7174, 1721.082
445.1995, 1726.366
445.6816, 1724.931
446.1637, 1708.606
446.6458, 1679.189
447.1280, 1654.092
447.6101, 1635.847
448.0922, 1619.058
448.5743, 1600.132
449.0564, 1575.104
449.5385, 1558.803
450.0207, 1554.727
450.5028, 1556.707
450.9849, 1552.887
451.4670, 1542.188
451.9491, 1531.322
452.4312, 1522.552
452.9134, 1515.790
453.3955, 1510.405
453.8776, 1506.592
454.3597, 1502.871
454.8418, 1499.021
455.3239, 1494.369
455.8061, 1486.125
456.2882, 1472.937
456.7703, 1456.836
457.2524, 1439.198
457.7345, 1420.708
458.2166, 1403.752
458.6988, 1390.667
459.1809, 1379.567
459.6630, 1371.008
460.1451, 1366.256
460.6272, 1354.139
461.1093, 1320.844
461.5915, 1278.219
462.0736, 1241.629
462.5557, 1220.510
463.0378, 1201.957
463.5199, 1184.199
464.0020, 1166.424
464.4842, 1142.653
464.9663, 1103.792
465.4484, 1064.624
465.9305, 1032.991
466.4126, 1013.632
466.8947, 993.2405
467.3769, 969.9581
467.8590, 946.5353
468.3411, 927.8895
468.8232, 918.0265
469.3053, 904.9038
469.7874, 883.6993
470.2696, 855.0940
470.7517, 831.7989
471.2338, 814.5187
471.7159, 800.5195
472.1980, 788.0909
472.6801, 777.1787
473.1623, 767.4794
473.6444, 759.0355
474.1265, 751.4521
474.6086, 744.5523
475.0907, 738.1495
475.5728, 731.0370
476.0550, 720.1580
476.5371, 708.9739
477.0192, 705.3411
477.5013, 709.6251
477.9834, 711.6809
478.4655, 700.9829
478.9477, 684.1511
479.4298, 670.0757
479.9119, 663.3599
480.3940, 657.3024
480.8761, 647.2487
481.3582, 634.9697
481.8404, 625.6993
482.3225, 621.1273
482.8046, 619.9766
483.2867, 623.3361
483.7688, 634.6109
484.2509, 638.8275
484.7331, 629.7571
485.2152, 615.5999
485.6973, 603.3380
486.1794, 591.4222
486.6615, 584.3032
487.1436, 584.2741
487.6258, 589.5576
488.1079, 591.7837
488.5900, 590.4520
489.0721, 587.3756
489.5542, 583.0749
490.0363, 577.5178
490.5185, 572.4382
491.0006, 567.8481
491.4827, 563.9866
491.9648, 561.8990
492.4470, 561.1588
492.9291, 559.2662
493.4112, 554.0257
493.8933, 548.3860
494.3754, 548.1123
494.8575, 552.3596
495.3397, 555.8278
495.8218, 553.8954
496.3039, 549.9312
496.7860, 547.5668
497.2681, 547.4730
497.7502, 548.3171
498.2324, 550.3928
498.7145, 552.6929
499.1966, 553.8870
499.6787, 551.6500
500.1608, 550.1792
500.6429, 552.8093
501.1251, 558.9572
501.6072, 559.1851
502.0893, 544.9654
502.5714, 531.6686
503.0535, 526.7178
503.5356, 533.6938
504.0178, 541.2328
504.4999, 552.4469
504.9820, 561.2639
505.4641, 555.1545
505.9462, 529.7236
506.4283, 512.8705
506.9105, 515.9432
507.3926, 533.0485
507.8747, 540.0543
508.3568, 536.4941
508.8389, 531.6543
509.3210, 532.1893
509.8032, 536.7647
510.2853, 542.5965
510.7674, 550.1248
511.2495, 555.5099
511.7316, 552.7324
512.2137, 544.9893
512.6959, 538.8401
513.1780, 540.2222
513.6601, 541.3967
514.1422, 534.5365
514.6243, 521.3806
515.1064, 513.9686
515.5886, 524.6950
516.0707, 537.2481
516.5528, 540.7603
517.0349, 527.0119
517.5170, 518.6381
517.9991, 521.4236
518.4813, 529.3533
518.9634, 535.1132
519.4455, 538.1727
519.9276, 539.9227
520.4097, 540.3404
520.8918, 539.6017
521.3740, 538.8209
521.8561, 537.9371
522.3382, 537.2128
522.8203, 536.8275
523.3024, 536.7739
523.7845, 537.1058
524.2667, 538.0454
524.7488, 538.5215
525.2309, 536.4545
525.7130, 532.6601
526.1951, 530.0280
526.6772, 529.8899
527.1594, 531.0522
527.6415, 532.8968
528.1236, 535.0840
528.6057, 536.1451
529.0878, 534.6761
529.5699, 532.1119
530.0521, 528.8833
530.5342, 524.2957
531.0163, 522.3685
531.4984, 527.5588
531.9805, 534.6837
532.4626, 538.2552
532.9448, 532.4874
533.4269, 529.2776
533.9090, 531.8881
534.3911, 538.2317
534.8732, 539.8342
535.3553, 534.6160
535.8375, 528.4872
536.3196, 523.2047
536.8017, 518.5360
537.2838, 518.9677
537.7659, 525.7073
538.2480, 533.5837
538.7302, 536.6476
539.2123, 535.6009
539.6944, 535.3499
540.1765, 537.6436
540.6586, 539.9360
541.1407, 537.3776
541.6229, 531.4238
542.1050, 527.2651
542.5871, 530.3666
543.0692, 534.7539
543.5513, 534.0854
544.0334, 528.0953
544.5156, 523.5981
544.9977, 525.4240
545.4798, 529.1132
545.9619, 531.1210
546.4440, 529.5573
546.9261, 528.1144
547.4083, 525.7522
547.8904, 524.1553
548.3725, 526.7170
548.8546, 537.5383
549.3367, 545.7615
549.8188, 548.1839
550.3010, 545.3117
550.7831, 542.7303
551.2652, 540.2054
551.7473, 538.7524
552.2294, 539.7181
552.7115, 542.7958
553.1937, 544.7674
553.6758, 545.2183
554.1579, 545.2260
554.6400, 547.2952
555.1221, 550.1269
555.6042, 549.7547
556.0864, 541.3115
556.5685, 532.5544
557.0506, 531.4345
557.5327, 536.5154
558.0148, 542.5353
558.4969, 549.7261
558.9791, 554.9695
559.4612, 556.0054
559.9433, 552.0661
560.4254, 546.7955
560.9075, 536.1743
561.3896, 527.2191
561.8718, 526.2711
562.3539, 541.1814
562.8360, 550.5674
563.3181, 550.9253
563.8002, 545.6743
564.2823, 542.9653
564.7645, 543.3065
565.2466, 543.9697
565.7287, 543.4914
566.2108, 542.4233
566.6929, 545.1287
567.1750, 551.8766
567.6572, 555.7870
568.1393, 546.3160
568.6214, 530.5975
569.1035, 523.9963
569.5856, 530.2808
570.0677, 539.9061
570.5499, 547.9971
571.0320, 553.6193
571.5141, 555.3807
571.9962, 547.7592
572.4783, 541.1716
572.9604, 540.9892
573.4426, 545.9402
573.9247, 549.2070
574.4068, 547.3714
574.8889, 545.7605
575.3710, 546.2180
575.8531, 548.7882
576.3353, 553.5160
576.8174, 562.0445
577.2995, 570.2249
577.7816, 573.5453
578.2637, 571.4544
578.7458, 570.1414
579.2280, 570.4864
579.7101, 572.0127
580.1922, 575.2206
580.6743, 579.4409
581.1564, 580.8962
581.6385, 575.1627
582.1207, 567.1055
582.6028, 562.3184
583.0849, 560.8299
583.5670, 562.4830
584.0491, 571.7379
584.5313, 581.2019
585.0134, 584.4161
585.4955, 578.2340
585.9776, 572.9618
586.4597, 571.4696
586.9418, 572.1365
587.4240, 573.1089
587.9061, 573.0965
588.3882, 575.4504
588.8703, 582.4058
589.3524, 591.4482
589.8345, 594.3736
590.3167, 589.4966
590.7988, 584.9911
591.2809, 584.9176
591.7630, 588.2456
592.2451, 589.2208
592.7272, 587.7200
593.2094, 586.8784
593.6915, 590.8429
594.1736, 597.0106
594.6557, 600.0687
595.1378, 598.5319
595.6199, 596.3204
596.1021, 596.5294
596.5842, 597.8625
597.0663, 598.4733
597.5485, 598.1907
598.0306, 596.6082
598.5127, 590.6353
598.9948, 582.4542
599.4769, 581.5718
599.9590, 595.5364
600.4412, 608.3102
600.9233, 614.6447
601.4054, 614.2682
601.8875, 611.6854
602.3696, 605.6566
602.8517, 600.5186
603.3339, 601.0119
603.8160, 606.6172
604.2981, 610.1769
604.7802, 610.3198
605.2623, 610.2216
605.7444, 616.1708
606.2266, 625.3348
606.7087, 629.7327
607.1908, 622.7826
607.6729, 613.8795
608.1550, 609.3727
608.6371, 608.8906
609.1193, 611.0678
609.6014, 618.6566
610.0835, 625.9697
610.5656, 629.8554
611.0477, 629.6220
611.5298, 629.9646
612.0120, 631.7161
612.4941, 633.4215
612.9762, 633.6296
613.4583, 631.0292
613.9404, 632.3338
614.4225, 639.4951
614.9047, 647.6351
615.3868, 648.1644
615.8689, 641.8638
616.3510, 639.4648
616.8331, 646.1916
617.3152, 655.6661
617.7974, 657.2700
618.2795, 652.7861
618.7616, 649.2584
619.2437, 649.9996
619.7258, 653.5845
620.2079, 660.8349
620.6901, 671.6184
621.1722, 678.7132
621.6543, 675.5960
622.1364, 670.7913
622.6185, 670.1454
623.1006, 677.0837
623.5828, 681.0445
624.0649, 679.8514
624.5470, 677.6772
625.0291, 679.9700
625.5112, 687.7146
625.9933, 694.9736
626.4755, 701.2941
626.9576, 705.6288
627.4397, 703.6639
627.9218, 696.4268
628.4039, 691.7582
628.8860, 693.6615
629.3682, 700.3062
629.8503, 711.0745
630.3324, 725.2858
630.8145, 737.7919
631.2966, 746.8575
