##NAMES=Erythrite
##RRUFFID=R050073
##IDEAL CHEMISTRY=Co^2+^_3_(As^5+^O_4_)_2_&#183;8H_2_O
##LOCALITY=Bou Azzer, Morocco
##OWNER=RRUFF
##SOURCE=Rock Currier
##DESCRIPTION=Crimson flattened crystals
##STATUS=The identification of this mineral has been confirmed by X-ray diffraction and chemical analysis
##URL=rruff.info/R050073
##MEASURED CHEMISTRY=(Co_0.65_Mg_0.35_)_3_(As_1.00_O_4_)_2_Â·8H_2_O
189.9621, 2008.849
190.4442, 2039.248
190.9263, 2053.738
191.4084, 2058.454
191.8905, 2068.941
192.3727, 2092.528
192.8548, 2108.501
193.3369, 2106.815
193.8190, 2100.290
194.3011, 2102.264
194.7832, 2118.139
195.2654, 2141.075
195.7475, 2156.082
196.2296, 2159.107
196.7117, 2161.486
197.1938, 2160.709
197.6759, 2162.128
198.1581, 2171.846
198.6402, 2191.711
199.1223, 2216.142
199.6044, 2234.963
200.0865, 2246.656
200.5686, 2255.192
201.0508, 2254.623
201.5329, 2255.452
202.0150, 2268.039
202.4971, 2294.566
202.9792, 2325.842
203.4613, 2345.895
203.9435, 2345.899
204.4256, 2354.624
204.9077, 2374.656
205.3898, 2401.378
205.8719, 2433.144
206.3540, 2469.023
206.8362, 2507.133
207.3183, 2546.400
207.8004, 2590.054
208.2825, 2625.295
208.7646, 2647.556
209.2467, 2666.104
209.7289, 2689.042
210.2110, 2715.526
210.6931, 2736.284
211.1752, 2740.148
211.6573, 2724.439
212.1395, 2700.787
212.6216, 2658.694
213.1037, 2618.273
213.5858, 2593.763
214.0679, 2582.379
214.5500, 2568.656
215.0322, 2535.136
215.5143, 2477.142
215.9964, 2431.179
216.4785, 2410.256
216.9606, 2388.919
217.4427, 2355.202
217.9249, 2312.056
218.4070, 2269.869
218.8891, 2237.106
219.3712, 2213.929
219.8533, 2194.371
220.3354, 2179.827
220.8176, 2167.823
221.2997, 2159.969
221.7818, 2154.191
222.2639, 2146.287
222.7460, 2132.652
223.2281, 2114.215
223.7103, 2102.249
224.1924, 2103.289
224.6745, 2104.152
225.1566, 2101.723
225.6387, 2097.458
226.1208, 2093.228
226.6030, 2089.788
227.0851, 2087.962
227.5672, 2091.932
228.0493, 2112.454
228.5314, 2123.850
229.0135, 2114.026
229.4957, 2096.214
229.9778, 2085.339
230.4599, 2088.169
230.9420, 2100.684
231.4241, 2113.416
231.9062, 2126.718
232.3884, 2139.524
232.8705, 2153.905
233.3526, 2166.639
233.8347, 2173.965
234.3168, 2174.799
234.7989, 2173.097
235.2811, 2176.023
235.7632, 2186.452
236.2453, 2194.719
236.7274, 2196.786
237.2095, 2198.960
237.6916, 2205.663
238.1738, 2217.632
238.6559, 2232.367
239.1380, 2248.470
239.6201, 2268.443
240.1022, 2280.283
240.5843, 2276.127
241.0665, 2269.850
241.5486, 2266.904
242.0307, 2268.043
242.5128, 2272.036
242.9949, 2278.675
243.4770, 2288.389
243.9592, 2295.688
244.4413, 2300.642
244.9234, 2302.804
245.4055, 2299.908
245.8876, 2293.824
246.3697, 2288.907
246.8519, 2287.960
247.3340, 2290.872
247.8161, 2296.804
248.2982, 2307.887
248.7803, 2319.377
249.2624, 2330.588
249.7446, 2340.954
250.2267, 2349.491
250.7088, 2355.487
251.1909, 2359.603
251.6730, 2363.663
252.1551, 2367.501
252.6373, 2371.675
253.1194, 2378.274
253.6015, 2384.514
254.0836, 2386.562
254.5657, 2382.324
255.0478, 2376.153
255.5300, 2378.573
256.0121, 2395.645
256.4942, 2397.962
256.9763, 2360.644
257.4584, 2314.588
257.9406, 2280.752
258.4227, 2263.632
258.9048, 2255.947
259.3869, 2252.574
259.8690, 2253.802
260.3511, 2252.429
260.8333, 2246.738
261.3154, 2238.008
261.7975, 2224.573
262.2796, 2207.191
262.7617, 2194.111
263.2438, 2194.469
263.7260, 2205.539
264.2081, 2210.980
264.6902, 2206.560
265.1723, 2200.133
265.6544, 2199.482
266.1365, 2202.264
266.6187, 2200.381
267.1008, 2184.627
267.5829, 2162.593
268.0650, 2151.441
268.5471, 2154.141
269.0292, 2159.324
269.5114, 2162.008
269.9935, 2161.642
270.4756, 2156.052
270.9577, 2140.943
271.4398, 2123.440
271.9219, 2112.715
272.4041, 2108.997
272.8862, 2102.972
273.3683, 2086.400
273.8504, 2066.470
274.3325, 2057.212
274.8146, 2064.162
275.2968, 2072.905
275.7789, 2072.860
276.2610, 2066.177
276.7431, 2062.410
277.2252, 2066.746
277.7073, 2072.934
278.1895, 2068.997
278.6716, 2052.351
279.1537, 2039.701
279.6358, 2040.626
280.1179, 2048.677
280.6000, 2052.632
281.0822, 2049.760
281.5643, 2044.303
282.0464, 2040.409
282.5285, 2037.976
283.0106, 2038.680
283.4927, 2047.379
283.9749, 2056.352
284.4570, 2057.976
284.9391, 2051.948
285.4212, 2043.001
285.9033, 2032.859
286.3854, 2022.267
286.8676, 2024.317
287.3497, 2054.351
287.8318, 2080.986
288.3139, 2084.547
288.7960, 2071.908
289.2781, 2062.701
289.7603, 2068.175
290.2424, 2084.653
290.7245, 2096.684
291.2066, 2099.784
291.6887, 2104.322
292.1708, 2114.327
292.6530, 2125.724
293.1351, 2132.988
293.6172, 2134.229
294.0993, 2132.297
294.5814, 2131.899
295.0635, 2131.351
295.5457, 2136.222
296.0278, 2149.378
296.5099, 2165.389
296.9920, 2182.018
297.4741, 2198.131
297.9562, 2211.456
298.4384, 2218.912
298.9205, 2218.973
299.4026, 2224.005
299.8847, 2236.053
300.3668, 2250.832
300.8489, 2272.558
301.3311, 2295.884
301.8131, 2308.877
302.2953, 2301.459
302.7774, 2279.826
303.2595, 2276.999
303.7416, 2311.113
304.2237, 2337.685
304.7058, 2346.090
305.1880, 2343.801
305.6701, 2338.560
306.1522, 2333.206
306.6343, 2326.184
307.1164, 2314.473
307.5985, 2297.036
308.0807, 2278.928
308.5628, 2259.404
309.0449, 2240.642
309.5270, 2224.140
310.0091, 2209.974
310.4912, 2197.521
310.9734, 2188.756
311.4555, 2182.774
311.9376, 2168.125
312.4197, 2135.805
312.9018, 2106.889
313.3839, 2097.246
313.8661, 2100.982
314.3482, 2102.970
314.8303, 2094.672
315.3124, 2081.218
315.7945, 2072.093
316.2766, 2068.163
316.7588, 2063.486
317.2409, 2053.697
317.7230, 2041.573
318.2051, 2031.506
318.6872, 2023.634
319.1693, 2018.646
319.6515, 2019.595
320.1336, 2024.749
320.6157, 2025.749
321.0978, 2018.436
321.5799, 2007.861
322.0620, 2002.039
322.5442, 2001.289
323.0263, 2001.479
323.5084, 2001.629
323.9905, 2001.995
324.4726, 2003.177
324.9547, 2005.272
325.4369, 2007.156
325.9190, 2007.455
326.4011, 2005.948
326.8832, 2006.314
327.3653, 2010.323
327.8474, 2014.508
328.3296, 2016.873
328.8117, 2017.759
329.2938, 2018.441
329.7759, 2019.641
330.2580, 2021.270
330.7401, 2022.897
331.2223, 2026.416
331.7044, 2027.565
332.1865, 2024.886
332.6686, 2020.083
333.1507, 2013.856
333.6328, 2006.768
334.1150, 2001.113
334.5971, 2000.233
335.0792, 2004.608
335.5613, 2012.868
336.0434, 2030.029
336.5255, 2046.170
337.0077, 2058.345
337.4898, 2065.157
337.9719, 2064.016
338.4540, 2050.163
338.9361, 2026.085
339.4182, 2015.031
339.9004, 2027.035
340.3825, 2037.754
340.8646, 2040.454
341.3467, 2037.793
341.8288, 2032.372
342.3109, 2024.613
342.7931, 2017.024
343.2752, 2013.642
343.7573, 2014.962
344.2394, 2016.987
344.7215, 2018.876
345.2036, 2021.132
345.6858, 2024.545
346.1679, 2029.091
346.6500, 2033.046
347.1321, 2036.421
347.6142, 2038.372
348.0963, 2036.002
348.5785, 2028.135
349.0606, 2018.604
349.5427, 2007.967
350.0248, 1997.757
350.5069, 1993.329
350.9890, 2001.414
351.4712, 2011.027
351.9533, 2012.336
352.4354, 2006.754
352.9175, 2002.068
353.3996, 2002.368
353.8817, 2005.330
354.3639, 2004.075
354.8460, 1994.183
355.3281, 1989.995
355.8102, 1998.039
356.2923, 2011.958
356.7744, 2026.589
357.2566, 2040.273
357.7387, 2048.469
358.2208, 2044.974
358.7029, 2026.521
359.1850, 2014.495
359.6671, 2005.758
360.1493, 2005.367
360.6314, 2024.232
361.1135, 2052.918
361.5956, 2070.396
362.0777, 2063.111
362.5598, 2039.747
363.0420, 2032.813
363.5241, 2056.456
364.0062, 2074.229
364.4883, 2084.219
364.9704, 2085.881
365.4525, 2073.798
365.9347, 2048.873
366.4168, 2025.631
366.8989, 2023.582
367.3810, 2044.415
367.8631, 2057.414
368.3452, 2053.606
368.8274, 2051.235
369.3095, 2062.010
369.7916, 2081.287
370.2737, 2097.679
370.7558, 2105.433
371.2379, 2107.641
371.7201, 2108.460
372.2022, 2107.639
372.6843, 2107.635
373.1664, 2107.960
373.6485, 2110.899
374.1306, 2120.584
374.6128, 2139.618
375.0949, 2156.435
375.5770, 2163.929
376.0591, 2165.065
376.5412, 2164.371
377.0233, 2162.250
377.5055, 2162.412
377.9876, 2169.752
378.4697, 2185.221
378.9518, 2197.033
379.4339, 2203.704
379.9160, 2207.868
380.3982, 2209.191
380.8803, 2209.090
381.3624, 2211.688
381.8445, 2219.710
382.3266, 2230.215
382.8087, 2234.203
383.2909, 2219.420
383.7730, 2214.362
384.2551, 2230.889
384.7372, 2249.921
385.2193, 2253.101
385.7014, 2239.331
386.1836, 2223.696
386.6657, 2222.880
387.1478, 2237.878
387.6299, 2248.565
388.1120, 2252.781
388.5941, 2254.867
389.0763, 2255.581
389.5584, 2255.341
390.0405, 2254.439
390.5226, 2252.726
391.0047, 2251.202
391.4868, 2251.873
391.9690, 2255.051
392.4511, 2257.409
392.9332, 2257.725
393.4153, 2257.148
393.8974, 2256.662
394.3795, 2256.290
394.8617, 2256.164
395.3438, 2256.906
395.8259, 2257.746
396.3080, 2256.017
396.7901, 2251.177
397.2722, 2250.193
397.7544, 2261.429
398.2365, 2280.648
398.7186, 2286.436
399.2007, 2273.572
399.6828, 2253.563
400.1649, 2218.731
400.6471, 2182.469
401.1292, 2171.820
401.6113, 2195.815
402.0934, 2230.921
402.5755, 2241.774
403.0576, 2217.281
403.5398, 2201.463
404.0219, 2198.720
404.5040, 2199.120
404.9861, 2198.269
405.4682, 2196.226
405.9503, 2195.004
406.4325, 2196.261
406.9146, 2198.413
407.3967, 2194.810
407.8788, 2179.803
408.3609, 2170.826
408.8430, 2175.292
409.3252, 2183.858
409.8073, 2190.823
410.2894, 2194.860
410.7715, 2194.734
411.2536, 2184.480
411.7357, 2167.634
412.2179, 2165.272
412.7000, 2185.053
413.1821, 2204.140
413.6642, 2199.979
414.1463, 2184.270
414.6284, 2181.017
415.1106, 2202.865
415.5927, 2228.285
416.0748, 2241.220
416.5569, 2244.849
417.0390, 2249.015
417.5211, 2257.199
418.0033, 2266.490
418.4854, 2272.381
418.9675, 2273.547
419.4496, 2275.648
419.9317, 2275.669
420.4138, 2279.308
420.8960, 2294.924
421.3781, 2318.334
421.8602, 2335.417
422.3423, 2336.147
422.8244, 2325.626
423.3065, 2326.189
423.7887, 2346.538
424.2708, 2364.815
424.7529, 2375.968
425.2350, 2386.190
425.7171, 2400.649
426.1992, 2420.007
426.6814, 2441.020
427.1635, 2460.609
427.6456, 2479.097
428.1277, 2498.106
428.6098, 2516.300
429.0919, 2537.634
429.5741, 2570.080
430.0562, 2605.472
430.5383, 2630.316
431.0204, 2637.975
431.5025, 2642.045
431.9846, 2654.299
432.4668, 2672.406
432.9489, 2686.969
433.4310, 2694.324
433.9131, 2701.840
434.3952, 2718.340
434.8773, 2744.538
435.3595, 2773.238
435.8416, 2808.019
436.3237, 2841.578
436.8058, 2871.678
437.2879, 2896.960
437.7701, 2915.046
438.2522, 2924.551
438.7343, 2927.001
439.2164, 2925.605
439.6985, 2914.954
440.1806, 2910.303
440.6628, 2916.169
441.1449, 2923.835
441.6270, 2928.929
442.1091, 2930.679
442.5912, 2929.132
443.0733, 2922.776
443.5555, 2913.736
444.0376, 2911.436
444.5197, 2919.248
445.0018, 2924.340
445.4839, 2920.245
445.9660, 2911.710
446.4482, 2902.580
446.9303, 2893.212
447.4124, 2884.380
447.8945, 2876.725
448.3766, 2869.908
448.8587, 2862.999
449.3409, 2855.762
449.8230, 2849.559
450.3051, 2845.114
450.7872, 2842.647
451.2693, 2843.028
451.7514, 2848.686
452.2336, 2854.126
452.7157, 2856.241
453.1978, 2857.521
453.6799, 2861.394
454.1620, 2868.852
454.6441, 2878.833
455.1263, 2890.819
455.6084, 2906.189
456.0905, 2915.651
456.5726, 2917.179
457.0547, 2914.369
457.5368, 2906.993
458.0190, 2896.194
458.5011, 2883.045
458.9832, 2867.577
459.4653, 2851.863
459.9474, 2838.770
460.4295, 2828.371
460.9117, 2819.735
461.3938, 2817.083
461.8759, 2809.937
462.3580, 2785.638
462.8401, 2747.526
463.3222, 2712.603
463.8044, 2690.247
464.2865, 2669.075
464.7686, 2635.947
465.2507, 2594.410
465.7328, 2560.365
466.2149, 2542.022
466.6971, 2530.123
467.1792, 2506.593
467.6613, 2462.097
468.1434, 2425.344
468.6255, 2401.754
469.1076, 2380.980
469.5898, 2354.866
470.0719, 2325.865
470.5540, 2302.846
471.0361, 2291.721
471.5182, 2289.095
472.0003, 2285.712
472.4825, 2282.931
472.9646, 2275.700
473.4467, 2258.972
473.9288, 2240.208
474.4109, 2223.174
474.8930, 2208.392
475.3752, 2196.111
475.8573, 2188.954
476.3394, 2183.425
476.8215, 2171.770
477.3036, 2153.778
477.7857, 2139.312
478.2679, 2134.237
478.7500, 2135.050
479.2321, 2133.598
479.7142, 2130.366
480.1963, 2124.346
480.6784, 2111.612
481.1606, 2098.509
481.6427, 2092.016
482.1248, 2091.577
482.6069, 2091.031
483.0890, 2085.729
483.5711, 2076.473
484.0533, 2067.100
484.5354, 2053.371
485.0175, 2046.933
485.4996, 2054.799
485.9817, 2065.854
486.4638, 2072.537
486.9460, 2073.498
487.4281, 2069.696
487.9102, 2058.869
488.3923, 2043.991
488.8744, 2034.158
489.3565, 2029.838
489.8387, 2028.528
490.3208, 2030.735
490.8029, 2034.353
491.2850, 2035.187
491.7671, 2032.953
492.2492, 2028.881
492.7314, 2020.536
493.2135, 2012.176
493.6956, 2010.100
494.1777, 2014.019
494.6598, 2016.988
495.1419, 2013.238
495.6241, 2004.329
496.1062, 2000.426
496.5883, 2007.074
497.0704, 2011.069
497.5525, 2009.818
498.0346, 2006.436
498.5168, 2003.717
498.9989, 2001.815
499.4810, 1998.603
499.9631, 1989.923
500.4452, 1978.609
500.9273, 1977.673
501.4095, 1990.490
501.8916, 1999.121
502.3737, 1991.894
502.8558, 1978.189
503.3379, 1973.849
503.8200, 1981.895
504.3022, 1987.684
504.7843, 1982.118
505.2664, 1973.495
505.7485, 1971.972
506.2306, 1977.713
506.7127, 1984.647
507.1949, 1988.837
507.6770, 1990.860
508.1591, 1993.131
508.6412, 1994.160
509.1233, 1997.811
509.6054, 2011.890
510.0876, 2022.735
510.5697, 2015.989
511.0518, 1994.644
511.5339, 1976.403
512.0161, 1976.032
512.4982, 1986.578
512.9803, 1987.552
513.4624, 1976.690
513.9445, 1970.326
514.4266, 1977.488
514.9088, 1989.043
515.3909, 1992.793
515.8730, 1988.216
516.3551, 1983.273
516.8372, 1979.432
517.3193, 1976.961
517.8015, 1977.169
518.2836, 1979.209
518.7657, 1979.946
519.2478, 1977.697
519.7299, 1973.220
520.2120, 1968.042
520.6942, 1959.985
521.1763, 1955.500
521.6584, 1954.506
522.1405, 1956.658
522.6226, 1964.112
523.1047, 1974.557
523.5869, 1982.943
524.0690, 1987.073
524.5511, 1986.946
525.0332, 1980.407
525.5153, 1967.520
525.9974, 1958.757
526.4796, 1957.485
526.9617, 1959.648
527.4438, 1963.110
527.9259, 1967.411
528.4080, 1966.409
528.8901, 1948.877
529.3723, 1936.055
529.8544, 1947.271
530.3365, 1970.985
530.8186, 1983.302
531.3007, 1976.311
531.7828, 1962.388
532.2650, 1959.829
532.7471, 1972.291
533.2292, 1972.970
533.7113, 1946.078
534.1934, 1925.430
534.6755, 1924.333
535.1577, 1934.267
535.6398, 1944.772
536.1219, 1953.354
536.6040, 1957.826
537.0861, 1953.903
537.5682, 1944.159
538.0504, 1935.007
538.5325, 1926.262
539.0146, 1926.527
539.4967, 1947.730
539.9788, 1982.679
540.4609, 1995.355
540.9431, 1966.174
541.4252, 1944.333
541.9073, 1945.433
542.3894, 1954.598
542.8715, 1959.270
543.3536, 1957.345
543.8358, 1950.871
544.3179, 1940.052
544.8000, 1927.393
545.2821, 1925.199
545.7642, 1938.264
546.2463, 1948.679
546.7285, 1951.690
547.2106, 1950.373
547.6927, 1944.918
548.1748, 1936.110
548.6569, 1930.414
549.1390, 1935.539
549.6211, 1941.777
550.1032, 1936.586
550.5853, 1922.391
551.0674, 1909.689
551.5496, 1902.107
552.0317, 1900.405
552.5138, 1906.450
552.9959, 1923.507
553.4780, 1937.414
553.9601, 1950.368
554.4423, 1958.414
554.9244, 1957.676
555.4065, 1951.699
555.8886, 1946.235
556.3707, 1943.424
556.8528, 1939.886
557.3350, 1927.238
557.8171, 1908.002
558.2992, 1905.710
558.7813, 1928.021
559.2634, 1949.843
559.7455, 1954.391
560.2277, 1945.550
560.7098, 1937.048
561.1919, 1925.459
561.6740, 1920.359
562.1561, 1929.734
562.6382, 1944.042
563.1204, 1955.871
563.6025, 1962.847
564.0846, 1960.825
564.5667, 1944.785
565.0488, 1920.915
565.5309, 1915.693
566.0131, 1940.408
566.4952, 1955.198
566.9773, 1941.945
567.4594, 1925.709
567.9415, 1924.287
568.4236, 1934.817
568.9058, 1940.770
569.3879, 1930.701
569.8700, 1917.067
570.3521, 1912.652
570.8342, 1915.335
571.3163, 1918.083
571.7985, 1918.754
572.2806, 1918.863
572.7627, 1920.078
573.2448, 1922.386
573.7269, 1926.037
574.2090, 1935.367
574.6912, 1940.851
575.1733, 1935.977
575.6554, 1928.186
576.1375, 1927.072
576.6196, 1934.180
577.1017, 1940.970
577.5839, 1938.459
578.0660, 1929.451
578.5481, 1923.311
579.0302, 1920.370
579.5123, 1918.467
579.9944, 1916.218
580.4766, 1914.816
580.9587, 1917.220
581.4408, 1924.453
581.9229, 1930.428
582.4050, 1935.929
582.8871, 1938.430
583.3693, 1930.869
583.8514, 1919.627
584.3335, 1920.427
584.8156, 1940.622
585.2977, 1966.088
585.7798, 1973.972
586.2620, 1962.891
586.7441, 1948.867
587.2262, 1927.117
587.7083, 1911.488
588.1904, 1914.676
588.6725, 1927.824
589.1547, 1936.658
589.6368, 1937.694
590.1189, 1938.683
590.6010, 1945.689
591.0831, 1953.494
591.5652, 1954.375
592.0474, 1948.643
592.5295, 1942.661
593.0116, 1940.714
593.4937, 1941.308
593.9758, 1939.668
594.4579, 1934.600
594.9401, 1930.159
595.4222, 1927.824
595.9043, 1925.153
596.3864, 1920.237
596.8685, 1914.034
597.3506, 1908.850
597.8328, 1904.958
598.3149, 1903.524
598.7970, 1908.438
599.2791, 1916.393
599.7612, 1916.840
600.2433, 1907.713
600.7255, 1900.752
601.2076, 1907.091
601.6897, 1924.393
602.1718, 1933.527
602.6539, 1928.806
603.1360, 1923.271
603.6182, 1913.578
604.1003, 1906.818
604.5824, 1912.794
605.0645, 1927.709
605.5466, 1934.972
606.0287, 1920.353
606.5109, 1899.395
606.9930, 1896.958
607.4751, 1910.859
607.9572, 1924.667
608.4393, 1935.322
608.9214, 1941.024
609.4036, 1938.586
609.8857, 1927.959
610.3678, 1921.520
610.8499, 1920.819
611.3320, 1921.912
611.8141, 1926.990
612.2963, 1931.492
612.7784, 1928.791
613.2605, 1919.731
613.7426, 1913.138
614.2247, 1917.022
614.7068, 1926.980
615.1890, 1933.996
615.6711, 1938.304
616.1532, 1931.776
616.6353, 1904.862
617.1174, 1879.439
617.5995, 1886.066
618.0817, 1925.557
618.5638, 1945.054
619.0459, 1924.610
619.5280, 1904.596
620.0101, 1902.177
620.4922, 1908.144
620.9744, 1911.070
621.4565, 1908.464
621.9386, 1903.701
622.4207, 1898.779
622.9028, 1894.563
623.3849, 1894.310
623.8671, 1897.965
624.3492, 1906.628
624.8313, 1924.604
625.3134, 1943.237
625.7955, 1952.127
626.2776, 1951.901
626.7598, 1947.404
627.2419, 1929.997
627.7240, 1918.497
628.2061, 1928.212
628.6882, 1947.574
629.1703, 1959.819
629.6525, 1961.038
630.1346, 1957.603
630.6167, 1954.885
631.0988, 1952.988
631.5809, 1951.675
632.0630, 1949.643
632.5452, 1953.908
633.0273, 1972.431
633.5094, 1992.565
633.9915, 1999.531
634.4736, 1994.027
634.9557, 1988.048
635.4379, 1981.076
635.9200, 1977.229
636.4021, 1980.712
636.8842, 1988.146
637.3663, 1995.760
637.8484, 2001.932
638.3306, 2003.644
638.8127, 1996.071
639.2948, 1981.724
639.7769, 1977.533
640.2590, 1987.204
640.7411, 1993.448
641.2233, 1986.799
641.7054, 1979.143
642.1875, 1986.067
642.6696, 2005.890
643.1517, 2016.863
643.6339, 2004.094
644.1160, 1992.504
644.5981, 1998.721
645.0802, 2013.800
645.5623, 2024.443
646.0444, 2027.590
646.5266, 2027.579
647.0087, 2028.716
647.4908, 2029.896
647.9729, 2024.411
648.4550, 2009.595
648.9371, 1998.988
649.4193, 1996.756
649.9014, 1999.215
650.3835, 2004.575
650.8656, 2012.135
651.3477, 2016.817
651.8298, 2013.462
652.3120, 2011.970
652.7941, 2020.954
653.2762, 2032.643
653.7583, 2035.686
654.2404, 2029.101
654.7225, 2020.461
655.2047, 2015.316
655.6868, 2013.546
656.1689, 2016.427
656.6510, 2025.586
657.1331, 2028.724
657.6152, 2019.802
658.0974, 2009.186
658.5795, 2007.641
659.0616, 2012.830
659.5437, 2014.320
660.0258, 2007.478
660.5079, 2001.408
660.9901, 2000.921
661.4722, 2001.632
661.9543, 1997.255
662.4364, 1988.846
662.9185, 1983.894
663.4006, 1988.079
663.8828, 1996.760
664.3649, 2000.636
664.8470, 1999.676
665.3291, 1994.101
665.8112, 1981.966
666.2933, 1969.765
666.7755, 1961.641
667.2576, 1957.506
667.7397, 1956.282
668.2218, 1960.504
668.7039, 1963.497
669.1860, 1963.940
669.6682, 1962.720
670.1503, 1959.294
670.6324, 1954.859
671.1145, 1951.980
671.5966, 1951.883
672.0787, 1954.089
672.5609, 1959.489
673.0430, 1967.222
673.5251, 1970.993
674.0072, 1970.037
674.4893, 1965.559
674.9714, 1955.953
675.4536, 1945.109
675.9357, 1944.028
676.4178, 1960.898
676.8999, 1969.524
677.3820, 1964.839
677.8641, 1956.254
678.3463, 1946.231
678.8284, 1936.534
679.3105, 1929.331
679.7926, 1925.322
680.2747, 1923.053
680.7568, 1919.249
681.2390, 1916.679
681.7211, 1925.230
682.2032, 1944.362
682.6853, 1957.659
683.1674, 1957.322
683.6495, 1950.200
684.1317, 1947.270
684.6138, 1950.412
685.0959, 1947.776
685.5780, 1930.118
686.0601, 1917.741
686.5422, 1920.013
