##NAMES=Eskebornite
##RRUFFID=R060791
##IDEAL CHEMISTRY=Cu^1+^Fe^3+^Se^2-^_2_
##LOCALITY=Slavkovice Morava, Czech Republic
##OWNER=RRUFF
##SOURCE=Michael Scott
##DESCRIPTION=Brass colored metallic massive
##STATUS=The identification of this mineral is confirmed by single-crystal X-ray diffraction and chemical analysis.
##URL=rruff.info/R060791
##MEASURED CHEMISTRY=Cu_1.00_(Fe_0.98_Pb_0.02_)_Σ=1_(Se_1.93_S_0.07_)_Σ=2_ ; the lighter inclusions (not analyzed) contain (WDS scan only): Cu, Tl, Se, Fe 
110.439, 1093.635
110.921, 1140.420
111.403, 1194.167
111.885, 1274.441
112.368, 1386.180
112.850, 1510.573
113.332, 1644.426
113.814, 1792.270
114.296, 1963.665
114.778, 2158.643
115.260, 2365.542
115.742, 2587.136
116.224, 2844.877
116.707, 2987.819
117.189, 2957.351
117.671, 2819.316
118.153, 2629.748
118.635, 2389.688
119.117, 2154.184
119.599, 2006.293
120.081, 1937.732
120.563, 1911.955
121.046, 1912.515
121.528, 1948.129
122.010, 2041.035
122.492, 2204.456
122.974, 2417.275
123.456, 2648.830
123.938, 2895.065
124.420, 3173.719
124.902, 3496.176
125.385, 3858.405
125.867, 4251.010
126.349, 4680.732
126.831, 5129.908
127.313, 5578.542
127.795, 6023.632
128.277, 6473.002
128.760, 6900.289
129.242, 7304.206
129.724, 7832.408
130.206, 8706.986
130.688, 9598.939
131.170, 10275.330
131.652, 10702.800
132.134, 10914.050
132.616, 10937.120
133.098, 10771.530
133.581, 10415.950
134.063, 9708.515
134.545, 8894.050
135.027, 8098.701
135.509, 7350.731
135.991, 6693.042
136.473, 6202.416
136.956, 5919.802
137.438, 5701.109
137.920, 5552.521
138.402, 5426.786
138.884, 5287.125
139.366, 5118.764
139.848, 4938.580
140.330, 4771.194
140.812, 4587.453
141.294, 4481.615
141.777, 4462.965
142.259, 4516.408
142.741, 4633.160
143.223, 4810.190
143.705, 5038.089
144.187, 5299.707
144.669, 5656.974
145.151, 5954.854
145.634, 6148.667
146.116, 6285.930
146.598, 6418.167
147.080, 6570.510
147.562, 6735.373
148.044, 6885.569
148.526, 7072.707
149.008, 7177.510
149.490, 7147.266
149.973, 7038.102
150.455, 6926.424
150.937, 6856.754
151.419, 6810.803
151.901, 6692.626
152.383, 6440.526
152.865, 6180.641
153.347, 5914.972
153.829, 5655.608
154.312, 5417.452
154.794, 5206.769
155.276, 5023.294
155.758, 4860.763
156.240, 4712.420
156.722, 4590.235
157.204, 4502.982
157.686, 4443.452
158.169, 4392.869
158.651, 4336.204
159.133, 4280.061
159.615, 4291.752
160.097, 4448.138
160.579, 4578.314
161.061, 4627.653
161.543, 4608.710
162.025, 4552.700
162.508, 4473.853
162.990, 4375.205
163.472, 4293.553
163.954, 4243.777
164.436, 4191.688
164.918, 4116.705
165.400, 4027.247
165.883, 3945.266
166.365, 3884.105
166.847, 3844.341
167.329, 3822.279
167.811, 3831.522
168.293, 3842.487
168.775, 3843.561
169.257, 3835.353
169.739, 3824.531
170.221, 3821.183
170.704, 3816.576
171.186, 3765.846
171.668, 3645.064
172.150, 3506.351
172.632, 3367.011
173.114, 3229.797
173.596, 3104.246
174.078, 2997.982
174.561, 2908.973
175.043, 2820.037
175.525, 2719.090
176.007, 2629.163
176.489, 2569.382
176.971, 2535.603
177.453, 2503.219
177.935, 2454.643
178.417, 2397.158
178.900, 2358.469
179.382, 2352.139
179.864, 2351.536
180.346, 2339.668
180.828, 2317.935
181.310, 2295.615
181.792, 2275.246
182.274, 2259.486
182.757, 2253.092
183.239, 2258.411
183.721, 2270.683
184.203, 2287.125
184.685, 2307.737
185.167, 2332.590
185.649, 2360.035
186.131, 2393.411
186.613, 2437.674
187.096, 2498.238
187.578, 2563.543
188.060, 2619.189
188.542, 2667.803
189.024, 2733.863
189.506, 2838.735
189.988, 2965.211
190.470, 3075.408
190.952, 3164.745
191.435, 3242.098
191.917, 3298.086
192.399, 3337.810
192.881, 3413.963
193.363, 3581.870
193.845, 3780.838
194.327, 3911.979
194.809, 3994.315
195.292, 3970.966
195.774, 3755.117
196.256, 3367.409
196.738, 2978.523
197.220, 2634.308
197.702, 2346.562
198.184, 2117.466
198.666, 1953.896
199.148, 1832.211
199.631, 1744.910
200.113, 1689.501
200.595, 1652.387
201.077, 1637.344
201.559, 1632.084
202.041, 1616.268
202.523, 1586.510
203.005, 1557.936
203.488, 1543.761
203.970, 1540.978
204.452, 1531.476
204.934, 1506.337
205.416, 1475.290
205.898, 1449.998
206.380, 1429.949
206.862, 1417.158
207.344, 1417.713
207.827, 1428.082
208.309, 1432.620
208.791, 1425.742
209.273, 1413.175
209.755, 1400.275
210.237, 1386.544
210.719, 1378.175
211.201, 1381.206
211.684, 1392.670
212.166, 1402.981
212.648, 1409.888
213.130, 1415.343
213.612, 1419.200
214.094, 1421.415
214.576, 1430.291
215.058, 1457.235
215.540, 1493.820
216.023, 1517.102
216.505, 1520.053
216.987, 1515.894
217.469, 1520.471
217.951, 1531.952
218.433, 1534.310
218.915, 1519.091
219.397, 1490.935
219.880, 1455.289
220.362, 1408.054
220.844, 1366.474
221.326, 1350.243
221.808, 1353.742
222.290, 1360.401
222.772, 1368.417
223.254, 1375.380
223.736, 1376.789
224.219, 1371.497
224.701, 1364.399
225.183, 1359.407
225.665, 1355.731
226.147, 1351.197
226.629, 1339.714
227.111, 1329.912
227.593, 1334.725
228.076, 1355.794
228.558, 1377.824
229.040, 1390.216
229.522, 1395.216
230.004, 1399.630
230.486, 1403.806
230.968, 1408.079
231.450, 1412.890
231.932, 1418.225
232.415, 1423.964
232.897, 1433.007
233.379, 1441.204
233.861, 1438.622
234.343, 1418.420
234.825, 1394.352
235.307, 1374.693
235.789, 1359.227
236.271, 1347.627
236.754, 1343.087
237.236, 1340.048
237.718, 1325.424
238.200, 1292.868
238.682, 1260.262
239.164, 1237.136
239.646, 1221.517
240.128, 1207.131
240.611, 1191.981
241.093, 1176.365
241.575, 1160.592
242.057, 1143.981
242.539, 1129.072
243.021, 1115.299
243.503, 1104.029
243.985, 1099.792
244.467, 1105.636
244.950, 1113.416
245.432, 1107.107
245.914, 1082.402
246.396, 1066.865
246.878, 1074.165
247.360, 1090.735
247.842, 1097.967
248.324, 1091.463
248.807, 1081.266
249.289, 1079.838
249.771, 1089.239
250.253, 1095.455
250.735, 1095.526
251.217, 1093.207
251.699, 1091.198
252.181, 1089.951
252.663, 1089.737
253.146, 1090.820
253.628, 1093.334
254.110, 1096.821
254.592, 1108.024
255.074, 1114.570
255.556, 1105.992
256.038, 1084.506
256.520, 1061.716
257.003, 1046.396
257.485, 1037.953
257.967, 1024.081
258.449, 995.870
258.931, 972.576
259.413, 964.078
259.895, 965.949
260.377, 969.862
260.859, 972.093
261.342, 971.022
261.824, 958.998
262.306, 921.043
262.788, 890.517
263.270, 874.678
263.752, 868.224
264.234, 864.575
264.716, 861.046
265.198, 858.425
265.681, 858.719
266.163, 870.209
266.645, 872.853
267.127, 859.784
267.609, 842.155
268.091, 829.191
268.573, 823.196
269.056, 820.930
269.538, 817.957
270.020, 813.661
270.502, 810.355
270.984, 809.411
271.466, 808.135
271.948, 804.809
272.430, 799.490
272.912, 793.243
273.395, 786.594
273.877, 779.005
274.359, 775.607
274.841, 778.393
275.323, 783.608
275.805, 791.684
276.287, 801.315
276.769, 810.231
277.251, 816.793
277.734, 821.270
278.216, 825.485
278.698, 829.652
279.180, 833.159
279.662, 836.125
280.144, 838.311
280.626, 839.681
281.108, 840.389
281.591, 839.629
282.073, 835.289
282.555, 826.166
283.037, 816.496
283.519, 806.370
284.001, 796.670
284.483, 788.015
284.965, 780.544
285.447, 774.376
285.930, 770.052
286.412, 767.796
286.894, 765.057
287.376, 761.156
287.858, 756.808
288.340, 751.736
288.822, 746.184
289.304, 742.272
289.786, 741.442
290.269, 743.513
290.751, 748.785
291.233, 761.018
291.715, 769.780
292.197, 764.204
292.679, 748.633
293.161, 736.170
293.643, 732.712
294.125, 735.245
294.608, 740.761
295.090, 750.070
295.572, 756.221
296.054, 751.027
296.536, 739.833
297.018, 735.413
297.500, 744.830
297.983, 755.775
298.465, 756.051
298.947, 747.882
299.429, 745.564
299.911, 758.311
300.393, 777.996
300.875, 786.144
301.357, 779.025
301.839, 770.184
302.322, 763.303
302.804, 758.185
303.286, 754.952
303.768, 753.813
304.250, 753.240
304.732, 750.663
305.214, 744.738
305.696, 741.654
306.178, 743.724
306.661, 747.569
307.143, 749.130
307.625, 748.579
308.107, 751.612
308.589, 765.723
309.071, 793.322
309.553, 800.035
310.035, 770.857
310.517, 740.036
311.000, 719.857
311.482, 709.073
311.964, 701.938
312.446, 694.887
312.928, 689.239
313.410, 691.223
313.892, 715.536
314.374, 729.450
314.857, 722.918
315.339, 707.815
315.821, 696.365
316.303, 692.736
316.785, 692.882
317.267, 689.994
317.749, 682.389
318.231, 676.177
318.714, 670.781
319.196, 667.421
319.678, 668.298
320.160, 672.629
320.642, 676.364
321.124, 674.305
321.606, 666.684
322.088, 665.781
322.570, 681.562
323.052, 690.792
323.535, 675.154
324.017, 647.036
324.499, 630.870
324.981, 642.679
325.463, 669.624
325.945, 688.014
326.427, 697.132
326.909, 700.206
327.392, 691.150
327.874, 679.985
328.356, 679.746
328.838, 695.790
329.320, 712.049
329.802, 713.864
330.284, 704.002
330.766, 696.453
331.249, 694.141
331.731, 696.862
332.213, 706.887
332.695, 724.584
333.177, 737.634
333.659, 740.873
334.141, 738.102
334.623, 732.335
335.105, 724.030
335.588, 718.013
336.070, 719.656
336.552, 728.808
337.034, 732.217
337.516, 722.535
337.998, 714.452
338.480, 717.628
338.962, 728.543
339.444, 738.340
339.927, 742.699
340.409, 742.019
340.891, 737.417
341.373, 719.680
341.855, 709.654
342.337, 714.386
342.819, 724.042
343.302, 729.322
343.784, 727.927
344.266, 723.672
344.748, 721.476
345.230, 722.009
345.712, 722.075
346.194, 721.226
346.676, 720.336
347.158, 721.959
347.641, 724.024
348.123, 720.624
348.605, 705.244
349.087, 682.314
349.569, 675.092
350.051, 695.565
350.533, 709.992
351.015, 705.012
351.497, 690.727
351.980, 677.523
352.462, 668.531
352.944, 661.307
353.426, 651.786
353.908, 639.864
354.390, 633.158
354.872, 635.936
355.354, 642.108
355.836, 646.456
356.319, 648.970
356.801, 649.393
357.283, 647.181
357.765, 642.915
358.247, 636.515
358.729, 627.486
359.211, 620.442
359.693, 618.837
360.176, 622.571
360.658, 628.670
361.140, 643.377
361.622, 654.449
362.104, 652.401
362.586, 641.066
363.068, 630.239
363.550, 623.948
364.033, 621.285
364.515, 620.283
364.997, 621.055
365.479, 623.444
365.961, 629.874
366.443, 636.377
366.925, 638.458
367.407, 636.165
367.889, 634.151
368.371, 637.200
368.854, 645.700
369.336, 654.925
369.818, 668.173
370.300, 678.776
370.782, 684.482
371.264, 686.300
371.746, 685.418
372.228, 682.100
372.711, 677.946
373.193, 676.866
373.675, 679.941
374.157, 682.951
374.639, 686.395
375.121, 688.502
375.603, 686.863
376.085, 681.447
376.568, 676.640
377.050, 676.244
377.532, 679.458
378.014, 683.276
378.496, 688.400
378.978, 691.908
379.460, 690.018
379.942, 684.701
380.424, 680.579
380.907, 679.151
381.389, 678.997
381.871, 680.828
382.353, 683.634
382.835, 681.539
383.317, 670.596
383.799, 655.036
384.281, 644.353
384.763, 637.402
385.246, 636.508
385.728, 650.659
386.210, 666.327
386.692, 666.829
387.174, 650.997
387.656, 633.223
388.138, 628.142
388.620, 637.225
389.103, 642.558
389.585, 645.447
390.067, 643.508
390.549, 630.336
391.031, 613.049
391.513, 603.133
391.995, 606.224
392.477, 617.078
392.960, 626.140
393.442, 635.619
393.924, 636.785
394.406, 616.506
394.888, 596.280
395.370, 591.424
395.852, 601.467
396.334, 612.404
396.816, 613.489
397.298, 607.197
397.781, 602.359
398.263, 599.708
398.745, 597.062
399.227, 591.908
399.709, 586.028
400.191, 583.036
400.673, 584.399
401.155, 587.459
401.638, 592.944
402.120, 598.934
402.602, 598.101
403.084, 586.656
403.566, 572.696
404.048, 568.776
404.530, 578.626
405.012, 586.218
405.495, 589.752
405.977, 591.695
406.459, 592.235
406.941, 592.493
407.423, 596.079
407.905, 606.320
408.387, 621.304
408.869, 628.927
409.351, 621.902
409.834, 616.876
410.316, 616.992
410.798, 619.367
411.280, 622.101
411.762, 624.432
412.244, 624.872
412.726, 618.434
413.208, 604.468
413.690, 603.240
414.173, 624.679
414.655, 647.188
415.137, 661.168
415.619, 666.953
416.101, 664.507
416.583, 648.976
417.065, 630.190
417.547, 620.377
418.030, 618.977
418.512, 618.484
418.994, 615.586
419.476, 612.759
419.958, 614.998
420.440, 623.336
420.922, 630.913
421.404, 638.186
421.887, 642.725
422.369, 640.491
422.851, 631.961
423.333, 622.777
423.815, 617.061
424.297, 614.756
424.779, 615.090
425.261, 622.363
425.743, 627.136
426.225, 627.433
426.708, 624.575
427.190, 618.794
427.672, 610.535
428.154, 603.130
428.636, 601.558
429.118, 606.631
429.600, 611.656
430.082, 620.254
430.565, 624.067
431.047, 614.379
431.529, 597.225
432.011, 587.054
432.493, 593.878
432.975, 606.163
433.457, 606.756
433.939, 596.117
434.422, 588.670
434.904, 591.073
435.386, 597.417
435.868, 598.393
436.350, 593.588
436.832, 587.713
437.314, 578.846
437.796, 571.383
438.278, 571.775
438.761, 579.180
439.243, 584.923
439.725, 581.821
440.207, 571.952
440.689, 570.200
441.171, 587.419
441.653, 599.743
442.135, 601.663
442.617, 599.108
443.100, 597.746
443.582, 598.924
444.064, 600.519
444.546, 600.339
445.028, 598.358
445.510, 594.762
445.992, 586.672
446.474, 581.188
446.957, 582.599
447.439, 588.266
447.921, 594.015
448.403, 598.927
448.885, 602.787
449.367, 604.751
449.849, 605.238
450.331, 606.916
450.814, 611.341
451.296, 615.136
451.778, 612.554
452.260, 602.642
452.742, 598.079
453.224, 604.541
453.706, 612.855
454.188, 618.619
454.670, 621.083
455.152, 618.838
455.635, 610.756
456.117, 599.526
456.599, 591.970
457.081, 586.889
457.563, 588.241
458.045, 602.953
458.527, 617.708
459.009, 623.146
459.492, 619.970
459.974, 615.785
460.456, 617.379
460.938, 621.789
461.420, 616.227
461.902, 595.410
462.384, 584.289
462.866, 603.481
463.349, 632.517
463.831, 644.467
464.313, 634.278
464.795, 622.428
465.277, 620.116
465.759, 622.270
466.241, 620.786
466.723, 614.611
467.205, 607.125
467.688, 600.239
468.170, 594.221
468.652, 593.373
469.134, 603.058
469.616, 610.635
470.098, 612.537
470.580, 611.346
471.062, 609.554
471.544, 607.995
472.027, 606.957
472.509, 607.089
472.991, 608.540
473.473, 608.651
473.955, 606.476
474.437, 604.226
474.919, 604.507
475.401, 604.879
475.884, 600.597
476.366, 588.316
476.848, 576.589
477.330, 575.530
477.812, 582.492
478.294, 586.261
478.776, 583.931
479.258, 579.459
479.741, 576.208
480.223, 574.286
480.705, 574.519
481.187, 581.614
481.669, 586.105
482.151, 579.939
482.633, 568.516
483.115, 562.598
483.597, 566.403
484.079, 574.587
484.562, 577.910
485.044, 573.862
485.526, 572.792
486.008, 578.277
486.490, 583.438
486.972, 585.667
487.454, 585.500
487.936, 584.231
488.419, 582.024
488.901, 579.790
489.383, 577.772
489.865, 576.159
490.347, 579.576
490.829, 592.018
491.311, 605.446
491.793, 609.225
492.276, 603.719
492.758, 598.376
493.240, 596.747
493.722, 593.851
494.204, 581.725
494.686, 565.516
495.168, 559.760
495.650, 571.786
496.132, 592.449
496.615, 602.752
497.097, 597.162
497.579, 593.488
498.061, 596.459
498.543, 596.930
499.025, 585.396
499.507, 567.597
499.989, 558.797
500.471, 570.030
500.954, 589.411
501.436, 597.318
501.918, 593.675
502.400, 586.786
502.882, 575.901
503.364, 566.687
503.846, 568.889
504.328, 582.178
504.811, 590.252
505.293, 584.349
505.775, 577.083
506.257, 579.093
506.739, 587.685
507.221, 594.065
507.703, 594.072
508.185, 590.314
508.668, 587.743
509.150, 585.058
509.632, 586.670
510.114, 599.930
510.596, 610.327
511.078, 610.243
511.560, 601.643
512.042, 589.186
512.524, 572.393
513.006, 558.221
513.489, 561.054
513.971, 580.202
514.453, 591.760
514.935, 587.587
515.417, 576.814
515.899, 568.375
516.381, 562.133
516.864, 558.978
517.346, 560.713
517.828, 563.953
518.310, 567.911
518.792, 571.625
519.274, 572.958
519.756, 570.998
520.238, 567.819
520.720, 566.942
521.203, 569.068
521.685, 571.195
522.167, 575.540
522.649, 577.555
523.131, 574.653
523.613, 568.320
524.095, 560.908
524.577, 552.474
525.059, 545.592
525.542, 543.771
526.024, 546.259
526.506, 549.675
526.988, 553.816
527.470, 556.787
527.952, 555.477
528.434, 549.935
528.916, 550.154
529.398, 564.545
529.881, 575.218
530.363, 573.045
530.845, 563.843
531.327, 554.467
531.809, 547.459
532.291, 544.200
532.773, 547.938
533.255, 559.173
533.737, 564.755
534.220, 562.740
534.702, 557.941
535.184, 547.964
535.666, 538.265
536.148, 536.701
536.630, 545.933
537.112, 557.899
537.594, 568.299
538.077, 577.299
538.559, 585.917
539.041, 594.147
539.523, 599.038
540.005, 598.177
540.487, 592.119
540.969, 584.252
541.451, 569.880
541.933, 559.827
542.416, 556.540
542.898, 556.894
543.380, 557.785
543.862, 559.418
544.344, 565.388
544.826, 581.990
545.308, 602.849
545.791, 605.389
546.273, 585.895
546.755, 568.795
547.237, 561.636
547.719, 561.438
548.201, 565.558
548.683, 574.426
549.165, 580.616
549.647, 578.532
550.130, 575.914
550.612, 581.106
551.094, 591.506
551.576, 598.624
552.058, 598.503
552.540, 593.445
553.022, 587.097
553.504, 577.177
553.987, 572.404
554.469, 576.228
554.951, 582.118
555.433, 591.639
555.915, 600.768
556.397, 601.543
556.879, 589.244
557.361, 572.890
557.843, 559.102
558.326, 548.606
558.808, 545.099
559.290, 549.908
559.772, 556.932
560.254, 560.440
560.736, 560.753
561.218, 565.427
561.700, 584.681
562.182, 594.867
562.665, 582.767
563.147, 563.836
563.629, 554.284
564.111, 556.267
564.593, 560.856
565.075, 561.092
565.557, 557.227
566.039, 549.333
566.521, 535.863
567.004, 524.708
567.486, 517.966
567.968, 515.874
568.450, 519.837
568.932, 530.895
569.414, 538.123
569.896, 532.259
570.378, 526.367
570.860, 534.069
571.343, 551.439
571.825, 565.665
572.307, 570.841
572.789, 569.954
573.271, 568.082
573.753, 564.742
574.235, 562.046
574.718, 559.481
575.200, 558.223
575.682, 559.012
576.164, 561.354
576.646, 564.158
577.128, 566.675
577.610, 570.894
578.092, 582.407
578.574, 596.171
579.057, 598.731
579.539, 588.024
580.021, 575.318
580.503, 569.040
580.985, 568.467
581.467, 568.710
581.949, 567.053
582.431, 570.018
582.914, 583.406
583.396, 597.498
583.878, 606.729
584.360, 609.644
584.842, 604.689
585.324, 586.333
585.806, 564.052
586.288, 558.284
586.770, 568.620
587.253, 577.401
587.735, 579.682
588.217, 578.151
588.699, 574.591
589.181, 568.526
589.663, 567.453
590.145, 574.622
590.627, 583.386
591.109, 594.422
591.592, 603.916
592.074, 605.093
592.556, 596.917
593.038, 587.518
593.520, 587.450
594.002, 595.214
594.484, 594.403
594.966, 580.858
595.448, 571.778
595.931, 577.520
596.413, 590.225
596.895, 598.059
597.377, 600.279
597.859, 601.451
598.341, 603.762
598.823, 604.841
599.305, 602.141
599.788, 596.449
600.270, 589.054
600.752, 580.375
601.234, 573.958
601.716, 578.791
602.198, 599.327
602.680, 607.030
603.162, 593.229
603.644, 577.212
604.127, 566.623
604.609, 560.715
605.091, 558.538
605.573, 560.498
606.055, 564.389
606.537, 571.365
607.019, 578.348
607.502, 579.378
607.984, 574.979
608.466, 573.481
608.948, 581.514
609.430, 593.599
609.912, 591.074
610.394, 563.936
610.876, 544.619
611.358, 534.575
611.841, 534.015
612.323, 550.917
612.805, 577.368
613.287, 593.741
613.769, 589.509
614.251, 579.388
614.733, 576.461
615.215, 577.444
615.697, 572.398
616.180, 559.697
616.662, 551.309
617.144, 558.245
617.626, 577.916
618.108, 591.331
618.590, 596.319
619.072, 598.009
619.554, 595.588
620.036, 591.382
620.519, 584.053
621.001, 575.859
621.483, 574.790
621.965, 590.671
622.447, 608.612
622.929, 608.089
623.411, 593.346
623.893, 580.752
624.375, 574.230
624.858, 572.559
625.340, 575.580
625.822, 583.174
626.304, 586.371
626.786, 577.610
627.268, 574.043
627.750, 581.303
628.232, 592.305
628.715, 602.759
629.197, 611.206
629.679, 615.150
630.161, 611.769
630.643, 604.010
631.125, 593.927
631.607, 582.599
632.089, 578.406
632.571, 584.593
633.054, 595.119
633.536, 604.262
634.018, 612.328
634.500, 613.954
634.982, 598.594
635.464, 590.244
635.946, 600.666
636.429, 616.160
636.911, 622.972
637.393, 619.514
637.875, 613.591
638.357, 610.386
638.839, 608.341
639.321, 604.731
639.803, 599.625
640.285, 592.808
640.768, 583.153
641.250, 575.957
641.732, 578.758
642.214, 593.149
642.696, 603.423
643.178, 609.465
643.660, 611.854
644.142, 608.804
644.625, 603.272
645.107, 596.842
645.589, 590.495
646.071, 587.438
646.553, 592.069
647.035, 600.568
647.517, 608.532
647.999, 615.215
648.481, 612.447
648.964, 595.786
649.446, 575.932
649.928, 566.360
650.410, 568.066
650.892, 571.376
651.374, 577.159
651.856, 583.456
652.338, 592.684
652.820, 600.433
653.303, 602.065
653.785, 597.111
