##NAMES=Eskolaite
##RRUFFID=R060892
##IDEAL CHEMISTRY=Cr^3+^_2_O_3_
##LOCALITY=Outokumpu, Finland
##OWNER=RRUFF
##SOURCE=Michael Scott
##DESCRIPTION=Black submetallic hexagonal prisms
##STATUS=The identification of this mineral has been confirmed by single-crystal X-ray diffraction.
##URL=rruff.info/R060892
206.3800, 2042.370
206.8621, 2025.608
207.3442, 2006.895
207.8263, 2001.002
208.3084, 2009.251
208.7905, 2018.326
209.2727, 2025.698
209.7548, 2030.086
210.2369, 2029.448
210.7190, 2022.514
211.2011, 2013.341
211.6832, 2006.472
212.1654, 2002.169
212.6475, 1995.918
213.1296, 1980.966
213.6117, 1966.934
214.0938, 1964.773
214.5760, 1977.994
215.0581, 1993.713
215.5402, 1999.429
216.0223, 1995.198
216.5044, 1992.389
216.9865, 1995.348
217.4687, 2000.390
217.9508, 2004.565
218.4329, 2007.901
218.9150, 2008.720
219.3971, 2002.578
219.8792, 1990.489
220.3614, 1985.334
220.8435, 1993.264
221.3256, 2007.068
221.8077, 2021.263
222.2898, 2036.245
222.7719, 2045.161
223.2541, 2039.464
223.7362, 2022.053
224.2183, 2008.319
224.7004, 2000.409
225.1825, 1999.050
225.6646, 2007.294
226.1468, 2024.980
226.6289, 2038.097
227.1110, 2033.740
227.5931, 2017.971
228.0752, 2011.924
228.5573, 2023.450
229.0395, 2037.928
229.5216, 2040.575
230.0037, 2032.774
230.4858, 2024.175
230.9679, 2017.570
231.4500, 2013.255
231.9322, 2011.674
232.4143, 2012.623
232.8964, 2017.068
233.3785, 2029.181
233.8606, 2046.885
234.3427, 2060.458
234.8249, 2066.792
235.3070, 2067.224
235.7891, 2062.219
236.2712, 2050.727
236.7533, 2039.112
237.2354, 2032.307
237.7176, 2029.695
238.1997, 2029.945
238.6818, 2036.149
239.1639, 2043.277
239.6460, 2045.347
240.1281, 2041.947
240.6103, 2037.119
241.0924, 2033.045
241.5745, 2029.836
242.0566, 2027.708
242.5387, 2027.913
243.0208, 2028.321
243.5030, 2027.046
243.9851, 2024.246
244.4672, 2021.673
244.9493, 2020.965
245.4314, 2021.154
245.9135, 2018.591
246.3957, 2008.206
246.8778, 2000.090
247.3599, 2002.431
247.8420, 2012.470
248.3241, 2019.925
248.8062, 2019.220
249.2884, 2012.993
249.7705, 2009.513
250.2526, 2007.256
250.7347, 2009.145
251.2168, 2020.853
251.6989, 2037.144
252.1811, 2046.862
252.6632, 2044.890
253.1453, 2035.783
253.6274, 2029.201
254.1095, 2024.046
254.5916, 2022.871
255.0738, 2028.520
255.5559, 2037.652
256.0380, 2046.432
256.5201, 2053.746
257.0022, 2059.506
257.4843, 2063.530
257.9665, 2065.255
258.4486, 2066.172
258.9307, 2062.054
259.4128, 2059.638
259.8949, 2067.107
260.3770, 2085.171
260.8592, 2105.195
261.3413, 2117.231
261.8234, 2118.869
262.3055, 2120.357
262.7876, 2122.970
263.2697, 2124.481
263.7519, 2120.459
264.2340, 2112.827
264.7161, 2109.866
265.1982, 2119.914
265.6803, 2144.592
266.1624, 2163.292
266.6446, 2177.869
267.1267, 2185.704
267.6088, 2177.346
268.0909, 2161.181
268.5730, 2155.782
269.0551, 2175.184
269.5373, 2215.761
270.0194, 2245.442
270.5015, 2254.923
270.9836, 2262.437
271.4657, 2268.251
271.9478, 2274.374
272.4300, 2283.887
272.9121, 2298.620
273.3942, 2315.696
273.8763, 2326.544
274.3584, 2323.442
274.8405, 2326.729
275.3227, 2345.008
275.8048, 2366.712
276.2869, 2379.390
276.7690, 2379.238
277.2511, 2376.992
277.7332, 2391.883
278.2154, 2432.029
278.6975, 2463.823
279.1796, 2472.466
279.6617, 2480.027
280.1438, 2502.336
280.6259, 2540.168
281.1081, 2579.033
281.5902, 2602.976
282.0723, 2611.052
282.5544, 2622.948
283.0365, 2639.050
283.5186, 2660.590
284.0008, 2691.924
284.4829, 2730.069
284.9650, 2764.889
285.4471, 2789.812
285.9292, 2805.869
286.4113, 2815.965
286.8935, 2814.539
287.3756, 2818.141
287.8577, 2836.508
288.3398, 2865.956
288.8219, 2901.154
289.3040, 2947.100
289.7862, 2992.673
290.2683, 3017.968
290.7504, 3019.471
291.2325, 3023.207
291.7146, 3049.756
292.1967, 3083.993
292.6789, 3101.536
293.1610, 3093.874
293.6431, 3077.675
294.1252, 3067.184
294.6073, 3060.538
295.0894, 3044.627
295.5716, 3010.221
296.0537, 2968.499
296.5358, 2941.867
297.0179, 2936.655
297.5000, 2923.183
297.9821, 2886.400
298.4643, 2834.091
298.9464, 2778.850
299.4285, 2723.464
299.9106, 2668.400
300.3927, 2612.854
300.8748, 2556.070
301.3570, 2504.357
301.8391, 2458.418
302.3212, 2417.876
302.8033, 2386.146
303.2854, 2361.978
303.7675, 2333.717
304.2497, 2288.554
304.7318, 2224.684
305.2139, 2178.988
305.6960, 2162.198
306.1781, 2149.941
306.6602, 2132.737
307.1424, 2111.333
307.6245, 2089.144
308.1066, 2068.126
308.5887, 2048.229
309.0708, 2029.163
309.5529, 2014.462
310.0351, 1996.450
310.5172, 1969.075
310.9993, 1940.128
311.4814, 1918.427
311.9635, 1907.326
312.4456, 1903.560
312.9278, 1902.786
313.4099, 1912.316
313.8920, 1908.560
314.3741, 1878.980
314.8562, 1846.555
315.3383, 1823.609
315.8205, 1812.665
316.3026, 1811.793
316.7847, 1824.208
317.2668, 1852.286
317.7489, 1864.233
318.2310, 1844.509
318.7132, 1824.699
319.1953, 1820.968
319.6774, 1827.776
320.1595, 1830.384
320.6416, 1817.595
321.1237, 1795.558
321.6059, 1781.246
322.0880, 1775.079
322.5701, 1775.380
323.0522, 1785.022
323.5343, 1799.389
324.0164, 1813.423
324.4986, 1826.019
324.9807, 1837.696
325.4628, 1849.049
325.9449, 1860.025
326.4270, 1870.369
326.9091, 1882.087
327.3913, 1890.692
327.8734, 1887.848
328.3555, 1870.458
328.8376, 1859.535
329.3197, 1869.536
329.8018, 1891.154
330.2840, 1907.773
330.7661, 1915.926
331.2482, 1920.119
331.7303, 1924.448
332.2124, 1928.921
332.6945, 1934.056
333.1767, 1936.162
333.6588, 1941.824
334.1409, 1958.703
334.6230, 1984.985
335.1051, 2010.449
335.5872, 2027.978
336.0694, 2038.683
336.5515, 2053.876
337.0336, 2074.152
337.5157, 2097.459
337.9979, 2125.188
338.4800, 2155.328
338.9621, 2184.120
339.4442, 2210.054
339.9263, 2237.010
340.4084, 2272.215
340.8906, 2315.532
341.3727, 2369.144
341.8548, 2448.224
342.3369, 2524.929
342.8190, 2574.970
343.3011, 2599.436
343.7833, 2622.204
344.2654, 2671.422
344.7475, 2749.631
345.2296, 2806.550
345.7117, 2831.085
346.1938, 2845.227
346.6760, 2858.305
347.1581, 2867.440
347.6402, 2866.261
348.1223, 2850.600
348.6044, 2823.734
349.0865, 2794.160
349.5687, 2764.371
350.0508, 2721.115
350.5329, 2643.815
351.0150, 2557.669
351.4971, 2491.006
351.9792, 2451.896
352.4614, 2416.220
352.9435, 2361.201
353.4256, 2293.430
353.9077, 2239.601
354.3898, 2208.572
354.8719, 2188.588
355.3541, 2167.689
355.8362, 2146.076
356.3183, 2124.520
356.8004, 2100.363
357.2825, 2078.226
357.7646, 2064.619
358.2468, 2059.212
358.7289, 2054.633
359.2110, 2045.640
359.6931, 2032.628
360.1752, 2019.946
360.6573, 2007.138
361.1395, 1995.197
361.6216, 1984.061
362.1037, 1974.046
362.5858, 1965.552
363.0679, 1958.745
363.5500, 1953.566
364.0322, 1949.655
364.5143, 1944.543
364.9964, 1945.541
365.4785, 1958.935
365.9606, 1972.748
366.4427, 1980.313
366.9249, 1980.563
367.4070, 1974.788
367.8891, 1962.549
368.3712, 1944.028
368.8533, 1929.958
369.3354, 1920.918
369.8176, 1915.984
370.2997, 1915.464
370.7818, 1918.214
371.2639, 1922.974
371.7460, 1929.913
372.2281, 1937.062
372.7103, 1942.334
373.1924, 1945.897
373.6745, 1944.806
374.1566, 1933.214
374.6387, 1920.574
375.1208, 1919.370
375.6030, 1931.592
376.0851, 1939.453
376.5672, 1929.172
377.0493, 1909.403
377.5314, 1897.050
378.0135, 1895.067
378.4957, 1896.404
378.9778, 1895.334
379.4599, 1891.822
379.9420, 1888.832
380.4241, 1886.057
380.9063, 1884.129
381.3884, 1884.713
381.8705, 1886.499
382.3526, 1885.494
382.8347, 1879.284
383.3168, 1870.865
383.7990, 1868.509
384.2811, 1885.229
384.7632, 1890.379
385.2453, 1872.392
385.7274, 1850.429
386.2095, 1839.667
386.6917, 1842.356
387.1738, 1851.980
387.6559, 1863.553
388.1380, 1877.713
388.6201, 1883.976
389.1022, 1877.624
389.5844, 1868.140
390.0665, 1855.517
390.5486, 1842.595
391.0307, 1833.772
391.5128, 1830.922
391.9949, 1833.139
392.4771, 1840.860
392.9592, 1855.043
393.4413, 1866.128
393.9234, 1873.171
394.4055, 1873.720
394.8876, 1863.681
395.3698, 1842.127
395.8519, 1822.270
396.3340, 1808.048
396.8161, 1800.712
397.2982, 1806.416
397.7803, 1826.927
398.2625, 1844.907
398.7446, 1843.936
399.2267, 1825.177
399.7088, 1817.329
400.1909, 1831.359
400.6730, 1844.330
401.1552, 1847.982
401.6373, 1843.085
402.1194, 1829.131
402.6015, 1805.545
403.0836, 1780.034
403.5657, 1769.087
404.0479, 1786.628
404.5300, 1792.978
405.0121, 1779.751
405.4942, 1763.778
405.9763, 1754.663
406.4584, 1752.806
406.9406, 1754.327
407.4227, 1756.436
407.9048, 1759.197
408.3869, 1763.052
408.8690, 1768.531
409.3511, 1774.195
409.8333, 1784.087
410.3154, 1791.989
410.7975, 1788.473
411.2796, 1768.919
411.7617, 1748.285
412.2438, 1741.064
412.7260, 1745.640
413.2081, 1753.418
413.6902, 1765.078
414.1723, 1774.529
414.6544, 1771.531
415.1365, 1757.784
415.6187, 1749.856
416.1008, 1754.340
416.5829, 1763.161
417.0650, 1772.428
417.5471, 1780.745
418.0292, 1783.816
418.5114, 1778.865
418.9935, 1767.618
419.4756, 1755.858
419.9577, 1737.311
420.4398, 1726.519
420.9219, 1730.152
421.4041, 1738.097
421.8862, 1741.716
422.3683, 1739.690
422.8504, 1735.812
423.3325, 1733.671
423.8146, 1733.289
424.2968, 1734.298
424.7789, 1739.092
425.2610, 1742.090
425.7431, 1739.511
426.2252, 1734.675
426.7073, 1733.774
427.1895, 1740.906
427.6716, 1746.448
428.1537, 1732.180
428.6358, 1699.529
429.1179, 1684.914
429.6000, 1706.476
430.0822, 1735.621
430.5643, 1736.997
431.0464, 1712.553
431.5285, 1695.664
432.0106, 1700.663
432.4927, 1713.495
432.9749, 1723.018
433.4570, 1728.191
433.9391, 1727.817
434.4212, 1719.747
434.9033, 1707.328
435.3854, 1703.455
435.8676, 1718.940
436.3497, 1728.955
436.8318, 1729.097
437.3139, 1724.702
437.7960, 1719.204
438.2781, 1713.931
438.7603, 1710.036
439.2424, 1708.181
439.7245, 1708.346
440.2066, 1714.401
440.6887, 1732.343
441.1708, 1747.976
441.6530, 1758.343
442.1351, 1763.098
442.6172, 1759.957
443.0993, 1746.011
443.5814, 1731.966
444.0635, 1731.596
444.5457, 1743.019
445.0278, 1750.879
445.5099, 1750.874
445.9920, 1748.143
446.4741, 1748.172
446.9562, 1750.674
447.4384, 1752.645
447.9205, 1757.148
448.4026, 1758.023
448.8847, 1746.761
449.3668, 1727.190
449.8489, 1712.176
450.3311, 1708.402
450.8132, 1712.428
451.2953, 1715.510
451.7774, 1717.016
452.2595, 1718.555
452.7416, 1721.580
453.2238, 1723.554
453.7059, 1723.715
454.1880, 1721.378
454.6701, 1714.647
455.1522, 1699.772
455.6343, 1679.861
456.1165, 1670.723
456.5986, 1676.533
457.0807, 1683.114
457.5628, 1684.601
458.0449, 1684.474
458.5270, 1686.477
459.0092, 1691.565
459.4913, 1695.929
459.9734, 1698.815
460.4555, 1698.882
460.9376, 1690.538
461.4197, 1672.130
461.9019, 1656.479
462.3840, 1656.636
462.8661, 1671.286
463.3482, 1675.305
463.8303, 1656.092
464.3124, 1641.494
464.7946, 1644.397
465.2767, 1656.539
465.7588, 1666.889
466.2409, 1671.781
466.7230, 1672.848
467.2051, 1672.016
467.6873, 1668.927
468.1694, 1665.609
468.6515, 1655.434
469.1336, 1652.280
469.6157, 1669.013
470.0978, 1694.981
470.5800, 1709.674
471.0621, 1701.605
471.5442, 1685.499
472.0263, 1681.169
472.5084, 1687.973
472.9905, 1693.675
473.4727, 1694.796
473.9548, 1694.304
474.4369, 1696.722
474.9190, 1701.929
475.4011, 1703.110
475.8832, 1691.227
476.3654, 1681.391
476.8475, 1690.050
477.3296, 1711.305
477.8117, 1724.634
478.2938, 1719.038
478.7759, 1702.666
479.2581, 1695.193
479.7402, 1702.889
480.2223, 1708.575
480.7044, 1711.858
481.1865, 1713.540
481.6686, 1712.593
482.1508, 1710.256
482.6329, 1710.162
483.1150, 1715.858
483.5971, 1724.411
484.0792, 1726.785
484.5613, 1720.936
485.0435, 1720.712
485.5256, 1735.772
486.0077, 1755.122
486.4898, 1764.688
486.9719, 1763.560
487.4540, 1760.361
487.9362, 1756.929
488.4183, 1753.888
488.9004, 1751.691
489.3825, 1750.473
489.8646, 1750.769
490.3467, 1753.021
490.8289, 1756.922
491.3110, 1761.223
491.7931, 1765.417
492.2752, 1770.747
492.7573, 1777.022
493.2394, 1784.647
493.7216, 1797.232
494.2037, 1812.809
494.6858, 1821.801
495.1679, 1813.075
495.6500, 1791.933
496.1321, 1782.875
496.6143, 1789.326
497.0964, 1797.477
497.5785, 1803.391
498.0606, 1807.237
498.5427, 1808.743
499.0248, 1807.453
499.5070, 1806.264
499.9891, 1807.168
500.4712, 1808.703
500.9533, 1809.978
501.4355, 1810.512
501.9176, 1806.460
502.3997, 1793.765
502.8818, 1774.902
503.3639, 1764.226
503.8460, 1768.891
504.3282, 1772.994
504.8103, 1773.833
505.2924, 1774.559
505.7745, 1779.303
506.2566, 1787.679
506.7387, 1794.142
507.2209, 1791.832
507.7030, 1783.444
508.1851, 1784.094
508.6672, 1797.273
509.1493, 1809.281
509.6314, 1815.581
510.1136, 1816.752
510.5957, 1812.021
511.0778, 1799.424
511.5599, 1789.768
512.0420, 1789.463
512.5241, 1794.211
513.0062, 1798.977
513.4883, 1803.068
513.9705, 1806.516
514.4526, 1808.840
514.9347, 1810.867
515.4168, 1817.099
515.8989, 1832.868
516.3810, 1845.704
516.8632, 1851.572
517.3453, 1856.456
517.8274, 1866.370
518.3095, 1880.883
518.7916, 1894.101
519.2737, 1900.137
519.7559, 1901.390
520.2380, 1905.207
520.7201, 1911.113
521.2022, 1922.435
521.6843, 1946.086
522.1664, 1971.967
522.6486, 1983.444
523.1307, 1977.104
523.6128, 1974.264
524.0949, 1986.081
524.5770, 2001.747
525.0591, 2010.429
525.5413, 2012.215
526.0234, 2011.960
526.5055, 2012.200
526.9876, 2013.868
527.4697, 2021.151
527.9518, 2044.391
528.4340, 2053.599
528.9161, 2032.515
529.3982, 2010.659
529.8803, 2006.656
530.3624, 2019.294
530.8445, 2037.795
531.3267, 2061.974
531.8088, 2083.138
532.2909, 2077.926
532.7730, 2046.981
533.2551, 2035.355
533.7372, 2064.594
534.2194, 2109.775
534.7015, 2131.375
535.1836, 2123.731
535.6657, 2136.709
536.1478, 2184.901
536.6299, 2246.290
537.1121, 2312.011
537.5942, 2379.507
538.0763, 2443.983
538.5584, 2503.299
539.0405, 2563.763
539.5226, 2634.879
540.0048, 2714.745
540.4869, 2813.823
540.9690, 2929.962
541.4511, 3070.755
541.9332, 3250.252
542.4153, 3455.234
542.8975, 3654.490
543.3796, 3830.534
543.8617, 4010.577
544.3438, 4220.643
544.8259, 4454.485
545.3080, 4697.019
545.7902, 4944.826
546.2723, 5200.575
546.7544, 5468.895
547.2365, 5752.431
547.7186, 6022.700
548.2007, 6285.950
548.6829, 6531.367
549.1650, 6784.639
549.6471, 7004.252
550.1292, 7154.589
550.6113, 7223.522
551.0934, 7200.995
551.5756, 7068.194
552.0577, 6833.171
552.5398, 6527.352
553.0219, 6138.483
553.5040, 5726.791
553.9861, 5304.069
554.4683, 4884.391
554.9504, 4485.049
555.4325, 4100.072
555.9146, 3756.943
556.3967, 3465.094
556.8788, 3218.762
557.3610, 3019.801
557.8431, 2862.319
558.3252, 2725.803
558.8073, 2597.259
559.2894, 2480.037
559.7715, 2385.306
560.2537, 2318.081
560.7358, 2261.139
561.2179, 2223.301
561.7000, 2186.288
562.1821, 2133.238
562.6642, 2070.788
563.1464, 2024.274
563.6285, 2014.986
564.1106, 2016.093
564.5927, 1997.190
565.0748, 1963.263
565.5569, 1934.040
566.0391, 1915.302
566.5212, 1902.390
567.0033, 1890.238
567.4854, 1878.959
567.9675, 1867.247
568.4496, 1852.719
568.9318, 1840.574
569.4139, 1833.831
569.8960, 1829.699
570.3781, 1822.929
570.8602, 1812.680
571.3423, 1806.836
571.8245, 1817.980
572.3066, 1841.510
572.7887, 1854.380
573.2708, 1854.531
573.7529, 1849.993
574.2350, 1845.077
574.7172, 1837.998
575.1993, 1822.973
575.6814, 1792.190
576.1635, 1774.052
576.6456, 1782.387
577.1277, 1800.089
577.6099, 1817.803
578.0920, 1832.052
578.5741, 1836.859
579.0562, 1827.586
579.5383, 1812.054
580.0204, 1810.508
580.5026, 1827.618
580.9847, 1837.661
581.4668, 1831.719
581.9489, 1824.310
582.4310, 1825.995
582.9132, 1834.169
583.3953, 1840.661
583.8774, 1841.232
584.3596, 1842.139
584.8417, 1850.309
585.3238, 1861.182
585.8059, 1864.403
586.2880, 1858.047
586.7701, 1851.565
587.2523, 1855.409
587.7344, 1868.746
588.2165, 1871.945
588.6986, 1857.674
589.1807, 1843.827
589.6628, 1828.545
590.1450, 1818.568
590.6271, 1823.672
591.1092, 1842.973
591.5913, 1859.109
592.0734, 1858.030
592.5555, 1849.288
593.0377, 1848.747
593.5198, 1855.024
594.0019, 1853.644
594.4840, 1836.318
594.9661, 1817.639
595.4482, 1821.811
595.9304, 1857.124
596.4125, 1885.882
596.8946, 1911.625
597.3767, 1927.947
597.8588, 1924.754
598.3409, 1913.450
598.8231, 1909.342
599.3052, 1917.383
599.7873, 1933.421
600.2694, 1955.441
600.7515, 1982.157
601.2336, 2008.476
601.7158, 2033.618
602.1979, 2061.257
602.6800, 2092.784
603.1621, 2128.615
603.6442, 2171.668
604.1263, 2227.673
604.6085, 2278.240
605.0906, 2310.677
605.5727, 2346.189
606.0548, 2400.785
606.5369, 2470.880
607.0190, 2545.372
607.5012, 2618.326
607.9833, 2691.680
608.4654, 2770.983
608.9475, 2855.802
609.4296, 2932.929
609.9117, 3001.882
610.3939, 3058.969
610.8760, 3097.874
611.3581, 3121.916
611.8402, 3147.869
612.3223, 3197.427
612.8044, 3218.718
613.2866, 3188.285
613.7687, 3128.088
614.2508, 3055.466
614.7329, 2975.158
615.2150, 2888.747
615.6971, 2796.149
616.1793, 2700.771
616.6614, 2612.201
617.1435, 2531.587
617.6256, 2452.560
618.1077, 2371.511
618.5898, 2295.346
619.0720, 2228.466
619.5541, 2171.146
620.0362, 2128.856
620.5183, 2112.498
621.0004, 2100.102
621.4825, 2080.508
621.9647, 2058.831
622.4468, 2043.540
622.9289, 2035.453
623.4110, 2026.856
623.8931, 2008.741
624.3752, 1985.185
624.8574, 1981.153
625.3395, 2005.211
625.8216, 2021.770
626.3037, 2015.432
626.7858, 2003.665
627.2679, 2003.880
627.7501, 2014.885
628.2322, 2022.437
628.7143, 2018.244
629.1964, 2014.105
629.6785, 2019.324
630.1606, 2029.678
630.6428, 2036.802
631.1249, 2038.736
631.6070, 2040.136
632.0891, 2045.895
632.5712, 2055.760
633.0533, 2067.255
633.5355, 2083.172
634.0176, 2094.060
634.4997, 2089.289
634.9818, 2083.735
635.4639, 2092.123
635.9460, 2114.618
636.4282, 2139.499
636.9103, 2170.603
637.3924, 2195.721
637.8745, 2200.238
638.3566, 2192.541
638.8387, 2191.375
639.3209, 2202.329
639.8030, 2215.712
640.2851, 2219.192
640.7672, 2213.128
641.2493, 2212.939
641.7314, 2220.405
642.2136, 2230.018
642.6957, 2241.356
643.1778, 2253.095
643.6599, 2265.420
644.1420, 2278.435
644.6241, 2285.683
645.1063, 2278.623
645.5884, 2270.812
646.0705, 2274.104
646.5526, 2284.773
647.0347, 2295.155
647.5168, 2302.379
647.9990, 2305.006
648.4811, 2299.021
648.9632, 2284.714
649.4453, 2283.067
649.9274, 2302.272
650.4095, 2315.245
650.8917, 2305.629
651.3738, 2289.347
651.8559, 2285.390
652.3380, 2295.042
652.8201, 2301.136
653.3022, 2295.572
653.7844, 2287.536
654.2665, 2282.949
654.7486, 2281.060
655.2307, 2281.033
655.7128, 2282.194
656.1949, 2281.031
656.6771, 2273.871
657.1592, 2260.680
657.6413, 2238.932
658.1234, 2202.782
658.6055, 2175.366
659.0876, 2168.486
659.5698, 2171.627
660.0519, 2173.009
660.5340, 2172.877
661.0161, 2167.069
661.4982, 2151.285
661.9803, 2133.078
662.4625, 2111.948
662.9446, 2093.247
663.4267, 2088.602
663.9088, 2099.606
664.3909, 2111.146
664.8730, 2104.021
665.3552, 2083.425
665.8373, 2081.253
666.3194, 2101.583
666.8015, 2118.012
667.2836, 2118.667
667.7657, 2114.867
668.2479, 2122.240
668.7300, 2141.248
669.2121, 2156.936
669.6942, 2160.336
670.1763, 2168.919
670.6584, 2195.045
671.1406, 2228.234
671.6227, 2256.387
672.1048, 2276.441
672.5869, 2289.967
673.0690, 2293.989
673.5511, 2294.799
674.0333, 2310.796
674.5154, 2342.168
674.9975, 2377.277
675.4796, 2415.819
675.9617, 2448.698
676.4438, 2463.332
676.9260, 2458.457
677.4081, 2462.058
677.8902, 2478.453
678.3723, 2497.040
678.8544, 2515.842
679.3365, 2535.466
679.8187, 2557.225
680.3008, 2580.671
680.7829, 2603.431
681.2650, 2624.797
681.7471, 2643.568
682.2292, 2656.385
682.7114, 2664.411
683.1935, 2672.261
683.6756, 2680.555
684.1577, 2694.508
684.6398, 2721.459
685.1219, 2758.810
685.6041, 2779.827
686.0862, 2774.315
686.5683, 2768.021
687.0504, 2758.151
687.5325, 2752.915
688.0146, 2760.867
688.4968, 2778.524
688.9789, 2794.781
689.4610, 2809.001
689.9431, 2814.165
690.4252, 2796.342
690.9073, 2768.009
691.3895, 2755.434
691.8716, 2760.313
692.3537, 2762.651
692.8358, 2747.601
693.3179, 2722.274
693.8000, 2710.150
694.2822, 2719.464
694.7643, 2711.929
695.2464, 2669.040
695.7285, 2628.164
696.2106, 2616.405
696.6927, 2620.958
697.1749, 2616.587
697.6570, 2598.088
698.1391, 2575.162
698.6212, 2548.124
699.1033, 2520.951
699.5854, 2496.667
700.0676, 2475.805
700.5497, 2459.174
701.0318, 2447.241
701.5139, 2437.278
701.9960, 2426.068
702.4781, 2413.559
702.9603, 2398.296
703.4424, 2380.925
703.9245, 2356.711
704.4066, 2317.674
704.8887, 2275.140
705.3708, 2251.049
