##NAMES=Eskolaite
##RRUFFID=R060892
##IDEAL CHEMISTRY=Cr^3+^_2_O_3_
##LOCALITY=Outokumpu, Finland
##OWNER=RRUFF
##SOURCE=Michael Scott
##DESCRIPTION=Black submetallic hexagonal prisms
##STATUS=The identification of this mineral has been confirmed by single-crystal X-ray diffraction.
##URL=rruff.info/R060892
150.4500, 638.1357
150.9321, 643.3005
151.4142, 649.3796
151.8964, 659.6519
152.3785, 672.1559
152.8606, 677.0405
153.3427, 663.5448
153.8248, 648.9175
154.3069, 642.9431
154.7890, 658.4647
155.2712, 670.3464
155.7533, 672.3447
156.2354, 664.8082
156.7175, 659.0627
157.1996, 658.2867
157.6817, 659.6983
158.1639, 660.8847
158.6460, 661.6176
159.1281, 661.6914
159.6102, 660.2172
160.0923, 656.8453
160.5744, 655.3004
161.0566, 658.7444
161.5387, 664.1997
162.0208, 667.9631
162.5029, 665.1344
162.9850, 662.8783
163.4671, 666.9808
163.9493, 680.7084
164.4314, 689.4266
164.9135, 679.4098
165.3956, 659.7603
165.8777, 647.1403
166.3598, 655.6531
166.8420, 670.3361
167.3241, 680.1579
167.8062, 682.7206
168.2883, 681.7198
168.7704, 677.5380
169.2525, 671.3629
169.7346, 666.5817
170.2168, 666.2579
170.6989, 667.9327
171.1810, 669.1781
171.6631, 669.9400
172.1452, 669.4039
172.6273, 665.0173
173.1095, 657.7990
173.5916, 652.8929
174.0737, 655.8820
174.5558, 663.1058
175.0379, 668.6695
175.5201, 669.5347
176.0022, 669.1194
176.4843, 672.3068
176.9664, 678.8204
177.4485, 684.6355
177.9306, 686.3566
178.4128, 684.8542
178.8949, 682.1019
179.3770, 677.2295
179.8591, 672.1398
180.3412, 670.6756
180.8233, 673.0205
181.3055, 675.8666
181.7876, 674.8430
182.2697, 671.1960
182.7518, 669.4551
183.2339, 673.6911
183.7160, 681.1870
184.1981, 684.1923
184.6803, 681.8661
185.1624, 678.7557
185.6445, 681.4783
186.1266, 689.1401
186.6087, 695.6261
187.0908, 697.4882
187.5730, 695.5615
188.0551, 692.5111
188.5372, 687.7678
189.0193, 683.6492
189.5014, 685.0226
189.9835, 691.7271
190.4657, 697.2487
190.9478, 696.0811
191.4299, 689.4222
191.9120, 687.7703
192.3941, 693.9153
192.8762, 702.3435
193.3584, 699.7219
193.8405, 685.2230
194.3226, 672.7015
194.8047, 673.1590
195.2868, 686.1572
195.7689, 697.1204
196.2511, 704.8487
196.7332, 709.2626
197.2153, 709.7058
197.6974, 705.8781
198.1795, 700.0158
198.6616, 692.0339
199.1437, 681.4461
199.6259, 676.3741
200.1080, 679.8132
200.5901, 689.1849
201.0722, 694.0654
201.5543, 693.7911
202.0364, 691.4515
202.5186, 688.6818
203.0007, 685.0463
203.4828, 684.0403
203.9649, 686.4429
204.4470, 692.0612
204.9291, 701.1063
205.4113, 716.2308
205.8934, 728.4607
206.3755, 726.4224
206.8576, 705.7497
207.3397, 690.9213
207.8218, 688.8915
208.3040, 698.8458
208.7861, 706.3978
209.2682, 711.8885
209.7503, 714.3260
210.2324, 711.2020
210.7145, 700.0984
211.1967, 692.0071
211.6788, 690.7458
212.1609, 696.6450
212.6430, 699.2593
213.1251, 696.9597
213.6072, 693.5184
214.0894, 694.2894
214.5715, 701.7671
215.0536, 706.7899
215.5357, 705.5552
216.0178, 696.9153
216.4999, 692.4361
216.9820, 693.4529
217.4642, 697.2963
217.9463, 700.7239
218.4284, 704.4924
218.9105, 705.9156
219.3926, 703.2427
219.8747, 695.1962
220.3569, 690.4764
220.8390, 691.2029
221.3211, 693.7016
221.8032, 691.1579
222.2853, 679.8414
222.7674, 670.8428
223.2496, 668.4525
223.7317, 674.3885
224.2138, 681.0403
224.6959, 690.7786
225.1780, 699.9070
225.6601, 700.7509
226.1423, 687.6775
226.6244, 676.1226
227.1065, 672.4321
227.5886, 679.7164
228.0707, 685.7531
228.5528, 690.6214
229.0350, 694.2318
229.5171, 696.0903
229.9992, 694.6384
230.4813, 693.9487
230.9634, 696.2783
231.4455, 704.7521
231.9276, 708.0087
232.4098, 702.7029
232.8919, 693.1450
233.3740, 691.2626
233.8561, 703.8482
234.3382, 713.7722
234.8203, 712.3859
235.3025, 690.3777
235.7846, 678.1149
236.2667, 679.5734
236.7488, 689.9643
237.2309, 695.8863
237.7130, 695.0191
238.1952, 692.9807
238.6773, 692.1928
239.1594, 693.1548
239.6415, 694.2830
240.1236, 695.4514
240.6057, 696.8060
241.0879, 699.0557
241.5700, 703.6520
242.0521, 707.0682
242.5342, 707.3347
243.0163, 702.4574
243.4984, 698.7585
243.9806, 697.0624
244.4627, 696.5510
244.9448, 694.1788
245.4269, 687.4577
245.9090, 682.2676
246.3911, 681.4728
246.8732, 686.1078
247.3554, 693.2741
247.8375, 705.6656
248.3196, 720.2780
248.8017, 726.4774
249.2838, 720.1482
249.7659, 711.2878
250.2481, 704.8554
250.7302, 701.9871
251.2123, 698.8520
251.6944, 694.3627
252.1765, 689.6602
252.6586, 688.5226
253.1408, 691.8258
253.6229, 697.4362
254.1050, 705.9097
254.5871, 722.6161
255.0692, 727.7659
255.5513, 715.0686
256.0334, 691.0724
256.5156, 677.7275
256.9977, 679.0959
257.4798, 684.5313
257.9619, 688.5611
258.4440, 690.5341
258.9261, 692.8802
259.4083, 695.6041
259.8904, 698.7963
260.3725, 703.0863
260.8546, 709.7678
261.3367, 715.2133
261.8188, 717.4857
262.3010, 716.1306
262.7831, 712.4008
263.2652, 703.9420
263.7473, 693.9448
264.2294, 693.2205
264.7115, 706.2072
265.1937, 719.1552
265.6758, 724.2719
266.1579, 719.6138
266.6400, 714.0959
267.1221, 706.5660
267.6042, 699.2706
268.0864, 699.6889
268.5685, 710.6666
269.0506, 722.2895
269.5327, 730.0883
270.0148, 734.2815
270.4969, 732.8580
270.9791, 723.4174
271.4612, 710.0824
271.9433, 704.2147
272.4254, 708.1663
272.9075, 711.9196
273.3896, 709.0417
273.8718, 698.1289
274.3539, 691.1750
274.8360, 688.5306
275.3181, 690.1601
275.8002, 697.8843
276.2823, 713.6523
276.7645, 726.7914
277.2466, 730.2847
277.7287, 723.0074
278.2108, 720.4382
278.6929, 725.0488
279.1750, 731.7711
279.6572, 728.4058
280.1393, 712.9689
280.6214, 701.6539
281.1035, 705.5089
281.5856, 724.3762
282.0677, 736.9489
282.5499, 742.1272
283.0320, 741.8363
283.5141, 737.0028
283.9962, 727.1843
284.4783, 720.4789
284.9604, 722.3968
285.4425, 732.1324
285.9247, 739.8097
286.4068, 745.2603
286.8889, 748.6096
287.3710, 749.5084
287.8531, 748.0159
288.3352, 745.7988
288.8174, 741.6989
289.2995, 736.8788
289.7816, 738.8340
290.2637, 748.7594
290.7458, 760.4880
291.2279, 765.2673
291.7101, 763.9961
292.1922, 763.8104
292.6743, 768.9379
293.1564, 777.5073
293.6385, 784.8182
294.1206, 791.1761
294.6028, 793.8300
295.0849, 785.0128
295.5670, 768.2913
296.0491, 758.6030
296.5312, 768.2363
297.0133, 787.3011
297.4955, 794.0922
297.9776, 787.9978
298.4597, 779.5320
298.9418, 779.6691
299.4239, 785.5173
299.9060, 789.4783
300.3882, 787.9977
300.8703, 783.3964
301.3524, 777.9901
301.8345, 771.8289
302.3166, 767.3746
302.7987, 766.9996
303.2809, 769.6556
303.7630, 773.6430
304.2451, 780.7817
304.7272, 786.9091
305.2093, 785.1315
305.6914, 776.3724
306.1736, 769.5577
306.6557, 774.6585
307.1378, 784.3557
307.6199, 788.4769
308.1020, 781.8373
308.5841, 771.6401
309.0663, 761.9631
309.5484, 753.1239
310.0305, 747.2618
310.5126, 749.5018
310.9947, 753.5137
311.4768, 752.3095
311.9590, 740.1176
312.4411, 728.9803
312.9232, 727.3130
313.4053, 733.0067
313.8874, 739.3108
314.3695, 746.2900
314.8516, 750.8487
315.3337, 749.9031
315.8159, 739.7370
316.2980, 730.6935
316.7801, 727.3771
317.2622, 728.4014
317.7443, 730.5709
318.2264, 737.3579
318.7086, 741.5473
319.1907, 737.4749
319.6728, 719.7930
320.1549, 707.2410
320.6370, 708.1272
321.1191, 717.0072
321.6013, 725.1494
322.0834, 729.3315
322.5655, 733.2852
323.0476, 739.3130
323.5297, 749.2596
324.0118, 754.5978
324.4940, 751.8856
324.9761, 744.5896
325.4582, 736.8815
325.9403, 722.1066
326.4224, 713.9575
326.9045, 718.7936
327.3867, 739.8447
327.8688, 753.3993
328.3509, 754.5127
328.8330, 750.2058
329.3151, 746.5323
329.7972, 742.4066
330.2794, 740.2966
330.7615, 740.6360
331.2436, 743.4443
331.7257, 748.1471
332.2078, 758.0702
332.6899, 766.7713
333.1721, 768.9141
333.6542, 759.7508
334.1363, 753.3394
334.6184, 751.6381
335.1005, 753.9937
335.5826, 757.2068
336.0648, 762.6654
336.5469, 766.6339
337.0290, 765.9910
337.5111, 758.5603
337.9932, 754.3732
338.4753, 754.8647
338.9575, 758.5168
339.4396, 761.4413
339.9217, 763.4568
340.4038, 765.3420
340.8859, 767.3438
341.3680, 769.3972
341.8502, 772.9617
342.3323, 779.1880
342.8144, 784.8901
343.2965, 782.9865
343.7786, 773.0332
344.2607, 764.1625
344.7429, 760.8982
345.2250, 762.5955
345.7071, 764.5774
346.1892, 767.0530
346.6713, 769.0823
347.1534, 769.9016
347.6355, 769.4367
348.1176, 767.1843
348.5998, 761.0726
349.0819, 753.5523
349.5640, 751.1800
350.0461, 754.0598
350.5282, 757.3442
351.0103, 755.3369
351.4925, 750.3336
351.9746, 747.8317
352.4567, 750.3294
352.9388, 755.3486
353.4209, 761.7159
353.9030, 768.8085
354.3852, 772.4490
354.8673, 765.0711
355.3494, 754.1136
355.8315, 749.5158
356.3136, 755.3140
356.7957, 764.7556
357.2779, 775.8223
357.7600, 786.9055
358.2421, 793.0432
358.7242, 788.7677
359.2063, 780.4805
359.6884, 772.4958
360.1706, 764.9336
360.6527, 759.4605
361.1348, 756.9244
361.6169, 756.9739
362.0990, 759.0383
362.5811, 766.3278
363.0633, 772.6942
363.5454, 774.1989
364.0275, 769.4576
364.5096, 767.4658
364.9917, 774.8167
365.4738, 784.2298
365.9560, 788.2676
366.4381, 780.0164
366.9202, 772.0781
367.4023, 766.4918
367.8844, 763.3277
368.3665, 762.7764
368.8487, 767.8060
369.3308, 773.5669
369.8129, 777.0126
370.2950, 777.5718
370.7771, 776.5629
371.2592, 772.6541
371.7414, 767.0296
372.2235, 764.6649
372.7056, 766.7469
373.1877, 770.4368
373.6698, 774.7421
374.1519, 780.5778
374.6341, 783.8809
375.1162, 783.2296
375.5983, 781.0662
376.0804, 783.4050
376.5625, 792.4886
377.0446, 797.9281
377.5267, 793.1429
378.0089, 777.9257
378.4910, 771.5615
378.9731, 775.8729
379.4552, 783.9510
379.9373, 787.7520
380.4194, 787.3527
380.9016, 785.0911
381.3837, 780.6577
381.8658, 775.2255
382.3479, 772.3751
382.8300, 772.1552
383.3121, 773.3983
383.7943, 777.5079
384.2764, 782.5587
384.7585, 781.3308
385.2406, 768.3997
385.7227, 754.5506
386.2048, 757.0314
386.6870, 773.0820
387.1691, 790.5251
387.6512, 806.8804
388.1333, 817.9095
388.6154, 815.1057
389.0975, 793.2559
389.5797, 772.8036
390.0618, 772.5418
390.5439, 785.0663
391.0260, 796.8175
391.5081, 801.6621
391.9902, 803.8102
392.4724, 806.3362
392.9545, 809.5724
393.4366, 810.3294
393.9187, 804.4607
394.4008, 796.6750
394.8829, 791.4401
395.3651, 790.7786
395.8472, 792.0625
396.3293, 796.0393
396.8114, 802.0880
397.2935, 805.8466
397.7756, 808.5848
398.2578, 807.3693
398.7399, 800.2795
399.2220, 771.9197
399.7041, 758.8882
400.1862, 773.8529
400.6683, 802.9232
401.1505, 813.3973
401.6326, 791.0519
402.1147, 769.2264
402.5968, 759.2946
403.0789, 763.7698
403.5610, 767.7411
404.0432, 771.5191
404.5253, 774.4562
405.0074, 775.4172
405.4895, 773.7848
405.9716, 772.5140
406.4537, 772.3461
406.9359, 773.1365
407.4180, 773.7869
407.9001, 774.0421
408.3822, 775.3640
408.8643, 780.6622
409.3464, 789.2980
409.8285, 793.3911
410.3106, 790.9730
410.7928, 784.6755
411.2749, 777.7303
411.7570, 770.3517
412.2391, 764.6328
412.7212, 762.3008
413.2033, 762.3146
413.6855, 762.5051
414.1676, 762.6004
414.6497, 763.7014
415.1318, 767.0049
415.6139, 772.0611
416.0960, 777.9191
416.5782, 788.4769
417.0603, 796.6765
417.5424, 795.2452
418.0245, 784.8659
418.5066, 773.4307
418.9887, 762.3835
419.4709, 753.5080
419.9530, 748.2856
420.4351, 748.2451
420.9172, 750.3631
421.3993, 754.8794
421.8814, 760.9203
422.3636, 766.2042
422.8457, 767.3040
423.3278, 770.0354
423.8099, 779.0568
424.2920, 801.6422
424.7741, 810.3486
425.2563, 790.4107
425.7384, 762.2229
426.2205, 750.1093
426.7026, 766.6741
427.1847, 779.5683
427.6668, 781.9497
428.1490, 774.3961
428.6311, 767.3221
429.1132, 759.6407
429.5953, 754.1440
430.0774, 753.8570
430.5595, 759.9312
431.0417, 763.5923
431.5238, 762.8914
432.0059, 760.5286
432.4880, 764.6756
432.9701, 776.0168
433.4522, 782.3006
433.9344, 770.8442
434.4165, 747.5554
434.8986, 743.0581
435.3807, 760.0259
435.8628, 779.8658
436.3449, 780.1328
436.8271, 766.8095
437.3092, 757.4910
437.7913, 761.1555
438.2734, 768.9441
438.7555, 769.7585
439.2376, 764.7172
439.7197, 760.3468
440.2018, 760.5352
440.6840, 763.5925
441.1661, 768.7562
441.6482, 777.7983
442.1303, 783.6435
442.6124, 780.7614
443.0945, 772.3614
443.5767, 764.2194
444.0588, 750.8477
444.5409, 744.6345
445.0230, 756.1534
445.5051, 788.8267
445.9872, 807.9406
446.4694, 795.8916
446.9515, 775.3615
447.4336, 763.8827
447.9157, 771.4777
448.3978, 774.7382
448.8799, 768.6533
449.3621, 756.8175
449.8442, 753.2501
450.3263, 761.7437
450.8084, 771.6919
451.2905, 779.0405
451.7726, 783.9384
452.2548, 783.7112
452.7369, 775.7438
453.2190, 767.3376
453.7011, 770.9776
454.1832, 787.3792
454.6653, 797.9212
455.1475, 795.1577
455.6296, 783.6705
456.1117, 776.8660
456.5938, 774.7825
457.0759, 772.7442
457.5580, 765.5632
458.0402, 755.8849
458.5223, 749.1433
459.0044, 745.6316
459.4865, 746.8278
459.9686, 758.4042
460.4507, 775.9900
460.9329, 789.6743
461.4150, 791.8876
461.8971, 790.0385
462.3792, 789.9722
462.8613, 791.9905
463.3434, 790.9199
463.8256, 780.3221
464.3077, 767.6746
464.7898, 759.2363
465.2719, 757.2778
465.7540, 758.9064
466.2361, 766.9233
466.7183, 778.6252
467.2004, 785.2437
467.6825, 782.6773
468.1646, 778.2866
468.6467, 773.2476
469.1288, 765.8052
469.6109, 765.5109
470.0930, 776.6069
470.5752, 790.2883
471.0573, 796.2828
471.5394, 792.2729
472.0215, 788.7421
472.5036, 788.0057
472.9857, 789.1255
473.4679, 788.0295
473.9500, 784.3788
474.4321, 781.6837
474.9142, 784.1212
475.3963, 789.9909
475.8784, 790.3876
476.3606, 783.7445
476.8427, 775.8103
477.3248, 772.7416
477.8069, 773.8439
478.2890, 777.3477
478.7711, 784.3100
479.2533, 792.1265
479.7354, 799.4947
480.2175, 806.0096
480.6996, 808.7897
481.1817, 800.2235
481.6638, 790.4652
482.1460, 789.3789
482.6281, 804.8652
483.1102, 815.8439
483.5923, 809.7150
484.0744, 795.4426
484.5565, 787.7921
485.0387, 795.3501
485.5208, 804.1761
486.0029, 811.0550
486.4850, 815.9315
486.9671, 819.6976
487.4492, 821.4441
487.9314, 823.0049
488.4135, 826.3231
488.8956, 833.7963
489.3777, 835.6237
489.8598, 829.6270
490.3419, 819.3102
490.8241, 810.9255
491.3062, 804.3499
491.7883, 800.7361
492.2704, 801.4984
492.7525, 805.7003
493.2346, 809.0151
493.7168, 811.3330
494.1989, 813.5457
494.6810, 819.0032
495.1631, 824.8655
495.6452, 822.8962
496.1273, 807.0261
496.6095, 791.1915
497.0916, 792.8717
497.5737, 806.3445
498.0558, 817.6675
498.5379, 817.4534
499.0201, 814.5195
499.5022, 814.3719
499.9843, 817.4983
500.4664, 821.8783
500.9485, 828.3419
501.4306, 834.8807
501.9127, 839.8022
502.3948, 845.2067
502.8770, 846.1112
503.3591, 837.4814
503.8412, 824.1639
504.3233, 818.6128
504.8054, 826.3370
505.2875, 833.6240
505.7697, 835.2187
506.2518, 830.4753
506.7339, 828.8489
507.2160, 830.5659
507.6981, 834.8629
508.1802, 841.8691
508.6624, 851.5839
509.1445, 860.9032
509.6266, 870.4801
510.1087, 877.4890
510.5908, 875.0226
511.0729, 864.2601
511.5551, 852.8821
512.0372, 840.6554
512.5193, 832.2255
513.0014, 837.5864
513.4835, 857.1616
513.9656, 876.3408
514.4478, 885.3189
514.9299, 888.0482
515.4120, 888.6129
515.8941, 885.4772
516.3762, 884.1121
516.8583, 888.1707
517.3405, 895.5985
517.8226, 901.6060
518.3047, 901.0508
518.7868, 902.7370
519.2689, 911.4915
519.7510, 929.0483
520.2332, 940.6237
520.7153, 943.0854
521.1974, 942.6193
521.6795, 944.0298
522.1616, 948.2354
522.6437, 950.6908
523.1259, 949.2433
523.6080, 947.5836
524.0901, 955.9795
524.5722, 975.3626
525.0543, 991.4523
525.5364, 996.3118
526.0186, 993.4785
526.5007, 995.5894
526.9828, 1002.674
527.4649, 1006.262
527.9470, 991.6632
528.4291, 970.6982
528.9113, 963.2580
529.3934, 977.0485
529.8755, 996.6646
530.3576, 1014.497
530.8397, 1029.870
531.3218, 1041.938
531.8040, 1044.993
532.2861, 1049.480
532.7682, 1060.803
533.2503, 1079.139
533.7324, 1096.234
534.2145, 1102.823
534.6967, 1114.257
535.1788, 1139.843
535.6609, 1190.527
536.1430, 1233.065
536.6251, 1262.348
537.1072, 1287.066
537.5894, 1319.009
538.0715, 1357.750
538.5536, 1405.914
539.0357, 1467.924
539.5178, 1538.240
539.9999, 1596.173
540.4821, 1640.668
540.9642, 1684.295
541.4463, 1735.416
541.9284, 1792.473
542.4105, 1851.389
542.8926, 1910.886
543.3748, 1976.533
543.8569, 2062.296
544.3390, 2154.684
544.8211, 2233.602
545.3032, 2268.968
545.7853, 2312.620
546.2675, 2398.134
546.7495, 2515.084
547.2316, 2625.948
547.7137, 2726.624
548.1959, 2813.207
548.6780, 2884.043
549.1601, 2935.672
549.6422, 2984.547
550.1243, 3042.582
550.6064, 3086.975
551.0886, 3100.216
551.5707, 3085.644
552.0528, 3026.029
552.5349, 2912.216
553.0170, 2760.391
553.4991, 2600.977
553.9813, 2433.610
554.4634, 2272.883
554.9455, 2126.034
555.4276, 1990.257
555.9097, 1858.063
556.3918, 1730.210
556.8740, 1614.991
557.3561, 1519.452
557.8382, 1440.705
558.3203, 1376.965
558.8024, 1331.783
559.2845, 1290.100
559.7667, 1237.702
560.2488, 1184.115
560.7309, 1143.114
561.2130, 1128.167
561.6951, 1116.559
562.1772, 1101.612
562.6594, 1083.668
563.1415, 1068.830
563.6236, 1058.213
564.1057, 1049.631
564.5878, 1042.674
565.0699, 1038.336
565.5521, 1030.787
566.0342, 1019.148
566.5163, 1005.953
566.9984, 992.8814
567.4805, 980.0876
567.9626, 971.0010
568.4448, 967.0168
568.9269, 965.9084
569.4090, 964.1382
569.8911, 961.9188
570.3732, 960.1100
570.8553, 959.6437
571.3375, 959.5748
571.8196, 959.0558
572.3017, 958.0436
572.7838, 956.5452
573.2659, 952.7921
573.7480, 949.6064
574.2302, 949.5415
574.7123, 956.2518
575.1944, 960.3271
575.6765, 959.7374
576.1586, 955.8134
576.6407, 950.1382
577.1229, 939.6259
577.6050, 932.8541
578.0871, 932.8854
578.5692, 938.0636
579.0513, 938.6899
579.5334, 933.3864
580.0156, 929.9125
580.4977, 934.2550
580.9798, 944.8871
581.4619, 954.0869
581.9440, 961.9600
582.4261, 965.2560
582.9083, 955.7981
583.3904, 940.1201
583.8725, 930.9044
584.3546, 933.5574
584.8367, 939.3239
585.3188, 942.6081
585.8010, 944.3701
586.2831, 946.6136
586.7652, 952.2211
587.2473, 956.3481
587.7294, 956.8125
588.2115, 953.5974
588.6937, 949.8995
589.1758, 945.6744
589.6579, 941.2601
590.1400, 936.5482
590.6221, 930.9210
591.1042, 927.4432
591.5864, 926.4891
592.0685, 927.0497
592.5506, 928.0695
593.0327, 929.5545
593.5148, 931.8044
593.9969, 935.6406
594.4791, 939.0651
594.9612, 939.2323
595.4433, 936.2617
595.9254, 930.5283
596.4075, 916.0162
596.8896, 902.9751
597.3718, 903.3986
597.8539, 916.6077
598.3360, 929.0211
598.8181, 935.6395
599.3002, 938.3889
599.7823, 938.4897
600.2645, 935.7704
600.7466, 930.8989
601.2287, 917.7149
601.7108, 906.0657
602.1929, 908.9717
602.6750, 935.0164
603.1572, 953.6749
603.6393, 958.9240
604.1214, 954.6929
604.6035, 949.6136
605.0856, 943.3592
605.5677, 942.6140
606.0499, 954.7723
606.5320, 974.2335
607.0141, 986.8091
607.4962, 992.6573
607.9783, 995.4047
608.4604, 994.5425
608.9425, 993.4951
609.4246, 996.6762
609.9067, 1006.076
610.3889, 1015.330
610.8710, 1022.053
611.3531, 1026.841
611.8352, 1030.387
612.3173, 1031.986
612.7994, 1033.510
613.2816, 1037.795
613.7637, 1041.987
614.2458, 1036.343
614.7279, 1015.691
615.2100, 998.2804
615.6921, 991.8013
616.1743, 994.7330
616.6564, 995.9224
617.1385, 995.3574
617.6206, 993.2990
618.1027, 988.5723
618.5848, 982.6525
619.0670, 978.6865
619.5491, 976.9774
620.0312, 977.5167
620.5133, 982.6046
620.9954, 989.1887
621.4775, 993.0095
621.9597, 987.7124
622.4418, 985.7191
622.9239, 993.5964
623.4060, 1007.691
623.8881, 1019.434
624.3702, 1029.527
624.8524, 1034.873
625.3345, 1031.771
625.8166, 1021.489
626.2987, 1021.607
626.7808, 1034.492
627.2629, 1050.425
627.7451, 1065.539
628.2272, 1079.333
628.7093, 1085.189
629.1914, 1082.021
629.6735, 1077.839
630.1556, 1081.396
630.6378, 1089.748
631.1199, 1097.473
631.6020, 1103.026
632.0841, 1108.188
632.5662, 1113.167
633.0483, 1118.774
633.5305, 1126.456
634.0126, 1139.174
634.4947, 1151.179
634.9768, 1160.239
635.4589, 1166.921
635.9410, 1175.053
636.4232, 1187.920
636.9053, 1196.912
637.3874, 1196.901
637.8695, 1187.759
638.3516, 1183.773
638.8337, 1185.363
639.3159, 1189.779
639.7980, 1195.015
640.2801, 1201.183
640.7622, 1209.253
641.2443, 1220.030
641.7264, 1229.659
642.2086, 1234.334
642.6907, 1235.514
643.1728, 1235.192
643.6549, 1230.054
644.1370, 1228.431
644.6191, 1236.993
645.1013, 1251.645
645.5834, 1261.993
646.0655, 1262.595
646.5476, 1263.138
647.0297, 1265.980
647.5118, 1270.825
647.9940, 1274.018
648.4761, 1275.324
648.9582, 1275.562
649.4403, 1274.430
