##NAMES=Esperite
##RRUFFID=R070512
##IDEAL CHEMISTRY=Pb^2+^Ca_2_(Zn^2+^SiO_4_)_3_
##LOCALITY=Parker Shaft, Franklin, Sussex County, New Jersey, USA
##OWNER=RRUFF
##SOURCE=Canadian Museum of Nature
##DESCRIPTION=Greasy white massive, co-type specimen. Structure reported in Tait et al (2010) is from this sample.
##STATUS=The identification of this mineral is confirmed by single-crystal X-ray diffraction and chemical analysis.
##URL=rruff.info/R070512
##MEASURED CHEMISTRY=(Ca_1.86_Fe_0.07_Mn_0.04_Cr^3+^_0.02_[box]_0.01_)_Σ=2_Pb_1.00_Zn_3.00_((Si_1.00_O_4_)_3_ ; = pin #1  : (Ca_1.79_Fe_0.12_Cr^3+^_0.04_Mn_0.03_[box]_0.02_)_Σ=2_Pb_1.00_Zn_3.00_((Si_1.00_O_4_)_3_ ; = pin #2
162.0714, 44816.06
162.5536, 44828.81
163.0357, 44851.72
163.5178, 44898.37
163.9999, 44935.45
164.4820, 44946.36
164.9641, 44933.77
165.4463, 44911.44
165.9284, 44865.15
166.4105, 44819.16
166.8926, 44799.47
167.3747, 44822.82
167.8568, 44868.80
168.3390, 44928.45
168.8211, 45000.49
169.3032, 45074.49
169.7853, 45156.38
170.2674, 45233.94
170.7495, 45286.28
171.2317, 45256.74
171.7138, 45219.57
172.1959, 45262.09
172.6780, 45413.61
173.1601, 45576.27
173.6422, 45664.17
174.1244, 45693.68
174.6065, 45714.83
175.0886, 45748.88
175.5707, 45796.05
176.0528, 45856.87
176.5349, 45931.91
177.0171, 46018.57
177.4992, 46122.54
177.9813, 46239.90
178.4634, 46349.74
178.9455, 46441.40
179.4276, 46511.61
179.9098, 46554.68
180.3919, 46549.78
180.8740, 46524.28
181.3561, 46522.95
181.8382, 46545.65
182.3203, 46584.40
182.8025, 46662.44
183.2846, 46761.15
183.7667, 46806.52
184.2488, 46739.39
184.7309, 46595.56
185.2130, 46474.57
185.6951, 46378.55
186.1773, 46304.29
186.6594, 46244.22
187.1415, 46200.06
187.6236, 46179.03
188.1057, 46183.71
188.5878, 46214.04
189.0700, 46278.44
189.5521, 46388.67
190.0342, 46509.91
190.5163, 46574.09
190.9984, 46577.88
191.4805, 46565.37
191.9627, 46556.79
192.4448, 46552.24
192.9269, 46570.70
193.4090, 46623.58
193.8911, 46695.18
194.3732, 46740.38
194.8554, 46758.13
195.3375, 46760.23
195.8196, 46753.23
196.3017, 46737.87
196.7838, 46729.21
197.2659, 46733.30
197.7481, 46749.91
198.2302, 46775.75
198.7123, 46817.75
199.1944, 46854.52
199.6765, 46849.59
200.1586, 46795.75
200.6408, 46760.76
201.1229, 46771.85
201.6050, 46829.32
202.0871, 46893.95
202.5692, 46972.84
203.0513, 47046.14
203.5335, 47069.16
204.0156, 47025.50
204.4977, 46995.00
204.9798, 47016.16
205.4619, 47094.01
205.9440, 47183.53
206.4262, 47296.80
206.9083, 47409.15
207.3904, 47446.65
207.8725, 47381.82
208.3546, 47314.40
208.8367, 47310.02
209.3189, 47388.56
209.8010, 47444.93
210.2831, 47467.59
210.7652, 47462.46
211.2473, 47453.85
211.7294, 47441.62
212.2116, 47428.95
212.6937, 47415.22
213.1758, 47394.82
213.6579, 47399.65
214.1400, 47448.28
214.6221, 47537.01
215.1043, 47587.79
215.5864, 47592.90
216.0685, 47575.87
216.5506, 47551.95
217.0327, 47504.11
217.5148, 47495.41
217.9970, 47552.29
218.4791, 47679.25
218.9612, 47770.12
219.4433, 47797.54
219.9254, 47812.54
220.4075, 47890.53
220.8897, 48069.80
221.3718, 48227.07
221.8539, 48320.14
222.3360, 48339.27
222.8181, 48335.69
223.3002, 48286.01
223.7824, 48227.27
224.2645, 48236.71
224.7466, 48365.15
225.2287, 48475.25
225.7108, 48507.30
226.1929, 48421.78
226.6750, 48370.91
227.1572, 48361.49
227.6393, 48386.27
228.1214, 48430.50
228.6035, 48511.35
229.0856, 48586.28
229.5677, 48632.73
230.0499, 48637.54
230.5320, 48639.66
231.0141, 48625.34
231.4962, 48607.75
231.9783, 48651.57
232.4604, 48806.25
232.9426, 48956.80
233.4247, 49030.39
233.9068, 48979.67
234.3889, 48946.76
234.8710, 48947.84
235.3531, 48979.95
235.8353, 49016.75
236.3174, 49072.86
236.7995, 49118.70
237.2816, 49127.86
237.7637, 49072.27
238.2458, 49035.79
238.7280, 49033.90
239.2101, 49066.23
239.6922, 49101.59
240.1743, 49149.26
240.6564, 49190.45
241.1385, 49203.50
241.6207, 49161.26
242.1028, 49138.33
242.5849, 49150.80
243.0670, 49200.82
243.5491, 49255.80
244.0313, 49316.93
244.5134, 49381.98
244.9955, 49450.79
245.4776, 49535.70
245.9597, 49603.45
246.4418, 49644.29
246.9240, 49654.38
247.4061, 49658.27
247.8882, 49637.87
248.3703, 49624.83
248.8524, 49672.64
249.3345, 49827.68
249.8167, 49963.74
250.2988, 50040.23
250.7809, 50041.27
251.2630, 50042.21
251.7451, 50035.78
252.2272, 50032.43
252.7094, 50055.05
253.1915, 50122.64
253.6736, 50182.25
254.1557, 50210.21
254.6378, 50189.70
255.1199, 50192.06
255.6021, 50228.42
256.0842, 50282.30
256.5663, 50317.12
257.0484, 50326.21
257.5305, 50328.58
258.0126, 50328.76
258.4948, 50317.19
258.9769, 50336.57
259.4590, 50407.16
259.9411, 50503.23
260.4232, 50550.22
260.9053, 50524.23
261.3875, 50494.63
261.8696, 50497.73
262.3517, 50542.96
262.8338, 50590.88
263.3159, 50635.38
263.7980, 50681.90
264.2802, 50751.13
264.7623, 50854.48
265.2444, 50956.99
265.7265, 51044.16
266.2086, 51119.70
266.6907, 51149.95
267.1729, 51105.46
267.6550, 51016.33
268.1371, 51008.50
268.6192, 51108.18
269.1013, 51228.19
269.5834, 51312.38
270.0656, 51356.53
270.5477, 51375.89
271.0298, 51359.89
271.5119, 51322.20
271.9940, 51326.55
272.4761, 51386.71
272.9583, 51456.02
273.4404, 51504.98
273.9225, 51534.75
274.4046, 51537.34
274.8867, 51498.00
275.3688, 51433.38
275.8510, 51424.77
276.3331, 51486.88
276.8152, 51562.51
277.2973, 51603.00
277.7794, 51604.91
278.2615, 51605.80
278.7437, 51614.97
279.2258, 51628.42
279.7079, 51621.90
280.1900, 51589.08
280.6721, 51561.77
281.1542, 51581.45
281.6364, 51651.65
282.1185, 51690.73
282.6006, 51667.36
283.0827, 51602.94
283.5648, 51592.22
284.0469, 51645.21
284.5291, 51701.90
285.0112, 51690.59
285.4933, 51613.98
285.9754, 51566.00
286.4575, 51575.32
286.9396, 51628.26
287.4217, 51681.26
287.9038, 51732.80
288.3860, 51787.23
288.8681, 51847.26
289.3502, 51911.74
289.8323, 51986.68
290.3144, 52094.43
290.7965, 52205.01
291.2787, 52211.55
291.7608, 52105.02
292.2429, 51992.42
292.7250, 51990.75
293.2071, 52079.68
293.6892, 52156.39
294.1714, 52183.67
294.6535, 52181.07
295.1356, 52194.64
295.6177, 52226.81
296.0998, 52251.19
296.5819, 52230.57
297.0641, 52180.06
297.5462, 52148.31
298.0283, 52156.84
298.5104, 52191.72
298.9925, 52233.68
299.4746, 52282.83
299.9568, 52332.63
300.4389, 52376.15
300.9210, 52414.99
301.4031, 52454.95
301.8852, 52497.79
302.3673, 52540.32
302.8495, 52577.78
303.3316, 52609.02
303.8137, 52639.36
304.2958, 52657.82
304.7779, 52678.60
305.2600, 52728.02
305.7422, 52873.89
306.2243, 53015.13
306.7064, 53027.98
307.1885, 52918.84
307.6706, 52810.97
308.1527, 52798.17
308.6349, 52839.98
309.1170, 52880.44
309.5991, 52899.35
310.0812, 52911.20
310.5633, 52930.27
311.0454, 52956.32
311.5276, 52973.48
312.0097, 52955.53
312.4918, 52929.80
312.9739, 52926.67
313.4560, 52986.65
313.9381, 53048.17
314.4203, 53068.09
314.9024, 53050.45
315.3845, 53044.87
315.8666, 53091.70
316.3487, 53153.91
316.8308, 53196.43
317.3130, 53201.87
317.7951, 53191.16
318.2772, 53158.59
318.7593, 53107.62
319.2414, 53078.88
319.7235, 53100.99
320.2057, 53143.14
320.6878, 53181.04
321.1699, 53188.26
321.6520, 53213.07
322.1341, 53290.86
322.6162, 53413.48
323.0984, 53490.70
323.5805, 53457.31
324.0626, 53402.46
324.5447, 53386.38
325.0268, 53420.52
325.5089, 53490.48
325.9911, 53629.32
326.4732, 53823.86
326.9553, 53951.20
327.4374, 53928.50
327.9195, 53884.78
328.4016, 53894.34
328.8838, 54016.84
329.3659, 54114.19
329.8480, 54160.49
330.3301, 54166.04
330.8122, 54201.56
331.2943, 54278.66
331.7765, 54372.94
332.2586, 54475.38
332.7407, 54615.82
333.2228, 54709.98
333.7049, 54740.20
334.1870, 54721.49
334.6692, 54716.63
335.1513, 54741.39
335.6334, 54757.46
336.1155, 54737.22
336.5976, 54660.14
337.0797, 54616.17
337.5619, 54623.65
338.0440, 54661.37
338.5261, 54659.86
339.0082, 54599.75
339.4903, 54555.75
339.9724, 54585.92
340.4546, 54704.38
340.9367, 54768.89
341.4188, 54765.17
341.9009, 54713.22
342.3830, 54644.77
342.8651, 54557.84
343.3473, 54483.98
343.8294, 54451.51
344.3115, 54457.20
344.7936, 54443.62
345.2757, 54402.77
345.7578, 54358.96
346.2400, 54352.95
346.7221, 54383.46
347.2042, 54418.82
347.6863, 54440.41
348.1684, 54453.26
348.6505, 54470.63
349.1327, 54489.26
349.6148, 54522.64
350.0969, 54606.29
350.5790, 54723.13
351.0611, 54811.75
351.5432, 54780.54
352.0254, 54720.15
352.5075, 54819.04
352.9896, 55101.42
353.4717, 55347.61
353.9538, 55291.82
354.4359, 55055.61
354.9181, 54878.65
355.4002, 54922.48
355.8823, 55037.74
356.3644, 55091.07
356.8465, 55080.48
357.3286, 55053.08
357.8108, 55029.31
358.2929, 55011.30
358.7750, 55000.71
359.2571, 54993.58
359.7392, 54998.79
360.2213, 55032.13
360.7035, 55090.61
361.1856, 55133.00
361.6677, 55118.41
362.1498, 55089.41
362.6319, 55082.65
363.1140, 55157.50
363.5962, 55203.86
364.0783, 55148.00
364.5604, 55012.14
365.0425, 54955.11
365.5246, 55088.08
366.0067, 55263.95
366.4889, 55391.93
366.9710, 55424.67
367.4531, 55453.92
367.9352, 55486.38
368.4173, 55521.70
368.8994, 55557.47
369.3815, 55609.33
369.8636, 55648.56
370.3458, 55661.26
370.8279, 55627.14
371.3100, 55600.59
371.7921, 55575.89
372.2742, 55559.40
372.7563, 55569.40
373.2385, 55618.68
373.7206, 55672.24
374.2027, 55721.74
374.6848, 55775.68
375.1669, 55782.07
375.6490, 55717.38
376.1312, 55629.24
376.6133, 55606.50
377.0954, 55670.20
377.5775, 55714.05
378.0596, 55680.45
378.5417, 55574.16
379.0239, 55535.47
379.5060, 55577.64
379.9881, 55650.09
380.4702, 55686.07
380.9523, 55687.63
381.4344, 55703.79
381.9166, 55765.42
382.3987, 55850.20
382.8808, 55884.56
383.3629, 55864.53
383.8450, 55840.48
384.3271, 55877.61
384.8093, 55951.60
385.2914, 55984.80
385.7735, 55929.53
386.2556, 55844.57
386.7377, 55824.07
387.2198, 55858.75
387.7020, 55877.18
388.1841, 55795.36
388.6662, 55677.97
389.1483, 55613.23
389.6304, 55641.71
390.1125, 55701.39
390.5947, 55764.23
391.0768, 55825.89
391.5589, 55868.07
392.0410, 55854.35
392.5231, 55836.44
393.0052, 55864.13
393.4874, 55983.01
393.9695, 56054.38
394.4516, 55956.88
394.9337, 55781.13
395.4158, 55693.43
395.8979, 55830.59
396.3801, 55984.84
396.8622, 56071.06
397.3443, 56065.00
397.8264, 56047.62
398.3085, 55995.76
398.7906, 55947.94
399.2728, 55952.59
399.7549, 56093.82
400.2370, 56194.18
400.7191, 56205.36
401.2012, 56119.70
401.6833, 56070.28
402.1655, 56069.85
402.6476, 56095.83
403.1297, 56131.25
403.6118, 56180.24
404.0939, 56234.39
404.5760, 56305.45
405.0582, 56382.14
405.5403, 56382.91
406.0224, 56276.67
406.5045, 56183.89
406.9866, 56211.32
407.4688, 56368.38
407.9509, 56465.06
408.4330, 56471.34
408.9151, 56421.16
409.3972, 56376.30
409.8793, 56336.67
410.3615, 56307.90
410.8436, 56290.30
411.3257, 56285.71
411.8078, 56305.93
412.2899, 56356.52
412.7720, 56412.17
413.2542, 56440.92
413.7363, 56449.84
414.2184, 56459.22
414.7005, 56474.69
415.1826, 56497.75
415.6647, 56531.50
416.1469, 56575.53
416.6290, 56623.61
417.1111, 56682.91
417.5932, 56738.89
418.0753, 56771.05
418.5574, 56739.59
419.0396, 56710.92
419.5217, 56730.40
420.0038, 56788.84
420.4859, 56828.34
420.9680, 56824.12
421.4501, 56794.72
421.9323, 56753.81
422.4144, 56712.76
422.8965, 56651.11
423.3786, 56530.66
423.8607, 56385.86
424.3428, 56311.04
424.8250, 56374.46
425.3071, 56459.14
425.7892, 56530.35
426.2713, 56599.24
426.7534, 56625.87
427.2355, 56567.82
427.7177, 56492.84
428.1998, 56510.58
428.6819, 56670.95
429.1640, 56804.51
429.6461, 56848.17
430.1282, 56802.57
430.6104, 56820.11
431.0925, 56914.14
431.5746, 57029.73
432.0567, 57111.53
432.5388, 57157.77
433.0209, 57201.04
433.5031, 57250.75
433.9852, 57299.83
434.4673, 57338.20
434.9494, 57366.43
435.4315, 57370.02
435.9136, 57317.37
436.3958, 57234.11
436.8779, 57182.97
437.3600, 57175.54
437.8421, 57200.84
438.3242, 57272.91
438.8063, 57372.72
439.2885, 57445.57
439.7706, 57436.04
440.2527, 57402.57
440.7348, 57392.30
441.2169, 57408.04
441.6990, 57450.46
442.1812, 57544.89
442.6633, 57656.29
443.1454, 57744.39
443.6275, 57776.08
444.1096, 57799.98
444.5917, 57827.72
445.0739, 57859.80
445.5560, 57900.89
446.0381, 57992.39
446.5202, 58065.65
447.0023, 58079.95
447.4844, 57950.71
447.9666, 57869.17
448.4487, 57853.96
448.9308, 57886.89
449.4129, 57924.33
449.8950, 57992.70
450.3771, 58022.89
450.8593, 57976.46
451.3413, 57836.23
451.8235, 57724.91
452.3056, 57645.60
452.7877, 57590.78
453.2698, 57559.94
453.7519, 57557.19
454.2340, 57529.11
454.7162, 57442.10
455.1983, 57321.25
455.6804, 57262.98
456.1625, 57270.01
456.6446, 57283.79
457.1267, 57237.05
457.6089, 57156.80
458.0910, 57121.49
458.5731, 57164.86
459.0552, 57227.77
459.5373, 57241.89
460.0194, 57216.86
460.5016, 57184.11
460.9837, 57156.71
461.4658, 57132.90
461.9479, 57110.08
462.4300, 57087.20
462.9121, 57071.26
463.3943, 57066.35
463.8764, 57070.78
464.3585, 57082.40
464.8406, 57105.58
465.3227, 57131.07
465.8048, 57162.13
466.2870, 57198.36
466.7691, 57214.77
467.2512, 57190.10
467.7333, 57156.92
468.2154, 57133.67
468.6975, 57109.30
469.1797, 57113.28
469.6618, 57159.93
470.1439, 57231.51
470.6260, 57284.21
471.1081, 57319.82
471.5902, 57329.85
472.0724, 57296.67
472.5545, 57214.47
473.0366, 57184.05
473.5187, 57217.68
474.0008, 57269.15
474.4829, 57283.37
474.9651, 57262.91
475.4472, 57234.04
475.9293, 57199.06
476.4114, 57166.20
476.8935, 57149.04
477.3756, 57148.84
477.8578, 57168.61
478.3399, 57229.81
478.8220, 57308.18
479.3041, 57361.78
479.7862, 57369.00
480.2683, 57386.44
480.7505, 57488.30
481.2326, 57631.01
481.7147, 57723.31
482.1968, 57683.50
482.6789, 57618.57
483.1610, 57577.46
483.6432, 57563.68
484.1253, 57565.41
484.6074, 57586.86
485.0895, 57616.38
485.5716, 57643.90
486.0537, 57668.91
486.5359, 57688.95
487.0180, 57704.77
487.5001, 57715.30
487.9822, 57716.05
488.4643, 57704.59
488.9464, 57688.47
489.4286, 57670.89
489.9107, 57652.35
490.3928, 57638.31
490.8749, 57634.48
491.3570, 57628.49
491.8391, 57599.35
492.3213, 57548.40
492.8034, 57494.29
493.2855, 57439.50
493.7676, 57390.20
494.2497, 57352.95
494.7318, 57329.16
495.2140, 57338.86
495.6961, 57443.97
496.1782, 57585.17
496.6603, 57644.79
497.1424, 57562.88
497.6245, 57474.48
498.1067, 57495.55
498.5888, 57590.07
499.0709, 57674.97
499.5530, 57691.51
500.0351, 57703.73
500.5172, 57756.90
500.9994, 57861.80
501.4815, 57929.94
501.9636, 57914.79
502.4457, 57865.68
502.9278, 57827.58
503.4099, 57831.48
503.8921, 57810.51
504.3742, 57742.74
504.8563, 57646.11
505.3384, 57595.16
505.8205, 57612.22
506.3026, 57639.39
506.7848, 57652.72
507.2669, 57653.59
507.7490, 57650.21
508.2311, 57647.79
508.7132, 57633.57
509.1953, 57574.77
509.6775, 57477.02
510.1596, 57403.13
510.6417, 57370.72
511.1238, 57374.84
511.6059, 57419.92
512.0880, 57500.98
512.5701, 57576.51
513.0522, 57617.33
513.5344, 57633.52
514.0165, 57637.11
514.4986, 57627.99
514.9807, 57610.20
515.4628, 57571.34
515.9449, 57528.24
516.4271, 57509.91
516.9092, 57572.89
517.3913, 57620.55
517.8734, 57612.16
518.3555, 57545.48
518.8376, 57477.98
519.3198, 57406.59
519.8019, 57345.52
520.2840, 57303.36
520.7661, 57286.90
521.2482, 57279.79
521.7303, 57291.95
522.2125, 57306.43
522.6946, 57275.95
523.1767, 57184.74
523.6588, 57112.02
524.1409, 57097.01
524.6230, 57131.18
525.1052, 57147.47
525.5873, 57143.23
526.0694, 57142.57
526.5515, 57181.22
527.0336, 57243.69
527.5157, 57281.79
527.9979, 57273.45
528.4800, 57254.83
528.9621, 57268.11
529.4442, 57303.35
529.9263, 57331.34
530.4084, 57316.16
530.8906, 57302.34
531.3727, 57326.45
531.8548, 57396.36
532.3369, 57457.51
532.8190, 57497.32
533.3011, 57515.89
533.7833, 57512.75
534.2654, 57463.36
534.7475, 57419.61
535.2296, 57380.34
535.7117, 57349.18
536.1938, 57342.71
536.6760, 57378.23
537.1581, 57405.85
537.6402, 57399.94
538.1223, 57357.05
538.6044, 57334.73
539.0865, 57338.81
539.5687, 57348.45
540.0508, 57329.98
540.5329, 57290.39
541.0150, 57284.44
541.4971, 57347.75
541.9792, 57424.97
542.4614, 57416.52
542.9435, 57338.26
543.4256, 57263.00
543.9077, 57233.96
544.3898, 57229.09
544.8719, 57231.52
545.3541, 57241.04
545.8362, 57243.82
546.3183, 57227.89
546.8004, 57203.23
547.2825, 57180.54
547.7646, 57159.19
548.2468, 57142.72
548.7289, 57131.27
549.2110, 57124.56
549.6931, 57124.99
550.1752, 57152.89
550.6573, 57159.14
551.1395, 57104.15
551.6216, 56960.92
552.1037, 56938.91
552.5858, 57077.49
553.0679, 57251.99
553.5500, 57317.83
554.0322, 57278.38
554.5143, 57211.60
554.9964, 57117.49
555.4785, 57029.66
555.9606, 57022.43
556.4427, 57084.08
556.9249, 57150.58
557.4070, 57185.52
557.8891, 57202.88
558.3712, 57208.91
558.8533, 57200.23
559.3354, 57215.20
559.8176, 57323.49
560.2997, 57443.70
560.7818, 57492.44
561.2639, 57343.12
561.7460, 57236.04
562.2281, 57250.19
562.7103, 57349.67
563.1924, 57397.21
563.6745, 57354.18
564.1566, 57308.68
564.6387, 57294.58
565.1208, 57316.92
565.6030, 57324.86
566.0851, 57315.23
566.5672, 57301.86
567.0493, 57307.88
567.5314, 57331.97
568.0135, 57322.30
568.4957, 57259.47
568.9778, 57178.07
569.4599, 57132.84
569.9420, 57118.91
570.4241, 57116.63
570.9063, 57132.93
571.3884, 57144.62
571.8705, 57111.06
572.3526, 57031.41
572.8347, 56985.23
573.3168, 57068.58
573.7990, 57173.82
574.2811, 57204.82
574.7632, 57034.55
575.2453, 56942.47
575.7274, 57034.35
576.2095, 57221.86
576.6917, 57326.00
577.1738, 57287.54
577.6559, 57263.45
578.1380, 57306.17
578.6201, 57409.04
579.1022, 57458.74
579.5844, 57440.86
580.0665, 57421.64
580.5486, 57475.81
581.0307, 57585.84
581.5128, 57612.59
581.9949, 57524.15
582.4771, 57408.33
582.9592, 57376.23
583.4413, 57402.18
583.9234, 57422.57
584.4055, 57402.35
584.8876, 57373.54
585.3698, 57344.23
585.8519, 57321.60
586.3340, 57342.08
586.8161, 57478.60
587.2982, 57619.90
587.7803, 57704.59
588.2625, 57716.36
588.7446, 57695.08
589.2267, 57605.22
589.7088, 57509.01
590.1909, 57479.75
590.6730, 57549.96
591.1552, 57596.84
591.6373, 57593.13
592.1194, 57556.86
592.6015, 57538.16
593.0836, 57536.77
593.5657, 57549.71
594.0479, 57594.46
594.5300, 57649.81
595.0121, 57649.05
595.4942, 57588.71
595.9763, 57523.61
596.4584, 57513.87
596.9406, 57521.34
597.4227, 57493.50
597.9048, 57397.03
598.3869, 57297.25
598.8690, 57198.15
599.3511, 57119.35
599.8333, 57096.87
600.3154, 57255.44
600.7975, 57349.02
601.2796, 57280.40
601.7617, 57056.03
602.2438, 56923.04
602.7260, 56923.68
603.2081, 56946.47
603.6902, 56925.64
604.1723, 56860.16
604.6544, 56771.73
605.1365, 56653.84
605.6187, 56540.70
606.1008, 56481.42
606.5829, 56468.60
607.0650, 56470.20
607.5471, 56472.34
608.0292, 56487.13
608.5114, 56552.83
608.9935, 56648.41
609.4756, 56701.79
609.9577, 56611.47
610.4398, 56513.71
610.9219, 56504.73
611.4041, 56607.41
611.8862, 56682.75
612.3683, 56672.91
612.8504, 56644.53
613.3325, 56648.50
613.8146, 56700.30
614.2968, 56756.58
614.7789, 56827.59
615.2610, 56891.43
615.7431, 56898.19
616.2252, 56843.20
616.7073, 56777.63
617.1895, 56711.33
617.6716, 56651.27
618.1537, 56614.11
618.6358, 56599.77
619.1179, 56613.71
619.6000, 56709.81
620.0822, 56814.01
620.5643, 56816.94
621.0464, 56686.08
621.5285, 56570.73
622.0106, 56563.38
622.4927, 56610.58
622.9749, 56655.44
623.4570, 56698.20
623.9391, 56723.69
624.4212, 56738.59
624.9033, 56734.57
625.3854, 56678.05
625.8676, 56527.54
626.3497, 56417.72
626.8318, 56408.54
627.3139, 56487.24
627.7960, 56533.20
628.2781, 56543.74
628.7603, 56539.95
629.2424, 56533.08
629.7245, 56525.34
630.2066, 56529.18
630.6887, 56552.58
631.1708, 56557.25
631.6530, 56481.49
632.1351, 56371.54
632.6172, 56297.08
633.0993, 56303.80
633.5814, 56330.75
634.0635, 56374.18
634.5457, 56424.99
635.0278, 56447.17
635.5099, 56415.55
635.9920, 56379.60
636.4741, 56350.24
636.9562, 56326.68
637.4384, 56325.14
637.9205, 56350.13
638.4026, 56383.30
638.8847, 56412.89
639.3668, 56438.11
639.8489, 56457.52
640.3311, 56475.27
640.8132, 56467.76
641.2953, 56373.63
641.7774, 56234.18
642.2595, 56138.49
642.7416, 56143.69
643.2238, 56180.71
643.7059, 56220.12
644.1880, 56258.23
644.6701, 56283.73
645.1522, 56266.83
645.6343, 56260.77
646.1165, 56305.75
646.5986, 56414.82
647.0807, 56443.71
647.5628, 56353.32
648.0449, 56241.37
648.5270, 56179.75
649.0092, 56172.33
649.4913, 56171.01
649.9734, 56171.73
650.4555, 56181.40
650.9376, 56220.18
651.4197, 56278.06
651.9019, 56318.61
