##NAMES=Esperite
##RRUFFID=R060295
##IDEAL CHEMISTRY=Pb^2+^Ca_2_(Zn^2+^SiO_4_)_3_
##LOCALITY=Parker Shaft, Franklin, Sussex County, New Jersey, USA
##OWNER=RRUFF
##SOURCE=Michael Scott
##DESCRIPTION=Tan colored massive associated with black franklinite
##STATUS=The identification of this mineral is confirmed by single-crystal X-ray diffraction and chemical analysis.
##URL=rruff.info/R060295
##MEASURED CHEMISTRY=(Ca_1.98_Pb_0.02_)_Î£=2_Pb_1.00_Zn_3.00_(Si_1.00_O_4_)_3_
93.30109, 0.0000000E+00
93.78320, 1149.577
94.26532, 1128.295
94.74744, 1131.637
95.22955, 1156.974
95.71167, 1195.897
96.19379, 1230.524
96.67590, 1265.600
97.15802, 1291.182
97.64014, 1302.197
98.12225, 1303.788
98.60437, 1303.595
99.08649, 1301.892
99.56860, 1304.189
100.0507, 1318.614
100.5328, 1345.116
101.0150, 1372.312
101.4971, 1395.914
101.9792, 1416.942
102.4613, 1425.577
102.9434, 1408.885
103.4255, 1382.024
103.9077, 1355.784
104.3898, 1334.312
104.8719, 1311.830
105.3540, 1275.486
105.8361, 1215.983
106.3182, 1157.244
106.8004, 1097.896
107.2825, 1043.568
107.7646, 1001.276
108.2467, 975.9119
108.7288, 966.1867
109.2109, 956.1640
109.6931, 947.3301
110.1752, 936.6113
110.6573, 920.5370
111.1394, 901.2607
111.6215, 883.9299
112.1036, 872.8600
112.5858, 868.7179
113.0679, 870.2257
113.5500, 878.4612
114.0321, 890.8267
114.5142, 907.6349
114.9964, 928.8934
115.4785, 949.3708
115.9606, 964.1190
116.4427, 973.5963
116.9248, 974.0261
117.4069, 959.9473
117.8891, 936.4391
118.3712, 913.7462
118.8533, 894.3301
119.3354, 875.3799
119.8175, 853.4381
120.2996, 828.7637
120.7818, 805.2684
121.2639, 785.3128
121.7460, 768.9019
122.2281, 755.7928
122.7102, 747.1560
123.1923, 741.3984
123.6745, 738.4051
124.1566, 738.0364
124.6387, 739.5283
125.1208, 742.3126
125.6029, 748.3054
126.0850, 751.2795
126.5672, 752.0924
127.0493, 749.7418
127.5314, 743.4072
128.0135, 732.7410
128.4956, 718.1310
128.9777, 700.2410
129.4599, 673.6301
129.9420, 649.8298
130.4241, 628.6029
130.9062, 610.8007
131.3883, 598.0078
131.8704, 591.4429
132.3526, 590.1088
132.8347, 588.1235
133.3168, 585.7644
133.7989, 582.6871
134.2810, 578.0330
134.7632, 572.1777
135.2453, 567.0358
135.7274, 563.8789
136.2095, 562.5178
136.6916, 561.5965
137.1737, 561.1359
137.6559, 561.0355
138.1380, 561.3458
138.6201, 562.1876
139.1022, 562.8600
139.5843, 562.9025
140.0664, 562.4894
140.5486, 561.8504
141.0307, 561.7762
141.5128, 561.4523
141.9949, 558.3090
142.4770, 551.0333
142.9591, 542.5684
143.4413, 533.4643
143.9234, 524.3101
144.4055, 516.0102
144.8876, 509.1507
145.3697, 503.7378
145.8518, 499.8653
146.3340, 498.0441
146.8161, 497.4904
147.2982, 498.6571
147.7803, 501.0862
148.2624, 503.7221
148.7445, 505.5081
149.2267, 506.1446
149.7088, 507.0984
150.1909, 508.5770
150.6730, 510.1281
151.1551, 511.1872
151.6372, 511.8262
152.1194, 512.8712
152.6015, 515.3968
153.0836, 520.0365
153.5657, 524.7432
154.0478, 529.8531
154.5299, 534.8784
155.0121, 539.5276
155.4942, 543.7694
155.9763, 547.1661
156.4584, 548.9095
156.9405, 549.1744
157.4226, 548.0551
157.9048, 544.3118
158.3869, 539.2394
158.8690, 535.7565
159.3511, 535.1291
159.8332, 535.5433
160.3153, 534.5997
160.7975, 532.2607
161.2796, 530.0731
161.7617, 529.4963
162.2438, 530.3346
162.7259, 530.0173
163.2081, 526.9351
163.6902, 523.2477
164.1723, 520.4008
164.6544, 518.5233
165.1365, 517.4293
165.6186, 516.9295
166.1008, 517.0338
166.5829, 517.7404
167.0650, 519.2475
167.5471, 521.2135
168.0292, 523.5905
168.5113, 526.3337
168.9935, 529.1962
169.4756, 531.7509
169.9577, 533.8251
170.4398, 535.9216
170.9219, 537.4501
171.4040, 539.3239
171.8862, 542.5243
172.3683, 547.3707
172.8504, 553.1293
173.3325, 558.1146
173.8146, 561.8717
174.2967, 565.2021
174.7789, 568.2869
175.2610, 570.9169
175.7431, 572.5258
176.2252, 572.8060
176.7073, 572.4505
177.1894, 573.8187
177.6716, 578.8098
178.1537, 583.0030
178.6358, 585.6815
179.1179, 587.0026
179.6000, 587.1210
180.0821, 585.8661
180.5643, 583.7464
181.0464, 582.4332
181.5285, 582.7617
182.0106, 582.5494
182.4927, 581.1280
182.9748, 578.4305
183.4570, 574.0125
183.9391, 567.1038
184.4212, 558.5204
184.9033, 550.3718
185.3854, 542.7313
185.8675, 535.4504
186.3497, 528.2529
186.8318, 521.1194
187.3139, 514.7208
187.7960, 509.1460
188.2781, 504.6642
188.7602, 501.8986
189.2424, 501.4001
189.7245, 501.6588
190.2066, 500.7143
190.6887, 498.2914
191.1708, 495.6237
191.6530, 492.5598
192.1351, 489.7183
192.6172, 487.7707
193.0993, 487.0360
193.5814, 487.0060
194.0635, 486.5900
194.5457, 485.2377
195.0278, 484.6562
195.5099, 485.7054
195.9920, 487.3348
196.4741, 488.4716
196.9562, 488.6176
197.4384, 488.1735
197.9205, 488.3967
198.4026, 490.7889
198.8847, 491.6899
199.3668, 489.8219
199.8489, 486.6123
200.3311, 483.7812
200.8132, 482.2221
201.2953, 481.3819
201.7774, 479.0901
202.2595, 473.2002
202.7416, 468.1602
203.2238, 464.5179
203.7059, 461.9490
204.1880, 459.9511
204.6701, 458.2823
205.1522, 456.9490
205.6343, 456.0260
206.1165, 455.9054
206.5986, 455.6848
207.0807, 454.6359
207.5628, 453.3813
208.0449, 453.2393
208.5270, 455.0685
209.0092, 458.2694
209.4913, 460.3308
209.9734, 460.6599
210.4555, 460.8435
210.9376, 461.2732
211.4197, 461.9634
211.9019, 463.0143
212.3840, 464.5711
212.8661, 466.4358
213.3482, 468.1098
213.8303, 469.9419
214.3124, 471.0916
214.7946, 470.4885
215.2767, 468.5031
215.7588, 467.2260
216.2409, 467.9190
216.7230, 469.6629
217.2052, 470.6843
217.6873, 470.8267
218.1694, 470.5220
218.6515, 469.8924
219.1336, 468.9564
219.6157, 468.2544
220.0979, 467.9661
220.5800, 468.0671
221.0621, 468.5790
221.5442, 469.5839
222.0263, 470.6836
222.5084, 471.5180
222.9906, 472.0793
223.4727, 472.4960
223.9548, 472.8592
224.4369, 473.0374
224.9190, 472.8683
225.4011, 472.3085
225.8833, 471.5934
226.3654, 470.9865
226.8475, 470.5120
227.3296, 470.0355
227.8117, 469.6074
228.2938, 469.1153
228.7760, 468.3885
229.2581, 467.4110
229.7402, 466.4887
230.2223, 466.0609
230.7044, 466.2719
231.1865, 466.5269
231.6687, 466.9254
232.1508, 467.2376
232.6329, 467.1601
233.1150, 466.7036
233.5971, 466.3085
234.0792, 466.6750
234.5614, 468.2589
235.0435, 469.4883
235.5256, 470.3195
236.0077, 470.8605
236.4898, 471.0291
236.9719, 470.8813
237.4541, 470.6995
237.9362, 470.8946
238.4183, 471.6992
238.9004, 472.3172
239.3825, 472.8587
239.8646, 473.1710
240.3468, 473.1079
240.8289, 472.6733
241.3110, 471.9951
241.7931, 471.1476
242.2752, 469.8009
242.7573, 469.3743
243.2395, 469.9188
243.7216, 471.1763
244.2037, 473.4755
244.6858, 476.6054
245.1679, 479.4760
245.6501, 480.7700
246.1322, 479.8869
246.6143, 479.7994
247.0964, 481.5918
247.5785, 483.2838
248.0606, 483.1718
248.5428, 481.3169
249.0249, 479.4537
249.5070, 479.3856
249.9891, 481.5062
250.4712, 482.6148
250.9533, 482.4243
251.4355, 481.5325
251.9176, 480.1152
252.3997, 478.2703
252.8818, 476.3678
253.3639, 474.7007
253.8460, 473.2877
254.3282, 471.9887
254.8103, 471.1649
255.2924, 470.1722
255.7745, 468.4192
256.2566, 465.9640
256.7387, 463.5114
257.2209, 461.5658
257.7030, 460.0805
258.1851, 458.4952
258.6672, 456.2448
259.1493, 454.3527
259.6314, 453.8837
260.1136, 454.6732
260.5957, 455.1779
261.0778, 454.3382
261.5599, 452.5564
262.0420, 451.2508
262.5241, 450.5618
263.0063, 450.1930
263.4884, 450.0277
263.9705, 450.0454
264.4526, 450.0988
264.9347, 450.2461
265.4168, 450.2855
265.8990, 449.8555
266.3811, 448.7274
266.8632, 447.6135
267.3453, 447.1307
267.8274, 447.1925
268.3095, 446.9868
268.7917, 445.6195
269.2738, 444.4644
269.7559, 445.4455
270.2380, 448.9686
270.7201, 452.5765
271.2022, 454.6703
271.6844, 455.3812
272.1665, 455.5336
272.6486, 454.9865
273.1307, 454.2984
273.6128, 453.9134
274.0949, 453.8335
274.5771, 454.1604
275.0592, 455.0172
275.5413, 456.3637
276.0234, 458.0193
276.5055, 460.2880
276.9876, 462.4165
277.4698, 464.0389
277.9519, 465.1268
278.4340, 465.5670
278.9161, 465.0033
279.3982, 463.6574
279.8803, 462.5607
280.3625, 462.0256
280.8446, 461.3300
281.3267, 459.9976
281.8088, 458.2015
282.2909, 456.3150
282.7730, 454.3780
283.2552, 452.5151
283.7373, 451.2466
284.2194, 450.9789
284.7015, 450.5372
285.1836, 449.0733
285.6658, 447.1513
286.1479, 445.6148
286.6300, 444.9081
287.1121, 444.7643
287.5942, 444.5936
288.0764, 444.3350
288.5585, 444.2015
289.0406, 444.4124
289.5227, 444.7222
290.0048, 444.7944
290.4869, 444.4383
290.9691, 444.0657
291.4512, 444.5265
291.9333, 446.2015
292.4154, 447.4986
292.8975, 447.8847
293.3796, 447.8168
293.8618, 447.4092
294.3439, 446.6963
294.8260, 446.1754
295.3081, 446.8074
295.7902, 449.0482
296.2723, 450.2650
296.7545, 449.5313
297.2366, 447.9542
297.7187, 445.7603
298.2008, 443.1181
298.6829, 440.5776
299.1650, 438.9433
299.6472, 438.3737
300.1293, 437.1345
300.6114, 434.4797
301.0935, 431.6807
301.5756, 429.1638
302.0577, 426.9788
302.5399, 425.0587
303.0220, 423.3872
303.5041, 421.9630
303.9862, 420.6751
304.4683, 419.4303
304.9504, 418.4724
305.4326, 418.0485
305.9147, 417.9474
306.3968, 417.7218
306.8789, 416.9570
307.3610, 415.9473
307.8431, 416.0878
308.3253, 418.3935
308.8074, 420.2748
309.2895, 421.0014
309.7716, 420.9770
310.2537, 420.4919
310.7358, 419.5807
311.2180, 418.7163
311.7001, 419.0840
312.1822, 421.3864
312.6643, 423.3831
313.1464, 424.8714
313.6285, 425.7974
314.1107, 425.7241
314.5928, 424.5999
315.0749, 423.5447
315.5570, 424.3888
316.0391, 427.7897
316.5212, 430.6834
317.0034, 432.1893
317.4855, 433.5609
317.9676, 435.4847
318.4497, 437.9989
318.9318, 440.6920
319.4139, 443.0258
319.8961, 444.8924
320.3782, 447.4493
320.8603, 451.6418
321.3424, 455.6567
321.8245, 458.7748
322.3066, 461.1478
322.7888, 463.2782
323.2709, 465.4450
323.7530, 467.6619
324.2351, 469.9265
324.7172, 472.0085
325.1993, 474.5127
325.6815, 477.6971
326.1636, 481.3524
326.6457, 485.2308
327.1278, 489.2035
327.6099, 493.2963
328.0920, 497.8446
328.5742, 503.7615
329.0563, 508.0648
329.5384, 508.4780
330.0205, 508.0564
330.5026, 509.6791
330.9847, 514.1693
331.4669, 519.5861
331.9490, 523.1773
332.4311, 524.5220
332.9132, 525.8925
333.3953, 528.2770
333.8774, 530.2734
334.3596, 530.8685
334.8417, 530.1227
335.3238, 529.0214
335.8059, 528.7438
336.2880, 529.3204
336.7701, 528.6342
337.2523, 525.8767
337.7344, 522.6063
338.2165, 519.6888
338.6986, 516.8593
339.1807, 513.4022
339.6628, 508.7642
340.1450, 503.1916
340.6271, 497.4315
341.1092, 490.9992
341.5913, 485.3868
342.0735, 481.1842
342.5556, 477.9903
343.0377, 475.5417
343.5198, 473.9463
344.0019, 472.4286
344.4840, 469.3430
344.9662, 464.0194
345.4483, 459.9845
345.9304, 459.5376
346.4125, 460.1049
346.8946, 459.8403
347.3767, 458.4516
347.8589, 457.2108
348.3410, 457.4543
348.8231, 459.1469
349.3052, 460.8235
349.7873, 462.0338
350.2694, 463.5128
350.7516, 465.8106
351.2337, 468.8055
351.7158, 471.9165
352.1979, 475.0332
352.6800, 478.0289
353.1621, 480.2917
353.6443, 481.3661
354.1264, 482.7350
354.6085, 485.5774
355.0906, 489.2209
355.5727, 492.6134
356.0548, 495.2760
356.5370, 497.7090
357.0191, 500.7051
357.5012, 504.3254
357.9833, 507.6855
358.4654, 510.5575
358.9475, 512.8432
359.4297, 514.1619
359.9118, 514.2022
360.3939, 514.6223
360.8760, 516.7301
361.3581, 520.3051
361.8402, 524.4706
362.3224, 529.5452
362.8045, 534.2839
363.2866, 537.3821
363.7687, 538.9730
364.2508, 539.9327
364.7329, 540.1035
365.2151, 540.0154
365.6972, 540.7961
366.1793, 542.7286
366.6614, 544.3821
367.1435, 544.5056
367.6256, 543.4661
368.1078, 542.4172
368.5899, 541.7681
369.0720, 540.9338
369.5541, 539.7391
370.0362, 538.0872
370.5183, 535.2772
371.0005, 530.8593
371.4826, 525.1323
371.9647, 518.8968
372.4468, 512.3018
372.9289, 505.0139
373.4110, 496.3831
373.8932, 487.0620
374.3753, 478.3588
374.8574, 470.6185
375.3395, 463.5143
375.8216, 456.6749
376.3037, 450.0581
376.7859, 444.2118
377.2680, 439.3502
377.7501, 435.1678
378.2322, 431.4478
378.7143, 428.1591
379.1964, 425.3089
379.6786, 422.9276
380.1607, 421.0052
380.6428, 419.2363
381.1249, 417.4813
381.6070, 416.0166
382.0891, 415.1291
382.5713, 414.5755
383.0534, 413.8525
383.5355, 412.7207
384.0176, 411.4547
384.4997, 410.6442
384.9818, 410.6454
385.4640, 410.5526
385.9461, 410.4464
386.4282, 410.1802
386.9103, 409.2018
387.3924, 407.6579
387.8745, 406.7780
388.3567, 408.0923
388.8388, 412.1092
389.3209, 414.6038
389.8030, 414.6155
390.2851, 414.3690
390.7672, 414.5299
391.2494, 415.0942
391.7315, 415.9276
392.2136, 416.9689
392.6957, 418.1413
393.1778, 419.1087
393.6599, 419.3820
394.1421, 420.1711
394.6242, 421.8637
395.1063, 423.9230
395.5884, 425.9941
396.0706, 427.9389
396.5527, 429.5833
397.0348, 430.6224
397.5169, 430.8488
397.9990, 431.2687
398.4811, 431.6752
398.9633, 432.4731
399.4454, 434.0306
399.9275, 436.1400
400.4096, 438.3522
400.8917, 440.4820
401.3738, 442.4030
401.8560, 443.4116
402.3381, 442.7191
402.8202, 442.6338
403.3023, 444.3969
403.7844, 446.7890
404.2665, 448.5448
404.7487, 449.2731
405.2308, 449.5965
405.7129, 450.1434
406.1950, 450.9102
406.6771, 452.0853
407.1592, 454.1174
407.6414, 456.1392
408.1235, 457.5701
408.6056, 458.4420
409.0877, 459.0211
409.5698, 459.6019
410.0519, 459.9725
410.5341, 459.4803
411.0162, 457.8995
411.4983, 456.2728
411.9804, 455.4073
412.4625, 454.8689
412.9446, 453.9357
413.4268, 452.3838
413.9089, 450.5996
414.3910, 448.7404
414.8731, 446.8675
415.3552, 445.2715
415.8373, 444.0340
416.3195, 443.1368
416.8016, 442.8021
417.2837, 443.1149
417.7658, 442.8102
418.2479, 441.1498
418.7300, 438.9132
419.2122, 436.6136
419.6943, 434.3792
420.1764, 433.1254
420.6585, 433.7724
421.1406, 436.1754
421.6227, 438.1925
422.1049, 439.4329
422.5870, 440.7740
423.0691, 442.4860
423.5512, 444.5456
424.0333, 446.9791
424.5154, 449.7982
424.9976, 452.8092
425.4797, 455.6100
425.9618, 457.9076
426.4439, 460.6068
426.9260, 463.2184
427.4081, 466.5976
427.8903, 471.6933
428.3724, 478.2934
428.8545, 485.1576
429.3366, 491.2083
429.8187, 496.5666
430.3008, 503.0130
430.7830, 511.9074
431.2651, 520.5032
431.7472, 528.0293
432.2293, 535.1565
432.7114, 542.7214
433.1935, 551.0126
433.6757, 559.4523
434.1578, 566.9128
434.6399, 572.9767
435.1220, 579.4489
435.6041, 586.5385
436.0862, 593.9514
436.5684, 601.8005
437.0505, 609.8854
437.5326, 617.7062
438.0147, 624.6360
438.4968, 631.0777
438.9789, 638.6274
439.4611, 647.8148
439.9432, 656.7502
440.4253, 664.6153
440.9074, 671.9036
441.3895, 679.0305
441.8716, 686.0994
442.3538, 693.0774
442.8359, 699.9471
443.3180, 706.7332
443.8001, 713.3743
444.2822, 720.2987
444.7643, 726.3242
445.2465, 730.6962
445.7286, 733.4725
446.2107, 733.7377
446.6928, 730.1833
447.1749, 724.7289
447.6570, 719.9517
448.1392, 715.5727
448.6213, 708.4770
449.1034, 696.8514
449.5855, 681.5732
450.0677, 664.8216
450.5498, 645.9889
451.0319, 627.3242
451.5140, 609.8301
451.9961, 592.6398
452.4782, 574.3485
452.9604, 554.7877
453.4425, 535.7609
453.9246, 519.0973
454.4067, 504.9411
454.8888, 491.9095
455.3709, 480.1767
455.8531, 469.2261
456.3352, 458.8415
456.8173, 449.1432
457.2994, 440.2483
457.7815, 432.2476
458.2636, 425.1045
458.7458, 418.7310
459.2279, 413.2721
459.7100, 408.3236
460.1921, 404.0428
460.6742, 400.0443
461.1563, 395.8641
461.6385, 391.6875
462.1206, 388.2772
462.6027, 386.3409
463.0848, 385.6241
463.5669, 384.8087
464.0490, 383.7787
464.5312, 382.8924
465.0133, 382.1761
465.4954, 381.6973
465.9775, 381.6953
466.4596, 382.2719
466.9417, 382.6734
467.4239, 381.9307
467.9060, 380.2596
468.3881, 379.1055
468.8702, 378.6996
469.3523, 378.7979
469.8344, 379.5994
470.3166, 380.8000
470.7987, 381.4411
471.2808, 380.3165
471.7629, 379.2960
472.2450, 380.4977
472.7271, 383.4802
473.2093, 385.8142
473.6914, 386.2172
474.1735, 385.9383
474.6556, 387.6337
475.1377, 391.9765
475.6198, 395.6674
476.1020, 397.8142
476.5841, 399.3887
477.0662, 401.2998
477.5483, 403.5516
478.0304, 405.5252
478.5125, 406.6358
478.9947, 407.0680
479.4768, 408.4226
479.9589, 412.4462
480.4410, 415.2640
480.9231, 415.6337
481.4052, 414.9453
481.8874, 414.5764
482.3695, 414.8799
482.8516, 415.3785
483.3337, 415.5015
483.8158, 415.2103
484.2979, 414.8565
484.7801, 414.0153
485.2622, 413.6241
485.7443, 414.1842
486.2264, 415.3507
486.7085, 416.6297
487.1906, 417.8739
487.6728, 418.9420
488.1549, 419.5702
488.6370, 419.7295
489.1191, 419.9074
489.6012, 420.1577
490.0833, 420.5294
490.5655, 421.3294
491.0476, 422.4209
491.5297, 422.8306
492.0118, 421.3452
492.4939, 419.4315
492.9760, 418.8905
493.4582, 419.7406
493.9403, 421.5335
494.4224, 424.4132
494.9045, 427.7617
495.3866, 429.8328
495.8687, 430.0010
496.3509, 430.7123
496.8330, 432.9209
497.3151, 435.7279
497.7972, 438.1433
498.2793, 440.0766
498.7614, 442.0457
499.2436, 444.4826
499.7257, 447.3573
500.2078, 450.3330
500.6899, 454.0799
501.1720, 457.1081
501.6541, 458.9336
502.1363, 460.0370
502.6184, 461.1843
503.1005, 462.4786
503.5826, 463.0331
504.0647, 461.4509
504.5468, 457.4590
505.0290, 454.1318
505.5111, 452.1470
505.9932, 449.9813
506.4753, 446.7849
506.9575, 443.1070
507.4396, 439.8131
507.9217, 437.2309
508.4038, 435.1001
508.8859, 433.3617
509.3680, 431.9637
509.8502, 429.9753
510.3323, 426.8744
510.8144, 423.6268
511.2965, 421.2555
511.7786, 419.6154
512.2607, 417.8954
512.7429, 415.9522
513.2250, 413.8095
513.7071, 411.4614
514.1892, 408.9154
514.6713, 406.1254
515.1534, 403.0123
515.6356, 399.7889
516.1177, 396.9766
516.5998, 395.3549
517.0819, 392.2261
517.5640, 386.4047
518.0461, 379.9734
518.5283, 374.2217
519.0104, 369.1479
519.4925, 364.2239
519.9746, 359.0590
520.4567, 353.8751
520.9388, 349.4286
521.4210, 345.3460
521.9031, 342.8051
522.3852, 343.1987
522.8673, 344.0060
523.3494, 343.5952
523.8315, 341.8227
524.3137, 339.2606
524.7958, 335.7564
525.2779, 331.8889
525.7600, 330.0325
526.2421, 330.7451
526.7242, 331.3616
527.2064, 330.3241
527.6885, 328.7715
528.1706, 328.1762
528.6527, 328.7702
529.1348, 329.6067
529.6169, 330.8822
530.0991, 331.8546
530.5812, 330.8035
531.0633, 327.5663
531.5454, 324.5681
532.0275, 323.6608
532.5096, 324.5310
532.9918, 325.0228
533.4739, 324.7295
533.9560, 324.6390
534.4381, 325.2142
534.9202, 325.9530
535.4023, 326.3576
535.8845, 326.3127
536.3666, 325.8958
536.8487, 325.0861
537.3308, 323.8838
537.8129, 323.3218
538.2950, 324.1044
538.7772, 324.6138
539.2593, 324.2706
539.7414, 323.5926
540.2235, 323.1623
540.7056, 323.1248
541.1877, 323.1247
541.6699, 322.8145
542.1520, 322.2238
542.6341, 321.4455
543.1162, 320.2501
543.5983, 319.4554
544.0804, 320.1238
544.5626, 321.4600
545.0447, 321.9748
545.5268, 321.3225
546.0089, 320.1125
546.4910, 318.1923
546.9731, 316.0669
547.4553, 314.8875
547.9374, 314.8973
548.4195, 315.1095
548.9016, 314.5238
549.3837, 313.1114
549.8658, 312.2159
550.3480, 312.1911
550.8301, 312.1597
551.3122, 311.7918
551.7943, 311.3258
552.2764, 311.0446
552.7585, 311.0306
553.2407, 311.2249
553.7228, 311.6902
554.2049, 312.4783
554.6870, 312.5328
555.1691, 311.2864
555.6512, 310.0931
556.1334, 309.5282
556.6155, 309.2610
557.0976, 308.7073
557.5797, 307.6197
558.0618, 306.9642
558.5439, 308.0097
559.0261, 310.2625
559.5082, 311.9904
559.9903, 313.0015
560.4724, 313.2288
560.9545, 312.1093
561.4366, 310.0871
561.9188, 309.3637
562.4009, 311.2672
562.8830, 312.8301
563.3651, 312.5817
563.8472, 311.4904
564.3293, 310.7813
564.8115, 310.7520
565.2936, 311.2364
565.7757, 312.1425
566.2578, 313.4767
566.7399, 314.4731
567.2220, 314.4909
567.7042, 314.9541
568.1863, 316.5608
568.6684, 318.4647
569.1505, 319.6974
569.6326, 320.0948
570.1147, 320.4087
570.5969, 321.1934
571.0790, 322.4750
571.5611, 324.6269
572.0432, 328.0787
572.5253, 331.1527
573.0074, 332.3396
573.4896, 332.9096
573.9717, 334.9275
574.4538, 338.9713
574.9359, 342.8995
575.4180, 345.5233
575.9001, 347.5124
576.3823, 349.6378
576.8644, 352.0438
577.3465, 354.9710
577.8286, 358.7593
578.3107, 363.0863
578.7928, 366.3520
579.2750, 367.4539
579.7571, 368.9206
580.2392, 371.0019
580.7213, 373.3843
581.2034, 375.7829
581.6855, 378.2144
582.1677, 381.0369
582.6498, 384.6852
583.1319, 388.7310
583.6140, 391.4446
584.0961, 392.3216
584.5782, 393.6299
585.0604, 396.2904
585.5425, 399.4175
586.0246, 402.6347
586.5067, 405.8330
586.9889, 408.0105
587.4710, 408.3748
587.9531, 407.7368
