##NAMES=Esperite
##RRUFFID=R070512
##IDEAL CHEMISTRY=Pb^2+^Ca_2_(Zn^2+^SiO_4_)_3_
##LOCALITY=Parker Shaft, Franklin, Sussex County, New Jersey, USA
##OWNER=RRUFF
##SOURCE=Canadian Museum of Nature
##DESCRIPTION=Greasy white massive, co-type specimen. Structure reported in Tait et al (2010) is from this sample.
##STATUS=The identification of this mineral is confirmed by single-crystal X-ray diffraction and chemical analysis.
##URL=rruff.info/R070512
##MEASURED CHEMISTRY=(Ca_1.86_Fe_0.07_Mn_0.04_Cr^3+^_0.02_[box]_0.01_)_Σ=2_Pb_1.00_Zn_3.00_((Si_1.00_O_4_)_3_ ; = pin #1  : (Ca_1.79_Fe_0.12_Cr^3+^_0.04_Mn_0.03_[box]_0.02_)_Σ=2_Pb_1.00_Zn_3.00_((Si_1.00_O_4_)_3_ ; = pin #2
120.4358, 997.8623
120.9179, 1032.876
121.4000, 1099.478
121.8821, 1183.153
122.3642, 1259.512
122.8464, 1318.807
123.3285, 1398.939
123.8106, 1522.509
124.2927, 1667.196
124.7748, 1803.438
125.2569, 1923.660
125.7391, 2024.482
126.2212, 2095.820
126.7033, 2138.529
127.1854, 2164.313
127.6675, 2159.926
128.1496, 2140.125
128.6317, 2144.983
129.1139, 2194.500
129.5960, 2270.424
130.0781, 2341.767
130.5602, 2414.344
131.0423, 2469.900
131.5244, 2488.054
132.0066, 2474.782
132.4887, 2468.662
132.9708, 2488.585
133.4529, 2521.022
133.9350, 2545.125
134.4171, 2559.908
134.8993, 2567.208
135.3814, 2562.360
135.8635, 2545.079
136.3456, 2539.026
136.8277, 2561.376
137.3098, 2597.127
137.7920, 2630.891
138.2741, 2662.249
138.7562, 2686.952
139.2383, 2703.305
139.7204, 2713.175
140.2025, 2703.951
140.6847, 2652.879
141.1668, 2586.192
141.6489, 2524.372
142.1310, 2471.317
142.6131, 2430.147
143.0952, 2405.264
143.5774, 2396.850
144.0595, 2405.713
144.5416, 2434.374
145.0237, 2477.882
145.5058, 2532.694
145.9879, 2597.156
146.4701, 2672.413
146.9522, 2765.136
147.4343, 2893.270
147.9164, 3002.425
148.3985, 3076.712
148.8806, 3126.305
149.3628, 3160.218
149.8449, 3180.042
150.3270, 3191.098
150.8091, 3213.313
151.2912, 3269.047
151.7733, 3300.178
152.2555, 3278.483
152.7376, 3229.332
153.2197, 3186.563
153.7018, 3170.248
154.1839, 3174.264
154.6660, 3168.482
155.1481, 3145.475
155.6303, 3121.070
156.1124, 3088.228
156.5945, 3058.158
157.0766, 3048.038
157.5587, 3070.737
158.0408, 3121.797
158.5230, 3166.939
159.0051, 3207.588
159.4872, 3239.777
159.9693, 3272.337
160.4514, 3281.200
160.9335, 3248.220
161.4157, 3164.198
161.8978, 3034.930
162.3799, 2927.835
162.8620, 2838.954
163.3441, 2777.623
163.8262, 2752.066
164.3084, 2754.568
164.7905, 2771.972
165.2726, 2794.791
165.7547, 2823.347
166.2368, 2871.609
166.7189, 2965.718
167.2011, 3051.460
167.6832, 3106.367
168.1653, 3142.664
168.6474, 3184.502
169.1295, 3248.685
169.6116, 3334.616
170.0938, 3432.939
170.5759, 3547.214
171.0580, 3668.615
171.5401, 3798.555
172.0222, 3933.676
172.5043, 4068.028
172.9865, 4196.995
173.4686, 4320.546
173.9507, 4455.315
174.4328, 4602.527
174.9149, 4757.930
175.3970, 4924.588
175.8792, 5099.050
176.3613, 5275.019
176.8434, 5451.713
177.3255, 5628.976
177.8076, 5769.125
178.2897, 5853.913
178.7719, 5929.576
179.2540, 6023.871
179.7361, 6125.526
180.2182, 6209.913
180.7003, 6268.381
181.1824, 6301.621
181.6646, 6192.400
182.1467, 5905.126
182.6288, 5550.929
183.1109, 5138.107
183.5930, 4690.536
184.0751, 4248.873
184.5573, 3839.194
185.0394, 3463.517
185.5215, 3147.312
186.0036, 2876.542
186.4857, 2659.854
186.9678, 2515.482
187.4500, 2429.029
187.9321, 2366.419
188.4142, 2306.656
188.8963, 2249.522
189.3784, 2189.977
189.8605, 2120.622
190.3427, 2056.976
190.8248, 2006.418
191.3069, 1966.697
191.7890, 1929.899
192.2711, 1890.374
192.7532, 1849.350
193.2354, 1820.534
193.7175, 1798.996
194.1996, 1791.313
194.6817, 1803.655
195.1638, 1832.293
195.6459, 1868.467
196.1281, 1907.215
196.6102, 1948.570
197.0923, 1993.434
197.5744, 2062.882
198.0565, 2113.265
198.5386, 2126.095
199.0208, 2108.310
199.5029, 2077.089
199.9850, 2041.871
200.4671, 2001.045
200.9492, 1941.288
201.4313, 1851.918
201.9135, 1760.938
202.3956, 1664.836
202.8777, 1573.413
203.3598, 1508.211
203.8419, 1483.726
204.3240, 1490.000
204.8061, 1485.341
205.2883, 1460.290
205.7704, 1437.476
206.2525, 1417.449
206.7346, 1404.040
207.2167, 1405.471
207.6988, 1426.480
208.1810, 1462.455
208.6631, 1498.673
209.1452, 1528.547
209.6273, 1566.600
210.1094, 1620.424
210.5915, 1683.447
211.0737, 1746.975
211.5558, 1807.744
212.0379, 1864.126
212.5200, 1911.641
213.0021, 1960.397
213.4842, 1986.310
213.9664, 1975.164
214.4485, 1942.031
214.9306, 1904.530
215.4127, 1868.634
215.8948, 1835.883
216.3769, 1809.464
216.8591, 1790.899
217.3412, 1776.103
217.8233, 1762.051
218.3054, 1752.718
218.7875, 1752.965
219.2696, 1764.268
219.7518, 1784.192
220.2339, 1809.373
220.7160, 1842.628
221.1981, 1875.662
221.6802, 1916.305
222.1623, 1952.695
222.6445, 1974.419
223.1266, 1979.038
223.6087, 1968.299
224.0908, 1944.192
224.5729, 1903.865
225.0550, 1853.164
225.5372, 1777.499
226.0193, 1701.287
226.5014, 1643.178
226.9835, 1606.101
227.4656, 1579.870
227.9477, 1553.132
228.4298, 1523.799
228.9120, 1503.744
229.3941, 1497.859
229.8762, 1496.274
230.3583, 1493.030
230.8404, 1487.736
231.3225, 1482.568
231.8047, 1478.570
232.2868, 1474.503
232.7689, 1483.045
233.2510, 1511.642
233.7331, 1543.472
234.2152, 1571.155
234.6974, 1594.976
235.1795, 1618.700
235.6616, 1646.235
236.1437, 1677.824
236.6258, 1698.599
237.1079, 1700.649
237.5901, 1701.941
238.0722, 1705.510
238.5543, 1712.931
239.0364, 1726.427
239.5185, 1747.824
240.0006, 1776.266
240.4828, 1805.652
240.9649, 1836.320
241.4470, 1867.527
241.9291, 1895.626
242.4112, 1924.985
242.8933, 1961.438
243.3755, 2008.346
243.8576, 2064.295
244.3397, 2125.546
244.8218, 2202.145
245.3039, 2271.469
245.7860, 2325.548
246.2682, 2374.447
246.7503, 2431.709
247.2324, 2502.568
247.7145, 2576.825
248.1966, 2633.066
248.6787, 2674.935
249.1609, 2689.618
249.6430, 2675.785
250.1251, 2639.175
250.6072, 2580.578
251.0893, 2501.619
251.5714, 2409.851
252.0535, 2315.365
252.5357, 2214.225
253.0178, 2119.336
253.4999, 2033.618
253.9820, 1951.089
254.4641, 1866.802
254.9462, 1781.405
255.4284, 1701.110
255.9105, 1633.456
256.3926, 1580.436
256.8747, 1529.175
257.3568, 1478.968
257.8390, 1431.450
258.3211, 1384.563
258.8032, 1340.339
259.2853, 1304.369
259.7674, 1283.898
260.2495, 1277.907
260.7317, 1264.111
261.2138, 1232.625
261.6959, 1205.051
262.1780, 1190.922
262.6601, 1185.741
263.1422, 1181.071
263.6244, 1171.708
264.1065, 1159.582
264.5886, 1151.784
265.0707, 1151.584
265.5528, 1149.540
266.0349, 1136.797
266.5170, 1122.442
266.9991, 1118.833
267.4813, 1133.240
267.9634, 1154.515
268.4455, 1161.581
268.9276, 1149.089
269.4097, 1144.141
269.8918, 1162.165
270.3740, 1189.108
270.8561, 1214.318
271.3382, 1235.323
271.8203, 1256.456
272.3024, 1283.549
272.7845, 1316.549
273.2667, 1346.433
273.7488, 1368.866
274.2309, 1388.981
274.7130, 1411.624
275.1951, 1437.048
275.6772, 1462.589
276.1594, 1488.043
276.6415, 1512.456
277.1236, 1533.104
277.6057, 1551.356
278.0878, 1562.218
278.5699, 1560.008
279.0521, 1546.353
279.5342, 1527.261
280.0163, 1501.807
280.4984, 1473.307
280.9805, 1446.659
281.4626, 1422.354
281.9448, 1399.308
282.4269, 1375.932
282.9090, 1353.085
283.3911, 1334.039
283.8732, 1326.924
284.3553, 1318.162
284.8375, 1292.880
285.3196, 1253.005
285.8017, 1215.565
286.2838, 1190.536
286.7659, 1176.050
287.2480, 1161.985
287.7302, 1146.643
288.2123, 1133.609
288.6944, 1123.937
289.1765, 1117.584
289.6586, 1114.225
290.1407, 1113.505
290.6229, 1116.322
291.1050, 1125.178
291.5871, 1141.241
292.0692, 1160.692
292.5513, 1185.392
293.0334, 1212.176
293.5156, 1238.625
293.9977, 1263.884
294.4798, 1286.810
294.9619, 1305.744
295.4440, 1320.895
295.9261, 1330.254
296.4083, 1335.800
296.8904, 1334.583
297.3725, 1323.612
297.8546, 1303.583
298.3367, 1277.468
298.8188, 1247.393
299.3010, 1212.775
299.7831, 1180.692
300.2652, 1146.934
300.7473, 1119.947
301.2294, 1106.256
301.7115, 1100.706
302.1937, 1094.534
302.6758, 1082.576
303.1579, 1066.291
303.6400, 1051.002
304.1221, 1034.902
304.6042, 1023.156
305.0864, 1016.496
305.5685, 1014.094
306.0506, 1016.245
306.5327, 1022.968
307.0148, 1031.194
307.4969, 1035.686
307.9791, 1034.757
308.4612, 1036.353
308.9433, 1043.757
309.4254, 1052.422
309.9075, 1061.349
310.3896, 1069.801
310.8718, 1075.196
311.3539, 1073.062
311.8360, 1064.399
312.3181, 1061.086
312.8002, 1069.814
313.2823, 1074.927
313.7644, 1064.116
314.2466, 1042.580
314.7287, 1023.709
315.2108, 1011.453
315.6929, 1006.324
316.1750, 1011.912
316.6571, 1030.477
317.1393, 1047.247
317.6214, 1052.146
318.1035, 1050.529
318.5856, 1051.376
319.0677, 1054.146
319.5498, 1062.077
320.0320, 1079.659
320.5141, 1105.203
320.9962, 1130.686
321.4783, 1152.577
321.9604, 1173.903
322.4425, 1200.353
322.9247, 1231.693
323.4068, 1266.409
323.8889, 1308.256
324.3710, 1351.666
324.8531, 1387.052
325.3352, 1412.448
325.8174, 1437.770
326.2995, 1473.598
326.7816, 1521.675
327.2637, 1574.147
327.7458, 1634.673
328.2279, 1696.097
328.7101, 1750.449
329.1922, 1800.984
329.6743, 1861.411
330.1564, 1942.667
330.6385, 2041.336
331.1206, 2127.072
331.6028, 2192.632
332.0849, 2254.811
332.5670, 2318.970
333.0491, 2380.469
333.5312, 2434.924
334.0133, 2480.258
334.4955, 2515.940
334.9776, 2541.350
335.4597, 2559.003
335.9418, 2559.276
336.4239, 2535.907
336.9060, 2501.955
337.3882, 2465.593
337.8703, 2427.184
338.3524, 2381.537
338.8345, 2321.123
339.3166, 2245.650
339.7987, 2175.304
340.2809, 2112.970
340.7630, 2051.876
341.2451, 1987.795
341.7272, 1922.574
342.2093, 1860.742
342.6914, 1803.885
343.1736, 1751.448
343.6557, 1702.819
344.1378, 1657.849
344.6199, 1616.846
345.1020, 1579.616
345.5841, 1547.014
346.0663, 1520.473
346.5484, 1500.993
347.0305, 1484.059
347.5126, 1465.267
347.9947, 1446.516
348.4768, 1434.425
348.9590, 1431.528
349.4411, 1432.951
349.9232, 1431.833
350.4053, 1427.868
350.8874, 1430.701
351.3695, 1448.969
351.8517, 1470.179
352.3338, 1479.474
352.8159, 1477.917
353.2980, 1482.275
353.7801, 1505.468
354.2622, 1545.739
354.7444, 1582.957
355.2265, 1618.519
355.7086, 1650.225
356.1907, 1671.219
356.6728, 1689.524
357.1549, 1718.367
357.6371, 1763.040
358.1192, 1815.358
358.6013, 1858.854
359.0834, 1886.561
359.5655, 1917.887
360.0476, 1955.868
360.5298, 1994.429
361.0119, 2026.147
361.4940, 2053.044
361.9761, 2085.958
362.4582, 2137.138
362.9403, 2205.518
363.4224, 2264.318
363.9045, 2303.738
364.3867, 2346.344
364.8688, 2405.522
365.3509, 2470.736
365.8330, 2526.732
366.3151, 2565.999
366.7972, 2595.203
367.2794, 2627.013
367.7615, 2663.421
368.2436, 2682.703
368.7257, 2672.272
369.2078, 2645.878
369.6899, 2621.323
370.1721, 2600.289
370.6542, 2565.032
371.1363, 2503.884
371.6184, 2422.375
372.1005, 2329.339
372.5826, 2224.516
373.0648, 2117.916
373.5469, 2017.880
374.0290, 1923.997
374.5111, 1827.467
374.9932, 1713.228
375.4753, 1610.026
375.9575, 1538.274
376.4396, 1491.045
376.9217, 1447.883
377.4038, 1399.154
377.8859, 1348.406
378.3680, 1305.053
378.8502, 1271.254
379.3323, 1242.651
379.8144, 1227.202
380.2965, 1211.917
380.7786, 1180.692
381.2607, 1134.434
381.7429, 1082.092
382.2250, 1094.891
382.7071, 1102.188
383.1892, 1104.278
383.6713, 1085.567
384.1534, 1093.716
384.6356, 1091.101
385.1177, 1088.045
385.5998, 1099.974
386.0819, 1084.289
386.5640, 1095.981
387.0461, 1096.744
387.5283, 1102.510
388.0104, 1097.444
388.4925, 1095.723
388.9746, 1104.837
389.4567, 1097.687
389.9388, 1089.850
390.4210, 1085.837
390.9031, 1096.516
391.3852, 1116.477
391.8673, 1133.871
392.3494, 1147.226
392.8315, 1159.784
393.3137, 1174.759
393.7958, 1191.166
394.2779, 1203.706
394.7600, 1205.447
395.2421, 1210.028
395.7242, 1225.605
396.2064, 1249.664
396.6885, 1277.514
397.1706, 1307.722
397.6527, 1337.660
398.1348, 1361.953
398.6169, 1377.546
399.0991, 1392.823
399.5812, 1410.111
400.0633, 1425.376
400.5454, 1433.105
401.0275, 1435.206
401.5096, 1439.867
401.9918, 1454.153
402.4739, 1476.996
402.9560, 1499.214
403.4381, 1524.107
403.9202, 1542.829
404.4023, 1547.383
404.8845, 1548.078
405.3666, 1557.185
405.8487, 1578.813
406.3308, 1604.231
406.8129, 1623.009
407.2950, 1635.262
407.7772, 1649.246
408.2593, 1670.307
408.7414, 1687.443
409.2235, 1690.624
409.7056, 1682.126
410.1877, 1671.558
410.6699, 1660.530
411.1520, 1650.128
411.6341, 1642.973
412.1162, 1638.526
412.5983, 1631.727
413.0804, 1621.061
413.5625, 1605.303
414.0446, 1579.605
414.5268, 1538.099
415.0089, 1499.023
415.4910, 1463.859
415.9731, 1433.447
416.4552, 1409.921
416.9373, 1392.881
417.4195, 1378.255
417.9016, 1361.945
418.3837, 1343.709
418.8658, 1326.246
419.3479, 1307.671
419.8300, 1291.995
420.3122, 1282.259
420.7943, 1275.449
421.2764, 1266.710
421.7585, 1253.762
422.2406, 1240.779
422.7227, 1234.817
423.2049, 1236.664
423.6870, 1240.245
424.1691, 1245.209
424.6512, 1251.185
425.1333, 1256.605
425.6154, 1262.163
426.0976, 1271.809
426.5797, 1288.948
427.0618, 1310.626
427.5439, 1333.887
428.0260, 1358.715
428.5081, 1379.651
428.9903, 1389.958
429.4724, 1396.796
429.9545, 1421.413
430.4366, 1472.894
430.9187, 1522.786
431.4008, 1559.191
431.8830, 1592.223
432.3651, 1635.275
432.8472, 1690.317
433.3293, 1747.687
433.8114, 1796.816
434.2935, 1836.528
434.7757, 1887.913
435.2578, 1953.307
435.7399, 2027.609
436.2220, 2114.139
436.7041, 2207.435
437.1862, 2300.593
437.6684, 2390.449
438.1505, 2480.012
438.6326, 2572.687
439.1147, 2668.071
439.5968, 2766.562
440.0789, 2859.229
440.5611, 2965.239
441.0432, 3105.632
441.5253, 3271.431
442.0074, 3426.554
442.4895, 3547.135
442.9716, 3653.455
443.4538, 3773.393
443.9359, 3905.126
444.4180, 4029.734
444.9001, 4140.776
445.3822, 4236.212
445.8643, 4313.256
446.3465, 4382.756
446.8286, 4413.188
447.3107, 4393.783
447.7928, 4335.989
448.2749, 4245.761
448.7570, 4126.097
449.2392, 3984.133
449.7213, 3822.821
450.2034, 3643.864
450.6855, 3454.534
451.1676, 3243.996
451.6497, 3038.770
452.1319, 2837.340
452.6140, 2645.190
453.0961, 2468.897
453.5782, 2309.742
454.0603, 2162.785
454.5424, 2023.582
455.0246, 1891.771
455.5067, 1769.055
455.9888, 1654.378
456.4709, 1550.979
456.9530, 1459.619
457.4352, 1380.394
457.9173, 1318.161
458.3994, 1286.458
458.8815, 1255.939
459.3636, 1200.874
459.8457, 1131.589
460.3279, 1073.484
460.8100, 1035.111
461.2921, 1007.439
461.7742, 979.1102
462.2563, 949.0739
462.7384, 923.8608
463.2205, 906.0509
463.7026, 890.3517
464.1848, 873.1962
464.6669, 856.4207
465.1490, 844.6632
465.6311, 840.7524
466.1132, 840.0197
466.5953, 830.9805
467.0775, 809.2375
467.5596, 794.4565
468.0417, 792.1584
468.5238, 795.3361
469.0059, 803.5315
469.4880, 814.6559
469.9702, 821.6042
470.4523, 816.0800
470.9344, 806.6238
471.4165, 807.0870
471.8986, 817.2872
472.3807, 829.8575
472.8629, 842.6912
473.3450, 854.9047
473.8271, 862.7708
474.3092, 862.1289
474.7913, 870.6711
475.2734, 897.4069
475.7556, 930.5797
476.2377, 961.3866
476.7198, 988.6330
477.2019, 1013.134
477.6840, 1035.023
478.1661, 1055.206
478.6483, 1078.937
479.1304, 1110.855
479.6125, 1138.571
480.0946, 1160.777
480.5767, 1178.367
481.0588, 1190.185
481.5410, 1196.932
482.0231, 1203.547
482.5052, 1214.200
482.9873, 1227.799
483.4694, 1241.406
483.9515, 1255.278
484.4337, 1267.390
484.9158, 1275.606
485.3979, 1281.796
485.8800, 1289.795
486.3621, 1299.112
486.8442, 1311.525
487.3264, 1330.146
487.8085, 1351.050
488.2906, 1369.777
488.7727, 1385.521
489.2548, 1399.092
489.7369, 1410.932
490.2191, 1421.182
490.7012, 1431.962
491.1833, 1448.406
491.6654, 1458.926
492.1475, 1455.148
492.6296, 1448.689
493.1118, 1451.982
493.5939, 1467.065
494.0760, 1484.987
494.5581, 1494.127
495.0402, 1497.056
495.5223, 1512.015
496.0045, 1541.687
496.4866, 1576.832
496.9687, 1612.922
497.4508, 1650.807
497.9329, 1691.295
498.4150, 1732.357
498.8972, 1780.854
499.3793, 1849.005
499.8614, 1923.309
500.3435, 1984.278
500.8256, 2028.238
501.3077, 2058.794
501.7899, 2077.719
502.2720, 2085.281
502.7541, 2095.694
503.2362, 2121.185
503.7183, 2134.576
504.2004, 2128.453
504.6826, 2109.785
505.1647, 2083.837
505.6468, 2052.527
506.1289, 2019.333
506.6110, 1985.439
507.0931, 1951.708
507.5753, 1926.624
508.0574, 1914.944
508.5395, 1899.391
509.0216, 1865.972
509.5037, 1823.792
509.9858, 1790.732
510.4680, 1773.485
510.9501, 1753.024
511.4322, 1719.026
511.9143, 1677.170
512.3964, 1632.916
512.8785, 1588.118
513.3607, 1549.434
513.8428, 1524.462
514.3249, 1511.265
514.8070, 1486.171
515.2891, 1443.768
515.7712, 1395.342
516.2534, 1337.375
516.7355, 1276.973
517.2176, 1220.727
517.6997, 1169.714
518.1818, 1119.431
518.6639, 1066.335
519.1461, 1011.154
519.6282, 953.2318
520.1103, 890.0312
520.5924, 836.7344
521.0745, 803.5836
521.5566, 784.2087
522.0388, 764.5678
522.5209, 744.6678
523.0030, 724.7806
523.4851, 702.6345
523.9672, 682.0444
524.4493, 667.2585
524.9315, 658.2121
525.4136, 651.6216
525.8957, 645.0942
526.3778, 639.3556
526.8599, 638.1065
527.3420, 648.0324
527.8242, 650.4344
528.3063, 633.5732
528.7884, 617.1176
529.2705, 617.9576
529.7526, 633.9498
530.2347, 647.1677
530.7169, 643.1851
531.1990, 631.0367
531.6811, 627.4292
532.1632, 632.3005
532.6453, 639.9592
533.1274, 649.1160
533.6096, 658.7267
534.0917, 667.2503
534.5738, 674.9860
535.0559, 680.5410
535.5380, 683.9517
536.0201, 684.9692
536.5022, 681.7303
536.9843, 676.0426
537.4664, 672.2499
537.9485, 672.5475
538.4307, 674.5842
538.9128, 674.0012
539.3949, 670.7985
539.8770, 664.7827
540.3591, 652.0798
540.8412, 640.7668
541.3234, 636.2077
541.8055, 636.2499
542.2876, 635.4247
542.7697, 631.6210
543.2518, 626.8913
543.7339, 623.8299
544.2161, 621.3152
544.6982, 616.0134
545.1803, 607.0573
545.6624, 595.7209
546.1445, 582.4678
546.6266, 566.8200
547.1088, 557.3937
547.5909, 561.2950
548.0730, 562.2239
548.5551, 553.3511
549.0372, 540.7971
549.5193, 531.0784
550.0015, 525.9035
550.4836, 523.8766
550.9657, 524.5178
551.4478, 527.3399
551.9299, 529.7800
552.4120, 532.3839
552.8942, 532.2726
553.3763, 525.4635
553.8584, 516.2177
554.3405, 513.5432
554.8226, 520.7213
555.3047, 524.2780
555.7869, 515.9081
556.2690, 504.8094
556.7511, 499.1129
557.2332, 499.3682
557.7153, 503.8760
558.1974, 512.0167
558.6796, 522.1866
559.1617, 529.8289
559.6438, 534.9281
560.1259, 537.4846
560.6080, 535.8098
561.0901, 532.9943
561.5723, 528.1011
562.0544, 523.1593
562.5365, 524.3191
563.0186, 538.3405
563.5007, 554.5157
563.9828, 559.9985
564.4650, 557.4034
564.9471, 556.4944
565.4292, 559.9215
565.9113, 565.7771
566.3934, 571.9158
566.8755, 578.1968
567.3577, 586.3904
567.8398, 599.7798
568.3219, 610.9326
568.8040, 613.8990
569.2861, 615.4233
569.7682, 624.1453
570.2504, 641.6506
570.7325, 661.7174
571.2146, 678.5934
571.6967, 692.7371
572.1788, 706.2532
572.6609, 718.6848
573.1431, 732.5230
573.6252, 747.4657
574.1073, 765.7725
574.5894, 792.0980
575.0715, 828.2833
575.5536, 865.0975
576.0358, 900.0524
576.5179, 935.4119
577.0000, 972.7554
577.4821, 1012.029
577.9642, 1051.982
578.4464, 1091.696
578.9285, 1133.590
579.4106, 1183.032
579.8927, 1241.685
580.3748, 1300.344
580.8569, 1358.143
581.3391, 1415.675
581.8212, 1472.873
582.3033, 1529.935
582.7854, 1586.759
583.2675, 1642.913
583.7496, 1699.997
584.2318, 1760.054
584.7139, 1821.107
585.1960, 1879.998
585.6781, 1935.721
586.1602, 1987.359
586.6423, 2034.335
587.1245, 2075.798
587.6066, 2104.738
588.0887, 2114.892
588.5708, 2121.958
589.0529, 2132.704
589.5350, 2137.636
590.0172, 2131.069
590.4993, 2112.156
590.9814, 2080.934
591.4635, 2035.553
591.9456, 1979.480
592.4277, 1918.266
592.9099, 1851.050
593.3920, 1770.028
593.8741, 1670.504
594.3562, 1564.847
594.8383, 1467.251
595.3204, 1376.991
595.8026, 1299.216
596.2847, 1241.016
596.7668, 1184.555
597.2489, 1121.676
597.7310, 1058.502
598.2131, 1003.023
598.6953, 956.6310
599.1774, 914.4133
599.6595, 869.9047
600.1416, 825.5599
600.6237, 792.1968
601.1058, 771.3971
601.5880, 748.2889
602.0701, 713.7776
602.5522, 676.0322
603.0343, 651.0746
603.5164, 642.7610
603.9985, 629.1379
604.4807, 599.1967
604.9628, 571.9192
605.4449, 561.3054
605.9270, 561.3282
606.4091, 559.7844
606.8912, 551.7216
607.3734, 539.8372
607.8555, 527.0139
608.3376, 513.3344
608.8197, 500.8886
609.3018, 489.3345
609.7839, 480.1700
610.2661, 475.9120
