##NAMES=Esseneite
##RRUFFID=R061123
##IDEAL CHEMISTRY=CaFe^3+^AlSiO_6_
##LOCALITY=Durham Ranch, South of Gillette, Sublette County, Wyoming, USA
##OWNER=RRUFF
##SOURCE=Michael Scott
##DESCRIPTION=Reddish-brown prismatic crystals associated with gehlenite, R070478
##STATUS=The identification of this mineral has been confirmed only by single crystal X-ray diffraction.
##URL=rruff.info/R061123
137.3095, 2633.097
137.7916, 2657.469
138.2737, 2694.291
138.7559, 2728.024
139.2380, 2756.443
139.7201, 2782.147
140.2022, 2808.093
140.6843, 2834.656
141.1664, 2853.670
141.6486, 2854.612
142.1307, 2853.792
142.6128, 2863.210
143.0949, 2884.531
143.5770, 2919.102
144.0591, 2968.956
144.5413, 3034.184
145.0234, 3116.683
145.5055, 3220.784
145.9876, 3340.767
146.4697, 3474.923
146.9518, 3626.257
147.4340, 3776.565
147.9161, 3901.920
148.3982, 4006.368
148.8803, 4113.588
149.3624, 4236.141
149.8445, 4364.674
150.3266, 4485.358
150.8088, 4598.653
151.2909, 4698.122
151.7730, 4778.977
152.2551, 4843.191
152.7372, 4887.753
153.2193, 4914.844
153.7015, 4921.125
154.1836, 4893.934
154.6657, 4820.390
155.1478, 4734.196
155.6299, 4663.348
156.1120, 4605.917
156.5942, 4554.143
157.0763, 4497.455
157.5584, 4442.515
158.0405, 4413.697
158.5226, 4422.845
159.0047, 4447.281
159.4869, 4466.660
159.9690, 4483.107
160.4511, 4508.021
160.9332, 4552.528
161.4153, 4602.767
161.8974, 4621.771
162.3796, 4623.286
162.8617, 4620.439
163.3438, 4621.610
163.8259, 4626.361
164.3080, 4632.077
164.7901, 4637.592
165.2723, 4643.096
165.7544, 4648.766
166.2365, 4660.039
166.7186, 4665.720
167.2007, 4659.562
167.6828, 4643.422
168.1650, 4623.859
168.6471, 4604.272
169.1292, 4584.862
169.6113, 4569.006
170.0934, 4556.393
170.5755, 4548.787
171.0577, 4549.747
171.5398, 4557.086
172.0219, 4563.431
172.5040, 4562.350
172.9861, 4553.675
173.4682, 4544.743
173.9504, 4532.251
174.4325, 4522.497
174.9146, 4518.587
175.3967, 4519.665
175.8788, 4522.757
176.3609, 4525.585
176.8431, 4527.973
177.3252, 4530.526
177.8073, 4537.032
178.2894, 4539.499
178.7715, 4532.013
179.2536, 4516.986
179.7358, 4501.944
180.2179, 4491.916
180.7000, 4486.540
181.1821, 4489.673
181.6642, 4517.549
182.1463, 4539.663
182.6285, 4539.544
183.1106, 4523.487
183.5927, 4510.408
184.0748, 4517.172
184.5569, 4544.690
185.0390, 4571.716
185.5212, 4608.979
186.0033, 4635.499
186.4854, 4636.067
186.9675, 4619.041
187.4496, 4605.531
187.9317, 4613.679
188.4139, 4644.232
188.8960, 4671.026
189.3781, 4702.257
189.8602, 4721.151
190.3423, 4713.614
190.8244, 4688.770
191.3066, 4666.769
191.7887, 4663.972
192.2708, 4680.254
192.7529, 4694.592
193.2350, 4716.855
193.7171, 4727.067
194.1993, 4712.385
194.6814, 4681.371
195.1635, 4651.475
195.6456, 4636.089
196.1277, 4634.262
196.6098, 4625.016
197.0920, 4599.007
197.5741, 4574.665
198.0562, 4559.179
198.5383, 4548.058
199.0204, 4532.854
199.5025, 4507.407
199.9847, 4472.880
200.4668, 4441.322
200.9489, 4413.722
201.4310, 4388.349
201.9131, 4363.243
202.3952, 4340.485
202.8774, 4323.878
203.3595, 4316.033
203.8416, 4315.612
204.3237, 4315.012
204.8058, 4321.075
205.2879, 4318.651
205.7701, 4302.746
206.2522, 4277.664
206.7343, 4246.991
207.2164, 4211.972
207.6985, 4176.025
208.1806, 4153.437
208.6628, 4157.196
209.1449, 4159.404
209.6270, 4157.558
210.1091, 4151.996
210.5912, 4142.838
211.0733, 4130.021
211.5555, 4114.767
212.0376, 4100.619
212.5197, 4089.938
213.0018, 4076.917
213.4839, 4055.689
213.9660, 4034.346
214.4482, 4023.185
214.9303, 4025.980
215.4124, 4035.228
215.8945, 4033.274
216.3766, 4006.596
216.8587, 3990.520
217.3409, 3991.886
217.8230, 4000.710
218.3051, 4010.303
218.7872, 4018.126
219.2693, 4023.188
219.7514, 4022.686
220.2336, 4009.421
220.7157, 4004.912
221.1978, 4016.690
221.6799, 4031.291
222.1620, 4038.904
222.6441, 4037.677
223.1263, 4032.277
223.6084, 4029.759
224.0905, 4033.749
224.5726, 4031.374
225.0547, 4017.667
225.5368, 4002.637
226.0190, 3990.265
226.5011, 3981.967
226.9832, 3978.890
227.4653, 3984.956
227.9474, 4005.891
228.4296, 4011.135
228.9117, 3981.318
229.3938, 3953.856
229.8759, 3947.849
230.3580, 3960.905
230.8401, 3978.388
231.3223, 3988.283
231.8044, 3990.535
232.2865, 3985.027
232.7686, 3958.481
233.2507, 3936.541
233.7328, 3920.853
234.2150, 3915.929
234.6971, 3931.884
235.1792, 3982.502
235.6613, 4063.668
236.1434, 4109.427
236.6255, 4093.164
237.1077, 4067.599
237.5898, 4034.312
238.0719, 4002.439
238.5540, 3985.625
239.0361, 3994.055
239.5182, 4020.956
240.0004, 4036.813
240.4825, 4030.271
240.9646, 4029.045
241.4467, 4048.093
241.9288, 4072.167
242.4109, 4081.478
242.8931, 4066.065
243.3752, 4037.428
243.8573, 4022.008
244.3394, 4023.943
244.8215, 4031.435
245.3036, 4042.234
245.7858, 4056.606
246.2679, 4076.950
246.7500, 4104.060
247.2321, 4131.164
247.7142, 4146.233
248.1963, 4144.437
248.6785, 4146.898
249.1606, 4162.011
249.6427, 4178.813
250.1248, 4190.519
250.6069, 4195.992
251.0890, 4199.202
251.5712, 4202.198
252.0533, 4204.052
252.5354, 4214.903
253.0175, 4251.401
253.4996, 4283.730
253.9817, 4292.905
254.4639, 4280.957
254.9460, 4265.029
255.4281, 4255.885
255.9102, 4253.564
256.3923, 4259.826
256.8744, 4279.890
257.3565, 4302.266
257.8387, 4323.309
258.3208, 4341.875
258.8029, 4354.649
259.2850, 4356.563
259.7671, 4351.545
260.2492, 4352.085
260.7314, 4359.850
261.2135, 4369.602
261.6956, 4378.876
262.1777, 4388.107
262.6598, 4397.849
263.1419, 4406.935
263.6241, 4417.894
264.1062, 4437.875
264.5883, 4469.945
265.0704, 4494.443
265.5525, 4492.947
266.0346, 4482.274
266.5168, 4483.212
266.9989, 4502.015
267.4810, 4527.180
267.9631, 4550.490
268.4452, 4571.830
268.9273, 4588.252
269.4095, 4596.325
269.8916, 4600.844
270.3737, 4608.799
270.8558, 4620.791
271.3379, 4633.421
271.8200, 4644.868
272.3022, 4655.458
272.7843, 4665.873
273.2664, 4675.583
273.7485, 4686.496
274.2306, 4701.366
274.7127, 4719.904
275.1949, 4739.715
275.6770, 4760.996
276.1591, 4782.746
276.6412, 4804.552
277.1233, 4826.862
277.6054, 4845.187
278.0876, 4853.353
278.5697, 4851.962
279.0518, 4853.762
279.5339, 4858.691
280.0160, 4868.098
280.4981, 4883.583
280.9803, 4904.975
281.4624, 4931.628
281.9445, 4966.833
282.4266, 5006.985
282.9087, 5028.068
283.3908, 5008.096
283.8730, 4994.037
284.3551, 5010.524
284.8372, 5047.909
285.3193, 5084.340
285.8014, 5109.160
286.2835, 5126.083
286.7657, 5145.556
287.2478, 5173.965
287.7299, 5195.859
288.2120, 5207.008
288.6941, 5211.335
289.1762, 5209.845
289.6584, 5203.376
290.1405, 5200.315
290.6226, 5214.599
291.1047, 5258.891
291.5868, 5292.472
292.0689, 5307.036
292.5511, 5318.024
293.0332, 5335.433
293.5153, 5360.190
293.9974, 5388.554
294.4795, 5418.149
294.9616, 5450.599
295.4438, 5469.408
295.9259, 5459.972
296.4080, 5452.488
296.8901, 5455.413
297.3722, 5468.376
297.8543, 5488.985
298.3365, 5516.293
298.8186, 5549.309
299.3007, 5583.072
299.7828, 5622.458
300.2649, 5655.096
300.7470, 5674.785
301.2292, 5688.772
301.7113, 5704.361
302.1934, 5724.343
302.6755, 5747.095
303.1576, 5772.157
303.6397, 5804.295
304.1219, 5823.570
304.6040, 5810.477
305.0861, 5795.610
305.5682, 5799.059
306.0503, 5822.603
306.5324, 5852.830
307.0146, 5877.375
307.4967, 5896.386
307.9788, 5919.275
308.4609, 5953.205
308.9430, 5982.397
309.4251, 5998.661
309.9073, 6003.513
310.3894, 6001.340
310.8715, 5985.878
311.3536, 5966.975
311.8357, 5969.037
312.3178, 5996.568
312.8000, 6028.780
313.2821, 6055.331
313.7642, 6078.870
314.2463, 6103.392
314.7284, 6130.844
315.2105, 6157.946
315.6927, 6186.147
316.1748, 6213.787
316.6569, 6224.486
317.1390, 6200.704
317.6211, 6168.718
318.1032, 6177.672
318.5854, 6238.753
319.0675, 6293.246
319.5496, 6310.809
320.0317, 6309.012
320.5138, 6318.401
320.9959, 6346.327
321.4781, 6379.688
321.9602, 6402.830
322.4423, 6413.458
322.9244, 6429.776
323.4065, 6451.162
323.8886, 6479.422
324.3708, 6521.960
324.8529, 6575.102
325.3350, 6621.144
325.8171, 6645.354
326.2992, 6650.297
326.7813, 6668.165
327.2635, 6705.704
327.7456, 6746.367
328.2277, 6791.988
328.7098, 6836.373
329.1919, 6869.305
329.6740, 6886.398
330.1562, 6894.570
330.6383, 6908.305
331.1204, 6928.012
331.6025, 6953.630
332.0846, 6996.908
332.5667, 7037.065
333.0489, 7054.934
333.5310, 7051.204
334.0131, 7046.315
334.4952, 7064.764
334.9773, 7110.023
335.4594, 7138.824
335.9416, 7134.671
336.4237, 7130.110
336.9058, 7138.519
337.3879, 7154.487
337.8700, 7166.584
338.3521, 7168.452
338.8343, 7162.443
339.3164, 7154.262
339.7985, 7143.576
340.2806, 7131.378
340.7627, 7117.824
341.2448, 7102.780
341.7270, 7085.635
342.2091, 7065.862
342.6912, 7045.805
343.1733, 7027.803
343.6554, 7011.537
344.1375, 6995.841
344.6197, 6982.755
345.1018, 6966.524
345.5839, 6940.412
346.0660, 6905.468
346.5481, 6868.907
347.0302, 6834.625
347.5124, 6799.559
347.9945, 6757.966
348.4766, 6709.398
348.9587, 6662.071
349.4408, 6623.846
349.9229, 6591.953
350.4051, 6549.250
350.8872, 6481.076
351.3693, 6418.082
351.8514, 6378.527
352.3335, 6353.846
352.8156, 6325.460
353.2978, 6285.904
353.7799, 6239.412
354.2620, 6194.233
354.7441, 6149.552
355.2262, 6107.959
355.7083, 6073.692
356.1905, 6039.576
356.6726, 5997.837
357.1547, 5948.974
357.6368, 5901.280
358.1189, 5863.146
358.6010, 5835.298
359.0832, 5805.469
359.5653, 5769.464
360.0474, 5735.730
360.5295, 5709.355
361.0116, 5686.247
361.4937, 5658.699
361.9759, 5622.157
362.4580, 5583.072
362.9401, 5557.645
363.4222, 5553.520
363.9043, 5541.672
364.3864, 5509.689
364.8686, 5472.501
365.3507, 5438.660
365.8328, 5409.683
366.3149, 5383.489
366.7970, 5358.512
367.2791, 5334.969
367.7613, 5313.327
368.2434, 5293.107
368.7255, 5275.866
369.2076, 5263.251
369.6897, 5254.296
370.1718, 5247.130
370.6540, 5241.929
371.1361, 5237.797
371.6182, 5237.343
372.1003, 5239.177
372.5824, 5231.450
373.0645, 5207.080
373.5467, 5171.766
374.0288, 5135.970
374.5109, 5092.904
374.9930, 5065.177
375.4751, 5066.626
375.9572, 5082.703
376.4394, 5100.086
376.9215, 5115.080
377.4036, 5121.644
377.8857, 5112.346
378.3678, 5084.785
378.8499, 5059.189
379.3321, 5033.729
379.8142, 5011.767
380.2963, 4992.750
380.7784, 4978.434
381.2605, 4974.775
381.7426, 4985.735
382.2248, 5002.708
382.7069, 4999.656
383.1890, 4956.978
383.6711, 4933.470
384.1532, 4954.196
384.6353, 4980.183
385.1175, 4980.649
385.5996, 4954.043
386.0817, 4924.216
386.5638, 4917.042
387.0459, 4929.785
387.5280, 4927.757
388.0102, 4903.599
388.4923, 4876.167
388.9744, 4850.681
389.4565, 4829.521
389.9386, 4818.567
390.4207, 4825.015
390.9029, 4834.576
391.3850, 4830.889
391.8671, 4815.354
392.3492, 4800.822
392.8313, 4792.136
393.3134, 4786.041
393.7956, 4778.139
394.2777, 4768.964
394.7598, 4756.250
395.2419, 4734.578
395.7240, 4711.958
396.2061, 4698.986
396.6883, 4695.751
397.1704, 4691.666
397.6525, 4678.143
398.1346, 4655.715
398.6167, 4633.488
399.0988, 4606.966
399.5810, 4585.905
400.0631, 4577.867
400.5452, 4574.986
401.0273, 4568.431
401.5094, 4554.753
401.9915, 4533.514
402.4737, 4501.020
402.9558, 4449.864
403.4379, 4410.344
403.9200, 4393.702
404.4021, 4379.172
404.8842, 4359.100
405.3664, 4333.236
405.8485, 4303.047
406.3306, 4267.343
406.8127, 4229.305
407.2948, 4198.295
407.7769, 4175.603
408.2591, 4154.501
408.7412, 4135.307
409.2233, 4114.607
409.7054, 4088.962
410.1875, 4057.900
410.6696, 4021.794
411.1518, 3972.499
411.6339, 3919.243
412.1160, 3884.558
412.5981, 3873.806
413.0802, 3872.194
413.5623, 3868.663
414.0445, 3862.846
414.5266, 3851.820
415.0087, 3829.472
415.4908, 3808.055
415.9729, 3800.136
416.4550, 3797.151
416.9372, 3777.670
417.4193, 3731.376
417.9014, 3674.405
418.3835, 3640.938
418.8656, 3651.628
419.3477, 3647.923
419.8299, 3619.318
420.3120, 3587.315
420.7941, 3561.304
421.2762, 3543.438
421.7583, 3534.828
422.2404, 3539.300
422.7226, 3552.446
423.2047, 3553.442
423.6868, 3536.779
424.1689, 3520.055
424.6510, 3509.660
425.1331, 3502.033
425.6153, 3494.167
426.0974, 3485.526
426.5795, 3476.410
427.0616, 3465.292
427.5437, 3453.693
428.0258, 3447.782
428.5080, 3449.923
428.9901, 3452.218
429.4722, 3446.680
429.9543, 3434.347
430.4364, 3425.096
430.9185, 3419.608
431.4007, 3417.157
431.8828, 3419.438
432.3649, 3424.273
432.8470, 3426.869
433.3291, 3425.231
433.8112, 3421.080
434.2934, 3417.892
434.7755, 3418.715
435.2576, 3413.351
435.7397, 3390.622
436.2218, 3372.297
436.7039, 3374.635
437.1861, 3392.719
437.6682, 3409.895
438.1503, 3414.398
438.6324, 3410.710
439.1145, 3415.196
439.5966, 3433.520
440.0788, 3445.641
440.5609, 3443.084
441.0430, 3433.814
441.5251, 3422.283
442.0072, 3409.187
442.4893, 3396.872
442.9715, 3382.831
443.4536, 3371.226
443.9357, 3375.509
444.4178, 3399.329
444.8999, 3421.439
445.3820, 3425.798
445.8642, 3415.860
446.3463, 3411.079
446.8284, 3417.732
447.3105, 3421.883
447.7926, 3411.832
448.2747, 3397.958
448.7569, 3399.853
449.2390, 3422.018
449.7211, 3446.135
450.2032, 3448.759
450.6853, 3425.420
451.1674, 3404.530
451.6496, 3377.418
452.1317, 3361.682
452.6138, 3373.316
453.0959, 3398.246
453.5780, 3412.533
454.0602, 3404.721
454.5423, 3388.290
455.0244, 3387.932
455.5065, 3406.875
455.9886, 3415.081
456.4707, 3397.920
456.9529, 3379.150
457.4349, 3377.299
457.9171, 3389.901
458.3992, 3403.643
458.8813, 3418.720
459.3634, 3428.802
459.8455, 3424.491
460.3276, 3407.153
460.8098, 3386.285
461.2919, 3363.743
461.7740, 3344.288
462.2561, 3339.913
462.7382, 3358.979
463.2203, 3372.731
463.7025, 3373.180
464.1846, 3371.522
464.6667, 3378.171
465.1488, 3391.724
465.6309, 3403.162
466.1130, 3406.025
466.5952, 3401.414
467.0773, 3393.770
467.5594, 3378.185
468.0415, 3368.840
468.5236, 3373.274
469.0057, 3380.895
469.4879, 3384.592
469.9700, 3383.011
470.4521, 3376.413
470.9342, 3360.982
471.4163, 3340.677
471.8984, 3328.187
472.3806, 3324.620
472.8627, 3325.414
473.3448, 3328.417
473.8269, 3334.103
474.3090, 3343.109
474.7911, 3357.499
475.2733, 3371.302
475.7554, 3381.450
476.2375, 3389.941
476.7196, 3401.947
477.2017, 3417.397
477.6838, 3425.629
478.1660, 3413.266
478.6481, 3380.110
479.1302, 3372.594
479.6123, 3419.714
480.0944, 3459.459
480.5765, 3485.775
481.0587, 3497.026
481.5408, 3485.103
482.0229, 3449.719
482.5050, 3416.266
482.9871, 3416.112
483.4692, 3447.052
483.9514, 3474.465
484.4335, 3497.715
484.9156, 3515.009
485.3977, 3520.034
485.8798, 3519.163
486.3619, 3524.226
486.8441, 3540.877
487.3262, 3557.791
487.8083, 3566.324
488.2904, 3570.231
488.7725, 3577.494
489.2546, 3590.102
489.7368, 3604.238
490.2189, 3615.654
490.7010, 3623.835
491.1831, 3634.600
491.6652, 3653.574
492.1473, 3668.406
492.6295, 3672.920
493.1116, 3671.961
493.5937, 3671.518
494.0758, 3673.724
494.5579, 3677.674
495.0400, 3682.107
495.5222, 3686.995
496.0043, 3692.947
496.4864, 3697.654
496.9685, 3707.258
497.4506, 3730.596
497.9327, 3760.133
498.4149, 3781.219
498.8970, 3788.593
499.3791, 3789.919
499.8612, 3787.391
500.3433, 3783.449
500.8254, 3785.572
501.3076, 3795.949
501.7897, 3806.981
502.2718, 3808.854
502.7539, 3799.653
503.2360, 3804.090
503.7181, 3832.123
504.2003, 3860.384
504.6824, 3884.383
505.1645, 3902.724
505.6466, 3912.002
506.1287, 3911.697
506.6108, 3910.210
507.0930, 3919.749
507.5751, 3941.039
508.0572, 3958.841
508.5393, 3972.235
509.0214, 3982.816
509.5035, 3988.315
509.9857, 3992.510
510.4678, 4002.648
510.9499, 4023.231
511.4320, 4043.658
511.9141, 4054.645
512.3962, 4060.229
512.8784, 4070.375
513.3605, 4087.284
513.8426, 4104.364
514.3247, 4114.416
514.8068, 4117.334
515.2889, 4128.120
515.7711, 4152.170
516.2532, 4176.568
516.7353, 4198.881
517.2174, 4219.739
517.6995, 4239.658
518.1816, 4258.861
518.6638, 4278.277
519.1459, 4299.213
519.6280, 4321.421
520.1101, 4344.185
520.5922, 4373.486
521.0743, 4390.081
521.5565, 4367.612
522.0386, 4332.829
522.5207, 4322.916
523.0028, 4348.700
523.4849, 4377.393
523.9670, 4395.037
524.4492, 4403.605
524.9313, 4403.198
525.4134, 4394.713
525.8955, 4385.526
526.3776, 4379.861
526.8597, 4378.748
527.3419, 4389.115
527.8240, 4443.732
528.3061, 4466.213
528.7882, 4428.080
529.2703, 4372.837
529.7524, 4331.842
530.2346, 4309.694
530.7167, 4296.851
531.1988, 4290.043
531.6809, 4285.375
532.1630, 4269.936
532.6451, 4242.240
533.1273, 4211.745
533.6094, 4177.271
534.0915, 4145.870
534.5736, 4129.736
535.0557, 4131.171
535.5378, 4126.984
536.0200, 4105.049
536.5021, 4079.415
536.9842, 4064.089
537.4663, 4056.464
537.9484, 4044.811
538.4305, 4022.794
538.9127, 3995.158
539.3948, 3972.636
539.8769, 3955.899
540.3590, 3942.618
540.8411, 3941.783
541.3232, 3935.774
541.8054, 3909.237
542.2875, 3871.442
542.7696, 3844.754
543.2517, 3841.976
543.7338, 3848.272
544.2159, 3847.919
544.6981, 3841.336
545.1802, 3829.747
545.6623, 3812.367
546.1444, 3793.953
546.6265, 3779.226
547.1086, 3768.360
547.5908, 3757.451
548.0729, 3748.026
548.5550, 3736.701
549.0371, 3718.276
549.5192, 3698.848
550.0013, 3688.406
550.4835, 3688.434
550.9656, 3689.509
551.4477, 3682.224
551.9298, 3666.636
552.4119, 3641.493
552.8940, 3598.713
553.3762, 3563.247
553.8583, 3554.483
554.3404, 3554.856
554.8225, 3545.447
555.3046, 3523.241
555.7867, 3498.005
556.2689, 3477.852
556.7510, 3455.612
557.2331, 3414.254
557.7152, 3357.610
558.1973, 3318.394
558.6794, 3319.486
559.1616, 3342.352
559.6437, 3331.788
560.1258, 3258.314
560.6079, 3203.743
561.0900, 3179.088
561.5721, 3161.844
562.0543, 3139.723
562.5364, 3114.249
563.0185, 3092.970
563.5006, 3081.365
563.9827, 3072.150
564.4648, 3054.680
564.9470, 3029.664
565.4291, 3003.677
565.9112, 2978.037
566.3933, 2951.470
566.8754, 2919.672
567.3575, 2883.176
567.8397, 2862.294
568.3218, 2872.948
568.8039, 2880.543
569.2860, 2870.296
569.7681, 2851.228
570.2502, 2834.402
570.7324, 2822.350
571.2145, 2811.429
571.6966, 2796.908
572.1787, 2779.801
572.6608, 2770.491
573.1429, 2772.813
573.6251, 2772.750
574.1072, 2763.221
574.5893, 2749.934
575.0714, 2739.858
575.5535, 2733.737
576.0356, 2724.541
576.5178, 2707.785
576.9999, 2688.069
577.4820, 2666.759
577.9641, 2646.093
578.4462, 2634.575
578.9283, 2636.820
579.4105, 2644.049
579.8926, 2638.350
580.3747, 2612.631
580.8568, 2596.125
581.3389, 2599.472
581.8210, 2601.450
582.3032, 2592.675
582.7853, 2578.075
583.2674, 2565.200
583.7495, 2555.636
584.2316, 2551.756
584.7137, 2558.590
585.1959, 2572.398
585.6780, 2584.355
586.1601, 2593.290
586.6422, 2599.148
587.1243, 2602.032
587.6064, 2601.627
588.0886, 2596.483
588.5707, 2588.214
589.0528, 2572.678
589.5349, 2538.798
590.0170, 2506.336
590.4991, 2491.243
590.9813, 2491.013
591.4634, 2493.419
591.9455, 2491.793
592.4276, 2487.833
592.9097, 2484.222
593.3918, 2480.975
593.8740, 2478.023
594.3561, 2475.570
594.8382, 2472.785
595.3203, 2468.044
595.8024, 2461.651
596.2845, 2458.480
596.7667, 2462.247
597.2488, 2464.790
597.7309, 2462.594
598.2130, 2458.026
598.6951, 2453.900
599.1772, 2450.664
599.6594, 2446.993
600.1415, 2441.315
600.6236, 2434.417
601.1057, 2429.818
601.5878, 2427.797
602.0699, 2426.707
602.5521, 2423.440
603.0342, 2423.580
603.5163, 2437.210
603.9984, 2463.536
604.4805, 2479.077
604.9626, 2470.513
605.4448, 2456.883
605.9269, 2449.088
606.4090, 2445.964
606.8911, 2443.708
607.3732, 2441.268
607.8553, 2441.759
608.3375, 2450.493
608.8196, 2467.522
609.3017, 2476.655
609.7838, 2474.116
610.2659, 2470.558
610.7480, 2466.415
611.2302, 2464.978
611.7123, 2472.696
612.1944, 2490.718
612.6765, 2502.084
613.1586, 2492.208
613.6407, 2477.494
614.1229, 2473.809
614.6050, 2480.242
615.0871, 2492.190
615.5692, 2507.944
616.0513, 2523.841
616.5334, 2533.985
617.0156, 2537.760
617.4977, 2538.915
617.9798, 2531.498
618.4619, 2529.180
618.9440, 2540.169
619.4261, 2556.789
619.9083, 2569.468
620.3904, 2576.177
620.8725, 2580.770
621.3546, 2582.117
621.8367, 2584.519
622.3188, 2595.288
622.8010, 2613.748
623.2831, 2634.598
623.7652, 2656.027
624.2473, 2674.469
624.7294, 2682.324
625.2115, 2675.553
625.6937, 2670.261
626.1758, 2655.823
626.6579, 2654.583
627.1400, 2687.849
627.6221, 2734.563
628.1042, 2762.508
628.5864, 2762.218
629.0685, 2753.084
629.5506, 2745.113
630.0327, 2739.692
630.5148, 2737.637
630.9969, 2739.615
631.4791, 2753.170
631.9612, 2784.960
632.4433, 2823.528
632.9254, 2842.259
633.4075, 2834.385
633.8896, 2822.618
