##NAMES=Ettringite
##RRUFFID=R070208
##IDEAL CHEMISTRY=Ca_6_Al_2_(S^6+^O_4_)_3_(OH)_12_&#183;27H_2_O
##LOCALITY=Hatrurim Formation, Negev Desert, West of Dead Sea, southern Israel
##OWNER=RRUFF
##SOURCE=Michael Scott
##DESCRIPTION=Canary yellow to colorless prismatic and tabular hexagonal crystals associated with colorless afwillite, R070296.
##STATUS=The identification of this mineral has been confirmed only by single crystal X-ray diffraction.
##URL=rruff.info/R070208
191.4084, 2190.903
191.8905, 2193.375
192.3727, 2179.246
192.8548, 2171.447
193.3369, 2176.988
193.8190, 2188.071
194.3011, 2197.656
194.7832, 2202.970
195.2654, 2205.307
195.7475, 2206.658
196.2296, 2203.477
196.7117, 2206.520
197.1938, 2225.507
197.6759, 2245.778
198.1581, 2252.581
198.6402, 2241.284
199.1223, 2221.837
199.6044, 2212.852
200.0865, 2219.438
200.5686, 2226.981
201.0508, 2236.893
201.5329, 2245.446
202.0150, 2249.283
202.4971, 2247.635
202.9792, 2242.703
203.4613, 2237.542
203.9435, 2230.920
204.4256, 2227.063
204.9077, 2228.476
205.3898, 2230.648
205.8719, 2230.258
206.3540, 2226.781
206.8362, 2222.325
207.3183, 2219.489
207.8004, 2218.083
208.2825, 2219.085
208.7646, 2227.079
209.2467, 2233.705
209.7289, 2233.010
210.2110, 2224.958
210.6931, 2214.445
211.1752, 2206.375
211.6573, 2199.945
212.1395, 2199.435
212.6216, 2213.880
213.1037, 2226.176
213.5858, 2226.098
214.0679, 2214.877
214.5500, 2201.333
215.0322, 2194.240
215.5143, 2194.735
215.9964, 2194.330
216.4785, 2191.424
216.9606, 2189.107
217.4427, 2189.057
217.9249, 2190.730
218.4070, 2192.004
218.8891, 2190.234
219.3712, 2185.136
219.8533, 2187.398
220.3354, 2211.229
220.8176, 2228.769
221.2997, 2230.558
221.7818, 2220.121
222.2639, 2204.920
222.7460, 2189.418
223.2281, 2173.879
223.7103, 2162.445
224.1924, 2155.845
224.6745, 2153.178
225.1566, 2158.582
225.6387, 2166.932
226.1208, 2170.314
226.6030, 2163.620
227.0851, 2149.777
227.5672, 2141.300
228.0493, 2143.954
228.5314, 2144.359
229.0135, 2138.416
229.4957, 2129.838
229.9778, 2122.644
230.4599, 2118.615
230.9420, 2117.229
231.4241, 2117.606
231.9062, 2122.339
232.3884, 2124.203
232.8705, 2120.306
233.3526, 2114.683
233.8347, 2110.460
234.3168, 2108.738
234.7989, 2109.094
235.2811, 2111.700
235.7632, 2119.701
236.2453, 2122.212
236.7274, 2114.860
237.2095, 2104.894
237.6916, 2097.276
238.1738, 2092.849
238.6559, 2088.750
239.1380, 2079.337
239.6201, 2060.232
240.1022, 2052.362
240.5843, 2071.927
241.0665, 2090.210
241.5486, 2090.674
242.0307, 2074.664
242.5128, 2056.560
242.9949, 2051.845
243.4770, 2062.288
243.9592, 2053.597
244.4413, 2066.986
244.9234, 2074.424
245.4055, 2076.231
245.8876, 2055.541
246.3697, 2063.901
246.8519, 2060.619
247.3340, 2056.860
247.8161, 2069.309
248.2982, 2051.891
248.7803, 2064.083
249.2624, 2064.455
249.7446, 2070.236
250.2267, 2064.304
250.7088, 2061.990
251.1909, 2071.394
251.6730, 2074.309
252.1551, 2067.028
252.6373, 2073.154
253.1194, 2055.327
253.6015, 2058.519
254.0836, 2070.779
254.5657, 2064.087
255.0478, 2070.427
255.5300, 2071.803
256.0121, 2050.625
256.4942, 2068.672
256.9763, 2069.756
257.4584, 2053.421
257.9406, 2070.124
258.4227, 2056.191
258.9048, 2053.193
259.3869, 2058.424
259.8690, 2055.077
260.3511, 2065.255
260.8333, 2062.403
261.3154, 2058.386
261.7975, 2059.451
262.2796, 2046.118
262.7617, 2059.495
263.2438, 2054.627
263.7260, 2058.828
264.2081, 2065.084
264.6902, 2055.601
265.1723, 2062.781
265.6544, 2044.121
266.1365, 2047.082
266.6187, 2047.715
267.1008, 2062.168
267.5829, 2043.633
268.0650, 2045.994
268.5471, 2057.251
269.0292, 2056.060
269.5114, 2060.073
269.9935, 2048.678
270.4756, 2051.759
270.9577, 2050.849
271.4398, 2063.726
271.9219, 2065.719
272.4041, 2054.586
272.8862, 2043.508
273.3683, 2057.378
273.8504, 2047.602
274.3325, 2050.582
274.8146, 2040.388
275.2968, 2041.569
275.7789, 2042.570
276.2610, 2049.403
276.7431, 2038.552
277.2252, 2050.639
277.7073, 2049.469
278.1895, 2052.204
278.6716, 2054.505
279.1537, 2039.016
279.6358, 2038.110
280.1179, 2058.071
280.6000, 2046.209
281.0822, 2040.770
281.5643, 2039.897
282.0464, 2060.573
282.5285, 2061.219
283.0106, 2037.924
283.4927, 2057.650
283.9749, 2050.909
284.4570, 2051.449
284.9391, 2056.442
285.4212, 2060.689
285.9033, 2062.552
286.3854, 2061.956
286.8676, 2060.632
287.3497, 2054.985
287.8318, 2052.115
288.3139, 2058.332
288.7960, 2070.423
289.2781, 2080.124
289.7603, 2083.070
290.2424, 2079.854
290.7245, 2072.571
291.2066, 2053.533
291.6887, 2040.143
292.1708, 2038.695
292.6530, 2043.010
293.1351, 2044.811
293.6172, 2041.263
294.0993, 2036.542
294.5814, 2038.526
295.0635, 2054.791
295.5457, 2063.220
296.0278, 2059.226
296.5099, 2051.318
296.9920, 2042.722
297.4741, 2035.364
297.9562, 2033.292
298.4384, 2042.291
298.9205, 2065.414
299.4026, 2078.222
299.8847, 2071.446
300.3668, 2063.957
300.8489, 2060.973
301.3311, 2062.375
301.8131, 2067.056
302.2953, 2075.014
302.7774, 2084.881
303.2595, 2089.625
303.7416, 2087.594
304.2237, 2082.277
304.7058, 2069.471
305.1880, 2056.267
305.6701, 2051.729
306.1522, 2059.475
306.6343, 2071.582
307.1164, 2073.714
307.5985, 2061.909
308.0807, 2054.906
308.5628, 2059.611
309.0449, 2067.741
309.5270, 2075.861
310.0091, 2083.218
310.4912, 2088.702
310.9734, 2090.573
311.4555, 2089.195
311.9376, 2088.480
312.4197, 2088.527
312.9018, 2089.585
313.3839, 2093.684
313.8661, 2099.009
314.3482, 2100.540
314.8303, 2092.170
315.3124, 2080.311
315.7945, 2077.183
316.2766, 2084.119
316.7588, 2091.982
317.2409, 2095.833
317.7230, 2097.501
318.2051, 2100.181
318.6872, 2105.154
319.1693, 2109.541
319.6515, 2110.590
320.1336, 2108.992
320.6157, 2108.094
321.0978, 2109.538
321.5799, 2111.343
322.0620, 2109.036
322.5442, 2101.250
323.0263, 2097.904
323.5084, 2105.376
323.9905, 2117.326
324.4726, 2125.549
324.9547, 2128.703
325.4369, 2130.009
325.9190, 2132.369
326.4011, 2135.910
326.8832, 2139.302
327.3653, 2144.067
327.8474, 2147.333
328.3296, 2144.812
328.8117, 2139.045
329.2938, 2138.149
329.7759, 2147.614
330.2580, 2164.326
330.7401, 2173.852
331.2223, 2168.511
331.7044, 2165.508
332.1865, 2167.673
332.6686, 2172.546
333.1507, 2178.069
333.6328, 2183.418
334.1150, 2187.906
334.5971, 2190.271
335.0792, 2189.210
335.5613, 2189.542
336.0434, 2189.484
336.5255, 2192.158
337.0077, 2200.051
337.4898, 2212.327
337.9719, 2226.575
338.4540, 2241.968
338.9361, 2257.747
339.4182, 2265.881
339.9004, 2255.418
340.3825, 2253.863
340.8646, 2279.355
341.3467, 2313.706
341.8288, 2331.803
342.3109, 2322.279
342.7931, 2303.219
343.2752, 2302.388
343.7573, 2322.394
344.2394, 2342.247
344.7215, 2356.717
345.2036, 2369.574
345.6858, 2383.540
346.1679, 2398.815
346.6500, 2415.080
347.1321, 2435.824
347.6142, 2457.363
348.0963, 2466.124
348.5785, 2455.517
349.0606, 2448.645
349.5427, 2469.239
350.0248, 2508.934
350.5069, 2543.483
350.9890, 2570.042
351.4712, 2588.988
351.9533, 2598.071
352.4354, 2598.851
352.9175, 2598.850
353.3996, 2600.755
353.8817, 2605.030
354.3639, 2613.533
354.8460, 2627.409
355.3281, 2641.881
355.8102, 2657.273
356.2923, 2672.079
356.7744, 2685.314
357.2566, 2696.573
357.7387, 2703.399
358.2208, 2702.500
358.7029, 2692.180
359.1850, 2683.176
359.6671, 2674.100
360.1493, 2667.480
360.6314, 2666.313
361.1135, 2668.426
361.5956, 2669.719
362.0777, 2667.956
362.5598, 2662.942
363.0420, 2653.732
363.5241, 2637.677
364.0062, 2621.439
364.4883, 2604.661
364.9704, 2588.767
365.4525, 2574.873
365.9347, 2563.280
366.4168, 2553.482
366.8989, 2544.328
367.3810, 2535.513
367.8631, 2531.989
368.3452, 2540.346
368.8274, 2546.274
369.3095, 2541.039
369.7916, 2528.000
370.2737, 2515.400
370.7558, 2507.307
371.2379, 2501.664
371.7201, 2494.585
372.2022, 2485.711
372.6843, 2479.186
373.1664, 2478.851
373.6485, 2480.649
374.1306, 2477.723
374.6128, 2468.082
375.0949, 2460.178
375.5770, 2460.091
376.0591, 2464.592
376.5412, 2466.830
377.0233, 2465.125
377.5055, 2463.664
377.9876, 2468.688
378.4697, 2481.205
378.9518, 2482.660
379.4339, 2458.634
379.9160, 2436.250
380.3982, 2436.807
380.8803, 2453.020
381.3624, 2461.803
381.8445, 2449.715
382.3266, 2425.049
382.8087, 2412.925
383.2909, 2430.568
383.7730, 2438.576
384.2551, 2430.226
384.7372, 2415.903
385.2193, 2403.655
385.7014, 2394.925
386.1836, 2386.560
386.6657, 2375.089
387.1478, 2360.365
387.6299, 2346.177
388.1120, 2331.135
388.5941, 2318.332
389.0763, 2310.417
389.5584, 2304.934
390.0405, 2297.492
390.5226, 2285.211
391.0047, 2272.916
391.4868, 2270.229
391.9690, 2278.669
392.4511, 2282.203
392.9332, 2274.627
393.4153, 2262.043
393.8974, 2250.291
394.3795, 2239.428
394.8617, 2228.053
395.3438, 2213.100
395.8259, 2198.010
396.3080, 2189.282
396.7901, 2187.763
397.2722, 2187.968
397.7544, 2186.663
398.2365, 2183.897
398.7186, 2180.442
399.2007, 2176.249
399.6828, 2171.492
400.1649, 2163.894
400.6471, 2156.325
401.1292, 2155.541
401.6113, 2163.816
402.0934, 2172.959
402.5755, 2170.385
403.0576, 2150.948
403.5398, 2135.077
404.0219, 2119.785
404.5040, 2110.079
404.9861, 2112.969
405.4682, 2123.686
405.9503, 2130.235
406.4325, 2124.176
406.9146, 2110.290
407.3967, 2106.659
407.8788, 2120.738
408.3609, 2129.726
408.8430, 2125.091
409.3252, 2116.838
409.8073, 2112.364
410.2894, 2112.883
410.7715, 2115.530
411.2536, 2119.041
411.7357, 2122.927
412.2179, 2124.477
412.7000, 2123.198
413.1821, 2120.319
413.6642, 2114.322
414.1463, 2107.469
414.6284, 2104.956
415.1106, 2110.723
415.5927, 2117.416
416.0748, 2119.962
416.5569, 2119.086
417.0390, 2116.796
417.5211, 2113.619
418.0033, 2109.769
418.4854, 2104.998
418.9675, 2097.854
419.4496, 2095.343
419.9317, 2102.572
420.4138, 2110.547
420.8960, 2111.588
421.3781, 2107.634
421.8602, 2107.039
422.3423, 2115.937
422.8244, 2130.785
423.3065, 2135.569
423.7887, 2117.823
424.2708, 2109.645
424.7529, 2124.828
425.2350, 2142.983
425.7171, 2145.409
426.1992, 2130.685
426.6814, 2113.635
427.1635, 2108.926
427.6456, 2115.415
428.1277, 2119.896
428.6098, 2121.840
429.0919, 2122.742
429.5741, 2122.417
430.0562, 2121.833
430.5383, 2122.426
431.0204, 2124.463
431.5025, 2127.884
431.9846, 2134.263
432.4668, 2142.262
432.9489, 2147.128
433.4310, 2147.614
433.9131, 2144.525
434.3952, 2135.814
434.8773, 2120.046
435.3595, 2117.538
435.8416, 2142.163
436.3237, 2168.884
436.8058, 2181.598
437.2879, 2183.724
437.7701, 2186.495
438.2522, 2195.751
438.7343, 2208.453
439.2164, 2217.022
439.6985, 2221.307
440.1806, 2221.245
440.6628, 2209.649
441.1449, 2200.157
441.6270, 2203.314
442.1091, 2217.467
442.5912, 2233.233
443.0733, 2244.649
443.5555, 2251.712
444.0376, 2253.448
444.5197, 2247.640
445.0018, 2242.694
445.4839, 2240.989
445.9660, 2242.226
446.4482, 2247.964
446.9303, 2259.324
447.4124, 2267.583
447.8945, 2266.986
448.3766, 2259.566
448.8587, 2247.006
449.3409, 2228.803
449.8230, 2215.105
450.3051, 2215.452
450.7872, 2228.297
451.2693, 2235.928
451.7514, 2240.407
452.2336, 2237.812
452.7157, 2219.781
453.1978, 2196.419
453.6799, 2183.118
454.1620, 2183.853
454.6441, 2188.993
455.1263, 2185.469
455.6084, 2170.730
456.0905, 2161.824
456.5726, 2165.537
457.0547, 2168.412
457.5368, 2168.414
458.0190, 2164.396
458.5011, 2154.479
458.9832, 2137.346
459.4653, 2116.498
459.9474, 2093.365
460.4295, 2067.826
460.9117, 2055.225
461.3938, 2064.902
461.8759, 2079.797
462.3580, 2085.350
462.8401, 2082.873
463.3222, 2078.452
463.8044, 2074.320
464.2865, 2068.461
464.7686, 2057.931
465.2507, 2043.828
465.7328, 2029.516
466.2149, 2015.729
466.6971, 2005.153
467.1792, 2003.688
467.6613, 2017.991
468.1434, 2027.645
468.6255, 2034.481
469.1076, 2035.253
469.5898, 2025.204
470.0719, 2007.059
470.5540, 1986.377
471.0361, 1964.910
471.5182, 1947.750
472.0003, 1953.730
472.4825, 1996.283
472.9646, 2025.158
473.4467, 2018.653
473.9288, 2002.536
474.4109, 1991.495
474.8930, 1986.451
475.3752, 1982.434
475.8573, 1976.377
476.3394, 1969.638
476.8215, 1963.945
477.3036, 1959.351
477.7857, 1958.108
478.2679, 1963.862
478.7500, 1971.618
479.2321, 1967.363
479.7142, 1943.452
480.1963, 1928.413
480.6784, 1935.040
481.1606, 1947.896
481.6427, 1953.667
482.1248, 1951.348
482.6069, 1945.867
483.0890, 1940.508
483.5711, 1935.507
484.0533, 1932.065
484.5354, 1930.411
485.0175, 1930.077
485.4996, 1932.895
485.9817, 1935.505
486.4638, 1934.417
486.9460, 1929.716
487.4281, 1925.378
487.9102, 1925.970
488.3923, 1929.248
488.8744, 1926.965
489.3565, 1917.596
489.8387, 1911.372
490.3208, 1915.140
490.8029, 1924.576
491.2850, 1930.305
491.7671, 1931.265
492.2492, 1931.712
492.7314, 1930.953
493.2135, 1931.590
493.6956, 1939.533
494.1777, 1953.620
494.6598, 1963.375
495.1419, 1960.179
495.6241, 1946.202
496.1062, 1935.276
496.5883, 1926.953
497.0704, 1922.805
497.5525, 1928.531
498.0346, 1934.454
498.5168, 1931.022
498.9989, 1918.255
499.4810, 1905.079
499.9631, 1898.503
500.4452, 1897.401
500.9273, 1898.149
501.4095, 1901.235
501.8916, 1904.242
502.3737, 1907.312
502.8558, 1908.887
503.3379, 1906.146
503.8200, 1897.742
504.3022, 1890.565
504.7843, 1886.249
505.2664, 1885.070
505.7485, 1889.402
506.2306, 1898.280
506.7127, 1904.775
507.1949, 1903.436
507.6770, 1897.235
508.1591, 1899.532
508.6412, 1924.093
509.1233, 1936.749
509.6054, 1926.833
510.0876, 1911.823
510.5697, 1904.466
511.0518, 1904.897
511.5339, 1905.242
512.0161, 1897.688
512.4982, 1887.367
512.9803, 1890.819
513.4624, 1910.944
513.9445, 1927.365
514.4266, 1934.135
514.9088, 1932.458
515.3909, 1921.199
515.8730, 1898.892
516.3551, 1885.498
516.8372, 1893.150
517.3193, 1907.778
517.8015, 1919.388
518.2836, 1926.458
518.7657, 1925.936
519.2478, 1915.147
519.7299, 1900.520
520.2120, 1897.980
520.6942, 1916.727
521.1763, 1930.140
521.6584, 1940.932
522.1405, 1944.613
522.6226, 1931.843
523.1047, 1909.993
523.5869, 1897.366
524.0690, 1905.259
524.5511, 1923.172
525.0332, 1935.643
525.5153, 1942.678
525.9974, 1944.560
526.4796, 1938.602
526.9617, 1931.985
527.4438, 1934.104
527.9259, 1943.692
528.4080, 1949.521
528.8901, 1945.861
529.3723, 1942.157
529.8544, 1944.776
530.3365, 1951.241
530.8186, 1956.322
531.3007, 1958.281
531.7828, 1959.498
532.2650, 1963.813
532.7471, 1972.467
533.2292, 1976.502
533.7113, 1971.661
534.1934, 1966.931
534.6755, 1963.752
535.1577, 1962.790
535.6398, 1964.979
536.1219, 1970.716
536.6040, 1978.477
537.0861, 1988.482
537.5682, 1999.417
538.0504, 2004.957
538.5325, 2003.092
539.0146, 2006.137
539.4967, 2026.885
539.9788, 2059.453
540.4609, 2074.325
540.9431, 2059.883
541.4252, 2046.010
541.9073, 2035.361
542.3894, 2030.116
542.8715, 2035.129
543.3536, 2048.824
543.8358, 2062.844
544.3179, 2071.018
544.8000, 2073.699
545.2821, 2071.311
545.7642, 2060.785
546.2463, 2053.622
546.7285, 2054.907
547.2106, 2059.145
547.6927, 2063.901
548.1748, 2068.541
548.6569, 2069.120
549.1390, 2060.181
549.6211, 2048.930
550.1032, 2043.489
550.5853, 2042.928
551.0674, 2042.435
551.5496, 2039.930
552.0317, 2037.501
552.5138, 2039.190
552.9959, 2048.379
553.4780, 2049.999
553.9601, 2039.310
554.4423, 2027.279
554.9244, 2020.944
555.4065, 2015.358
555.8886, 1999.591
556.3707, 1969.146
556.8528, 1939.990
557.3350, 1935.096
557.8171, 1951.016
558.2992, 1957.832
558.7813, 1949.128
559.2634, 1943.455
559.7455, 1958.104
560.2277, 1984.471
560.7098, 1995.013
561.1919, 1983.558
561.6740, 1966.834
562.1561, 1943.038
562.6382, 1920.822
563.1204, 1910.846
563.6025, 1912.729
564.0846, 1917.813
564.5667, 1920.160
565.0488, 1920.140
565.5309, 1919.119
566.0131, 1916.695
566.4952, 1914.295
566.9773, 1912.588
567.4594, 1910.601
567.9415, 1907.303
568.4236, 1903.037
568.9058, 1899.467
569.3879, 1898.325
569.8700, 1897.235
570.3521, 1891.394
570.8342, 1883.259
571.3163, 1882.727
571.7985, 1893.446
572.2806, 1906.184
572.7627, 1909.372
573.2448, 1901.648
573.7269, 1897.335
574.2090, 1902.584
574.6912, 1903.672
575.1733, 1892.512
575.6554, 1877.859
576.1375, 1868.897
576.6196, 1867.819
577.1017, 1871.863
577.5839, 1882.015
578.0660, 1895.243
578.5481, 1900.554
579.0302, 1897.100
579.5123, 1891.293
579.9944, 1883.555
580.4766, 1877.338
580.9587, 1880.783
581.4408, 1896.184
581.9229, 1909.479
582.4050, 1920.314
582.8871, 1926.978
583.3693, 1924.096
583.8514, 1916.630
584.3335, 1917.211
584.8156, 1931.743
585.2977, 1947.810
585.7798, 1942.168
586.2620, 1912.015
586.7441, 1893.634
587.2262, 1892.534
587.7083, 1896.942
588.1904, 1903.430
588.6725, 1910.110
589.1547, 1912.837
589.6368, 1908.109
590.1189, 1907.333
590.6010, 1923.342
591.0831, 1942.425
591.5652, 1943.238
592.0474, 1927.204
592.5295, 1914.833
593.0116, 1920.412
593.4937, 1937.263
593.9758, 1944.726
594.4579, 1939.557
594.9401, 1932.630
595.4222, 1921.342
595.9043, 1911.680
596.3864, 1907.543
596.8685, 1907.466
597.3506, 1908.029
597.8328, 1909.776
598.3149, 1908.244
598.7970, 1893.667
599.2791, 1873.125
599.7612, 1866.552
600.2433, 1877.802
600.7255, 1894.061
601.2076, 1905.318
601.6897, 1911.850
602.1718, 1915.859
602.6539, 1914.161
603.1360, 1914.266
603.6182, 1923.134
604.1003, 1928.953
604.5824, 1919.328
605.0645, 1897.390
605.5466, 1878.396
606.0287, 1871.477
606.5109, 1871.587
606.9930, 1873.335
607.4751, 1876.073
607.9572, 1872.468
608.4393, 1858.116
608.9214, 1847.662
609.4036, 1859.367
609.8857, 1893.335
610.3678, 1909.039
610.8499, 1895.180
611.3320, 1879.242
611.8141, 1865.630
612.2963, 1854.133
612.7784, 1843.817
613.2605, 1834.972
613.7426, 1829.748
614.2247, 1830.838
614.7068, 1835.817
615.1890, 1838.904
615.6711, 1840.047
616.1532, 1841.045
616.6353, 1844.075
617.1174, 1844.006
617.5995, 1831.261
618.0817, 1805.500
618.5638, 1793.321
619.0459, 1808.981
619.5280, 1823.077
620.0101, 1821.062
620.4922, 1812.703
620.9744, 1812.840
621.4565, 1822.799
621.9386, 1829.084
622.4207, 1816.838
622.9028, 1792.370
623.3849, 1781.551
623.8671, 1786.520
624.3492, 1792.951
624.8313, 1797.770
625.3134, 1800.863
625.7955, 1802.932
626.2776, 1804.012
626.7598, 1799.599
627.2419, 1779.413
627.7240, 1764.036
628.2061, 1768.917
628.6882, 1783.221
629.1703, 1790.644
629.6525, 1787.682
630.1346, 1782.334
630.6167, 1783.042
631.0988, 1787.982
631.5809, 1786.176
632.0630, 1775.701
632.5452, 1765.680
633.0273, 1756.722
633.5094, 1751.482
633.9915, 1754.452
634.4736, 1765.112
634.9557, 1773.643
635.4379, 1775.201
635.9200, 1777.159
636.4021, 1788.364
636.8842, 1800.937
637.3663, 1798.615
637.8484, 1779.656
638.3306, 1762.827
638.8127, 1768.937
639.2948, 1793.099
639.7769, 1803.381
640.2590, 1794.251
640.7411, 1791.437
641.2233, 1807.815
641.7054, 1828.134
642.1875, 1835.731
642.6696, 1831.701
643.1517, 1829.175
643.6339, 1824.672
644.1160, 1828.934
644.5981, 1854.506
645.0802, 1890.042
645.5623, 1919.509
646.0444, 1938.957
646.5266, 1951.993
647.0087, 1961.439
647.4908, 1967.483
647.9729, 1969.989
648.4550, 1967.356
648.9371, 1967.818
649.4193, 1975.923
649.9014, 1985.175
650.3835, 1987.584
650.8656, 1984.588
651.3477, 1986.848
651.8298, 2004.414
652.3120, 2018.226
652.7941, 2017.327
653.2762, 2008.378
653.7583, 2000.844
654.2404, 1995.769
654.7225, 1987.208
655.2047, 1969.907
655.6868, 1946.092
656.1689, 1922.066
656.6510, 1896.906
657.1331, 1877.828
657.6152, 1869.709
658.0974, 1863.377
658.5795, 1850.918
659.0616, 1833.277
659.5437, 1814.414
660.0258, 1792.528
660.5079, 1772.077
660.9901, 1752.655
661.4722, 1736.649
661.9543, 1728.065
662.4364, 1725.819
662.9185, 1724.420
663.4006, 1720.557
663.8828, 1714.336
664.3649, 1704.793
664.8470, 1691.729
665.3291, 1682.068
665.8112, 1677.490
666.2933, 1674.906
666.7755, 1672.210
667.2576, 1669.667
667.7397, 1668.241
668.2218, 1667.787
668.7039, 1668.663
669.1860, 1676.848
669.6682, 1681.549
670.1503, 1669.857
670.6324, 1647.218
671.1145, 1629.262
671.5966, 1623.526
672.0787, 1626.490
672.5609, 1636.615
673.0430, 1652.282
673.5251, 1661.046
674.0072, 1660.901
674.4893, 1659.010
674.9714, 1659.947
675.4536, 1661.759
675.9357, 1659.085
676.4178, 1648.668
676.8999, 1640.858
677.3820, 1637.312
677.8641, 1634.995
678.3463, 1631.522
678.8284, 1628.476
679.3105, 1629.323
679.7926, 1635.153
680.2747, 1641.386
680.7568, 1645.329
681.2390, 1646.061
681.7211, 1638.852
682.2032, 1624.193
682.6853, 1613.497
683.1674, 1612.029
683.6495, 1615.847
684.1317, 1619.452
684.6138, 1623.548
685.0959, 1623.609
685.5780, 1616.942
686.0601, 1609.396
