##NAMES=Ettringite
##RRUFFID=R070208
##IDEAL CHEMISTRY=Ca_6_Al_2_(S^6+^O_4_)_3_(OH)_12_&#183;27H_2_O
##LOCALITY=Hatrurim Formation, Negev Desert, West of Dead Sea, southern Israel
##OWNER=RRUFF
##SOURCE=Michael Scott
##DESCRIPTION=Canary yellow to colorless prismatic and tabular hexagonal crystals associated with colorless afwillite, R070296.
##STATUS=The identification of this mineral has been confirmed only by single crystal X-ray diffraction.
##URL=rruff.info/R070208
170.3929, 5439.115
170.8750, 5443.559
171.3571, 5462.613
171.8392, 5488.856
172.3213, 5515.786
172.8034, 5543.561
173.2856, 5567.909
173.7677, 5584.368
174.2498, 5593.884
174.7319, 5599.483
175.2140, 5600.504
175.6961, 5599.375
176.1783, 5597.888
176.6604, 5592.254
177.1425, 5593.777
177.6246, 5625.753
178.1067, 5683.022
178.5888, 5734.210
179.0710, 5747.697
179.5531, 5737.785
180.0352, 5736.439
180.5173, 5755.540
180.9994, 5782.366
181.4815, 5793.601
181.9637, 5789.830
182.4458, 5786.265
182.9279, 5795.418
183.4100, 5815.539
183.8921, 5840.554
184.3742, 5871.807
184.8564, 5905.546
185.3385, 5930.415
185.8206, 5945.952
186.3027, 5960.809
186.7848, 5985.902
187.2669, 6019.671
187.7491, 6051.075
188.2312, 6076.093
188.7133, 6095.660
189.1954, 6111.692
189.6775, 6122.848
190.1596, 6136.104
190.6418, 6166.636
191.1239, 6213.592
191.6060, 6248.700
192.0881, 6250.929
192.5702, 6225.739
193.0524, 6224.170
193.5345, 6251.062
194.0166, 6288.897
194.4987, 6307.807
194.9808, 6306.217
195.4629, 6309.545
195.9451, 6335.084
196.4272, 6382.481
196.9093, 6413.725
197.3914, 6423.912
197.8735, 6423.781
198.3556, 6435.576
198.8378, 6461.745
199.3199, 6484.050
199.8020, 6489.581
200.2841, 6476.783
200.7662, 6470.269
201.2483, 6473.001
201.7305, 6481.355
202.2126, 6486.100
202.6947, 6486.191
203.1768, 6486.570
203.6589, 6492.313
204.1410, 6505.263
204.6232, 6509.273
205.1053, 6499.914
205.5874, 6482.009
206.0695, 6474.441
206.5516, 6483.159
207.0337, 6486.591
207.5159, 6466.177
207.9980, 6415.922
208.4801, 6371.817
208.9622, 6337.250
209.4443, 6312.217
209.9264, 6299.717
210.4086, 6306.460
210.8907, 6312.231
211.3728, 6300.758
211.8549, 6267.952
212.3370, 6230.790
212.8191, 6188.187
213.3013, 6142.182
213.7834, 6108.440
214.2655, 6092.405
214.7476, 6079.799
215.2297, 6056.905
215.7118, 6017.163
216.1940, 5985.199
216.6761, 5968.384
217.1582, 5965.650
217.6403, 5954.621
218.1224, 5933.782
218.6045, 5906.884
219.0867, 5875.441
219.5688, 5834.319
220.0509, 5801.714
220.5330, 5784.590
221.0151, 5783.162
221.4972, 5776.057
221.9794, 5762.054
222.4615, 5743.690
222.9436, 5722.840
223.4257, 5697.474
223.9078, 5673.643
224.3899, 5653.991
224.8721, 5638.873
225.3542, 5618.918
225.8363, 5588.897
226.3184, 5558.821
226.8005, 5541.615
227.2827, 5546.056
227.7648, 5546.832
228.2469, 5537.099
228.7290, 5515.640
229.2111, 5493.322
229.6932, 5469.367
230.1754, 5445.450
230.6575, 5422.842
231.1396, 5399.250
231.6217, 5381.569
232.1038, 5374.001
232.5859, 5379.990
233.0681, 5377.089
233.5502, 5361.372
234.0323, 5339.651
234.5144, 5321.686
234.9965, 5310.228
235.4786, 5297.996
235.9608, 5281.489
236.4429, 5258.464
236.9250, 5243.631
237.4071, 5244.700
237.8892, 5249.257
238.3713, 5235.692
238.8535, 5190.384
239.3356, 5149.778
239.8177, 5126.610
240.2998, 5125.932
240.7819, 5123.341
241.2640, 5118.426
241.7462, 5111.797
242.2283, 5104.512
242.7104, 5096.937
243.1925, 5088.047
243.6746, 5076.603
244.1567, 5060.282
244.6389, 5049.616
245.1210, 5047.173
245.6031, 5048.850
246.0852, 5047.909
246.5673, 5045.183
247.0494, 5038.332
247.5316, 5025.001
248.0137, 5001.216
248.4958, 4984.958
248.9779, 4980.351
249.4600, 4981.042
249.9421, 4974.111
250.4243, 4952.401
250.9064, 4935.849
251.3885, 4933.628
251.8706, 4952.246
252.3527, 4963.503
252.8348, 4966.083
253.3170, 4962.164
253.7991, 4955.340
254.2812, 4944.748
254.7633, 4933.000
255.2454, 4919.737
255.7275, 4902.544
256.2097, 4893.669
256.6918, 4895.627
257.1739, 4904.267
257.6560, 4912.827
258.1381, 4922.955
258.6202, 4929.521
259.1024, 4928.234
259.5845, 4914.397
260.0666, 4913.625
260.5487, 4932.538
261.0308, 4959.493
261.5129, 4972.502
261.9951, 4965.592
262.4772, 4958.773
262.9593, 4961.444
263.4414, 4977.355
263.9235, 4983.986
264.4056, 4977.411
264.8878, 4965.276
265.3699, 4961.147
265.8520, 4967.034
266.3341, 4975.140
266.8162, 4983.495
267.2983, 4992.632
267.7805, 4996.615
268.2626, 4991.160
268.7447, 4985.316
269.2268, 4999.229
269.7089, 5040.966
270.1910, 5073.313
270.6732, 5076.758
271.1553, 5046.713
271.6374, 5033.958
272.1195, 5043.005
272.6016, 5062.731
273.0837, 5075.115
273.5659, 5079.009
274.0480, 5081.746
274.5301, 5085.276
275.0122, 5089.507
275.4943, 5098.390
275.9764, 5114.028
276.4586, 5130.360
276.9407, 5138.347
277.4228, 5137.445
277.9049, 5132.166
278.3870, 5119.270
278.8691, 5099.774
279.3513, 5100.684
279.8334, 5127.120
280.3155, 5160.792
280.7976, 5176.572
281.2798, 5173.692
281.7619, 5167.782
282.2440, 5162.506
282.7261, 5158.429
283.2082, 5161.621
283.6903, 5173.772
284.1725, 5186.961
284.6546, 5187.680
285.1367, 5176.663
285.6188, 5173.893
286.1009, 5192.822
286.5830, 5226.338
287.0652, 5241.286
287.5473, 5235.248
288.0294, 5224.303
288.5115, 5226.776
288.9936, 5241.179
289.4757, 5254.898
289.9579, 5262.668
290.4400, 5267.034
290.9221, 5275.332
291.4042, 5287.725
291.8863, 5302.048
292.3684, 5321.741
292.8506, 5343.311
293.3327, 5350.949
293.8148, 5329.274
294.2969, 5296.650
294.7790, 5292.042
295.2611, 5315.531
295.7433, 5343.683
296.2254, 5356.716
296.7075, 5358.493
297.1896, 5359.068
297.6717, 5358.979
298.1538, 5361.300
298.6360, 5374.265
299.1181, 5396.872
299.6002, 5415.868
300.0823, 5420.319
300.5644, 5414.198
301.0465, 5404.172
301.5287, 5387.992
302.0108, 5373.641
302.4929, 5369.147
302.9750, 5374.248
303.4571, 5387.677
303.9392, 5420.953
304.4214, 5458.380
304.9035, 5477.190
305.3856, 5461.865
305.8677, 5442.173
306.3498, 5446.403
306.8319, 5468.938
307.3141, 5490.126
307.7962, 5498.589
308.2783, 5499.764
308.7604, 5498.313
309.2425, 5493.707
309.7246, 5489.843
310.2068, 5488.983
310.6889, 5490.785
311.1710, 5494.312
311.6531, 5498.518
312.1352, 5504.640
312.6173, 5515.542
313.0995, 5535.452
313.5816, 5548.681
314.0637, 5535.653
314.5458, 5511.581
315.0279, 5504.944
315.5100, 5546.706
315.9922, 5593.665
316.4743, 5620.468
316.9564, 5618.492
317.4385, 5620.036
317.9206, 5645.621
318.4027, 5678.862
318.8849, 5696.860
319.3670, 5670.981
319.8491, 5648.595
320.3312, 5650.636
320.8133, 5683.441
321.2954, 5711.349
321.7776, 5726.118
322.2597, 5733.318
322.7418, 5738.885
323.2239, 5736.463
323.7060, 5739.676
324.1881, 5754.017
324.6703, 5780.713
325.1524, 5804.594
325.6345, 5825.646
326.1166, 5842.684
326.5987, 5854.759
327.0808, 5846.607
327.5630, 5851.606
328.0451, 5880.585
328.5272, 5931.935
329.0093, 5970.640
329.4914, 5990.022
329.9735, 6002.018
330.4557, 6013.331
330.9378, 6019.629
331.4199, 6032.788
331.9020, 6053.613
332.3841, 6082.019
332.8662, 6119.929
333.3484, 6177.004
333.8305, 6228.368
334.3126, 6257.716
334.7947, 6253.930
335.2768, 6261.028
335.7589, 6280.466
336.2411, 6312.355
336.7232, 6362.104
337.2053, 6437.231
337.6874, 6507.197
338.1695, 6552.487
338.6516, 6567.670
339.1338, 6605.263
339.6159, 6672.671
340.0980, 6751.809
340.5801, 6808.044
341.0622, 6839.294
341.5443, 6873.020
342.0265, 6919.785
342.5086, 6978.847
342.9907, 7050.127
343.4728, 7135.110
343.9549, 7224.147
344.4370, 7305.305
344.9192, 7378.624
345.4013, 7448.125
345.8834, 7511.693
346.3655, 7572.467
346.8476, 7633.301
347.3297, 7693.593
347.8119, 7762.759
348.2940, 7859.077
348.7761, 7972.464
349.2582, 8069.166
349.7403, 8132.561
350.2225, 8184.722
350.7046, 8263.861
351.1867, 8366.337
351.6688, 8458.502
352.1509, 8505.342
352.6331, 8529.395
353.1152, 8566.118
353.5973, 8630.166
354.0794, 8695.917
354.5615, 8735.403
355.0436, 8756.680
355.5258, 8784.267
356.0079, 8847.638
356.4900, 8914.343
356.9721, 8955.103
357.4542, 8961.526
357.9363, 8955.244
358.4185, 8943.926
358.9006, 8928.571
359.3827, 8910.915
359.8648, 8891.459
360.3469, 8870.010
360.8290, 8847.143
361.3112, 8823.212
361.7933, 8794.766
362.2754, 8759.992
362.7575, 8720.222
363.2396, 8676.714
363.7217, 8634.337
364.2039, 8584.244
364.6860, 8515.610
365.1681, 8427.921
365.6502, 8361.352
366.1323, 8338.331
366.6144, 8326.437
367.0966, 8303.260
367.5787, 8257.069
368.0608, 8213.381
368.5429, 8175.173
369.0250, 8140.996
369.5071, 8104.591
369.9893, 8066.952
370.4714, 8026.151
370.9535, 7978.646
371.4356, 7912.352
371.9177, 7869.710
372.3998, 7862.174
372.8820, 7872.964
373.3641, 7864.379
373.8462, 7830.909
374.3283, 7792.314
374.8104, 7752.819
375.2925, 7710.559
375.7747, 7688.507
376.2568, 7692.070
376.7389, 7704.738
377.2210, 7706.404
377.7031, 7696.959
378.1852, 7677.769
378.6674, 7645.948
379.1495, 7604.900
379.6316, 7566.245
380.1137, 7529.997
380.5958, 7498.953
381.0779, 7480.196
381.5601, 7470.574
382.0422, 7456.173
382.5243, 7433.640
383.0064, 7404.653
383.4885, 7372.002
383.9706, 7335.276
384.4528, 7293.779
384.9349, 7236.511
385.4170, 7176.487
385.8991, 7136.646
386.3812, 7124.552
386.8633, 7118.055
387.3455, 7097.636
387.8276, 7067.074
388.3097, 7034.565
388.7918, 7005.422
389.2739, 6975.538
389.7560, 6938.130
390.2382, 6891.359
390.7203, 6853.188
391.2024, 6846.753
391.6845, 6849.793
392.1666, 6836.500
392.6487, 6777.275
393.1309, 6719.869
393.6130, 6683.979
394.0951, 6668.386
394.5772, 6657.214
395.0593, 6653.797
395.5414, 6648.840
396.0236, 6636.524
396.5057, 6604.523
396.9878, 6578.738
397.4699, 6559.730
397.9520, 6548.544
398.4341, 6549.171
398.9163, 6586.006
399.3984, 6609.158
399.8805, 6595.093
400.3626, 6521.074
400.8447, 6478.605
401.3268, 6480.729
401.8090, 6504.844
402.2911, 6520.532
402.7732, 6526.990
403.2553, 6526.212
403.7374, 6515.132
404.2195, 6494.888
404.7017, 6488.524
405.1838, 6500.356
405.6659, 6514.418
406.1480, 6512.775
406.6301, 6495.044
407.1122, 6487.774
407.5944, 6498.806
408.0765, 6519.882
408.5586, 6530.879
409.0407, 6532.023
409.5228, 6531.908
410.0049, 6538.672
410.4871, 6548.606
410.9692, 6549.351
411.4513, 6537.566
411.9334, 6525.048
412.4155, 6530.716
412.8976, 6547.441
413.3798, 6554.613
413.8619, 6524.305
414.3440, 6490.556
414.8261, 6496.195
415.3082, 6541.888
415.7903, 6583.730
416.2725, 6585.204
416.7546, 6570.101
417.2367, 6565.339
417.7188, 6584.523
418.2009, 6610.137
418.6830, 6640.136
419.1652, 6671.679
419.6473, 6693.155
420.1294, 6691.466
420.6115, 6685.738
421.0937, 6686.638
421.5758, 6699.049
422.0579, 6710.543
422.5400, 6720.020
423.0221, 6727.548
423.5042, 6733.129
423.9864, 6720.296
424.4685, 6724.332
424.9506, 6764.235
425.4327, 6845.051
425.9148, 6887.218
426.3969, 6870.388
426.8791, 6838.133
427.3612, 6828.839
427.8433, 6850.440
428.3254, 6869.278
428.8075, 6877.384
429.2896, 6880.913
429.7718, 6902.551
430.2539, 6945.059
430.7360, 6990.860
431.2181, 7032.604
431.7002, 7069.838
432.1823, 7093.018
432.6645, 7098.600
433.1466, 7100.418
433.6287, 7119.999
434.1108, 7153.696
434.5929, 7183.485
435.0750, 7198.629
435.5572, 7206.396
436.0393, 7217.493
436.5214, 7232.026
437.0035, 7252.267
437.4856, 7278.315
437.9677, 7311.454
438.4499, 7356.086
438.9320, 7425.041
439.4141, 7485.756
439.8962, 7507.122
440.3783, 7501.254
440.8604, 7500.015
441.3426, 7512.947
441.8247, 7537.867
442.3068, 7578.123
442.7889, 7639.094
443.2710, 7690.912
443.7531, 7722.824
444.2353, 7742.500
444.7174, 7758.961
445.1995, 7771.313
445.6816, 7782.574
446.1637, 7795.028
446.6458, 7807.923
447.1280, 7813.323
447.6101, 7804.967
448.0922, 7796.005
448.5743, 7795.964
449.0564, 7815.138
449.5385, 7813.408
450.0207, 7780.471
450.5028, 7734.736
450.9849, 7713.904
451.4670, 7723.537
451.9491, 7730.943
452.4312, 7724.521
452.9134, 7705.143
453.3955, 7678.608
453.8776, 7644.588
454.3597, 7606.600
454.8418, 7565.163
455.3239, 7521.950
455.8061, 7486.028
456.2882, 7460.461
456.7703, 7440.748
457.2524, 7421.432
457.7345, 7402.617
458.2166, 7384.261
458.6988, 7368.113
459.1809, 7351.693
459.6630, 7334.680
460.1451, 7317.976
460.6272, 7292.193
461.1093, 7240.067
461.5915, 7178.997
462.0736, 7131.683
462.5557, 7121.045
463.0378, 7110.229
463.5199, 7080.165
464.0020, 7034.727
464.4842, 7003.059
464.9663, 6998.535
465.4484, 7004.283
465.9305, 7012.976
466.4126, 7038.353
466.8947, 7041.268
467.3769, 7007.439
467.8590, 6957.498
468.3411, 6924.683
468.8232, 6914.829
469.3053, 6911.375
469.7874, 6912.066
470.2696, 6916.432
470.7517, 6915.859
471.2338, 6910.163
471.7159, 6900.177
472.1980, 6881.849
472.6801, 6855.640
473.1623, 6845.029
473.6444, 6856.675
474.1265, 6878.463
474.6086, 6895.841
475.0907, 6907.407
475.5728, 6904.116
476.0550, 6860.306
476.5371, 6805.746
477.0192, 6798.328
477.5013, 6840.517
477.9834, 6879.853
478.4655, 6867.431
478.9477, 6830.423
479.4298, 6804.652
479.9119, 6806.129
480.3940, 6814.122
480.8761, 6820.949
481.3582, 6826.221
481.8404, 6828.701
482.3225, 6825.374
482.8046, 6821.308
483.2867, 6817.301
483.7688, 6810.864
484.2509, 6813.443
484.7331, 6839.619
485.2152, 6868.161
485.6973, 6879.150
486.1794, 6862.578
486.6615, 6844.853
487.1436, 6826.043
487.6258, 6808.627
488.1079, 6807.077
488.5900, 6827.459
489.0721, 6846.973
489.5542, 6851.518
490.0363, 6840.988
490.5185, 6832.884
491.0006, 6827.355
491.4827, 6825.466
491.9648, 6830.671
492.4470, 6841.666
492.9291, 6850.981
493.4112, 6853.401
493.8933, 6854.896
494.3754, 6867.646
494.8575, 6889.660
495.3397, 6907.651
495.8218, 6907.600
496.3039, 6901.729
496.7860, 6904.442
497.2681, 6920.323
497.7502, 6935.205
498.2324, 6941.973
498.7145, 6943.168
499.1966, 6942.365
499.6787, 6940.595
500.1608, 6936.948
500.6429, 6926.836
501.1251, 6911.406
501.6072, 6908.211
502.0893, 6924.415
502.5714, 6947.772
503.0535, 6975.144
503.5356, 7017.417
504.0178, 7036.009
504.4999, 7021.370
504.9820, 6991.502
505.4641, 6972.229
505.9462, 6964.330
506.4283, 6963.094
506.9105, 6967.312
507.3926, 6977.212
507.8747, 6997.959
508.3568, 7030.506
508.8389, 7057.295
509.3210, 7057.229
509.8032, 7041.684
510.2853, 7045.961
510.7674, 7078.979
511.2495, 7112.464
511.7316, 7112.893
512.2137, 7092.574
512.6959, 7076.612
513.1780, 7076.705
513.6601, 7083.520
514.1422, 7091.760
514.6243, 7101.525
515.1064, 7114.064
515.5886, 7130.035
516.0707, 7148.886
516.5528, 7171.720
517.0349, 7207.214
517.5170, 7229.221
517.9991, 7226.383
518.4813, 7212.023
518.9634, 7202.460
519.4455, 7199.967
519.9276, 7198.143
520.4097, 7194.074
520.8918, 7189.243
521.3740, 7194.468
521.8561, 7212.238
522.3382, 7231.817
522.8203, 7242.760
523.3024, 7246.208
523.7845, 7267.507
524.2667, 7312.399
524.7488, 7359.069
525.2309, 7380.174
525.7130, 7381.124
526.1951, 7380.375
526.6772, 7384.956
527.1594, 7390.461
527.6415, 7389.077
528.1236, 7383.052
528.6057, 7382.303
529.0878, 7393.643
529.5699, 7411.713
530.0521, 7433.905
530.5342, 7461.648
531.0163, 7486.212
531.4984, 7500.503
531.9805, 7512.281
532.4626, 7529.857
532.9448, 7553.398
533.4269, 7584.497
533.9090, 7631.961
534.3911, 7688.057
534.8732, 7718.217
535.3553, 7707.323
535.8375, 7699.455
536.3196, 7715.973
536.8017, 7758.563
537.2838, 7794.424
537.7659, 7823.822
538.2480, 7846.681
538.7302, 7860.565
539.2123, 7866.864
539.6944, 7874.417
540.1765, 7885.562
540.6586, 7898.022
541.1407, 7907.020
541.6229, 7914.333
542.1050, 7926.415
542.5871, 7949.663
543.0692, 7977.327
543.5513, 8006.074
544.0334, 8035.346
544.5156, 8057.007
544.9977, 8059.416
545.4798, 8057.132
545.9619, 8061.866
546.4440, 8083.124
546.9261, 8100.594
547.4083, 8111.152
547.8904, 8116.251
548.3725, 8118.689
548.8546, 8120.577
549.3367, 8115.941
549.8188, 8099.913
550.3010, 8074.265
550.7831, 8062.906
551.2652, 8071.168
551.7473, 8075.892
552.2294, 8055.465
552.7115, 8013.131
553.1937, 7984.637
553.6758, 7975.558
554.1579, 7968.904
554.6400, 7936.405
555.1221, 7888.373
555.6042, 7855.538
556.0864, 7859.671
556.5685, 7872.245
557.0506, 7865.316
557.5327, 7843.301
558.0148, 7822.629
558.4969, 7808.760
558.9791, 7800.595
559.4612, 7798.741
559.9433, 7804.467
560.4254, 7810.003
560.9075, 7824.349
561.3896, 7831.769
561.8718, 7817.396
562.3539, 7755.180
562.8360, 7715.970
563.3181, 7710.789
563.8002, 7729.232
564.2823, 7749.011
564.7645, 7771.387
565.2466, 7788.474
565.7287, 7794.780
566.2108, 7792.971
566.6929, 7800.326
567.1750, 7817.622
567.6572, 7825.097
568.1393, 7793.029
568.6214, 7741.298
569.1035, 7711.544
569.5856, 7712.460
570.0677, 7725.557
570.5499, 7744.982
571.0320, 7764.494
571.5141, 7774.400
571.9962, 7762.195
572.4783, 7748.637
572.9604, 7740.453
573.4426, 7737.588
573.9247, 7738.889
574.4068, 7748.292
574.8889, 7758.101
575.3710, 7764.178
575.8531, 7764.250
576.3353, 7772.865
576.8174, 7793.906
577.2995, 7817.606
577.7816, 7834.599
578.2637, 7844.162
578.7458, 7853.726
579.2280, 7864.271
579.7101, 7875.438
580.1922, 7886.948
580.6743, 7898.651
581.1564, 7909.707
581.6385, 7920.678
582.1207, 7930.295
582.6028, 7938.962
583.0849, 7945.796
583.5670, 7944.548
584.0491, 7913.674
584.5313, 7884.635
585.0134, 7886.442
585.4955, 7935.780
585.9776, 7975.222
586.4597, 7981.813
586.9418, 7974.388
587.4240, 7974.209
587.9061, 7987.713
588.3882, 7999.410
588.8703, 8005.819
589.3524, 8009.861
589.8345, 8022.111
590.3167, 8046.037
590.7988, 8064.463
591.2809, 8063.766
591.7630, 8050.384
592.2451, 8064.148
592.7272, 8106.344
593.2094, 8144.277
593.6915, 8143.290
594.1736, 8120.200
594.6557, 8106.228
595.1378, 8106.886
595.6199, 8115.918
596.1021, 8134.024
596.5842, 8156.216
597.0663, 8175.456
597.5485, 8187.319
598.0306, 8197.776
598.5127, 8209.660
598.9948, 8221.925
599.4769, 8230.387
599.9590, 8241.649
600.4412, 8240.928
600.9233, 8218.262
601.4054, 8170.994
601.8875, 8143.070
602.3696, 8138.332
602.8517, 8144.093
603.3339, 8150.918
603.8160, 8158.938
604.2981, 8171.142
604.7802, 8189.549
605.2623, 8205.825
605.7444, 8204.418
606.2266, 8191.750
606.7087, 8185.435
607.1908, 8200.055
607.6729, 8214.976
608.1550, 8210.483
608.6371, 8192.142
609.1193, 8177.877
609.6014, 8176.640
610.0835, 8179.750
610.5656, 8182.060
611.0477, 8182.093
611.5298, 8191.735
612.0120, 8228.351
612.4941, 8257.628
612.9762, 8250.489
613.4583, 8188.213
613.9404, 8161.480
614.4225, 8185.435
614.9047, 8225.597
615.3868, 8227.508
615.8689, 8194.677
616.3510, 8174.598
616.8331, 8187.463
617.3152, 8211.849
617.7974, 8214.397
618.2795, 8199.426
618.7616, 8183.982
619.2437, 8171.979
619.7258, 8167.170
620.2079, 8178.700
620.6901, 8206.511
621.1722, 8221.894
621.6543, 8196.858
622.1364, 8168.761
622.6185, 8164.526
623.1006, 8205.964
623.5828, 8224.594
624.0649, 8208.064
624.5470, 8180.055
625.0291, 8169.227
625.5112, 8178.536
625.9933, 8189.771
626.4755, 8200.688
626.9576, 8210.248
627.4397, 8218.769
627.9218, 8225.261
628.4039, 8222.212
628.8860, 8188.819
629.3682, 8152.677
629.8503, 8157.955
630.3324, 8199.750
630.8145, 8240.718
631.2966, 8264.286
631.7787, 8275.209
632.2609, 8272.764
632.7430, 8250.848
633.2251, 8239.701
633.7072, 8258.594
634.1893, 8282.440
634.6714, 8288.357
635.1536, 8257.887
635.6357, 8250.976
636.1178, 8276.032
636.5999, 8322.188
637.0820, 8378.831
637.5641, 8447.022
638.0463, 8488.813
638.5284, 8477.438
639.0105, 8445.149
639.4926, 8457.235
639.9747, 8508.796
640.4568, 8570.365
640.9390, 8637.341
641.4211, 8698.124
641.9032, 8739.920
642.3853, 8761.732
642.8674, 8779.615
643.3495, 8790.199
643.8317, 8805.553
644.3138, 8834.542
644.7959, 8883.225
645.2780, 8937.554
645.7601, 9008.426
646.2422, 9075.231
646.7244, 9105.789
647.2065, 9087.019
647.6886, 9103.650
648.1707, 9184.335
648.6528, 9287.729
649.1349, 9326.154
649.6171, 9307.296
650.0992, 9287.272
650.5813, 9300.052
651.0634, 9321.106
651.5455, 9320.420
652.0276, 9300.546
652.5098, 9275.164
652.9919, 9254.198
653.4740, 9227.964
653.9561, 9189.580
654.4382, 9136.985
654.9203, 9080.789
655.4025, 9025.631
655.8846, 8964.488
656.3667, 8889.703
656.8488, 8788.741
657.3309, 8713.764
657.8130, 8672.764
658.2952, 8645.818
658.7773, 8603.900
659.2594, 8548.337
659.7415, 8500.270
660.2236, 8468.465
660.7057, 8440.993
661.1879, 8394.517
661.6700, 8337.881
662.1521, 8296.414
662.6342, 8300.496
663.1163, 8308.019
663.5984, 8288.561
664.0806, 8245.555
664.5627, 8211.924
665.0448, 8209.871
