##NAMES=Eucairite
##RRUFFID=R060639
##IDEAL CHEMISTRY=CuAgSe
##LOCALITY=Mina Santa Brigida, Sierra de Famatina, La Rioja, Argentina
##OWNER=RRUFF
##SOURCE=Michael Scott
##DESCRIPTION=Black metallic coarsely crystalline massive
##STATUS=The identification of this mineral has been confirmed by X-ray diffraction and chemical analysis
##URL=rruff.info/R060639
##MEASURED CHEMISTRY=Cu_1.00_Ag_1.00_Se_1.00_
111.404, 527.094
111.886, 554.870
112.368, 590.696
112.850, 633.900
113.332, 685.062
113.814, 747.352
114.296, 813.459
114.778, 876.568
115.260, 940.821
115.743, 988.146
116.225, 1013.758
116.707, 1018.815
117.189, 999.113
117.671, 945.288
118.153, 871.627
118.635, 795.034
119.117, 644.406
119.600, 630.972
120.082, 653.678
120.564, 713.494
121.046, 764.301
121.528, 806.581
122.010, 814.798
122.492, 867.001
122.974, 901.584
123.456, 944.886
123.939, 1012.047
124.421, 1131.351
124.903, 1277.718
125.385, 1437.313
125.867, 1611.658
126.349, 1764.964
126.831, 1870.509
127.313, 1978.577
127.796, 2099.876
128.278, 2236.434
128.760, 2391.445
129.242, 2576.168
129.724, 2809.337
130.206, 2973.630
130.688, 3058.373
131.170, 3094.185
131.652, 3095.664
132.135, 3062.543
132.617, 2982.610
133.099, 2836.344
133.581, 2592.215
134.063, 2368.730
134.545, 2154.293
135.027, 1963.490
135.509, 1805.099
135.992, 1680.796
136.474, 1589.226
136.956, 1531.518
137.438, 1527.394
137.920, 1520.566
138.402, 1497.011
138.884, 1478.719
139.366, 1484.275
139.848, 1518.384
140.331, 1572.727
140.813, 1634.066
141.295, 1707.135
141.777, 1780.641
142.259, 1861.182
142.741, 1939.191
143.223, 2003.065
143.705, 2048.877
144.188, 2082.267
144.670, 2113.629
145.152, 2142.266
145.634, 2170.117
146.116, 2197.926
146.598, 2224.978
147.080, 2251.452
147.562, 2278.245
148.044, 2302.094
148.527, 2314.316
149.009, 2313.890
149.491, 2307.659
149.973, 2298.406
150.455, 2284.504
150.937, 2260.335
151.419, 2220.407
151.901, 2174.441
152.383, 2145.788
152.866, 2137.612
153.348, 2135.943
153.830, 2140.345
154.312, 2147.849
154.794, 2149.766
155.276, 2141.062
155.758, 2125.728
156.240, 2112.914
156.723, 2099.338
157.205, 2092.967
157.687, 2100.566
158.169, 2119.813
158.651, 2143.053
159.133, 2173.406
159.615, 2199.922
160.097, 2201.296
160.579, 2165.456
161.062, 2124.454
161.544, 2096.018
162.026, 2079.729
162.508, 2072.650
162.990, 2079.718
163.472, 2092.031
163.954, 2091.439
164.436, 2069.436
164.919, 2046.065
165.401, 2039.617
165.883, 2049.250
166.365, 2055.779
166.847, 2047.876
167.329, 2032.325
167.811, 2021.062
168.293, 2017.526
168.775, 2015.031
169.258, 2006.478
169.740, 1991.674
170.222, 1978.862
170.704, 1976.837
171.186, 1976.826
171.668, 1965.757
172.150, 1937.295
172.632, 1904.068
173.115, 1878.914
173.597, 1862.373
174.079, 1847.899
174.561, 1834.102
175.043, 1820.003
175.525, 1804.118
176.007, 1785.036
176.489, 1765.747
176.971, 1748.860
177.454, 1734.194
177.936, 1723.257
178.418, 1722.987
178.900, 1724.578
179.382, 1717.559
179.864, 1696.694
180.346, 1670.969
180.828, 1651.102
181.311, 1637.634
181.793, 1627.041
182.275, 1621.484
182.757, 1616.738
183.239, 1608.044
183.721, 1592.652
184.203, 1575.637
184.685, 1564.626
185.167, 1561.267
185.650, 1555.979
186.132, 1541.210
186.614, 1523.807
187.096, 1510.181
187.578, 1502.585
188.060, 1498.235
188.542, 1492.194
189.024, 1482.946
189.507, 1478.987
189.989, 1494.256
190.471, 1512.064
190.953, 1516.272
191.435, 1500.416
191.917, 1474.800
192.399, 1450.735
192.881, 1427.108
193.363, 1410.463
193.846, 1408.179
194.328, 1411.908
194.810, 1415.452
195.292, 1417.431
195.774, 1418.018
196.256, 1417.471
196.738, 1415.852
197.220, 1412.841
197.702, 1404.751
198.185, 1396.955
198.667, 1395.480
199.149, 1403.272
199.631, 1411.665
200.113, 1408.673
200.595, 1392.198
201.077, 1375.306
201.559, 1360.980
202.042, 1348.426
202.524, 1336.647
203.006, 1324.955
203.488, 1316.338
203.970, 1316.720
204.452, 1328.113
204.934, 1334.880
205.416, 1326.971
205.898, 1315.575
206.380, 1309.205
206.863, 1309.762
207.345, 1312.058
207.827, 1311.359
208.309, 1307.729
208.791, 1300.251
209.273, 1285.131
209.755, 1268.132
210.238, 1252.207
210.720, 1237.594
211.202, 1227.335
211.684, 1226.131
212.166, 1234.360
212.648, 1242.242
213.130, 1249.403
213.612, 1253.912
214.094, 1253.530
214.577, 1248.083
215.059, 1241.423
215.541, 1237.946
216.023, 1237.532
216.505, 1233.167
216.987, 1220.134
217.469, 1205.915
217.951, 1195.035
218.434, 1187.831
218.916, 1184.407
219.398, 1188.247
219.880, 1198.082
220.362, 1199.708
220.844, 1181.547
221.326, 1165.784
221.808, 1172.913
222.290, 1200.444
222.773, 1224.571
223.255, 1226.516
223.737, 1210.703
224.219, 1201.775
224.701, 1208.173
225.183, 1213.190
225.665, 1200.470
226.147, 1174.130
226.629, 1153.254
227.112, 1153.556
227.594, 1167.766
228.076, 1172.653
228.558, 1162.910
229.040, 1150.573
229.522, 1142.821
230.004, 1139.277
230.486, 1139.850
230.969, 1151.137
231.451, 1165.398
231.933, 1164.449
232.415, 1143.079
232.897, 1119.006
233.379, 1103.491
233.861, 1094.637
234.343, 1089.853
234.825, 1089.808
235.307, 1092.825
235.790, 1098.269
236.272, 1107.358
236.754, 1112.263
237.236, 1104.327
237.718, 1088.784
238.200, 1075.756
238.682, 1067.527
239.165, 1062.484
239.647, 1058.822
240.129, 1056.484
240.611, 1057.292
241.093, 1065.005
241.575, 1075.855
242.057, 1081.395
242.539, 1078.460
243.021, 1073.105
243.503, 1070.096
243.986, 1069.065
244.468, 1066.545
244.950, 1059.451
245.432, 1050.929
245.914, 1048.344
246.396, 1055.701
246.878, 1061.906
247.361, 1058.585
247.843, 1048.775
248.325, 1043.612
248.807, 1049.726
249.289, 1059.292
249.771, 1055.097
250.253, 1031.051
250.735, 1012.484
251.217, 1012.088
251.699, 1022.896
252.182, 1032.797
252.664, 1038.566
253.146, 1040.674
253.628, 1038.259
254.110, 1029.235
254.592, 1024.481
255.074, 1029.741
255.556, 1038.837
256.039, 1044.854
256.521, 1046.288
257.003, 1043.866
257.485, 1037.359
257.967, 1024.688
258.449, 1017.132
258.931, 1018.349
259.413, 1022.685
259.896, 1025.927
260.378, 1027.559
260.860, 1028.898
261.342, 1031.332
261.824, 1035.114
262.306, 1037.394
262.788, 1040.146
263.270, 1039.892
263.752, 1033.273
264.234, 1021.567
264.717, 1009.123
265.199, 998.786
265.681, 990.575
266.163, 984.558
266.645, 978.272
267.127, 976.351
267.609, 983.700
268.091, 996.105
268.574, 1006.117
269.056, 1009.529
269.538, 1007.601
270.020, 1005.708
270.502, 1005.690
270.984, 1003.456
271.466, 997.823
271.948, 990.100
272.431, 981.400
272.913, 972.176
273.395, 962.955
273.877, 954.487
274.359, 945.007
274.841, 939.851
275.323, 942.766
275.805, 947.243
276.287, 947.310
276.770, 942.113
277.252, 936.421
277.734, 937.927
278.216, 951.005
278.698, 956.859
279.180, 948.085
279.662, 938.112
280.144, 931.749
280.626, 929.997
281.109, 932.834
281.591, 942.418
282.073, 958.951
282.555, 968.540
283.037, 957.359
283.519, 955.378
284.001, 940.954
284.483, 956.747
284.966, 965.205
285.448, 966.723
285.930, 940.511
286.412, 949.620
286.894, 948.411
287.376, 949.672
287.858, 932.698
288.340, 919.424
288.823, 933.563
289.305, 941.047
289.787, 942.235
290.269, 918.267
290.751, 926.783
291.233, 922.280
291.715, 917.244
292.197, 930.332
292.679, 910.023
293.161, 921.046
293.644, 927.640
294.126, 936.474
294.608, 946.494
295.090, 950.899
295.572, 946.018
296.054, 937.305
296.536, 930.754
297.018, 926.089
297.501, 924.732
297.983, 931.630
298.465, 941.117
298.947, 941.850
299.429, 930.819
299.911, 917.571
300.393, 911.109
300.875, 911.455
301.358, 915.078
301.840, 928.461
302.322, 940.239
302.804, 937.114
303.286, 920.554
303.768, 907.277
304.250, 910.919
304.732, 929.570
305.214, 936.839
305.697, 924.726
306.179, 911.525
306.661, 900.162
307.143, 892.983
307.625, 896.436
308.107, 914.908
308.589, 940.936
309.071, 952.204
309.553, 928.047
310.036, 914.289
310.518, 921.467
311.000, 935.608
311.482, 943.290
311.964, 940.759
312.446, 932.249
312.928, 923.742
313.410, 915.240
313.892, 906.761
314.375, 894.102
314.857, 884.863
315.339, 877.413
315.821, 875.774
316.303, 892.717
316.785, 874.903
317.267, 898.435
317.750, 911.931
318.232, 915.929
318.714, 881.985
319.196, 897.036
319.678, 892.451
320.160, 887.062
320.642, 909.009
321.124, 880.583
321.606, 902.096
322.089, 903.675
322.571, 914.377
323.053, 905.323
323.535, 902.371
324.017, 919.181
324.499, 925.049
324.981, 913.721
325.463, 925.003
325.945, 895.887
326.428, 902.221
326.910, 923.850
327.392, 906.722
327.874, 905.958
328.356, 887.390
328.838, 873.454
329.320, 878.075
329.802, 892.562
330.284, 901.000
330.767, 900.730
331.249, 900.555
331.731, 911.076
332.213, 930.056
332.695, 937.236
333.177, 916.553
333.659, 895.916
334.141, 900.342
334.624, 923.781
335.106, 938.498
335.588, 927.229
336.070, 898.010
336.552, 883.345
337.034, 894.767
337.516, 904.199
337.998, 907.115
338.480, 905.266
338.963, 899.219
339.445, 889.428
339.927, 879.607
340.409, 876.071
340.891, 883.722
341.373, 885.876
341.855, 876.667
342.337, 867.675
342.819, 865.696
343.302, 870.575
343.784, 878.472
344.266, 886.942
344.748, 895.800
345.230, 901.561
345.712, 904.676
346.194, 903.541
346.677, 894.212
347.159, 881.563
347.641, 872.145
348.123, 868.916
348.605, 870.304
349.087, 875.017
349.569, 884.797
350.051, 890.305
350.533, 884.281
351.016, 875.893
351.498, 873.931
351.980, 879.574
352.462, 882.620
352.944, 870.045
353.426, 847.654
353.908, 840.084
354.390, 855.744
354.872, 875.125
355.355, 878.877
355.837, 870.426
356.319, 861.912
356.801, 855.478
357.283, 850.539
357.765, 845.126
358.247, 839.816
358.729, 840.065
359.211, 850.841
359.694, 868.869
360.176, 880.053
360.658, 886.944
361.140, 885.341
361.622, 873.656
362.104, 854.145
362.586, 878.520
363.069, 892.243
363.551, 895.885
364.033, 859.254
364.515, 874.627
364.997, 869.159
365.479, 862.837
365.961, 874.054
366.443, 873.296
366.925, 861.717
367.408, 850.466
367.890, 848.684
368.372, 854.960
368.854, 857.178
369.336, 863.932
369.818, 849.013
370.300, 864.368
370.782, 872.374
371.264, 873.427
371.747, 846.699
372.229, 855.843
372.711, 850.612
373.193, 844.791
373.675, 858.985
374.157, 836.297
374.639, 850.174
375.121, 846.781
375.603, 841.032
376.086, 834.881
376.568, 841.275
377.050, 854.663
377.532, 866.212
378.014, 875.622
378.496, 879.719
378.978, 873.698
379.460, 859.734
379.943, 851.097
380.425, 851.610
380.907, 853.741
381.389, 854.115
381.871, 853.318
382.353, 853.062
382.835, 854.170
383.317, 855.172
383.799, 853.031
384.282, 843.359
384.764, 838.760
385.246, 844.197
385.728, 850.906
386.210, 850.711
386.692, 844.633
387.174, 841.359
387.656, 849.882
388.138, 869.513
388.621, 879.410
389.103, 874.043
389.585, 864.960
390.067, 850.473
390.549, 835.690
391.031, 828.172
391.513, 831.563
391.996, 837.720
392.478, 831.372
392.960, 810.128
393.442, 800.780
393.924, 816.257
394.406, 838.415
394.888, 854.360
395.370, 863.715
395.852, 866.220
396.335, 857.276
396.817, 842.975
397.299, 833.136
397.781, 828.512
398.263, 826.284
398.745, 823.567
399.227, 822.088
399.709, 828.082
400.191, 855.648
400.674, 874.620
401.156, 864.348
401.638, 839.674
402.120, 826.733
402.602, 834.267
403.084, 849.841
403.566, 854.213
404.048, 841.344
404.530, 833.623
405.013, 836.463
405.495, 838.851
405.977, 832.160
406.459, 819.613
406.941, 811.488
407.423, 815.685
407.905, 828.552
408.387, 834.130
408.870, 829.352
409.352, 823.114
409.834, 815.723
410.316, 809.044
410.798, 804.607
411.280, 802.712
411.762, 803.466
412.244, 808.689
412.727, 817.268
413.209, 822.571
413.691, 822.643
414.173, 821.732
414.655, 821.970
415.137, 823.769
415.619, 829.721
416.101, 849.217
416.583, 865.640
417.065, 861.576
417.548, 842.248
418.030, 827.282
418.512, 825.688
418.994, 832.555
419.476, 837.079
419.958, 839.015
420.440, 838.812
420.922, 831.976
421.405, 826.195
421.887, 830.047
422.369, 842.236
422.851, 852.866
423.333, 852.663
423.815, 842.593
424.297, 837.555
424.779, 842.512
425.262, 845.693
425.744, 842.852
426.226, 837.507
426.708, 834.182
427.190, 834.451
427.672, 834.340
428.154, 826.560
428.636, 812.029
429.118, 806.442
429.601, 815.792
430.083, 829.109
430.565, 838.784
431.047, 844.920
431.529, 846.839
432.011, 840.018
432.493, 832.141
432.975, 822.951
433.457, 816.468
433.940, 800.781
434.422, 821.092
434.904, 832.665
435.386, 835.969
435.868, 806.238
436.350, 819.165
436.832, 814.997
437.314, 810.128
437.797, 829.059
438.279, 804.133
438.761, 822.686
439.243, 823.883
439.725, 833.024
440.207, 824.964
440.689, 822.217
441.171, 836.676
441.654, 841.608
442.136, 831.567
442.618, 841.213
443.100, 815.686
443.582, 821.023
444.064, 839.678
444.546, 830.502
445.028, 840.463
445.510, 843.135
445.992, 812.686
446.475, 839.838
446.957, 842.080
447.439, 818.744
447.921, 843.922
448.403, 824.113
448.885, 820.361
449.367, 828.118
449.849, 815.837
450.332, 808.572
450.814, 806.068
451.296, 788.611
451.778, 810.301
452.260, 822.488
452.742, 825.683
453.224, 792.954
453.706, 806.614
454.189, 801.683
454.671, 795.990
455.153, 816.178
455.635, 788.675
456.117, 808.453
456.599, 809.357
457.081, 818.899
457.563, 809.736
458.045, 805.858
458.527, 805.975
459.010, 809.889
459.492, 814.103
459.974, 815.788
460.456, 816.355
460.938, 819.414
461.420, 825.527
461.902, 830.645
462.384, 831.814
462.867, 829.733
463.349, 828.260
463.831, 827.078
464.313, 826.819
464.795, 827.793
465.277, 829.737
465.759, 834.130
466.241, 840.593
466.724, 843.645
467.206, 835.881
467.688, 815.725
468.170, 801.518
468.652, 793.914
469.134, 792.280
469.616, 799.125
470.098, 810.925
470.580, 824.119
471.063, 837.851
471.545, 848.976
472.027, 851.330
472.509, 845.716
472.991, 845.238
473.473, 855.898
473.955, 865.496
474.437, 859.411
474.919, 841.319
475.402, 827.487
475.884, 822.969
476.366, 821.676
476.848, 820.383
477.330, 818.914
477.812, 816.734
478.294, 813.477
478.776, 810.707
479.259, 811.719
479.741, 820.547
480.223, 822.999
480.705, 812.061
481.187, 824.740
481.669, 831.686
482.151, 833.207
482.633, 813.056
483.116, 820.891
483.598, 817.510
484.080, 813.669
484.562, 825.442
485.044, 808.443
485.526, 818.437
486.008, 815.072
486.490, 808.107
486.972, 820.607
487.454, 828.382
487.937, 831.686
488.419, 817.129
488.901, 825.636
489.383, 824.899
489.865, 823.784
490.347, 835.538
490.829, 823.578
491.311, 833.865
491.794, 830.626
492.276, 826.724
492.758, 813.845
493.240, 806.933
493.722, 792.163
494.204, 808.791
494.686, 817.797
495.168, 819.591
495.651, 792.572
496.133, 802.255
496.615, 795.455
497.097, 795.856
497.579, 807.820
498.061, 820.126
498.543, 820.955
499.025, 809.549
499.507, 799.063
499.990, 794.977
500.472, 795.612
500.954, 800.620
501.436, 809.250
501.918, 816.120
502.400, 817.798
502.882, 815.787
503.364, 814.887
503.846, 817.124
504.329, 817.708
504.811, 813.371
505.293, 809.721
505.775, 811.723
506.257, 818.858
506.739, 827.237
507.221, 834.864
507.703, 840.700
508.185, 838.878
508.668, 825.194
509.150, 816.339
509.632, 797.880
510.114, 821.606
510.596, 835.091
511.078, 838.888
511.560, 803.972
512.042, 819.045
512.525, 814.085
513.007, 808.303
513.489, 830.411
513.971, 801.126
514.453, 820.057
514.935, 821.043
515.417, 822.401
515.899, 827.506
516.381, 828.002
516.864, 819.075
517.346, 809.421
517.828, 805.359
518.310, 806.486
518.792, 808.850
519.274, 810.189
519.756, 810.382
520.239, 808.644
520.721, 804.423
521.203, 800.849
521.685, 796.450
522.167, 795.483
522.649, 805.302
523.131, 826.356
523.613, 840.257
524.095, 837.717
524.578, 827.966
525.060, 816.610
525.542, 805.357
526.024, 798.320
526.506, 797.605
526.988, 801.869
527.470, 808.752
527.952, 822.947
528.434, 830.266
528.917, 829.000
529.399, 823.376
529.881, 810.984
530.363, 796.091
530.845, 787.645
531.327, 789.969
531.809, 801.661
532.291, 784.431
532.773, 808.014
533.256, 821.690
533.738, 825.991
534.220, 792.840
534.702, 808.051
535.184, 803.880
535.666, 798.915
536.148, 820.933
536.630, 793.229
537.112, 814.819
537.595, 816.732
538.077, 814.083
538.559, 809.760
539.041, 806.363
539.523, 802.359
540.005, 796.611
540.487, 797.180
540.969, 811.437
541.452, 822.998
541.934, 825.143
542.416, 820.710
542.898, 812.950
543.380, 801.036
543.862, 792.218
544.344, 796.117
544.826, 807.463
545.308, 810.789
545.791, 803.010
546.273, 797.424
546.755, 807.100
547.237, 829.891
547.719, 839.234
548.201, 823.541
548.683, 810.685
549.166, 805.425
549.648, 805.250
550.130, 809.742
550.612, 817.517
551.094, 823.750
551.576, 824.009
552.058, 819.217
552.540, 800.404
553.022, 820.670
553.505, 831.451
553.987, 833.255
554.469, 799.196
554.951, 811.446
555.433, 805.139
555.915, 798.070
556.397, 816.837
556.879, 787.996
557.362, 803.819
557.844, 824.695
558.326, 840.696
558.808, 840.168
559.290, 829.627
559.772, 823.292
560.254, 821.830
560.736, 822.860
561.218, 833.766
561.701, 840.060
562.183, 829.795
562.665, 810.180
563.147, 798.762
563.629, 805.763
564.111, 816.214
564.593, 812.340
565.075, 798.527
565.557, 791.442
566.040, 795.297
566.522, 802.206
567.004, 805.608
567.486, 805.492
567.968, 800.115
568.450, 779.227
568.932, 766.388
569.414, 774.978
569.896, 789.814
570.379, 792.896
570.861, 782.249
571.343, 771.891
571.825, 776.523
572.307, 792.095
572.789, 801.343
573.271, 803.351
573.753, 803.338
574.235, 802.021
574.718, 800.908
575.200, 803.084
575.682, 809.565
576.164, 813.526
576.646, 812.444
577.128, 809.068
577.610, 802.645
578.093, 795.784
578.575, 795.388
579.057, 805.101
579.539, 819.106
580.021, 827.373
580.503, 830.342
580.985, 824.492
581.467, 796.700
581.949, 776.414
582.432, 785.903
582.914, 811.851
583.396, 827.234
583.878, 822.003
584.360, 812.887
584.842, 810.740
585.324, 812.413
585.806, 812.825
586.289, 811.020
586.771, 806.940
587.253, 799.854
587.735, 790.758
588.217, 786.180
588.699, 785.394
589.181, 790.713
589.663, 811.115
590.145, 830.264
590.628, 834.334
591.110, 824.919
591.592, 814.929
592.074, 811.717
592.556, 811.872
593.038, 810.271
593.520, 807.453
594.002, 806.897
594.484, 809.863
594.967, 814.948
595.449, 821.552
595.931, 830.886
596.413, 832.131
596.895, 813.176
597.377, 801.303
597.859, 810.055
598.341, 828.030
598.823, 843.689
599.306, 853.461
599.788, 855.888
600.270, 845.359
600.752, 826.260
601.234, 815.005
601.716, 812.509
602.198, 812.009
602.680, 811.461
603.162, 810.210
603.645, 805.628
604.127, 794.393
604.609, 791.797
605.091, 807.660
605.573, 824.848
606.055, 833.979
606.537, 836.021
607.019, 833.529
607.502, 827.517
607.984, 821.171
608.466, 818.848
608.948, 820.513
609.430, 825.607
609.912, 837.606
610.394, 844.113
610.876, 833.209
611.359, 812.578
611.841, 801.485
612.323, 805.508
612.805, 807.815
613.287, 801.337
613.769, 792.557
614.251, 783.682
614.733, 775.203
615.216, 794.137
615.698, 806.416
616.180, 812.399
616.662, 793.226
617.144, 806.536
617.626, 806.828
618.108, 806.588
618.590, 824.470
619.072, 808.955
619.555, 826.550
620.037, 830.928
620.519, 832.243
621.001, 844.729
621.483, 836.522
621.965, 819.513
622.447, 807.377
622.929, 802.481
623.411, 803.106
623.894, 808.954
624.376, 817.442
624.858, 817.875
625.340, 805.774
625.822, 800.523
626.304, 807.465
626.786, 820.386
627.268, 839.811
627.750, 862.111
628.233, 872.752
628.715, 860.456
629.197, 844.169
629.679, 833.869
630.161, 827.567
630.643, 822.834
631.125, 818.869
631.607, 814.181
632.089, 806.795
632.572, 798.005
633.054, 796.998
633.536, 809.463
634.018, 814.719
634.500, 801.817
634.982, 818.318
635.464, 827.681
635.946, 830.291
636.429, 805.920
636.911, 816.389
637.393, 812.896
637.875, 808.830
638.357, 824.203
638.839, 803.756
639.321, 818.821
639.803, 819.710
640.286, 827.087
640.768, 817.513
641.250, 811.990
641.732, 832.760
642.214, 844.790
642.696, 829.301
643.178, 809.640
643.660, 804.933
644.143, 814.249
644.625, 823.652
645.107, 830.243
645.589, 833.845
646.071, 833.620
646.553, 830.516
647.035, 825.540
647.517, 819.244
647.999, 813.457
648.482, 809.922
648.964, 808.637
649.446, 809.477
649.928, 812.712
650.410, 817.646
650.892, 829.117
651.374, 838.115
651.856, 834.668
652.338, 819.896
652.821, 807.931
653.303, 803.325
653.785, 802.259
654.267, 801.441
654.749, 802.593
655.231, 814.068
655.713, 835.422
656.195, 846.250
656.677, 821.222
657.160, 769.178
657.642, 751.498
658.124, 779.743
