##NAMES=Euchlorine
##RRUFFID=R070460
##IDEAL CHEMISTRY=KNaCu^2+^_3_O(S^6+^O_4_)_3_
##LOCALITY=Northern Breakthrough (North Breach), Great Fissure (Main Fracture) eruption, Tolbachik volcano, Kamchatka Oblast', Far-Eastern Region, Russia
##OWNER=RRUFF
##SOURCE=Michael Scott
##DESCRIPTION=Bright green massive crystalline coating
##STATUS=The identification of this mineral is confirmed by single-crystal X-ray diffraction and chemical analysis.
##URL=rruff.info/R070460
##MEASURED CHEMISTRY=K_1.00_(Na_0.80_K_0.20_)_Î£=1_Cu_3.00_O(S_1.00_O_4_)_3_
104.3543, 177.5764
104.8364, 174.4410
105.3185, 173.6880
105.8006, 175.3156
106.2827, 179.8255
106.7648, 190.6448
107.2470, 202.6483
107.7291, 207.4359
108.2112, 199.2472
108.6933, 190.0904
109.1754, 183.4911
109.6575, 178.2954
110.1397, 177.4381
110.6218, 182.7521
111.1039, 192.7772
111.5860, 202.6109
112.0681, 217.8345
112.5502, 229.1376
113.0324, 231.7668
113.5145, 212.4832
113.9966, 197.5473
114.4787, 192.1636
114.9608, 196.1426
115.4429, 203.3363
115.9251, 213.7369
116.4072, 226.0752
116.8893, 239.0586
117.3714, 254.0593
117.8535, 268.4739
118.3356, 279.7075
118.8178, 286.4339
119.2999, 296.3366
119.7820, 316.8901
120.2641, 343.1162
120.7462, 365.5082
121.2283, 371.1926
121.7105, 375.4195
122.1926, 392.8246
122.6747, 432.1555
123.1568, 473.2909
123.6389, 498.2958
124.1210, 510.5255
124.6032, 524.1671
125.0853, 545.3284
125.5674, 574.5332
126.0495, 612.4357
126.5316, 662.4106
127.0137, 719.1828
127.4959, 777.5579
127.9780, 837.5482
128.4601, 896.5229
128.9422, 946.9238
129.4243, 992.7576
129.9064, 1048.017
130.3886, 1125.922
130.8707, 1217.162
131.3528, 1298.148
131.8349, 1365.870
132.3170, 1433.027
132.7991, 1520.257
133.2813, 1627.425
133.7634, 1734.420
134.2455, 1830.397
134.7276, 1915.677
135.2097, 2002.236
135.6918, 2089.821
136.1740, 2180.540
136.6561, 2285.856
137.1382, 2409.897
137.6203, 2531.037
138.1024, 2634.788
138.5845, 2720.586
139.0667, 2796.556
139.5488, 2861.931
140.0309, 2918.823
140.5130, 2984.466
140.9951, 3065.784
141.4772, 3144.950
141.9594, 3199.790
142.4415, 3220.372
142.9236, 3243.709
143.4057, 3279.007
143.8878, 3326.866
144.3699, 3380.933
144.8521, 3447.474
145.3342, 3515.877
145.8163, 3566.173
146.2984, 3583.760
146.7805, 3604.399
147.2626, 3642.554
147.7448, 3714.488
148.2269, 3768.831
148.7090, 3796.598
149.1911, 3806.141
149.6732, 3821.839
150.1554, 3843.190
150.6375, 3871.251
151.1196, 3905.813
151.6017, 3949.030
152.0838, 3997.088
152.5659, 4047.209
153.0481, 4100.779
153.5302, 4166.166
154.0123, 4261.163
154.4944, 4358.377
154.9765, 4439.641
155.4586, 4502.291
155.9408, 4549.645
156.4229, 4578.694
156.9050, 4570.178
157.3871, 4537.484
157.8692, 4508.979
158.3513, 4476.870
158.8335, 4430.973
159.3156, 4352.036
159.7977, 4274.742
160.2798, 4212.368
160.7619, 4168.366
161.2440, 4127.684
161.7262, 4087.942
162.2083, 4048.246
162.6904, 4006.958
163.1725, 3947.049
163.6546, 3851.854
164.1367, 3861.788
164.6189, 3847.104
165.1010, 3809.140
165.5831, 3678.137
166.0652, 3667.274
166.5473, 3608.265
167.0294, 3547.281
167.5116, 3553.319
167.9937, 3435.849
168.4758, 3440.833
168.9579, 3396.935
169.4400, 3375.409
169.9221, 3305.439
170.4043, 3250.423
170.8864, 3243.875
171.3685, 3210.495
171.8506, 3134.949
172.3327, 3114.845
172.8148, 2995.682
173.2970, 2963.436
173.7791, 2968.704
174.2612, 2895.593
174.7433, 2873.604
175.2254, 2862.943
175.7076, 2847.379
176.1897, 2816.331
176.6718, 2785.307
177.1539, 2779.119
177.6360, 2800.907
178.1181, 2820.877
178.6003, 2807.583
179.0824, 2768.864
179.5645, 2729.116
180.0466, 2695.572
180.5287, 2668.987
181.0108, 2657.185
181.4930, 2665.896
181.9751, 2668.996
182.4572, 2624.360
182.9393, 2539.825
183.4214, 2459.481
183.9035, 2415.354
184.3857, 2395.365
184.8678, 2365.990
185.3499, 2320.388
185.8320, 2269.651
186.3141, 2233.466
186.7962, 2210.821
187.2784, 2190.521
187.7605, 2162.092
188.2426, 2128.459
188.7247, 2102.070
189.2068, 2086.097
189.6889, 2077.980
190.1711, 2072.737
190.6532, 2070.426
191.1353, 2070.421
191.6174, 2073.554
192.0995, 2079.343
192.5816, 2083.118
193.0638, 2081.693
193.5459, 2077.977
194.0280, 2082.460
194.5101, 2095.865
194.9922, 2113.801
195.4743, 2133.558
195.9565, 2154.896
196.4386, 2173.641
196.9207, 2185.729
197.4028, 2193.198
197.8849, 2210.299
198.3671, 2238.227
198.8492, 2272.894
199.3313, 2311.654
199.8134, 2355.499
200.2955, 2395.111
200.7776, 2421.626
201.2598, 2435.517
201.7419, 2473.179
202.2240, 2540.624
202.7061, 2621.783
203.1882, 2691.390
203.6703, 2747.193
204.1525, 2803.170
204.6346, 2864.669
205.1167, 2931.626
205.5988, 3004.701
206.0809, 3085.355
206.5630, 3170.383
207.0452, 3253.025
207.5273, 3332.385
208.0094, 3413.075
208.4915, 3497.621
208.9736, 3584.823
209.4557, 3678.459
209.9379, 3779.382
210.4200, 3886.391
210.9021, 3996.757
211.3842, 4111.128
211.8663, 4227.925
212.3484, 4344.353
212.8306, 4457.916
213.3127, 4579.594
213.7948, 4711.015
214.2769, 4851.010
214.7590, 4995.592
215.2411, 5143.314
215.7233, 5296.136
216.2054, 5456.869
216.6875, 5631.337
217.1696, 5792.165
217.6517, 5932.264
218.1338, 6055.736
218.6160, 6184.281
219.0981, 6318.801
219.5802, 6458.714
220.0623, 6605.199
220.5444, 6765.630
221.0265, 6912.421
221.5087, 7041.809
221.9908, 7154.852
222.4729, 7259.101
222.9550, 7357.403
223.4371, 7444.701
223.9192, 7516.824
224.4014, 7567.011
224.8835, 7615.780
225.3656, 7671.352
225.8477, 7734.071
226.3298, 7769.890
226.8119, 7781.428
227.2941, 7763.623
227.7762, 7708.268
228.2583, 7605.291
228.7404, 7487.675
229.2225, 7365.720
229.7046, 7241.593
230.1868, 7083.918
230.6689, 6882.295
231.1510, 6658.794
231.6331, 6436.662
232.1152, 6226.658
232.5974, 6000.517
233.0795, 5740.350
233.5616, 5440.026
234.0437, 5168.495
234.5258, 4927.320
235.0079, 4711.083
235.4901, 4513.864
235.9722, 4346.713
236.4543, 4178.907
236.9364, 3998.033
237.4185, 3797.105
237.9006, 3622.316
238.3828, 3479.506
238.8649, 3358.855
239.3470, 3245.443
239.8291, 3141.801
240.3112, 3041.632
240.7933, 2942.739
241.2755, 2842.041
241.7576, 2753.129
242.2397, 2677.517
242.7218, 2612.592
243.2039, 2554.575
243.6860, 2504.559
244.1682, 2459.421
244.6503, 2419.090
245.1324, 2384.247
245.6145, 2350.417
246.0966, 2315.120
246.5787, 2282.297
247.0609, 2260.797
247.5430, 2260.799
248.0251, 2255.194
248.5072, 2232.691
248.9893, 2186.769
249.4714, 2145.791
249.9536, 2108.215
250.4357, 2076.310
250.9178, 2056.280
251.3999, 2056.703
251.8820, 2054.573
252.3641, 2039.688
252.8463, 2006.075
253.3284, 1979.790
253.8105, 1965.765
254.2926, 1956.738
254.7747, 1936.801
255.2568, 1899.379
255.7390, 1862.646
256.2211, 1833.805
256.7032, 1815.742
257.1853, 1797.088
257.6674, 1776.563
258.1495, 1756.287
258.6317, 1741.550
259.1138, 1734.823
259.5959, 1729.044
260.0780, 1721.685
260.5601, 1712.828
261.0422, 1701.949
261.5244, 1689.599
262.0065, 1674.874
262.4886, 1654.311
262.9707, 1622.407
263.4528, 1596.142
263.9349, 1585.026
264.4171, 1595.641
264.8992, 1598.082
265.3813, 1589.622
265.8634, 1574.730
266.3455, 1563.024
266.8276, 1554.978
267.3098, 1548.667
267.7919, 1544.135
268.2740, 1542.817
268.7561, 1536.545
269.2382, 1523.359
269.7203, 1506.852
270.2025, 1494.669
270.6846, 1487.910
271.1667, 1482.404
271.6488, 1477.266
272.1309, 1473.411
272.6130, 1462.809
273.0952, 1440.757
273.5773, 1416.631
274.0594, 1412.938
274.5415, 1435.046
275.0236, 1455.692
275.5057, 1460.665
275.9879, 1448.397
276.4700, 1435.313
276.9521, 1419.791
277.4342, 1406.245
277.9163, 1405.679
278.3984, 1420.583
278.8806, 1434.297
279.3627, 1436.480
279.8448, 1426.663
280.3269, 1424.877
280.8090, 1434.674
281.2911, 1447.765
281.7733, 1447.777
282.2554, 1433.258
282.7375, 1420.226
283.2196, 1416.077
283.7017, 1420.568
284.1838, 1429.678
284.6660, 1444.448
285.1481, 1461.254
285.6302, 1474.943
286.1123, 1485.493
286.5944, 1494.522
287.0765, 1502.903
287.5587, 1510.530
288.0408, 1515.964
288.5229, 1518.630
289.0050, 1520.857
289.4871, 1524.716
289.9692, 1530.399
290.4514, 1540.423
290.9335, 1558.875
291.4156, 1583.366
291.8977, 1603.518
292.3798, 1619.071
292.8619, 1631.179
293.3441, 1639.880
293.8262, 1645.721
294.3083, 1651.663
294.7904, 1657.711
295.2726, 1664.917
295.7547, 1676.637
296.2368, 1693.124
296.7189, 1712.028
297.2010, 1736.885
297.6831, 1763.462
298.1653, 1776.991
298.6474, 1756.350
299.1295, 1722.186
299.6116, 1715.482
300.0937, 1738.057
300.5758, 1766.943
301.0580, 1779.449
301.5401, 1780.774
302.0222, 1783.754
302.5043, 1798.621
302.9864, 1815.964
303.4685, 1821.555
303.9507, 1815.324
304.4328, 1806.868
304.9149, 1803.184
305.3970, 1802.965
305.8791, 1803.928
306.3612, 1806.236
306.8434, 1808.695
307.3255, 1807.989
307.8076, 1804.573
308.2897, 1805.801
308.7718, 1823.356
309.2539, 1847.048
309.7361, 1863.243
310.2182, 1864.669
310.7003, 1859.213
311.1824, 1848.937
311.6645, 1834.854
312.1466, 1824.776
312.6288, 1825.653
313.1109, 1831.680
313.5930, 1836.956
314.0751, 1839.953
314.5572, 1841.728
315.0393, 1839.300
315.5215, 1828.810
316.0036, 1828.771
316.4857, 1825.584
316.9678, 1819.418
317.4499, 1801.353
317.9320, 1798.653
318.4142, 1789.794
318.8963, 1780.685
319.3784, 1780.148
319.8605, 1763.813
320.3426, 1763.141
320.8247, 1756.217
321.3069, 1752.153
321.7890, 1741.893
322.2711, 1733.548
322.7532, 1731.401
323.2353, 1720.807
323.7174, 1713.978
324.1996, 1697.871
324.6817, 1685.645
325.1638, 1685.811
325.6459, 1714.797
326.1280, 1724.305
326.6101, 1694.020
327.0923, 1643.090
327.5744, 1608.059
328.0565, 1604.690
328.5386, 1604.306
329.0207, 1598.889
329.5028, 1586.900
329.9850, 1574.741
330.4671, 1563.139
330.9492, 1551.196
331.4313, 1537.216
331.9134, 1517.847
332.3955, 1500.957
332.8777, 1488.463
333.3598, 1480.872
333.8419, 1475.885
334.3240, 1476.330
334.8061, 1476.820
335.2882, 1470.821
335.7704, 1455.069
336.2525, 1439.646
336.7346, 1426.310
337.2167, 1415.086
337.6988, 1404.957
338.1809, 1395.119
338.6631, 1387.548
339.1452, 1386.724
339.6273, 1396.095
340.1094, 1395.105
340.5915, 1375.216
341.0736, 1342.100
341.5558, 1327.890
342.0379, 1336.051
342.5200, 1348.498
343.0021, 1350.148
343.4842, 1340.832
343.9663, 1335.161
344.4485, 1336.141
344.9306, 1341.249
345.4127, 1344.857
345.8948, 1347.012
346.3769, 1347.616
346.8590, 1345.711
347.3412, 1341.891
347.8233, 1338.532
348.3054, 1335.079
348.7875, 1334.171
349.2696, 1342.581
349.7517, 1358.668
350.2339, 1372.850
350.7160, 1378.153
351.1981, 1377.765
351.6802, 1377.575
352.1623, 1377.721
352.6444, 1379.468
353.1266, 1384.688
353.6087, 1392.592
354.0908, 1401.073
354.5729, 1408.612
355.0550, 1416.446
355.5371, 1427.109
356.0193, 1440.958
356.5014, 1452.947
356.9835, 1461.071
357.4656, 1464.549
357.9477, 1462.150
358.4298, 1441.760
358.9120, 1424.606
359.3941, 1428.176
359.8762, 1450.666
360.3583, 1472.315
360.8404, 1482.088
361.3225, 1486.600
361.8047, 1491.922
362.2868, 1500.025
362.7689, 1508.794
363.2510, 1519.156
363.7331, 1530.063
364.2152, 1537.244
364.6974, 1529.818
365.1795, 1524.827
365.6616, 1532.949
366.1437, 1569.719
366.6258, 1596.737
367.1079, 1602.358
367.5901, 1594.385
368.0722, 1590.807
368.5543, 1594.107
369.0364, 1601.469
369.5185, 1612.896
370.0006, 1631.449
370.4828, 1646.082
370.9649, 1657.239
371.4470, 1664.333
371.9291, 1665.586
372.4112, 1651.667
372.8933, 1646.545
373.3755, 1660.718
373.8576, 1696.650
374.3397, 1713.577
374.8218, 1703.147
375.3039, 1684.348
375.7861, 1675.115
376.2682, 1676.965
376.7503, 1683.466
377.2324, 1694.997
377.7145, 1710.081
378.1967, 1722.429
378.6788, 1732.325
379.1609, 1738.053
379.6430, 1734.921
380.1251, 1723.013
380.6072, 1721.101
381.0894, 1736.211
381.5715, 1756.218
382.0536, 1751.869
382.5357, 1723.844
383.0178, 1699.365
383.4999, 1699.642
383.9821, 1716.648
384.4642, 1722.265
384.9463, 1712.489
385.4284, 1699.919
385.9105, 1700.533
386.3926, 1710.899
386.8748, 1719.675
387.3569, 1720.927
387.8390, 1717.855
388.3211, 1713.008
388.8032, 1706.300
389.2853, 1702.705
389.7675, 1712.216
390.2496, 1725.662
390.7317, 1729.881
391.2138, 1712.940
391.6959, 1692.311
392.1780, 1676.130
392.6602, 1664.876
393.1423, 1660.886
393.6244, 1673.344
394.1065, 1688.620
394.5886, 1696.002
395.0707, 1685.971
395.5529, 1679.344
396.0350, 1688.823
396.5171, 1706.508
396.9992, 1713.906
397.4813, 1688.685
397.9634, 1667.726
398.4456, 1667.607
398.9277, 1700.139
399.4098, 1724.599
399.8919, 1725.176
400.3740, 1721.105
400.8561, 1736.927
401.3383, 1793.261
401.8204, 1841.653
402.3025, 1868.350
402.7846, 1872.436
403.2667, 1889.783
403.7488, 1928.684
404.2310, 1969.989
404.7131, 1995.812
405.1952, 1999.173
405.6773, 2009.528
406.1594, 2028.328
406.6415, 2057.658
407.1237, 2110.310
407.6058, 2191.175
408.0879, 2270.505
408.5700, 2326.549
409.0521, 2360.509
409.5342, 2403.404
410.0164, 2459.486
410.4985, 2518.239
410.9806, 2558.993
411.4627, 2584.419
411.9448, 2617.290
412.4269, 2665.050
412.9091, 2728.955
413.3912, 2812.025
413.8733, 2915.100
414.3554, 3028.906
414.8375, 3170.791
415.3196, 3314.036
415.8018, 3409.177
416.2839, 3455.682
416.7660, 3430.121
417.2481, 3282.013
417.7302, 3031.205
418.2123, 2768.563
418.6945, 2513.546
419.1766, 2288.716
419.6587, 2119.683
420.1408, 2021.162
420.6229, 1951.654
421.1050, 1900.035
421.5872, 1864.632
422.0693, 1841.805
422.5514, 1840.197
423.0335, 1842.823
423.5156, 1840.644
423.9977, 1829.572
424.4799, 1832.726
424.9620, 1866.197
425.4441, 1908.298
425.9262, 1939.026
426.4083, 1946.515
426.8904, 1958.034
427.3726, 1977.372
427.8547, 2003.792
428.3368, 2032.454
428.8189, 2065.619
429.3010, 2098.188
429.7831, 2123.107
430.2653, 2132.110
430.7474, 2170.995
431.2295, 2251.579
431.7116, 2351.827
432.1937, 2428.108
432.6758, 2477.833
433.1580, 2526.776
433.6401, 2587.085
434.1222, 2656.520
434.6043, 2720.626
435.0864, 2778.697
435.5685, 2836.109
436.0507, 2898.764
436.5328, 2965.704
437.0149, 3032.797
437.4970, 3102.193
437.9791, 3168.015
438.4612, 3221.576
438.9434, 3263.278
439.4255, 3295.587
439.9076, 3327.421
440.3897, 3347.723
440.8718, 3341.778
441.3539, 3304.475
441.8361, 3252.473
442.3182, 3180.817
442.8003, 3103.730
443.2824, 3044.740
443.7645, 3033.077
444.2466, 3023.555
444.7288, 2995.241
445.2109, 2946.192
445.6930, 2894.879
446.1751, 2843.193
446.6572, 2791.667
447.1393, 2740.686
447.6215, 2680.904
448.1036, 2632.967
448.5857, 2601.829
449.0678, 2583.741
449.5499, 2564.898
450.0320, 2546.219
450.5142, 2525.820
450.9963, 2502.339
451.4784, 2474.351
451.9605, 2449.332
452.4426, 2427.830
452.9247, 2408.244
453.4069, 2386.814
453.8890, 2362.696
454.3711, 2342.942
454.8532, 2330.011
455.3353, 2322.587
455.8174, 2314.960
456.2996, 2306.745
456.7817, 2302.717
457.2638, 2308.177
457.7459, 2320.847
458.2281, 2334.875
458.7102, 2349.936
459.1923, 2363.877
459.6744, 2373.283
460.1565, 2379.291
460.6386, 2384.781
461.1208, 2388.849
461.6029, 2394.862
462.0850, 2408.133
462.5671, 2429.281
463.0492, 2447.330
463.5313, 2460.148
464.0135, 2465.545
464.4956, 2461.345
464.9777, 2437.487
465.4598, 2414.272
465.9419, 2398.639
466.4240, 2388.327
466.9062, 2375.628
467.3883, 2357.917
467.8704, 2338.647
468.3525, 2318.273
468.8346, 2295.465
469.3167, 2275.956
469.7989, 2260.980
470.2810, 2248.304
470.7631, 2234.767
471.2452, 2219.244
471.7273, 2205.897
472.2094, 2196.094
472.6916, 2189.396
473.1737, 2180.411
473.6558, 2167.136
474.1379, 2160.868
474.6200, 2173.650
475.1021, 2203.598
475.5843, 2229.687
476.0664, 2250.341
476.5485, 2265.623
477.0306, 2269.303
477.5127, 2265.489
477.9948, 2271.183
478.4770, 2299.195
478.9591, 2338.874
479.4412, 2376.486
479.9233, 2412.136
480.4054, 2449.006
480.8875, 2486.032
481.3697, 2526.757
481.8518, 2575.253
482.3339, 2635.631
482.8160, 2698.679
483.2981, 2759.576
483.7802, 2820.554
484.2624, 2884.607
484.7445, 2952.213
485.2266, 3024.498
485.7087, 3102.161
486.1908, 3185.960
486.6729, 3272.585
487.1551, 3354.601
487.6372, 3444.904
488.1193, 3555.791
488.6014, 3691.727
489.0835, 3834.814
489.5656, 3987.292
490.0478, 4143.973
490.5299, 4290.962
491.0120, 4425.549
491.4941, 4562.336
491.9762, 4709.043
492.4583, 4865.177
492.9405, 5032.288
493.4226, 5213.517
493.9047, 5397.932
494.3868, 5582.625
494.8689, 5762.890
495.3510, 5926.894
495.8332, 6065.800
496.3153, 6190.297
496.7974, 6331.765
497.2795, 6478.610
497.7616, 6573.976
498.2437, 6594.592
498.7259, 6543.300
499.2080, 6415.037
499.6901, 6202.129
500.1722, 5950.003
500.6543, 5662.357
501.1364, 5355.199
501.6186, 5043.271
502.1007, 4700.412
502.5828, 4389.834
503.0649, 4127.372
503.5470, 3911.202
504.0291, 3716.200
504.5113, 3539.494
504.9934, 3381.434
505.4755, 3241.299
505.9576, 3117.927
506.4397, 3018.945
506.9218, 2952.484
507.4040, 2901.492
507.8861, 2840.874
508.3682, 2767.868
508.8503, 2706.427
509.3324, 2668.016
509.8145, 2643.012
510.2967, 2596.722
510.7788, 2529.225
511.2609, 2467.374
511.7430, 2433.398
512.2252, 2418.445
512.7073, 2403.723
513.1894, 2387.038
513.6715, 2370.950
514.1536, 2356.120
514.6357, 2343.770
515.1179, 2336.009
515.6000, 2332.543
516.0821, 2334.979
516.5642, 2344.322
517.0463, 2360.414
517.5284, 2382.232
518.0106, 2410.771
518.4927, 2444.092
518.9748, 2481.477
519.4569, 2526.076
519.9390, 2568.181
520.4211, 2607.328
520.9033, 2644.167
521.3854, 2678.760
521.8675, 2707.649
522.3496, 2741.891
522.8317, 2785.871
523.3138, 2837.363
523.7960, 2884.615
524.2781, 2929.021
524.7602, 2964.943
525.2423, 2988.019
525.7244, 2999.219
526.2065, 3011.358
526.6887, 3029.070
527.1708, 3027.886
527.6529, 2971.179
528.1350, 2872.072
528.6171, 2764.000
529.0992, 2652.851
529.5814, 2543.645
530.0635, 2442.369
530.5456, 2347.402
531.0277, 2248.127
531.5098, 2126.142
531.9919, 2008.439
532.4741, 1914.401
532.9562, 1852.773
533.4383, 1791.510
533.9204, 1716.930
534.4025, 1641.595
534.8846, 1579.755
535.3668, 1539.604
535.8489, 1502.902
536.3310, 1467.441
536.8131, 1434.007
537.2952, 1404.003
537.7773, 1377.381
538.2595, 1355.019
538.7416, 1338.463
539.2237, 1327.896
539.7058, 1313.096
540.1879, 1292.007
540.6700, 1274.646
541.1522, 1277.108
541.6343, 1294.251
542.1164, 1300.693
542.5985, 1286.113
543.0806, 1266.661
543.5627, 1265.834
544.0449, 1278.111
544.5270, 1286.446
545.0091, 1273.082
545.4912, 1258.493
545.9733, 1262.195
546.4554, 1285.436
546.9376, 1304.203
547.4197, 1307.625
547.9018, 1303.113
548.3839, 1295.642
548.8660, 1275.146
549.3481, 1267.185
549.8303, 1282.910
550.3124, 1309.676
550.7945, 1325.185
551.2766, 1324.576
551.7587, 1321.941
552.2408, 1320.974
552.7230, 1321.352
553.2051, 1318.265
553.6872, 1310.151
554.1693, 1305.320
554.6514, 1313.938
555.1335, 1333.077
555.6157, 1342.202
556.0978, 1338.003
556.5799, 1330.038
557.0620, 1328.111
557.5441, 1331.229
558.0262, 1337.289
558.5084, 1351.996
558.9905, 1363.078
559.4726, 1356.630
559.9547, 1336.959
560.4368, 1321.180
560.9189, 1318.881
561.4011, 1321.195
561.8832, 1323.831
562.3653, 1326.593
562.8474, 1328.744
563.3295, 1334.210
563.8116, 1336.599
564.2938, 1328.671
564.7759, 1298.486
565.2580, 1283.466
565.7401, 1292.701
566.2222, 1316.384
566.7043, 1329.346
567.1865, 1330.069
567.6686, 1328.927
568.1507, 1331.644
568.6328, 1336.104
569.1149, 1331.398
569.5970, 1317.216
570.0792, 1304.105
570.5613, 1303.477
571.0434, 1309.259
571.5255, 1311.659
572.0076, 1309.203
572.4897, 1301.889
572.9719, 1285.864
573.4540, 1265.737
573.9361, 1248.968
574.4182, 1233.951
574.9003, 1226.929
575.3824, 1235.098
575.8646, 1255.888
576.3467, 1269.475
576.8288, 1272.085
577.3109, 1269.449
577.7930, 1262.482
578.2751, 1249.421
578.7573, 1240.637
579.2394, 1236.254
579.7215, 1235.930
580.2036, 1238.837
580.6857, 1244.920
581.1678, 1258.557
581.6500, 1284.042
582.1321, 1311.131
582.6142, 1318.175
583.0963, 1308.990
583.5784, 1301.563
584.0605, 1306.644
584.5427, 1317.134
585.0248, 1326.903
585.5069, 1335.552
585.9890, 1340.636
586.4711, 1335.930
586.9532, 1330.246
587.4354, 1329.812
587.9175, 1335.892
588.3996, 1346.499
588.8817, 1361.567
589.3638, 1380.882
589.8459, 1404.764
590.3281, 1436.464
590.8102, 1465.657
591.2923, 1486.839
591.7744, 1505.380
592.2565, 1539.970
592.7386, 1592.390
593.2208, 1650.932
593.7029, 1709.016
594.1850, 1768.476
594.6671, 1837.243
595.1492, 1915.692
595.6313, 1998.979
596.1135, 2085.158
596.5956, 2172.545
597.0777, 2258.275
