##NAMES=Euchlorine
##RRUFFID=R070460
##IDEAL CHEMISTRY=KNaCu^2+^_3_O(S^6+^O_4_)_3_
##LOCALITY=Northern Breakthrough (North Breach), Great Fissure (Main Fracture) eruption, Tolbachik volcano, Kamchatka Oblast', Far-Eastern Region, Russia
##OWNER=RRUFF
##SOURCE=Michael Scott
##DESCRIPTION=Bright green massive crystalline coating
##STATUS=The identification of this mineral is confirmed by single-crystal X-ray diffraction and chemical analysis.
##URL=rruff.info/R070460
##MEASURED CHEMISTRY=K_1.00_(Na_0.80_K_0.20_)_Î£=1_Cu_3.00_O(S_1.00_O_4_)_3_
102.5971, 1637.384
103.0792, 1606.834
103.5613, 1585.701
104.0434, 1578.796
104.5256, 1577.842
105.0077, 1576.729
105.4898, 1577.053
105.9719, 1563.212
106.4540, 1512.264
106.9361, 1436.261
107.4183, 1386.466
107.9004, 1388.288
108.3825, 1409.170
108.8646, 1412.817
109.3467, 1397.442
109.8288, 1378.204
110.3110, 1368.415
110.7931, 1368.324
111.2752, 1363.199
111.7573, 1343.745
112.2394, 1321.133
112.7215, 1303.712
113.2037, 1293.056
113.6858, 1284.584
114.1679, 1269.323
114.6500, 1241.868
115.1321, 1229.500
115.6143, 1255.387
116.0964, 1288.920
116.5785, 1309.143
117.0606, 1309.286
117.5427, 1295.001
118.0248, 1273.948
118.5070, 1237.967
118.9891, 1212.388
119.4712, 1204.276
119.9533, 1205.021
120.4354, 1207.056
120.9175, 1207.105
121.3997, 1206.600
121.8818, 1209.798
122.3639, 1220.435
122.8460, 1230.044
123.3281, 1232.518
123.8102, 1234.866
124.2923, 1247.101
124.7745, 1275.303
125.2566, 1314.476
125.7387, 1341.114
126.2208, 1339.545
126.7029, 1341.230
127.1850, 1352.924
127.6672, 1370.419
128.1493, 1387.100
128.6314, 1399.256
129.1135, 1406.908
129.5956, 1410.136
130.0777, 1385.829
130.5599, 1381.473
131.0420, 1427.915
131.5241, 1506.324
132.0062, 1573.934
132.4883, 1601.086
132.9704, 1589.626
133.4526, 1583.729
133.9347, 1586.485
134.4168, 1590.570
134.8989, 1594.195
135.3810, 1596.766
135.8631, 1596.050
136.3453, 1588.277
136.8274, 1574.780
137.3095, 1574.951
137.7916, 1600.939
138.2737, 1629.413
138.7558, 1644.795
139.2380, 1647.612
139.7201, 1648.579
140.2022, 1654.686
140.6843, 1666.457
141.1664, 1681.721
141.6485, 1706.412
142.1307, 1730.730
142.6128, 1741.492
143.0949, 1737.908
143.5770, 1740.942
144.0591, 1770.471
144.5412, 1821.886
145.0234, 1873.589
145.5055, 1927.531
145.9876, 1977.942
146.4697, 2015.987
146.9518, 2039.618
147.4339, 2061.244
147.9161, 2087.829
148.3982, 2119.528
148.8803, 2158.560
149.3624, 2221.304
149.8445, 2286.725
150.3266, 2317.289
150.8088, 2302.851
151.2909, 2281.570
151.7730, 2282.133
152.2551, 2296.029
152.7372, 2307.204
153.2193, 2308.759
153.7015, 2303.483
154.1836, 2296.267
154.6657, 2285.090
155.1478, 2276.731
155.6299, 2276.720
156.1120, 2282.250
156.5942, 2288.031
157.0763, 2292.146
157.5584, 2294.624
158.0405, 2295.793
158.5226, 2296.396
159.0047, 2294.078
159.4869, 2287.190
159.9690, 2276.967
160.4511, 2256.998
160.9332, 2263.017
161.4153, 2264.152
161.8974, 2260.646
162.3795, 2239.645
162.8617, 2240.433
163.3438, 2232.000
163.8259, 2222.853
164.3080, 2225.710
164.7901, 2205.455
165.2722, 2207.417
165.7544, 2200.019
166.2365, 2196.397
166.7186, 2183.497
167.2007, 2173.006
167.6828, 2171.095
168.1649, 2163.890
168.6471, 2148.562
169.1292, 2143.105
169.6113, 2119.043
170.0934, 2110.651
170.5755, 2108.820
171.0576, 2092.196
171.5398, 2085.152
172.0219, 2073.979
172.5040, 2052.592
172.9861, 2044.687
173.4682, 2031.246
173.9503, 2003.699
174.4325, 1979.924
174.9146, 1971.711
175.3967, 1969.946
175.8788, 1956.040
176.3609, 1913.126
176.8430, 1837.126
177.3252, 1839.568
177.8073, 1837.476
178.2894, 1831.092
178.7715, 1807.562
179.2536, 1806.173
179.7357, 1795.911
180.2179, 1785.284
180.7000, 1787.010
181.1821, 1765.975
181.6642, 1767.505
182.1463, 1760.028
182.6284, 1756.674
183.1106, 1744.390
183.5927, 1734.866
184.0748, 1734.271
184.5569, 1728.732
185.0390, 1715.423
185.5211, 1712.330
186.0033, 1690.981
186.4854, 1685.653
186.9675, 1687.236
187.4496, 1669.957
187.9317, 1661.172
188.4138, 1653.249
188.8960, 1647.443
189.3781, 1640.074
189.8602, 1639.133
190.3423, 1649.092
190.8244, 1665.667
191.3065, 1683.460
191.7887, 1699.748
192.2708, 1713.886
192.7529, 1722.538
193.2350, 1716.855
193.7171, 1715.408
194.1992, 1720.187
194.6814, 1730.665
195.1635, 1747.576
195.6456, 1771.740
196.1277, 1799.851
196.6098, 1819.169
197.0919, 1818.484
197.5741, 1821.355
198.0562, 1829.748
198.5383, 1842.846
199.0204, 1861.081
199.5025, 1884.743
199.9846, 1910.654
200.4668, 1929.079
200.9489, 1926.148
201.4310, 1931.977
201.9131, 1949.983
202.3952, 1976.682
202.8773, 2009.276
203.3595, 2046.677
203.8416, 2087.106
204.3237, 2126.146
204.8058, 2163.654
205.2879, 2199.614
205.7701, 2236.898
206.2522, 2271.529
206.7343, 2298.200
207.2164, 2315.345
207.6985, 2327.132
208.1806, 2341.350
208.6628, 2357.709
209.1449, 2377.423
209.6270, 2404.521
210.1091, 2432.560
210.5912, 2454.116
211.0733, 2467.822
211.5554, 2479.949
212.0376, 2501.285
212.5197, 2544.043
213.0018, 2570.826
213.4839, 2572.916
213.9660, 2566.181
214.4481, 2560.224
214.9303, 2557.763
215.4124, 2559.072
215.8945, 2565.470
216.3766, 2581.985
216.8587, 2588.238
217.3408, 2580.483
217.8230, 2566.999
218.3051, 2552.393
218.7872, 2537.491
219.2693, 2521.279
219.7514, 2502.724
220.2335, 2481.507
220.7157, 2458.599
221.1978, 2435.483
221.6799, 2409.801
222.1620, 2378.416
222.6441, 2342.836
223.1262, 2307.848
223.6084, 2278.315
224.0905, 2255.242
224.5726, 2227.626
225.0547, 2193.338
225.5368, 2157.586
226.0189, 2122.071
226.5011, 2086.901
226.9832, 2052.239
227.4653, 2018.312
227.9474, 1985.168
228.4295, 1950.186
228.9116, 1902.511
229.3938, 1864.831
229.8759, 1852.535
230.3580, 1853.886
230.8401, 1846.781
231.3222, 1817.080
231.8043, 1769.841
232.2865, 1734.107
232.7686, 1717.325
233.2507, 1704.269
233.7328, 1699.354
234.2149, 1695.237
234.6970, 1679.938
235.1792, 1647.426
235.6613, 1606.122
236.1434, 1581.080
236.6255, 1591.311
237.1076, 1594.192
237.5897, 1581.286
238.0719, 1562.885
238.5540, 1551.678
239.0361, 1551.606
239.5182, 1553.571
240.0003, 1538.173
240.4824, 1482.023
240.9646, 1449.345
241.4467, 1454.871
241.9288, 1471.984
242.4109, 1485.616
242.8930, 1490.429
243.3751, 1483.732
243.8573, 1457.783
244.3394, 1394.764
244.8215, 1361.220
245.3036, 1374.467
245.7857, 1397.804
246.2678, 1415.060
246.7500, 1423.177
247.2321, 1424.556
247.7142, 1420.089
248.1963, 1408.050
248.6784, 1402.355
249.1605, 1414.968
249.6427, 1422.671
250.1248, 1412.023
250.6069, 1388.709
251.0890, 1368.301
251.5711, 1364.234
252.0532, 1375.071
252.5354, 1376.337
253.0175, 1351.468
253.4996, 1335.348
253.9817, 1343.297
254.4638, 1364.453
254.9459, 1381.481
255.4281, 1383.979
255.9102, 1376.019
256.3923, 1373.002
256.8744, 1381.579
257.3565, 1383.939
257.8386, 1373.099
258.3207, 1356.344
258.8029, 1340.478
259.2850, 1328.049
259.7671, 1319.280
260.2492, 1314.065
260.7313, 1310.958
261.2134, 1315.757
261.6956, 1345.719
262.1777, 1373.380
262.6598, 1374.260
263.1419, 1343.762
263.6240, 1305.714
264.1061, 1288.565
264.5883, 1295.200
265.0704, 1301.074
265.5525, 1302.949
266.0346, 1303.247
266.5167, 1303.501
266.9988, 1303.633
267.4810, 1302.371
267.9631, 1298.734
268.4452, 1292.806
268.9273, 1284.144
269.4094, 1266.251
269.8915, 1254.996
270.3737, 1265.867
270.8558, 1290.585
271.3379, 1306.782
271.8200, 1295.551
272.3021, 1267.990
272.7842, 1254.220
273.2664, 1258.721
273.7485, 1265.040
274.2306, 1261.177
274.7127, 1253.549
275.1948, 1252.268
275.6769, 1262.963
276.1591, 1278.271
276.6412, 1291.701
277.1233, 1303.780
277.6054, 1306.221
278.0875, 1285.184
278.5696, 1257.585
279.0518, 1248.918
279.5339, 1266.742
280.0160, 1289.271
280.4981, 1303.384
280.9802, 1309.442
281.4623, 1307.540
281.9445, 1293.921
282.4266, 1277.315
282.9087, 1271.417
283.3908, 1277.516
283.8729, 1281.005
284.3550, 1272.954
284.8372, 1259.191
285.3193, 1249.620
285.8014, 1245.897
286.2835, 1247.445
286.7656, 1256.410
287.2477, 1272.745
287.7299, 1283.501
288.2120, 1284.038
288.6941, 1280.156
289.1762, 1275.082
289.6583, 1269.596
290.1404, 1267.879
290.6226, 1275.114
291.1047, 1289.917
291.5868, 1294.822
292.0689, 1285.094
292.5510, 1271.165
293.0331, 1252.879
293.5153, 1233.943
293.9974, 1224.405
294.4795, 1230.789
294.9616, 1247.190
295.4437, 1254.255
295.9258, 1244.675
296.4080, 1235.650
296.8901, 1230.438
297.3722, 1226.371
297.8543, 1219.178
298.3364, 1207.690
298.8185, 1196.328
299.3007, 1193.034
299.7828, 1207.700
300.2649, 1207.481
300.7470, 1170.431
301.2291, 1136.877
301.7112, 1142.089
302.1934, 1181.970
302.6755, 1220.490
303.1576, 1220.941
303.6397, 1178.608
304.1218, 1154.159
304.6039, 1158.716
305.0861, 1169.602
305.5682, 1188.940
306.0503, 1209.103
306.5324, 1216.574
307.0145, 1202.039
307.4966, 1171.808
307.9788, 1150.501
308.4609, 1143.548
308.9430, 1136.864
309.4251, 1122.882
309.9072, 1110.187
310.3893, 1109.904
310.8715, 1125.530
311.3536, 1144.461
311.8357, 1147.674
312.3178, 1131.703
312.7999, 1117.087
313.2820, 1104.154
313.7642, 1095.804
314.2463, 1095.946
314.7284, 1103.716
315.2105, 1111.979
315.6926, 1116.739
316.1747, 1117.791
316.6569, 1112.723
317.1390, 1097.121
317.6211, 1083.045
318.1032, 1075.195
318.5853, 1074.167
319.0674, 1083.095
319.5496, 1116.580
320.0317, 1151.589
320.5138, 1149.571
320.9959, 1107.633
321.4780, 1069.716
321.9601, 1057.491
322.4423, 1063.790
322.9244, 1073.893
323.4065, 1089.679
323.8886, 1104.103
324.3707, 1114.053
324.8528, 1119.420
325.3350, 1117.683
325.8171, 1105.239
326.2992, 1092.719
326.7813, 1100.236
327.2634, 1132.160
327.7455, 1152.592
328.2277, 1145.900
328.7098, 1129.898
329.1919, 1122.629
329.6740, 1126.017
330.1561, 1132.438
330.6382, 1135.449
331.1204, 1134.891
331.6025, 1135.133
332.0846, 1137.962
332.5667, 1139.691
333.0488, 1135.835
333.5309, 1129.873
334.0131, 1130.090
334.4951, 1141.327
334.9773, 1158.976
335.4594, 1168.492
335.9415, 1160.493
336.4236, 1156.376
336.9057, 1162.443
337.3878, 1169.444
337.8700, 1167.037
338.3521, 1153.937
338.8342, 1139.597
339.3163, 1137.108
339.7984, 1150.333
340.2805, 1158.277
340.7627, 1151.522
341.2448, 1148.118
341.7269, 1159.686
342.2090, 1180.765
342.6911, 1196.500
343.1732, 1194.328
343.6554, 1180.812
344.1375, 1182.915
344.6196, 1209.514
345.1017, 1233.090
345.5838, 1240.829
346.0659, 1242.142
346.5481, 1247.469
347.0302, 1260.643
347.5123, 1273.370
347.9944, 1275.804
348.4765, 1268.384
348.9586, 1259.517
349.4408, 1246.189
349.9229, 1238.429
350.4050, 1249.150
350.8871, 1277.125
351.3692, 1301.063
351.8513, 1311.108
352.3335, 1311.664
352.8156, 1306.930
353.2977, 1296.676
353.7798, 1289.511
354.2619, 1292.778
354.7440, 1305.302
355.2262, 1315.676
355.7083, 1324.743
356.1904, 1330.790
356.6725, 1330.139
357.1546, 1325.763
357.6367, 1325.374
358.1189, 1332.632
358.6010, 1344.042
359.0831, 1352.305
359.5652, 1356.149
360.0473, 1358.941
360.5294, 1357.312
361.0116, 1356.935
361.4937, 1366.357
361.9758, 1384.207
362.4579, 1397.740
362.9400, 1392.662
363.4221, 1367.010
363.9043, 1352.962
364.3864, 1358.917
364.8685, 1367.675
365.3506, 1378.466
365.8327, 1388.274
366.3148, 1391.789
366.7970, 1385.851
367.2791, 1376.380
367.7612, 1377.414
368.2433, 1393.517
368.7254, 1407.235
369.2076, 1415.991
369.6897, 1420.865
370.1718, 1420.893
370.6539, 1416.505
371.1360, 1411.645
371.6181, 1410.228
372.1003, 1411.300
372.5824, 1409.638
373.0645, 1404.149
373.5466, 1397.608
374.0287, 1390.021
374.5108, 1382.825
374.9930, 1379.568
375.4751, 1385.226
375.9572, 1391.203
376.4393, 1386.376
376.9214, 1372.979
377.4035, 1366.757
377.8857, 1376.500
378.3678, 1393.594
378.8499, 1400.397
379.3320, 1395.662
379.8141, 1388.464
380.2962, 1378.190
380.7784, 1367.808
381.2605, 1361.091
381.7426, 1358.313
382.2247, 1356.653
382.7068, 1353.937
383.1889, 1350.283
383.6711, 1342.796
384.1532, 1324.053
384.6353, 1310.208
385.1174, 1308.738
385.5995, 1315.003
386.0816, 1322.448
386.5638, 1328.153
387.0459, 1331.488
387.5280, 1330.407
388.0101, 1321.458
388.4922, 1316.318
388.9743, 1321.450
389.4565, 1325.848
389.9386, 1323.391
390.4207, 1313.850
390.9028, 1299.873
391.3849, 1280.457
391.8670, 1257.866
392.3492, 1244.398
392.8313, 1241.840
393.3134, 1244.406
393.7955, 1254.743
394.2776, 1266.684
394.7597, 1271.469
395.2419, 1265.149
395.7240, 1256.072
396.2061, 1252.815
396.6882, 1253.386
397.1703, 1246.911
397.6524, 1227.124
398.1346, 1206.999
398.6167, 1206.439
399.0988, 1226.119
399.5809, 1239.663
400.0630, 1236.775
400.5451, 1230.797
401.0273, 1236.611
401.5094, 1251.326
401.9915, 1257.377
402.4736, 1241.783
402.9557, 1210.321
403.4378, 1191.388
403.9200, 1196.808
404.4021, 1199.885
404.8842, 1199.604
405.3663, 1195.071
405.8484, 1182.639
406.3305, 1162.873
406.8127, 1144.011
407.2948, 1135.994
407.7769, 1139.886
408.2590, 1145.547
408.7411, 1156.549
409.2232, 1165.282
409.7054, 1166.553
410.1875, 1164.197
410.6696, 1165.329
411.1517, 1174.076
411.6338, 1185.449
412.1159, 1193.644
412.5981, 1199.046
413.0802, 1194.871
413.5623, 1171.374
414.0444, 1145.130
414.5265, 1133.618
415.0086, 1137.080
415.4908, 1143.929
415.9729, 1150.210
416.4550, 1156.729
416.9371, 1167.179
417.4192, 1181.480
417.9013, 1188.685
418.3835, 1178.269
418.8656, 1154.887
419.3477, 1146.069
419.8298, 1157.504
420.3119, 1173.862
420.7940, 1198.512
421.2762, 1223.013
421.7583, 1235.411
422.2404, 1233.118
422.7225, 1224.440
423.2046, 1219.249
423.6867, 1217.409
424.1689, 1219.996
424.6510, 1227.687
425.1331, 1239.110
425.6152, 1257.051
426.0973, 1277.888
426.5794, 1294.770
427.0616, 1303.273
427.5437, 1309.898
428.0258, 1329.159
428.5079, 1364.322
428.9900, 1392.888
429.4721, 1404.689
429.9543, 1412.472
430.4364, 1426.562
430.9185, 1446.841
431.4006, 1468.049
431.8827, 1480.200
432.3648, 1494.850
432.8469, 1538.437
433.3290, 1612.036
433.8112, 1672.245
434.2933, 1687.644
434.7754, 1673.404
435.2575, 1683.570
435.7396, 1731.232
436.2217, 1778.954
436.7039, 1816.153
437.1860, 1848.793
437.6681, 1884.119
438.1502, 1923.333
438.6323, 1961.978
439.1144, 1995.258
439.5966, 2023.110
440.0787, 2048.496
440.5608, 2079.388
441.0429, 2098.687
441.5250, 2097.178
442.0071, 2083.282
442.4893, 2068.119
442.9714, 2055.909
443.4535, 2043.492
443.9356, 2024.780
444.4177, 1999.004
444.8998, 1978.887
445.3820, 1974.949
445.8641, 1965.669
446.3462, 1928.862
446.8283, 1873.201
447.3104, 1830.104
447.7925, 1822.160
448.2747, 1824.035
448.7568, 1806.274
449.2389, 1772.045
449.7210, 1741.569
450.2031, 1723.143
450.6852, 1713.305
451.1674, 1706.780
451.6495, 1706.150
452.1316, 1701.387
452.6137, 1694.118
453.0958, 1680.451
453.5779, 1652.261
454.0601, 1613.440
454.5422, 1577.912
455.0243, 1555.244
455.5064, 1544.171
455.9885, 1539.390
456.4706, 1548.169
456.9528, 1551.110
457.4349, 1543.994
457.9170, 1531.797
458.3991, 1516.124
458.8812, 1498.267
459.3633, 1474.518
459.8455, 1477.719
460.3276, 1476.386
460.8097, 1470.762
461.2918, 1447.991
461.7739, 1447.361
462.2560, 1437.858
462.7382, 1427.990
463.2203, 1430.476
463.7024, 1410.199
464.1845, 1412.489
464.6666, 1405.771
465.1487, 1403.176
465.6309, 1391.651
466.1130, 1382.886
466.5951, 1383.051
467.0772, 1378.271
467.5593, 1365.720
468.0414, 1363.387
468.5236, 1342.797
469.0057, 1338.228
469.4878, 1340.570
469.9699, 1328.468
470.4520, 1326.298
470.9341, 1320.345
471.4163, 1297.202
471.8984, 1303.954
472.3805, 1297.778
472.8626, 1278.327
473.3447, 1289.680
473.8268, 1292.724
474.3090, 1277.489
474.7911, 1251.195
475.2732, 1227.755
475.7553, 1210.328
476.2374, 1199.799
476.7195, 1201.506
477.2017, 1212.086
477.6838, 1215.535
478.1659, 1205.693
478.6480, 1192.956
479.1301, 1190.695
479.6122, 1201.192
480.0944, 1206.174
480.5765, 1203.711
481.0586, 1197.150
481.5407, 1185.680
482.0228, 1171.835
482.5049, 1160.948
482.9871, 1155.489
483.4692, 1151.557
483.9513, 1139.433
484.4334, 1111.186
484.9155, 1098.486
485.3976, 1120.139
485.8798, 1141.866
486.3619, 1147.538
486.8440, 1141.287
487.3261, 1136.104
487.8082, 1140.726
488.2903, 1145.939
488.7725, 1133.347
489.2546, 1104.237
489.7367, 1088.380
490.2188, 1099.648
490.7009, 1119.656
491.1830, 1122.432
491.6652, 1107.718
492.1473, 1099.079
492.6294, 1104.469
493.1115, 1113.181
493.5936, 1117.904
494.0757, 1119.589
494.5579, 1122.626
495.0400, 1129.282
495.5221, 1136.825
496.0042, 1139.358
496.4863, 1136.346
496.9684, 1129.286
497.4506, 1113.982
497.9327, 1098.835
498.4148, 1085.554
498.8969, 1075.887
499.3790, 1073.833
499.8611, 1084.524
500.3433, 1099.032
500.8254, 1101.664
501.3075, 1092.205
501.7896, 1081.864
502.2717, 1073.380
502.7538, 1065.717
503.2360, 1056.902
503.7181, 1046.947
504.2002, 1039.925
504.6823, 1035.758
505.1644, 1035.483
505.6465, 1044.448
506.1287, 1058.033
506.6108, 1063.682
507.0929, 1055.438
507.5750, 1039.158
508.0571, 1025.991
508.5392, 1016.775
509.0214, 1008.608
509.5035, 1002.831
509.9856, 996.7016
510.4677, 985.6317
510.9498, 973.5399
511.4319, 969.4388
511.9141, 979.2953
512.3962, 994.7418
512.8783, 1005.745
513.3604, 1012.188
513.8425, 1009.014
514.3246, 991.4680
514.8068, 970.2901
515.2889, 954.5743
515.7710, 944.2250
516.2531, 941.6127
516.7352, 951.8215
517.2173, 965.3275
517.6995, 982.6664
518.1816, 998.1489
518.6637, 997.9614
519.1458, 977.3919
519.6279, 949.9084
520.1100, 935.3738
520.5922, 935.7441
521.0743, 940.0169
521.5564, 956.2110
522.0385, 967.9113
522.5206, 967.0549
523.0027, 959.1508
523.4849, 952.8362
523.9670, 951.3820
524.4491, 950.9907
524.9312, 947.7261
525.4133, 942.0064
525.8954, 936.0020
526.3776, 930.1592
526.8597, 923.5104
527.3418, 914.5129
527.8239, 903.7504
528.3060, 895.5051
528.7881, 889.5145
529.2703, 886.3140
529.7524, 889.1696
530.2345, 893.5110
530.7166, 893.7910
531.1987, 888.8475
531.6808, 880.5098
532.1630, 869.6479
532.6451, 856.5907
533.1272, 849.3702
533.6093, 851.0370
534.0914, 853.4911
534.5735, 853.8456
535.0557, 854.0565
535.5378, 858.6581
536.0199, 868.4113
536.5020, 870.9356
536.9841, 851.5626
537.4662, 821.8838
537.9484, 800.2136
538.4305, 787.9645
538.9126, 788.8474
539.3947, 809.0531
539.8768, 839.6046
540.3589, 854.2688
540.8411, 842.6557
541.3232, 832.6403
541.8053, 826.1689
542.2874, 821.0984
542.7695, 817.3817
543.2516, 813.7765
543.7338, 807.1958
544.2159, 795.1927
544.6980, 780.4439
545.1801, 768.5151
545.6622, 758.9940
546.1443, 755.2508
546.6265, 761.5966
547.1086, 769.9626
547.5907, 773.8323
548.0728, 773.6450
548.5549, 771.6379
549.0370, 765.1151
549.5192, 759.9996
550.0013, 761.9320
550.4834, 768.5901
550.9655, 775.8435
551.4476, 782.3050
551.9297, 784.3657
552.4119, 775.3733
552.8940, 751.8539
553.3761, 741.7698
553.8582, 756.8662
554.3403, 773.0436
554.8224, 788.5300
555.3046, 800.1515
555.7867, 802.8964
556.2688, 795.3953
556.7509, 786.1868
557.2330, 784.7963
557.7151, 787.8649
558.1973, 782.7820
558.6794, 767.3746
559.1615, 754.7390
559.6436, 752.8652
560.1257, 759.4363
560.6078, 767.5280
561.0900, 778.3173
561.5721, 788.1514
562.0542, 797.5126
562.5363, 804.9115
563.0184, 807.3895
563.5005, 806.4090
563.9827, 807.4836
564.4648, 814.7579
564.9469, 824.3973
565.4290, 826.0380
565.9111, 818.3726
566.3932, 808.4501
566.8754, 793.4312
567.3575, 781.0761
567.8396, 779.9367
568.3217, 787.0253
568.8038, 789.6805
569.2859, 781.0948
569.7681, 769.9949
570.2502, 758.5218
570.7323, 749.8300
571.2144, 754.8013
571.6965, 775.8317
572.1786, 795.0718
572.6608, 790.1874
573.1429, 759.5701
573.6250, 747.1654
574.1071, 771.3829
574.5892, 790.3151
575.0714, 794.8726
575.5535, 790.7475
576.0356, 778.5825
576.5177, 760.1820
576.9998, 752.4290
577.4819, 780.3366
577.9641, 823.0548
578.4462, 834.6708
578.9283, 814.7637
579.4104, 794.9634
579.8925, 788.3751
580.3746, 792.5291
580.8567, 804.1640
581.3388, 830.5120
581.8209, 845.8276
582.3030, 842.4061
582.7852, 835.5090
583.2673, 830.6681
583.7494, 828.9357
584.2315, 831.3916
584.7136, 838.5944
585.1957, 847.5098
585.6779, 854.9281
586.1600, 860.7647
586.6421, 862.1387
587.1242, 856.2780
587.6063, 852.8155
588.0884, 860.4064
588.5706, 874.6235
589.0527, 882.0901
589.5348, 874.3357
590.0169, 875.5278
590.4990, 900.2689
590.9811, 932.7963
591.4633, 957.4844
591.9454, 973.7607
592.4275, 989.4706
592.9096, 1009.965
593.3917, 1032.752
593.8738, 1049.703
594.3560, 1058.915
594.8381, 1069.400
595.3202, 1078.928
