##NAMES=Euchroite
##RRUFFID=R050579
##IDEAL CHEMISTRY=Cu^2+^_2_As^5+^O_4_(OH)&#183;3H_2_O
##LOCALITY=Lubietova, Banskobystricky, Slovakia
##OWNER=RRUFF
##SOURCE=University of Arizona Mineral Museum
##DESCRIPTION=Green prismatic crystal
##STATUS=The identification of this mineral is confirmed by single-crystal X-ray diffraction and chemical analysis.
##URL=rruff.info/R050579
##MEASURED CHEMISTRY=Cu_2.00_((As_0.99_P_0.01_)_Σ=1_O_4_)(OH)·3H_2_O; = gray phase. The dark phase: Cu_2.00_((As_0.96_P_0.04_)_Σ=1_O_4_)(OH)·3H_2_O; light phase: olivenite: Cu_2.00_((As_0.98_P_0.02_)_Σ=1_O_4_)(OH)
91.11523, 31.54078
91.59735, 31.35745
92.07947, 31.64294
92.56158, 32.20222
93.04370, 32.41763
93.52582, 31.72143
94.00793, 30.45325
94.49006, 29.28569
94.97218, 28.21922
95.45429, 27.42238
95.93641, 27.24264
96.41853, 27.66923
96.90064, 28.26106
97.38276, 28.84628
97.86488, 29.39838
98.34699, 29.57496
98.82911, 29.16041
99.31123, 28.41534
99.79334, 28.25015
100.2755, 28.75955
100.7576, 29.52617
101.2397, 30.21227
101.7218, 30.82187
102.2039, 31.36633
102.6861, 31.86839
103.1682, 32.33071
103.6503, 32.59527
104.1324, 32.59805
104.6145, 32.47679
105.0966, 32.36106
105.5788, 32.12078
106.0609, 32.12484
106.5430, 32.58626
107.0251, 33.79536
107.5072, 34.40361
107.9893, 33.81337
108.4715, 32.77316
108.9536, 32.61811
109.4357, 33.64832
109.9178, 35.30090
110.3999, 37.48960
110.8820, 40.73515
111.3642, 43.62767
111.8463, 45.85373
112.3284, 47.66838
112.8105, 49.79580
113.2926, 52.59795
113.7747, 55.58590
114.2569, 58.46605
114.7390, 60.33677
115.2211, 63.10183
115.7032, 67.12074
116.1853, 72.36132
116.6674, 78.63163
117.1496, 86.04318
117.6317, 94.47372
118.1138, 103.7425
118.5959, 113.7928
119.0780, 124.7551
119.5602, 136.8057
120.0423, 150.0165
120.5244, 163.7473
121.0065, 177.4739
121.4886, 191.5637
121.9707, 206.5666
122.4529, 223.3239
122.9350, 240.5530
123.4171, 257.1888
123.8992, 273.1720
124.3813, 288.7461
124.8634, 304.4861
125.3456, 320.0025
125.8277, 334.4711
126.3098, 346.6069
126.7919, 357.5742
127.2740, 368.5966
127.7561, 379.5049
128.2383, 391.5596
128.7204, 405.3660
129.2025, 421.2240
129.6846, 440.7054
130.1667, 465.6086
130.6488, 494.7592
131.1310, 526.1013
131.6131, 559.3729
132.0952, 594.7312
132.5773, 633.1259
133.0594, 674.7737
133.5415, 716.9114
134.0237, 758.5293
134.5058, 799.7517
134.9879, 839.6714
135.4700, 879.0060
135.9521, 916.7216
136.4343, 950.3161
136.9164, 979.3716
137.3985, 1006.410
137.8806, 1033.772
138.3627, 1061.811
138.8448, 1088.891
139.3270, 1114.238
139.8091, 1138.473
140.2912, 1166.150
140.7733, 1197.820
141.2554, 1232.407
141.7375, 1268.383
142.2197, 1305.916
142.7018, 1345.420
143.1839, 1387.219
143.6660, 1431.214
144.1481, 1476.366
144.6302, 1522.605
145.1124, 1569.734
145.5945, 1616.343
146.0766, 1660.950
146.5587, 1708.063
147.0408, 1758.136
147.5230, 1809.729
148.0051, 1868.596
148.4872, 1927.498
148.9693, 1981.098
149.4514, 2037.213
149.9335, 2102.083
150.4157, 2163.520
150.8978, 2218.797
151.3799, 2275.662
151.8620, 2313.323
152.3441, 2329.534
152.8262, 2327.988
153.3084, 2314.661
153.7905, 2283.100
154.2726, 2246.187
154.7547, 2206.981
155.2368, 2159.751
155.7189, 2121.296
156.2011, 2091.870
156.6832, 2071.872
157.1653, 2063.575
157.6474, 2073.466
158.1295, 2090.393
158.6116, 2109.271
159.0938, 2134.259
159.5759, 2154.109
160.0580, 2170.561
160.5401, 2180.969
161.0222, 2175.922
161.5044, 2156.797
161.9865, 2119.040
162.4686, 2059.181
162.9507, 1965.976
163.4328, 1862.672
163.9149, 1751.864
164.3971, 1635.027
164.8792, 1524.910
165.3613, 1422.229
165.8434, 1330.786
166.3255, 1253.773
166.8076, 1196.185
167.2898, 1150.531
167.7719, 1113.639
168.2540, 1085.197
168.7361, 1063.021
169.2182, 1048.072
169.7003, 1037.944
170.1825, 1029.767
170.6646, 1023.254
171.1467, 1017.764
171.6288, 1012.791
172.1109, 1008.360
172.5931, 1004.338
173.0752, 1000.608
173.5573, 997.2155
174.0394, 994.2324
174.5215, 991.4081
175.0036, 989.1435
175.4858, 988.0299
175.9679, 988.0653
176.4500, 988.7093
176.9321, 988.7975
177.4142, 989.0943
177.8963, 991.3263
178.3785, 997.6271
178.8606, 1005.916
179.3427, 1012.497
179.8248, 1017.214
180.3069, 1022.084
180.7890, 1028.374
181.2712, 1036.295
181.7533, 1046.559
182.2354, 1059.975
182.7175, 1075.875
183.1996, 1092.360
183.6818, 1109.483
184.1639, 1127.680
184.6460, 1149.044
185.1281, 1172.775
185.6102, 1195.814
186.0923, 1217.158
186.5745, 1236.654
187.0566, 1253.971
187.5387, 1270.096
188.0208, 1281.261
188.5029, 1282.311
188.9850, 1273.586
189.4672, 1259.293
189.9493, 1239.814
190.4314, 1216.072
190.9135, 1191.295
191.3956, 1165.218
191.8777, 1139.542
192.3599, 1115.143
192.8420, 1092.114
193.3241, 1072.822
193.8062, 1059.799
194.2883, 1052.391
194.7704, 1044.497
195.2526, 1035.444
195.7347, 1026.404
196.2168, 1019.625
196.6989, 1015.193
197.1810, 1011.689
197.6632, 1007.960
198.1453, 1003.967
198.6274, 1002.252
199.1095, 1003.085
199.5916, 1006.046
200.0737, 1010.418
200.5559, 1016.299
201.0380, 1023.100
201.5201, 1030.062
202.0022, 1037.092
202.4843, 1046.875
202.9664, 1059.987
203.4486, 1075.525
203.9307, 1091.491
204.4128, 1107.637
204.8949, 1124.658
205.3770, 1142.723
205.8591, 1161.727
206.3413, 1182.633
206.8234, 1205.833
207.3055, 1230.676
207.7876, 1255.951
208.2697, 1281.917
208.7519, 1306.908
209.2340, 1330.914
209.7161, 1354.682
210.1982, 1373.923
210.6803, 1389.233
211.1624, 1399.431
211.6446, 1401.377
212.1267, 1395.027
212.6088, 1380.581
213.0909, 1357.343
213.5730, 1324.030
214.0551, 1286.636
214.5373, 1243.876
215.0194, 1198.026
215.5015, 1153.950
215.9836, 1110.751
216.4657, 1070.807
216.9478, 1034.500
217.4300, 1001.768
217.9121, 972.7348
218.3942, 947.9211
218.8763, 926.7821
219.3584, 908.0689
219.8405, 891.7790
220.3227, 878.1138
220.8048, 867.3180
221.2869, 859.6702
221.7690, 853.8469
222.2511, 850.0134
222.7333, 847.9395
223.2154, 847.0689
223.6975, 847.3672
224.1796, 848.9422
224.6617, 852.0584
225.1438, 857.4198
225.6260, 862.4558
226.1081, 866.8427
226.5902, 870.9600
227.0723, 875.6132
227.5544, 880.5599
228.0365, 886.5456
228.5187, 894.2257
229.0008, 904.8884
229.4829, 913.9713
229.9650, 920.8461
230.4471, 926.3014
230.9292, 932.5331
231.4114, 940.0689
231.8935, 947.6504
232.3756, 954.7149
232.8577, 961.5573
233.3398, 967.3724
233.8220, 971.9797
234.3041, 975.6143
234.7862, 978.7502
235.2683, 981.4510
235.7504, 983.5569
236.2325, 984.6582
236.7147, 983.3322
237.1968, 984.7297
237.6789, 989.3014
238.1610, 996.4583
238.6431, 1004.832
239.1252, 1014.241
239.6074, 1025.373
240.0895, 1038.720
240.5716, 1054.714
241.0537, 1071.402
241.5358, 1089.114
242.0179, 1107.369
242.5001, 1125.417
242.9822, 1144.084
243.4643, 1161.164
243.9464, 1175.821
244.4285, 1187.768
244.9106, 1198.504
245.3928, 1209.757
245.8749, 1218.800
246.3570, 1220.708
246.8391, 1213.687
247.3212, 1202.544
247.8034, 1188.693
248.2855, 1172.114
248.7676, 1152.468
249.2497, 1128.530
249.7318, 1102.334
250.2139, 1076.698
250.6961, 1050.943
251.1782, 1026.954
251.6603, 1005.020
252.1424, 985.0346
252.6245, 967.4462
253.1066, 952.1786
253.5888, 939.2376
254.0709, 928.4781
254.5530, 920.1641
255.0351, 913.4287
255.5172, 907.8826
255.9993, 903.3287
256.4815, 901.7992
256.9636, 904.2479
257.4457, 908.6962
257.9278, 912.5573
258.4099, 914.2823
258.8921, 919.1854
259.3742, 929.9725
259.8563, 946.7055
260.3384, 958.7852
260.8205, 964.3828
261.3026, 967.6033
261.7848, 972.7433
262.2669, 980.8406
262.7490, 987.8286
263.2311, 992.5501
263.7132, 995.1887
264.1953, 998.2274
264.6775, 1001.615
265.1596, 1005.450
265.6417, 1010.239
266.1238, 1016.762
266.6059, 1021.322
267.0880, 1022.447
267.5702, 1020.884
268.0523, 1021.840
268.5344, 1026.104
269.0165, 1031.311
269.4986, 1035.680
269.9807, 1039.003
270.4629, 1042.557
270.9450, 1046.383
271.4271, 1050.603
271.9092, 1055.515
272.3913, 1061.089
272.8734, 1067.434
273.3556, 1074.846
273.8377, 1083.509
274.3198, 1091.705
274.8019, 1098.848
275.2840, 1105.812
275.7661, 1115.550
276.2483, 1128.650
276.7304, 1141.964
277.2125, 1153.127
277.6946, 1161.994
278.1768, 1171.848
278.6589, 1183.216
279.1410, 1195.248
279.6231, 1206.560
280.1052, 1217.406
280.5873, 1226.602
281.0695, 1233.630
281.5516, 1238.537
282.0337, 1241.138
282.5158, 1241.436
282.9979, 1239.426
283.4800, 1234.555
283.9622, 1226.714
284.4443, 1218.192
284.9264, 1210.883
285.4085, 1204.313
285.8906, 1193.241
286.3727, 1177.110
286.8549, 1158.429
287.3370, 1140.054
287.8191, 1121.961
288.3012, 1103.657
288.7833, 1085.064
289.2654, 1066.305
289.7476, 1047.558
290.2297, 1028.881
290.7118, 1009.864
291.1939, 988.9215
291.6760, 966.8414
292.1581, 947.2926
292.6403, 931.9962
293.1224, 919.6888
293.6045, 907.1940
294.0866, 894.6185
294.5687, 882.3130
295.0508, 870.8060
295.5330, 859.8419
296.0151, 848.7814
296.4972, 837.3047
296.9793, 825.6212
297.4614, 814.2526
297.9435, 803.1338
298.4257, 792.5605
298.9078, 783.2900
299.3899, 774.7155
299.8720, 765.8334
300.3541, 756.4229
300.8362, 746.5006
301.3184, 735.5618
301.8005, 723.8486
302.2826, 712.8289
302.7647, 703.5219
303.2469, 695.3221
303.7290, 687.0668
304.2111, 678.5731
304.6932, 670.4748
305.1753, 663.8895
305.6574, 658.3107
306.1396, 652.8065
306.6217, 646.2695
307.1038, 639.8254
307.5859, 634.7354
308.0680, 631.1028
308.5501, 628.0886
309.0323, 625.0458
309.5144, 622.1908
309.9965, 619.8781
310.4786, 618.6426
310.9607, 617.7014
311.4428, 616.4630
311.9250, 614.9340
312.4071, 613.4303
312.8892, 611.8303
313.3713, 610.5069
313.8534, 609.8468
314.3355, 610.0399
314.8177, 610.8898
315.2998, 612.5850
315.7819, 614.9719
316.2640, 617.2883
316.7461, 619.2261
317.2282, 620.9104
317.7104, 622.3814
318.1925, 623.0256
318.6746, 624.3738
319.1567, 627.3402
319.6388, 631.4583
320.1209, 635.4114
320.6031, 637.8644
321.0852, 640.7375
321.5673, 645.2191
322.0494, 652.2941
322.5315, 659.0360
323.0136, 664.5514
323.4958, 669.4197
323.9779, 674.5800
324.4600, 679.8990
324.9421, 685.8400
325.4242, 692.5905
325.9064, 700.3295
326.3885, 708.2851
326.8706, 716.6354
327.3527, 725.0682
327.8348, 733.3618
328.3170, 740.5894
328.7991, 748.7063
329.2812, 758.2037
329.7633, 769.1572
330.2454, 779.8089
330.7275, 789.2473
331.2097, 798.9694
331.6918, 810.0589
332.1739, 823.5365
332.6560, 836.7430
333.1381, 848.8060
333.6202, 860.1960
334.1024, 872.9828
334.5845, 888.1901
335.0666, 903.0266
335.5487, 915.6913
336.0308, 924.6511
336.5129, 935.6077
336.9951, 949.2863
337.4772, 964.6141
337.9593, 980.1867
338.4414, 996.3482
338.9235, 1011.995
339.4056, 1027.136
339.8878, 1041.760
340.3699, 1054.323
340.8520, 1064.358
341.3341, 1073.347
341.8162, 1083.563
342.2983, 1095.013
342.7805, 1106.791
343.2626, 1119.286
343.7447, 1131.897
344.2268, 1140.221
344.7089, 1143.782
345.1910, 1146.183
345.6732, 1150.715
346.1553, 1157.173
346.6374, 1163.638
347.1195, 1170.009
347.6016, 1175.916
348.0837, 1180.198
348.5659, 1183.005
349.0480, 1186.109
349.5301, 1190.609
350.0122, 1196.358
350.4944, 1203.058
350.9765, 1210.933
351.4586, 1218.901
351.9407, 1225.362
352.4228, 1230.674
352.9049, 1235.989
353.3871, 1242.703
353.8692, 1249.418
354.3513, 1254.475
354.8334, 1257.793
355.3155, 1259.314
355.7976, 1259.268
356.2798, 1257.328
356.7619, 1252.971
357.2440, 1245.133
357.7261, 1235.499
358.2082, 1225.282
358.6903, 1214.381
359.1725, 1202.183
359.6546, 1187.228
360.1367, 1171.352
360.6188, 1156.174
361.1009, 1141.772
361.5830, 1128.892
362.0652, 1117.581
362.5473, 1108.042
363.0294, 1100.773
363.5115, 1096.863
363.9936, 1094.557
364.4757, 1092.846
364.9579, 1091.141
365.4400, 1091.566
365.9221, 1095.226
366.4042, 1101.043
366.8863, 1107.646
367.3684, 1113.643
367.8506, 1121.652
368.3327, 1132.473
368.8148, 1146.206
369.2969, 1161.407
369.7790, 1178.030
370.2611, 1196.201
370.7433, 1216.224
371.2254, 1239.594
371.7075, 1262.020
372.1896, 1282.180
372.6717, 1301.122
373.1538, 1322.833
373.6360, 1347.998
374.1181, 1374.704
374.6002, 1401.643
375.0823, 1428.536
375.5645, 1457.268
376.0466, 1487.759
376.5287, 1519.772
377.0108, 1553.081
377.4929, 1587.173
377.9750, 1622.323
378.4572, 1658.744
378.9393, 1696.302
379.4214, 1732.414
379.9035, 1766.831
380.3856, 1799.649
380.8677, 1830.645
381.3499, 1859.796
381.8320, 1886.911
382.3141, 1912.905
382.7962, 1936.058
383.2783, 1953.994
383.7604, 1966.539
384.2426, 1972.914
384.7247, 1972.856
385.2068, 1966.247
385.6889, 1952.388
386.1710, 1930.859
386.6531, 1903.779
387.1353, 1872.157
387.6174, 1836.498
388.0995, 1797.981
388.5816, 1754.966
389.0637, 1710.325
389.5458, 1666.606
390.0280, 1623.476
390.5101, 1579.597
390.9922, 1532.197
391.4743, 1484.384
391.9564, 1438.946
392.4385, 1396.852
392.9207, 1357.603
393.4028, 1321.877
393.8849, 1289.239
394.3670, 1258.199
394.8491, 1228.442
395.3312, 1200.275
395.8134, 1173.834
396.2955, 1149.077
396.7776, 1126.094
397.2597, 1104.182
397.7418, 1084.511
398.2239, 1068.491
398.7061, 1061.046
399.1882, 1052.637
399.6703, 1040.255
400.1524, 1023.623
400.6346, 1009.224
401.1167, 997.4846
401.5988, 987.7568
402.0809, 979.7758
402.5630, 974.2914
403.0451, 969.0656
403.5273, 964.0114
404.0094, 959.1215
404.4915, 954.2410
404.9736, 948.8291
405.4557, 944.6992
405.9378, 943.1002
406.4200, 944.3544
406.9021, 944.2177
407.3842, 942.4207
407.8663, 939.8835
408.3484, 937.4035
408.8305, 934.9667
409.3127, 933.7784
409.7948, 934.9333
410.2769, 937.1575
410.7590, 936.4998
411.2411, 932.9548
411.7232, 929.1465
412.2054, 926.6698
412.6875, 925.4410
413.1696, 925.4860
413.6517, 927.0655
414.1338, 929.0212
414.6159, 930.1048
415.0981, 930.4669
415.5802, 930.5123
416.0623, 929.3687
416.5444, 928.6033
417.0265, 930.4454
417.5086, 934.9124
417.9908, 938.8469
418.4729, 938.0017
418.9550, 936.4466
419.4371, 938.7118
419.9192, 950.2584
420.4013, 960.7832
420.8835, 964.1697
421.3656, 962.8316
421.8477, 964.0910
422.3298, 972.2199
422.8119, 981.7283
423.2940, 990.2479
423.7762, 997.1821
424.2583, 1004.067
424.7404, 1010.225
425.2225, 1016.679
425.7047, 1024.760
426.1868, 1034.987
426.6689, 1046.075
427.1510, 1058.313
427.6331, 1071.513
428.1152, 1083.934
428.5974, 1095.215
429.0795, 1106.496
429.5616, 1118.667
430.0437, 1131.921
430.5258, 1145.158
431.0079, 1158.529
431.4901, 1171.460
431.9722, 1182.314
432.4543, 1190.721
432.9364, 1200.429
433.4185, 1213.532
433.9006, 1229.035
434.3828, 1241.738
434.8649, 1251.433
435.3470, 1260.895
435.8291, 1274.156
436.3112, 1289.504
436.7933, 1300.758
437.2755, 1305.797
437.7576, 1308.501
438.2397, 1313.433
438.7218, 1320.059
439.2039, 1326.550
439.6860, 1331.377
440.1682, 1335.921
440.6503, 1341.991
441.1324, 1349.835
441.6145, 1356.583
442.0966, 1360.472
442.5787, 1362.332
443.0609, 1363.057
443.5430, 1363.289
444.0251, 1361.969
444.5072, 1358.089
444.9893, 1352.179
445.4714, 1346.181
445.9536, 1341.366
446.4357, 1335.835
446.9178, 1328.875
447.3999, 1320.511
447.8820, 1310.472
448.3641, 1297.784
448.8463, 1284.029
449.3284, 1270.716
449.8105, 1258.603
450.2926, 1245.764
450.7747, 1231.163
451.2569, 1215.370
451.7390, 1202.481
452.2211, 1192.933
452.7032, 1184.812
453.1853, 1177.132
453.6674, 1169.810
454.1496, 1162.775
454.6317, 1155.813
455.1138, 1149.452
455.5959, 1144.460
456.0780, 1140.778
456.5602, 1138.375
457.0423, 1137.707
457.5244, 1138.017
458.0065, 1137.500
458.4886, 1136.305
458.9707, 1135.882
459.4529, 1137.897
459.9350, 1141.234
460.4171, 1144.055
460.8992, 1145.941
461.3813, 1148.004
461.8634, 1150.830
462.3456, 1154.479
462.8277, 1158.976
463.3098, 1164.984
463.7919, 1171.328
464.2740, 1177.410
464.7561, 1183.228
465.2383, 1189.180
465.7204, 1195.936
466.2025, 1202.463
466.6846, 1207.972
467.1667, 1211.148
467.6488, 1215.229
468.1310, 1221.016
468.6131, 1227.634
469.0952, 1233.942
469.5773, 1240.525
470.0594, 1245.840
470.5415, 1249.564
471.0237, 1251.692
471.5058, 1252.497
471.9879, 1251.839
472.4700, 1250.191
472.9521, 1248.157
473.4342, 1245.815
473.9164, 1241.589
474.3985, 1235.138
474.8806, 1227.082
475.3627, 1218.736
475.8448, 1209.951
476.3270, 1199.060
476.8091, 1184.667
477.2912, 1168.081
477.7733, 1152.274
478.2554, 1137.121
478.7375, 1120.729
479.2197, 1101.198
479.7018, 1079.628
480.1839, 1057.513
480.6660, 1034.890
481.1481, 1012.717
481.6302, 991.5604
482.1124, 971.3354
482.5945, 951.8972
483.0766, 933.7925
483.5587, 915.8370
484.0408, 897.4291
484.5229, 878.6659
485.0051, 860.6545
485.4872, 843.3700
485.9693, 827.0120
486.4514, 811.9445
486.9335, 799.0687
487.4156, 785.6813
487.8978, 771.0756
488.3799, 756.3968
488.8620, 743.0103
489.3441, 731.2250
489.8262, 719.9068
490.3083, 708.6882
490.7905, 697.5711
491.2726, 686.9235
491.7547, 676.6661
492.2368, 666.9124
492.7189, 658.1300
493.2010, 650.0965
493.6832, 642.1106
494.1653, 633.9987
494.6474, 626.0419
495.1295, 618.1776
495.6116, 610.6140
496.0938, 603.9014
496.5759, 598.4135
497.0580, 593.7333
497.5401, 589.9614
498.0222, 586.8438
498.5044, 583.2783
498.9865, 577.5828
499.4686, 571.7981
499.9507, 567.7487
500.4328, 566.1790
500.9149, 564.4932
501.3971, 561.6302
501.8792, 558.2410
502.3613, 555.0788
502.8434, 551.3088
503.3255, 548.8295
503.8076, 548.7796
504.2898, 550.4832
504.7719, 550.7872
505.2540, 548.9821
505.7361, 546.7949
506.2182, 544.6387
506.7003, 542.2860
507.1825, 541.9070
507.6646, 544.3139
508.1467, 546.9610
508.6288, 546.6891
509.1109, 543.5161
509.5930, 540.6780
510.0752, 538.7435
510.5573, 537.6091
511.0394, 537.4986
511.5215, 538.2253
512.0037, 538.5831
512.4858, 537.1877
512.9679, 535.3367
513.4500, 535.1809
513.9321, 536.7630
514.4142, 538.2101
514.8964, 537.9018
515.3785, 536.9045
515.8606, 536.4246
516.3427, 537.2526
516.8248, 537.7169
517.3069, 536.9396
517.7891, 535.3810
518.2712, 533.8911
518.7533, 532.8811
519.2354, 531.7405
519.7175, 530.3971
520.1996, 528.8497
520.6818, 526.7490
521.1639, 523.5173
521.6460, 520.4379
522.1281, 518.4644
522.6102, 518.1037
523.0923, 516.7154
523.5745, 513.8758
524.0566, 510.5922
524.5387, 508.4011
525.0208, 507.2896
525.5029, 506.0150
525.9850, 503.7208
526.4672, 501.4761
526.9493, 502.8490
527.4314, 507.2702
527.9135, 509.6732
528.3956, 504.9554
528.8777, 497.1898
529.3599, 492.0837
529.8420, 490.1945
530.3241, 488.9343
530.8062, 486.6328
531.2883, 483.9502
531.7704, 481.6731
532.2526, 479.9364
532.7347, 478.6728
533.2168, 478.1518
533.6989, 478.0811
534.1810, 477.7587
534.6631, 477.0038
535.1453, 476.0647
535.6274, 474.9953
536.1095, 473.7803
536.5916, 472.5670
537.0737, 471.3292
537.5558, 470.1139
538.0380, 468.8931
538.5201, 467.6021
539.0022, 466.6766
539.4843, 466.1777
539.9664, 465.9756
540.4485, 466.1493
540.9307, 466.5988
541.4128, 466.4549
541.8949, 465.1645
542.3770, 463.3771
542.8591, 461.9708
543.3412, 460.9585
543.8234, 460.3205
544.3055, 460.5075
544.7876, 460.7829
545.2697, 460.3663
545.7518, 459.1391
546.2339, 457.8169
546.7161, 456.2569
547.1982, 455.0298
547.6803, 454.6259
548.1624, 456.3275
548.6445, 457.3909
549.1266, 457.1284
549.6088, 456.0492
550.0909, 455.2039
550.5730, 455.0903
551.0551, 454.4046
551.5372, 452.5489
552.0193, 449.7114
552.5015, 447.8383
552.9836, 447.0598
553.4657, 446.7889
553.9478, 446.8127
554.4299, 447.0788
554.9120, 447.0595
555.3942, 446.7021
555.8763, 446.1461
556.3584, 445.5684
556.8405, 444.9102
557.3226, 443.9305
557.8047, 442.0457
558.2869, 440.5673
558.7690, 441.2228
559.2511, 443.2755
559.7332, 444.8625
560.2154, 444.1576
560.6975, 443.6242
561.1796, 445.3280
561.6617, 449.4280
562.1439, 451.3373
562.6260, 446.9763
563.1081, 442.5698
563.5902, 441.9818
564.0723, 448.7567
564.5544, 451.6200
565.0366, 448.9560
565.5187, 443.9871
566.0008, 441.1007
566.4829, 440.6134
566.9650, 440.3319
567.4471, 439.8881
567.9293, 439.2452
568.4114, 438.0165
568.8935, 436.2730
569.3756, 435.1593
569.8577, 436.1029
570.3398, 437.8417
570.8220, 437.8853
571.3041, 436.2611
571.7862, 434.6644
572.2683, 434.3355
572.7504, 434.5935
573.2325, 434.7742
573.7147, 434.7359
574.1968, 434.6529
574.6789, 434.5519
575.1610, 434.4631
575.6431, 434.4232
576.1252, 434.6859
576.6074, 434.7112
577.0895, 434.4133
577.5716, 433.8307
578.0537, 433.0280
578.5358, 431.7927
579.0179, 430.8395
579.5001, 430.5225
579.9822, 430.7973
580.4643, 431.0410
580.9464, 431.2573
581.4285, 431.3991
581.9106, 431.1338
582.3928, 430.7368
582.8749, 431.3304
