##NAMES=Euclase
##RRUFFID=R050032
##IDEAL CHEMISTRY=BeAlSiO_4_(OH)
##LOCALITY=Minas Gerais, Brazil
##OWNER=RRUFF
##SOURCE=University of Arizona Mineral Museum
##DESCRIPTION=Colorless crystal fragments
##STATUS=The identification of this mineral has been confirmed by X-ray diffraction and chemical analysis
##URL=rruff.info/R050032
##MEASURED CHEMISTRY=Be_1.00_Al_1.00_Si_1.00_O_4_(OH)
130.3772, 228.2397
130.8593, 237.9000
131.3414, 248.8576
131.8235, 260.0765
132.3056, 271.4304
132.7877, 283.1253
133.2699, 295.4205
133.7520, 308.3867
134.2341, 321.6002
134.7162, 334.5099
135.1983, 347.1648
135.6804, 361.3391
136.1626, 376.7810
136.6447, 393.8506
137.1268, 413.7307
137.6089, 436.9409
138.0910, 460.6220
138.5731, 482.7649
139.0553, 503.3186
139.5374, 523.6498
140.0195, 543.1844
140.5016, 562.6202
140.9837, 582.6385
141.4658, 599.6443
141.9480, 623.1943
142.4301, 660.7938
142.9122, 719.0617
143.3943, 778.2345
143.8764, 844.8654
144.3585, 917.6093
144.8407, 954.6072
145.3228, 948.8051
145.8049, 912.1953
146.2870, 853.5569
146.7691, 750.3068
147.2512, 655.4954
147.7334, 577.9855
148.2155, 517.1772
148.6976, 473.5350
149.1797, 455.5449
149.6618, 452.2914
150.1439, 449.4120
150.6261, 445.1387
151.1082, 442.8607
151.5903, 444.1014
152.0724, 451.4991
152.5545, 456.5099
153.0366, 454.8923
153.5188, 450.5888
154.0009, 451.3438
154.4830, 467.4652
154.9651, 482.0373
155.4472, 487.2717
155.9293, 475.1758
156.4115, 464.0620
156.8936, 457.1784
157.3757, 453.9793
157.8578, 452.4012
158.3399, 450.6869
158.8221, 451.0829
159.3042, 455.0522
159.7863, 467.6029
160.2684, 479.2212
160.7505, 484.2770
161.2326, 484.0763
161.7148, 488.3922
162.1969, 505.2175
162.6790, 527.1282
163.1611, 546.7302
163.6432, 563.3561
164.1253, 575.8713
164.6075, 582.3334
165.0896, 582.6250
165.5717, 582.1490
166.0538, 581.1984
166.5359, 581.8658
167.0180, 587.0750
167.5002, 599.7305
167.9823, 616.3338
168.4644, 633.7879
168.9465, 651.4895
169.4286, 672.6682
169.9107, 702.6721
170.3929, 737.9120
170.8750, 771.6252
171.3571, 795.8140
171.8392, 818.2906
172.3213, 845.5567
172.8034, 876.3773
173.2856, 917.8112
173.7677, 981.1755
174.2498, 1062.425
174.7319, 1146.360
175.2140, 1210.926
175.6961, 1275.258
176.1783, 1362.049
176.6604, 1460.992
177.1425, 1607.608
177.6246, 1880.391
178.1067, 2259.652
178.5888, 2636.293
179.0710, 3052.726
179.5531, 3404.213
180.0352, 3413.996
180.5173, 2891.715
180.9994, 2124.008
181.4815, 1547.300
181.9637, 1154.738
182.4458, 889.4971
182.9279, 735.7576
183.4100, 675.6420
183.8921, 639.6730
184.3742, 615.1275
184.8564, 598.7622
185.3385, 583.6932
185.8206, 569.6370
186.3027, 558.7516
186.7848, 554.3300
187.2669, 555.7013
187.7491, 557.5114
188.2312, 557.4428
188.7133, 556.3380
189.1954, 558.2465
189.6775, 563.8932
190.1596, 569.2379
190.6418, 567.5450
191.1239, 559.0582
191.6060, 553.3128
192.0881, 555.3876
192.5702, 564.3535
193.0524, 572.5789
193.5345, 580.3807
194.0166, 586.5909
194.4987, 588.9760
194.9808, 587.3925
195.4629, 584.1296
195.9451, 580.0078
196.4272, 574.9852
196.9093, 568.7223
197.3914, 559.8159
197.8735, 551.8571
198.3556, 553.5576
198.8378, 566.5435
199.3199, 578.7802
199.8020, 581.9330
200.2841, 575.0269
200.7662, 574.2144
201.2483, 583.0116
201.7305, 596.0330
202.2126, 598.1827
202.6947, 586.3635
203.1768, 575.2344
203.6589, 575.6112
204.1410, 589.8594
204.6232, 598.2760
205.1053, 597.2657
205.5874, 590.1266
206.0695, 588.4526
206.5516, 594.1368
207.0337, 600.3152
207.5159, 600.8345
207.9980, 593.2570
208.4801, 592.0454
208.9622, 601.1193
209.4443, 617.8676
209.9264, 629.4143
210.4086, 634.6862
210.8907, 636.9169
211.3728, 638.3706
211.8549, 639.0969
212.3370, 638.6221
212.8191, 635.5032
213.3013, 630.6279
213.7834, 631.7385
214.2655, 640.5310
214.7476, 652.6332
215.2297, 663.5358
215.7118, 671.1292
216.1940, 683.4391
216.6761, 700.3926
217.1582, 722.3114
217.6403, 757.0562
218.1224, 808.4827
218.6045, 866.9987
219.0867, 924.9050
219.5688, 984.2365
220.0509, 1036.873
220.5330, 1078.189
221.0151, 1108.416
221.4972, 1141.224
221.9794, 1174.529
222.4615, 1213.028
222.9436, 1262.802
223.4257, 1327.441
223.9078, 1396.532
224.3899, 1463.938
224.8721, 1528.889
225.3542, 1613.260
225.8363, 1718.107
226.3184, 1841.957
226.8005, 1985.415
227.2827, 2148.314
227.7648, 2329.551
228.2469, 2528.062
228.7290, 2742.110
229.2111, 2977.763
229.6932, 3222.873
230.1754, 3496.506
230.6575, 3818.969
231.1396, 4152.066
231.6217, 4599.454
232.1038, 5194.825
232.5859, 5950.485
233.0681, 6835.752
233.5502, 8107.533
234.0323, 9322.490
234.5144, 9838.632
234.9965, 9476.951
235.4786, 8695.861
235.9608, 7508.305
236.4429, 5767.229
236.9250, 4372.889
237.4071, 3392.502
237.8892, 2728.979
238.3713, 2243.867
238.8535, 1983.543
239.3356, 1824.992
239.8177, 1738.712
240.2998, 1735.335
240.7819, 1766.306
241.2640, 1846.008
241.7462, 1952.163
242.2283, 2045.740
242.7104, 2114.001
243.1925, 2190.625
243.6746, 2287.045
244.1567, 2407.388
244.6389, 2535.087
245.1210, 2667.546
245.6031, 2808.459
246.0852, 2960.989
246.5673, 3115.014
247.0494, 3297.695
247.5316, 3515.267
248.0137, 3761.957
248.4958, 4064.444
248.9779, 4420.516
249.4600, 4832.571
249.9421, 5297.857
250.4243, 5827.634
250.9064, 6395.196
251.3885, 6984.747
251.8706, 7581.750
252.3527, 8249.842
252.8348, 8943.633
253.3170, 9733.254
253.7991, 10753.41
254.2812, 12018.33
254.7633, 13469.59
255.2454, 15214.62
255.7275, 17495.39
256.2097, 19164.17
256.6918, 20352.96
257.1739, 20822.90
257.6560, 19995.12
258.1381, 17368.49
258.6202, 14461.14
259.1024, 11709.92
259.5845, 9053.378
260.0666, 6928.602
260.5487, 5409.825
261.0308, 4372.697
261.5129, 3559.915
261.9951, 3020.425
262.4772, 2605.845
262.9593, 2277.225
263.4414, 2042.341
263.9235, 1845.829
264.4056, 1691.563
264.8878, 1569.980
265.3699, 1460.381
265.8520, 1359.486
266.3341, 1277.365
266.8162, 1220.279
267.2983, 1192.500
267.7805, 1164.658
268.2626, 1133.877
268.7447, 1106.551
269.2268, 1094.825
269.7089, 1101.447
270.1910, 1113.810
270.6732, 1127.834
271.1553, 1143.452
271.6374, 1160.817
272.1195, 1179.835
272.6016, 1200.780
273.0837, 1223.568
273.5659, 1248.427
274.0480, 1274.312
274.5301, 1299.462
275.0122, 1323.473
275.4943, 1354.808
275.9764, 1391.644
276.4586, 1439.238
276.9407, 1506.649
277.4228, 1593.772
277.9049, 1693.135
278.3870, 1799.512
278.8691, 1913.386
279.3513, 2048.417
279.8334, 2208.132
280.3155, 2379.936
280.7976, 2540.650
281.2798, 2687.295
281.7619, 2858.839
282.2440, 3059.672
282.7261, 3293.863
283.2082, 3600.761
283.6903, 3988.767
284.1725, 4418.604
284.6546, 4908.118
285.1367, 5445.167
285.6188, 5820.359
286.1009, 5979.519
286.5830, 5918.185
287.0652, 5557.606
287.5473, 4868.452
288.0294, 4075.491
288.5115, 3383.225
288.9936, 2789.782
289.4757, 2304.320
289.9579, 1937.231
290.4400, 1675.199
290.9221, 1485.438
291.4042, 1370.841
291.8863, 1292.435
292.3684, 1216.131
292.8506, 1144.194
293.3327, 1085.333
293.8148, 1044.813
294.2969, 1017.162
294.7790, 992.4937
295.2611, 970.7173
295.7433, 950.2292
296.2254, 930.0840
296.7075, 909.8000
297.1896, 888.7381
297.6717, 865.5316
298.1538, 841.9182
298.6360, 818.7233
299.1181, 796.1973
299.6002, 779.7890
300.0823, 778.3286
300.5644, 785.2618
301.0465, 787.8598
301.5287, 780.7230
302.0108, 770.5124
302.4929, 765.0970
302.9750, 763.6470
303.4571, 761.7113
303.9392, 755.3477
304.4214, 746.9470
304.9035, 739.1391
305.3856, 731.2845
305.8677, 726.5345
306.3498, 731.4499
306.8319, 743.0041
307.3141, 750.5858
307.7962, 744.5141
308.2783, 732.9429
308.7604, 723.6206
309.2425, 718.5615
309.7246, 715.3511
310.2068, 712.1185
310.6889, 709.4866
311.1710, 709.0076
311.6531, 714.5552
312.1352, 720.6365
312.6173, 723.0499
313.0995, 720.4450
313.5816, 716.0864
314.0637, 709.2382
314.5458, 701.8083
315.0279, 697.3155
315.5100, 699.1824
315.9922, 702.7782
316.4743, 705.6134
316.9564, 707.0864
317.4385, 709.1019
317.9206, 716.0977
318.4027, 723.1500
318.8849, 723.3778
319.3670, 704.1238
319.8491, 687.2383
320.3312, 681.6727
320.8133, 689.7009
321.2954, 699.1866
321.7776, 713.5357
322.2597, 726.0515
322.7418, 729.5966
323.2239, 709.7587
323.7060, 694.2170
324.1881, 691.3253
324.6703, 702.4921
325.1524, 711.3091
325.6345, 716.3591
326.1166, 718.7042
326.5987, 719.2224
327.0808, 716.2748
327.5630, 713.4281
328.0451, 710.6332
328.5272, 707.9614
329.0093, 706.9882
329.4914, 708.2023
329.9735, 710.6774
330.4557, 713.8314
330.9378, 717.6015
331.4199, 722.3540
331.9020, 729.5305
332.3841, 737.9688
332.8662, 741.0614
333.3484, 733.9655
333.8305, 728.8246
334.3126, 733.2628
334.7947, 751.1533
335.2768, 766.5966
335.7589, 778.7341
336.2411, 788.0068
336.7232, 795.9611
337.2053, 802.8665
337.6874, 807.4808
338.1695, 807.5013
338.6516, 801.7097
339.1338, 802.6852
339.6159, 812.3041
340.0980, 826.0863
340.5801, 835.7947
341.0622, 840.9662
341.5443, 847.4003
342.0265, 855.8279
342.5086, 866.7878
342.9907, 886.9339
343.4728, 916.8547
343.9549, 953.0151
344.4370, 993.5820
344.9192, 1037.621
345.4013, 1077.861
345.8834, 1107.308
346.3655, 1131.821
346.8476, 1164.473
347.3297, 1205.059
347.8119, 1254.325
348.2940, 1310.959
348.7761, 1376.520
349.2582, 1453.946
349.7403, 1546.070
350.2225, 1650.319
350.7046, 1783.506
351.1867, 1939.137
351.6688, 2057.731
352.1509, 2099.387
352.6331, 2076.376
353.1152, 2001.192
353.5973, 1860.208
354.0794, 1698.681
354.5615, 1542.016
355.0436, 1394.818
355.5258, 1271.103
356.0079, 1186.675
356.4900, 1124.611
356.9721, 1070.283
357.4542, 1020.397
357.9363, 981.8205
358.4185, 963.3457
358.9006, 958.2704
359.3827, 954.9982
359.8648, 948.6926
360.3469, 943.2778
360.8290, 939.7531
361.3112, 937.7139
361.7933, 941.4269
362.2754, 956.9061
362.7575, 977.0786
363.2396, 994.3294
363.7217, 999.1175
364.2039, 1008.412
364.6860, 1027.227
365.1681, 1055.839
365.6502, 1087.332
366.1323, 1124.014
366.6144, 1161.669
367.0966, 1197.478
367.5787, 1224.237
368.0608, 1257.436
368.5429, 1299.257
369.0250, 1348.871
369.5071, 1400.618
369.9893, 1451.856
370.4714, 1507.970
370.9535, 1571.796
371.4356, 1643.815
371.9177, 1720.559
372.3998, 1800.096
372.8820, 1885.698
373.3641, 1984.963
373.8462, 2101.792
374.3283, 2221.126
374.8104, 2329.850
375.2925, 2425.308
375.7747, 2553.589
376.2568, 2718.280
376.7389, 2910.740
377.2210, 3126.702
377.7031, 3368.598
378.1852, 3600.323
378.6674, 3827.413
379.1495, 4035.187
379.6316, 4178.250
380.1137, 4257.463
380.5958, 4253.206
381.0779, 4116.487
381.5601, 3867.194
382.0422, 3611.385
382.5243, 3356.837
383.0064, 3120.722
383.4885, 2919.913
383.9706, 2755.361
384.4528, 2647.757
384.9349, 2627.998
385.4170, 2669.103
385.8991, 2725.168
386.3812, 2788.130
386.8633, 2871.479
387.3455, 2993.906
387.8276, 3146.188
388.3097, 3309.729
388.7918, 3454.021
389.2739, 3617.854
389.7560, 3830.148
390.2382, 4093.428
390.7203, 4401.661
391.2024, 4742.803
391.6845, 5128.367
392.1666, 5576.772
392.6487, 6194.836
393.1309, 6780.221
393.6130, 7335.660
394.0951, 7839.567
394.5772, 8039.333
395.0593, 7778.763
395.5414, 7252.664
396.0236, 6583.282
396.5057, 5581.422
396.9878, 4677.985
397.4699, 3911.770
397.9520, 3276.235
398.4341, 2755.771
398.9163, 2385.555
399.3984, 2094.929
399.8805, 1864.488
400.3626, 1705.608
400.8447, 1574.596
401.3268, 1477.891
401.8090, 1404.484
402.2911, 1337.545
402.7732, 1276.512
403.2553, 1225.271
403.7374, 1186.244
404.2195, 1158.941
404.7017, 1135.162
405.1838, 1115.627
405.6659, 1097.440
406.1480, 1076.341
406.6301, 1052.086
407.1122, 1035.010
407.5944, 1029.348
408.0765, 1029.433
408.5586, 1020.519
409.0407, 1002.766
409.5228, 986.2616
410.0049, 977.1545
410.4871, 974.5554
410.9692, 976.6379
411.4513, 983.8656
411.9334, 993.2488
412.4155, 1002.914
412.8976, 1012.324
413.3798, 1019.613
413.8619, 1021.406
414.3440, 1022.281
414.8261, 1028.261
415.3082, 1039.452
415.7903, 1049.197
416.2725, 1046.354
416.7546, 1042.259
417.2367, 1050.036
417.7188, 1083.194
418.2009, 1118.533
418.6830, 1145.075
419.1652, 1164.963
419.6473, 1185.006
420.1294, 1208.366
420.6115, 1232.035
421.0937, 1256.216
421.5758, 1286.452
422.0579, 1304.086
422.5400, 1302.309
423.0221, 1287.497
423.5042, 1269.816
423.9864, 1243.101
424.4685, 1221.040
424.9506, 1205.937
425.4327, 1197.991
425.9148, 1196.737
426.3969, 1199.852
426.8791, 1212.260
427.3612, 1240.043
427.8433, 1288.269
428.3254, 1334.828
428.8075, 1373.245
429.2896, 1409.209
429.7718, 1462.275
430.2539, 1534.384
430.7360, 1613.209
431.2181, 1686.935
431.7002, 1757.137
432.1823, 1846.903
432.6645, 1957.835
433.1466, 2087.364
433.6287, 2234.493
434.1108, 2396.969
434.5929, 2565.301
435.0750, 2732.625
435.5572, 2903.131
436.0393, 3076.715
436.5214, 3254.421
437.0035, 3459.282
437.4856, 3683.442
437.9677, 3951.390
438.4499, 4293.815
438.9320, 4710.002
439.4141, 5217.028
439.8962, 5920.946
440.3783, 6731.490
440.8604, 7436.782
441.3426, 8149.130
441.8247, 8563.771
442.3068, 8441.407
442.7889, 7664.574
443.2710, 6794.779
443.7531, 5820.547
444.2353, 4894.156
444.7174, 4167.147
445.1995, 3753.290
445.6816, 3451.486
446.1637, 3250.400
446.6458, 3145.276
447.1280, 3080.818
447.6101, 3074.939
448.0922, 3090.042
448.5743, 3105.459
449.0564, 3116.214
449.5385, 3143.976
450.0207, 3199.954
450.5028, 3263.336
450.9849, 3293.770
451.4670, 3287.407
451.9491, 3266.744
452.4312, 3244.050
452.9134, 3215.899
453.3955, 3151.438
453.8776, 3048.353
454.3597, 2927.916
454.8418, 2809.481
455.3239, 2691.220
455.8061, 2568.810
456.2882, 2434.646
456.7703, 2303.750
457.2524, 2200.207
457.7345, 2119.686
458.2166, 2042.110
458.6988, 1954.051
459.1809, 1864.266
459.6630, 1783.662
460.1451, 1713.025
460.6272, 1647.885
461.1093, 1584.051
461.5915, 1524.686
462.0736, 1475.085
462.5557, 1444.928
463.0378, 1416.931
463.5199, 1386.281
464.0020, 1353.045
464.4842, 1317.417
464.9663, 1271.797
465.4484, 1229.795
465.9305, 1198.566
466.4126, 1182.278
466.8947, 1169.418
467.3769, 1162.729
467.8590, 1158.310
468.3411, 1149.437
468.8232, 1133.997
469.3053, 1118.301
469.7874, 1103.739
470.2696, 1090.283
470.7517, 1077.473
471.2338, 1065.446
471.7159, 1053.757
472.1980, 1041.442
472.6801, 1028.542
473.1623, 1019.319
473.6444, 1015.544
474.1265, 1013.239
474.6086, 1003.991
475.0907, 989.0586
475.5728, 976.5897
476.0550, 971.8925
476.5371, 972.0474
477.0192, 973.7462
477.5013, 976.9351
477.9834, 977.9565
478.4655, 972.4977
478.9477, 963.6141
479.4298, 955.2565
479.9119, 947.4265
480.3940, 941.7424
480.8761, 938.4838
481.3582, 937.9738
481.8404, 941.2503
482.3225, 956.0087
482.8046, 968.5625
483.2867, 971.6174
483.7688, 961.1675
484.2509, 953.0013
484.7331, 947.2275
485.2152, 945.0052
485.6973, 947.8708
486.1794, 960.2567
486.6615, 970.1965
487.1436, 975.9500
487.6258, 978.0293
488.1079, 978.0696
488.5900, 974.7064
489.0721, 973.1008
489.5542, 978.2938
490.0363, 990.4280
490.5185, 993.1740
491.0006, 983.4717
491.4827, 973.1302
491.9648, 980.9844
492.4470, 1003.484
492.9291, 1020.692
493.4112, 1021.401
493.8933, 1016.640
494.3754, 1022.661
494.8575, 1038.633
495.3397, 1058.930
495.8218, 1083.115
496.3039, 1108.433
496.7860, 1131.751
497.2681, 1152.941
497.7502, 1172.242
498.2324, 1187.428
498.7145, 1201.598
499.1966, 1219.267
499.6787, 1238.414
500.1608, 1264.479
500.6429, 1304.952
501.1251, 1358.240
501.6072, 1399.268
502.0893, 1410.648
502.5714, 1423.806
503.0535, 1454.393
503.5356, 1511.550
504.0178, 1564.319
504.4999, 1612.523
504.9820, 1656.008
505.4641, 1696.026
505.9462, 1733.233
506.4283, 1762.996
506.9105, 1783.259
507.3926, 1794.961
507.8747, 1803.629
508.3568, 1809.658
508.8389, 1804.876
509.3210, 1782.101
509.8032, 1743.770
510.2853, 1695.304
510.7674, 1636.361
511.2495, 1571.670
511.7316, 1502.466
512.2137, 1430.994
512.6959, 1362.949
513.1780, 1298.818
513.6601, 1239.664
514.1422, 1185.735
514.6243, 1137.193
515.1064, 1095.032
515.5886, 1061.373
516.0707, 1032.878
516.5528, 1007.992
517.0349, 986.6375
517.5170, 968.1125
517.9991, 951.9467
518.4813, 938.8776
518.9634, 930.6489
519.4455, 932.1838
519.9276, 929.9203
520.4097, 919.5563
520.8918, 902.8380
521.3740, 889.6786
521.8561, 880.0166
522.3382, 874.1209
522.8203, 873.1492
523.3024, 876.8415
523.7845, 881.5336
524.2667, 887.8702
524.7488, 892.0046
525.2309, 887.1578
525.7130, 875.7742
526.1951, 866.2064
526.6772, 859.2411
527.1594, 857.4052
527.6415, 867.8857
528.1236, 887.6443
528.6057, 903.5746
529.0878, 904.2095
529.5699, 900.6174
530.0521, 901.3183
530.5342, 908.5047
531.0163, 915.0277
531.4984, 915.9545
531.9805, 916.2480
532.4626, 921.1799
532.9448, 936.1703
533.4269, 950.2842
533.9090, 963.3699
534.3911, 974.8111
534.8732, 980.6758
535.3553, 976.1144
535.8375, 975.2587
536.3196, 985.3826
536.8017, 1007.229
537.2838, 1026.860
537.7659, 1044.220
538.2480, 1060.148
538.7302, 1074.444
539.2123, 1087.728
539.6944, 1103.945
540.1765, 1125.418
540.6586, 1147.512
541.1407, 1167.219
541.6229, 1183.131
542.1050, 1190.646
542.5871, 1188.664
543.0692, 1176.306
543.5513, 1148.489
544.0334, 1105.400
544.5156, 1064.334
544.9977, 1032.905
545.4798, 1007.114
545.9619, 984.2878
546.4440, 964.8445
546.9261, 946.9379
547.4083, 925.8826
547.8904, 907.1460
548.3725, 901.6259
548.8546, 919.6662
549.3367, 933.7151
549.8188, 935.6062
550.3010, 926.6433
550.7831, 922.0358
551.2652, 922.3406
551.7473, 925.1578
552.2294, 929.7663
552.7115, 935.8776
553.1937, 939.1884
553.6758, 938.2278
554.1579, 939.1676
554.6400, 950.6940
555.1221, 970.5052
555.6042, 991.7610
556.0864, 1012.379
556.5685, 1033.338
557.0506, 1053.032
557.5327, 1073.060
558.0148, 1099.164
558.4969, 1135.928
558.9791, 1178.453
559.4612, 1223.126
559.9433, 1268.634
560.4254, 1320.185
560.9075, 1380.674
561.3896, 1446.514
561.8718, 1514.833
562.3539, 1582.546
562.8360, 1658.409
563.3181, 1743.990
563.8002, 1836.838
564.2823, 1930.903
564.7645, 2022.861
565.2466, 2127.245
565.7287, 2246.380
566.2108, 2381.713
566.6929, 2539.567
567.1750, 2718.760
567.6572, 2918.681
568.1393, 3132.555
568.6214, 3364.870
569.1035, 3617.846
569.5856, 3894.571
570.0677, 4190.321
570.5499, 4534.640
571.0320, 4891.833
571.5141, 5207.816
571.9962, 5543.712
572.4783, 5754.435
572.9604, 5753.967
573.4426, 5566.196
573.9247, 5314.760
574.4068, 4955.740
574.8889, 4594.896
575.3710, 4267.422
575.8531, 3974.559
576.3353, 3726.510
576.8174, 3522.307
577.2995, 3367.933
577.7816, 3275.553
578.2637, 3250.133
578.7458, 3239.527
579.2280, 3235.028
579.7101, 3244.326
580.1922, 3288.198
580.6743, 3361.590
581.1564, 3435.966
581.6385, 3523.283
582.1207, 3590.824
582.6028, 3594.678
583.0849, 3537.070
583.5670, 3436.306
584.0491, 3286.303
584.5313, 3108.179
585.0134, 2913.229
585.4955, 2695.471
585.9776, 2488.309
586.4597, 2296.347
586.9418, 2122.112
587.4240, 1970.550
587.9061, 1838.188
588.3882, 1731.347
588.8703, 1655.129
589.3524, 1603.673
589.8345, 1561.375
590.3167, 1529.428
590.7988, 1501.628
591.2809, 1472.942
591.7630, 1446.028
592.2451, 1439.553
592.7272, 1454.159
593.2094, 1473.598
593.6915, 1481.523
594.1736, 1485.242
594.6557, 1499.739
595.1378, 1528.656
595.6199, 1561.920
596.1021, 1591.503
596.5842, 1620.719
597.0663, 1654.434
597.5485, 1694.318
598.0306, 1738.430
598.5127, 1786.770
598.9948, 1838.951
599.4769, 1894.239
599.9590, 1960.595
600.4412, 2021.715
600.9233, 2077.429
601.4054, 2130.165
601.8875, 2143.110
602.3696, 2111.740
602.8517, 2051.067
603.3339, 1969.444
603.8160, 1867.581
604.2981, 1759.356
604.7802, 1644.808
605.2623, 1532.820
605.7444, 1433.500
606.2266, 1346.375
606.7087, 1274.976
607.1908, 1224.918
607.6729, 1184.371
608.1550, 1144.231
608.6371, 1105.650
609.1193, 1070.975
609.6014, 1041.682
610.0835, 1016.366
610.5656, 995.2812
611.0477, 978.6545
611.5298, 964.3696
612.0120, 954.4290
612.4941, 944.8035
612.9762, 931.7885
613.4583, 912.2355
613.9404, 901.3762
614.4225, 901.6150
614.9047, 907.6745
615.3868, 914.5120
615.8689, 921.7037
616.3510, 922.1381
616.8331, 910.5121
617.3152, 895.3383
617.7974, 890.0634
618.2795, 892.8322
618.7616, 896.0805
619.2437, 896.3972
619.7258, 895.0587
620.2079, 893.2554
620.6901, 891.0280
621.1722, 886.7722
621.6543, 875.4930
622.1364, 865.0908
622.6185, 861.0510
623.1006, 866.0998
623.5828, 872.1080
624.0649, 880.2745
624.5470, 888.3002
625.0291, 892.3464
625.5112, 890.8916
625.9933, 894.7803
626.4755, 908.8458
626.9576, 925.3178
627.4397, 924.4496
