##NAMES=Euclase
##RRUFFID=R100157
##IDEAL CHEMISTRY=BeAlSiO_4_(OH)
##LOCALITY=Unknown
##OWNER=RRUFF
##SOURCE=William W. Pinch
##DESCRIPTION=Blue cut gemstone
##STATUS=The identification of this mineral has been confirmed by single-crystal X-ray diffraction.
##URL=rruff.info/R100157
160.4600, 498.5621
160.9422, 504.3603
161.4243, 507.9197
161.9064, 510.5030
162.3885, 512.8850
162.8706, 514.5520
163.3527, 516.9079
163.8349, 520.4321
164.3170, 525.1105
164.7991, 530.8743
165.2812, 536.9851
165.7633, 544.4713
166.2454, 554.2904
166.7276, 567.9100
167.2097, 582.8743
167.6918, 598.1868
168.1739, 613.7191
168.6560, 629.5504
169.1381, 645.3517
169.6203, 661.3151
170.1024, 673.4297
170.5845, 685.6028
171.0666, 697.7991
171.5487, 707.7553
172.0309, 715.6123
172.5130, 723.3333
172.9951, 732.5441
173.4772, 742.4634
173.9593, 751.9012
174.4414, 760.6785
174.9236, 768.5789
175.4057, 775.1043
175.8878, 780.3215
176.3699, 784.6992
176.8520, 787.1452
177.3341, 789.0157
177.8163, 793.3329
178.2984, 805.3696
178.7805, 819.1790
179.2626, 826.9487
179.7447, 828.6329
180.2268, 823.0311
180.7090, 804.6747
181.1911, 777.0914
181.6732, 751.2638
182.1553, 731.5468
182.6374, 717.1264
183.1195, 707.4875
183.6017, 702.7901
184.0838, 700.9029
184.5659, 699.6477
185.0480, 699.0453
185.5301, 699.1894
186.0123, 700.1005
186.4944, 701.7764
186.9765, 704.3157
187.4586, 707.8284
187.9407, 711.8344
188.4228, 715.6619
188.9050, 719.3245
189.3871, 723.2629
189.8692, 727.8311
190.3513, 732.8661
190.8334, 737.5664
191.3155, 741.7103
191.7977, 745.9240
192.2798, 751.2452
192.7619, 757.6736
193.2440, 764.5243
193.7261, 771.4341
194.2082, 778.4336
194.6904, 785.9787
195.1725, 793.8447
195.6546, 802.7438
196.1367, 813.9221
196.6188, 827.5258
197.1009, 841.9892
197.5831, 859.8683
198.0652, 881.2835
198.5473, 889.8859
199.0294, 883.3546
199.5115, 865.7747
199.9937, 842.9932
200.4758, 814.2496
200.9579, 786.8829
201.4400, 764.7512
201.9221, 747.8902
202.4042, 735.6032
202.8864, 728.5625
203.3685, 725.3020
203.8506, 722.5832
204.3327, 720.3771
204.8148, 718.8901
205.2969, 718.5877
205.7791, 719.7499
206.2612, 719.9262
206.7433, 718.6127
207.2254, 716.5114
207.7075, 715.4093
208.1896, 715.4515
208.6718, 716.0631
209.1539, 716.9011
209.6360, 717.8737
210.1181, 719.6790
210.6002, 722.9261
211.0823, 726.7341
211.5645, 728.3302
212.0466, 726.8947
212.5287, 725.2452
213.0108, 724.9501
213.4929, 726.3533
213.9750, 727.7320
214.4572, 728.8133
214.9393, 729.8857
215.4214, 732.0054
215.9035, 735.7117
216.3856, 739.3792
216.8678, 741.8672
217.3499, 742.5600
217.8320, 744.2538
218.3141, 747.5786
218.7962, 751.7991
219.2783, 754.3594
219.7605, 754.1779
220.2426, 754.2162
220.7247, 756.3575
221.2068, 761.8860
221.6889, 765.6945
222.1710, 766.8871
222.6532, 766.3764
223.1353, 766.9699
223.6174, 769.0414
224.0995, 771.6287
224.5816, 774.1834
225.0637, 776.3973
225.5459, 779.4521
226.0280, 783.3889
226.5101, 788.2049
226.9922, 793.7836
227.4743, 800.3646
227.9564, 807.4005
228.4386, 814.6585
228.9207, 821.6360
229.4028, 829.5079
229.8849, 837.2947
230.3670, 846.2051
230.8492, 860.0889
231.3313, 879.9042
231.8134, 902.9825
232.2955, 928.6531
232.7776, 957.0043
233.2597, 987.0921
233.7419, 1020.576
234.2240, 1055.449
234.7061, 1087.387
235.1882, 1124.806
235.6703, 1146.688
236.1524, 1142.962
236.6346, 1104.707
237.1167, 1059.682
237.5988, 1000.690
238.0809, 937.3658
238.5630, 891.5953
239.0451, 868.3190
239.5273, 855.7257
240.0094, 850.1691
240.4915, 854.5021
240.9736, 858.4188
241.4557, 861.6757
241.9378, 864.6205
242.4200, 867.7870
242.9021, 870.3342
243.3842, 874.4589
243.8663, 881.2957
244.3484, 891.9995
244.8306, 901.9115
245.3127, 910.3362
245.7948, 918.2491
246.2769, 927.3062
246.7590, 937.1663
247.2411, 948.5695
247.7233, 961.8293
248.2054, 977.1558
248.6875, 993.4644
249.1696, 1009.654
249.6517, 1027.390
250.1338, 1049.206
250.6160, 1075.234
251.0981, 1105.139
251.5802, 1137.570
252.0623, 1171.242
252.5444, 1214.650
253.0265, 1266.838
253.5087, 1329.260
253.9908, 1403.381
254.4729, 1492.153
254.9550, 1587.699
255.4371, 1690.358
255.9192, 1800.778
256.4014, 1908.832
256.8835, 2028.446
257.3656, 2131.836
257.8477, 2192.488
258.3298, 2218.362
258.8120, 2181.617
259.2941, 2061.410
259.7762, 1851.219
260.2583, 1654.588
260.7404, 1463.139
261.2225, 1293.258
261.7047, 1158.595
262.1868, 1063.813
262.6689, 992.1156
263.1510, 942.8951
263.6331, 916.0294
264.1152, 893.2142
264.5974, 875.0859
265.0795, 860.2734
265.5616, 847.9235
266.0437, 837.7358
266.5258, 830.4562
267.0079, 826.6461
267.4901, 826.0045
267.9722, 826.2795
268.4543, 827.8237
268.9364, 829.6331
269.4185, 830.9073
269.9006, 831.5668
270.3828, 832.0397
270.8649, 832.2111
271.3470, 832.2593
271.8291, 832.9824
272.3112, 834.3542
272.7933, 836.4467
273.2755, 839.4151
273.7576, 843.3516
274.2397, 847.3356
274.7218, 851.1063
275.2039, 854.8883
275.6860, 859.4244
276.1682, 864.8625
276.6503, 870.6582
277.1324, 876.3314
277.6145, 881.7554
278.0966, 888.2678
278.5787, 896.0862
279.0609, 904.9235
279.5430, 913.4938
280.0251, 921.2260
280.5072, 932.1925
280.9893, 949.0528
281.4715, 971.6512
281.9536, 996.1620
282.4357, 1021.825
282.9178, 1050.524
283.3999, 1087.418
283.8820, 1133.009
284.3642, 1177.586
284.8463, 1218.083
285.3284, 1254.386
285.8105, 1286.377
286.2926, 1316.880
286.7747, 1334.595
287.2569, 1321.426
287.7390, 1278.038
288.2211, 1222.169
288.7032, 1153.450
289.1853, 1076.938
289.6674, 1013.558
290.1496, 963.3106
290.6317, 923.7783
291.1138, 894.4456
291.5959, 874.4388
292.0780, 858.5280
292.5602, 845.1233
293.0423, 834.4163
293.5244, 827.6903
294.0065, 825.1119
294.4886, 823.6426
294.9707, 820.4527
295.4529, 816.0245
295.9350, 812.1349
296.4171, 809.1361
296.8992, 806.9773
297.3813, 805.6637
297.8634, 805.1800
298.3456, 805.3470
298.8277, 806.5107
299.3098, 808.2042
299.7919, 809.1425
300.2740, 808.4186
300.7561, 807.9837
301.2383, 810.7211
301.7204, 816.1715
302.2025, 822.0844
302.6846, 827.0381
303.1667, 831.5892
303.6488, 836.5312
304.1310, 841.7731
304.6131, 847.9330
305.0952, 856.0359
305.5773, 865.5650
306.0594, 875.0833
306.5415, 886.7435
307.0237, 896.6315
307.5058, 900.7009
307.9879, 898.3375
308.4700, 891.4133
308.9521, 878.4371
309.4343, 862.1403
309.9164, 847.0690
310.3985, 834.0579
310.8806, 823.6400
311.3627, 816.8163
311.8448, 813.5878
312.3270, 811.3862
312.8091, 808.3949
313.2912, 805.6394
313.7733, 804.3315
314.2554, 806.2980
314.7375, 808.6156
315.2197, 810.0508
315.7018, 810.6053
316.1839, 810.3035
316.6660, 808.1412
317.1481, 805.6534
317.6302, 804.1242
318.1124, 804.2902
318.5945, 804.8962
319.0766, 805.7383
319.5587, 806.7341
320.0408, 807.6106
320.5229, 808.2641
321.0051, 808.7858
321.4872, 809.1742
321.9693, 809.1540
322.4514, 809.5120
322.9335, 810.3085
323.4156, 811.5959
323.8978, 813.4754
324.3799, 815.9167
324.8620, 818.9953
325.3441, 822.9464
325.8262, 828.1824
326.3083, 832.9153
326.7905, 835.7269
327.2726, 838.3948
327.7547, 843.0580
328.2368, 851.3655
328.7189, 860.0626
329.2010, 868.5339
329.6832, 876.6334
330.1653, 885.4277
330.6474, 897.3994
331.1295, 908.2693
331.6116, 914.8757
332.0938, 918.0515
332.5759, 915.4064
333.0580, 904.6318
333.5401, 886.9039
334.0222, 871.6741
334.5043, 858.9807
334.9865, 848.5341
335.4686, 840.0383
335.9507, 833.3947
336.4328, 829.1130
336.9149, 827.9613
337.3970, 828.7828
337.8792, 828.5236
338.3613, 826.8887
338.8434, 825.0180
339.3255, 823.4986
339.8076, 822.4480
340.2898, 820.7687
340.7719, 818.2766
341.2540, 815.4752
341.7361, 812.7949
342.2182, 810.1953
342.7003, 808.6235
343.1825, 808.9823
343.6646, 810.8275
344.1467, 810.9195
344.6288, 808.9915
345.1109, 806.6483
345.5930, 805.2684
346.0752, 804.8500
346.5573, 805.3002
347.0394, 806.9479
347.5215, 809.1309
348.0036, 810.3340
348.4857, 810.5644
348.9679, 810.6271
349.4500, 811.0479
349.9321, 811.7676
350.4142, 812.7259
350.8963, 814.0833
351.3784, 815.2532
351.8606, 815.0515
352.3427, 813.8659
352.8248, 813.1235
353.3069, 814.2412
353.7890, 816.0543
354.2711, 816.8192
354.7533, 816.2911
355.2354, 815.7608
355.7175, 816.7470
356.1996, 818.4465
356.6817, 819.4569
357.1638, 818.5203
357.6460, 817.1533
358.1281, 816.5739
358.6102, 816.7321
359.0923, 816.7899
359.5744, 816.0650
360.0565, 815.1022
360.5387, 814.4279
361.0208, 814.2390
361.5029, 814.3027
361.9850, 814.6308
362.4671, 815.1542
362.9492, 815.6544
363.4314, 815.9966
363.9135, 816.3418
364.3956, 816.8045
364.8777, 817.5009
365.3598, 818.0870
365.8419, 818.5283
366.3241, 818.8145
366.8062, 818.9229
367.2883, 818.2993
367.7704, 818.0264
368.2526, 818.4987
368.7347, 819.8720
369.2168, 821.1258
369.6989, 822.0204
370.1810, 822.9254
370.6631, 824.1673
371.1453, 826.0380
371.6274, 827.8044
372.1095, 829.2793
372.5916, 830.5547
373.0737, 832.2600
373.5558, 834.8545
374.0380, 837.2151
374.5201, 838.4518
375.0022, 837.7181
375.4843, 838.6272
375.9664, 841.4545
376.4485, 845.8381
376.9307, 851.6328
377.4128, 859.3182
377.8949, 866.1378
378.3770, 870.4651
378.8591, 872.4555
379.3412, 875.7965
379.8234, 880.6795
380.3055, 886.1329
380.7876, 891.6000
381.2697, 897.0297
381.7518, 900.4199
382.2339, 900.3582
382.7161, 898.6253
383.1982, 899.2061
383.6803, 902.0660
384.1624, 906.3479
384.6445, 911.3460
385.1266, 917.2626
385.6088, 924.7615
386.0909, 934.1221
386.5730, 944.4355
387.0551, 954.2100
387.5372, 963.8646
388.0193, 974.8210
388.5015, 987.0165
388.9836, 1001.209
389.4657, 1017.770
389.9478, 1036.674
390.4299, 1059.331
390.9120, 1087.374
391.3942, 1119.578
391.8763, 1154.079
392.3584, 1192.824
392.8405, 1231.270
393.3226, 1271.823
393.8047, 1311.856
394.2869, 1339.321
394.7690, 1353.481
395.2511, 1350.949
395.7332, 1328.074
396.2154, 1276.997
396.6975, 1221.157
397.1796, 1158.163
397.6617, 1094.057
398.1438, 1039.608
398.6259, 996.1769
399.1081, 961.9563
399.5902, 938.2744
400.0723, 926.3654
400.5544, 915.6295
401.0365, 906.1233
401.5186, 897.6933
402.0008, 890.2647
402.4829, 883.4951
402.9650, 878.3118
403.4471, 875.2941
403.9292, 873.9203
404.4113, 872.0385
404.8935, 869.3809
405.3756, 866.8065
405.8577, 864.7625
406.3398, 863.3204
406.8219, 862.1240
407.3040, 861.2875
407.7862, 860.5003
408.2683, 859.2369
408.7504, 857.4935
409.2325, 855.7465
409.7146, 853.9131
410.1967, 852.2839
410.6789, 851.9147
411.1610, 852.8521
411.6431, 854.0687
412.1252, 854.7230
412.6073, 854.9534
413.0894, 855.1433
413.5716, 855.3879
414.0537, 855.5558
414.5358, 855.0003
415.0179, 854.1078
415.5000, 854.1399
415.9821, 856.6016
416.4643, 859.8673
416.9464, 862.0615
417.4285, 862.9378
417.9106, 864.0740
418.3927, 867.0339
418.8748, 870.6382
419.3570, 873.4385
419.8391, 874.0309
420.3212, 874.6384
420.8033, 876.3889
421.2854, 879.0390
421.7675, 881.4465
422.2497, 883.9442
422.7318, 885.6276
423.2139, 885.8130
423.6960, 883.4991
424.1781, 881.7747
424.6602, 881.5194
425.1424, 881.9161
425.6245, 881.7753
426.1066, 880.8988
426.5887, 879.7254
427.0709, 878.2014
427.5530, 876.3222
428.0351, 874.7960
428.5172, 873.5865
428.9993, 872.7373
429.4814, 872.2172
429.9636, 871.9221
430.4457, 872.3605
430.9278, 873.6749
431.4099, 875.6369
431.8920, 877.9060
432.3741, 880.5721
432.8563, 882.9704
433.3384, 884.2009
433.8205, 884.6862
434.3026, 887.8163
434.7847, 893.9273
435.2668, 900.1003
435.7490, 902.0906
436.2311, 901.4009
436.7132, 903.4918
437.1953, 910.6441
437.6774, 920.0416
438.1595, 928.0410
438.6417, 935.0270
439.1238, 942.5895
439.6059, 952.5648
440.0880, 963.1624
440.5701, 973.1039
441.0522, 982.5859
441.5344, 989.2087
442.0165, 992.1086
442.4986, 991.1381
442.9807, 986.0626
443.4628, 972.5450
443.9449, 959.0807
444.4271, 948.7386
444.9092, 941.2525
445.3913, 934.7892
445.8734, 928.1648
446.3555, 923.1583
446.8376, 920.7928
447.3198, 922.0830
447.8019, 924.1880
448.2840, 927.3200
448.7661, 931.0688
449.2482, 935.0633
449.7303, 940.5634
450.2125, 944.1134
450.6946, 944.9108
451.1767, 943.0400
451.6588, 939.5675
452.1409, 933.9203
452.6230, 927.9543
453.1052, 922.8927
453.5873, 918.6990
454.0694, 915.5113
454.5515, 913.6289
455.0337, 912.1569
455.5158, 909.1262
455.9979, 904.6877
456.4800, 901.5333
456.9621, 901.4673
457.4442, 903.2599
457.9264, 904.3527
458.4085, 904.7409
458.8906, 904.1745
459.3727, 902.1984
459.8548, 899.1982
460.3369, 895.6954
460.8191, 891.4902
461.3012, 887.4869
461.7833, 884.6313
462.2654, 882.5063
462.7475, 880.2479
463.2296, 876.8072
463.7118, 873.6513
464.1939, 871.6246
464.6760, 870.7617
465.1581, 870.3768
465.6402, 870.8134
466.1223, 871.2936
466.6045, 871.2594
467.0866, 869.7360
467.5687, 868.7824
468.0508, 868.9996
468.5329, 869.7934
469.0150, 869.8116
469.4972, 868.4787
469.9793, 867.2411
470.4614, 866.5562
470.9435, 866.4512
471.4256, 866.4210
471.9077, 866.3810
472.3899, 866.6134
472.8720, 867.5164
473.3541, 869.1881
473.8362, 870.6275
474.3183, 871.7856
474.8004, 872.5330
475.2826, 872.3902
475.7647, 871.4178
476.2468, 870.5095
476.7289, 870.1827
477.2110, 870.2184
477.6931, 869.9847
478.1753, 869.4730
478.6574, 869.3810
479.1395, 871.2419
479.6216, 873.6204
480.1037, 874.2191
480.5858, 871.6006
481.0680, 868.6765
481.5501, 867.2433
482.0322, 866.9806
482.5143, 867.2367
482.9964, 868.3259
483.4786, 869.4034
483.9607, 869.8950
484.4428, 869.6965
484.9249, 870.0521
485.4070, 872.0212
485.8892, 874.1204
486.3713, 875.2776
486.8534, 874.7103
487.3355, 874.2999
487.8176, 873.8399
488.2997, 873.6400
488.7819, 874.5134
489.2640, 877.0734
489.7461, 879.3092
490.2282, 880.5516
490.7103, 880.8432
491.1924, 880.6526
491.6746, 879.7701
492.1567, 879.2233
492.6388, 880.1540
493.1209, 882.3912
493.6030, 884.4487
494.0851, 886.2673
494.5673, 887.5130
495.0494, 887.0355
495.5315, 885.3896
496.0136, 884.5977
496.4957, 886.6515
496.9778, 889.4281
497.4600, 890.2172
497.9421, 889.2395
498.4242, 888.7813
498.9063, 890.6059
499.3884, 893.3308
499.8705, 895.7052
500.3527, 897.1003
500.8348, 899.0652
501.3169, 903.0067
501.7990, 907.5779
502.2811, 910.9046
502.7632, 911.9619
503.2454, 912.4486
503.7275, 912.3204
504.2096, 911.7126
504.6917, 912.0628
505.1738, 913.6395
505.6559, 915.8126
506.1381, 918.3768
506.6202, 921.5448
507.1023, 924.2295
507.5844, 926.2665
508.0665, 928.1331
508.5486, 931.0355
509.0308, 935.0488
509.5129, 936.7368
509.9950, 934.4174
510.4771, 930.0284
510.9592, 928.0615
511.4413, 928.2247
511.9235, 927.7810
512.4056, 924.0579
512.8877, 918.9733
513.3698, 915.3138
513.8519, 913.3207
514.3340, 912.1241
514.8162, 912.3333
515.2983, 912.5209
515.7804, 910.8834
516.2625, 905.0253
516.7446, 899.6358
517.2267, 896.8915
517.7089, 896.0578
518.1910, 895.3588
518.6731, 894.5343
519.1552, 893.6963
519.6373, 892.7527
520.1194, 891.6211
520.6016, 891.2096
521.0837, 892.0003
521.5658, 892.9622
522.0479, 893.2197
522.5300, 892.3538
523.0121, 892.4274
523.4943, 894.0256
523.9764, 896.0057
524.4585, 895.9639
524.9406, 893.8447
525.4227, 892.2727
525.9048, 892.4836
526.3870, 893.7509
526.8691, 894.1707
527.3513, 893.8068
527.8334, 893.5557
528.3155, 894.4286
528.7976, 895.6895
529.2797, 896.1365
529.7618, 895.4951
530.2440, 894.8629
530.7261, 894.7650
531.2082, 895.2106
531.6903, 896.2116
532.1724, 898.2203
532.6545, 900.3077
533.1367, 902.6144
533.6188, 904.8533
534.1009, 906.1011
534.5830, 904.6624
535.0651, 903.7042
535.5472, 904.3289
536.0294, 906.7469
536.5115, 909.4074
536.9936, 912.6452
537.4757, 915.6687
537.9578, 917.3552
538.4399, 917.2040
538.9221, 919.2823
539.4042, 924.6568
539.8863, 931.3380
540.3684, 935.7530
540.8505, 938.0638
541.3326, 940.2848
541.8148, 944.1642
542.2969, 947.8954
542.7790, 947.9365
543.2611, 944.5733
543.7432, 940.1545
544.2253, 935.9861
544.7075, 931.7228
545.1896, 926.7628
545.6717, 920.7940
546.1538, 915.4643
546.6359, 911.4955
547.1180, 908.6116
547.6002, 906.5750
548.0823, 906.0261
548.5644, 905.5151
549.0465, 904.6646
549.5286, 903.6519
550.0107, 902.9773
550.4929, 902.5315
550.9750, 902.5997
551.4571, 903.5225
551.9392, 905.3058
552.4213, 905.9457
552.9034, 905.0361
553.3856, 904.2493
553.8677, 905.2108
554.3498, 907.7468
554.8319, 909.7662
555.3140, 911.0374
555.7961, 911.8527
556.2783, 911.9678
556.7604, 911.8699
557.2425, 913.0242
557.7246, 916.9891
558.2067, 921.3988
558.6888, 923.3439
559.1710, 923.6413
559.6531, 925.0326
560.1352, 930.7444
560.6173, 936.4542
561.0994, 938.9263
561.5815, 937.3820
562.0637, 937.4595
562.5458, 940.4452
563.0279, 945.3517
563.5100, 951.5565
563.9921, 960.6589
564.4742, 968.0788
564.9564, 972.6058
565.4385, 976.2324
565.9206, 982.2309
566.4027, 990.6884
566.8848, 1000.855
567.3669, 1012.781
567.8491, 1026.057
568.3312, 1038.699
568.8133, 1050.713
569.2954, 1063.984
569.7775, 1080.709
570.2596, 1099.149
570.7418, 1116.784
571.2239, 1133.719
571.7060, 1146.774
572.1881, 1153.827
572.6702, 1155.629
573.1523, 1152.931
573.6345, 1145.397
574.1166, 1134.339
574.5987, 1118.396
575.0808, 1099.723
575.5629, 1081.584
576.0450, 1063.122
576.5272, 1047.315
577.0093, 1035.358
577.4914, 1026.843
577.9735, 1018.651
578.4556, 1010.211
578.9377, 1003.433
579.4199, 999.5690
579.9020, 998.7293
580.3841, 998.0060
580.8662, 997.4999
581.3483, 996.6644
581.8304, 995.0227
582.3126, 992.6186
582.7947, 989.7421
583.2768, 986.6796
583.7589, 982.4398
584.2410, 975.0494
584.7231, 965.7680
585.2053, 957.0934
585.6874, 950.2413
586.1696, 944.0941
586.6517, 937.7600
587.1338, 931.4989
587.6159, 926.5384
588.0980, 923.9826
588.5801, 922.0636
589.0623, 920.1686
589.5444, 918.3270
590.0265, 916.0768
590.5086, 912.8337
590.9907, 909.9424
591.4728, 908.5856
591.9550, 909.0274
592.4371, 909.4952
592.9192, 909.8732
593.4013, 910.2698
593.8834, 911.1702
594.3655, 912.3977
594.8477, 912.5876
595.3298, 910.4908
595.8119, 908.1984
596.2940, 909.0656
596.7761, 912.2651
597.2582, 915.0413
597.7404, 915.5887
598.2225, 915.4374
598.7046, 915.3231
599.1867, 915.3033
599.6688, 916.0677
600.1509, 919.2892
600.6331, 922.2761
601.1152, 923.1346
601.5973, 920.4872
602.0794, 918.9741
602.5615, 919.5602
603.0436, 920.3682
603.5258, 919.0504
604.0079, 915.1454
604.4900, 911.6359
604.9721, 908.9647
605.4542, 907.0583
605.9363, 906.0867
606.4185, 905.9594
606.9006, 905.7001
607.3827, 904.8429
607.8648, 903.6371
608.3469, 902.2159
608.8290, 900.6721
609.3112, 899.5986
609.7933, 899.9329
610.2754, 900.4366
610.7575, 899.9075
611.2396, 898.0012
611.7217, 896.8246
612.2039, 897.8981
612.6860, 899.3211
613.1681, 899.5997
613.6502, 897.6064
614.1323, 896.4020
614.6144, 896.5451
615.0966, 897.0176
615.5787, 896.0283
616.0608, 893.2010
616.5429, 891.4833
617.0250, 891.9161
617.5071, 893.4697
617.9893, 893.6281
618.4714, 892.5964
618.9535, 891.9108
619.4356, 892.7592
619.9177, 894.2057
620.3998, 895.0712
620.8820, 895.3927
621.3641, 895.6190
621.8462, 895.7752
622.3283, 896.0886
622.8104, 896.8190
623.2925, 898.1745
623.7747, 899.1982
624.2568, 899.9228
624.7389, 900.0804
625.2210, 899.2538
625.7031, 896.0680
626.1852, 895.1240
626.6674, 897.6082
627.1495, 901.3483
627.6316, 902.5320
628.1137, 901.0471
628.5958, 899.7267
629.0779, 899.2653
629.5601, 899.5892
630.0422, 900.9559
630.5243, 903.1298
631.0064, 905.0211
631.4885, 905.6346
631.9706, 905.9630
632.4528, 906.8270
632.9349, 908.2552
633.4170, 910.1902
633.8991, 913.3475
634.3812, 916.4514
634.8633, 918.5911
635.3455, 919.0634
635.8276, 920.5446
636.3097, 923.9647
636.7918, 927.6046
637.2739, 929.8038
637.7560, 929.9020
638.2382, 931.0694
638.7203, 933.5452
639.2024, 937.1182
639.6845, 941.8698
640.1666, 947.6622
640.6487, 953.3684
641.1309, 959.0682
641.6130, 963.9969
642.0951, 966.3542
642.5772, 966.9154
643.0594, 967.7828
643.5415, 971.5269
644.0236, 974.5556
644.5057, 974.3836
644.9879, 971.2455
645.4700, 967.9689
645.9521, 966.3898
646.4342, 963.6824
646.9163, 958.0139
647.3984, 948.4714
647.8806, 942.2726
648.3627, 940.6067
648.8448, 940.0136
649.3269, 937.5527
649.8090, 933.2365
650.2911, 929.5904
650.7733, 926.7552
651.2554, 924.6376
651.7375, 923.2206
652.2196, 922.3954
652.7017, 921.8931
653.1838, 921.6885
653.6660, 921.6556
654.1481, 922.2189
654.6302, 922.7841
655.1123, 922.3098
655.5944, 919.1564
656.0765, 916.2424
656.5587, 914.3671
657.0408, 913.4536
657.5229, 913.0357
658.0050, 913.2060
658.4871, 913.6880
658.9692, 914.3472
659.4514, 915.2065
659.9335, 916.7227
