##NAMES=Euclase
##RRUFFID=R050032
##IDEAL CHEMISTRY=BeAlSiO_4_(OH)
##LOCALITY=Minas Gerais, Brazil
##OWNER=RRUFF
##SOURCE=University of Arizona Mineral Museum
##DESCRIPTION=Colorless crystal fragments
##STATUS=The identification of this mineral has been confirmed by X-ray diffraction and chemical analysis
##URL=rruff.info/R050032
##MEASURED CHEMISTRY=Be_1.00_Al_1.00_Si_1.00_O_4_(OH)
149.9464, 1547.302
150.4285, 1605.809
150.9106, 1658.030
151.3928, 1701.893
151.8749, 1730.476
152.3570, 1740.254
152.8391, 1736.348
153.3212, 1718.989
153.8033, 1687.748
154.2855, 1656.161
154.7676, 1635.117
155.2497, 1622.831
155.7318, 1611.789
156.2139, 1601.735
156.6960, 1591.946
157.1782, 1581.034
157.6603, 1568.618
158.1424, 1557.335
158.6245, 1549.730
159.1066, 1544.930
159.5887, 1541.280
160.0709, 1531.165
160.5530, 1524.648
161.0351, 1541.115
161.5172, 1587.033
161.9993, 1632.912
162.4814, 1647.387
162.9636, 1646.606
163.4457, 1661.741
163.9278, 1722.003
164.4099, 1799.570
164.8920, 1838.916
165.3741, 1827.438
165.8563, 1812.673
166.3384, 1828.592
166.8205, 1861.202
167.3026, 1886.977
167.7847, 1889.307
168.2668, 1881.115
168.7490, 1893.237
169.2311, 1935.304
169.7132, 1976.147
170.1953, 1997.896
170.6774, 2008.016
171.1595, 2016.819
171.6417, 2024.870
172.1238, 2036.326
172.6059, 2062.465
173.0880, 2107.365
173.5701, 2159.864
174.0522, 2211.072
174.5344, 2266.533
175.0165, 2331.792
175.4986, 2402.003
175.9807, 2488.528
176.4628, 2623.337
176.9449, 2810.027
177.4271, 3045.196
177.9092, 3384.139
178.3913, 3749.387
178.8734, 4045.098
179.3555, 4246.072
179.8376, 4330.894
180.3197, 4222.076
180.8019, 3821.605
181.2840, 3389.399
181.7661, 2958.540
182.2482, 2563.135
182.7303, 2251.791
183.2124, 2052.839
183.6946, 1944.143
184.1767, 1867.131
184.6588, 1835.841
185.1409, 1815.091
185.6230, 1796.200
186.1051, 1780.325
186.5873, 1768.634
187.0694, 1761.654
187.5515, 1759.275
188.0336, 1761.773
188.5157, 1772.693
188.9978, 1782.510
189.4800, 1790.971
189.9621, 1796.730
190.4442, 1797.335
190.9263, 1791.235
191.4084, 1782.071
191.8905, 1779.013
192.3727, 1785.986
192.8548, 1792.366
193.3369, 1798.021
193.8190, 1801.593
194.3011, 1800.651
194.7832, 1794.138
195.2654, 1785.561
195.7475, 1782.641
196.2296, 1787.933
196.7117, 1794.507
197.1938, 1804.562
197.6759, 1813.644
198.1581, 1816.629
198.6402, 1811.993
199.1223, 1804.358
199.6044, 1803.067
200.0865, 1813.994
200.5686, 1819.386
201.0508, 1811.632
201.5329, 1802.480
202.0150, 1801.958
202.4971, 1812.508
202.9792, 1827.858
203.4613, 1838.956
203.9435, 1847.625
204.4256, 1846.981
204.9077, 1827.996
205.3898, 1807.185
205.8719, 1795.580
206.3540, 1795.372
206.8362, 1801.484
207.3183, 1807.820
207.8004, 1815.480
208.2825, 1820.236
208.7646, 1820.482
209.2467, 1819.462
209.7289, 1818.636
210.2110, 1818.370
210.6931, 1818.492
211.1752, 1818.556
211.6573, 1817.917
212.1395, 1819.710
212.6216, 1824.107
213.1037, 1830.540
213.5858, 1840.847
214.0679, 1853.673
214.5500, 1864.479
215.0322, 1867.341
215.5143, 1859.785
215.9964, 1860.966
216.4785, 1875.625
216.9606, 1894.471
217.4427, 1915.378
217.9249, 1937.745
218.4070, 1961.227
218.8891, 1985.113
219.3712, 2009.280
219.8533, 2038.392
220.3354, 2081.320
220.8176, 2120.739
221.2997, 2149.412
221.7818, 2170.915
222.2639, 2192.954
222.7460, 2220.858
223.2281, 2254.212
223.7103, 2286.076
224.1924, 2316.648
224.6745, 2345.376
225.1566, 2364.626
225.6387, 2383.447
226.1208, 2415.929
226.6030, 2471.028
227.0851, 2543.629
227.5672, 2610.766
228.0493, 2650.399
228.5314, 2716.937
229.0135, 2816.754
229.4957, 2946.883
229.9778, 3099.646
230.4599, 3270.927
230.9420, 3471.293
231.4241, 3730.775
231.9062, 4068.692
232.3884, 4438.126
232.8705, 4899.363
233.3526, 5347.879
233.8347, 5727.790
234.3168, 6013.729
234.7989, 6160.757
235.2811, 6074.517
235.7632, 5675.658
236.2453, 5219.089
236.7274, 4644.855
237.2095, 4080.614
237.6916, 3591.754
238.1738, 3198.720
238.6559, 2901.535
239.1380, 2709.497
239.6201, 2641.860
240.1022, 2610.334
240.5843, 2622.069
241.0665, 2660.956
241.5486, 2730.362
242.0307, 2824.687
242.5128, 2925.203
242.9949, 3012.795
243.4770, 3085.801
243.9592, 3167.653
244.4413, 3263.837
244.9234, 3365.453
245.4055, 3471.560
245.8876, 3580.848
246.3697, 3689.234
246.8519, 3790.032
247.3340, 3886.829
247.8161, 4005.108
248.2982, 4145.856
248.7803, 4311.040
249.2624, 4490.488
249.7446, 4694.042
250.2267, 4931.036
250.7088, 5198.906
251.1909, 5514.001
251.6730, 5921.400
252.1551, 6421.005
252.6373, 7026.391
253.1194, 7713.368
253.6015, 8502.078
254.0836, 9438.464
254.5657, 10555.43
255.0478, 11760.73
255.5300, 13009.01
256.0121, 14416.32
256.4942, 15403.90
256.9763, 15823.69
257.4584, 15731.96
257.9406, 15030.65
258.4227, 13683.91
258.9048, 12045.32
259.3869, 10363.62
259.8690, 8624.056
260.3511, 7129.124
260.8333, 5961.342
261.3154, 5048.602
261.7975, 4346.853
262.2796, 3848.149
262.7617, 3473.569
263.2438, 3193.884
263.7260, 2998.982
264.2081, 2834.112
264.6902, 2696.660
265.1723, 2587.163
265.6544, 2511.551
266.1365, 2462.182
266.6187, 2415.898
267.1008, 2355.947
267.5829, 2292.693
268.0650, 2249.577
268.5471, 2230.692
269.0292, 2220.447
269.5114, 2208.769
269.9935, 2198.536
270.4756, 2195.869
270.9577, 2204.840
271.4398, 2219.983
271.9219, 2237.205
272.4041, 2256.677
272.8862, 2273.317
273.3683, 2285.125
273.8504, 2291.819
274.3325, 2292.073
274.8146, 2278.265
275.2968, 2271.824
275.7789, 2291.483
276.2610, 2331.881
276.7431, 2370.886
277.2252, 2399.640
277.7073, 2425.171
278.1895, 2458.130
278.6716, 2497.390
279.1537, 2545.168
279.6358, 2599.979
280.1179, 2664.361
280.6000, 2740.683
281.0822, 2828.934
281.5643, 2933.134
282.0464, 3058.646
282.5285, 3204.424
283.0106, 3376.445
283.4927, 3590.194
283.9749, 3821.165
284.4570, 4074.156
284.9391, 4341.133
285.4212, 4558.854
285.9033, 4682.280
286.3854, 4704.003
286.8676, 4622.934
287.3497, 4399.843
287.8318, 4122.861
288.3139, 3798.502
288.7960, 3450.623
289.2781, 3133.910
289.7603, 2877.434
290.2424, 2676.274
290.7245, 2517.828
291.2066, 2423.345
291.6887, 2341.495
292.1708, 2263.544
292.6530, 2194.632
293.1351, 2143.133
293.6172, 2111.796
294.0993, 2093.640
294.5814, 2076.988
295.0635, 2063.591
295.5457, 2048.227
296.0278, 2028.619
296.5099, 2008.927
296.9920, 1990.524
297.4741, 1974.457
297.9562, 1963.657
298.4384, 1962.389
298.9205, 1973.072
299.4026, 1976.295
299.8847, 1964.295
300.3668, 1952.829
300.8489, 1947.986
301.3311, 1947.907
301.8131, 1947.149
302.2953, 1941.383
302.7774, 1932.836
303.2595, 1933.880
303.7416, 1956.026
304.2237, 1970.646
304.7058, 1967.234
305.1880, 1956.164
305.6701, 1947.906
306.1522, 1946.285
306.6343, 1949.483
307.1164, 1956.620
307.5985, 1970.760
308.0807, 1977.239
308.5628, 1962.719
309.0449, 1947.142
309.5270, 1945.172
310.0091, 1956.978
310.4912, 1967.703
310.9734, 1961.625
311.4555, 1940.699
311.9376, 1926.785
312.4197, 1923.587
312.9018, 1924.817
313.3839, 1928.508
313.8661, 1933.234
314.3482, 1935.038
314.8303, 1928.954
315.3124, 1920.256
315.7945, 1920.408
316.2766, 1931.569
316.7588, 1938.644
317.2409, 1928.023
317.7230, 1909.927
318.2051, 1901.849
318.6872, 1909.992
319.1693, 1921.148
319.6515, 1925.580
320.1336, 1924.602
320.6157, 1924.156
321.0978, 1926.214
321.5799, 1929.684
322.0620, 1932.228
322.5442, 1932.994
323.0263, 1937.208
323.5084, 1952.727
323.9905, 1969.840
324.4726, 1974.289
324.9547, 1963.749
325.4369, 1948.991
325.9190, 1939.595
326.4011, 1936.175
326.8832, 1934.776
327.3653, 1935.649
327.8474, 1938.196
328.3296, 1944.248
328.8117, 1952.003
329.2938, 1956.001
329.7759, 1952.533
330.2580, 1943.773
330.7401, 1939.702
331.2223, 1946.208
331.7044, 1950.101
332.1865, 1947.368
332.6686, 1942.582
333.1507, 1940.564
333.6328, 1942.804
334.1150, 1947.677
334.5971, 1952.551
335.0792, 1955.899
335.5613, 1963.595
336.0434, 1980.298
336.5255, 1996.687
337.0077, 2008.095
337.4898, 2014.754
337.9719, 2019.308
338.4540, 2023.738
338.9361, 2027.884
339.4182, 2030.062
339.9004, 2027.922
340.3825, 2027.312
340.8646, 2032.318
341.3467, 2038.815
341.8288, 2039.993
342.3109, 2032.053
342.7931, 2023.963
343.2752, 2031.748
343.7573, 2058.357
344.2394, 2079.530
344.7215, 2080.988
345.2036, 2082.030
345.6858, 2098.508
346.1679, 2131.048
346.6500, 2168.510
347.1321, 2204.792
347.6142, 2240.578
348.0963, 2277.187
348.5785, 2313.730
349.0606, 2354.556
349.5427, 2406.317
350.0248, 2465.627
350.5069, 2522.421
350.9890, 2579.052
351.4712, 2629.547
351.9533, 2677.134
352.4354, 2717.792
352.9175, 2728.727
353.3996, 2694.796
353.8817, 2629.597
354.3639, 2566.762
354.8460, 2508.788
355.3281, 2448.073
355.8102, 2376.450
356.2923, 2304.205
356.7744, 2242.604
357.2566, 2194.188
357.7387, 2160.145
358.2208, 2143.679
358.7029, 2149.326
359.1850, 2147.408
359.6671, 2131.770
360.1493, 2115.896
360.6314, 2101.994
361.1135, 2092.736
361.5956, 2093.826
362.0777, 2109.641
362.5598, 2134.826
363.0420, 2148.524
363.5241, 2133.357
364.0062, 2135.384
364.4883, 2171.988
364.9704, 2218.435
365.4525, 2254.351
365.9347, 2275.279
366.4168, 2290.549
366.8989, 2308.341
367.3810, 2328.570
367.8631, 2355.746
368.3452, 2396.418
368.8274, 2436.729
369.3095, 2465.131
369.7916, 2487.810
370.2737, 2519.678
370.7558, 2570.400
371.2379, 2632.116
371.7201, 2690.099
372.2022, 2743.150
372.6843, 2803.026
373.1664, 2875.444
373.6485, 2957.442
374.1306, 3039.447
374.6128, 3115.054
375.0949, 3212.569
375.5770, 3355.723
376.0591, 3528.952
376.5412, 3704.455
377.0233, 3877.777
377.5055, 4044.418
377.9876, 4201.117
378.4697, 4346.383
378.9518, 4477.377
379.4339, 4631.812
379.9160, 4737.491
380.3982, 4745.891
380.8803, 4668.203
381.3624, 4535.513
381.8445, 4361.677
382.3266, 4155.647
382.8087, 3940.090
383.2909, 3686.386
383.7730, 3464.332
384.2551, 3278.463
384.7372, 3122.604
385.2193, 2991.833
385.7014, 2885.254
386.1836, 2802.803
386.6657, 2744.266
387.1478, 2709.808
387.6299, 2700.289
388.1120, 2723.704
388.5941, 2765.567
389.0763, 2819.000
389.5584, 2887.302
390.0405, 2975.896
390.5226, 3089.006
391.0047, 3220.389
391.4868, 3362.140
391.9690, 3513.565
392.4511, 3679.404
392.9332, 3884.349
393.4153, 4081.356
393.8974, 4243.702
394.3795, 4370.308
394.8617, 4420.168
395.3438, 4355.603
395.8259, 4207.946
396.3080, 4014.586
396.7901, 3776.640
397.2722, 3531.803
397.7544, 3297.534
398.2365, 3079.750
398.7186, 2893.908
399.2007, 2744.793
399.6828, 2622.894
400.1649, 2532.092
400.6471, 2464.690
401.1292, 2408.552
401.6113, 2359.444
402.0934, 2318.016
402.5755, 2285.486
403.0576, 2266.017
403.5398, 2243.426
404.0219, 2216.300
404.5040, 2187.622
404.9861, 2154.622
405.4682, 2121.173
405.9503, 2096.101
406.4325, 2085.451
406.9146, 2086.134
407.3967, 2088.766
407.8788, 2098.385
408.3609, 2099.227
408.8430, 2074.626
409.3252, 2049.701
409.8073, 2048.294
410.2894, 2072.661
410.7715, 2098.865
411.2536, 2104.415
411.7357, 2093.476
412.2179, 2087.323
412.7000, 2088.473
413.1821, 2091.667
413.6642, 2093.487
414.1463, 2094.765
414.6284, 2096.754
415.1106, 2094.891
415.5927, 2099.687
416.0748, 2125.878
416.5569, 2165.877
417.0390, 2194.000
417.5211, 2199.503
418.0033, 2197.167
418.4854, 2208.919
418.9675, 2238.889
419.4496, 2270.160
419.9317, 2308.946
420.4138, 2343.137
420.8960, 2364.883
421.3781, 2374.792
421.8602, 2376.581
422.3423, 2372.146
422.8244, 2362.571
423.3065, 2353.155
423.7887, 2351.143
424.2708, 2337.106
424.7529, 2299.896
425.2350, 2257.196
425.7171, 2221.905
426.1992, 2196.447
426.6814, 2177.773
427.1635, 2163.845
427.6456, 2154.418
428.1277, 2147.929
428.6098, 2144.769
429.0919, 2143.890
429.5741, 2145.103
430.0562, 2148.059
430.5383, 2152.496
431.0204, 2158.602
431.5025, 2165.639
431.9846, 2173.630
432.4668, 2182.156
432.9489, 2188.789
433.4310, 2191.894
433.9131, 2196.347
434.3952, 2207.265
434.8773, 2224.805
435.3595, 2249.647
435.8416, 2280.106
436.3237, 2319.437
436.8058, 2374.440
437.2879, 2440.072
437.7701, 2502.451
438.2522, 2553.576
438.7343, 2602.903
439.2164, 2675.003
439.6985, 2785.964
440.1806, 2891.411
440.6628, 3007.689
441.1449, 3105.896
441.6270, 3167.697
442.1091, 3193.679
442.5912, 3194.333
443.0733, 3173.470
443.5555, 3134.772
444.0376, 3088.710
444.5197, 3027.736
445.0018, 2980.521
445.4839, 2961.995
445.9660, 2960.957
446.4482, 2969.586
446.9303, 2987.735
447.4124, 3009.100
447.8945, 3028.850
448.3766, 3049.318
448.8587, 3077.824
449.3409, 3116.261
449.8230, 3151.148
450.3051, 3170.535
450.7872, 3176.151
451.2693, 3187.470
451.7514, 3218.031
452.2336, 3238.201
452.7157, 3240.945
453.1978, 3226.434
453.6799, 3190.976
454.1620, 3134.800
454.6441, 3070.339
455.1263, 3014.307
455.6084, 2969.828
456.0905, 2916.460
456.5726, 2841.130
457.0547, 2770.589
457.5368, 2715.853
458.0190, 2670.636
458.5011, 2624.393
458.9832, 2572.493
459.4653, 2518.649
459.9474, 2463.819
460.4295, 2407.967
460.9117, 2368.970
461.3938, 2358.403
461.8759, 2354.809
462.3580, 2336.857
462.8401, 2307.792
463.3222, 2284.884
463.8044, 2278.075
464.2865, 2275.126
464.7686, 2266.100
465.2507, 2251.600
465.7328, 2233.719
466.2149, 2212.374
466.6971, 2191.722
467.1792, 2180.695
467.6613, 2187.115
468.1434, 2186.714
468.6255, 2173.248
469.1076, 2158.511
469.5898, 2149.626
470.0719, 2146.020
470.5540, 2144.343
471.0361, 2142.814
471.5182, 2140.807
472.0003, 2137.012
472.4825, 2132.897
472.9646, 2123.000
473.4467, 2096.562
473.9288, 2070.904
474.4109, 2057.946
474.8930, 2057.690
475.3752, 2061.425
475.8573, 2065.819
476.3394, 2070.374
476.8215, 2076.048
477.3036, 2082.880
477.7857, 2082.340
478.2679, 2065.989
478.7500, 2042.999
479.2321, 2037.465
479.7142, 2058.071
480.1963, 2071.611
480.6784, 2066.288
481.1606, 2054.906
481.6427, 2049.107
482.1248, 2049.334
482.6069, 2048.817
483.0890, 2041.522
483.5711, 2030.271
484.0533, 2031.518
484.5354, 2056.645
485.0175, 2075.685
485.4996, 2080.262
485.9817, 2080.745
486.4638, 2087.178
486.9460, 2099.591
487.4281, 2107.723
487.9102, 2100.005
488.3923, 2082.016
488.8744, 2069.645
489.3565, 2062.761
489.8387, 2063.616
490.3208, 2077.988
490.8029, 2098.669
491.2850, 2110.299
491.7671, 2110.184
492.2492, 2109.118
492.7314, 2108.200
493.2135, 2109.610
493.6956, 2118.130
494.1777, 2132.865
494.6598, 2145.635
495.1419, 2149.777
495.6241, 2146.872
496.1062, 2147.056
496.5883, 2146.441
497.0704, 2155.129
497.5525, 2181.307
498.0346, 2211.766
498.5168, 2236.955
498.9989, 2255.116
499.4810, 2268.072
499.9631, 2273.846
500.4452, 2275.756
500.9273, 2287.149
501.4095, 2309.871
501.8916, 2334.312
502.3737, 2355.175
502.8558, 2376.342
503.3379, 2404.051
503.8200, 2439.878
504.3022, 2475.598
504.7843, 2507.778
505.2664, 2538.353
505.7485, 2570.192
506.2306, 2602.955
506.7127, 2633.140
507.1949, 2659.477
507.6770, 2680.211
508.1591, 2687.300
508.6412, 2671.055
509.1233, 2654.608
509.6054, 2647.130
510.0876, 2633.924
510.5697, 2601.137
511.0518, 2550.912
511.5339, 2497.718
512.0161, 2451.214
512.4982, 2409.742
512.9803, 2368.066
513.4624, 2325.963
513.9445, 2286.798
514.4266, 2253.505
514.9088, 2222.321
515.3909, 2185.933
515.8730, 2143.137
516.3551, 2109.497
516.8372, 2098.328
517.3193, 2091.918
517.8015, 2071.446
518.2836, 2039.716
518.7657, 2010.929
519.2478, 1992.465
519.7299, 1982.638
520.2120, 1978.016
520.6942, 1983.013
521.1763, 1984.780
521.6584, 1981.597
522.1405, 1977.206
522.6226, 1976.098
523.1047, 1975.410
523.5869, 1966.610
524.0690, 1942.097
524.5511, 1914.140
525.0332, 1904.228
525.5153, 1912.251
525.9974, 1920.949
526.4796, 1927.072
526.9617, 1931.326
527.4438, 1934.128
527.9259, 1935.603
528.4080, 1936.101
528.8901, 1931.650
529.3723, 1930.213
529.8544, 1938.621
530.3365, 1953.045
530.8186, 1966.834
531.3007, 1977.641
531.7828, 1984.903
532.2650, 1987.220
532.7471, 1983.445
533.2292, 1981.768
533.7113, 1977.623
534.1934, 1981.364
534.6755, 2002.807
535.1577, 2031.261
535.6398, 2052.356
536.1219, 2061.774
536.6040, 2066.313
537.0861, 2067.794
537.5682, 2069.304
538.0504, 2082.809
538.5325, 2110.871
539.0146, 2141.454
539.4967, 2166.637
539.9788, 2187.126
540.4609, 2206.311
540.9431, 2232.431
541.4252, 2246.536
541.9073, 2238.789
542.3894, 2221.252
542.8715, 2205.818
543.3536, 2193.065
543.8358, 2175.092
544.3179, 2143.877
544.8000, 2104.011
545.2821, 2076.798
545.7642, 2067.391
546.2463, 2056.599
546.7285, 2039.491
547.2106, 2019.288
547.6927, 1995.978
548.1748, 1970.466
548.6569, 1949.984
549.1390, 1938.084
549.6211, 1932.699
550.1032, 1932.951
550.5853, 1938.097
551.0674, 1947.040
551.5496, 1960.499
552.0317, 1971.804
552.5138, 1969.403
552.9959, 1947.789
553.4780, 1930.894
553.9601, 1909.622
554.4423, 1901.867
554.9244, 1926.775
555.4065, 1966.227
555.8886, 1989.770
556.3707, 1985.878
556.8528, 1976.881
557.3350, 1993.289
557.8171, 2031.155
558.2992, 2056.651
558.7813, 2063.217
559.2634, 2068.379
559.7455, 2083.059
560.2277, 2105.422
560.7098, 2127.724
561.1919, 2145.239
561.6740, 2170.947
562.1561, 2218.304
562.6382, 2270.119
563.1204, 2304.511
563.6025, 2322.693
564.0846, 2344.459
564.5667, 2384.661
565.0488, 2439.728
565.5309, 2495.885
566.0131, 2551.256
566.4952, 2612.275
566.9773, 2671.540
567.4594, 2744.781
567.9415, 2845.257
568.4236, 2970.056
568.9058, 3103.800
569.3879, 3243.775
569.8700, 3387.291
570.3521, 3539.605
570.8342, 3694.916
571.3163, 3840.724
571.7985, 3975.657
572.2806, 4074.761
572.7627, 4103.506
573.2448, 4054.844
573.7269, 4002.146
574.2090, 3976.608
574.6912, 3909.364
575.1733, 3752.821
575.6554, 3561.596
576.1375, 3387.011
576.6196, 3243.357
577.1017, 3132.100
577.5839, 3059.851
578.0660, 3020.765
578.5481, 2997.475
579.0302, 2990.538
579.5123, 2992.167
579.9944, 2998.089
580.4766, 3011.296
580.9587, 3042.113
581.4408, 3097.903
581.9229, 3138.219
582.4050, 3165.351
582.8871, 3167.970
583.3693, 3130.015
583.8514, 3062.635
584.3335, 2988.043
584.8156, 2916.740
585.2977, 2844.091
585.7798, 2760.747
586.2620, 2665.713
586.7441, 2572.156
587.2262, 2471.975
587.7083, 2386.494
588.1904, 2335.098
588.6725, 2304.131
589.1547, 2273.171
589.6368, 2239.855
590.1189, 2205.093
590.6010, 2166.583
591.0831, 2128.258
591.5652, 2094.133
592.0474, 2065.134
592.5295, 2042.397
593.0116, 2026.819
593.4937, 2018.052
593.9758, 2015.720
594.4579, 2023.801
594.9401, 2028.868
595.4222, 2027.531
595.9043, 2024.967
596.3864, 2023.432
596.8685, 2022.708
597.3506, 2021.710
597.8328, 2019.392
598.3149, 2017.959
598.7970, 2019.151
599.2791, 2022.803
599.7612, 2029.975
600.2433, 2040.917
600.7255, 2049.328
601.2076, 2049.282
601.6897, 2041.990
602.1718, 2037.413
602.6539, 2040.481
603.1360, 2039.445
603.6182, 2031.184
604.1003, 2020.362
604.5824, 2009.592
605.0645, 1999.441
605.5466, 1989.926
606.0287, 1979.767
606.5109, 1971.911
606.9930, 1976.551
607.4751, 1990.544
607.9572, 1985.059
608.4393, 1948.218
608.9214, 1908.804
609.4036, 1896.998
609.8857, 1912.967
610.3678, 1921.602
610.8499, 1919.964
611.3320, 1915.475
611.8141, 1906.401
612.2963, 1897.434
612.7784, 1894.532
613.2605, 1897.335
613.7426, 1899.456
614.2247, 1895.534
614.7068, 1887.965
615.1890, 1881.665
615.6711, 1876.511
616.1532, 1876.448
616.6353, 1885.406
617.1174, 1894.850
617.5995, 1894.395
618.0817, 1883.786
618.5638, 1874.579
619.0459, 1866.765
619.5280, 1860.944
620.0101, 1858.213
620.4922, 1857.186
620.9744, 1856.235
621.4565, 1855.013
621.9386, 1853.896
622.4207, 1852.404
622.9028, 1851.635
623.3849, 1856.657
623.8671, 1868.417
624.3492, 1880.587
624.8313, 1891.932
625.3134, 1902.146
625.7955, 1912.428
626.2776, 1922.733
626.7598, 1925.010
627.2419, 1910.576
627.7240, 1896.031
628.2061, 1890.444
628.6882, 1889.801
629.1703, 1886.145
629.6525, 1878.643
630.1346, 1876.219
630.6167, 1890.427
631.0988, 1916.796
631.5809, 1928.467
632.0630, 1920.784
632.5452, 1917.017
633.0273, 1927.375
633.5094, 1941.552
633.9915, 1948.137
634.4736, 1947.509
634.9557, 1945.944
635.4379, 1942.462
635.9200, 1940.651
636.4021, 1940.602
636.8842, 1944.259
637.3663, 1957.392
637.8484, 1979.867
638.3306, 2000.935
638.8127, 2009.281
639.2948, 2006.964
639.7769, 2005.145
640.2590, 2002.105
640.7411, 2005.962
641.2233, 2022.712
641.7054, 2043.864
642.1875, 2062.047
642.6696, 2077.252
643.1517, 2088.213
643.6339, 2087.640
644.1160, 2090.272
644.5981, 2112.801
645.0802, 2140.387
645.5623, 2148.156
646.0444, 2132.292
646.5266, 2109.693
647.0087, 2094.835
