##NAMES=Euclase
##RRUFFID=R050623
##IDEAL CHEMISTRY=BeAlSiO_4_(OH)
##LOCALITY=Minas Gerais, Brazil
##OWNER=RRUFF
##SOURCE=Gemmological Center
##DESCRIPTION=Colorless flattened prismatic crystal
##STATUS=The identification of this mineral has been confirmed by X-ray diffraction and chemical analysis
##URL=rruff.info/R050623
##MEASURED CHEMISTRY=Be_1.00_Al_1.00_Si_1.00_O_4_(OH) ; Be not measured but estimated by stoichiometry
92.06543, 197.5159
92.54755, 196.4716
93.02966, 197.1691
93.51178, 200.3669
93.99390, 200.8550
94.47601, 197.7594
94.95813, 192.0099
95.44025, 184.9734
95.92236, 177.4658
96.40448, 169.2942
96.88660, 163.3779
97.36871, 159.3450
97.85082, 157.2861
98.33294, 157.9669
98.81506, 161.3262
99.29717, 164.8992
99.77929, 167.2700
100.2614, 168.7198
100.7435, 167.7482
101.2256, 162.3023
101.7078, 154.2065
102.1899, 147.2963
102.6720, 141.3130
103.1541, 138.3664
103.6362, 139.7339
104.1183, 145.3066
104.6005, 153.0033
105.0826, 162.4978
105.5647, 174.5464
106.0468, 182.8401
106.5289, 186.2828
107.0110, 185.4252
107.4931, 178.7404
107.9753, 165.9190
108.4574, 150.4124
108.9395, 139.0415
109.4216, 134.4087
109.9037, 130.2545
110.3858, 125.9528
110.8680, 121.6587
111.3501, 117.4630
111.8322, 113.3702
112.3143, 109.5403
112.7964, 107.0176
113.2785, 106.6118
113.7607, 106.4991
114.2428, 106.7002
114.7249, 106.9130
115.2070, 106.4618
115.6891, 104.7962
116.1712, 101.8538
116.6534, 98.83797
117.1355, 95.13408
117.6176, 91.75376
118.0997, 89.52830
118.5818, 88.54438
119.0639, 88.20667
119.5461, 88.12051
120.0282, 88.27359
120.5103, 88.75141
120.9924, 89.87414
121.4745, 91.32959
121.9566, 92.40845
122.4388, 93.00829
122.9209, 93.22620
123.4030, 93.20065
123.8851, 92.93566
124.3672, 92.43560
124.8493, 91.58300
125.3315, 90.33608
125.8136, 89.31685
126.2957, 88.30774
126.7778, 87.76625
127.2599, 88.12428
127.7420, 89.32375
128.2242, 90.82452
128.7063, 92.00790
129.1884, 93.18382
129.6705, 93.25661
130.1526, 91.65761
130.6347, 89.51982
131.1169, 87.57195
131.5990, 86.08203
132.0811, 84.98485
132.5632, 84.14836
133.0453, 83.41480
133.5274, 83.17313
134.0096, 83.77813
134.4917, 84.82803
134.9738, 85.89626
135.4559, 86.88725
135.9380, 87.55542
136.4201, 86.97233
136.9023, 84.11497
137.3844, 81.62038
137.8665, 80.80200
138.3486, 81.39133
138.8307, 82.19622
139.3128, 82.60324
139.7950, 82.78234
140.2771, 83.11089
140.7592, 83.49222
141.2413, 84.14867
141.7234, 85.37189
142.2055, 87.22715
142.6877, 89.29259
143.1698, 91.83701
143.6519, 94.32614
144.1340, 96.17342
144.6161, 97.41333
145.0982, 97.71341
145.5803, 95.97155
146.0625, 90.78291
146.5446, 85.69640
147.0267, 81.80137
147.5088, 78.84197
147.9909, 76.38283
148.4730, 74.11829
148.9552, 72.06888
149.4373, 70.71889
149.9194, 70.84656
150.4015, 71.00629
150.8836, 70.89011
151.3657, 70.50844
151.8479, 69.96819
152.3300, 69.32083
152.8121, 68.46664
153.2942, 68.14595
153.7763, 68.81373
154.2584, 69.49806
154.7406, 69.72389
155.2227, 69.45724
155.7048, 68.93374
156.1869, 68.37115
156.6690, 67.71857
157.1511, 67.29034
157.6333, 67.07279
158.1154, 67.07683
158.5975, 67.47613
159.0796, 68.32461
159.5617, 69.12399
160.0438, 69.05476
160.5260, 68.06823
161.0081, 67.33744
161.4902, 67.18329
161.9723, 67.44846
162.4544, 67.94935
162.9365, 68.80938
163.4187, 69.54963
163.9008, 69.53814
164.3829, 68.81724
164.8650, 68.06121
165.3471, 67.55461
165.8292, 67.29945
166.3113, 67.35738
166.7935, 68.03147
167.2756, 68.76161
167.7577, 69.00717
168.2398, 68.76962
168.7219, 68.60900
169.2040, 69.23753
169.6862, 70.83727
170.1683, 71.96947
170.6504, 72.00070
171.1325, 71.75167
171.6146, 71.50774
172.0967, 71.36732
172.5789, 71.46155
173.0610, 71.95361
173.5431, 72.79774
174.0252, 74.22456
174.5073, 76.32130
174.9894, 78.83775
175.4716, 81.24309
175.9537, 83.45846
176.4358, 86.31435
176.9179, 91.38758
177.4000, 97.82236
177.8821, 108.3862
178.3643, 130.8329
178.8464, 153.9873
179.3285, 166.3467
179.8106, 163.2606
180.2927, 148.4503
180.7748, 131.6474
181.2570, 107.0633
181.7391, 87.61886
182.2212, 76.27390
182.7033, 70.68764
183.1854, 67.99892
183.6675, 67.24889
184.1497, 67.77650
184.6318, 67.44086
185.1139, 65.52413
185.5960, 64.03487
186.0781, 64.10394
186.5602, 65.22385
187.0423, 65.85966
187.5245, 65.05781
188.0066, 63.53608
188.4887, 63.06943
188.9708, 64.21246
189.4529, 65.41130
189.9350, 65.52908
190.4172, 64.66933
190.8993, 63.99230
191.3814, 64.23293
191.8635, 64.83495
192.3456, 64.93928
192.8277, 64.25581
193.3099, 63.48093
193.7920, 63.42115
194.2741, 64.19396
194.7562, 64.80412
195.2383, 64.69872
195.7204, 64.28838
196.2026, 63.82908
196.6847, 63.34124
197.1668, 62.96335
197.6489, 62.98557
198.1310, 63.61138
198.6131, 64.05293
199.0953, 64.14936
199.5774, 63.95490
200.0595, 63.36306
200.5416, 62.28208
201.0237, 61.08991
201.5058, 60.68122
201.9880, 61.54171
202.4701, 62.35523
202.9522, 62.95092
203.4343, 63.35777
203.9164, 63.60655
204.3985, 63.71240
204.8807, 63.66177
205.3628, 63.38375
205.8449, 62.40808
206.3270, 61.84144
206.8091, 62.12484
207.2912, 62.75117
207.7733, 63.10696
208.2555, 62.87688
208.7376, 62.26814
209.2197, 62.05233
209.7018, 62.88131
210.1839, 63.38258
210.6660, 63.07548
211.1482, 62.42950
211.6303, 62.11682
212.1124, 62.49603
212.5945, 63.39858
213.0766, 64.16051
213.5587, 64.67680
214.0409, 65.18926
214.5230, 65.70460
215.0051, 66.25178
215.4872, 66.90589
215.9693, 67.72400
216.4514, 68.64404
216.9336, 69.43044
217.4157, 70.39046
217.8978, 70.89422
218.3799, 70.34270
218.8620, 69.13961
219.3441, 68.31548
219.8263, 68.42407
220.3084, 69.17666
220.7905, 69.73594
221.2726, 69.98169
221.7547, 70.26797
222.2368, 70.80632
222.7190, 71.54507
223.2011, 72.26196
223.6832, 72.81911
224.1653, 73.34406
224.6474, 74.05164
225.1295, 74.94766
225.6117, 76.00101
226.0938, 77.27019
226.5759, 78.72669
227.0580, 80.05833
227.5401, 80.82996
228.0222, 81.70193
228.5043, 83.43772
228.9865, 86.13904
229.4686, 89.41004
229.9507, 92.42252
230.4328, 95.18166
230.9149, 99.76586
231.3970, 105.8537
231.8792, 115.0586
232.3613, 128.5951
232.8434, 146.6501
233.3255, 168.5224
233.8076, 198.4963
234.2897, 238.4849
234.7719, 264.2006
235.2540, 265.2225
235.7361, 252.1021
236.2182, 225.8086
236.7003, 187.2683
237.1824, 148.3416
237.6646, 121.7387
238.1467, 108.8607
238.6288, 99.79423
239.1109, 95.65070
239.5930, 93.35476
240.0751, 91.70906
240.5573, 90.45129
241.0394, 89.62108
241.5215, 89.38643
242.0036, 89.93589
242.4857, 90.30968
242.9678, 90.06786
243.4500, 89.94553
243.9321, 90.16148
244.4142, 90.82018
244.8963, 92.06908
245.3784, 94.22454
245.8605, 97.62888
246.3427, 100.6750
246.8248, 102.9425
247.3069, 105.2224
247.7890, 107.9038
248.2711, 111.0033
248.7532, 114.2328
249.2354, 117.1563
249.7175, 119.3031
250.1996, 123.2774
250.6817, 128.8497
251.1638, 136.1161
251.6459, 144.5627
252.1281, 154.6085
252.6102, 167.2689
253.0923, 183.3886
253.5744, 202.5300
254.0565, 228.0679
254.5386, 258.0585
255.0208, 294.7399
255.5029, 345.0881
255.9850, 404.7597
256.4671, 463.1123
256.9492, 514.0366
257.4313, 559.9480
257.9135, 563.6878
258.3956, 507.4587
258.8777, 437.0155
259.3598, 361.0957
259.8419, 285.7819
260.3240, 220.8566
260.8062, 174.0871
261.2883, 145.4194
261.7704, 123.4125
262.2525, 109.1763
262.7346, 98.46072
263.2167, 90.54103
263.6989, 84.87277
264.1810, 80.64132
264.6631, 77.38162
265.1452, 75.07069
265.6273, 73.48985
266.1094, 73.31994
266.5916, 72.99651
267.0737, 71.71906
267.5558, 69.84866
268.0379, 68.25603
268.5200, 67.43022
269.0021, 67.22235
269.4843, 67.01004
269.9664, 66.79101
270.4485, 66.57121
270.9306, 66.32059
271.4127, 66.07100
271.8948, 65.85721
272.3770, 65.65938
272.8591, 65.57159
273.3412, 65.92488
273.8233, 66.99295
274.3054, 67.83871
274.7875, 67.90554
275.2697, 67.58187
275.7518, 67.62203
276.2339, 68.32561
276.7160, 69.40154
277.1981, 70.31944
277.6802, 71.05329
278.1623, 71.82260
278.6444, 72.48481
279.1266, 73.26810
279.6087, 74.57117
280.0908, 76.51978
280.5729, 78.90717
281.0550, 81.32502
281.5371, 83.67667
282.0193, 87.06486
282.5014, 91.39989
282.9835, 97.05740
283.4656, 104.8802
283.9477, 115.1824
284.4298, 126.6711
284.9120, 139.6605
285.3941, 153.6372
285.8762, 162.4397
286.3583, 164.6291
286.8404, 161.0447
287.3225, 151.0477
287.8047, 133.9530
288.2868, 116.0198
288.7689, 101.4838
289.2510, 90.17503
289.7331, 81.24660
290.2152, 75.45508
290.6974, 71.56608
291.1795, 68.68813
291.6616, 66.82279
292.1437, 65.31496
292.6258, 63.73016
293.1079, 62.24411
293.5901, 61.23897
294.0722, 61.02034
294.5543, 60.99619
295.0364, 60.60882
295.5185, 59.88470
296.0006, 59.34669
296.4828, 59.33717
296.9649, 59.61061
297.4470, 59.69738
297.9291, 59.51260
298.4112, 59.30724
298.8933, 59.36118
299.3755, 59.60099
299.8576, 59.54934
300.3397, 58.92452
300.8218, 58.05825
301.3039, 57.35893
301.7860, 56.81543
302.2682, 56.50372
302.7503, 56.51945
303.2324, 56.80991
303.7145, 57.26019
304.1966, 58.02918
304.6787, 58.63271
305.1609, 58.42680
305.6430, 57.51077
306.1251, 56.70584
306.6072, 56.48907
307.0893, 56.61776
307.5714, 56.50618
308.0536, 55.97366
308.5357, 55.53053
309.0178, 55.77355
309.4999, 56.47426
309.9820, 57.04011
310.4641, 57.23371
310.9463, 57.20020
311.4284, 57.12458
311.9105, 57.00449
312.3926, 56.87623
312.8747, 56.72767
313.3568, 56.59449
313.8390, 56.55622
314.3211, 56.71252
314.8032, 56.88127
315.2853, 56.87175
315.7674, 56.68157
316.2495, 56.41158
316.7317, 55.97907
317.2138, 55.56859
317.6959, 55.49637
318.1780, 55.92233
318.6601, 56.32692
319.1422, 56.19871
319.6243, 55.63327
320.1064, 55.38049
320.5886, 56.01980
321.0707, 56.65078
321.5528, 55.89640
322.0349, 53.61515
322.5170, 51.89623
322.9991, 52.49147
323.4813, 54.53870
323.9634, 55.37707
324.4455, 54.03479
324.9276, 52.47844
325.4097, 53.01221
325.8918, 55.20767
326.3740, 57.00648
326.8561, 57.48179
327.3382, 57.19570
327.8203, 57.03181
328.3024, 57.08179
328.7845, 57.09748
329.2667, 56.77002
329.7488, 56.26408
330.2309, 56.00094
330.7130, 56.28946
331.1951, 56.69056
331.6772, 56.70243
332.1594, 56.33237
332.6415, 56.06876
333.1236, 56.28777
333.6057, 56.72179
334.0878, 56.75991
334.5699, 56.11536
335.0521, 55.56689
335.5342, 55.74781
336.0163, 56.49199
336.4984, 57.08064
336.9805, 57.23212
337.4626, 57.16127
337.9448, 57.24891
338.4269, 57.55027
338.9090, 57.65336
339.3911, 57.15102
339.8732, 56.38284
340.3553, 56.03526
340.8375, 56.29450
341.3196, 56.77466
341.8017, 57.05711
342.2838, 57.16413
342.7659, 57.34834
343.2480, 57.83997
343.7302, 58.32887
344.2123, 58.29913
344.6944, 57.72681
345.1765, 57.41577
345.6586, 58.01140
346.1407, 59.43662
346.6229, 60.80648
347.1050, 62.07053
347.5871, 63.30801
348.0692, 64.41596
348.5513, 65.48724
349.0334, 66.93390
349.5156, 68.99449
349.9977, 71.50544
350.4798, 74.05026
350.9619, 76.83694
351.4440, 79.25581
351.9261, 81.78036
352.4083, 83.64830
352.8904, 83.27473
353.3725, 80.03327
353.8546, 75.49576
354.3367, 71.76383
354.8188, 68.91759
355.3010, 66.60801
355.7831, 65.06370
356.2652, 63.88822
356.7473, 62.74714
357.2294, 61.59674
357.7115, 60.51771
358.1937, 59.53448
358.6758, 58.65695
359.1579, 58.20141
359.6400, 58.35275
360.1221, 58.69591
360.6042, 59.08382
361.0863, 59.50343
361.5685, 59.96223
362.0506, 60.47365
362.5327, 61.01579
363.0148, 61.49698
363.4969, 61.90350
363.9790, 62.27086
364.4612, 62.77389
364.9433, 63.17754
365.4254, 63.03202
365.9075, 62.21428
366.3896, 61.26054
366.8717, 61.02490
367.3539, 61.75402
367.8360, 62.74965
368.3181, 64.33874
368.8002, 65.92064
369.2823, 67.06413
369.7644, 67.76737
370.2466, 68.30147
370.7287, 68.87753
371.2108, 69.48150
371.6929, 70.40932
372.1750, 71.69666
372.6571, 73.24452
373.1393, 74.95529
373.6214, 76.92651
374.1035, 79.35807
374.5856, 82.35899
375.0677, 85.83988
375.5498, 89.50197
376.0320, 92.83537
376.5141, 97.23132
376.9962, 103.0706
377.4783, 109.7615
377.9604, 117.1590
378.4425, 125.0929
378.9247, 132.7256
379.4068, 139.3466
379.8889, 145.6499
380.3710, 148.3950
380.8531, 146.7486
381.3352, 142.2819
381.8174, 134.0806
382.2995, 123.3433
382.7816, 112.8704
383.2637, 104.7857
383.7458, 98.81251
384.2279, 93.12363
384.7101, 87.16032
385.1922, 82.45850
385.6743, 79.43785
386.1564, 77.73359
386.6385, 76.95634
387.1206, 77.01778
387.6028, 77.71516
388.0849, 78.67136
388.5670, 79.78292
389.0491, 81.63657
389.5312, 84.22605
390.0133, 87.80128
390.4955, 92.33507
390.9776, 97.90495
391.4597, 105.1331
391.9418, 114.9195
392.4239, 126.9718
392.9060, 140.0041
393.3882, 156.1530
393.8703, 169.1501
394.3524, 176.3086
394.8345, 177.7072
395.3166, 172.4737
395.7987, 157.4322
396.2809, 137.8665
396.7630, 120.1978
397.2451, 104.2375
397.7272, 91.06212
398.2093, 81.61063
398.6914, 75.13382
399.1736, 70.15613
399.6557, 66.77950
400.1378, 64.25211
400.6199, 62.35801
401.1020, 60.96847
401.5841, 59.71866
402.0662, 58.49798
402.5483, 57.48590
403.0305, 56.98934
403.5126, 56.96996
403.9947, 57.01380
404.4768, 57.20707
404.9589, 57.32745
405.4410, 57.05563
405.9232, 56.42824
406.4053, 55.90531
406.8874, 55.82833
407.3695, 56.09322
407.8516, 56.14005
408.3337, 55.81857
408.8159, 55.48692
409.2980, 55.15731
409.7801, 54.91122
410.2622, 54.96721
410.7443, 55.41128
411.2264, 55.91710
411.7086, 55.95240
412.1907, 55.28190
412.6728, 54.68159
413.1549, 53.94320
413.6370, 53.43368
414.1191, 53.48568
414.6013, 54.03522
415.0834, 54.77749
415.5655, 55.51656
416.0476, 56.23232
416.5297, 56.52096
417.0118, 55.72340
417.4940, 55.24510
417.9761, 55.40384
418.4582, 55.98213
418.9403, 56.73742
419.4224, 57.57336
419.9045, 58.46063
420.3867, 59.37707
420.8688, 60.37738
421.3509, 61.24456
421.8330, 62.31471
422.3151, 62.96522
422.7972, 62.71594
423.2794, 61.68627
423.7615, 60.37278
424.2436, 59.04468
424.7257, 57.75433
425.2078, 56.84627
425.6899, 56.41021
426.1721, 56.22617
426.6542, 56.37862
427.1363, 56.63784
427.6184, 56.65254
428.1005, 56.24850
428.5826, 55.90801
429.0648, 56.38381
429.5469, 57.69392
430.0290, 58.63769
430.5111, 58.74957
430.9932, 58.62744
431.4753, 58.66923
431.9575, 58.90056
432.4396, 59.52563
432.9217, 61.01165
433.4038, 62.82442
433.8859, 63.88947
434.3680, 64.05312
434.8502, 64.43180
435.3323, 65.73296
435.8144, 67.79955
436.2965, 70.01591
436.7786, 72.13284
437.2607, 74.74331
437.7429, 77.91941
438.2250, 81.82847
438.7071, 86.80960
439.1892, 92.92887
439.6713, 100.3356
440.1534, 109.7127
440.6356, 121.9740
441.1177, 131.8650
441.5998, 140.6277
442.0819, 145.7091
442.5640, 144.1777
443.0461, 136.8675
443.5282, 126.8650
444.0103, 115.7661
444.4925, 104.2644
444.9746, 96.46313
445.4567, 94.41745
445.9388, 93.65991
446.4209, 94.23528
446.9030, 95.64327
447.3852, 97.56266
447.8673, 99.84673
448.3494, 102.3342
448.8315, 104.9007
449.3136, 107.6717
449.7957, 109.8760
450.2779, 111.6964
450.7600, 112.7498
451.2421, 112.7208
451.7242, 111.8299
452.2063, 110.4838
452.6884, 108.9112
453.1706, 107.0188
453.6527, 104.6563
454.1348, 101.9211
454.6169, 98.44176
455.0990, 93.16269
455.5811, 87.72855
456.0633, 83.18540
456.5454, 79.65845
457.0275, 76.75332
457.5096, 74.44255
457.9917, 72.54594
458.4738, 70.24671
458.9560, 67.22540
459.4381, 64.56399
459.9202, 63.38236
460.4023, 63.01942
460.8844, 62.23351
461.3665, 60.50059
461.8487, 58.75370
462.3308, 57.79826
462.8129, 57.43000
463.2950, 56.91676
463.7771, 55.99007
464.2592, 54.91571
464.7414, 54.06691
465.2235, 53.46788
465.7056, 52.88175
466.1877, 51.99312
466.6698, 51.32053
467.1519, 51.47694
467.6341, 52.30860
468.1162, 53.07520
468.5983, 53.31610
469.0804, 53.10131
469.5625, 52.73948
470.0446, 52.02397
470.5268, 51.42327
471.0089, 51.08710
471.4910, 50.81609
471.9731, 50.33907
472.4552, 49.65368
472.9373, 49.08328
473.4195, 49.01310
473.9016, 49.48372
474.3837, 49.90275
474.8658, 50.48453
475.3479, 50.74884
475.8300, 50.37765
476.3122, 49.66595
476.7943, 48.97397
477.2764, 48.43037
477.7585, 48.10389
478.2406, 48.20406
478.7227, 48.80089
479.2049, 49.18323
479.6870, 49.13749
480.1691, 48.91822
480.6512, 48.71048
481.1333, 48.50532
481.6154, 48.23685
482.0976, 47.68280
482.5797, 47.13099
483.0618, 47.15340
483.5439, 47.77203
484.0260, 48.26731
484.5081, 48.24675
484.9902, 47.90979
485.4724, 47.69575
485.9545, 47.62909
486.4366, 47.60016
486.9187, 47.51799
487.4008, 47.47521
487.8829, 47.70243
488.3651, 48.20532
488.8472, 48.55156
489.3293, 48.29335
489.8114, 47.43671
490.2935, 47.03131
490.7756, 47.32253
491.2578, 47.68892
491.7399, 48.08315
492.2220, 48.40446
492.7041, 48.45840
493.1862, 48.20083
493.6683, 47.90216
494.1505, 48.02186
494.6326, 48.77245
495.1147, 49.09778
495.5968, 48.39782
496.0789, 47.85309
496.5610, 47.94205
497.0432, 48.50016
497.5253, 49.18410
498.0074, 49.83575
498.4895, 50.46377
498.9716, 51.17877
499.4537, 52.06693
499.9359, 52.46026
500.4180, 51.69019
500.9001, 50.83274
501.3822, 50.80591
501.8643, 51.56398
502.3464, 52.46730
502.8286, 53.29084
503.3107, 54.04852
503.7928, 54.74287
504.2749, 55.37341
504.7570, 56.03802
505.2391, 56.76112
505.7213, 57.57544
506.2034, 58.57106
506.6855, 59.87464
507.1676, 61.04328
507.6497, 62.13091
508.1318, 62.93301
508.6140, 63.06071
509.0961, 62.53696
509.5782, 61.96549
510.0603, 61.95438
510.5424, 62.43841
511.0245, 62.00493
511.5067, 59.87122
511.9888, 57.76139
512.4709, 55.71732
512.9530, 53.95238
513.4351, 52.84742
513.9172, 52.42517
514.3994, 52.08466
514.8815, 51.00574
515.3636, 49.09929
515.8457, 47.58822
516.3278, 46.45966
516.8099, 45.78077
517.2921, 45.85430
517.7742, 46.26745
518.2563, 46.37679
518.7384, 45.92928
519.2205, 45.26590
519.7026, 44.64514
520.1848, 44.09353
520.6669, 43.87263
521.1490, 44.16180
521.6311, 44.54089
522.1132, 44.57000
522.5953, 44.30728
523.0775, 44.01539
523.5596, 43.62801
524.0417, 43.32495
524.5238, 43.30423
525.0059, 43.47760
525.4880, 43.55800
525.9702, 43.41106
526.4523, 43.24393
526.9344, 43.45050
527.4165, 44.33638
527.8986, 44.77397
528.3807, 44.40789
528.8629, 43.96431
529.3450, 43.88787
529.8271, 44.05853
530.3092, 44.08128
530.7913, 43.71117
531.2734, 43.18907
531.7556, 43.17202
532.2377, 43.93160
532.7198, 44.42572
533.2019, 44.23167
533.6840, 43.95568
534.1661, 43.88857
534.6483, 44.03680
535.1304, 44.30906
535.6125, 44.74575
536.0946, 45.21677
536.5767, 45.45689
537.0588, 45.45454
537.5410, 45.44084
538.0231, 45.40993
538.5052, 45.51309
538.9873, 46.00481
539.4694, 46.91486
539.9515, 47.89378
540.4337, 49.01973
540.9158, 50.05680
541.3979, 50.83004
541.8800, 51.30579
542.3621, 51.41719
542.8442, 51.09733
543.3264, 50.42865
543.8085, 49.68238
544.2906, 48.49849
544.7726, 47.76709
545.2548, 47.91522
545.7369, 48.19422
546.2190, 48.03877
546.7011, 47.46767
547.1832, 46.84037
547.6653, 46.44609
548.1475, 46.19736
548.6296, 45.68410
549.1117, 44.67981
549.5938, 44.00991
550.0759, 44.06891
550.5580, 44.46381
551.0402, 45.03120
551.5223, 45.72844
552.0044, 46.30095
552.4865, 46.61076
552.9686, 46.69835
553.4507, 46.54291
553.9329, 46.14276
554.4150, 45.87270
554.8971, 45.94036
555.3792, 46.25881
555.8613, 46.62229
556.3434, 47.04256
556.8256, 47.46809
557.3077, 47.90773
557.7898, 48.33809
558.2719, 48.62510
558.7540, 48.84480
559.2361, 49.39171
559.7183, 50.62962
560.2004, 52.23801
560.6825, 52.81139
561.1646, 51.37439
561.6467, 50.55953
562.1288, 50.82843
562.6110, 51.55417
563.0931, 52.31516
563.5752, 53.09470
564.0573, 54.10802
564.5394, 55.53208
565.0215, 57.28201
565.5037, 59.07229
565.9858, 60.84890
566.4679, 63.07340
566.9500, 65.96193
567.4321, 69.37802
567.9142, 73.00400
568.3964, 76.80512
568.8785, 81.22608
569.3606, 86.51476
569.8427, 92.42415
570.3248, 99.15710
570.8069, 106.4114
571.2891, 113.3631
571.7712, 119.6812
572.2533, 124.8426
572.7354, 127.5038
573.2175, 127.4674
573.6996, 124.9540
574.1818, 118.3810
574.6639, 110.8845
575.1460, 103.8542
575.6281, 97.52788
576.1102, 91.83335
576.5923, 86.63633
577.0745, 82.32481
577.5566, 79.93266
578.0387, 79.72818
578.5208, 79.99435
579.0029, 80.43783
579.4850, 81.26983
579.9672, 82.76437
580.4493, 84.78537
580.9314, 86.75678
581.4135, 88.88451
581.8956, 90.52744
582.3777, 91.23351
582.8599, 90.96102
583.3420, 89.44893
583.8241, 86.51911
584.3062, 82.69475
584.7883, 78.59544
585.2704, 74.11919
585.7526, 69.79983
586.2347, 65.25099
586.7168, 61.23278
587.1989, 58.15522
587.6810, 55.79647
588.1631, 53.79396
