##NAMES=Euclase
##RRUFFID=R100157
##IDEAL CHEMISTRY=BeAlSiO_4_(OH)
##LOCALITY=Unknown
##OWNER=RRUFF
##SOURCE=William W. Pinch
##DESCRIPTION=Blue cut gemstone
##STATUS=The identification of this mineral has been confirmed by single-crystal X-ray diffraction.
##URL=rruff.info/R100157
116.1576, 57.79051
116.6397, 57.84023
117.1219, 57.92973
117.6040, 58.08924
118.0861, 58.19178
118.5682, 58.37352
119.0503, 58.41823
119.5324, 58.05119
120.0146, 57.27493
120.4967, 56.44341
120.9788, 56.16291
121.4609, 57.06490
121.9430, 57.60721
122.4251, 57.59633
122.9073, 57.29020
123.3894, 56.96157
123.8715, 56.70738
124.3536, 56.51387
124.8357, 56.35626
125.3178, 56.23304
125.8000, 56.13165
126.2821, 56.04614
126.7642, 55.97858
127.2463, 55.94691
127.7284, 55.99855
128.2105, 56.06139
128.6927, 56.02133
129.1748, 55.86144
129.6569, 55.61967
130.1390, 55.26233
130.6211, 54.74356
131.1032, 54.38849
131.5854, 54.63140
132.0675, 55.00869
132.5496, 55.03776
133.0317, 54.44563
133.5138, 53.53517
133.9959, 53.04898
134.4781, 53.27813
134.9602, 53.48950
135.4423, 53.42220
135.9244, 53.22379
136.4065, 53.07707
136.8886, 53.08324
137.3708, 53.24376
137.8529, 53.57514
138.3350, 54.04190
138.8171, 54.73021
139.2992, 55.66879
139.7813, 56.85252
140.2635, 58.25139
140.7456, 59.81358
141.2277, 61.52333
141.7098, 63.75712
142.1919, 66.85706
142.6740, 70.07236
143.1561, 73.51515
143.6383, 76.97712
144.1204, 79.46358
144.6025, 79.89576
145.0846, 77.91891
145.5667, 75.06852
146.0488, 70.53603
146.5310, 65.54210
147.0131, 61.37237
147.4952, 58.28095
147.9773, 55.82716
148.4594, 53.50731
148.9415, 51.31662
149.4237, 49.59345
149.9058, 48.67108
150.3879, 48.32899
150.8700, 47.97218
151.3521, 47.47023
151.8342, 46.98370
152.3164, 46.60878
152.7985, 46.34601
153.2806, 46.19062
153.7627, 46.20626
154.2448, 46.39855
154.7269, 46.47443
155.2091, 46.32909
155.6912, 46.09491
156.1733, 45.76179
156.6554, 45.35712
157.1375, 45.02090
157.6196, 44.97353
158.1018, 45.38067
158.5839, 45.58777
159.0660, 45.45151
159.5481, 45.20737
160.0302, 44.95274
160.5123, 44.72889
160.9945, 44.56853
161.4766, 44.54092
161.9587, 44.81410
162.4408, 44.96971
162.9229, 44.92226
163.4050, 44.80532
163.8871, 44.77672
164.3693, 44.89274
164.8514, 45.03681
165.3335, 44.90988
165.8156, 44.10530
166.2977, 43.59998
166.7798, 43.65061
167.2620, 44.03441
167.7441, 44.42125
168.2262, 44.66703
168.7083, 44.83503
169.1904, 45.09282
169.6725, 45.40649
170.1547, 45.83049
170.6368, 46.48082
171.1189, 47.28379
171.6010, 47.93718
172.0831, 48.13450
172.5652, 48.25655
173.0474, 49.01650
173.5295, 50.57678
174.0116, 52.45016
174.4937, 54.27395
174.9758, 56.05188
175.4579, 57.97942
175.9401, 60.31151
176.4222, 62.76325
176.9043, 65.10853
177.3864, 67.43563
177.8685, 69.36203
178.3506, 70.62875
178.8328, 71.46969
179.3149, 70.70843
179.7970, 66.82000
180.2791, 61.74316
180.7612, 56.91959
181.2433, 52.76981
181.7255, 49.39332
182.2076, 47.05680
182.6897, 46.17527
183.1718, 45.68046
183.6539, 45.34055
184.1360, 45.18362
184.6181, 45.29354
185.1003, 45.72488
185.5824, 46.36311
186.0645, 46.78701
186.5466, 46.62389
187.0287, 46.70720
187.5108, 47.20201
187.9930, 47.98020
188.4751, 48.86549
188.9572, 49.75082
189.4393, 50.67762
189.9214, 51.88461
190.4035, 53.39483
190.8857, 55.15351
191.3678, 56.90295
191.8499, 58.90807
192.3320, 61.61245
192.8141, 65.28960
193.2962, 69.89330
193.7784, 75.23263
194.2605, 80.95637
194.7426, 87.54070
195.2247, 96.28439
195.7068, 106.2484
196.1889, 115.2501
196.6711, 122.6001
197.1532, 127.3838
197.6353, 126.8323
198.1174, 118.9011
198.5995, 108.1832
199.0816, 95.49126
199.5638, 81.31206
200.0459, 68.99831
200.5280, 60.69613
201.0101, 55.85119
201.4922, 51.90499
201.9743, 48.95836
202.4565, 46.68268
202.9386, 44.85710
203.4207, 43.47853
203.9028, 42.48961
204.3849, 42.06345
204.8670, 41.96850
205.3492, 41.89659
205.8313, 41.82192
206.3134, 41.71471
206.7955, 41.51838
207.2776, 41.20967
207.7597, 40.92043
208.2419, 40.74664
208.7240, 40.60934
209.2061, 40.41618
209.6882, 40.10691
210.1703, 39.79185
210.6524, 39.69746
211.1346, 39.93995
211.6167, 40.10299
212.0988, 39.84364
212.5809, 39.53667
213.0630, 39.62821
213.5451, 40.34977
214.0273, 41.33516
214.5094, 41.70374
214.9915, 41.00721
215.4736, 40.48609
215.9557, 40.50346
216.4378, 40.73454
216.9200, 40.84122
217.4021, 40.66918
217.8842, 40.34582
218.3663, 40.22646
218.8484, 40.40100
219.3305, 40.67981
219.8127, 41.23953
220.2948, 41.80464
220.7769, 42.03992
221.2590, 41.79236
221.7411, 41.24765
222.2232, 40.95420
222.7054, 41.12714
223.1875, 41.32331
223.6696, 41.48043
224.1517, 41.65928
224.6338, 41.92142
225.1159, 42.29456
225.5980, 42.77871
226.0802, 43.37957
226.5623, 44.16276
227.0444, 44.98887
227.5265, 45.76006
228.0086, 46.59451
228.4907, 47.54929
228.9729, 48.62785
229.4550, 49.99667
229.9371, 52.10485
230.4192, 54.75381
230.9013, 58.35588
231.3834, 63.10207
231.8656, 68.81325
232.3477, 75.55837
232.8298, 83.54527
233.3119, 91.85036
233.7940, 98.75608
234.2761, 105.4738
234.7583, 108.6206
235.2404, 106.1290
235.7225, 99.68380
236.2046, 91.61424
236.6867, 82.06588
237.1688, 72.61337
237.6510, 66.07085
238.1331, 62.43988
238.6152, 59.96326
239.0973, 58.49699
239.5794, 57.75138
240.0615, 57.10359
240.5437, 56.34338
241.0258, 55.73463
241.5079, 55.67881
241.9900, 56.15070
242.4721, 56.72395
242.9542, 57.16212
243.4364, 57.56641
243.9185, 58.17852
244.4006, 59.01448
244.8827, 60.14436
245.3648, 61.62399
245.8469, 63.42189
246.3290, 65.44605
246.8112, 67.60233
247.2933, 69.93568
247.7754, 72.56540
248.2575, 75.28386
248.7396, 78.74342
249.2217, 82.94290
249.7039, 88.02553
250.1860, 94.69691
250.6681, 103.0659
251.1502, 113.2574
251.6323, 125.6581
252.1144, 139.3200
252.5966, 157.1307
253.0787, 179.6969
253.5608, 206.8362
254.0429, 238.8489
254.5250, 278.0522
255.0071, 322.2121
255.4893, 364.5629
255.9714, 411.0127
256.4535, 444.3904
256.9356, 462.8774
257.4177, 465.2247
257.8998, 447.9221
258.3820, 404.6599
258.8641, 342.3694
259.3462, 284.3174
259.8283, 227.7801
260.3104, 181.2640
260.7925, 147.0303
261.2747, 122.1825
261.7568, 103.5111
262.2389, 89.79954
262.7210, 80.28031
263.2031, 72.68587
263.6852, 67.46835
264.1674, 63.65111
264.6495, 61.41616
265.1316, 60.02715
265.6137, 58.74737
266.0958, 57.25895
266.5779, 55.73135
267.0601, 54.57647
267.5422, 53.91926
268.0243, 53.46084
268.5064, 53.32086
268.9885, 53.23586
269.4706, 52.85097
269.9528, 52.06094
270.4349, 51.26094
270.9170, 51.26626
271.3991, 52.59574
271.8812, 53.73822
272.3633, 54.56249
272.8455, 55.20841
273.3276, 55.73375
273.8097, 56.17253
274.2918, 56.58336
274.7739, 57.02918
275.2560, 57.40248
275.7382, 58.06931
276.2202, 58.90517
276.7024, 60.05310
277.1845, 61.46637
277.6666, 63.21977
278.1487, 65.56652
278.6308, 68.77131
279.1129, 72.73545
279.5951, 78.00870
280.0772, 83.86644
280.5593, 91.35236
281.0414, 100.8739
281.5235, 112.5309
282.0056, 126.3981
282.4878, 142.6565
282.9699, 161.6741
283.4520, 181.2724
283.9341, 205.3726
284.4162, 226.3706
284.8983, 243.6052
285.3805, 255.3888
285.8626, 258.3975
286.3447, 249.5842
286.8268, 229.1458
287.3089, 205.7633
287.7910, 174.7003
288.2732, 146.0493
288.7553, 122.3634
289.2374, 103.3469
289.7195, 88.43053
290.2016, 77.37585
290.6837, 69.85641
291.1659, 64.00451
291.6480, 60.91996
292.1301, 58.24038
292.6122, 55.61492
293.0943, 53.16599
293.5764, 51.08696
294.0586, 49.45592
294.5407, 48.25488
295.0228, 47.43258
295.5049, 47.27687
295.9870, 47.17485
296.4691, 47.06268
296.9513, 47.01310
297.4334, 47.09870
297.9155, 47.34322
298.3976, 47.72766
298.8797, 48.20203
299.3618, 48.57446
299.8440, 49.48906
300.3261, 51.16375
300.8082, 53.22029
301.2903, 55.25697
301.7724, 57.23861
302.2545, 59.60962
302.7367, 62.95387
303.2188, 67.54900
303.7009, 72.14856
304.1830, 77.30386
304.6651, 82.04773
305.1472, 86.28629
305.6294, 89.72507
306.1115, 91.48264
306.5936, 90.75137
307.0757, 87.41090
307.5578, 82.81555
308.0399, 75.95430
308.5221, 69.07666
309.0042, 62.86915
309.4863, 57.42014
309.9684, 52.82331
310.4505, 49.15093
310.9326, 46.38264
311.4148, 44.57980
311.8969, 44.29293
312.3790, 44.15765
312.8611, 43.89606
313.3432, 43.56964
313.8253, 43.32484
314.3075, 43.23918
314.7896, 43.20736
315.2717, 42.95341
315.7538, 42.39293
316.2359, 41.72643
316.7180, 40.66667
317.2001, 39.63997
317.6823, 39.21947
318.1644, 39.55270
318.6465, 40.16463
319.1286, 40.31643
319.6107, 39.61357
320.0928, 39.42115
320.5750, 40.09798
321.0571, 41.01947
321.5392, 41.70311
322.0213, 42.10028
322.5034, 42.44788
322.9855, 42.91705
323.4677, 43.46178
323.9498, 44.70105
324.4319, 46.99165
324.9140, 49.52882
325.3961, 51.75926
325.8782, 53.85476
326.3604, 56.44511
326.8425, 60.00018
327.3246, 64.44691
327.8067, 69.06373
328.2888, 74.26768
328.7709, 79.15405
329.2531, 84.10330
329.7352, 88.45979
330.2173, 91.35681
330.6994, 92.41447
331.1815, 91.54034
331.6636, 88.41557
332.1458, 80.36101
332.6279, 73.27618
333.1100, 67.32719
333.5921, 62.46120
334.0742, 58.69500
334.5563, 56.03893
335.0385, 54.29916
335.5206, 53.30692
336.0027, 53.57227
336.4848, 53.26297
336.9669, 52.22154
337.4490, 50.79854
337.9312, 49.10078
338.4133, 47.20213
338.8954, 45.25564
339.3775, 43.38899
339.8596, 41.59218
340.3417, 39.95831
340.8239, 38.31005
341.3060, 36.97886
341.7881, 36.26126
342.2702, 35.94416
342.7523, 35.59106
343.2344, 34.92082
343.7166, 34.03685
344.1987, 33.45078
344.6808, 33.41816
345.1629, 33.41938
345.6450, 33.45657
346.1271, 33.48725
346.6093, 33.43709
347.0914, 33.28580
347.5735, 33.12838
348.0556, 33.16719
348.5377, 33.63033
349.0198, 33.87201
349.5020, 33.72075
349.9841, 33.50789
350.4662, 33.51182
350.9483, 33.72734
351.4304, 33.90364
351.9125, 33.74508
352.3947, 33.18403
352.8768, 32.74234
353.3589, 32.47703
353.8410, 32.27333
354.3231, 32.08492
354.8052, 31.92824
355.2874, 31.84776
355.7695, 31.87962
356.2516, 32.00748
356.7337, 32.14745
357.2158, 32.39455
357.6979, 32.51335
358.1800, 32.36998
358.6621, 32.12539
359.1443, 31.95732
359.6264, 31.93314
360.1085, 31.98650
360.5906, 31.98401
361.0727, 31.86276
361.5548, 31.85496
362.0370, 32.07858
362.5191, 32.34278
363.0012, 32.54024
363.4833, 32.65863
363.9654, 32.73753
364.4475, 32.81639
364.9297, 32.89669
365.4118, 32.94970
365.8939, 32.94088
366.3760, 32.94182
366.8581, 33.03270
367.3402, 33.15229
367.8224, 33.14330
368.3045, 32.81458
368.7866, 32.37476
369.2687, 32.50937
369.7508, 33.49938
370.2329, 34.45042
370.7151, 34.96237
371.1972, 35.33717
371.6793, 35.90613
372.1614, 36.77882
372.6435, 37.70817
373.1256, 38.30926
373.6078, 38.54140
374.0899, 39.01276
374.5720, 39.89574
375.0541, 41.04576
375.5362, 42.41853
376.0183, 43.98837
376.5005, 45.55259
376.9826, 47.07561
377.4647, 48.50433
377.9468, 49.60674
378.4289, 50.24198
378.9110, 50.82855
379.3932, 51.76479
379.8753, 52.84829
380.3574, 53.67379
380.8395, 54.03793
381.3216, 54.16072
381.8037, 54.22904
382.2859, 54.23869
382.7680, 54.36348
383.2501, 54.49498
383.7322, 54.95150
384.2143, 56.15871
384.6964, 58.22655
385.1786, 60.66407
385.6607, 63.06012
386.1428, 65.59120
386.6249, 68.69739
387.1070, 72.41261
387.5891, 76.87357
388.0713, 82.01162
388.5534, 87.78289
389.0355, 95.63480
389.5176, 105.8061
389.9997, 118.2319
390.4818, 133.2305
390.9640, 150.7654
391.4461, 169.8558
391.9282, 191.0134
392.4103, 212.9917
392.8924, 229.8770
393.3745, 244.8523
393.8567, 251.8781
394.3388, 247.2340
394.8209, 233.0789
395.3030, 212.1041
395.7851, 184.4507
396.2672, 154.4055
396.7494, 129.0645
397.2315, 109.3669
397.7136, 92.94085
398.1957, 80.13299
398.6778, 70.12595
399.1599, 62.72297
399.6420, 57.61459
400.1241, 53.81993
400.6063, 50.54266
401.0884, 47.77324
401.5705, 45.49966
402.0526, 43.84610
402.5347, 42.46693
403.0168, 41.30334
403.4990, 40.33466
403.9811, 39.60105
404.4632, 39.12873
404.9453, 38.78696
405.4274, 38.24568
405.9095, 37.28252
406.3917, 36.50392
406.8738, 36.02750
407.3559, 35.65145
407.8380, 35.17420
408.3201, 34.60939
408.8022, 34.18032
409.2844, 34.17204
409.7665, 34.62853
410.2486, 34.78764
410.7307, 34.26725
411.2128, 33.85493
411.6949, 33.87453
412.1771, 34.13567
412.6592, 34.29154
413.1413, 34.14368
413.6234, 33.89256
414.1055, 34.02749
414.5876, 34.73265
415.0698, 35.26348
415.5519, 35.05494
416.0340, 34.87240
416.5161, 35.30916
416.9982, 36.41529
417.4803, 37.69031
417.9625, 38.72137
418.4446, 39.54747
418.9267, 40.48462
419.4088, 41.61934
419.8909, 42.73820
420.3730, 43.84817
420.8552, 44.83626
421.3373, 45.42934
421.8194, 45.53652
422.3015, 45.21274
422.7836, 44.37446
423.2657, 43.03013
423.7479, 41.75102
424.2300, 40.82104
424.7121, 40.02616
425.1942, 38.95731
425.6763, 37.52209
426.1584, 36.29974
426.6406, 35.66853
427.1227, 35.37300
427.6048, 34.95625
428.0869, 34.32590
428.5690, 33.75642
429.0511, 33.50707
429.5333, 33.59330
430.0154, 33.71189
430.4975, 33.84779
430.9796, 34.02948
431.4617, 34.36936
431.9438, 34.77168
432.4260, 34.94499
432.9081, 34.71645
433.3902, 34.31564
433.8723, 34.28568
434.3544, 34.75925
434.8365, 35.41620
435.3187, 36.35652
435.8008, 37.40375
436.2829, 38.33392
436.7650, 39.17045
437.2471, 40.18553
437.7292, 41.64739
438.2114, 43.57235
438.6935, 45.52163
439.1756, 47.65222
439.6577, 49.63648
440.1398, 51.68576
440.6219, 53.44736
441.1040, 54.44232
441.5862, 54.46802
442.0683, 53.71883
442.5504, 52.42381
443.0325, 50.31544
443.5146, 48.47272
443.9967, 46.54631
444.4789, 45.28777
444.9610, 45.28498
445.4431, 46.38617
445.9252, 47.97132
446.4073, 49.75682
446.8894, 51.64763
447.3716, 53.28050
447.8537, 54.63356
448.3358, 55.77555
448.8179, 56.99380
449.3000, 57.91149
449.7821, 58.05498
450.2643, 57.28529
450.7464, 55.93436
451.2285, 54.04571
451.7106, 51.74058
452.1927, 49.64161
452.6748, 47.81135
453.1570, 46.35789
453.6391, 45.49264
454.1212, 45.12360
454.6033, 44.99201
455.0854, 45.25874
455.5675, 45.57759
456.0497, 45.60622
456.5318, 45.38033
457.0139, 45.19685
457.4960, 45.27089
457.9781, 45.40460
458.4602, 45.03443
458.9424, 44.10176
459.4245, 42.90796
459.9066, 41.28126
460.3887, 39.54539
460.8708, 38.03939
461.3529, 36.80625
461.8351, 35.66589
462.3172, 34.42407
462.7993, 33.07718
463.2814, 31.97867
463.7635, 30.87066
464.2456, 30.28267
464.7278, 30.89755
465.2099, 31.92836
465.6920, 32.20452
466.1741, 31.29210
466.6562, 29.89443
467.1383, 29.21502
467.6205, 29.49786
468.1026, 29.72779
468.5847, 30.05324
469.0668, 30.15313
469.5489, 29.70369
470.0310, 28.88489
470.5132, 28.17973
470.9953, 27.89998
471.4774, 27.91543
471.9595, 27.86769
472.4416, 27.69106
472.9237, 27.69981
473.4059, 28.25151
473.8880, 28.89201
474.3701, 29.22023
474.8522, 29.18773
475.3343, 28.96649
475.8164, 28.45319
476.2986, 27.85259
476.7807, 27.75402
477.2628, 28.30570
477.7449, 28.91465
478.2270, 29.16016
478.7091, 29.08725
479.1913, 28.94127
479.6734, 28.62690
480.1555, 28.36089
480.6376, 28.27318
481.1197, 28.31307
481.6018, 28.41336
482.0839, 28.56201
482.5660, 28.64166
483.0482, 28.45441
483.5303, 27.86060
484.0124, 27.52562
484.4945, 27.62445
484.9766, 27.80076
485.4587, 27.86730
485.9409, 27.85448
486.4230, 27.86497
486.9051, 27.95351
487.3872, 28.12225
487.8693, 28.40129
488.3514, 28.99047
488.8336, 29.30613
489.3157, 29.10233
489.7978, 28.81731
490.2799, 28.74367
490.7620, 28.88350
491.2441, 29.06525
491.7263, 29.15812
492.2084, 29.17873
492.6905, 29.22673
493.1726, 29.36400
493.6547, 29.37917
494.1368, 28.96947
494.6190, 28.49886
495.1011, 28.38104
495.5832, 28.72169
496.0653, 29.14029
496.5474, 29.34508
497.0295, 29.39864
497.5117, 29.48815
497.9938, 29.64494
498.4759, 29.82100
498.9580, 29.98303
499.4401, 30.13286
499.9222, 30.28161
500.4044, 30.41840
500.8865, 30.56617
501.3686, 30.72593
501.8507, 30.90726
502.3328, 31.12339
502.8149, 31.37704
503.2971, 31.69199
503.7792, 32.10358
504.2613, 32.63643
504.7434, 33.20296
505.2255, 33.76983
505.7076, 34.39845
506.1898, 35.28365
506.6719, 36.23641
507.1540, 36.85076
507.6361, 36.90343
508.1182, 36.62322
508.6003, 36.57267
509.0825, 36.94280
509.5646, 37.02798
510.0467, 36.60508
510.5288, 36.01350
511.0109, 35.39647
511.4930, 34.76582
511.9752, 34.07534
512.4573, 33.16462
512.9394, 32.25777
513.4215, 32.00908
513.9036, 32.55986
514.3857, 32.85109
514.8679, 32.27043
515.3500, 31.37343
515.8321, 30.90999
516.3142, 30.94209
516.7963, 30.96856
517.2784, 30.68611
517.7606, 30.31172
518.2427, 30.18808
518.7248, 30.33256
519.2069, 30.48073
519.6890, 30.47760
520.1711, 30.32824
520.6533, 30.04890
521.1354, 29.32074
521.6175, 28.90126
522.0996, 29.21502
522.5817, 29.72369
523.0638, 29.84457
523.5460, 29.51471
524.0281, 29.10118
524.5102, 28.96356
524.9923, 29.09208
525.4744, 29.11926
525.9565, 28.81919
526.4387, 28.72238
526.9208, 29.04533
527.4029, 29.55527
527.8850, 30.02921
528.3671, 30.40639
528.8492, 30.72412
529.3314, 31.03188
529.8135, 31.32202
530.2956, 31.48424
530.7777, 31.39434
531.2598, 31.42176
531.7419, 31.90432
532.2241, 32.63264
532.7062, 33.26602
533.1883, 33.63199
533.6704, 34.11949
534.1525, 35.05196
534.6346, 36.29941
535.1168, 37.50357
535.5989, 38.55970
536.0810, 39.82369
536.5631, 41.64723
537.0452, 44.06821
537.5273, 46.72685
538.0095, 49.85347
538.4916, 52.94630
538.9737, 56.00050
539.4558, 58.85747
539.9379, 61.42317
540.4200, 63.63198
540.9022, 65.24681
541.3843, 65.97511
541.8664, 65.86502
542.3485, 64.58250
542.8306, 61.28450
543.3127, 57.66869
543.7948, 53.96821
544.2769, 50.38383
544.7590, 47.18225
545.2411, 44.45839
545.7233, 42.09109
546.2054, 39.91895
546.6875, 37.95245
547.1696, 36.51900
547.6517, 35.81598
548.1339, 35.37391
548.6160, 34.85874
549.0981, 34.29774
549.5802, 33.75869
550.0623, 33.21683
550.5444, 32.74300
551.0266, 32.39738
551.5087, 32.15168
551.9908, 31.91856
552.4729, 31.66804
552.9550, 31.50030
553.4371, 31.54879
553.9193, 31.84803
554.4014, 32.17081
554.8835, 32.62377
555.3656, 32.98021
555.8477, 33.15572
556.3298, 33.18556
556.8120, 33.02048
557.2941, 32.66377
557.7762, 32.43642
558.2583, 32.95019
558.7404, 34.35236
559.2225, 35.21105
559.7047, 35.07106
560.1868, 34.91321
560.6689, 35.17883
561.1510, 35.73934
561.6331, 36.38577
562.1152, 37.06262
562.5974, 37.78652
563.0795, 38.54044
563.5616, 39.34944
564.0437, 40.29737
564.5258, 41.40129
565.0079, 42.65066
565.4901, 43.93963
565.9722, 45.32916
566.4543, 47.37490
566.9364, 50.44747
567.4185, 53.74157
567.9006, 56.93470
568.3828, 60.16636
568.8649, 63.75927
569.3470, 67.73737
569.8291, 71.83098
570.3112, 75.85049
570.7933, 79.89915
571.2755, 82.25294
571.7576, 82.20485
572.2397, 81.22813
572.7218, 79.48594
573.2039, 77.13956
573.6860, 74.21056
574.1682, 70.71284
574.6503, 67.13010
575.1324, 63.78833
575.6145, 60.72065
576.0966, 58.04217
576.5787, 55.72538
577.0609, 53.95900
577.5430, 53.09739
578.0251, 52.83578
578.5072, 52.35809
578.9893, 51.40357
579.4714, 50.78626
579.9536, 51.17605
580.4357, 51.88592
580.9178, 52.14331
581.3999, 51.83314
581.8820, 51.10702
582.3641, 50.05127
582.8463, 48.69913
583.3284, 47.23943
583.8105, 45.74231
584.2926, 44.00898
584.7747, 41.67070
585.2568, 39.36366
585.7390, 37.56310
586.2211, 36.27943
586.7032, 35.24788
587.1853, 34.29993
587.6674, 33.45372
588.1495, 32.80231
588.6317, 32.37642
589.1138, 31.92850
589.5959, 31.21411
590.0780, 30.60792
590.5601, 30.65979
591.0422, 31.35575
591.5244, 31.82693
592.0065, 31.56931
592.4886, 31.16163
592.9707, 31.11374
593.4528, 31.37427
593.9349, 31.69667
594.4171, 31.97312
594.8992, 32.25000
595.3813, 32.60465
595.8634, 33.02528
596.3455, 33.57016
596.8276, 34.25281
597.3098, 35.02500
597.7919, 35.88423
598.2740, 36.81721
598.7561, 37.88046
599.2382, 39.11242
599.7203, 40.22002
600.2025, 40.78082
600.6846, 40.80818
601.1667, 40.76263
601.6488, 40.83182
602.1309, 40.54493
602.6130, 39.24596
603.0952, 37.39910
603.5773, 35.97939
604.0594, 35.30328
604.5415, 34.68991
605.0236, 33.70903
605.5057, 32.59579
605.9879, 31.74052
606.4700, 31.19365
606.9521, 30.71376
607.4342, 30.09247
607.9163, 29.36949
608.3984, 28.84382
608.8806, 28.76103
609.3627, 28.54197
609.8448, 27.95657
610.3269, 27.35683
610.8090, 27.05192
611.2911, 27.02096
611.7733, 27.00233
612.2554, 26.78105
612.7375, 26.48045
613.2196, 26.43989
613.7017, 26.69538
614.1838, 26.82068
614.6660, 26.65095
615.1481, 26.34353
615.6302, 26.05003
