##NAMES=Eudialyte
##RRUFFID=R060206
##IDEAL CHEMISTRY=Na_15_Ca_6_Fe^2+^_3_Zr^4+^_3_Si(Si_25_O_73_)(O,OH,H_2_O)_3_(Cl,OH)_2_
##LOCALITY=Desourdy Quarry, Mont Saint-Hilaire, Rouville County, Quebec, Canada
##OWNER=RRUFF
##SOURCE=Royal Ontario Museum
##DESCRIPTION=Yellowish-brown gemmy fragment
##STATUS=The identification of this mineral is confirmed by single-crystal X-ray diffraction and chemical analysis.
##URL=rruff.info/R060206
##MEASURED CHEMISTRY=(Na_13.12_Ca_1.62_K_0.26_)_Σ=15_(Ca_4.47_Mn_1.00_Ce_0.32_La_0.21_)_Σ=6_(Fe_2.91_Mn_0.09_)_Σ=3_Zr_3.00_(Si_0.85_Nb_0.15_)_Σ=1_Si_25.00_O_73_((OH)_2.70_O_0.30_)_Σ=3_(Cl_1.20_(OH)_0.80_)_Σ=2_
92.07813, 20.55367
92.56024, 20.59349
93.04236, 20.49702
93.52448, 20.32650
94.00659, 20.31195
94.48871, 20.79740
94.97083, 21.54685
95.45294, 21.75898
95.93506, 21.05952
96.41718, 20.34897
96.89929, 21.87001
97.38141, 25.65106
97.86353, 28.73738
98.34564, 28.12881
98.82776, 24.05391
99.30988, 21.63163
99.79199, 22.24946
100.2741, 24.91157
100.7562, 25.70254
101.2383, 24.21040
101.7205, 21.98380
102.2026, 20.30877
102.6847, 19.26468
103.1668, 18.51681
103.6489, 18.00004
104.1310, 17.71815
104.6132, 17.69397
105.0953, 18.01476
105.5774, 18.51194
106.0595, 18.97827
106.5416, 19.41069
107.0237, 19.82735
107.5059, 20.28549
107.9880, 20.90135
108.4701, 21.17536
108.9522, 20.82796
109.4343, 20.19314
109.9164, 19.87171
110.3986, 20.45614
110.8807, 20.86031
111.3628, 20.67920
111.8449, 19.06809
112.3270, 18.23950
112.8091, 18.81754
113.2913, 20.34221
113.7734, 21.51656
114.2555, 21.70188
114.7376, 21.78216
115.2197, 22.23618
115.7018, 23.70215
116.1840, 24.92424
116.6661, 25.10770
117.1482, 24.55019
117.6303, 24.79675
118.1124, 26.97609
118.5945, 29.97318
119.0767, 32.80544
119.5588, 34.74406
120.0409, 36.81837
120.5230, 39.59535
121.0051, 43.04203
121.4872, 46.74311
121.9694, 50.00576
122.4515, 53.42353
122.9336, 57.83931
123.4157, 63.95446
123.8978, 70.97393
124.3799, 78.38882
124.8621, 86.22124
125.3442, 93.90994
125.8263, 100.7927
126.3084, 107.1342
126.7905, 113.6100
127.2726, 120.5104
127.7548, 127.7158
128.2369, 134.9881
128.7190, 142.3020
129.2011, 149.7126
129.6832, 157.1507
130.1653, 164.6242
130.6474, 172.5934
131.1296, 181.5629
131.6117, 191.2388
132.0938, 200.7776
132.5759, 209.8839
133.0580, 219.1990
133.5401, 229.8645
134.0223, 241.9434
134.5044, 254.6196
134.9865, 267.1044
135.4686, 279.5526
135.9507, 293.1289
136.4328, 308.2769
136.9150, 324.7817
137.3971, 341.7835
137.8792, 359.5144
138.3613, 377.2045
138.8434, 394.7357
139.3255, 412.3471
139.8077, 427.7572
140.2898, 440.6428
140.7719, 450.9785
141.2540, 459.6370
141.7361, 466.6783
142.2182, 471.7975
142.7004, 474.3779
143.1825, 473.5369
143.6646, 472.2614
144.1467, 471.2508
144.6288, 470.5540
145.1109, 469.0258
145.5931, 465.9508
146.0752, 462.6060
146.5573, 460.4686
147.0394, 460.0252
147.5215, 460.1229
148.0036, 460.5141
148.4858, 461.1918
148.9679, 462.1717
149.4500, 462.6489
149.9321, 463.6925
150.4142, 466.8701
150.8963, 474.0810
151.3785, 481.7347
151.8606, 488.9450
152.3427, 496.1492
152.8248, 502.2185
153.3069, 505.8755
153.7890, 508.5375
154.2712, 511.2460
154.7533, 514.6416
155.2354, 517.2399
155.7175, 517.5514
156.1996, 514.4825
156.6817, 511.0409
157.1639, 507.4435
157.6460, 503.7387
158.1281, 500.1219
158.6102, 496.9768
159.0923, 493.6710
159.5744, 489.8524
160.0566, 485.2535
160.5387, 480.5797
161.0208, 475.7893
161.5029, 471.0529
161.9850, 466.8790
162.4671, 464.0990
162.9493, 461.5490
163.4314, 458.4207
163.9135, 454.0341
164.3956, 449.6764
164.8777, 445.6157
165.3598, 441.9138
165.8420, 438.8692
166.3241, 436.9495
166.8062, 435.5719
167.2883, 434.2036
167.7704, 432.3637
168.2525, 430.8013
168.7346, 430.1035
169.2168, 430.1526
169.6989, 430.2455
170.1810, 429.3036
170.6631, 428.3544
171.1452, 428.6695
171.6273, 432.0091
172.1095, 435.7027
172.5916, 437.2413
173.0737, 436.8083
173.5558, 436.4736
174.0379, 437.9952
174.5201, 440.5612
175.0022, 442.8882
175.4843, 444.1010
175.9664, 445.0716
176.4485, 446.8516
176.9306, 449.4346
177.4128, 452.1983
177.8949, 454.8763
178.3770, 457.3338
178.8591, 459.3319
179.3412, 460.2352
179.8233, 460.7938
180.3055, 462.3579
180.7876, 464.9889
181.2697, 467.7661
181.7518, 469.1991
182.2339, 469.8960
182.7160, 471.8871
183.1982, 476.7976
183.6803, 483.4855
184.1624, 489.6209
184.6445, 495.1922
185.1266, 500.0370
185.6087, 503.6785
186.0909, 506.3208
186.5730, 508.8345
187.0551, 511.4750
187.5372, 514.2740
188.0193, 517.4632
188.5014, 521.0635
188.9836, 524.9193
189.4657, 529.0688
189.9478, 533.4404
190.4299, 537.7216
190.9120, 541.7723
191.3941, 545.5677
191.8763, 548.8849
192.3584, 551.4833
192.8405, 554.2477
193.3226, 559.1113
193.8047, 566.0682
194.2868, 572.2615
194.7690, 575.9223
195.2511, 577.2703
195.7332, 579.6823
196.2153, 583.5012
196.6974, 587.7965
197.1795, 591.1084
197.6617, 593.4789
198.1438, 594.7839
198.6259, 594.5197
199.1080, 592.6995
199.5901, 591.6341
200.0722, 591.5839
200.5544, 591.9720
201.0365, 591.6285
201.5186, 590.4020
202.0007, 589.3651
202.4828, 589.4716
202.9649, 590.9207
203.4471, 590.4430
203.9292, 587.3730
204.4113, 583.0721
204.8934, 580.3995
205.3755, 579.8295
205.8576, 579.0404
206.3398, 577.0256
206.8219, 573.7283
207.3040, 569.4611
207.7861, 563.9865
208.2682, 557.8493
208.7503, 552.2706
209.2325, 547.5243
209.7146, 542.6613
210.1967, 537.3021
210.6788, 531.4420
211.1609, 525.0109
211.6430, 517.6022
212.1252, 509.9062
212.6073, 503.8188
213.0894, 500.0599
213.5715, 496.1001
214.0536, 490.7074
214.5357, 483.4267
215.0179, 476.2519
215.5000, 468.9146
215.9821, 461.8099
216.4642, 455.9770
216.9463, 452.0153
217.4284, 448.1316
217.9105, 443.4754
218.3927, 437.8367
218.8748, 432.2348
219.3569, 426.5407
219.8390, 420.9613
220.3211, 415.8306
220.8032, 411.1749
221.2854, 406.8860
221.7675, 402.9626
222.2496, 399.7751
222.7317, 395.8127
223.2138, 390.4553
223.6959, 384.6360
224.1781, 380.3672
224.6602, 378.3931
225.1423, 376.7149
225.6244, 374.6169
226.1065, 372.0004
226.5886, 369.0995
227.0708, 365.5046
227.5529, 361.8020
228.0350, 359.3199
228.5171, 358.8675
228.9992, 358.2315
229.4813, 356.3929
229.9635, 352.6356
230.4456, 349.9874
230.9277, 349.0046
231.4098, 348.8728
231.8919, 348.0265
232.3740, 346.2253
232.8562, 344.1052
233.3383, 341.7846
233.8204, 339.0326
234.3025, 336.8618
234.7846, 335.4967
235.2667, 334.5879
235.7489, 333.5294
236.2310, 332.2121
236.7131, 330.9324
237.1952, 329.7852
237.6773, 328.8347
238.1594, 327.7598
238.6416, 325.9847
239.1237, 324.0683
239.6058, 324.4118
240.0879, 324.5872
240.5700, 324.6052
241.0521, 323.8996
241.5343, 324.2007
242.0164, 324.1427
242.4985, 324.1003
242.9806, 324.6334
243.4627, 324.1957
243.9448, 324.7834
244.4270, 325.0060
244.9091, 325.4418
245.3912, 325.5160
245.8733, 325.7432
246.3554, 326.3953
246.8375, 326.8612
247.3197, 327.0166
247.8018, 327.6535
248.2839, 327.5180
248.7660, 328.1196
249.2481, 329.0572
249.7302, 329.3902
250.2124, 330.1924
250.6945, 330.8594
251.1766, 330.8011
251.6587, 332.0909
252.1408, 332.8428
252.6229, 333.0418
253.1051, 334.3815
253.5872, 334.7242
254.0693, 335.4656
254.5514, 336.5149
255.0335, 337.3077
255.5156, 338.5862
255.9978, 339.4590
256.4799, 340.3242
256.9620, 341.3916
257.4441, 341.4409
257.9262, 341.9377
258.4083, 342.7762
258.8904, 344.0923
259.3726, 346.4223
259.8547, 347.8164
260.3368, 347.3109
260.8189, 345.2349
261.3010, 345.6611
261.7831, 349.8042
262.2653, 354.5272
262.7474, 357.0744
263.2295, 356.3757
263.7116, 356.7154
264.1937, 358.9507
264.6758, 362.7176
265.1580, 366.1253
265.6401, 369.1508
266.1222, 371.8255
266.6043, 374.1031
267.0864, 375.8951
267.5685, 377.6473
268.0507, 379.2784
268.5328, 380.9453
269.0149, 383.3195
269.4970, 386.6440
269.9791, 390.1699
270.4612, 393.5472
270.9434, 396.7299
271.4255, 399.8955
271.9076, 403.1033
272.3897, 406.2970
272.8718, 409.3858
273.3539, 412.3831
273.8361, 415.2121
274.3182, 417.9894
274.8003, 420.8170
275.2824, 422.5962
275.7645, 422.9983
276.2466, 422.6446
276.7288, 422.6918
277.2109, 423.1620
277.6930, 423.9008
278.1751, 424.9268
278.6572, 426.2688
279.1393, 427.4208
279.6215, 428.3677
280.1036, 429.1691
280.5857, 429.8167
281.0678, 430.2724
281.5499, 430.9743
282.0320, 432.0907
282.5142, 433.6143
282.9963, 435.4369
283.4784, 437.6303
283.9605, 439.9113
284.4426, 441.8374
284.9247, 443.3969
285.4069, 445.1598
285.8890, 447.2914
286.3711, 449.7648
286.8532, 452.7374
287.3353, 456.3206
287.8174, 459.7871
288.2996, 462.1275
288.7817, 463.4608
289.2638, 465.0527
289.7459, 467.4038
290.2280, 470.1601
290.7101, 472.4693
291.1923, 474.3391
291.6744, 475.7661
292.1565, 476.6994
292.6386, 477.1795
293.1207, 477.4113
293.6028, 477.4311
294.0850, 477.2199
294.5671, 476.6410
295.0492, 475.7095
295.5313, 474.7607
296.0134, 474.1706
296.4955, 473.7640
296.9777, 472.9614
297.4598, 471.5355
297.9419, 469.9995
298.4240, 469.3065
298.9061, 469.2896
299.3882, 468.8518
299.8704, 469.3675
300.3525, 469.6835
300.8346, 469.8104
301.3167, 469.1823
301.7988, 469.5292
302.2809, 469.4854
302.7631, 469.4255
303.2452, 470.7104
303.7273, 470.7582
304.2094, 470.2825
304.6915, 470.1691
305.1736, 470.4740
305.6558, 471.0163
306.1379, 472.1363
306.6200, 473.3466
307.1021, 473.7311
307.5842, 472.1758
308.0663, 470.0661
308.5485, 468.7285
309.0306, 468.1527
309.5127, 467.6215
309.9948, 467.0741
310.4769, 466.1453
310.9590, 464.3589
311.4412, 461.0347
311.9233, 457.2831
312.4054, 453.9738
312.8875, 450.9480
313.3696, 447.5187
313.8517, 443.0672
314.3339, 438.2228
314.8160, 433.5085
315.2981, 429.2604
315.7802, 424.9181
316.2623, 419.8531
316.7444, 414.4615
317.2266, 409.6991
317.7087, 406.4590
318.1908, 403.7072
318.6729, 400.7333
319.1550, 397.2550
319.6371, 394.0244
320.1193, 391.2845
320.6014, 388.9611
321.0835, 386.8968
321.5656, 384.6890
322.0477, 383.0536
322.5298, 382.2759
323.0120, 382.4216
323.4941, 383.1679
323.9762, 384.6162
324.4583, 386.5625
324.9404, 388.7881
325.4225, 391.6473
325.9047, 394.4151
326.3868, 396.3871
326.8689, 397.5101
327.3510, 400.2377
327.8331, 406.2466
328.3152, 413.0301
328.7974, 418.8578
329.2795, 423.8471
329.7616, 427.7103
330.2437, 429.5381
330.7258, 429.8697
331.2079, 431.7803
331.6901, 436.1569
332.1722, 441.2257
332.6543, 446.1761
333.1364, 450.8668
333.6185, 455.6236
334.1006, 460.5634
334.5828, 465.5126
335.0649, 469.9187
335.5470, 473.6416
336.0291, 477.1176
336.5112, 480.3882
336.9933, 483.3673
337.4755, 486.6766
337.9576, 490.2924
338.4397, 494.2279
338.9218, 498.8929
339.4039, 504.7962
339.8860, 509.4298
340.3681, 511.6970
340.8503, 513.4619
341.3324, 515.0266
341.8145, 516.4025
342.2966, 517.0231
342.7787, 518.6189
343.2608, 519.8240
343.7430, 521.0132
344.2251, 522.7462
344.7072, 523.4769
345.1893, 525.2012
345.6714, 527.6108
346.1535, 529.4791
346.6357, 531.1479
347.1178, 532.6274
347.5999, 533.3519
348.0820, 535.0513
348.5641, 536.3600
349.0462, 537.6528
349.5284, 534.3419
350.0105, 530.9442
350.4926, 527.0509
350.9747, 523.0029
351.4568, 519.6422
351.9389, 517.0587
352.4211, 514.7224
352.9032, 512.1784
353.3853, 509.4955
353.8674, 506.8357
354.3495, 504.1679
354.8316, 501.6207
355.3138, 499.5519
355.7959, 497.8969
356.2780, 495.9547
356.7601, 493.0094
357.2422, 489.5482
357.7243, 486.1638
358.2065, 483.0856
358.6886, 480.0824
359.1707, 476.7949
359.6528, 473.4176
360.1349, 470.5385
360.6170, 469.1281
361.0992, 467.8737
361.5813, 465.7401
362.0634, 462.3300
362.5455, 458.9135
363.0276, 456.2039
363.5097, 453.7614
363.9919, 450.9341
364.4740, 447.0958
364.9561, 443.2228
365.4382, 439.6809
365.9203, 436.4955
366.4024, 433.4116
366.8846, 430.2825
367.3667, 427.2610
367.8488, 424.4711
368.3309, 422.2299
368.8130, 419.8865
369.2951, 417.3136
369.7773, 414.5328
370.2594, 411.7692
370.7415, 408.8312
371.2236, 406.0774
371.7057, 403.6413
372.1878, 401.5327
372.6700, 399.7323
373.1521, 398.3266
373.6342, 397.2046
374.1163, 396.1922
374.5984, 395.3915
375.0805, 394.4997
375.5627, 393.2953
376.0448, 391.6987
376.5269, 390.7261
377.0090, 390.5047
377.4911, 390.6588
377.9732, 390.5477
378.4554, 389.9492
378.9375, 390.5916
379.4196, 393.1012
379.9017, 397.0051
380.3838, 401.1362
380.8659, 405.6370
381.3481, 409.0059
381.8302, 408.8315
382.3123, 405.8670
382.7944, 406.0282
383.2765, 410.5952
383.7586, 416.8278
384.2408, 420.0887
384.7229, 420.9420
385.2050, 423.0515
385.6871, 430.3209
386.1692, 439.5464
386.6513, 444.2160
387.1335, 443.9697
387.6156, 442.8710
388.0977, 444.7545
388.5798, 448.3551
389.0619, 451.3781
389.5440, 452.8357
390.0262, 453.5598
390.5083, 454.2840
390.9904, 454.9479
391.4725, 455.2535
391.9546, 455.6562
392.4367, 455.2774
392.9189, 453.2190
393.4010, 448.9169
393.8831, 443.9279
394.3652, 438.8072
394.8473, 433.5859
395.3294, 428.2699
395.8116, 422.7583
396.2937, 417.3047
396.7758, 412.0172
397.2579, 406.9120
397.7400, 401.8752
398.2221, 397.1458
398.7043, 392.3859
399.1864, 387.3364
399.6685, 381.3956
400.1506, 375.8394
400.6327, 371.1064
401.1148, 366.9496
401.5970, 362.1200
402.0791, 355.9410
402.5612, 349.9409
403.0433, 344.8645
403.5254, 341.1373
404.0075, 337.1500
404.4897, 332.7968
404.9718, 328.2877
405.4539, 323.8848
405.9360, 319.5000
406.4181, 315.5008
406.9002, 312.0854
407.3824, 309.1942
407.8645, 305.8272
408.3466, 301.8148
408.8287, 297.9644
409.3108, 295.3468
409.7929, 293.8756
410.2751, 291.2872
410.7572, 286.7982
411.2393, 281.7125
411.7214, 279.1651
412.2035, 278.8088
412.6856, 277.5201
413.1678, 272.4158
413.6499, 265.2792
414.1320, 259.9743
414.6141, 256.7126
415.0962, 254.4495
415.5783, 252.2800
416.0605, 250.3731
416.5426, 249.0808
417.0247, 250.0698
417.5068, 250.3195
417.9889, 246.3466
418.4710, 238.9862
418.9532, 231.9695
419.4353, 227.6137
419.9174, 224.3210
420.3995, 220.8574
420.8816, 216.7405
421.3637, 213.0126
421.8459, 210.3938
422.3280, 208.3525
422.8101, 206.0452
423.2922, 202.9575
423.7743, 199.8818
424.2564, 197.1388
424.7386, 194.7793
425.2207, 192.2874
425.7028, 189.4518
426.1849, 186.6060
426.6670, 183.9826
427.1491, 181.8694
427.6313, 179.5160
428.1134, 176.6445
428.5955, 173.5739
429.0776, 171.1570
429.5597, 169.4123
430.0418, 168.2685
430.5240, 168.0822
431.0061, 169.0538
431.4882, 168.0571
431.9703, 164.4810
432.4524, 160.2851
432.9345, 157.7117
433.4167, 156.8019
433.8988, 156.1333
434.3809, 155.4852
434.8630, 154.7967
435.3451, 153.7698
435.8272, 152.4241
436.3094, 151.3565
436.7915, 151.1954
437.2736, 151.5923
437.7557, 151.6655
438.2378, 151.2969
438.7199, 150.8617
439.2020, 150.6345
439.6841, 150.6250
440.1663, 150.8528
440.6484, 151.5870
441.1305, 152.3734
441.6126, 152.8275
442.0947, 152.9851
442.5768, 153.0487
443.0590, 153.1955
443.5411, 153.2473
444.0232, 153.0070
444.5053, 152.2073
444.9874, 151.6221
445.4695, 151.7064
445.9517, 152.1280
446.4338, 152.3515
446.9159, 152.1041
447.3980, 151.8194
447.8801, 151.6522
448.3622, 151.6198
448.8444, 151.4288
449.3265, 151.0640
449.8086, 150.2263
450.2907, 150.5555
450.7728, 150.6849
451.2549, 150.6253
451.7371, 149.8106
452.2192, 149.9709
452.7013, 149.7406
453.1834, 149.4941
453.6655, 149.7917
454.1476, 149.0869
454.6298, 149.3759
455.1119, 149.2681
455.5940, 149.3419
456.0761, 149.0226
456.5582, 148.8247
457.0403, 149.0201
457.5225, 148.9977
458.0046, 148.6331
458.4867, 148.7185
458.9688, 147.8098
459.4509, 147.2727
459.9330, 147.1433
460.4152, 148.1941
460.8973, 149.5544
461.3794, 150.0285
461.8615, 149.5423
462.3436, 149.1131
462.8257, 149.5215
463.3079, 150.3086
463.7900, 150.9600
464.2721, 151.3023
464.7542, 151.5228
465.2363, 151.6139
465.7184, 151.6327
466.2006, 151.7404
466.6827, 152.4318
467.1648, 152.8241
467.6469, 152.4654
468.1290, 151.0975
468.6111, 149.9002
469.0933, 148.8253
469.5754, 147.9736
470.0575, 147.4853
470.5396, 147.7803
471.0217, 147.5759
471.5038, 146.5813
471.9860, 145.0178
472.4681, 143.5722
472.9502, 142.2081
473.4323, 141.0794
473.9144, 140.3776
474.3965, 140.0785
474.8787, 139.5607
475.3608, 138.8132
475.8429, 137.9053
476.3250, 136.7391
476.8071, 135.4212
477.2892, 134.5387
477.7714, 134.4108
478.2535, 134.5519
478.7356, 134.2516
479.2177, 133.5929
479.6998, 132.9458
480.1819, 132.4792
480.6641, 132.1516
481.1462, 132.0017
481.6283, 132.0491
482.1104, 131.9678
482.5925, 131.4264
483.0746, 130.7217
483.5568, 130.1565
484.0389, 129.5534
484.5210, 129.3993
485.0031, 130.1592
485.4852, 131.5189
485.9673, 132.5225
486.4495, 132.2300
486.9316, 132.3047
487.4137, 133.5010
487.8958, 136.2090
488.3779, 138.0472
488.8600, 138.5465
489.3422, 138.6763
489.8243, 139.3108
490.3064, 140.5600
490.7885, 141.9145
491.2706, 143.3463
491.7527, 144.8123
492.2349, 146.2742
492.7170, 147.7280
493.1991, 149.0856
493.6812, 150.1880
494.1633, 151.1312
494.6454, 152.2769
495.1276, 153.6097
495.6097, 155.2752
496.0918, 157.5417
496.5739, 160.2293
497.0560, 162.8493
497.5381, 165.2859
498.0203, 167.7428
498.5024, 170.4561
498.9845, 173.3428
499.4666, 176.2912
499.9487, 179.1668
500.4308, 182.1252
500.9130, 185.3470
501.3951, 188.8205
501.8772, 192.1305
502.3593, 194.8876
502.8414, 197.5683
503.3235, 200.5320
503.8057, 204.3163
504.2878, 207.6214
504.7699, 210.3026
505.2520, 212.5293
505.7341, 214.6241
506.2162, 216.8244
506.6984, 218.3758
507.1805, 218.8462
507.6626, 218.3869
508.1447, 218.5276
508.6268, 219.4124
509.1089, 220.3512
509.5911, 220.9745
510.0732, 221.2675
510.5553, 220.9778
511.0374, 220.0017
511.5195, 218.7788
512.0016, 217.7960
512.4838, 217.0212
512.9659, 216.3600
513.4480, 215.7074
513.9301, 215.2053
514.4122, 215.0788
514.8943, 215.2668
515.3765, 215.5061
515.8586, 215.5104
516.3407, 215.6002
516.8228, 216.0968
517.3049, 217.1297
517.7870, 218.0476
518.2692, 218.3940
518.7513, 218.6185
519.2334, 219.1519
519.7155, 220.0781
520.1976, 221.3027
520.6797, 222.8322
521.1619, 224.6398
521.6440, 226.6744
522.1261, 229.0533
522.6082, 231.4133
523.0903, 233.5911
523.5724, 235.5819
524.0546, 237.8007
524.5367, 240.3197
525.0188, 242.8037
525.5009, 244.9210
525.9830, 246.7152
526.4651, 248.5849
526.9473, 250.6161
527.4294, 252.7011
527.9115, 254.6745
528.3936, 256.5435
528.8757, 258.3760
529.3578, 260.2345
529.8400, 262.0209
530.3221, 263.6859
530.8042, 265.1937
531.2863, 266.4369
531.7684, 267.2062
532.2505, 267.7630
532.7327, 268.3317
533.2148, 269.0384
533.6969, 269.4318
534.1790, 269.1056
534.6611, 268.5180
535.1432, 268.1899
535.6254, 268.4642
536.1075, 268.6170
536.5896, 268.4825
537.0717, 268.1827
537.5538, 268.1599
538.0359, 268.5224
538.5181, 268.9118
539.0002, 269.0842
539.4823, 269.0554
539.9644, 269.6285
540.4465, 270.8783
540.9286, 272.3562
541.4108, 273.6922
541.8929, 274.9133
542.3750, 275.9994
542.8571, 276.8233
543.3392, 277.8690
543.8214, 279.7653
544.3035, 282.3421
544.7856, 285.2416
545.2677, 288.1309
545.7498, 291.4182
546.2319, 295.4150
546.7141, 300.0730
547.1962, 305.0931
547.6783, 310.3602
548.1604, 315.9197
548.6425, 321.8060
549.1246, 327.7722
549.6068, 334.7362
550.0889, 343.1476
550.5710, 352.3631
551.0531, 361.8141
551.5352, 371.3770
552.0173, 381.4394
552.4995, 391.7988
552.9816, 402.7361
553.4637, 415.1030
553.9458, 429.1044
554.4279, 443.0956
554.9100, 456.1574
555.3922, 468.6740
555.8743, 482.6682
556.3564, 498.0302
556.8385, 512.7694
557.3206, 524.9178
557.8027, 535.3823
558.2849, 546.0500
558.7670, 557.3632
559.2491, 568.1094
559.7312, 577.1648
560.2133, 585.0447
560.6954, 592.4207
561.1776, 598.9427
561.6597, 605.4933
562.1418, 611.9339
562.6239, 618.5685
563.1060, 626.3290
563.5881, 635.6944
564.0703, 645.9137
564.5524, 656.4640
565.0345, 667.0446
565.5166, 680.9695
565.9987, 699.7757
566.4808, 719.3605
566.9630, 737.3323
567.4451, 753.6776
567.9272, 767.7217
568.4093, 780.0089
568.8914, 788.7106
569.3735, 792.0529
569.8557, 789.8740
570.3378, 781.4434
570.8199, 766.4791
571.3020, 745.2194
571.7841, 716.9632
572.2662, 682.5284
572.7484, 645.0940
573.2305, 602.8080
573.7126, 560.4955
574.1947, 520.3636
574.6768, 482.9197
575.1589, 448.5811
575.6411, 418.5419
576.1232, 391.6447
576.6053, 367.5999
577.0874, 347.0251
577.5695, 328.2194
578.0516, 311.4448
578.5338, 296.4629
579.0159, 282.6913
579.4980, 270.2921
579.9801, 259.3271
580.4622, 250.1077
580.9443, 242.1445
581.4265, 234.1858
581.9086, 226.2339
582.3907, 218.8111
