##NAMES=Eudidymite
##RRUFFID=R060383
##IDEAL CHEMISTRY=Na_2_Be_2_Si_6_O_15_&#183;H_2_O
##LOCALITY=Mount Malosa, Zomba District, Malawi
##OWNER=RRUFF
##SOURCE=Herb Obodda
##DESCRIPTION=Colorless to tan micaceous book
##STATUS=The identification of this mineral has been confirmed by X-ray diffraction and chemical analysis
##URL=rruff.info/R060383
##MEASURED CHEMISTRY=Na_1.00_Be_1.00_Si_3.00_O_7_(OH) ; Be not measured but estimated by stoichiometry.
144.5502, 16.33986
145.0323, 18.07745
145.5144, 19.21646
145.9965, 19.33556
146.4786, 19.49112
146.9608, 19.93564
147.4429, 20.73908
147.9250, 21.57290
148.4071, 22.61579
148.8892, 23.62519
149.3713, 24.20911
149.8535, 23.67263
150.3356, 23.40440
150.8177, 23.83863
151.2998, 25.40059
151.7819, 26.74655
152.2640, 27.61011
152.7462, 28.28817
153.2283, 29.29483
153.7104, 31.07981
154.1925, 32.85759
154.6746, 34.34270
155.1567, 35.37410
155.6389, 36.31993
156.1210, 37.03955
156.6031, 37.69408
157.0852, 38.68500
157.5673, 40.34404
158.0495, 42.17548
158.5316, 43.78057
159.0137, 43.42048
159.4958, 45.23998
159.9779, 51.80959
160.4600, 61.76425
160.9422, 70.64542
161.4243, 79.97161
161.9064, 85.99257
162.3885, 85.84973
162.8706, 72.99390
163.3527, 60.72442
163.8349, 54.53770
164.3170, 53.64165
164.7991, 54.24854
165.2812, 55.42219
165.7633, 56.93417
166.2454, 58.57705
166.7276, 60.21666
167.2097, 62.03457
167.6918, 64.13421
168.1739, 66.49996
168.6560, 69.15475
169.1381, 71.39944
169.6203, 74.11106
170.1024, 77.83701
170.5845, 84.73403
171.0666, 92.20197
171.5487, 97.97495
172.0309, 102.1338
172.5130, 105.6182
172.9951, 109.4393
173.4772, 112.9787
173.9593, 115.2610
174.4414, 115.8399
174.9236, 115.0520
175.4057, 112.7899
175.8878, 109.0329
176.3699, 105.2746
176.8520, 102.5500
177.3341, 100.7022
177.8163, 99.40507
178.2984, 98.70006
178.7805, 98.39462
179.2626, 98.19113
179.7447, 98.07191
180.2268, 98.18944
180.7090, 98.64499
181.1911, 99.44546
181.6732, 100.6320
182.1553, 102.0918
182.6374, 103.9582
183.1195, 106.6636
183.6017, 110.3662
184.0838, 114.2259
184.5659, 117.1762
185.0480, 119.3981
185.5301, 121.9662
186.0123, 125.5412
186.4944, 129.8705
186.9765, 134.1059
187.4586, 138.2872
187.9407, 142.2748
188.4228, 146.0598
188.9050, 149.5949
189.3871, 152.4927
189.8692, 154.5388
190.3513, 155.7605
190.8334, 156.2478
191.3155, 155.9510
191.7977, 155.0656
192.2798, 154.0124
192.7619, 152.7969
193.2440, 150.8681
193.7261, 147.6663
194.2082, 143.3138
194.6904, 139.1028
195.1725, 135.1978
195.6546, 131.2663
196.1367, 126.5916
196.6188, 121.0606
197.1009, 115.9520
197.5831, 112.1578
198.0652, 109.6359
198.5473, 106.8151
199.0294, 103.3756
199.5115, 99.91637
199.9937, 97.92175
200.4758, 97.64725
200.9579, 97.33508
201.4400, 95.64925
201.9221, 92.39408
202.4042, 90.62478
202.8864, 90.89592
203.3685, 92.34842
203.8506, 92.89539
204.3327, 92.30668
204.8148, 91.72828
205.2969, 91.97210
205.7791, 93.24731
206.2612, 93.83644
206.7433, 93.63676
207.2254, 92.70757
207.7075, 91.03752
208.1896, 88.37532
208.6718, 85.69242
209.1539, 83.42881
209.6360, 81.60131
210.1181, 80.21029
210.6002, 79.29953
211.0823, 78.79894
211.5645, 78.56673
212.0466, 78.69958
212.5287, 78.87447
213.0108, 78.84113
213.4929, 78.43619
213.9750, 78.52102
214.4572, 79.39271
214.9393, 80.68230
215.4214, 81.20360
215.9035, 80.53434
216.3856, 79.95828
216.8678, 80.23167
217.3499, 81.63830
217.8320, 82.95060
218.3141, 84.03956
218.7962, 85.00770
219.2783, 86.14270
219.7605, 87.38062
220.2426, 88.87743
220.7247, 90.78437
221.2068, 93.34169
221.6889, 95.54894
222.1710, 97.06587
222.6532, 98.27023
223.1353, 100.3136
223.6174, 103.4685
224.0995, 107.0465
224.5816, 110.6136
225.0637, 113.8380
225.5459, 118.0149
226.0280, 123.3270
226.5101, 129.5986
226.9922, 136.0698
227.4743, 142.5665
227.9564, 149.6170
228.4386, 157.6909
228.9207, 167.1077
229.4028, 176.4225
229.8849, 185.7029
230.3670, 194.8600
230.8492, 204.0870
231.3313, 214.0268
231.8134, 222.9315
232.2955, 230.3386
232.7776, 236.8859
233.2597, 240.1609
233.7419, 239.8103
234.2240, 236.3031
234.7061, 230.8113
235.1882, 223.2124
235.6703, 213.8871
236.1524, 202.6389
236.6346, 188.3145
237.1167, 174.6990
237.5988, 161.3352
238.0809, 148.7889
238.5630, 138.2742
239.0451, 130.5082
239.5273, 123.8062
240.0094, 117.4838
240.4915, 111.3111
240.9736, 106.1176
241.4557, 102.1908
241.9378, 99.07516
242.4200, 95.79472
242.9021, 91.91827
243.3842, 88.49403
243.8663, 86.02172
244.3484, 84.94617
244.8306, 83.45100
245.3127, 81.27169
245.7948, 78.82673
246.2769, 76.90110
246.7590, 75.66949
247.2411, 74.69698
247.7233, 73.88949
248.2054, 73.32982
248.6875, 72.58811
249.1696, 71.44805
249.6517, 70.27821
250.1338, 69.70175
250.6160, 69.90416
251.0981, 70.38108
251.5802, 71.12287
252.0623, 72.32841
252.5444, 72.72768
253.0265, 71.87414
253.5087, 70.57885
253.9908, 70.06510
254.4729, 70.76194
254.9550, 71.35159
255.4371, 71.35570
255.9192, 70.63855
256.4014, 70.47579
256.8835, 71.10477
257.3656, 72.05347
257.8477, 72.78545
258.3298, 73.27532
258.8120, 73.59223
259.2941, 73.64668
259.7762, 73.39877
260.2583, 73.62512
260.7404, 74.51359
261.2225, 75.64358
261.7047, 76.63253
262.1868, 77.53138
262.6689, 78.13713
263.1510, 78.30142
263.6331, 78.04115
264.1152, 78.10849
264.5974, 78.66483
265.0795, 79.29874
265.5616, 79.00862
266.0437, 76.54402
266.5258, 77.53373
267.0079, 84.38701
267.4901, 96.14537
267.9722, 103.7485
268.4543, 106.8073
268.9364, 106.6608
269.4185, 103.5876
269.9006, 96.56668
270.3828, 91.12755
270.8649, 88.31837
271.3470, 87.67730
271.8291, 87.02505
272.3112, 86.33463
272.7933, 85.67808
273.2755, 85.21080
273.7576, 85.01836
274.2397, 84.40475
274.7218, 83.22431
275.2039, 81.60988
275.6860, 79.95219
276.1682, 78.23837
276.6503, 76.47206
277.1324, 74.57764
277.6145, 72.54614
278.0966, 70.76184
278.5787, 69.30180
279.0609, 68.05893
279.5430, 66.69588
280.0251, 65.15514
280.5072, 63.90597
280.9893, 63.30588
281.4715, 63.35620
281.9536, 63.36329
282.4357, 63.31615
282.9178, 63.18189
283.3999, 62.78961
283.8820, 62.11148
284.3642, 61.65391
284.8463, 61.82590
285.3284, 62.54774
285.8105, 62.82271
286.2926, 62.54976
286.7747, 62.13626
287.2569, 62.15854
287.7390, 62.60192
288.2211, 63.09896
288.7032, 63.55134
289.1853, 63.94337
289.6674, 64.20212
290.1496, 64.32106
290.6317, 64.36520
291.1138, 64.25394
291.5959, 64.05408
292.0780, 64.23329
292.5602, 65.08177
293.0423, 66.36280
293.5244, 67.55807
294.0065, 68.66683
294.4886, 69.57813
294.9707, 69.96802
295.4529, 70.03221
295.9350, 70.44527
296.4171, 71.33549
296.8992, 72.72328
297.3813, 74.82496
297.8634, 77.57746
298.3456, 80.39892
298.8277, 82.57801
299.3098, 84.48660
299.7919, 86.92583
300.2740, 90.04662
300.7561, 93.76257
301.2383, 97.83863
301.7204, 102.3454
302.2025, 107.3459
302.6846, 113.1075
303.1667, 119.3537
303.6488, 125.6976
304.1310, 131.8813
304.6131, 138.5961
305.0952, 146.7058
305.5773, 155.8687
306.0594, 165.1215
306.5415, 173.7062
307.0237, 182.3020
307.5058, 191.7505
307.9879, 202.0976
308.4700, 213.1436
308.9521, 224.6671
309.4343, 236.8333
309.9164, 250.1628
310.3985, 264.5124
310.8806, 280.4995
311.3627, 298.6573
311.8448, 319.1683
312.3270, 341.2921
312.8091, 365.7328
313.2912, 391.2115
313.7733, 416.2182
314.2554, 443.3914
314.7375, 467.2227
315.2197, 486.0148
315.7018, 499.6508
316.1839, 505.8866
316.6660, 504.1226
317.1481, 494.3271
317.6302, 476.3118
318.1124, 445.3416
318.5945, 412.0475
319.0766, 377.8809
319.5587, 343.6572
320.0408, 311.6716
320.5229, 281.6149
321.0051, 254.7086
321.4872, 231.6675
321.9693, 213.6832
322.4514, 198.0212
322.9335, 184.4217
323.4156, 172.7688
323.8978, 162.8399
324.3799, 155.0960
324.8620, 148.6329
325.3441, 143.2064
325.8262, 139.0020
326.3083, 135.3717
326.7905, 132.1366
327.2726, 129.4813
327.7547, 127.6698
328.2368, 127.3802
328.7189, 127.2121
329.2010, 126.7347
329.6832, 125.8454
330.1653, 125.8428
330.6474, 127.4383
331.1295, 129.4076
331.6116, 130.8009
332.0938, 131.5848
332.5759, 131.8982
333.0580, 132.2413
333.5401, 132.3230
334.0222, 129.7790
334.5043, 123.2306
334.9865, 115.9335
335.4686, 109.6950
335.9507, 104.6725
336.4328, 100.2559
336.9149, 96.41172
337.3970, 93.09390
337.8792, 90.34257
338.3613, 88.20126
338.8434, 86.38538
339.3255, 84.73731
339.8076, 83.22815
340.2898, 82.08488
340.7719, 81.31519
341.2540, 80.88078
341.7361, 80.79401
342.2182, 81.09212
342.7003, 81.39213
343.1825, 81.49311
343.6646, 81.46229
344.1467, 81.79762
344.6288, 82.55551
345.1109, 83.40710
345.5930, 83.96898
346.0752, 84.27576
346.5573, 84.76354
347.0394, 85.58907
347.5215, 86.61641
348.0036, 87.26609
348.4857, 87.56505
348.9679, 88.61480
349.4500, 91.86254
349.9321, 96.56975
350.4142, 100.4477
350.8963, 102.9173
351.3784, 105.0887
351.8606, 108.2754
352.3427, 112.3259
352.8248, 116.7728
353.3069, 121.2499
353.7890, 125.9562
354.2711, 131.2015
354.7533, 136.9784
355.2354, 143.3554
355.7175, 150.4771
356.1996, 158.1714
356.6817, 166.1384
357.1638, 173.6846
357.6460, 181.8584
358.1281, 191.3341
358.6102, 202.0957
359.0923, 214.4551
359.5744, 227.8555
360.0565, 243.1552
360.5387, 261.0314
361.0208, 279.7006
361.5029, 303.5473
361.9850, 337.2401
362.4671, 378.0800
362.9492, 417.3716
363.4314, 449.4711
363.9135, 481.1190
364.3956, 516.6381
364.8777, 559.4971
365.3598, 599.6711
365.8419, 641.2018
366.3241, 677.5148
366.8062, 698.3630
367.2883, 703.0591
367.7704, 691.4772
368.2526, 660.5595
368.7347, 607.1790
369.2168, 551.6697
369.6989, 488.9717
370.1810, 427.4462
370.6631, 373.1530
371.1453, 326.3485
371.6274, 286.4052
372.1095, 253.8024
372.5916, 227.9468
373.0737, 205.9935
373.5558, 188.4753
374.0380, 173.7769
374.5201, 160.9942
375.0022, 150.4912
375.4843, 141.1634
375.9664, 133.1804
376.4485, 126.1857
376.9307, 119.2122
377.4128, 112.1707
377.8949, 105.7803
378.3770, 100.4883
378.8591, 96.27020
379.3412, 92.21853
379.8234, 88.33083
380.3055, 84.73798
380.7876, 81.76280
381.2697, 79.34990
381.7518, 76.94181
382.2339, 74.28608
382.7161, 71.62926
383.1982, 69.49310
383.6803, 67.88973
384.1624, 66.64930
384.6445, 65.93263
385.1266, 65.49165
385.6088, 64.59232
386.0909, 62.96486
386.5730, 61.37292
387.0551, 61.00621
387.5372, 61.46897
388.0193, 61.61836
388.5015, 60.57535
388.9836, 59.06554
389.4657, 57.81607
389.9478, 56.86821
390.4299, 56.08902
390.9120, 55.36771
391.3942, 54.76568
391.8763, 54.37209
392.3584, 54.39339
392.8405, 54.46065
393.3226, 54.40945
393.8047, 54.25103
394.2869, 54.03631
394.7690, 53.86261
395.2511, 53.58636
395.7332, 53.05355
396.2154, 51.93383
396.6975, 51.20377
397.1796, 51.32490
397.6617, 51.92011
398.1438, 52.33812
398.6259, 52.06078
399.1081, 52.01960
399.5902, 52.62671
400.0723, 54.04220
400.5544, 54.98851
401.0365, 55.14487
401.5186, 55.06999
402.0008, 55.24006
402.4829, 55.92181
402.9650, 56.35397
403.4471, 56.49432
403.9292, 56.32035
404.4113, 55.69329
404.8935, 54.46185
405.3756, 53.12059
405.8577, 51.90390
406.3398, 50.83308
406.8219, 49.83937
407.3040, 48.96809
407.7862, 48.08450
408.2683, 46.81389
408.7504, 45.13186
409.2325, 43.90368
409.7146, 43.61200
410.1967, 43.95842
410.6789, 43.84144
411.1610, 43.24041
411.6431, 42.72427
412.1252, 42.84168
412.6073, 43.43962
413.0894, 44.18034
413.5716, 45.14711
414.0537, 45.87014
414.5358, 45.57111
415.0179, 44.48802
415.5000, 43.38757
415.9821, 42.75211
416.4643, 42.28593
416.9464, 41.55730
417.4285, 40.50112
417.9106, 39.79790
418.3927, 40.22280
418.8748, 41.13731
419.3570, 41.77591
419.8391, 41.54340
420.3212, 41.31730
420.8033, 41.43739
421.2854, 41.87103
421.7675, 42.45441
422.2497, 43.64453
422.7318, 44.59544
423.2139, 44.73374
423.6960, 43.38046
424.1781, 42.57210
424.6602, 42.99517
425.1424, 43.96541
425.6245, 44.46949
426.1066, 43.96787
426.5887, 43.67215
427.0709, 43.92260
427.5530, 44.71846
428.0351, 45.27013
428.5172, 45.45095
428.9993, 45.56806
429.4814, 45.79845
429.9636, 46.09328
430.4457, 46.72877
430.9278, 47.84398
431.4099, 49.19597
431.8920, 50.20226
432.3741, 50.81856
432.8563, 51.50222
433.3384, 52.49665
433.8205, 53.75954
434.3026, 54.97204
434.7847, 56.13719
435.2668, 57.27418
435.7490, 58.32406
436.2311, 59.35130
436.7132, 60.56095
437.1953, 62.05977
437.6774, 63.69502
438.1595, 65.14124
438.6417, 66.51109
439.1238, 68.27168
439.6059, 70.97641
440.0880, 74.07630
440.5701, 76.93037
441.0522, 79.42183
441.5344, 82.09705
442.0165, 85.28765
442.4986, 88.86404
442.9807, 92.65362
443.4628, 96.61218
443.9449, 100.7608
444.4271, 105.2523
444.9092, 110.0044
445.3913, 114.5938
445.8734, 118.9290
446.3555, 122.9605
446.8376, 126.6777
447.3198, 130.2741
447.8019, 133.1703
448.2840, 135.5589
448.7661, 137.1507
449.2482, 137.5298
449.7303, 136.6386
450.2125, 134.6175
450.6946, 131.4013
451.1767, 127.0040
451.6588, 121.7994
452.1409, 115.4801
452.6230, 108.9771
453.1052, 103.0424
453.5873, 97.67042
454.0694, 92.13015
454.5515, 86.17059
455.0337, 80.43900
455.5158, 76.36271
455.9979, 73.81217
456.4800, 71.40207
456.9621, 68.30788
457.4442, 64.98396
457.9264, 62.45306
458.4085, 60.71174
458.8906, 59.46922
459.3727, 58.88242
459.8548, 58.56066
460.3369, 57.77239
460.8191, 56.03727
461.3012, 54.55704
461.7833, 54.66794
462.2654, 55.73487
462.7475, 56.43558
463.2296, 55.67695
463.7118, 54.82763
464.1939, 54.65802
464.6760, 55.21944
465.1581, 55.95637
465.6402, 56.68191
466.1223, 57.52091
466.6045, 58.55302
467.0866, 59.89339
467.5687, 61.29219
468.0508, 62.88208
468.5329, 64.51349
469.0150, 65.84445
469.4972, 66.55168
469.9793, 67.42846
470.4614, 68.78793
470.9435, 70.66710
471.4256, 72.31009
471.9077, 73.74149
472.3899, 74.89058
472.8720, 75.34721
473.3541, 74.96419
473.8362, 75.86313
474.3183, 78.52999
474.8004, 82.31577
475.2826, 85.84464
475.7647, 89.18153
476.2468, 93.25561
476.7289, 99.06472
477.2110, 105.8667
477.6931, 112.3252
478.1753, 118.4491
478.6574, 123.2640
479.1395, 126.3984
479.6216, 127.5928
480.1037, 126.3202
480.5858, 121.8575
481.0680, 115.9744
481.5501, 109.0333
482.0322, 101.5895
482.5143, 94.86372
482.9964, 89.56973
483.4786, 84.89864
483.9607, 80.36508
484.4428, 75.93678
484.9249, 72.30276
485.4070, 69.85339
485.8892, 68.12146
486.3713, 66.80385
486.8534, 65.93330
487.3355, 65.41537
487.8176, 65.38789
488.2997, 65.66562
488.7819, 65.84578
489.2640, 65.85036
489.7461, 65.92770
490.2282, 66.11257
490.7103, 66.41732
491.1924, 67.01966
491.6746, 67.92182
492.1567, 69.12086
492.6388, 70.72133
493.1209, 72.68892
493.6030, 74.51382
494.0851, 76.12951
494.5673, 77.65067
495.0494, 78.85160
495.5315, 79.99448
496.0136, 81.97559
496.4957, 85.57198
496.9778, 90.02001
497.4600, 94.62753
497.9421, 99.38868
498.4242, 104.4527
498.9063, 109.9200
499.3884, 115.7565
499.8705, 121.9306
500.3527, 128.1191
500.8348, 135.3246
501.3169, 144.0056
501.7990, 153.7445
502.2811, 164.0423
502.7632, 174.3333
503.2454, 185.5433
503.7275, 197.4519
504.2096, 210.1727
504.6917, 225.8423
505.1738, 244.4473
505.6559, 265.7139
506.1381, 289.0774
506.6202, 314.0346
507.1023, 343.1527
507.5844, 376.3841
508.0665, 413.7462
508.5486, 454.4506
509.0308, 498.6664
509.5129, 547.7967
509.9950, 603.0616
510.4771, 662.8826
510.9592, 727.1571
511.4413, 794.9534
511.9235, 860.0351
512.4056, 923.2158
512.8877, 979.2181
513.3698, 1024.850
513.8519, 1060.625
514.3340, 1073.278
514.8162, 1049.234
515.2983, 997.9404
515.7804, 929.9301
516.2625, 836.9412
516.7446, 742.0714
517.2267, 650.6035
517.7089, 564.4183
518.1910, 489.2058
518.6731, 428.8605
519.1552, 376.9205
519.6373, 332.6379
520.1194, 295.7179
520.6016, 263.7124
521.0837, 237.6272
521.5658, 215.7079
522.0479, 197.0173
522.5300, 182.1502
523.0121, 168.9609
523.4943, 157.3317
523.9764, 147.2891
524.4585, 139.1253
524.9406, 133.0008
525.4227, 127.4654
525.9048, 122.0393
526.3870, 116.8664
526.8691, 112.1236
527.3513, 107.7999
527.8334, 104.0112
528.3155, 100.9141
528.7976, 98.32600
529.2797, 96.16537
529.7618, 94.54089
530.2440, 92.49898
530.7261, 88.85867
531.2082, 84.56850
531.6903, 80.91033
532.1724, 78.62016
532.6545, 76.64010
533.1367, 74.70738
533.6188, 72.80995
534.1009, 70.84045
534.5830, 68.62302
535.0651, 66.50336
535.5472, 64.56382
536.0294, 62.75571
536.5115, 61.38780
536.9936, 60.58521
537.4757, 60.04793
537.9578, 59.37235
538.4399, 58.37551
538.9221, 58.51405
539.4042, 60.24740
539.8863, 62.63872
540.3684, 64.51588
540.8505, 65.79861
541.3326, 65.44109
541.8148, 62.02627
542.2969, 57.31845
542.7790, 54.37342
543.2611, 53.07101
543.7432, 52.32005
544.2253, 51.58344
544.7075, 50.91582
545.1896, 50.36994
545.6717, 49.95274
546.1538, 49.65870
546.6359, 49.57113
547.1180, 49.56860
547.6002, 49.52337
548.0823, 49.53839
548.5644, 49.35537
549.0465, 48.71350
549.5286, 47.82831
550.0107, 47.33850
550.4929, 47.49388
550.9750, 47.65642
551.4571, 47.50327
551.9392, 47.03067
552.4213, 47.43407
552.9034, 49.04275
553.3856, 50.50517
553.8677, 50.44616
554.3498, 49.02700
554.8319, 48.23863
555.3140, 48.34175
555.7961, 48.87115
556.2783, 49.24522
556.7604, 49.55323
557.2425, 50.05602
557.7246, 50.99622
558.2067, 52.02309
558.6888, 52.74044
559.1710, 53.24003
559.6531, 53.82452
560.1352, 54.61235
560.6173, 55.54792
561.0994, 56.57205
561.5815, 57.67238
562.0637, 58.96885
562.5458, 60.56404
563.0279, 62.31359
563.5100, 64.10848
563.9921, 65.73109
564.4742, 67.79620
564.9564, 70.34022
565.4385, 73.30158
565.9206, 76.55821
566.4027, 80.05174
566.8848, 84.00916
567.3669, 88.52393
567.8491, 93.50655
568.3312, 98.38879
568.8133, 103.1721
569.2954, 108.5680
569.7775, 114.8791
570.2596, 122.1227
570.7418, 130.3385
571.2239, 139.6167
571.7060, 149.2837
572.1881, 158.6211
572.6702, 168.1426
573.1523, 178.6026
573.6345, 190.4900
574.1166, 202.5957
574.5987, 214.9727
575.0808, 227.0458
575.5629, 238.0788
576.0450, 249.6033
576.5272, 257.8454
577.0093, 261.9355
577.4914, 262.0847
577.9735, 259.4991
578.4556, 253.8881
578.9377, 246.1851
579.4199, 236.3687
579.9020, 224.5284
580.3841, 212.2102
580.8662, 199.3495
581.3483, 186.5769
581.8304, 174.3904
582.3126, 162.9122
582.7947, 152.6495
583.2768, 143.8207
583.7589, 135.8377
584.2410, 127.9988
584.7231, 120.5493
585.2053, 113.9765
585.6874, 108.8625
586.1696, 104.3269
586.6517, 99.97468
587.1338, 95.81705
587.6159, 91.93448
588.0980, 88.03915
588.5801, 84.69923
589.0623, 82.33489
589.5444, 81.12134
590.0265, 79.62522
590.5086, 77.73611
590.9907, 75.70844
591.4728, 73.64745
591.9550, 71.50362
592.4371, 69.80965
592.9192, 68.70263
593.4013, 67.86594
593.8834, 66.84866
594.3655, 65.68836
594.8477, 64.62885
595.3298, 63.84266
595.8119, 63.09438
596.2940, 61.86268
596.7761, 60.36094
597.2582, 59.26661
597.7404, 59.27885
598.2225, 59.56511
598.7046, 59.60262
599.1867, 59.35596
599.6688, 58.95144
600.1509, 58.23436
600.6331, 57.50493
601.1152, 56.96893
601.5973, 56.73375
602.0794, 56.44547
602.5615, 56.14285
603.0436, 55.75208
603.5258, 55.15631
604.0079, 54.30536
604.4900, 53.50895
604.9721, 52.77043
605.4542, 52.19257
605.9363, 52.13467
606.4185, 52.53028
606.9006, 52.77367
607.3827, 52.43813
607.8648, 51.88425
608.3469, 51.66279
608.8290, 51.72067
609.3112, 51.77111
609.7933, 51.74903
610.2754, 51.57949
610.7575, 51.16148
611.2396, 50.46165
611.7217, 49.75087
612.2039, 48.86470
612.6860, 48.15418
613.1681, 47.91425
613.6502, 48.70287
614.1323, 48.98585
614.6144, 48.59835
615.0966, 47.83064
615.5787, 46.95083
616.0608, 45.86787
616.5429, 45.37610
617.0250, 45.90740
617.5071, 46.85454
617.9893, 46.59229
618.4714, 45.29491
618.9535, 44.33113
619.4356, 44.72673
619.9177, 45.67680
620.3998, 46.20014
620.8820, 46.31196
621.3641, 46.28955
621.8462, 45.98632
622.3283, 45.81619
622.8104, 46.18032
623.2925, 47.32380
623.7747, 48.20052
624.2568, 47.90302
624.7389, 47.72472
625.2210, 48.70185
625.7031, 51.15252
626.1852, 54.38846
626.6674, 59.43014
627.1495, 63.99267
627.6316, 63.25622
628.1137, 56.94933
628.5958, 52.09284
629.0779, 51.05173
629.5601, 52.22689
630.0422, 52.88442
630.5243, 53.05640
631.0064, 52.92027
631.4885, 52.49851
631.9706, 51.86553
632.4528, 51.13798
632.9349, 50.30476
633.4170, 49.14867
633.8991, 47.05344
634.3812, 45.00257
634.8633, 43.60582
635.3455, 43.15576
635.8276, 42.69137
636.3097, 42.23082
636.7918, 41.70340
637.2739, 41.04355
637.7560, 40.24184
638.2382, 39.32146
638.7203, 38.20430
639.2024, 37.13572
639.6845, 36.46415
