##NAMES=Eudidymite
##RRUFFID=R060063
##IDEAL CHEMISTRY=Na_2_Be_2_Si_6_O_15_&#183;H_2_O
##LOCALITY=Langesundfjord, Norway
##OWNER=RRUFF
##SOURCE=University of Arizona Mineral Museum
##DESCRIPTION=Colorless crystal fragment
##STATUS=The identification of this mineral has been confirmed by X-ray diffraction and chemical analysis
##URL=rruff.info/R060063
##MEASURED CHEMISTRY=Na_1.00_Be_1.00_Si_3.00_O_7_(OH)
118.2057, 110.0160
118.6879, 111.0089
119.1700, 112.4845
119.6521, 114.3769
120.1342, 116.1577
120.6163, 117.6966
121.0984, 119.2402
121.5805, 120.8521
122.0627, 122.5115
122.5448, 124.1453
123.0269, 125.6574
123.5090, 126.9625
123.9911, 128.6828
124.4732, 130.8887
124.9554, 133.3319
125.4375, 135.9797
125.9196, 138.7769
126.4017, 141.6447
126.8838, 144.6474
127.3659, 148.1837
127.8481, 150.1529
128.3302, 150.4593
128.8123, 149.2105
129.2944, 146.3369
129.7765, 141.7064
130.2586, 135.9090
130.7408, 129.4821
131.2229, 122.3797
131.7050, 115.6476
132.1871, 109.5073
132.6692, 104.0272
133.1513, 99.45129
133.6335, 96.08574
134.1156, 93.54573
134.5977, 91.33331
135.0798, 89.44506
135.5619, 87.75359
136.0440, 86.14880
136.5262, 84.61746
137.0083, 83.23721
137.4904, 82.43908
137.9725, 81.56696
138.4546, 80.12598
138.9367, 77.96542
139.4189, 75.38386
139.9010, 72.91065
140.3831, 70.54402
140.8652, 68.34025
141.3473, 66.39363
141.8294, 64.56062
142.3116, 62.68014
142.7937, 60.65496
143.2758, 58.58593
143.7579, 56.85405
144.2400, 55.62409
144.7221, 54.60036
145.2043, 53.84277
145.6864, 53.25896
146.1685, 52.71104
146.6506, 52.10100
147.1327, 51.44370
147.6148, 50.92928
148.0969, 50.51245
148.5791, 50.24006
149.0612, 50.22153
149.5433, 50.40928
150.0254, 50.56854
150.5075, 50.50911
150.9896, 50.23959
151.4718, 50.02227
151.9539, 49.82830
152.4360, 49.70573
152.9181, 49.75681
153.4002, 50.01542
153.8823, 50.23129
154.3645, 50.11917
154.8466, 49.80159
155.3287, 49.51744
155.8108, 49.36342
156.2929, 49.29380
156.7750, 49.18811
157.2572, 48.98233
157.7393, 48.85472
158.2214, 48.94411
158.7035, 49.18351
159.1856, 49.42199
159.6677, 49.51112
160.1499, 49.46787
160.6320, 49.61095
161.1141, 50.15642
161.5962, 50.69177
162.0783, 51.06419
162.5604, 51.28706
163.0426, 51.43425
163.5247, 51.56450
164.0068, 51.66944
164.4889, 51.80149
164.9710, 51.93373
165.4531, 52.11309
165.9353, 52.35017
166.4174, 52.65269
166.8995, 53.04257
167.3816, 53.56334
167.8637, 54.33461
168.3458, 54.91159
168.8279, 55.23007
169.3101, 55.42676
169.7922, 55.50970
170.2743, 55.50710
170.7564, 55.58304
171.2385, 56.01370
171.7206, 57.04923
172.2028, 57.86921
172.6849, 58.42462
173.1670, 58.75029
173.6491, 58.85050
174.1312, 58.71149
174.6133, 58.42960
175.0955, 58.14296
175.5776, 57.84330
176.0597, 57.57037
176.5418, 57.29835
177.0239, 57.06136
177.5060, 56.94436
177.9882, 57.00429
178.4703, 57.15257
178.9524, 57.24442
179.4345, 57.26601
179.9166, 57.34882
180.3987, 57.62725
180.8809, 58.07293
181.3630, 58.43756
181.8451, 58.61036
182.3272, 58.70890
182.8093, 58.77684
183.2914, 58.80940
183.7736, 58.98657
184.2557, 59.58970
184.7378, 60.69604
185.2199, 61.60257
185.7020, 61.90398
186.1841, 62.09617
186.6663, 62.50905
187.1484, 63.20424
187.6305, 63.92540
188.1126, 64.29869
188.5947, 64.18930
189.0768, 64.06626
189.5589, 63.97706
190.0411, 63.90264
190.5232, 63.84057
191.0053, 63.78743
191.4874, 63.72309
191.9695, 63.61799
192.4516, 63.53222
192.9338, 63.28553
193.4159, 62.78728
193.8980, 62.18694
194.3801, 61.59805
194.8622, 61.06323
195.3443, 60.57973
195.8265, 60.13942
196.3086, 59.81556
196.7907, 59.44770
197.2728, 58.99225
197.7549, 58.50632
198.2370, 58.03828
198.7192, 57.60684
199.2013, 57.22993
199.6834, 56.97158
200.1655, 56.87570
200.6476, 56.82235
201.1297, 56.76719
201.6119, 56.74659
202.0940, 56.82604
202.5761, 57.03854
203.0582, 57.35451
203.5403, 57.70340
204.0224, 58.07917
204.5046, 58.48624
204.9867, 58.98535
205.4688, 59.52253
205.9509, 59.95880
206.4330, 60.23229
206.9151, 60.36815
207.3973, 60.41243
207.8794, 60.31090
208.3615, 60.26617
208.8436, 60.41349
209.3257, 60.72874
209.8078, 61.06777
210.2899, 61.32959
210.7721, 61.64316
211.2542, 62.18010
211.7363, 62.99061
212.2184, 63.84270
212.7005, 64.56221
213.1826, 65.14996
213.6648, 65.65868
214.1469, 65.99891
214.6290, 66.34058
215.1111, 66.88019
215.5932, 67.66425
216.0753, 68.42152
216.5575, 68.80994
217.0396, 68.75717
217.5217, 68.80495
218.0038, 69.18573
218.4859, 69.65096
218.9680, 70.01892
219.4502, 70.25732
219.9323, 70.53538
220.4144, 71.12417
220.8965, 72.16240
221.3786, 73.05077
221.8607, 73.52491
222.3429, 73.95827
222.8250, 74.63219
223.3071, 75.59453
223.7892, 76.61943
224.2713, 77.33161
224.7534, 77.49447
225.2356, 77.91074
225.7177, 78.62356
226.1998, 79.55344
226.6819, 80.74664
227.1640, 82.16877
227.6461, 83.63580
228.1283, 84.83593
228.6104, 85.58437
229.0925, 86.41168
229.5746, 87.44748
230.0567, 88.46389
230.5388, 89.38153
231.0210, 90.14767
231.5031, 90.66225
231.9852, 90.78529
232.4673, 90.48764
232.9494, 89.73912
233.4315, 88.52918
233.9137, 86.93070
234.3958, 84.93735
234.8779, 82.57024
235.3600, 79.92338
235.8421, 77.09555
236.3242, 73.89983
236.8064, 70.99456
237.2885, 68.47305
237.7706, 66.16151
238.2527, 63.90555
238.7348, 61.67088
239.2169, 59.55560
239.6991, 57.69570
240.1812, 56.11135
240.6633, 54.75699
241.1454, 53.65264
241.6275, 52.76240
242.1096, 52.09698
242.5918, 51.65908
243.0739, 51.30446
243.5560, 50.86979
244.0381, 50.34144
244.5202, 49.90785
245.0023, 49.67477
245.4845, 49.49702
245.9666, 49.19593
246.4487, 48.73975
246.9308, 48.29027
247.4129, 47.98518
247.8950, 47.82171
248.3772, 47.80342
248.8593, 48.13913
249.3414, 48.52075
249.8235, 48.51346
250.3056, 48.03957
250.7877, 47.56242
251.2698, 47.51212
251.7520, 47.78112
252.2341, 48.05347
252.7162, 48.28080
253.1983, 48.47130
253.6804, 48.64862
254.1625, 48.82566
254.6447, 48.91978
255.1268, 48.75842
255.6089, 48.48520
256.0910, 48.36116
256.5731, 48.52396
257.0552, 48.81750
257.5374, 49.05540
258.0195, 49.24089
258.5016, 49.35505
258.9837, 49.29897
259.4658, 49.18782
259.9479, 49.16221
260.4301, 49.27992
260.9122, 49.46864
261.3943, 49.64920
261.8764, 49.83088
262.3585, 49.96363
262.8406, 49.97891
263.3228, 49.95194
263.8049, 49.96174
264.2870, 50.04710
264.7691, 50.11478
265.2512, 50.01263
265.7333, 49.69735
266.2155, 49.42095
266.6976, 49.21206
267.1797, 49.10312
267.6618, 49.15815
268.1439, 49.39787
268.6260, 49.70746
269.1082, 49.94888
269.5903, 50.11005
270.0724, 50.26982
270.5545, 50.49673
271.0366, 50.69118
271.5187, 50.81330
272.0009, 50.85061
272.4830, 50.77001
272.9651, 50.49591
273.4472, 49.98734
273.9293, 49.51966
274.4114, 49.16814
274.8936, 48.82989
275.3757, 48.48708
275.8578, 48.12355
276.3399, 47.68788
276.8220, 47.03995
277.3041, 46.11019
277.7863, 45.49833
278.2684, 45.62451
278.7505, 45.74445
279.2326, 45.53469
279.7147, 45.05191
280.1968, 44.55361
280.6789, 44.25212
281.1610, 44.14995
281.6432, 44.12189
282.1253, 44.19921
282.6074, 44.33070
283.0895, 44.53186
283.5716, 44.77670
284.0537, 45.01000
284.5359, 45.17959
285.0180, 45.29895
285.5001, 45.52970
285.9822, 46.03177
286.4643, 46.46610
286.9464, 46.67926
287.4286, 46.78680
287.9107, 46.97042
288.3928, 47.34102
288.8749, 47.85462
289.3570, 48.32236
289.8391, 48.77740
290.3213, 49.12887
290.8034, 49.21622
291.2855, 49.25327
291.7676, 49.46247
292.2497, 49.94459
292.7318, 50.67460
293.2140, 51.60123
293.6961, 52.86654
294.1782, 54.12764
294.6603, 55.36489
295.1424, 56.57600
295.6245, 57.73631
296.1067, 58.84521
296.5888, 59.95787
297.0709, 61.20222
297.5530, 62.76207
298.0351, 64.08084
298.5172, 65.04668
298.9994, 65.88486
299.4815, 66.74572
299.9636, 67.65913
300.4457, 68.56795
300.9278, 69.37811
301.4099, 69.97533
301.8921, 70.86683
302.3742, 72.27296
302.8563, 73.74059
303.3384, 75.00292
303.8205, 76.09293
304.3026, 77.22885
304.7848, 78.63414
305.2669, 80.36502
305.7490, 81.89069
306.2311, 82.89272
306.7132, 84.02264
307.1953, 85.59209
307.6775, 87.47239
308.1596, 89.33727
308.6417, 90.95335
309.1238, 92.35176
309.6059, 93.86355
310.0880, 95.60519
310.5702, 97.34034
311.0523, 98.91985
311.5344, 100.4864
312.0165, 102.2963
312.4986, 104.4930
312.9807, 106.9147
313.4629, 109.1177
313.9450, 111.3383
314.4271, 112.9327
314.9092, 113.9842
315.3913, 114.3537
315.8734, 113.8539
316.3556, 112.4307
316.8377, 110.2580
317.3198, 107.6407
317.8019, 104.5813
318.2840, 100.9980
318.7661, 96.52717
319.2483, 91.86005
319.7304, 87.29115
320.2125, 82.96334
320.6946, 79.08147
321.1767, 75.93258
321.6588, 73.67258
322.1409, 71.50105
322.6230, 69.20689
323.1052, 67.16179
323.5873, 65.57336
324.0694, 64.39566
324.5515, 63.47256
325.0336, 62.66900
325.5157, 61.98789
325.9979, 61.51439
326.4800, 61.46314
326.9621, 61.39561
327.4442, 61.16685
327.9263, 60.85498
328.4084, 60.58095
328.8906, 60.40675
329.3727, 60.35060
329.8548, 60.49785
330.3369, 61.08497
330.8190, 61.58371
331.3011, 62.14230
331.7833, 62.50215
332.2654, 62.34991
332.7475, 61.58169
333.2296, 60.43037
333.7117, 59.33098
334.1938, 58.38464
334.6760, 57.28900
335.1581, 55.85449
335.6402, 54.42893
336.1223, 53.19803
336.6044, 52.20932
337.0865, 51.46058
337.5687, 50.98267
338.0508, 50.86627
338.5329, 50.60154
339.0150, 49.90588
339.4971, 49.33414
339.9792, 49.12943
340.4614, 49.24438
340.9435, 49.50487
341.4256, 49.78773
341.9077, 50.09536
342.3898, 50.45153
342.8719, 50.76274
343.3541, 51.25386
343.8362, 51.98541
344.3183, 52.91657
344.8004, 53.97615
345.2825, 55.12517
345.7646, 56.41486
346.2468, 58.01130
346.7289, 60.13535
347.2110, 62.15921
347.6931, 63.87849
348.1752, 65.55301
348.6573, 67.50055
349.1395, 69.76456
349.6216, 71.95294
350.1037, 73.47427
350.5858, 74.09540
351.0679, 74.93486
351.5500, 76.34826
352.0322, 77.72926
352.5143, 78.73145
352.9964, 79.41515
353.4785, 80.10432
353.9606, 81.02681
354.4427, 82.18245
354.9249, 83.60327
355.4070, 85.44473
355.8891, 87.37250
356.3712, 89.33781
356.8533, 91.29582
357.3354, 93.17614
357.8176, 94.92215
358.2997, 96.61169
358.7818, 98.42690
359.2639, 100.4352
359.7460, 102.4368
360.2281, 104.1876
360.7103, 106.0091
361.1924, 108.2024
361.6745, 110.8447
362.1566, 113.7845
362.6387, 116.8819
363.1208, 120.1634
363.6029, 123.4500
364.0851, 126.9924
364.5672, 130.2743
365.0493, 133.2236
365.5314, 135.7165
366.0135, 137.2665
366.4956, 137.7833
366.9778, 137.1345
367.4599, 134.5622
367.9420, 129.6098
368.4241, 123.4678
368.9062, 116.3341
369.3883, 108.6659
369.8705, 101.1388
370.3526, 93.81117
370.8347, 86.99171
371.3168, 81.14116
371.7989, 76.31777
372.2810, 71.98721
372.7632, 67.87379
373.2453, 64.21775
373.7274, 61.40958
374.2095, 59.61108
374.6916, 58.07671
375.1737, 56.22264
375.6559, 54.14505
376.1380, 52.31450
376.6201, 50.87582
377.1022, 49.64610
377.5843, 48.39838
378.0664, 47.14673
378.5486, 46.03862
379.0307, 45.22491
379.5128, 44.55378
379.9949, 43.76229
380.4770, 42.80584
380.9591, 41.94047
381.4413, 41.35738
381.9234, 41.02635
382.4055, 40.79484
382.8876, 40.76728
383.3697, 40.72479
383.8518, 40.45659
384.3340, 40.02947
384.8161, 39.73668
385.2982, 39.76315
385.7803, 39.91112
386.2624, 39.69107
386.7445, 38.95663
387.2267, 38.37461
387.7088, 38.20877
388.1909, 38.26026
388.6730, 38.29521
389.1551, 38.26295
389.6372, 38.15300
390.1194, 37.91789
390.6015, 37.51867
391.0836, 37.32708
391.5657, 37.57077
392.0478, 37.82122
392.5299, 37.76690
393.0121, 37.47456
393.4942, 37.22638
393.9763, 37.20431
394.4584, 37.36267
394.9405, 37.45921
395.4226, 37.41830
395.9048, 37.41320
396.3869, 37.56836
396.8690, 37.73382
397.3511, 37.66877
397.8332, 37.31237
398.3153, 36.90355
398.7975, 36.82872
399.2796, 37.28573
399.7617, 37.57332
400.2438, 37.56662
400.7259, 37.52594
401.2080, 37.59463
401.6902, 37.76649
402.1723, 37.98218
402.6544, 38.22478
403.1365, 38.46955
403.6186, 38.40163
404.1007, 37.74406
404.5828, 37.08175
405.0649, 36.50755
405.5471, 35.99165
406.0292, 35.48523
406.5113, 34.96850
406.9934, 34.47641
407.4755, 34.06344
407.9576, 33.74285
408.4398, 33.46569
408.9219, 33.19240
409.4040, 32.98772
409.8861, 32.93861
410.3682, 33.01377
410.8503, 33.06881
411.3325, 32.97525
411.8146, 32.75307
412.2967, 32.54660
412.7788, 32.31547
413.2609, 32.17439
413.7430, 32.21857
414.2252, 32.35698
414.7073, 32.47523
415.1894, 32.54753
415.6715, 32.55342
416.1536, 32.41606
416.6357, 32.12320
417.1179, 31.94619
417.6000, 32.06669
418.0821, 32.23883
418.5642, 32.16272
419.0463, 31.83678
419.5284, 31.62871
420.0106, 31.84000
420.4927, 32.29189
420.9748, 32.58779
421.4569, 32.67205
421.9390, 32.68832
422.4211, 32.68641
422.9033, 32.70129
423.3854, 32.84746
423.8675, 33.30820
424.3496, 33.74012
424.8317, 33.82634
425.3138, 33.66591
425.7960, 33.62404
426.2781, 33.86579
426.7602, 34.26582
427.2423, 34.57120
427.7244, 34.72526
428.2065, 34.98889
428.6887, 35.45842
429.1708, 36.02815
429.6529, 36.64422
430.1350, 37.27657
430.6171, 37.82190
431.0992, 38.18318
431.5814, 38.35614
432.0635, 38.51459
432.5456, 38.54782
433.0277, 38.69082
433.5098, 39.02740
433.9919, 39.52223
434.4741, 40.17167
434.9562, 40.97633
435.4383, 41.78745
435.9204, 42.28896
436.4025, 42.21880
436.8846, 42.33733
437.3668, 42.77499
437.8489, 43.26371
438.3310, 43.60681
438.8131, 43.83295
439.2952, 44.12452
439.7773, 44.66174
440.2595, 45.40555
440.7416, 45.94498
441.2237, 46.05880
441.7058, 46.29150
442.1879, 46.84258
442.6700, 47.54422
443.1522, 48.21466
443.6343, 48.79530
444.1164, 49.34233
444.5985, 49.94920
445.0806, 50.62090
445.5627, 51.25800
446.0448, 51.99708
446.5269, 52.50800
447.0091, 52.45335
447.4912, 51.97351
447.9733, 51.61494
448.4554, 51.86665
448.9375, 52.32404
449.4196, 52.23458
449.9018, 51.55681
450.3839, 50.66575
450.8660, 49.63470
451.3481, 48.55003
451.8302, 47.58744
452.3123, 46.81078
452.7945, 45.96963
453.2766, 44.78139
453.7587, 43.46190
454.2408, 42.45608
454.7229, 41.87203
455.2050, 41.49492
455.6872, 41.16236
456.1693, 40.87521
456.6514, 40.44426
457.1335, 39.53054
457.6156, 38.78484
458.0977, 38.71776
458.5799, 39.12563
459.0620, 39.43616
459.5441, 39.35570
460.0262, 39.10434
460.5083, 39.22165
460.9904, 40.07347
461.4726, 40.74462
461.9547, 41.22955
462.4368, 41.54331
462.9189, 41.59212
463.4010, 41.44289
463.8831, 41.34124
464.3653, 41.50395
464.8474, 41.91614
465.3295, 42.33755
465.8116, 42.78271
466.2937, 43.21893
466.7758, 43.54018
467.2580, 43.89284
467.7401, 44.51739
468.2222, 45.47531
468.7043, 46.43238
469.1864, 46.89862
469.6685, 46.83172
470.1507, 46.83749
470.6328, 47.09144
471.1149, 47.27577
471.5970, 47.07315
472.0791, 46.65931
472.5612, 46.49942
473.0434, 46.88736
473.5255, 47.55304
474.0076, 48.10164
474.4897, 48.52883
474.9718, 48.99693
475.4539, 49.57435
475.9361, 50.22013
476.4182, 50.88674
476.9003, 51.58916
477.3824, 52.21530
477.8645, 52.85436
478.3466, 53.33856
478.8288, 53.41054
479.3109, 53.04704
479.7930, 52.42519
480.2751, 51.66843
480.7572, 50.76638
481.2393, 49.61448
481.7215, 48.01311
482.2036, 46.44948
482.6857, 44.92943
483.1678, 43.57173
483.6499, 42.55715
484.1320, 41.93042
484.6142, 41.51522
485.0963, 41.06559
485.5784, 40.50596
486.0605, 40.28187
486.5426, 40.67702
487.0247, 41.08020
487.5068, 41.20728
487.9890, 41.19438
488.4711, 41.28165
488.9532, 41.58105
489.4353, 42.08829
489.9174, 42.74211
490.3995, 43.43431
490.8817, 44.63726
491.3638, 46.99031
491.8459, 49.44151
492.3280, 51.16510
492.8101, 52.36182
493.2922, 54.08875
493.7744, 57.33152
494.2565, 61.43064
494.7386, 64.85411
495.2207, 67.46000
495.7028, 70.24465
496.1849, 73.74150
496.6671, 77.65654
497.1492, 81.57633
497.6313, 85.52675
498.1134, 89.29066
498.5955, 92.91711
499.0776, 96.24133
499.5598, 98.85625
500.0419, 100.7056
500.5240, 102.4175
501.0061, 104.4522
501.4882, 106.8035
501.9703, 109.3302
502.4525, 111.9296
502.9346, 114.7763
503.4167, 117.8415
503.8988, 121.2025
504.3809, 125.0562
504.8630, 129.4380
505.3452, 133.9872
505.8273, 138.1766
506.3094, 141.8061
506.7915, 146.0872
507.2736, 151.3954
507.7557, 156.9669
508.2379, 162.3844
508.7200, 167.9481
509.2021, 174.2306
509.6842, 181.5513
510.1663, 189.3719
510.6484, 196.9106
511.1306, 204.1523
511.6127, 211.0811
512.0948, 218.4956
512.5769, 224.6535
513.0590, 229.0652
513.5411, 231.4518
514.0233, 230.8931
514.5054, 226.7724
514.9875, 219.6348
515.4696, 209.7850
515.9517, 197.3280
516.4338, 183.5681
516.9160, 168.5257
517.3981, 153.1906
517.8802, 138.8579
518.3623, 125.4109
518.8444, 113.3932
519.3265, 103.1165
519.8087, 94.19912
520.2908, 86.27480
520.7729, 79.34293
521.2550, 73.59566
521.7371, 69.24243
522.2192, 66.02104
522.7014, 62.89061
523.1835, 59.67465
523.6656, 56.81195
524.1477, 54.26585
524.6298, 52.11185
525.1119, 50.49994
525.5941, 49.36012
526.0762, 48.41335
526.5583, 47.41322
527.0404, 46.38964
527.5225, 45.55887
528.0046, 45.04780
528.4868, 44.47561
528.9689, 43.64910
529.4510, 42.75933
529.9331, 42.00080
530.4152, 41.40697
530.8973, 40.82050
531.3795, 40.10753
531.8616, 39.31084
532.3437, 38.55537
532.8258, 37.85335
533.3079, 37.17820
533.7900, 36.49501
534.2722, 35.82870
534.7543, 35.24523
535.2364, 34.76099
535.7185, 34.32927
536.2006, 33.94466
536.6827, 33.59501
537.1649, 33.24909
537.6470, 32.90393
538.1291, 32.62364
538.6112, 32.47859
539.0933, 32.47085
539.5754, 32.42846
540.0576, 32.38359
540.5397, 32.26802
541.0218, 31.91251
541.5039, 31.55225
541.9860, 31.53622
542.4681, 31.91961
542.9503, 32.33319
543.4324, 32.30831
543.9145, 31.82578
544.3966, 31.42869
544.8787, 31.08223
545.3608, 30.88461
545.8430, 30.96682
546.3251, 31.17121
546.8072, 31.27255
547.2892, 31.19135
547.7714, 31.09460
548.2535, 31.11585
548.7356, 31.23840
549.2177, 31.42799
549.6998, 31.69686
550.1819, 31.94551
550.6641, 32.07973
551.1462, 32.11034
551.6283, 32.17003
552.1104, 32.19715
552.5925, 32.32357
553.0746, 32.63537
553.5568, 33.06802
554.0389, 33.57950
554.5210, 34.14385
555.0031, 34.61159
555.4852, 34.77101
555.9673, 34.57143
556.4495, 34.66259
556.9316, 35.22552
557.4137, 35.89307
557.8958, 36.67030
558.3779, 37.46913
558.8600, 38.15224
559.3422, 38.68769
559.8243, 39.25805
560.3064, 40.17756
560.7885, 41.40748
561.2706, 42.24773
561.7527, 42.50584
562.2349, 42.69981
562.7170, 43.09040
563.1991, 43.63749
563.6812, 44.32009
564.1633, 45.20718
564.6454, 46.05869
565.1276, 46.70014
565.6097, 47.20433
566.0918, 47.66776
566.5739, 48.10904
567.0560, 48.66024
567.5381, 49.47250
568.0203, 50.52821
568.5024, 51.44445
568.9845, 51.90503
569.4666, 52.63956
569.9487, 53.95204
570.4308, 55.54159
570.9130, 57.13316
571.3951, 58.64861
571.8772, 60.06960
572.3593, 61.39309
572.8414, 62.61632
573.3235, 63.68845
573.8057, 64.54401
574.2878, 65.35647
574.7699, 66.29634
575.2520, 67.16281
575.7341, 67.83337
576.2162, 68.28893
576.6984, 68.25182
577.1805, 67.31286
577.6626, 65.80262
578.1447, 64.47292
578.6268, 63.40020
579.1089, 62.03407
579.5911, 59.95393
580.0732, 57.41537
580.5553, 55.10336
581.0374, 52.95673
581.5195, 51.11988
582.0016, 49.92834
582.4838, 48.84778
582.9659, 47.29998
583.4480, 45.36070
583.9301, 43.61916
584.4122, 42.49676
584.8943, 41.81614
585.3765, 40.86626
585.8586, 39.34931
586.3407, 38.19928
586.8228, 37.79255
587.3049, 37.54580
587.7870, 37.09768
588.2692, 36.47343
588.7513, 35.90611
589.2334, 35.57603
589.7155, 35.33256
590.1976, 34.88083
590.6797, 34.22595
591.1619, 33.70176
591.6440, 33.45882
592.1261, 33.32130
592.6082, 33.07310
593.0903, 32.71746
593.5724, 32.32664
594.0546, 31.75132
594.5367, 31.29398
595.0188, 31.21256
595.5009, 31.38246
595.9830, 31.56278
596.4651, 31.65810
596.9473, 31.64030
597.4294, 31.44311
597.9115, 31.00990
598.3936, 30.67611
598.8757, 30.49911
599.3578, 30.37046
599.8400, 30.30382
600.3221, 30.25090
600.8042, 30.11978
601.2863, 29.87413
601.7684, 29.67175
602.2505, 29.75498
602.7327, 30.03827
603.2148, 30.10623
603.6969, 29.87422
604.1790, 29.60876
604.6611, 29.49430
605.1432, 29.47830
605.6254, 29.37277
606.1075, 29.09710
606.5896, 28.88198
607.0717, 28.88900
607.5538, 28.93956
608.0359, 28.78221
608.5181, 28.43902
609.0002, 28.17849
609.4823, 28.21098
609.9644, 28.46289
610.4465, 28.61692
610.9286, 28.64079
611.4108, 28.62600
611.8929, 28.53225
612.3750, 28.44843
612.8571, 28.44438
613.3392, 28.50478
613.8214, 28.56243
614.3035, 28.59652
614.7856, 28.58998
