##NAMES=Eudidymite
##RRUFFID=R060063
##IDEAL CHEMISTRY=Na_2_Be_2_Si_6_O_15_&#183;H_2_O
##LOCALITY=Langesundfjord, Norway
##OWNER=RRUFF
##SOURCE=University of Arizona Mineral Museum
##DESCRIPTION=Colorless crystal fragment
##STATUS=The identification of this mineral has been confirmed by X-ray diffraction and chemical analysis
##URL=rruff.info/R060063
##MEASURED CHEMISTRY=Na_1.00_Be_1.00_Si_3.00_O_7_(OH)
114.0754, 79.94793
114.5575, 82.62166
115.0396, 85.24586
115.5217, 87.83802
116.0038, 90.40223
116.4859, 92.98317
116.9681, 95.55098
117.4502, 97.99914
117.9323, 100.0347
118.4144, 102.0699
118.8965, 104.4093
119.3786, 107.4097
119.8608, 110.4777
120.3429, 113.1537
120.8250, 115.5216
121.3071, 118.1986
121.7892, 121.1651
122.2713, 124.7520
122.7535, 129.3558
123.2356, 135.8808
123.7177, 143.0174
124.1998, 149.4346
124.6819, 155.1660
125.1640, 161.3506
125.6462, 168.5624
126.1283, 176.9562
126.6104, 186.8571
127.0925, 199.4481
127.5746, 213.3929
128.0567, 227.1628
128.5389, 241.0829
129.0210, 253.0613
129.5031, 261.2639
129.9852, 265.6398
130.4673, 265.6773
130.9494, 260.0734
131.4316, 249.6950
131.9137, 236.0005
132.3958, 218.3993
132.8779, 200.5725
133.3600, 185.7677
133.8421, 174.0203
134.3243, 164.1086
134.8064, 155.2263
135.2885, 147.4613
135.7706, 141.5143
136.2527, 137.7215
136.7348, 135.4682
137.2169, 133.3505
137.6991, 131.3867
138.1812, 129.3457
138.6633, 127.0232
139.1454, 124.3714
139.6275, 121.7714
140.1096, 119.5019
140.5918, 117.3651
141.0739, 114.0615
141.5560, 109.2041
142.0381, 103.9999
142.5202, 99.37163
143.0023, 95.38161
143.4845, 91.85374
143.9666, 88.71915
144.4487, 85.93878
144.9308, 84.06138
145.4129, 83.56499
145.8951, 83.48241
146.3772, 82.69368
146.8593, 80.41367
147.3414, 78.71696
147.8235, 78.25446
148.3056, 79.38248
148.7878, 79.91579
149.2699, 79.60447
149.7520, 78.81268
150.2341, 78.02315
150.7162, 77.00689
151.1983, 76.20867
151.6805, 75.72351
152.1626, 75.56609
152.6447, 75.68085
153.1268, 76.30138
153.6089, 77.15593
154.0910, 77.79563
154.5732, 78.06795
155.0553, 78.23832
155.5374, 78.40714
156.0195, 78.67723
156.5016, 78.75362
156.9837, 78.43799
157.4659, 77.90298
157.9480, 77.51041
158.4301, 77.49582
158.9122, 77.52629
159.3943, 77.41898
159.8764, 76.92532
160.3586, 76.65850
160.8407, 76.90626
161.3228, 77.52229
161.8049, 78.10046
162.2870, 78.37465
162.7691, 78.64363
163.2512, 79.10971
163.7334, 79.94667
164.2155, 80.81224
164.6976, 81.60820
165.1797, 82.32802
165.6618, 82.94872
166.1439, 83.28034
166.6261, 83.58459
167.1082, 84.08749
167.5903, 84.94334
168.0724, 85.91670
168.5545, 86.93074
169.0366, 87.97025
169.5188, 88.93806
170.0009, 89.57242
170.4830, 90.16512
170.9651, 91.07646
171.4472, 92.62595
171.9293, 94.37004
172.4115, 96.03440
172.8936, 97.61411
173.3757, 99.03912
173.8578, 100.3245
174.3399, 101.3980
174.8220, 102.1613
175.3042, 102.6138
175.7863, 102.7158
176.2684, 102.2707
176.7505, 101.2868
177.2326, 100.2919
177.7147, 99.78564
178.1969, 99.60647
178.6790, 99.41854
179.1611, 98.90475
179.6432, 98.36481
180.1253, 98.29307
180.6074, 98.70549
181.0896, 99.30864
181.5717, 99.86364
182.0538, 100.3802
182.5359, 100.9113
183.0180, 101.5467
183.5001, 102.1948
183.9823, 102.4982
184.4644, 102.3778
184.9465, 102.4470
185.4286, 103.6155
185.9107, 105.7038
186.3928, 107.7208
186.8750, 109.1167
187.3571, 110.0871
187.8392, 111.3209
188.3213, 112.8733
188.8034, 114.4406
189.2855, 115.6592
189.7677, 116.5310
190.2498, 117.1047
190.7319, 117.2857
191.2140, 117.1436
191.6961, 117.0710
192.1782, 117.1101
192.6603, 117.1161
193.1425, 116.9850
193.6246, 116.7196
194.1067, 116.0230
194.5888, 114.5026
195.0709, 112.2725
195.5530, 110.4809
196.0352, 109.2239
196.5173, 108.2222
196.9994, 107.0219
197.4815, 105.6128
197.9636, 104.1342
198.4457, 102.5457
198.9279, 100.8448
199.4100, 99.46431
199.8921, 98.46682
200.3742, 97.68877
200.8563, 96.71217
201.3384, 95.42508
201.8206, 94.55146
202.3027, 94.66206
202.7848, 95.86833
203.2669, 96.56145
203.7490, 96.53908
204.2311, 96.18529
204.7133, 96.30653
205.1954, 96.98893
205.6775, 97.79471
206.1596, 98.60160
206.6417, 99.46538
207.1238, 99.90080
207.6060, 99.73907
208.0881, 99.29677
208.5702, 99.38732
209.0523, 100.2635
209.5344, 100.8980
210.0165, 100.5977
210.4987, 99.02461
210.9808, 98.13660
211.4629, 98.14174
211.9450, 98.73180
212.4271, 99.15134
212.9092, 99.21423
213.3914, 99.56565
213.8735, 100.6274
214.3556, 102.6389
214.8377, 104.4045
215.3198, 105.8348
215.8019, 107.0328
216.2841, 108.2393
216.7662, 109.5698
217.2483, 110.6833
217.7304, 111.2786
218.2125, 110.9709
218.6946, 111.3963
219.1767, 112.8361
219.6589, 114.9057
220.1410, 116.7651
220.6231, 118.4213
221.1052, 119.8612
221.5873, 121.0206
222.0694, 121.6597
222.5516, 122.6592
223.0337, 124.0830
223.5158, 125.8406
223.9979, 127.8300
224.4800, 130.1426
224.9621, 132.4961
225.4443, 134.7146
225.9264, 136.6896
226.4085, 138.8255
226.8906, 141.0231
227.3727, 143.4180
227.8548, 146.5813
228.3370, 151.0829
228.8191, 155.3623
229.3012, 158.6277
229.7833, 159.9901
230.2654, 162.6858
230.7475, 167.3239
231.2297, 173.0535
231.7118, 177.9941
232.1939, 182.0429
232.6760, 185.4665
233.1581, 188.5851
233.6402, 192.0274
234.1224, 193.3573
234.6045, 192.3287
235.0866, 189.2691
235.5687, 184.8438
236.0508, 178.6488
236.5329, 171.7087
237.0151, 164.3156
237.4972, 156.1574
237.9793, 148.4997
238.4614, 141.3293
238.9435, 134.6056
239.4256, 128.0718
239.9078, 121.2937
240.3899, 115.5282
240.8720, 111.4314
241.3541, 109.6254
241.8362, 107.3074
242.3183, 104.0405
242.8005, 100.4788
243.2826, 97.73930
243.7647, 96.10408
244.2468, 94.87564
244.7289, 93.90971
245.2110, 93.30002
245.6931, 92.55957
246.1753, 91.60977
246.6574, 90.57870
247.1395, 89.65205
247.6216, 88.82854
248.1037, 88.12242
248.5858, 87.50932
249.0680, 86.95826
249.5501, 86.72157
250.0322, 86.98256
250.5143, 87.41214
250.9964, 87.53310
251.4785, 87.09966
251.9607, 86.81007
252.4428, 86.89498
252.9249, 87.41353
253.4070, 87.77017
253.8891, 87.82707
254.3712, 87.85173
254.8534, 88.23766
255.3355, 89.33854
255.8176, 90.05677
256.2997, 90.00159
256.7818, 89.11691
257.2639, 88.64662
257.7461, 88.74863
258.2282, 89.08803
258.7103, 89.30989
259.1924, 89.34897
259.6745, 89.42213
260.1566, 89.55714
260.6388, 89.75600
261.1209, 90.05959
261.6030, 90.50750
262.0851, 91.00884
262.5672, 91.54182
263.0493, 92.27802
263.5315, 92.55663
264.0136, 92.03863
264.4957, 90.87152
264.9778, 90.45901
265.4599, 91.07986
265.9420, 91.98077
266.4242, 92.55044
266.9063, 92.68768
267.3884, 92.83984
267.8705, 93.04296
268.3526, 93.30659
268.8347, 93.69923
269.3169, 94.24263
269.7990, 94.85863
270.2811, 95.57817
270.7632, 96.50198
271.2453, 97.02907
271.7274, 96.96021
272.2096, 96.50602
272.6917, 96.47803
273.1738, 97.10085
273.6559, 97.49311
274.1380, 96.94125
274.6201, 95.20837
275.1023, 94.07929
275.5844, 93.91336
276.0665, 94.21742
276.5486, 93.74129
277.0307, 92.32357
277.5128, 90.80209
277.9950, 89.57474
278.4771, 88.65048
278.9592, 87.93795
279.4413, 87.48460
279.9234, 87.15648
280.4055, 86.65526
280.8877, 85.93678
281.3698, 85.35606
281.8519, 85.18974
282.3340, 85.43330
282.8161, 85.27299
283.2982, 84.53363
283.7804, 83.78902
284.2625, 84.11153
284.7446, 85.54396
285.2267, 86.71678
285.7088, 86.91771
286.1909, 86.31536
286.6730, 86.10823
287.1552, 86.32870
287.6373, 86.81195
288.1194, 87.41360
288.6015, 88.12975
289.0836, 88.86255
289.5657, 89.60336
290.0479, 90.33435
290.5300, 91.04115
291.0121, 91.73475
291.4942, 92.25487
291.9763, 92.18287
292.4584, 91.67256
292.9406, 91.67220
293.4227, 92.56316
293.9048, 94.02026
294.3869, 95.32866
294.8690, 96.49368
295.3511, 97.74238
295.8333, 99.19731
296.3154, 100.8781
296.7975, 102.9480
297.2796, 105.5268
297.7617, 108.3411
298.2438, 110.9860
298.7260, 113.4528
299.2081, 115.8563
299.6902, 118.0842
300.1723, 120.3012
300.6544, 123.0907
301.1365, 126.7061
301.6187, 130.3852
302.1008, 133.0123
302.5829, 134.8242
303.0650, 136.8115
303.5471, 139.4552
304.0292, 142.6335
304.5114, 146.2373
304.9935, 150.3404
305.4756, 154.5725
305.9577, 158.8000
306.4398, 162.9379
306.9219, 166.8204
307.4041, 170.0377
307.8862, 173.1590
308.3683, 176.8772
308.8504, 181.2013
309.3325, 185.8484
309.8146, 190.7919
310.2968, 195.8249
310.7789, 200.7124
311.2610, 204.3822
311.7431, 208.5326
312.2252, 214.8284
312.7073, 223.1272
313.1895, 231.3949
313.6716, 238.3158
314.1537, 244.6843
314.6358, 251.2688
315.1179, 259.3169
315.6000, 266.5589
316.0822, 272.5455
316.5643, 276.9789
317.0464, 278.6189
317.5285, 276.7744
318.0106, 272.0268
318.4927, 264.6039
318.9749, 253.3829
319.4570, 241.3877
319.9391, 229.4138
320.4212, 217.4950
320.9033, 205.4273
321.3854, 191.8170
321.8676, 179.0924
322.3497, 168.4057
322.8318, 160.0825
323.3139, 153.2371
323.7960, 148.3544
324.2781, 144.7012
324.7603, 141.1329
325.2424, 137.1244
325.7245, 133.4971
326.2066, 130.5009
326.6887, 128.1882
327.1708, 126.2650
327.6530, 124.8188
328.1351, 123.7048
328.6172, 122.7699
329.0993, 121.6807
329.5814, 121.1396
330.0635, 121.4367
330.5457, 122.5406
331.0278, 123.4454
331.5099, 124.0005
331.9920, 124.4844
332.4741, 125.0984
332.9562, 126.2832
333.4384, 126.8906
333.9205, 126.9818
334.4026, 126.4482
334.8847, 124.7717
335.3668, 121.2733
335.8489, 117.6059
336.3311, 114.5423
336.8132, 112.2164
337.2953, 110.0567
337.7774, 108.1319
338.2595, 106.3337
338.7416, 104.4437
339.2238, 102.3139
339.7059, 100.4864
340.1880, 99.13698
340.6701, 98.26493
341.1522, 97.95380
341.6343, 98.30747
342.1164, 98.99131
342.5985, 99.66460
343.0807, 100.3344
343.5628, 100.9368
344.0449, 101.3609
344.5270, 101.7212
345.0091, 102.5686
345.4912, 103.9448
345.9734, 105.5631
346.4555, 107.0883
346.9376, 108.5715
347.4197, 110.6308
347.9018, 113.4699
348.3839, 116.7755
348.8661, 120.0988
349.3482, 123.4336
349.8303, 126.8826
350.3124, 130.7509
350.7945, 134.7991
351.2766, 138.3640
351.7588, 141.3533
352.2409, 144.1570
352.7230, 147.1788
353.2051, 150.4075
353.6872, 153.8789
354.1693, 157.8212
354.6515, 161.8912
355.1336, 165.5704
355.6157, 168.8867
356.0978, 172.1666
356.5799, 175.4943
357.0620, 179.0375
357.5442, 183.0518
358.0263, 187.7981
358.5084, 192.8636
358.9905, 197.9853
359.4726, 203.1810
359.9547, 208.6722
360.4369, 214.1221
360.9190, 220.1060
361.4011, 227.0817
361.8832, 235.1891
362.3653, 244.2103
362.8474, 253.9954
363.3296, 264.6244
363.8117, 276.3159
364.2938, 290.2950
364.7759, 304.2752
365.2580, 317.5288
365.7401, 330.2960
366.2223, 340.9293
366.7044, 350.1362
367.1865, 356.6018
367.6686, 359.0019
368.1507, 357.5150
368.6328, 351.5251
369.1150, 340.1479
369.5971, 323.3421
370.0792, 304.5978
370.5613, 282.3181
371.0434, 259.5851
371.5255, 238.1911
372.0077, 217.0314
372.4898, 198.8761
372.9719, 184.0191
373.4540, 172.0404
373.9361, 161.7093
374.4182, 153.5658
374.9004, 146.3541
375.3825, 139.5451
375.8646, 133.0946
376.3467, 127.4473
376.8288, 122.6534
377.3109, 118.5336
377.7931, 114.7608
378.2752, 111.3016
378.7573, 108.3161
379.2394, 105.9620
379.7215, 104.1491
380.2036, 101.9502
380.6858, 99.29549
381.1679, 96.76968
381.6500, 94.98311
382.1321, 93.88121
382.6142, 92.99046
383.0963, 92.25395
383.5785, 91.62870
384.0606, 91.05502
384.5427, 90.53467
385.0248, 89.95934
385.5069, 89.15282
385.9890, 88.25624
386.4712, 87.61292
386.9533, 87.25737
387.4354, 87.11411
387.9175, 87.33290
388.3996, 87.71452
388.8817, 87.80754
389.3639, 87.20365
389.8460, 86.34561
390.3281, 85.56579
390.8102, 84.88268
391.2923, 84.43816
391.7744, 84.50323
392.2566, 84.77638
392.7387, 84.92537
393.2208, 84.77434
393.7029, 84.62080
394.1850, 84.63538
394.6671, 84.76672
395.1493, 84.87794
395.6314, 84.97492
396.1135, 84.99445
396.5956, 84.87392
397.0777, 84.55409
397.5598, 84.30014
398.0419, 84.08378
398.5240, 83.99541
399.0062, 84.13895
399.4883, 84.60775
399.9704, 85.22683
400.4525, 86.08739
400.9346, 87.17860
401.4167, 87.93947
401.8989, 88.08044
402.3810, 88.14943
402.8631, 88.48241
403.3452, 89.27912
403.8273, 90.00002
404.3094, 90.89030
404.7916, 91.57204
405.2737, 90.99212
405.7558, 88.61159
406.2379, 86.30528
406.7200, 84.85445
407.2021, 84.30646
407.6843, 83.40444
408.1664, 82.06548
408.6485, 80.60518
409.1306, 79.29536
409.6127, 78.12797
410.0948, 77.43114
410.5770, 77.47908
411.0591, 77.89589
411.5412, 77.57585
412.0233, 76.52991
412.5054, 75.57512
412.9875, 75.41801
413.4697, 75.78258
413.9518, 75.92186
414.4339, 75.69512
414.9160, 75.45479
415.3981, 75.78258
415.8802, 76.42092
416.3624, 76.73450
416.8445, 76.01125
417.3266, 75.08378
417.8087, 74.79967
418.2908, 75.14527
418.7729, 75.58830
419.2551, 75.95293
419.7372, 76.17794
420.2193, 76.16354
420.7014, 75.62600
421.1835, 75.24398
421.6656, 75.39010
422.1478, 75.91326
422.6299, 76.45615
423.1120, 77.17006
423.5941, 77.66271
424.0762, 77.63603
424.5583, 76.88515
425.0405, 76.44293
425.5226, 76.59711
426.0047, 77.03227
426.4868, 77.43823
426.9689, 77.64217
427.4510, 78.05170
427.9332, 78.81635
428.4153, 79.84913
428.8974, 80.65565
429.3795, 81.10522
429.8616, 81.52519
430.3438, 82.10242
430.8259, 82.90728
431.3080, 83.57981
431.7901, 84.03835
432.2722, 84.47697
432.7543, 85.24512
433.2365, 86.37120
433.7186, 87.51301
434.2007, 88.54607
434.6828, 89.51315
435.1649, 90.57667
435.6470, 91.73836
436.1292, 92.96008
436.6113, 94.32182
437.0934, 95.72861
437.5755, 96.84641
438.0576, 97.55283
438.5397, 98.13283
439.0219, 98.86115
439.5040, 99.74122
439.9861, 100.7658
440.4682, 101.9667
440.9503, 103.2986
441.4324, 104.7644
441.9146, 106.3620
442.3967, 107.9362
442.8788, 109.2299
443.3609, 110.5384
443.8430, 112.1297
444.3251, 114.1775
444.8073, 116.4144
445.2894, 119.0875
445.7715, 121.9046
446.2536, 124.1076
446.7357, 124.8240
447.2178, 125.4972
447.7000, 126.7694
448.1821, 128.9075
448.6642, 130.7519
449.1463, 132.7073
449.6284, 134.0843
450.1105, 134.2365
450.5927, 132.7059
451.0747, 130.7484
451.5569, 128.4354
452.0390, 125.8199
452.5211, 122.9674
453.0032, 119.8258
453.4853, 116.6599
453.9674, 113.6617
454.4496, 110.8323
454.9317, 107.8474
455.4138, 104.6070
455.8959, 101.5522
456.3780, 99.31091
456.8601, 97.81248
457.3423, 96.52205
457.8244, 95.32206
458.3065, 94.21045
458.7886, 93.19913
459.2707, 92.27922
459.7528, 91.49769
460.2350, 90.80161
460.7171, 90.27282
461.1992, 90.01011
461.6813, 90.02769
462.1634, 90.31602
462.6455, 91.04010
463.1277, 91.99636
463.6098, 92.87756
464.0919, 93.44664
464.5740, 94.01969
465.0561, 94.76316
465.5382, 95.65582
466.0204, 96.56303
466.5025, 97.49364
466.9846, 98.40470
467.4667, 99.28264
467.9488, 100.2157
468.4309, 100.9379
468.9131, 101.3315
469.3952, 101.5414
469.8773, 101.7191
470.3594, 101.6052
470.8415, 101.8903
471.3236, 102.8218
471.8058, 104.3128
472.2879, 105.7149
472.7700, 107.0734
473.2521, 108.2311
473.7342, 108.9194
474.2163, 109.0833
474.6985, 109.7203
475.1806, 110.9020
475.6627, 112.5324
476.1448, 114.5866
476.6269, 117.0336
477.1090, 119.6330
477.5912, 122.4764
478.0733, 125.2993
478.5554, 127.7786
479.0375, 129.8839
479.5196, 131.2511
480.0017, 131.4328
480.4839, 130.8280
480.9660, 130.0352
481.4481, 129.2768
481.9302, 127.7881
482.4123, 124.6011
482.8944, 120.4530
483.3766, 116.4352
483.8587, 112.4574
484.3408, 109.0919
484.8229, 106.7563
485.3050, 105.3450
485.7871, 104.0274
486.2693, 102.4814
486.7514, 101.0911
487.2335, 100.0418
487.7156, 99.21555
488.1977, 98.97334
488.6798, 99.56893
489.1620, 100.5774
489.6441, 101.4224
490.1262, 101.9876
490.6083, 102.6961
491.0904, 103.6101
491.5725, 104.7309
492.0547, 106.0717
492.5368, 107.6025
493.0189, 109.4551
493.5010, 111.6413
493.9831, 114.1800
494.4652, 117.3312
494.9474, 121.0914
495.4295, 125.4951
495.9116, 130.7819
496.3937, 136.7867
496.8758, 142.8539
497.3579, 148.6478
497.8401, 154.6280
498.3222, 161.3451
498.8043, 168.7331
499.2864, 176.6378
499.7685, 185.4133
500.2506, 194.3781
500.7328, 202.9996
501.2149, 211.1904
501.6970, 219.0232
502.1791, 225.8795
502.6612, 232.6169
503.1433, 240.0464
503.6255, 248.5353
504.1076, 257.4052
504.5897, 266.3369
505.0718, 275.6193
505.5539, 286.2064
506.0360, 298.4066
506.5181, 311.6949
507.0002, 325.6938
507.4824, 340.3506
507.9645, 356.4517
508.4466, 373.7527
508.9287, 392.8878
509.4108, 414.8537
509.8929, 439.6312
510.3751, 464.9313
510.8572, 490.9273
511.3393, 516.9416
511.8214, 542.9847
512.3035, 568.8168
512.7856, 593.1913
513.2678, 617.6678
513.7499, 639.2841
514.2320, 655.3427
514.7141, 665.4138
515.1962, 666.6191
515.6783, 656.6361
516.1605, 637.0646
516.6426, 608.6283
517.1247, 569.5005
517.6068, 526.8122
518.0889, 479.7965
518.5710, 431.7429
519.0532, 388.0214
519.5353, 349.7647
520.0174, 315.3701
520.4995, 284.3449
520.9816, 256.9089
521.4637, 233.7858
521.9459, 215.9423
522.4280, 201.0787
522.9101, 188.5281
523.3922, 178.4863
523.8743, 169.3141
524.3564, 160.9598
524.8386, 153.4438
525.3207, 146.6740
525.8028, 140.7057
526.2849, 136.0323
526.7670, 133.1597
527.2491, 131.1741
527.7313, 128.3145
528.2134, 124.7415
528.6955, 121.4442
529.1776, 119.2353
529.6597, 117.5458
530.1418, 115.6215
530.6240, 113.4663
531.1061, 111.3969
531.5882, 109.6172
532.0703, 108.0572
532.5524, 106.6841
533.0345, 105.6757
533.5167, 104.5391
533.9988, 102.9986
534.4809, 101.2543
534.9630, 99.65410
535.4451, 98.09678
535.9272, 96.84746
536.4094, 96.09372
536.8915, 95.78360
537.3736, 95.17189
537.8557, 94.15332
538.3378, 92.99812
538.8199, 91.72165
539.3021, 90.22346
539.7842, 89.50972
540.2663, 89.80942
540.7484, 90.26911
541.2305, 89.60663
541.7126, 87.99233
542.1948, 86.89192
542.6769, 86.86073
543.1590, 87.25712
543.6411, 87.06183
544.1232, 86.43806
544.6053, 85.99767
545.0875, 86.40228
545.5696, 86.92966
546.0517, 86.84007
546.5338, 86.11685
547.0159, 85.36858
547.4980, 84.67566
547.9802, 84.19320
548.4623, 84.07405
548.9444, 84.65086
549.4265, 85.04339
549.9086, 84.98503
550.3907, 84.71210
550.8729, 84.55036
551.3550, 84.43861
551.8371, 84.54827
552.3192, 84.98818
552.8013, 85.68153
553.2834, 86.23421
553.7656, 86.63969
554.2477, 86.92488
554.7298, 86.99775
555.2119, 86.90561
555.6940, 87.10930
556.1761, 87.61472
556.6583, 88.39194
557.1404, 89.60336
557.6225, 91.06032
558.1046, 92.26717
558.5867, 93.04186
559.0688, 93.73327
559.5510, 94.56586
560.0331, 95.55086
560.5152, 96.72542
560.9973, 98.16311
561.4794, 99.74696
561.9615, 101.5152
562.4437, 103.4219
562.9258, 105.1456
563.4079, 106.4227
563.8900, 107.6719
564.3721, 109.0118
564.8542, 110.3042
565.3364, 112.2366
565.8185, 115.0985
566.3006, 118.1930
566.7827, 120.7098
567.2648, 122.4780
567.7469, 124.6035
568.2291, 127.3086
568.7112, 130.3801
569.1933, 133.4735
569.6754, 136.5896
570.1575, 139.8525
570.6396, 143.3098
571.1218, 146.9479
571.6039, 150.6831
572.0860, 154.5100
572.5681, 158.6516
573.0502, 163.3631
573.5323, 168.3177
574.0145, 173.5085
574.4966, 179.0500
574.9787, 183.9502
575.4608, 187.8494
575.9429, 190.8676
576.4250, 193.0693
576.9072, 194.5822
577.3893, 195.0897
577.8714, 194.5776
578.3535, 193.0577
578.8356, 190.5360
579.3177, 186.9035
579.7999, 182.5396
580.2820, 177.3635
580.7641, 171.5107
581.2462, 165.6436
581.7283, 159.7399
582.2104, 154.0656
582.6926, 148.8909
583.1747, 144.0958
583.6568, 139.2578
584.1389, 134.2690
584.6210, 129.5984
585.1031, 125.5936
585.5853, 122.2347
586.0674, 119.6253
586.5495, 118.3917
587.0316, 116.9015
587.5137, 113.8290
587.9958, 109.9678
588.4779, 106.8321
588.9600, 105.2555
589.4421, 103.9792
589.9243, 102.6505
590.4064, 101.2918
590.8885, 100.1879
591.3706, 99.42460
591.8527, 98.78065
592.3348, 98.16685
592.8170, 97.58340
593.2991, 97.02122
593.7812, 96.49730
594.2633, 95.91792
594.7454, 95.08881
595.2275, 94.09474
595.7097, 93.38023
596.1918, 93.08041
596.6739, 92.90321
597.1560, 92.51051
597.6381, 91.98051
598.1202, 91.48913
598.6024, 91.04323
599.0845, 90.71192
599.5666, 90.65749
600.0487, 90.78211
600.5308, 90.71446
601.0129, 90.27363
601.4951, 89.68185
601.9772, 88.93478
602.4593, 87.97790
602.9414, 87.39407
603.4235, 87.34233
603.9056, 87.46275
604.3878, 87.57524
604.8699, 87.72231
605.3520, 87.52321
605.8341, 86.85354
606.3162, 86.11146
606.7983, 85.88490
607.2805, 86.08537
607.7626, 86.16765
608.2447, 85.90016
608.7268, 85.59065
609.2089, 85.68845
609.6910, 86.06569
610.1732, 86.37473
610.6553, 86.46799
