##NAMES=Eudialyte
##RRUFFID=R060206
##IDEAL CHEMISTRY=Na_15_Ca_6_Fe^2+^_3_Zr^4+^_3_Si(Si_25_O_73_)(O,OH,H_2_O)_3_(Cl,OH)_2_
##LOCALITY=Desourdy Quarry, Mont Saint-Hilaire, Rouville County, Quebec, Canada
##OWNER=RRUFF
##SOURCE=Royal Ontario Museum
##DESCRIPTION=Yellowish-brown gemmy fragment
##STATUS=The identification of this mineral is confirmed by single-crystal X-ray diffraction and chemical analysis.
##URL=rruff.info/R060206
##MEASURED CHEMISTRY=(Na_13.12_Ca_1.62_K_0.26_)_Σ=15_(Ca_4.47_Mn_1.00_Ce_0.32_La_0.21_)_Σ=6_(Fe_2.91_Mn_0.09_)_Σ=3_Zr_3.00_(Si_0.85_Nb_0.15_)_Σ=1_Si_25.00_O_73_((OH)_2.70_O_0.30_)_Σ=3_(Cl_1.20_(OH)_0.80_)_Σ=2_
91.82715, 443.5466
92.30927, 438.0530
92.79138, 439.2452
93.27350, 443.3284
93.75562, 446.4977
94.23773, 448.8706
94.71985, 451.0312
95.20197, 451.2910
95.68408, 448.5230
96.16620, 444.4939
96.64832, 441.1733
97.13043, 439.0386
97.61255, 437.2002
98.09467, 434.2339
98.57678, 429.4118
99.05890, 424.5536
99.54102, 421.6064
100.0231, 419.7868
100.5052, 418.3336
100.9874, 416.8495
101.4695, 415.2314
101.9516, 413.2134
102.4337, 409.2240
102.9158, 406.3313
103.3979, 405.2508
103.8801, 405.5851
104.3622, 406.6072
104.8443, 407.7842
105.3264, 409.1313
105.8085, 410.4387
106.2906, 411.5017
106.7728, 412.5711
107.2549, 413.8714
107.7370, 415.3937
108.2191, 416.8309
108.7012, 417.6439
109.1833, 417.7459
109.6655, 418.5986
110.1476, 421.0529
110.6297, 424.1914
111.1118, 426.4485
111.5939, 427.0560
112.0760, 427.6661
112.5582, 430.4552
113.0403, 435.1931
113.5224, 439.5562
114.0045, 441.8693
114.4866, 442.2339
114.9687, 442.5770
115.4509, 443.4052
115.9330, 444.2183
116.4151, 444.7124
116.8972, 444.8413
117.3793, 444.7672
117.8614, 444.7303
118.3436, 444.8574
118.8257, 444.6769
119.3078, 443.9872
119.7899, 443.1044
120.2720, 442.2665
120.7541, 441.5677
121.2363, 440.9401
121.7184, 440.1835
122.2005, 438.8411
122.6826, 437.8803
123.1647, 437.6530
123.6468, 437.7968
124.1290, 437.7041
124.6111, 436.9534
125.0932, 435.7258
125.5753, 435.5820
126.0574, 437.2208
126.5395, 438.9534
127.0217, 440.2062
127.5038, 440.9827
127.9859, 441.3486
128.4680, 440.9960
128.9501, 440.2614
129.4323, 440.7363
129.9144, 443.2243
130.3965, 446.5639
130.8786, 449.6823
131.3607, 452.5555
131.8428, 455.1674
132.3250, 457.2408
132.8071, 459.0553
133.2892, 461.0840
133.7713, 463.5626
134.2534, 466.4123
134.7355, 469.4989
135.2176, 473.3241
135.6998, 476.6353
136.1819, 478.7201
136.6640, 479.8440
137.1461, 480.6699
137.6282, 481.7918
138.1103, 483.2860
138.5925, 484.2118
139.0746, 484.3937
139.5567, 484.1222
140.0388, 483.5241
140.5209, 482.5790
141.0030, 481.1485
141.4852, 479.0365
141.9673, 476.0147
142.4494, 472.8101
142.9315, 469.1930
143.4136, 465.6022
143.8957, 462.4166
144.3779, 459.7069
144.8600, 457.0751
145.3421, 453.8785
145.8242, 449.8739
146.3063, 445.6776
146.7884, 441.2992
147.2706, 436.7304
147.7527, 431.8374
148.2348, 426.4948
148.7169, 421.0785
149.1990, 416.3083
149.6811, 412.0836
150.1633, 408.3431
150.6454, 405.2201
151.1275, 402.5932
151.6096, 400.1354
152.0917, 397.7127
152.5738, 395.4260
153.0560, 393.3717
153.5381, 391.5939
154.0202, 389.9312
154.5023, 388.2498
154.9844, 386.5489
155.4665, 384.9570
155.9487, 383.5674
156.4308, 382.3076
156.9129, 381.1223
157.3950, 379.9907
157.8771, 378.9681
158.3592, 378.0764
158.8414, 377.1956
159.3235, 376.8076
159.8056, 377.3780
160.2877, 378.2551
160.7698, 378.8531
161.2519, 378.9052
161.7341, 378.6254
162.2162, 378.6285
162.6983, 378.9946
163.1804, 379.5934
163.6625, 380.8359
164.1446, 382.1705
164.6268, 382.8165
165.1089, 382.2894
165.5910, 380.8570
166.0731, 380.2528
166.5552, 381.1724
167.0373, 382.1550
167.5195, 382.8401
168.0016, 383.3784
168.4837, 384.1283
168.9658, 385.3482
169.4479, 387.0054
169.9300, 388.4321
170.4122, 388.8091
170.8943, 389.7614
171.3764, 392.5528
171.8585, 396.7981
172.3406, 400.6995
172.8227, 402.7291
173.3049, 403.1303
173.7870, 404.6317
174.2691, 407.9713
174.7512, 411.8968
175.2333, 415.3782
175.7154, 418.3716
176.1976, 421.4334
176.6797, 424.9694
177.1618, 428.8952
177.6439, 432.9318
178.1260, 437.0640
178.6081, 441.2694
179.0903, 445.4532
179.5724, 449.4433
180.0545, 453.8940
180.5366, 459.5651
181.0187, 465.8992
181.5008, 471.9841
181.9830, 477.2530
182.4651, 481.9857
182.9472, 487.0952
183.4293, 492.6555
183.9114, 498.5099
184.3935, 504.7216
184.8757, 511.1041
185.3578, 517.3580
185.8399, 523.1512
186.3220, 528.5825
186.8041, 534.5568
187.2862, 541.4778
187.7684, 548.6115
188.2505, 555.7350
188.7326, 562.8977
189.2147, 570.2719
189.6968, 578.0030
190.1789, 586.1458
190.6611, 593.9330
191.1432, 601.0815
191.6253, 608.2002
192.1074, 615.2203
192.5895, 622.3027
193.0716, 629.8636
193.5538, 638.2891
194.0359, 647.7852
194.5180, 656.6714
195.0001, 664.7230
195.4822, 672.5339
195.9643, 680.5402
196.4465, 688.6230
196.9286, 696.2553
197.4107, 702.8073
197.8928, 708.0713
198.3749, 713.9022
198.8570, 721.6052
199.3392, 728.8397
199.8213, 733.8543
200.3034, 736.6103
200.7855, 738.5497
201.2676, 741.0787
201.7497, 744.1993
202.2319, 746.1629
202.7140, 746.6898
203.1961, 746.1596
203.6782, 744.7819
204.1603, 742.5554
204.6424, 739.8605
205.1246, 737.1025
205.6067, 734.1693
206.0888, 730.4539
206.5709, 725.9091
207.0530, 720.4857
207.5351, 713.9763
208.0173, 706.1777
208.4994, 697.8809
208.9815, 689.6791
209.4636, 681.4482
209.9457, 672.8616
210.4278, 663.7765
210.9100, 654.2288
211.3921, 644.1123
211.8742, 633.1492
212.3563, 622.3074
212.8384, 612.3284
213.3205, 602.8496
213.8027, 593.2030
214.2848, 583.0925
214.7669, 572.5588
215.2490, 561.8746
215.7311, 550.7458
216.2132, 539.8939
216.6953, 529.5131
217.1775, 519.5800
217.6596, 510.0392
218.1417, 500.9581
218.6238, 492.2411
219.1059, 483.3808
219.5880, 474.0223
220.0702, 465.0355
220.5523, 456.6725
221.0344, 448.8481
221.5165, 441.3746
221.9986, 434.1986
222.4807, 427.2982
222.9629, 420.4408
223.4450, 413.2854
223.9271, 406.6361
224.4092, 400.7059
224.8913, 395.3692
225.3734, 390.4609
225.8556, 385.8716
226.3377, 381.5938
226.8198, 377.2080
227.3019, 372.4072
227.7840, 367.8494
228.2661, 363.7194
228.7483, 359.9344
229.2304, 356.3746
229.7125, 352.9447
230.1946, 349.6471
230.6767, 346.6100
231.1588, 343.9442
231.6410, 341.3905
232.1231, 339.0483
232.6052, 336.7624
233.0873, 334.2362
233.5694, 331.2762
234.0515, 327.9385
234.5337, 324.6158
235.0158, 321.3475
235.4979, 318.0299
235.9800, 314.4541
236.4621, 310.8082
236.9442, 307.4929
237.4264, 304.7815
237.9085, 302.5261
238.3906, 300.0237
238.8727, 296.9235
239.3548, 294.0272
239.8369, 291.7867
240.3191, 289.9784
240.8012, 287.9638
241.2833, 285.2558
241.7654, 282.3493
242.2475, 280.6978
242.7296, 280.8975
243.2118, 281.1452
243.6939, 280.7081
244.1760, 279.7187
244.6581, 278.5836
245.1402, 277.4923
245.6223, 276.3022
246.1045, 274.6822
246.5866, 272.4533
247.0687, 270.3434
247.5508, 268.7845
248.0329, 267.6641
248.5150, 266.5199
248.9972, 265.0722
249.4793, 263.7004
249.9614, 262.8975
250.4435, 262.6760
250.9256, 262.7850
251.4077, 263.3102
251.8899, 264.1179
252.3720, 264.6412
252.8541, 264.7310
253.3362, 264.4562
253.8183, 263.8004
254.3004, 262.7643
254.7826, 261.9351
255.2647, 261.8693
255.7468, 262.3929
256.2289, 262.5775
256.7110, 262.0223
257.1931, 261.4133
257.6753, 261.3705
258.1574, 261.8158
258.6395, 262.2500
259.1216, 262.1889
259.6037, 261.7790
260.0858, 261.8873
260.5680, 262.9026
261.0501, 264.0479
261.5322, 264.6952
262.0143, 265.0275
262.4964, 265.6044
262.9785, 266.9732
263.4607, 268.9633
263.9428, 270.5844
264.4249, 271.6225
264.9070, 272.5611
265.3891, 273.4725
265.8712, 274.4708
266.3534, 275.7799
266.8355, 277.5887
267.3176, 279.8028
267.7997, 282.0771
268.2818, 284.5810
268.7639, 286.8710
269.2461, 288.7450
269.7282, 290.3487
270.2103, 291.8853
270.6924, 293.4466
271.1745, 295.0296
271.6566, 296.6327
272.1388, 298.3958
272.6209, 299.9033
273.1030, 301.1017
273.5851, 302.0181
274.0672, 302.6375
274.5493, 302.9429
275.0315, 303.0226
275.5136, 303.0869
275.9957, 303.1445
276.4778, 303.1659
276.9599, 303.3862
277.4420, 303.4608
277.9242, 302.8910
278.4063, 301.5104
278.8884, 299.9355
279.3705, 299.3986
279.8526, 300.5614
280.3347, 301.3810
280.8169, 301.3104
281.2990, 301.0997
281.7811, 301.3390
282.2632, 302.1553
282.7453, 303.2080
283.2274, 303.9919
283.7096, 304.3745
284.1917, 304.8141
284.6738, 305.0463
285.1559, 305.5326
285.6380, 306.7626
286.1201, 308.6599
286.6023, 310.5991
287.0844, 311.8443
287.5665, 312.1950
288.0486, 312.5890
288.5307, 312.6447
289.0128, 313.0634
289.4950, 314.4496
289.9771, 316.5846
290.4592, 318.6885
290.9413, 320.0509
291.4234, 320.6197
291.9055, 321.0933
292.3877, 321.0624
292.8698, 321.3448
293.3519, 322.5503
293.8340, 324.2914
294.3161, 325.5289
294.7982, 326.0339
295.2804, 326.3689
295.7625, 326.5430
296.2446, 326.0743
296.7267, 326.4356
297.2088, 326.4644
297.6909, 326.4794
298.1731, 326.9576
298.6552, 326.5824
299.1373, 327.0532
299.6194, 327.1862
300.1015, 327.4739
300.5836, 327.4268
301.0658, 327.4832
301.5479, 327.8744
302.0300, 328.0801
302.5121, 327.9945
302.9942, 329.0738
303.4763, 330.0204
303.9585, 330.5646
304.4406, 330.6768
304.9227, 330.1255
305.4048, 329.3276
305.8869, 328.5924
306.3690, 328.0002
306.8512, 327.4581
307.3333, 326.8614
307.8154, 326.3032
308.2975, 325.4058
308.7796, 324.0546
309.2617, 322.5165
309.7439, 321.0326
310.2260, 319.5622
310.7081, 317.8218
311.1902, 315.4975
311.6723, 312.4507
312.1544, 309.7002
312.6366, 307.3181
313.1187, 305.0985
313.6008, 302.7770
314.0829, 300.5298
314.5650, 298.9029
315.0471, 298.4315
315.5293, 298.9380
316.0114, 298.0464
316.4935, 294.2065
316.9756, 290.6854
317.4577, 288.1456
317.9398, 286.3559
318.4220, 285.0171
318.9041, 283.9986
319.3862, 283.1191
319.8683, 281.7698
320.3504, 278.9396
320.8326, 276.9557
321.3147, 276.1670
321.7968, 276.1432
322.2789, 276.5639
322.7610, 277.2957
323.2431, 278.2365
323.7253, 279.2125
324.2074, 280.2405
324.6895, 281.2802
325.1716, 282.2177
325.6537, 283.2526
326.1358, 284.5757
326.6180, 286.1769
327.1001, 287.8617
327.5822, 289.4052
328.0643, 290.7322
328.5464, 292.3344
329.0285, 294.4126
329.5107, 296.5349
329.9928, 298.5277
330.4749, 300.4151
330.9570, 302.3144
331.4391, 304.3459
331.9212, 306.4771
332.4034, 308.2061
332.8855, 309.1945
333.3676, 310.1407
333.8497, 311.3178
334.3318, 312.4930
334.8139, 313.3011
335.2961, 313.5502
335.7782, 313.4046
336.2603, 313.3428
336.7424, 313.5732
337.2245, 313.5616
337.7066, 313.4067
338.1888, 312.9443
338.6708, 311.9137
339.1530, 310.2859
339.6351, 308.4263
340.1172, 306.9120
340.5993, 305.9982
341.0814, 304.7823
341.5635, 302.9518
342.0457, 301.1271
342.5278, 299.6099
343.0099, 298.4258
343.4920, 297.4818
343.9741, 296.7660
344.4562, 296.3108
344.9384, 295.4736
345.4205, 293.4561
345.9026, 291.8345
346.3847, 291.4439
346.8668, 291.7086
347.3489, 291.5284
347.8311, 290.1718
348.3132, 288.0026
348.7953, 286.5384
349.2774, 286.3571
349.7595, 285.9820
350.2416, 284.8205
350.7238, 283.5059
351.2059, 282.7054
351.6880, 282.6403
352.1701, 282.9758
352.6522, 283.2030
353.1343, 283.3312
353.6165, 283.3144
354.0986, 283.1410
354.5807, 282.8319
355.0628, 282.3701
355.5449, 281.7674
356.0270, 281.0763
356.5092, 280.3235
356.9913, 279.5108
357.4734, 278.7076
357.9555, 277.7427
358.4376, 277.0055
358.9197, 276.8654
359.4019, 277.0540
359.8840, 277.0496
360.3661, 276.5805
360.8482, 275.6868
361.3303, 274.3960
361.8124, 272.4615
362.2946, 270.6933
362.7767, 269.4233
363.2588, 268.4211
363.7409, 267.5462
364.2230, 266.7957
364.7051, 265.8964
365.1873, 264.3229
365.6694, 261.9516
366.1515, 259.9951
366.6336, 258.9682
367.1157, 258.2777
367.5978, 257.5731
368.0800, 256.8163
368.5621, 255.9680
369.0442, 254.8698
369.5263, 253.6175
370.0084, 252.6925
370.4905, 252.1902
370.9727, 251.9256
371.4548, 252.1012
371.9369, 252.4141
372.4190, 252.1151
372.9011, 250.4873
373.3832, 248.3773
373.8654, 247.1631
374.3475, 246.9720
374.8296, 246.6092
375.3117, 245.1539
375.7938, 243.3532
376.2759, 242.3902
376.7581, 242.6638
377.2402, 243.0052
377.7223, 242.2601
378.2044, 240.7710
378.6865, 240.1147
379.1686, 240.9636
379.6508, 242.3974
380.1329, 243.2630
380.6150, 243.5821
381.0971, 243.9194
381.5792, 244.3780
382.0613, 244.9919
382.5435, 245.7937
383.0256, 246.7888
383.5077, 247.9966
383.9898, 249.4674
384.4719, 251.2011
384.9540, 253.0820
385.4362, 255.2352
385.9183, 257.4095
386.4004, 259.4989
386.8825, 261.4856
387.3646, 263.3156
387.8467, 264.9073
388.3289, 266.4038
388.8110, 268.2496
389.2931, 270.8748
389.7752, 272.9079
390.2573, 273.8739
390.7394, 274.1870
391.2216, 274.2552
391.7037, 274.1838
392.1858, 274.0435
392.6679, 273.9445
393.1500, 273.9438
393.6321, 273.5949
394.1143, 272.4772
394.5964, 271.4195
395.0785, 271.0220
395.5606, 271.1071
396.0427, 271.1335
396.5248, 270.7828
397.0070, 270.0448
397.4891, 268.8200
397.9712, 266.3820
398.4533, 264.3414
398.9354, 263.1837
399.4175, 262.3613
399.8997, 261.3123
400.3818, 259.8534
400.8639, 258.0947
401.3460, 256.1660
401.8281, 253.9478
402.3102, 251.8999
402.7924, 249.8966
403.2745, 248.1337
403.7566, 246.9473
404.2387, 246.1233
404.7208, 245.0432
405.2029, 243.1761
405.6851, 240.6600
406.1672, 238.6629
406.6493, 237.6950
407.1314, 236.5395
407.6135, 234.6764
408.0956, 232.6055
408.5778, 230.9022
409.0599, 229.7780
409.5420, 228.9268
410.0241, 227.9221
410.5062, 226.7551
410.9883, 225.5051
411.4705, 224.1290
411.9526, 222.7181
412.4347, 221.2087
412.9168, 219.6775
413.3989, 218.4048
413.8810, 217.6269
414.3632, 217.2707
414.8453, 217.1809
415.3274, 217.6057
415.8095, 217.6780
416.2916, 216.8016
416.7737, 215.3308
417.2559, 213.6048
417.7380, 211.5452
418.2201, 209.5886
418.7022, 208.1567
419.1843, 207.2192
419.6664, 206.5358
420.1486, 206.2024
420.6307, 205.8811
421.1128, 205.2353
421.5949, 204.2842
422.0770, 202.9167
422.5591, 200.5528
423.0413, 197.9900
423.5234, 196.4875
424.0055, 196.1886
424.4876, 195.9410
424.9697, 194.8457
425.4518, 193.0452
425.9340, 191.6113
426.4161, 190.7921
426.8982, 190.0636
427.3803, 189.3206
427.8624, 188.4905
428.3445, 187.3267
428.8267, 185.6922
429.3088, 183.9944
429.7909, 182.9578
430.2730, 182.9808
430.7551, 182.8071
431.2372, 182.1143
431.7194, 181.4611
432.2015, 181.3682
432.6836, 181.7621
433.1657, 182.1136
433.6478, 181.9727
434.1299, 181.3954
434.6121, 181.1276
435.0942, 181.2561
435.5763, 181.6123
436.0584, 182.3694
436.5405, 183.2572
437.0226, 183.9710
437.5048, 184.4060
437.9869, 184.6965
438.4690, 184.9833
438.9511, 185.1325
439.4332, 185.7191
439.9153, 187.3235
440.3975, 188.8622
440.8796, 189.8729
441.3617, 190.4038
441.8438, 190.6966
442.3259, 190.8900
442.8080, 190.9733
443.2902, 190.8755
443.7723, 190.5109
444.2544, 190.1792
444.7365, 189.8839
445.2186, 189.7209
445.7007, 189.9089
446.1829, 190.5192
446.6650, 191.0052
447.1471, 190.7080
447.6292, 189.7996
448.1113, 189.2955
448.5934, 189.5345
449.0756, 189.8209
449.5577, 189.4367
450.0398, 188.6026
450.5219, 187.9668
451.0040, 187.7967
451.4861, 187.8296
451.9683, 187.8228
452.4504, 187.7901
452.9325, 187.8356
453.4146, 188.0153
453.8967, 188.2898
454.3788, 188.6003
454.8610, 188.9943
455.3431, 189.2769
455.8252, 189.3901
456.3073, 189.3784
456.7894, 189.2987
457.2715, 189.1551
457.7537, 188.8571
458.2358, 188.2299
458.7179, 187.2733
459.2000, 187.1312
459.6821, 188.5613
460.1642, 189.7930
460.6464, 190.3952
461.1285, 190.4844
461.6106, 190.1024
462.0927, 189.2937
462.5748, 188.4327
463.0569, 188.2287
463.5391, 189.1339
464.0212, 189.4616
464.5033, 188.8052
464.9854, 187.9901
465.4675, 187.3218
465.9496, 186.8150
466.4318, 186.3865
466.9139, 185.9722
467.3960, 185.6118
467.8781, 185.4534
468.3602, 185.5844
468.8423, 185.6895
469.3245, 185.8393
469.8066, 185.8272
470.2887, 185.3729
470.7708, 184.4513
471.2529, 183.5404
471.7350, 183.0608
472.2172, 182.9014
472.6993, 182.6174
473.1814, 182.1013
473.6635, 181.6723
474.1456, 181.9578
474.6277, 182.4652
475.1099, 181.9770
475.5920, 179.4836
476.0741, 177.0101
476.5562, 176.0954
477.0383, 176.3482
477.5204, 176.7560
478.0026, 177.1121
478.4847, 177.0277
478.9668, 175.7344
479.4489, 172.8128
479.9310, 170.7784
480.4131, 170.3328
480.8953, 170.3409
481.3774, 170.2853
481.8595, 170.0383
482.3416, 169.3928
482.8237, 168.1776
483.3058, 166.6181
483.7880, 165.4848
484.2701, 165.1720
484.7522, 164.7431
485.2343, 164.0131
485.7164, 163.2670
486.1985, 162.7518
486.6807, 162.4677
487.1628, 162.2122
487.6449, 161.7498
488.1270, 161.1184
488.6091, 160.8717
489.0912, 161.2092
489.5734, 161.6295
490.0555, 162.1500
490.5376, 162.5811
491.0197, 162.5882
491.5018, 162.0499
491.9839, 161.5726
492.4661, 162.0523
492.9482, 163.3222
493.4303, 163.7638
493.9124, 162.7734
494.3945, 161.6585
494.8766, 161.4881
495.3588, 162.0183
495.8409, 162.6939
496.3230, 163.5302
496.8051, 164.3275
497.2872, 164.8116
497.7693, 165.0885
498.2515, 165.5668
498.7336, 166.4145
499.2157, 167.4806
499.6978, 168.5678
500.1799, 169.7186
500.6620, 170.7243
501.1442, 171.2461
501.6263, 171.8900
502.1084, 173.2741
502.5905, 175.1900
503.0726, 176.9291
503.5547, 178.0516
504.0368, 178.7083
504.5190, 179.4410
505.0011, 180.5738
505.4832, 181.2473
505.9653, 180.8908
506.4474, 180.5003
506.9295, 180.9628
507.4117, 182.1977
507.8938, 183.3597
508.3759, 183.6890
508.8580, 183.3502
509.3401, 183.3221
509.8222, 183.7525
510.3044, 184.1670
510.7865, 184.4910
511.2686, 184.6633
511.7507, 184.5200
512.2328, 184.0026
512.7150, 183.5839
513.1971, 183.6691
513.6792, 184.1281
514.1613, 184.5509
514.6434, 184.8522
515.1255, 185.3197
515.6077, 186.2928
516.0898, 187.6265
516.5719, 188.6576
517.0540, 189.2109
517.5361, 189.6423
518.0182, 189.9028
518.5004, 190.2019
518.9825, 190.9195
519.4646, 192.1601
519.9467, 193.6814
520.4288, 195.1479
520.9109, 196.4469
521.3931, 198.5129
521.8752, 202.8772
522.3573, 206.2403
522.8394, 206.8228
523.3215, 205.8432
523.8036, 205.0619
524.2858, 205.1969
524.7679, 205.9408
525.2500, 206.8888
525.7321, 208.1064
526.2142, 209.1993
526.6964, 210.3531
527.1785, 211.1227
527.6606, 210.8674
528.1427, 210.1109
528.6248, 210.0481
529.1069, 211.4271
529.5891, 213.2949
530.0712, 214.3283
530.5533, 214.5813
531.0354, 214.9766
531.5175, 215.7522
531.9996, 216.7830
532.4818, 217.9782
532.9639, 219.3172
533.4460, 220.7183
533.9281, 221.9954
534.4102, 223.4666
534.8923, 225.5299
535.3745, 228.0303
535.8566, 230.4785
536.3387, 232.6283
536.8208, 234.6317
537.3029, 236.7584
537.7850, 238.9824
538.2672, 241.4593
538.7493, 244.7307
539.2314, 247.7393
539.7135, 249.7415
540.1956, 250.9771
540.6777, 252.2581
541.1599, 254.1207
541.6420, 256.1407
542.1241, 257.0955
542.6062, 256.5379
543.0883, 256.3694
543.5704, 257.2522
544.0526, 258.3743
544.5347, 259.1436
545.0168, 259.6599
545.4989, 260.4923
545.9810, 262.0080
546.4631, 263.9849
546.9453, 265.7924
547.4274, 267.4663
547.9095, 270.4025
548.3916, 275.4790
548.8737, 281.7095
549.3558, 287.2183
549.8380, 291.7258
550.3201, 297.1929
550.8022, 304.4239
551.2843, 312.3682
551.7664, 320.0668
552.2485, 327.6657
552.7307, 335.9568
553.2128, 345.4705
553.6949, 355.8225
554.1770, 366.0140
554.6591, 376.1610
555.1412, 385.8864
555.6234, 394.9657
556.1055, 403.9073
556.5876, 413.5298
557.0697, 423.3951
557.5518, 432.2181
558.0339, 439.3476
558.5161, 444.8051
558.9982, 448.4405
559.4803, 450.0552
559.9624, 450.9931
560.4445, 451.7845
560.9266, 451.7741
561.4088, 449.7646
561.8909, 446.0240
562.3730, 443.5818
562.8551, 443.5127
563.3372, 445.3048
563.8193, 448.5370
564.3015, 453.1752
564.7836, 459.3337
565.2657, 467.2574
565.7478, 476.1441
566.2299, 484.6871
566.7120, 493.1629
567.1942, 500.3570
567.6763, 507.6451
568.1584, 512.3445
568.6405, 513.4282
569.1226, 510.6221
569.6047, 503.5492
570.0869, 491.9837
570.5690, 476.7133
571.0511, 459.1220
571.5332, 438.4674
572.0153, 417.7796
572.4974, 397.6440
572.9796, 377.2456
573.4617, 355.0596
573.9438, 332.1842
574.4259, 311.5643
574.9080, 294.6382
575.3901, 280.0608
575.8723, 266.5684
576.3544, 254.1658
576.8365, 242.7284
577.3186, 232.2815
577.8007, 222.7328
578.2828, 214.0603
578.7650, 206.3099
579.2471, 199.3567
579.7292, 193.5151
580.2113, 188.1699
580.6934, 183.1692
581.1755, 178.4185
581.6577, 173.6419
582.1398, 168.8057
