##NAMES=Eulytine
##RRUFFID=R060058
##IDEAL CHEMISTRY=Bi_4_(SiO_4_)_3_
##LOCALITY=Schneeberg, Saxony, Germany
##OWNER=RRUFF
##SOURCE=University of Arizona Mineral Museum
##DESCRIPTION=Pale-yellow interpenetrant tetrahedral crystals; some transmitting red color of matrix
##STATUS=The identification of this mineral is confirmed by single-crystal X-ray diffraction and chemical analysis.
##URL=rruff.info/R060058
##MEASURED CHEMISTRY=Bi_4.00_((Si_0.96_As^5+^_0.04_)_Σ=1_((O_3.96_(OH)_0.04_)_Σ=4_)_3_ ; (OH) estimated by difference and charge balance
87.211, 1512.245
87.693, 1680.485
88.175, 1882.000
88.657, 2109.661
89.139, 2348.018
89.621, 2601.196
90.103, 2893.302
90.585, 3234.099
91.068, 3624.684
91.550, 4073.433
92.032, 4557.220
92.514, 5111.178
92.996, 5811.780
93.478, 6669.743
93.960, 7573.213
94.442, 8447.618
94.924, 9283.426
95.407, 9996.155
95.889, 10532.700
96.371, 10910.060
96.853, 11190.520
97.335, 11349.340
97.817, 11452.440
98.299, 11631.990
98.781, 11889.900
99.264, 12194.960
99.746, 12542.530
100.228, 12935.040
100.710, 13301.120
101.192, 13602.820
101.674, 13857.790
102.156, 14199.830
102.638, 14609.610
103.120, 15134.540
103.603, 15824.310
104.085, 16718.561
104.567, 17714.240
105.049, 18925.980
105.531, 20507.830
106.013, 21441.510
106.495, 21650.551
106.977, 21231.580
107.460, 20332.859
107.942, 18497.211
108.424, 16640.840
108.906, 15082.440
109.388, 13859.360
109.870, 12862.520
110.352, 12129.110
110.834, 11627.070
111.316, 11220.240
111.799, 10944.080
112.281, 10731.470
112.763, 10545.510
113.245, 10361.000
113.727, 10222.010
114.209, 10137.200
114.691, 10106.570
115.173, 10116.450
115.656, 10169.470
116.138, 10260.170
116.620, 10382.680
117.102, 10532.670
117.584, 10719.210
118.066, 10949.280
118.548, 11227.570
119.030, 11529.550
119.512, 11828.630
119.995, 12145.890
120.477, 12511.740
120.959, 12940.260
121.441, 13425.640
121.923, 13959.950
122.405, 14549.470
122.887, 15177.470
123.369, 15830.470
123.852, 16510.439
124.334, 17225.180
124.816, 17989.141
125.298, 18792.000
125.780, 19607.859
126.262, 20440.160
126.744, 21281.311
127.226, 22142.279
127.709, 23019.990
128.191, 23858.580
128.673, 24623.160
129.155, 25313.119
129.637, 25927.619
130.119, 26517.189
130.601, 27020.080
131.083, 27318.279
131.565, 27411.039
132.048, 27305.561
132.530, 26992.641
133.012, 26472.789
133.494, 25804.830
133.976, 24957.539
134.458, 23956.289
134.940, 22949.680
135.422, 21915.869
135.904, 20918.570
136.387, 20050.779
136.869, 19312.789
137.351, 18686.930
137.833, 18155.010
138.315, 17711.971
138.797, 17387.760
139.279, 17193.770
139.761, 17111.789
140.243, 17075.900
140.726, 17083.590
141.208, 17142.529
141.690, 17263.510
142.172, 17463.881
142.654, 17682.270
143.136, 17913.461
143.618, 18156.029
144.100, 18420.381
144.583, 18703.750
145.065, 19010.490
145.547, 19342.109
146.029, 19719.881
146.511, 20097.330
146.993, 20502.221
147.475, 20970.461
147.957, 21267.461
148.439, 21430.740
148.922, 21404.471
149.404, 21103.971
149.886, 20419.539
150.368, 19564.391
150.850, 18589.301
151.332, 17369.660
151.814, 16242.820
152.296, 15212.690
152.779, 14271.300
153.261, 13425.780
153.743, 12686.290
154.225, 12036.000
154.707, 11469.210
155.189, 10996.050
155.671, 10592.980
156.153, 10278.680
156.635, 10036.950
157.118, 9818.565
157.600, 9599.365
158.082, 9409.380
158.564, 9266.676
159.046, 9187.142
159.528, 9143.158
160.010, 9138.215
160.492, 9169.161
160.975, 9206.731
161.457, 9224.224
161.939, 9250.580
162.421, 9311.732
162.903, 9426.091
163.385, 9566.505
163.867, 9728.161
164.349, 9912.251
164.831, 10094.620
165.314, 10246.820
165.796, 10393.650
166.278, 10569.140
166.760, 10806.590
167.242, 11059.230
167.724, 11300.330
168.206, 11528.310
168.688, 11740.290
169.171, 11940.630
169.653, 12123.950
170.135, 12280.020
170.617, 12409.280
171.099, 12506.800
171.581, 12572.360
172.063, 12608.520
172.545, 12603.980
173.027, 12551.330
173.510, 12451.130
173.992, 12303.630
174.474, 12080.080
174.956, 11820.360
175.438, 11571.320
175.920, 11338.270
176.402, 11123.580
176.884, 10916.130
177.367, 10720.170
177.849, 10564.390
178.331, 10472.280
178.813, 10431.670
179.295, 10418.950
179.777, 10421.330
180.259, 10455.670
180.741, 10550.580
181.223, 10704.480
181.706, 10893.130
182.188, 11090.750
182.670, 11305.990
183.152, 11557.210
183.634, 11841.610
184.116, 12168.590
184.598, 12556.170
185.080, 13000.420
185.562, 13519.270
186.045, 14115.380
186.527, 14796.130
187.009, 15570.450
187.491, 16444.779
187.973, 17410.961
188.455, 18468.891
188.937, 19615.539
189.419, 20837.090
189.902, 22128.631
190.384, 23480.590
190.866, 24928.311
191.348, 26489.551
191.830, 28137.420
192.312, 29864.199
192.794, 31666.699
193.276, 33527.930
193.758, 35429.289
194.241, 37387.738
194.723, 39355.449
195.205, 41351.949
195.687, 43344.680
196.169, 45252.801
196.651, 47064.469
197.133, 48784.820
197.615, 50453.969
198.098, 52104.859
198.580, 53558.770
199.062, 54759.340
199.544, 55713.352
200.026, 56323.820
200.508, 56589.328
200.990, 56518.141
201.472, 56140.621
201.954, 55464.449
202.437, 54430.141
202.919, 52934.969
203.401, 50928.270
203.883, 48829.262
204.365, 46631.570
204.847, 44371.129
205.329, 42139.172
205.811, 39919.391
206.294, 37772.781
206.776, 35727.578
207.258, 33767.699
207.740, 31957.061
208.222, 30288.539
208.704, 28770.910
209.186, 27381.740
209.668, 26129.730
210.150, 24986.760
210.633, 23942.420
211.115, 23009.631
211.597, 22123.410
212.079, 21273.240
212.561, 20469.740
213.043, 19756.820
213.525, 19148.240
214.007, 18607.391
214.490, 18110.660
214.972, 17675.670
215.454, 17243.859
215.936, 16801.350
216.418, 16353.940
216.900, 15951.270
217.382, 15608.440
217.864, 15286.100
218.346, 14950.390
218.829, 14587.860
219.311, 14237.740
219.793, 13907.440
220.275, 13596.540
220.757, 13306.730
221.239, 13039.250
221.721, 12786.390
222.203, 12544.570
222.686, 12313.800
223.168, 12088.820
223.650, 11862.720
224.132, 11638.600
224.614, 11433.230
225.096, 11251.470
225.578, 11086.030
226.060, 10932.490
226.542, 10791.110
227.025, 10659.230
227.507, 10533.340
227.989, 10414.850
228.471, 10312.590
228.953, 10232.610
229.435, 10164.700
229.917, 10095.840
230.399, 10025.170
230.882, 9955.441
231.364, 9883.023
231.846, 9804.128
232.328, 9748.008
232.810, 9721.357
233.292, 9710.703
233.774, 9699.729
234.256, 9692.623
234.738, 9677.139
235.221, 9645.725
235.703, 9591.928
236.185, 9556.903
236.667, 9547.389
237.149, 9551.991
237.631, 9554.054
238.113, 9548.358
238.595, 9549.515
239.077, 9563.919
239.560, 9595.928
240.042, 9621.763
240.524, 9638.009
241.006, 9650.320
241.488, 9667.871
241.970, 9695.957
242.452, 9720.267
242.934, 9732.666
243.417, 9725.361
243.899, 9741.962
244.381, 9796.653
244.863, 9865.959
245.345, 9909.646
245.827, 9908.996
246.309, 9914.764
246.791, 9947.072
247.273, 10017.360
247.756, 10066.270
248.238, 10086.320
248.720, 10088.880
249.202, 10091.350
249.684, 10089.740
250.166, 10094.040
250.648, 10106.780
251.130, 10127.180
251.613, 10159.810
252.095, 10215.010
252.577, 10275.460
253.059, 10312.450
253.541, 10315.590
254.023, 10315.130
254.505, 10318.880
254.987, 10325.120
255.469, 10345.790
255.952, 10383.840
256.434, 10435.000
256.916, 10493.630
257.398, 10560.310
257.880, 10632.840
258.362, 10709.930
258.844, 10789.470
259.326, 10881.180
259.809, 10984.080
260.291, 11099.310
260.773, 11225.240
261.255, 11356.890
261.737, 11509.230
262.219, 11687.850
262.701, 11897.660
263.183, 12112.070
263.665, 12330.130
264.147, 12556.710
264.630, 12791.900
265.112, 13037.220
265.594, 13296.110
266.076, 13569.620
266.558, 13860.860
267.040, 14162.190
267.522, 14484.470
268.004, 14806.710
268.487, 15107.360
268.969, 15383.360
269.451, 15630.870
269.933, 15842.800
270.415, 16014.360
270.897, 16205.250
271.379, 16431.961
271.861, 16657.609
272.344, 16833.340
272.826, 16957.109
273.308, 17042.150
273.790, 17100.061
274.272, 17131.820
274.754, 17085.740
275.236, 16950.801
275.718, 16759.260
276.200, 16555.551
276.683, 16344.350
277.165, 16091.210
277.647, 15776.180
278.129, 15402.310
278.611, 15027.120
279.093, 14652.430
279.575, 14272.510
280.057, 13864.870
280.539, 13424.550
281.022, 13010.040
281.504, 12639.670
281.986, 12309.310
282.468, 11987.130
282.950, 11671.040
283.432, 11369.990
283.914, 11098.480
284.396, 10855.650
284.879, 10618.100
285.361, 10368.750
285.843, 10117.520
286.325, 9913.205
286.807, 9760.204
287.289, 9629.766
287.771, 9492.311
288.253, 9348.736
288.736, 9217.769
289.218, 9107.827
289.700, 9012.976
290.182, 8911.251
290.664, 8800.729
291.146, 8708.135
291.628, 8668.244
292.110, 8672.532
292.592, 8678.508
293.075, 8674.041
293.557, 8664.990
294.039, 8664.546
294.521, 8672.523
295.003, 8682.611
295.485, 8673.071
295.967, 8658.532
296.449, 8689.884
296.931, 8794.661
297.414, 8933.409
297.896, 9044.464
298.378, 9130.840
298.860, 9218.955
299.342, 9318.029
299.824, 9434.623
300.306, 9588.438
300.788, 9792.111
301.271, 10018.800
301.753, 10241.470
302.235, 10459.780
302.717, 10682.600
303.199, 10908.590
303.681, 11143.040
304.163, 11392.080
304.645, 11661.300
305.128, 11933.820
305.610, 12199.460
306.092, 12455.760
306.574, 12705.230
307.056, 12943.780
307.538, 13173.960
308.020, 13404.250
308.502, 13638.380
308.984, 13858.250
309.466, 14046.670
309.949, 14209.330
310.431, 14362.150
310.913, 14554.570
311.395, 14714.220
311.877, 14778.630
312.359, 14733.490
312.841, 14631.650
313.323, 14478.340
313.806, 14292.260
314.288, 14106.400
314.770, 13931.910
315.252, 13763.380
315.734, 13595.630
316.216, 13424.310
316.698, 13267.710
317.180, 13116.870
317.663, 12988.250
318.145, 12902.160
318.627, 12898.680
319.109, 12909.080
319.591, 12900.350
320.073, 12868.590
320.555, 12860.460
321.037, 12897.500
321.519, 12961.310
322.002, 13035.160
322.484, 13124.810
322.966, 13215.130
323.448, 13309.560
323.930, 13407.290
324.412, 13482.970
324.894, 13511.410
325.376, 13527.690
325.858, 13555.400
326.341, 13617.830
326.823, 13667.790
327.305, 13693.930
327.787, 13699.400
328.269, 13708.060
328.751, 13729.170
329.233, 13746.450
329.715, 13751.990
330.198, 13744.710
330.680, 13726.940
331.162, 13700.700
331.644, 13664.060
332.126, 13609.320
332.608, 13524.250
333.090, 13436.120
333.572, 13357.510
334.055, 13301.270
334.537, 13222.170
335.019, 13108.240
335.501, 12976.920
335.983, 12869.830
336.465, 12800.780
336.947, 12723.990
337.429, 12618.180
337.911, 12476.470
338.393, 12350.820
338.876, 12244.970
339.358, 12151.580
339.840, 12063.380
340.322, 11980.390
340.804, 11898.120
341.286, 11813.490
341.768, 11726.550
342.250, 11657.000
342.733, 11606.130
343.215, 11565.750
343.697, 11525.730
344.179, 11486.410
344.661, 11454.920
345.143, 11434.200
345.625, 11423.120
346.107, 11423.390
346.590, 11436.350
347.072, 11444.470
347.554, 11421.900
348.036, 11378.440
348.518, 11357.280
349.000, 11372.810
349.482, 11409.230
349.964, 11443.650
350.446, 11476.130
350.929, 11508.600
351.411, 11533.680
351.893, 11560.670
352.375, 11613.330
352.857, 11701.960
353.339, 11794.810
353.821, 11847.110
354.303, 11871.770
354.785, 11908.810
355.268, 11995.010
355.750, 12097.620
356.232, 12175.250
356.714, 12218.100
357.196, 12267.680
357.678, 12365.630
358.160, 12488.690
358.642, 12598.960
359.125, 12662.580
359.607, 12722.670
360.089, 12806.450
360.571, 12916.000
361.053, 13036.100
361.535, 13151.760
362.017, 13278.870
362.499, 13433.060
362.982, 13640.680
363.464, 13854.540
363.946, 14049.320
364.428, 14229.470
364.910, 14440.560
365.392, 14710.340
365.874, 15004.520
366.356, 15302.340
366.838, 15590.520
367.320, 15894.370
367.803, 16208.290
368.285, 16539.500
368.767, 16906.619
369.249, 17321.750
369.731, 17761.490
370.213, 18213.160
370.695, 18655.391
371.177, 19161.381
371.660, 19745.891
372.142, 20391.010
372.624, 21071.570
373.106, 21765.680
373.588, 22508.051
374.070, 23311.289
374.552, 24169.650
375.034, 25071.260
375.517, 26012.020
375.999, 27003.420
376.481, 28074.689
376.963, 29222.650
377.445, 30434.811
377.927, 31724.400
378.409, 33074.949
378.891, 34459.422
379.374, 35876.039
379.856, 37353.750
380.338, 38959.980
380.820, 40681.961
381.302, 42397.859
381.784, 44064.801
382.266, 45752.211
382.748, 47575.879
383.230, 49543.641
383.712, 51524.211
384.195, 53442.309
384.677, 55335.070
385.159, 57209.699
385.641, 59100.730
386.123, 60960.629
386.605, 62758.770
387.087, 64501.461
387.569, 66155.844
388.052, 67769.570
388.534, 69264.773
389.016, 70502.844
389.498, 71482.359
389.980, 72290.094
390.462, 72971.727
390.944, 73506.047
391.426, 73866.594
391.909, 74064.797
392.391, 74067.609
392.873, 73847.406
393.355, 73412.922
393.837, 72805.781
394.319, 72083.438
394.801, 71165.422
395.283, 70000.750
395.765, 68586.141
396.248, 66922.539
396.730, 64980.262
397.212, 62801.449
397.694, 60440.398
398.176, 57759.969
398.658, 55003.039
399.140, 52222.102
399.622, 49385.148
400.104, 46639.461
400.587, 43945.629
401.069, 41369.359
401.551, 38946.180
402.033, 36690.121
402.515, 34561.039
402.997, 32534.369
403.479, 30630.221
403.961, 28901.070
404.444, 27360.539
404.926, 25969.000
405.408, 24691.520
405.890, 23535.090
406.372, 22459.961
406.854, 21459.711
407.336, 20541.750
407.818, 19706.961
408.301, 18958.811
408.783, 18261.461
409.265, 17602.510
409.747, 16985.061
410.229, 16413.150
410.711, 15888.490
411.193, 15400.380
411.675, 14940.100
412.157, 14507.960
412.639, 14112.460
413.122, 13773.810
413.604, 13472.820
414.086, 13188.800
414.568, 12923.530
415.050, 12665.820
415.532, 12393.020
416.014, 12127.920
416.496, 11900.420
416.979, 11737.850
417.461, 11590.390
417.943, 11413.510
418.425, 11222.860
418.907, 11056.700
419.389, 10940.600
419.871, 10851.740
420.353, 10781.560
420.836, 10734.090
421.318, 10683.320
421.800, 10604.790
422.282, 10522.620
422.764, 10466.840
423.246, 10465.270
423.728, 10468.240
424.210, 10457.870
424.692, 10433.070
425.175, 10432.710
425.657, 10477.820
426.139, 10532.480
426.621, 10574.740
427.103, 10596.760
427.585, 10620.810
428.067, 10646.050
428.549, 10674.890
429.031, 10713.390
429.514, 10764.560
429.996, 10818.630
430.478, 10875.220
430.960, 10935.530
431.442, 10980.690
431.924, 11010.120
432.406, 11025.150
432.888, 11021.920
433.371, 11000.380
433.853, 10985.500
434.335, 10995.540
434.817, 11011.490
435.299, 10981.230
435.781, 10905.080
436.263, 10803.560
436.745, 10691.370
437.228, 10567.240
437.710, 10428.190
438.192, 10276.290
438.674, 10104.960
439.156, 9896.125
439.638, 9661.116
440.120, 9427.369
440.602, 9213.566
441.084, 9009.119
441.566, 8802.138
442.049, 8590.814
442.531, 8400.687
443.013, 8261.363
443.495, 8142.434
443.977, 8012.749
444.459, 7848.816
444.941, 7689.655
445.423, 7543.007
445.906, 7409.277
446.388, 7293.397
446.870, 7206.133
447.352, 7128.598
447.834, 7052.527
448.316, 6970.885
448.798, 6905.254
449.280, 6865.963
449.763, 6836.784
450.245, 6792.354
450.727, 6723.942
451.209, 6658.666
451.691, 6602.842
452.173, 6555.862
452.655, 6520.214
453.137, 6498.221
453.619, 6478.753
454.102, 6450.246
454.584, 6412.750
455.066, 6385.693
455.548, 6374.499
456.030, 6370.154
456.512, 6356.830
456.994, 6335.263
457.476, 6312.247
457.958, 6289.171
458.441, 6267.570
458.923, 6248.142
459.405, 6230.837
459.887, 6221.266
460.369, 6232.965
460.851, 6254.018
461.333, 6265.679
461.815, 6253.480
462.298, 6239.249
462.780, 6236.816
463.262, 6244.257
463.744, 6254.505
464.226, 6269.558
464.708, 6282.772
465.190, 6287.454
465.672, 6275.520
466.155, 6276.253
466.637, 6306.974
467.119, 6349.790
467.601, 6381.207
468.083, 6386.235
468.565, 6395.837
469.047, 6413.652
469.529, 6439.771
470.011, 6476.972
470.494, 6532.218
470.976, 6588.882
471.458, 6636.232
471.940, 6672.355
472.422, 6705.836
472.904, 6732.801
473.386, 6763.673
473.868, 6823.957
474.350, 6915.625
474.833, 6997.359
475.315, 7045.090
475.797, 7070.423
476.279, 7115.163
476.761, 7179.434
477.243, 7245.229
477.725, 7295.641
478.207, 7336.283
478.690, 7379.251
479.172, 7429.881
479.654, 7479.312
480.136, 7521.726
480.618, 7556.364
481.100, 7581.500
481.582, 7578.795
482.064, 7579.749
482.547, 7611.828
483.029, 7680.507
483.511, 7736.991
483.993, 7748.283
484.475, 7746.705
484.957, 7759.794
485.439, 7796.531
485.921, 7842.426
486.403, 7897.854
486.885, 7960.765
487.368, 8025.187
487.850, 8093.065
488.332, 8159.207
488.814, 8222.477
489.296, 8282.723
489.778, 8340.363
490.260, 8393.473
490.742, 8448.377
491.225, 8512.792
491.707, 8588.080
492.189, 8664.785
492.671, 8742.501
493.153, 8819.522
493.635, 8882.896
494.117, 8934.797
494.599, 8998.984
495.082, 9100.423
495.564, 9223.341
496.046, 9335.643
496.528, 9432.806
497.010, 9532.783
497.492, 9654.396
497.974, 9787.419
498.456, 9913.491
498.938, 10014.280
499.421, 10118.540
499.903, 10248.090
500.385, 10396.640
500.867, 10536.690
501.349, 10677.140
501.831, 10794.550
502.313, 10879.720
502.795, 10940.040
503.277, 10948.760
503.760, 10897.840
504.242, 10798.570
504.724, 10662.450
505.206, 10485.030
505.688, 10278.370
506.170, 10033.240
506.652, 9758.192
507.134, 9495.934
507.616, 9248.706
508.099, 9005.902
508.581, 8751.680
509.063, 8488.098
509.545, 8269.412
510.027, 8103.449
510.509, 7960.154
510.991, 7797.299
511.474, 7623.728
511.956, 7473.169
512.438, 7359.461
512.920, 7272.543
513.402, 7204.909
513.884, 7154.824
514.366, 7113.695
514.848, 7079.703
515.330, 7050.487
515.813, 7021.958
516.295, 6990.421
516.777, 6973.413
517.259, 6983.203
517.741, 7009.188
518.223, 7039.379
518.705, 7072.020
519.187, 7107.473
519.669, 7139.319
520.152, 7171.610
520.634, 7226.637
521.116, 7319.243
521.598, 7414.414
522.080, 7493.760
522.562, 7552.576
523.044, 7624.456
523.526, 7710.800
524.008, 7806.261
524.491, 7906.879
524.973, 8012.951
525.455, 8109.978
525.937, 8194.099
526.419, 8267.816
526.901, 8331.910
527.383, 8388.430
527.865, 8453.387
528.348, 8552.005
528.830, 8658.922
529.312, 8737.019
529.794, 8783.086
530.276, 8817.855
530.758, 8866.883
531.240, 8908.070
531.722, 8916.810
532.205, 8881.860
532.687, 8818.829
533.169, 8728.679
533.651, 8613.921
534.133, 8479.063
534.615, 8310.636
535.097, 8135.940
535.579, 7963.571
536.062, 7789.554
536.544, 7632.118
537.026, 7492.128
537.508, 7365.464
537.990, 7251.185
538.472, 7150.739
538.954, 7045.438
539.436, 6929.372
539.918, 6815.254
540.401, 6735.584
540.883, 6688.406
541.365, 6644.217
541.847, 6588.365
542.329, 6526.910
542.811, 6467.704
543.293, 6411.235
543.775, 6366.868
544.257, 6354.168
544.740, 6351.494
545.222, 6332.364
545.704, 6284.015
546.186, 6238.119
546.668, 6220.302
547.150, 6212.396
547.632, 6186.591
548.114, 6114.264
548.596, 6046.006
549.079, 5998.002
549.561, 5968.523
550.043, 5934.172
550.525, 5894.541
551.007, 5850.663
551.489, 5800.979
551.971, 5742.515
552.453, 5693.660
552.935, 5658.003
553.418, 5624.841
553.900, 5574.332
554.382, 5507.776
554.864, 5461.428
555.346, 5453.376
555.828, 5459.748
556.310, 5435.711
556.792, 5386.278
557.275, 5337.566
557.757, 5301.177
558.239, 5275.741
558.721, 5266.164
559.203, 5273.291
559.685, 5269.564
560.167, 5228.685
560.649, 5175.975
561.131, 5133.647
561.614, 5111.417
562.096, 5093.290
562.578, 5075.171
563.060, 5059.731
563.542, 5051.703
564.024, 5057.081
564.506, 5061.112
564.989, 5060.053
565.471, 5054.087
565.953, 5047.200
566.435, 5039.038
566.917, 5030.471
567.399, 5021.403
567.881, 5011.917
568.363, 5005.253
568.845, 5002.098
569.328, 4999.422
569.810, 4993.696
570.292, 4985.498
570.774, 4976.216
571.256, 4964.308
571.738, 4953.777
572.220, 4950.641
572.702, 4952.380
573.184, 4950.567
573.667, 4939.376
574.149, 4925.068
574.631, 4909.657
575.113, 4892.561
575.595, 4880.268
576.077, 4874.687
576.559, 4873.888
577.041, 4877.771
577.523, 4895.801
578.006, 4898.197
578.488, 4877.296
578.970, 4845.599
579.452, 4825.767
579.934, 4818.473
580.416, 4818.336
580.898, 4828.362
581.380, 4842.336
581.862, 4838.886
582.345, 4818.535
582.827, 4796.458
583.309, 4782.236
583.791, 4773.293
584.273, 4766.004
584.755, 4760.065
585.237, 4755.164
585.719, 4749.366
586.202, 4745.081
586.684, 4745.004
587.166, 4755.293
587.648, 4763.471
588.130, 4765.982
588.612, 4764.059
589.094, 4761.019
589.576, 4752.666
590.058, 4748.905
590.541, 4754.498
591.023, 4769.019
