##NAMES=Eulytine
##RRUFFID=R060058
##IDEAL CHEMISTRY=Bi_4_(SiO_4_)_3_
##LOCALITY=Schneeberg, Saxony, Germany
##OWNER=RRUFF
##SOURCE=University of Arizona Mineral Museum
##DESCRIPTION=Pale-yellow interpenetrant tetrahedral crystals; some transmitting red color of matrix
##STATUS=The identification of this mineral is confirmed by single-crystal X-ray diffraction and chemical analysis.
##URL=rruff.info/R060058
##MEASURED CHEMISTRY=Bi_4.00_((Si_0.96_As^5+^_0.04_)_Σ=1_((O_3.96_(OH)_0.04_)_Σ=4_)_3_ ; (OH) estimated by difference and charge balance
88.41083, 3974.453
88.89294, 4321.644
89.37506, 4680.710
89.85718, 5135.266
90.33929, 5693.121
90.82141, 6344.522
91.30353, 7074.554
91.78564, 7879.734
92.26776, 8756.725
92.74988, 9707.829
93.23199, 10920.67
93.71411, 12042.61
94.19623, 13021.36
94.67834, 13818.24
95.16046, 14375.55
95.64258, 14609.92
96.12469, 14356.82
96.60681, 14116.22
97.08893, 13860.36
97.57104, 13628.92
98.05316, 13463.53
98.53528, 13379.22
99.01740, 13346.18
99.49951, 13294.67
99.98163, 13194.57
100.4637, 13124.68
100.9459, 13085.49
101.4280, 13087.59
101.9101, 13152.42
102.3922, 13267.85
102.8743, 13123.80
103.3564, 13132.62
103.8386, 13393.21
104.3207, 13705.89
104.8028, 13971.94
105.2849, 14239.25
105.7670, 14250.46
106.2491, 13748.19
106.7313, 12923.71
107.2134, 11998.20
107.6955, 10987.00
108.1776, 9928.136
108.6597, 8994.714
109.1418, 8192.158
109.6240, 7513.592
110.1061, 6950.552
110.5882, 6495.720
111.0703, 6124.507
111.5524, 5820.754
112.0345, 5585.655
112.5167, 5404.106
112.9988, 5295.401
113.4809, 5216.581
113.9630, 5143.853
114.4451, 5071.002
114.9272, 5009.917
115.4094, 4985.012
115.8915, 5019.738
116.3736, 5064.670
116.8557, 5123.839
117.3378, 5189.230
117.8199, 5249.363
118.3021, 5296.706
118.7842, 5336.180
119.2663, 5402.596
119.7484, 5507.647
120.2305, 5621.528
120.7127, 5737.552
121.1948, 5854.622
121.6769, 5969.896
122.1590, 6077.212
122.6411, 6178.432
123.1232, 6303.954
123.6054, 6469.953
124.0875, 6651.077
124.5696, 6822.961
125.0517, 6981.679
125.5338, 7139.909
126.0159, 7317.597
126.4981, 7509.406
126.9802, 7698.118
127.4623, 7871.157
127.9444, 8034.689
128.4265, 8216.610
128.9086, 8451.238
129.3907, 8667.674
129.8729, 8815.208
130.3550, 8892.574
130.8371, 8927.976
131.3192, 8946.174
131.8013, 8949.786
132.2834, 8916.465
132.7656, 8830.866
133.2477, 8711.277
133.7298, 8561.076
134.2119, 8380.075
134.6940, 8178.521
135.1761, 7975.346
135.6583, 7775.943
136.1404, 7563.591
136.6225, 7310.982
137.1046, 7054.643
137.5867, 6836.945
138.0688, 6682.453
138.5510, 6582.762
139.0331, 6477.883
139.5152, 6336.562
139.9973, 6222.323
140.4794, 6155.423
140.9615, 6126.997
141.4437, 6118.414
141.9258, 6115.615
142.4079, 6118.589
142.8900, 6131.124
143.3721, 6149.940
143.8542, 6178.478
144.3364, 6221.417
144.8185, 6277.993
145.3006, 6340.494
145.7827, 6400.683
146.2648, 6456.578
146.7469, 6519.358
147.2291, 6627.815
147.7112, 6727.949
148.1933, 6759.690
148.6754, 6706.335
149.1575, 6591.253
149.6396, 6435.488
150.1218, 6242.019
150.6039, 6032.714
151.0860, 5800.179
151.5681, 5555.297
152.0502, 5326.654
152.5324, 5128.274
153.0145, 4948.644
153.4966, 4764.930
153.9787, 4571.702
154.4608, 4391.214
154.9429, 4238.845
155.4251, 4114.135
155.9072, 4014.568
156.3893, 3952.479
156.8714, 3910.589
157.3535, 3876.974
157.8356, 3851.669
158.3178, 3828.069
158.7999, 3792.040
159.2820, 3732.082
159.7641, 3687.931
160.2462, 3689.909
160.7283, 3707.639
161.2105, 3703.697
161.6926, 3652.515
162.1747, 3570.523
162.6568, 3530.678
163.1389, 3576.120
163.6210, 3613.914
164.1032, 3611.783
164.5853, 3585.074
165.0674, 3561.964
165.5495, 3565.094
166.0316, 3595.780
166.5137, 3614.288
166.9959, 3603.013
167.4780, 3595.900
167.9601, 3612.267
168.4422, 3645.814
168.9243, 3674.260
169.4064, 3673.168
169.8886, 3631.435
170.3707, 3602.459
170.8528, 3590.996
171.3349, 3585.998
171.8170, 3584.184
172.2991, 3583.669
172.7813, 3580.409
173.2634, 3569.206
173.7455, 3548.474
174.2276, 3520.176
174.7097, 3466.705
175.1918, 3413.833
175.6740, 3391.412
176.1561, 3409.226
176.6382, 3446.025
177.1203, 3460.566
177.6024, 3436.737
178.0845, 3430.938
178.5667, 3469.428
179.0488, 3531.813
179.5309, 3580.100
180.0130, 3597.556
180.4951, 3598.050
180.9772, 3608.254
181.4594, 3619.318
181.9415, 3653.689
182.4236, 3736.784
182.9057, 3858.228
183.3878, 3967.999
183.8699, 4034.304
184.3521, 4082.746
184.8342, 4163.348
185.3163, 4291.023
185.7984, 4428.881
186.2805, 4542.375
186.7626, 4630.095
187.2448, 4728.907
187.7269, 4866.358
188.2090, 5022.006
188.6911, 5168.375
189.1732, 5290.522
189.6553, 5410.291
190.1375, 5562.150
190.6196, 5757.278
191.1017, 5948.525
191.5838, 6102.491
192.0659, 6242.594
192.5480, 6400.081
193.0302, 6589.965
193.5123, 6803.001
193.9944, 7017.466
194.4765, 7236.527
194.9586, 7450.123
195.4408, 7654.588
195.9229, 7850.881
196.4050, 8039.548
196.8871, 8216.916
197.3692, 8385.884
197.8513, 8572.638
198.3335, 8827.223
198.8156, 9038.163
199.2977, 9168.536
199.7798, 9230.449
200.2619, 9252.814
200.7440, 9258.972
201.2262, 9249.992
201.7083, 9190.737
202.1904, 9045.449
202.6725, 8877.887
203.1546, 8708.383
203.6367, 8533.466
204.1189, 8337.035
204.6010, 8099.430
205.0831, 7808.827
205.5652, 7537.865
206.0473, 7304.818
206.5294, 7072.041
207.0116, 6809.048
207.4937, 6522.094
207.9758, 6250.486
208.4579, 6041.625
208.9400, 5921.146
209.4221, 5782.877
209.9043, 5614.726
210.3864, 5441.146
210.8685, 5271.366
211.3506, 5109.642
211.8327, 4962.685
212.3148, 4841.412
212.7970, 4759.153
213.2791, 4676.468
213.7612, 4591.670
214.2433, 4507.500
214.7254, 4423.297
215.2075, 4339.929
215.6897, 4262.840
216.1718, 4201.966
216.6539, 4171.127
217.1360, 4130.158
217.6181, 4067.262
218.1002, 3998.850
218.5824, 3941.169
219.0645, 3898.987
219.5466, 3869.164
220.0287, 3848.833
220.5108, 3847.508
220.9929, 3833.590
221.4751, 3796.191
221.9572, 3745.779
222.4393, 3692.888
222.9214, 3638.982
223.4035, 3591.160
223.8856, 3567.507
224.3678, 3576.310
224.8499, 3580.814
225.3320, 3569.793
225.8141, 3548.521
226.2962, 3525.376
226.7783, 3501.500
227.2605, 3480.471
227.7426, 3470.752
228.2247, 3475.991
228.7068, 3479.194
229.1889, 3472.478
229.6710, 3458.741
230.1532, 3445.128
230.6353, 3434.020
231.1174, 3424.592
231.5995, 3415.552
232.0816, 3407.356
232.5637, 3398.327
233.0459, 3383.452
233.5280, 3365.795
234.0101, 3358.708
234.4922, 3372.328
234.9743, 3394.246
235.4564, 3403.622
235.9386, 3397.475
236.4207, 3388.168
236.9028, 3382.281
237.3849, 3379.624
237.8670, 3379.565
238.3491, 3386.135
238.8313, 3391.440
239.3134, 3382.900
239.7955, 3354.549
240.2776, 3328.775
240.7597, 3329.336
241.2418, 3354.011
241.7240, 3365.492
242.2061, 3336.417
242.6882, 3297.395
243.1703, 3284.829
243.6524, 3305.233
244.1345, 3339.967
244.6167, 3383.158
245.0988, 3435.068
245.5809, 3462.810
246.0630, 3433.182
246.5451, 3386.958
247.0272, 3366.029
247.5094, 3379.025
247.9915, 3404.326
248.4736, 3423.332
248.9557, 3435.886
249.4378, 3444.891
249.9199, 3454.663
250.4021, 3458.733
250.8842, 3447.612
251.3663, 3416.743
251.8484, 3385.179
252.3305, 3373.486
252.8126, 3383.334
253.2948, 3398.764
253.7769, 3421.283
254.2590, 3443.935
254.7411, 3460.536
255.2232, 3469.354
255.7053, 3475.971
256.1875, 3488.108
256.6696, 3507.385
257.1517, 3521.974
257.6338, 3520.328
258.1159, 3517.214
258.5981, 3522.484
259.0802, 3538.291
259.5623, 3561.792
260.0444, 3590.738
260.5265, 3625.835
261.0086, 3662.182
261.4908, 3706.352
261.9729, 3746.483
262.4550, 3771.272
262.9371, 3777.907
263.4192, 3780.871
263.9013, 3798.630
264.3835, 3834.153
264.8656, 3868.342
265.3477, 3891.718
265.8298, 3915.553
266.3119, 3948.149
266.7940, 3991.031
267.2762, 4037.457
267.7583, 4080.749
268.2404, 4121.540
268.7225, 4155.815
269.2046, 4170.251
269.6867, 4186.167
270.1689, 4220.004
270.6510, 4274.010
271.1331, 4331.231
271.6152, 4374.500
272.0973, 4403.829
272.5794, 4420.091
273.0616, 4405.855
273.5437, 4389.936
274.0258, 4392.961
274.5079, 4416.389
274.9900, 4438.202
275.4721, 4434.534
275.9543, 4402.765
276.4364, 4362.017
276.9185, 4305.067
277.4006, 4245.638
277.8827, 4192.573
278.3648, 4145.712
278.8470, 4096.795
279.3291, 4034.655
279.8112, 3956.231
280.2933, 3885.996
280.7754, 3835.073
281.2575, 3786.266
281.7397, 3731.496
282.2218, 3670.326
282.7039, 3607.393
283.1860, 3542.987
283.6681, 3475.915
284.1502, 3424.362
284.6324, 3402.183
285.1145, 3385.474
285.5966, 3366.509
286.0787, 3343.727
286.5608, 3315.695
287.0429, 3274.933
287.5251, 3221.133
288.0072, 3186.167
288.4893, 3186.029
288.9714, 3191.016
289.4535, 3186.684
289.9356, 3175.229
290.4178, 3166.092
290.8999, 3170.836
291.3820, 3188.009
291.8641, 3189.884
292.3462, 3160.835
292.8283, 3134.647
293.3105, 3128.559
293.7926, 3137.126
294.2747, 3145.713
294.7568, 3141.031
295.2389, 3127.184
295.7210, 3130.259
296.2032, 3161.592
296.6853, 3194.759
297.1674, 3218.282
297.6495, 3235.303
298.1316, 3251.971
298.6137, 3273.047
299.0959, 3296.172
299.5780, 3312.092
300.0601, 3316.426
300.5422, 3321.273
301.0243, 3326.767
301.5064, 3336.670
301.9886, 3357.385
302.4707, 3393.890
302.9528, 3441.124
303.4349, 3487.678
303.9170, 3533.790
304.3991, 3578.420
304.8813, 3624.164
305.3634, 3667.349
305.8455, 3702.062
306.3276, 3724.190
306.8097, 3740.680
307.2918, 3762.099
307.7740, 3788.360
308.2561, 3819.931
308.7382, 3856.941
309.2203, 3899.266
309.7024, 3952.279
310.1845, 4022.482
310.6667, 4086.458
311.1488, 4111.926
311.6309, 4094.461
312.1130, 4072.611
312.5951, 4055.910
313.0772, 4041.148
313.5594, 4024.521
314.0415, 4004.910
314.5236, 3987.699
315.0057, 3984.016
315.4878, 3993.485
315.9699, 3985.519
316.4521, 3933.523
316.9342, 3877.579
317.4163, 3858.985
317.8984, 3881.296
318.3805, 3903.641
318.8626, 3891.552
319.3448, 3851.588
319.8269, 3822.119
320.3090, 3810.750
320.7911, 3812.165
321.2732, 3820.764
321.7553, 3836.290
322.2375, 3856.616
322.7196, 3887.509
323.2017, 3922.736
323.6838, 3942.498
324.1659, 3938.783
324.6480, 3931.684
325.1302, 3940.069
325.6123, 3960.688
326.0944, 3981.753
326.5765, 3999.038
327.0586, 4014.207
327.5407, 4031.860
328.0229, 4053.756
328.5050, 4070.315
328.9871, 4070.440
329.4692, 4058.263
329.9513, 4046.870
330.4334, 4041.803
330.9156, 4036.645
331.3977, 4021.141
331.8798, 3995.050
332.3619, 3976.420
332.8440, 3983.892
333.3261, 4007.251
333.8083, 4007.954
334.2904, 3968.524
334.7725, 3920.883
335.2546, 3882.573
335.7367, 3852.833
336.2188, 3829.074
336.7010, 3811.374
337.1831, 3797.647
337.6652, 3781.573
338.1473, 3767.354
338.6294, 3745.447
339.1115, 3702.941
339.5937, 3650.240
340.0758, 3611.243
340.5579, 3596.450
341.0400, 3595.459
341.5221, 3587.012
342.0042, 3569.981
342.4864, 3549.589
342.9685, 3523.304
343.4506, 3495.453
343.9327, 3470.287
344.4148, 3448.949
344.8969, 3433.160
345.3791, 3426.828
345.8612, 3437.674
346.3433, 3437.334
346.8254, 3401.685
347.3075, 3370.718
347.7896, 3388.936
348.2718, 3455.268
348.7539, 3519.269
349.2360, 3527.742
349.7181, 3467.833
350.2002, 3433.151
350.6823, 3436.366
351.1645, 3448.489
351.6466, 3455.925
352.1287, 3459.803
352.6108, 3469.416
353.0929, 3493.893
353.5750, 3531.299
354.0572, 3544.469
354.5393, 3494.769
355.0214, 3463.900
355.5035, 3482.375
355.9856, 3529.057
356.4677, 3572.420
356.9499, 3596.406
357.4320, 3603.417
357.9141, 3599.849
358.3962, 3568.541
358.8783, 3551.945
359.3604, 3556.749
359.8426, 3575.706
360.3247, 3604.815
360.8068, 3641.961
361.2889, 3682.282
361.7710, 3717.279
362.2531, 3745.733
362.7353, 3772.183
363.2174, 3786.700
363.6995, 3807.182
364.1816, 3849.545
364.6637, 3912.708
365.1458, 3977.902
365.6280, 4021.861
366.1101, 4042.041
366.5922, 4079.254
367.0743, 4154.449
367.5564, 4226.203
368.0385, 4267.162
368.5207, 4287.876
369.0028, 4318.547
369.4849, 4383.446
369.9670, 4473.678
370.4491, 4553.344
370.9312, 4617.098
371.4134, 4681.676
371.8955, 4750.866
372.3776, 4826.571
372.8597, 4911.677
373.3418, 5007.230
373.8239, 5113.010
374.3061, 5228.731
374.7882, 5354.084
375.2703, 5491.325
375.7524, 5653.793
376.2345, 5821.796
376.7166, 5966.468
377.1988, 6076.921
377.6809, 6187.424
378.1630, 6316.960
378.6451, 6465.486
379.1272, 6634.904
379.6093, 6831.935
380.0915, 7042.074
380.5736, 7249.098
381.0557, 7453.958
381.5378, 7650.585
382.0199, 7826.835
382.5020, 7997.405
382.9842, 8188.943
383.4663, 8406.229
383.9484, 8621.438
384.4305, 8799.769
384.9126, 8938.846
385.3947, 9107.173
385.8769, 9336.330
386.3590, 9571.855
386.8411, 9785.025
387.3232, 9973.212
387.8053, 10133.89
388.2874, 10261.32
388.7696, 10359.60
389.2517, 10463.96
389.7338, 10603.36
390.2159, 10714.62
390.6980, 10768.39
391.1801, 10786.62
391.6623, 10802.34
392.1444, 10829.46
392.6265, 10859.48
393.1086, 10873.98
393.5907, 10867.88
394.0728, 10851.67
394.5550, 10836.90
395.0371, 10805.75
395.5192, 10748.76
396.0013, 10662.44
396.4834, 10542.34
396.9655, 10384.02
397.4477, 10185.94
397.9298, 9954.087
398.4119, 9653.627
398.8940, 9349.360
399.3761, 9076.505
399.8582, 8820.562
400.3404, 8540.151
400.8225, 8194.710
401.3046, 7806.172
401.7867, 7481.026
402.2688, 7244.887
402.7509, 7028.956
403.2331, 6811.871
403.7152, 6597.386
404.1973, 6389.301
404.6794, 6186.771
405.1615, 5995.430
405.6436, 5823.398
406.1258, 5670.216
406.6079, 5530.194
407.0900, 5403.112
407.5721, 5288.073
408.0542, 5184.579
408.5363, 5093.073
409.0185, 5003.658
409.5006, 4908.434
409.9827, 4810.993
410.4648, 4721.182
410.9469, 4640.171
411.4290, 4568.313
411.9112, 4511.341
412.3933, 4466.738
412.8754, 4420.115
413.3575, 4359.039
413.8396, 4302.085
414.3217, 4277.007
414.8039, 4278.465
415.2860, 4260.333
415.7681, 4186.117
416.2502, 4073.263
416.7323, 4008.383
417.2144, 4025.316
417.6966, 4041.787
418.1787, 4036.761
418.6608, 4016.866
419.1429, 3988.400
419.6250, 3953.242
420.1071, 3920.017
420.5893, 3903.668
421.0714, 3913.875
421.5535, 3922.413
422.0356, 3931.377
422.5177, 3937.210
422.9998, 3938.128
423.4820, 3933.726
423.9641, 3923.892
424.4462, 3908.027
424.9283, 3886.054
425.4104, 3863.145
425.8925, 3820.878
426.3747, 3799.739
426.8568, 3825.734
427.3389, 3875.001
427.8210, 3913.360
428.3031, 3924.715
428.7852, 3917.353
429.2674, 3904.735
429.7495, 3883.267
430.2316, 3869.174
430.7137, 3869.017
431.1958, 3876.887
431.6779, 3893.317
432.1601, 3918.030
432.6422, 3938.076
433.1243, 3940.742
433.6064, 3929.415
434.0885, 3920.001
434.5706, 3915.860
435.0528, 3910.830
435.5349, 3899.631
436.0170, 3883.303
436.4991, 3864.131
436.9812, 3839.702
437.4633, 3814.749
437.9455, 3794.604
438.4276, 3778.854
438.9097, 3764.396
439.3918, 3752.514
439.8739, 3738.799
440.3560, 3707.356
440.8382, 3645.599
441.3203, 3587.761
441.8024, 3548.748
442.2845, 3517.264
442.7666, 3472.777
443.2487, 3410.623
443.7309, 3352.405
444.2130, 3331.061
444.6951, 3364.640
445.1772, 3375.784
445.6593, 3349.702
446.1414, 3317.916
446.6236, 3295.813
447.1057, 3282.465
447.5878, 3270.351
448.0699, 3254.371
448.5520, 3235.128
449.0341, 3216.586
449.5163, 3200.747
449.9984, 3182.300
450.4805, 3158.544
450.9626, 3132.819
451.4447, 3106.179
451.9268, 3078.881
452.4090, 3057.996
452.8911, 3056.519
453.3732, 3075.304
453.8553, 3087.025
454.3374, 3089.961
454.8195, 3081.398
455.3017, 3051.496
455.7838, 3006.430
456.2659, 2976.089
456.7480, 2989.564
457.2301, 3019.606
457.7122, 3019.222
458.1944, 2985.462
458.6765, 2954.161
459.1586, 2948.163
459.6407, 2959.411
460.1229, 2959.701
460.6050, 2939.677
461.0871, 2922.649
461.5692, 2922.367
462.0513, 2930.563
462.5334, 2932.479
463.0156, 2923.601
463.4977, 2909.583
463.9798, 2898.176
464.4619, 2890.795
464.9440, 2881.562
465.4261, 2869.092
465.9083, 2856.159
466.3904, 2841.099
466.8725, 2826.512
467.3546, 2820.185
467.8367, 2828.911
468.3188, 2848.080
468.8010, 2853.195
469.2831, 2832.004
469.7652, 2815.596
470.2473, 2810.675
470.7294, 2811.683
471.2115, 2815.195
471.6937, 2820.021
472.1758, 2822.603
472.6579, 2817.962
473.1400, 2806.171
473.6221, 2793.803
474.1042, 2775.875
474.5864, 2765.948
475.0685, 2780.599
475.5506, 2811.100
476.0327, 2830.432
476.5148, 2822.066
476.9969, 2801.552
477.4791, 2783.366
477.9612, 2767.851
478.4433, 2761.259
478.9254, 2769.714
479.4075, 2786.225
479.8896, 2794.094
480.3718, 2792.509
480.8539, 2786.383
481.3360, 2771.134
481.8181, 2754.869
482.3002, 2747.123
482.7823, 2749.380
483.2645, 2757.888
483.7466, 2770.639
484.2287, 2789.208
484.7108, 2793.540
485.1929, 2769.540
485.6750, 2747.985
486.1572, 2735.211
486.6393, 2731.866
487.1214, 2739.581
487.6035, 2759.454
488.0856, 2784.934
488.5677, 2803.605
489.0499, 2815.189
489.5320, 2821.125
490.0141, 2819.237
490.4962, 2813.218
490.9783, 2798.876
491.4604, 2779.593
491.9426, 2771.537
492.4247, 2796.721
492.9068, 2838.302
493.3889, 2853.537
493.8710, 2836.851
494.3531, 2820.818
494.8353, 2820.743
495.3174, 2835.272
495.7995, 2860.570
496.2816, 2909.479
496.7637, 2946.326
497.2458, 2940.095
497.7280, 2913.798
498.2101, 2913.291
498.6922, 2950.726
499.1743, 2992.579
499.6564, 2996.037
500.1385, 2947.890
500.6207, 2929.250
501.1028, 2957.196
501.5849, 2993.223
502.0670, 3028.575
502.5491, 3057.919
503.0313, 3074.570
503.5134, 3074.660
503.9955, 3061.684
504.4776, 3041.055
504.9597, 3003.642
505.4418, 2981.812
505.9240, 3001.654
506.4061, 3021.311
506.8882, 3014.491
507.3703, 2980.690
507.8524, 2936.149
508.3345, 2885.898
508.8167, 2833.954
509.2988, 2790.109
509.7809, 2753.866
510.2630, 2729.748
510.7451, 2727.949
511.2272, 2738.123
511.7094, 2737.296
512.1915, 2719.842
512.6736, 2699.628
513.1557, 2681.849
513.6378, 2666.193
514.1199, 2653.701
514.6021, 2644.513
515.0842, 2633.466
515.5663, 2612.952
516.0484, 2579.219
516.5305, 2561.665
517.0126, 2576.381
517.4948, 2587.655
517.9769, 2577.776
518.4590, 2555.480
518.9411, 2533.600
519.4232, 2517.879
519.9053, 2513.233
520.3875, 2536.345
520.8696, 2602.824
521.3517, 2642.934
521.8338, 2625.162
522.3159, 2597.510
522.7980, 2584.325
523.2802, 2584.730
523.7623, 2586.840
524.2444, 2576.033
524.7265, 2565.869
525.2086, 2593.555
525.6907, 2662.065
526.1729, 2702.494
526.6550, 2666.941
527.1371, 2594.207
527.6192, 2569.729
528.1013, 2611.296
528.5834, 2648.773
529.0656, 2662.589
529.5477, 2661.565
530.0298, 2646.434
530.5119, 2621.604
530.9940, 2611.799
531.4761, 2642.974
531.9583, 2712.148
532.4404, 2747.577
532.9225, 2725.974
533.4046, 2695.300
533.8867, 2652.619
534.3688, 2609.667
534.8510, 2579.447
535.3331, 2565.516
535.8152, 2558.112
536.2973, 2548.209
536.7794, 2535.742
537.2615, 2515.546
537.7437, 2480.747
538.2258, 2448.370
538.7079, 2432.926
539.1900, 2426.891
539.6721, 2414.256
540.1542, 2385.583
540.6364, 2355.858
541.1185, 2338.934
541.6006, 2331.333
542.0827, 2321.859
542.5648, 2307.047
543.0469, 2289.262
543.5291, 2270.613
544.0112, 2248.894
544.4933, 2236.448
544.9754, 2243.295
545.4575, 2249.713
545.9396, 2245.624
546.4218, 2232.774
546.9039, 2216.055
547.3860, 2197.775
547.8681, 2178.911
548.3502, 2159.812
548.8323, 2136.074
549.3145, 2124.886
549.7966, 2148.830
550.2787, 2169.444
550.7608, 2158.496
551.2429, 2122.366
551.7250, 2094.680
552.2072, 2104.352
552.6893, 2128.194
553.1714, 2124.680
553.6535, 2093.838
554.1356, 2064.842
554.6177, 2051.444
555.0999, 2046.010
555.5820, 2030.910
556.0641, 1999.470
556.5462, 1981.113
557.0283, 1995.747
557.5104, 2015.862
557.9926, 2017.120
558.4747, 1999.594
558.9568, 1975.751
559.4389, 1953.927
559.9210, 1934.198
560.4031, 1917.023
560.8853, 1899.188
561.3674, 1889.917
561.8495, 1890.074
562.3316, 1898.355
562.8137, 1921.172
563.2958, 1955.413
563.7780, 1978.876
564.2601, 1969.104
564.7422, 1935.218
565.2243, 1900.640
565.7064, 1862.950
566.1885, 1841.747
566.6707, 1857.092
567.1528, 1891.937
567.6349, 1906.696
568.1170, 1895.319
568.5991, 1878.471
569.0812, 1858.135
569.5634, 1838.530
570.0455, 1823.416
570.5276, 1813.821
571.0097, 1812.203
571.4918, 1822.000
571.9739, 1841.643
572.4561, 1853.962
572.9382, 1858.978
573.4203, 1855.853
573.9024, 1833.298
574.3845, 1809.722
574.8666, 1806.053
575.3488, 1824.328
575.8309, 1842.757
576.3130, 1836.638
576.7951, 1813.694
577.2772, 1809.099
577.7593, 1828.277
578.2415, 1848.338
578.7236, 1857.847
579.2057, 1858.736
579.6878, 1856.196
580.1699, 1848.090
580.6520, 1841.157
581.1342, 1839.568
