##NAMES=Euxenite-(Y)
##RRUFFID=R080101
##IDEAL CHEMISTRY=(Y^3+^,Ca,Ce^3+^,U^4+^,Th^4+^)(Nb^5+^,Ta^5+^,Ti^4+^)_2_O_6_
##LOCALITY=Betafo, Madagascar
##OWNER=RRUFF
##SOURCE=Michael Scott
##DESCRIPTION=Khaki colored fragment from metamict sample R060856, after heating at T = 1000 C for 24 hours
##STATUS=The identification of this mineral has been confirmed by X-ray diffraction.
##URL=rruff.info/R080101
93.30109, 0.0000000E+00
93.78320, 4940.442
94.26532, 4923.148
94.74744, 4942.908
95.22955, 4987.589
95.71167, 5047.526
96.19379, 5079.687
96.67590, 5090.067
97.15802, 5095.045
97.64014, 5096.716
98.12225, 5094.641
98.60437, 5088.403
99.08649, 5078.905
99.56860, 5067.485
100.0507, 5055.188
100.5328, 5033.314
101.0150, 5010.248
101.4971, 4993.043
101.9792, 4982.007
102.4613, 4973.277
102.9434, 4964.245
103.4255, 4956.291
103.9077, 4950.405
104.3898, 4946.565
104.8719, 4945.295
105.3540, 4947.970
105.8361, 4955.935
106.3182, 4965.163
106.8004, 4974.219
107.2825, 4983.648
107.7646, 4993.813
108.2467, 5004.845
108.7288, 5016.523
109.2109, 5027.387
109.6931, 5034.147
110.1752, 5043.163
110.6573, 5056.102
111.1394, 5072.662
111.6215, 5091.875
112.1036, 5113.001
112.5858, 5136.466
113.0679, 5159.313
113.5500, 5180.497
114.0321, 5201.638
114.5142, 5223.678
114.9964, 5246.756
115.4785, 5270.896
115.9606, 5296.452
116.4427, 5323.263
116.9248, 5349.837
117.4069, 5373.685
117.8891, 5397.105
118.3712, 5425.759
118.8533, 5462.569
119.3354, 5502.003
119.8175, 5538.244
120.2996, 5571.708
120.7818, 5605.584
121.2639, 5641.917
121.7460, 5680.705
122.2281, 5721.453
122.7102, 5764.752
123.1923, 5809.758
123.6745, 5855.923
124.1566, 5903.260
124.6387, 5951.808
125.1208, 6002.052
125.6029, 6054.274
126.0850, 6107.744
126.5672, 6161.451
127.0493, 6216.568
127.5314, 6273.968
128.0135, 6334.278
128.4956, 6396.435
128.9777, 6458.959
129.4599, 6520.017
129.9420, 6583.109
130.4241, 6648.698
130.9062, 6716.669
131.3883, 6787.098
131.8704, 6860.584
132.3526, 6936.583
132.8347, 7012.728
133.3168, 7089.682
133.7989, 7166.398
134.2810, 7242.485
134.7632, 7318.206
135.2453, 7394.274
135.7274, 7470.450
136.2095, 7548.190
136.6916, 7630.557
137.1737, 7722.970
137.6559, 7817.213
138.1380, 7905.042
138.6201, 7985.502
139.1022, 8064.552
139.5843, 8146.679
140.0664, 8230.567
140.5486, 8313.309
141.0307, 8392.897
141.5128, 8470.861
141.9949, 8551.000
142.4770, 8636.859
142.9591, 8719.897
143.4413, 8795.714
143.9234, 8866.219
144.4055, 8935.506
144.8876, 9006.237
145.3697, 9078.304
145.8518, 9148.590
146.3340, 9218.583
146.8161, 9285.004
147.2982, 9346.659
147.7803, 9403.663
148.2624, 9456.612
148.7445, 9506.340
149.2267, 9552.165
149.7088, 9595.471
150.1909, 9638.925
150.6730, 9678.515
151.1551, 9711.276
151.6372, 9737.196
152.1194, 9758.926
152.6015, 9780.079
153.0836, 9801.603
153.5657, 9818.062
154.0478, 9828.980
154.5299, 9835.112
155.0121, 9836.491
155.4942, 9832.980
155.9763, 9826.349
156.4584, 9819.127
156.9405, 9811.809
157.4226, 9801.563
157.9048, 9787.275
158.3869, 9769.496
158.8690, 9749.424
159.3511, 9727.260
159.8332, 9702.499
160.3153, 9674.851
160.7975, 9644.424
161.2796, 9612.025
161.7617, 9577.913
162.2438, 9541.949
162.7259, 9505.051
163.2081, 9466.332
163.6902, 9427.405
164.1723, 9389.980
164.6544, 9353.908
165.1365, 9318.229
165.6186, 9281.481
166.1008, 9243.605
166.5829, 9205.784
167.0650, 9167.156
167.5471, 9129.444
168.0292, 9095.115
168.5113, 9064.522
168.9935, 9034.811
169.4756, 9000.834
169.9577, 8958.816
170.4398, 8919.535
170.9219, 8885.058
171.4040, 8852.579
171.8862, 8819.472
172.3683, 8784.810
172.8504, 8750.038
173.3325, 8718.286
173.8146, 8692.240
174.2967, 8666.747
174.7789, 8640.396
175.2610, 8614.854
175.7431, 8592.252
176.2252, 8573.359
176.7073, 8557.712
177.1894, 8544.067
177.6716, 8528.622
178.1537, 8519.213
178.6358, 8520.839
179.1179, 8529.380
179.6000, 8536.391
180.0821, 8536.888
180.5643, 8534.355
181.0464, 8539.489
181.5285, 8554.646
182.0106, 8572.402
182.4927, 8589.573
182.9748, 8606.483
183.4570, 8624.429
183.9391, 8643.445
184.4212, 8664.627
184.9033, 8688.931
185.3854, 8716.916
185.8675, 8747.145
186.3497, 8778.405
186.8318, 8810.673
187.3139, 8844.929
187.7960, 8883.188
188.2781, 8923.166
188.7602, 8961.996
189.2424, 8998.859
189.7245, 9035.362
190.2066, 9073.705
190.6887, 9114.411
191.1708, 9155.284
191.6530, 9195.172
192.1351, 9235.015
192.6172, 9275.865
193.0993, 9318.044
193.5814, 9360.798
194.0635, 9401.678
194.5457, 9438.020
195.0278, 9477.939
195.5099, 9527.393
195.9920, 9578.685
196.4741, 9623.533
196.9562, 9658.000
197.4384, 9685.970
197.9205, 9719.224
198.4026, 9763.558
198.8847, 9805.318
199.3668, 9841.778
199.8489, 9875.244
200.3311, 9908.944
200.8132, 9944.611
201.2953, 9980.725
201.7774, 10010.82
202.2595, 10031.62
202.7416, 10049.55
203.2238, 10064.36
203.7059, 10076.91
204.1880, 10089.01
204.6701, 10101.79
205.1522, 10113.95
205.6343, 10119.27
206.1165, 10115.54
206.5986, 10108.49
207.0807, 10098.74
207.5628, 10086.49
208.0449, 10072.87
208.5270, 10059.31
209.0092, 10043.60
209.4913, 10016.45
209.9734, 9972.707
210.4555, 9926.654
210.9376, 9882.714
211.4197, 9840.369
211.9019, 9797.782
212.3840, 9754.603
212.8661, 9710.657
213.3482, 9665.834
213.8303, 9620.810
214.3124, 9574.417
214.7946, 9526.170
215.2767, 9476.110
215.7588, 9425.679
216.2409, 9375.372
216.7230, 9324.909
217.2052, 9272.946
217.6873, 9219.014
218.1694, 9165.218
218.6515, 9113.837
219.1336, 9064.552
219.6157, 9014.335
220.0979, 8960.890
220.5800, 8906.330
221.0621, 8852.737
221.5442, 8800.282
222.0263, 8749.029
222.5084, 8699.480
222.9906, 8651.580
223.4727, 8603.634
223.9548, 8556.183
224.4369, 8507.957
224.9190, 8458.012
225.4011, 8405.792
225.8833, 8352.608
226.3654, 8299.079
226.8475, 8245.130
227.3296, 8192.137
227.8117, 8141.744
228.2938, 8091.581
228.7760, 8040.721
229.2581, 7988.712
229.7402, 7936.272
230.2223, 7883.902
230.7044, 7830.756
231.1865, 7780.030
231.6687, 7733.980
232.1508, 7689.061
232.6329, 7643.463
233.1150, 7596.577
233.5971, 7549.003
234.0792, 7500.725
234.5614, 7449.374
235.0435, 7403.721
235.5256, 7367.327
236.0077, 7333.216
236.4898, 7297.505
236.9719, 7259.549
237.4541, 7220.711
237.9362, 7182.771
238.4183, 7146.033
238.9004, 7110.080
239.3825, 7073.355
239.8646, 7038.519
240.3468, 7008.226
240.8289, 6982.282
241.3110, 6958.185
241.7931, 6932.247
242.2752, 6902.875
242.7573, 6876.926
243.2395, 6854.814
243.7216, 6835.204
244.2037, 6817.911
244.6858, 6802.616
245.1679, 6788.219
245.6501, 6773.579
246.1322, 6758.704
246.6143, 6743.460
247.0964, 6725.591
247.5785, 6709.000
248.0606, 6696.702
248.5428, 6688.751
249.0249, 6682.554
249.5070, 6675.584
249.9891, 6667.552
250.4712, 6661.712
250.9533, 6659.536
251.4355, 6658.292
251.9176, 6655.708
252.3997, 6651.896
252.8818, 6649.087
253.3639, 6649.271
253.8460, 6652.669
254.3282, 6656.285
254.8103, 6659.647
255.2924, 6663.587
255.7745, 6668.042
256.2566, 6673.209
256.7387, 6680.575
257.2209, 6691.524
257.7030, 6705.877
258.1851, 6720.565
258.6672, 6735.001
259.1493, 6750.129
259.6314, 6766.012
260.1136, 6782.793
260.5957, 6802.104
261.0778, 6826.510
261.5599, 6853.759
262.0420, 6877.084
262.5241, 6892.987
263.0063, 6908.991
263.4884, 6931.066
263.9705, 6958.597
264.4526, 6986.283
264.9347, 7011.257
265.4168, 7035.112
265.8990, 7060.733
266.3811, 7089.331
266.8632, 7117.752
267.3453, 7143.096
267.8274, 7165.826
268.3095, 7190.053
268.7917, 7217.841
269.2738, 7247.324
269.7559, 7275.152
270.2380, 7300.757
270.7201, 7327.748
271.2022, 7360.640
271.6844, 7398.159
272.1665, 7431.597
272.6486, 7456.595
273.1307, 7478.777
273.6128, 7504.108
274.0949, 7532.732
274.5771, 7561.555
275.0592, 7589.228
275.5413, 7615.742
276.0234, 7640.525
276.5055, 7662.900
276.9876, 7684.274
277.4698, 7705.670
277.9519, 7727.064
278.4340, 7748.640
278.9161, 7771.956
279.3982, 7795.907
279.8803, 7815.663
280.3625, 7828.884
280.8446, 7840.721
281.3267, 7855.128
281.8088, 7870.719
282.2909, 7884.264
282.7730, 7892.498
283.2552, 7897.338
283.7373, 7906.000
284.2194, 7922.062
284.7015, 7934.975
285.1836, 7939.464
285.6658, 7938.229
286.1479, 7934.813
286.6300, 7930.117
287.1121, 7924.894
287.5942, 7920.761
288.0764, 7917.619
288.5585, 7915.920
289.0406, 7915.772
289.5227, 7917.037
290.0048, 7919.857
290.4869, 7924.487
290.9691, 7930.165
291.4512, 7935.347
291.9333, 7939.410
292.4154, 7945.192
292.8975, 7955.270
293.3796, 7966.330
293.8618, 7975.454
294.3439, 7981.925
294.8260, 7988.147
295.3081, 7997.037
295.7902, 8008.737
296.2723, 8022.347
296.7545, 8039.483
297.2366, 8057.250
297.7187, 8073.922
298.2008, 8089.336
298.6829, 8104.502
299.1650, 8120.375
299.6472, 8137.070
300.1293, 8153.172
300.6114, 8167.264
301.0935, 8181.727
301.5756, 8197.747
302.0577, 8215.042
302.5399, 8232.728
303.0220, 8250.124
303.5041, 8267.214
303.9862, 8284.054
304.4683, 8300.042
304.9504, 8316.686
305.4326, 8336.203
305.9147, 8356.701
306.3968, 8374.400
306.8789, 8386.167
307.3610, 8393.966
307.8431, 8405.979
308.3253, 8424.168
308.8074, 8443.991
309.2895, 8465.638
309.7716, 8487.503
310.2537, 8507.145
310.7358, 8523.399
311.2180, 8537.832
311.7001, 8553.881
312.1822, 8572.655
312.6643, 8590.727
313.1464, 8606.150
313.6285, 8621.384
314.1107, 8638.583
314.5928, 8658.278
315.0749, 8679.317
315.5570, 8700.146
316.0391, 8720.779
316.5212, 8740.946
317.0034, 8761.547
317.4855, 8781.083
317.9676, 8798.696
318.4497, 8814.309
318.9318, 8828.254
319.4139, 8839.653
319.8961, 8847.832
320.3782, 8860.279
320.8603, 8882.969
321.3424, 8904.512
321.8245, 8920.167
322.3066, 8931.112
322.7888, 8940.997
323.2709, 8952.124
323.7530, 8964.390
324.2351, 8976.649
324.7172, 8989.123
325.1993, 9001.295
325.6815, 9013.762
326.1636, 9025.709
326.6457, 9035.748
327.1278, 9042.722
327.6099, 9048.415
328.0920, 9057.591
328.5742, 9072.295
329.0563, 9086.050
329.5384, 9098.837
330.0205, 9109.363
330.5026, 9115.046
330.9847, 9115.230
331.4669, 9114.756
331.9490, 9121.504
332.4311, 9137.885
332.9132, 9150.967
333.3953, 9154.718
333.8774, 9157.772
334.3596, 9164.828
334.8417, 9176.098
335.3238, 9188.745
335.8059, 9201.028
336.2880, 9213.035
336.7701, 9221.691
337.2523, 9221.263
337.7344, 9224.043
338.2165, 9237.978
338.6986, 9259.328
339.1807, 9279.337
339.6628, 9292.462
340.1450, 9300.154
340.6271, 9307.721
341.1092, 9314.544
341.5913, 9322.396
342.0735, 9331.401
342.5556, 9341.826
343.0377, 9354.535
343.5198, 9370.353
344.0019, 9387.077
344.4840, 9400.897
344.9662, 9411.306
345.4483, 9421.465
345.9304, 9433.293
346.4125, 9444.650
346.8946, 9453.073
347.3767, 9458.280
347.8589, 9463.920
348.3410, 9473.809
348.8231, 9487.875
349.3052, 9502.068
349.7873, 9517.361
350.2694, 9530.795
350.7516, 9540.066
351.2337, 9545.771
351.7158, 9550.372
352.1979, 9554.248
352.6800, 9558.085
353.1621, 9564.813
353.6443, 9576.316
354.1264, 9586.457
354.6085, 9589.748
355.0906, 9589.762
355.5727, 9592.095
356.0548, 9599.365
356.5370, 9608.879
357.0191, 9617.112
357.5012, 9623.927
357.9833, 9631.003
358.4654, 9639.851
358.9475, 9648.846
359.4297, 9656.294
359.9118, 9662.197
360.3939, 9666.031
360.8760, 9665.021
361.3581, 9660.713
361.8402, 9661.738
362.3224, 9672.326
362.8045, 9685.209
363.2866, 9692.453
363.7687, 9694.599
364.2508, 9696.725
364.7329, 9702.419
365.2151, 9708.821
365.6972, 9710.219
366.1793, 9705.332
366.6614, 9700.361
367.1435, 9701.128
367.6256, 9705.584
368.1078, 9707.330
368.5899, 9705.072
369.0720, 9700.277
369.5541, 9691.980
370.0362, 9681.130
370.5183, 9674.452
371.0005, 9676.495
371.4826, 9683.529
371.9647, 9686.923
372.4468, 9685.716
372.9289, 9683.860
373.4110, 9683.142
373.8932, 9682.730
374.3753, 9681.422
374.8574, 9679.014
375.3395, 9674.760
375.8216, 9666.774
376.3037, 9654.323
376.7859, 9644.481
377.2680, 9638.886
377.7501, 9635.420
378.2322, 9633.253
378.7143, 9631.902
379.1964, 9629.354
379.6786, 9623.825
380.1607, 9615.599
380.6428, 9608.237
381.1249, 9602.264
381.6070, 9596.501
382.0891, 9590.673
382.5713, 9584.756
383.0534, 9578.732
383.5355, 9572.575
384.0176, 9566.353
384.4997, 9560.042
384.9818, 9552.068
385.4640, 9546.884
385.9461, 9547.904
386.4282, 9549.755
386.9103, 9547.426
387.3924, 9540.476
387.8745, 9532.061
388.3567, 9525.463
388.8388, 9520.811
389.3209, 9517.299
389.8030, 9514.862
390.2851, 9513.409
390.7672, 9514.239
391.2494, 9515.938
391.7315, 9515.377
392.2136, 9510.478
392.6957, 9502.948
393.1778, 9499.684
393.6599, 9505.821
394.1421, 9508.937
394.6242, 9505.043
395.1063, 9499.447
395.5884, 9497.337
396.0706, 9499.790
396.5527, 9503.636
397.0348, 9504.597
397.5169, 9501.811
397.9990, 9499.402
398.4811, 9496.896
398.9633, 9495.192
399.4454, 9496.027
399.9275, 9498.069
400.4096, 9498.142
400.8917, 9493.871
401.3738, 9486.057
401.8560, 9477.873
402.3381, 9468.682
402.8202, 9460.522
403.3023, 9454.425
403.7844, 9449.389
404.2665, 9444.734
404.7487, 9440.373
405.2308, 9435.437
405.7129, 9428.345
406.1950, 9418.900
406.6771, 9410.857
407.1592, 9405.967
407.6414, 9401.678
408.1235, 9396.933
408.6056, 9391.416
409.0877, 9383.843
409.5698, 9371.769
410.0519, 9357.359
410.5341, 9345.890
411.0162, 9338.056
411.4983, 9330.995
411.9804, 9324.249
412.4625, 9316.765
412.9446, 9306.454
413.4268, 9291.475
413.9089, 9276.081
414.3910, 9264.922
414.8731, 9256.784
415.3552, 9245.391
415.8373, 9227.660
416.3195, 9207.668
416.8016, 9191.769
417.2837, 9180.135
417.7658, 9167.741
418.2479, 9152.413
418.7300, 9136.114
419.2122, 9120.733
419.6943, 9106.513
420.1764, 9093.328
420.6585, 9081.011
421.1406, 9069.688
421.6227, 9060.391
422.1049, 9055.644
422.5870, 9049.810
423.0691, 9040.909
423.5512, 9029.344
424.0333, 9015.438
424.5154, 8999.310
424.9976, 8981.958
425.4797, 8965.251
425.9618, 8948.432
426.4439, 8934.296
426.9260, 8924.187
427.4081, 8915.667
427.8903, 8908.381
428.3724, 8901.439
428.8545, 8892.274
429.3366, 8878.172
429.8187, 8859.529
430.3008, 8845.818
430.7830, 8840.800
431.2651, 8837.028
431.7472, 8835.067
432.2293, 8833.107
432.7114, 8828.753
433.1935, 8821.168
433.6757, 8812.246
434.1578, 8805.174
434.6399, 8800.428
435.1220, 8795.559
435.6041, 8789.409
436.0862, 8783.761
436.5684, 8779.926
437.0505, 8777.391
437.5326, 8774.399
438.0147, 8769.638
438.4968, 8763.520
438.9789, 8757.699
439.4611, 8752.587
439.9432, 8746.738
440.4253, 8738.827
440.9074, 8730.229
441.3895, 8722.233
441.8716, 8715.063
442.3538, 8708.913
442.8359, 8703.346
443.3180, 8698.738
443.8001, 8698.358
444.2822, 8705.434
444.7643, 8712.178
445.2465, 8709.392
445.7286, 8699.188
446.2107, 8690.478
446.6928, 8686.440
447.1749, 8684.470
447.6570, 8681.998
448.1392, 8679.075
448.6213, 8676.913
449.1034, 8676.347
449.5855, 8676.791
450.0677, 8676.646
450.5498, 8675.886
451.0319, 8674.691
451.5140, 8672.298
451.9961, 8669.843
452.4782, 8668.482
452.9604, 8668.497
453.4425, 8670.249
453.9246, 8674.648
454.4067, 8682.287
454.8888, 8686.073
455.3709, 8683.716
455.8531, 8680.766
456.3352, 8678.007
456.8173, 8676.303
457.2994, 8676.908
457.7815, 8680.427
458.2636, 8685.996
458.7458, 8692.077
459.2279, 8699.857
459.7100, 8705.652
460.1921, 8706.581
460.6742, 8708.124
461.1563, 8714.041
461.6385, 8723.746
462.1206, 8733.950
462.6027, 8742.243
463.0848, 8748.863
463.5669, 8755.324
464.0490, 8762.075
464.5312, 8767.421
465.0133, 8769.161
465.4954, 8769.997
465.9775, 8773.129
466.4596, 8779.457
466.9417, 8785.538
467.4239, 8787.339
467.9060, 8785.625
468.3881, 8785.963
468.8702, 8790.079
469.3523, 8794.618
469.8344, 8796.473
470.3166, 8796.519
470.7987, 8797.031
471.2808, 8801.505
471.7629, 8804.574
472.2450, 8800.060
472.7271, 8789.366
473.2093, 8779.485
473.6914, 8773.503
474.1735, 8769.645
474.6556, 8764.595
475.1377, 8758.437
475.6198, 8751.157
476.1020, 8742.826
476.5841, 8733.269
477.0662, 8722.293
477.5483, 8709.882
478.0304, 8695.588
478.5125, 8678.792
478.9947, 8659.876
479.4768, 8643.214
479.9589, 8633.279
480.4410, 8619.715
480.9231, 8599.623
481.4052, 8575.988
481.8874, 8551.800
482.3695, 8527.780
482.8516, 8503.318
483.3337, 8477.575
483.8158, 8450.447
484.2979, 8422.942
484.7801, 8394.110
485.2622, 8366.067
485.7443, 8341.940
486.2264, 8318.629
486.7085, 8290.628
487.1906, 8254.816
487.6728, 8216.392
488.1549, 8182.606
488.6370, 8153.769
489.1191, 8124.851
489.6012, 8094.090
490.0833, 8063.594
490.5655, 8035.827
491.0476, 8010.265
491.5297, 7983.486
492.0118, 7952.653
492.4939, 7920.682
492.9760, 7891.846
493.4582, 7865.996
493.9403, 7840.117
494.4224, 7812.300
494.9045, 7783.808
495.3866, 7758.224
495.8687, 7735.792
496.3509, 7714.610
496.8330, 7694.770
497.3151, 7675.556
497.7972, 7656.565
498.2793, 7637.596
498.7614, 7618.060
499.2436, 7597.341
499.7257, 7575.617
500.2078, 7555.188
500.6899, 7539.000
501.1720, 7520.432
501.6541, 7495.889
502.1363, 7469.706
502.6184, 7446.691
503.1005, 7427.997
503.5826, 7410.853
504.0647, 7391.294
504.5468, 7368.705
505.0290, 7350.475
505.5111, 7340.462
505.9932, 7330.139
506.4753, 7317.104
506.9575, 7301.453
507.4396, 7282.753
507.9217, 7259.975
508.4038, 7237.109
508.8859, 7219.688
509.3680, 7207.386
509.8502, 7195.186
510.3323, 7182.124
510.8144, 7168.560
511.2965, 7155.236
511.7786, 7141.947
512.2607, 7126.656
512.7429, 7106.728
513.2250, 7086.303
513.7071, 7069.251
514.1892, 7054.889
514.6713, 7039.338
515.1534, 7020.376
515.6356, 7000.677
516.1177, 6985.844
516.5998, 6979.538
517.0819, 6969.682
517.5640, 6953.338
518.0461, 6935.583
518.5283, 6919.953
519.0104, 6906.114
519.4925, 6891.826
519.9746, 6875.458
520.4567, 6857.884
520.9388, 6842.573
521.4210, 6831.484
521.9031, 6818.899
522.3852, 6802.329
522.8673, 6785.479
523.3494, 6771.304
523.8315, 6759.689
524.3137, 6748.308
524.7958, 6736.072
525.2779, 6722.624
525.7600, 6706.311
526.2421, 6686.115
526.7242, 6666.929
527.2064, 6651.392
527.6885, 6637.893
528.1706, 6624.614
528.6527, 6611.695
529.1348, 6597.889
529.6169, 6582.395
530.0991, 6565.650
530.5812, 6548.075
531.0633, 6529.761
531.5454, 6511.443
532.0275, 6493.862
532.5096, 6476.732
532.9918, 6458.377
533.4739, 6437.965
533.9560, 6417.751
534.4381, 6397.929
534.9202, 6378.672
535.4023, 6360.431
535.8845, 6343.189
536.3666, 6325.958
536.8487, 6307.935
537.3308, 6289.079
537.8129, 6269.499
538.2950, 6249.141
538.7772, 6227.962
539.2593, 6204.184
539.7414, 6180.550
540.2235, 6160.213
540.7056, 6143.984
541.1877, 6129.565
541.6699, 6115.600
542.1520, 6101.794
542.6341, 6085.714
543.1162, 6066.871
543.5983, 6046.585
544.0804, 6024.456
544.5626, 6001.811
545.0447, 5981.317
545.5268, 5964.344
546.0089, 5947.720
546.4910, 5929.491
546.9731, 5910.248
547.4553, 5891.106
547.9374, 5872.141
548.4195, 5853.761
548.9016, 5836.427
549.3837, 5820.111
549.8658, 5803.571
550.3480, 5785.361
550.8301, 5768.600
551.3122, 5755.058
551.7943, 5743.086
552.2764, 5731.117
552.7585, 5718.560
553.2407, 5704.776
553.7228, 5688.339
554.2049, 5668.913
554.6870, 5653.292
555.1691, 5645.789
555.6512, 5635.919
556.1334, 5617.001
556.6155, 5595.053
557.0976, 5578.180
557.5797, 5568.962
558.0618, 5561.529
558.5439, 5550.550
559.0261, 5536.974
559.5082, 5524.160
559.9903, 5512.695
560.4724, 5501.626
560.9545, 5490.332
561.4366, 5478.861
561.9188, 5467.322
562.4009, 5455.289
562.8830, 5443.801
563.3651, 5433.085
563.8472, 5423.182
564.3293, 5414.273
564.8115, 5406.341
565.2936, 5398.896
565.7757, 5391.431
566.2578, 5383.927
566.7399, 5377.142
567.2220, 5372.788
567.7042, 5367.059
568.1863, 5357.155
568.6684, 5346.805
569.1505, 5340.480
569.6326, 5338.856
570.1147, 5337.950
570.5969, 5333.528
571.0790, 5326.251
571.5611, 5320.519
572.0432, 5316.824
572.5253, 5313.321
573.0074, 5308.965
573.4896, 5304.280
573.9717, 5300.127
574.4538, 5296.869
574.9359, 5293.161
575.4180, 5287.099
575.9001, 5280.818
576.3823, 5277.996
576.8644, 5278.731
577.3465, 5279.153
577.8286, 5276.024
578.3107, 5270.714
578.7928, 5269.945
579.2750, 5281.227
579.7571, 5287.169
580.2392, 5283.256
580.7213, 5276.342
581.2034, 5271.020
581.6855, 5267.960
582.1677, 5266.051
582.6498, 5264.700
583.1319, 5263.614
583.6140, 5261.875
584.0961, 5259.407
584.5782, 5256.415
585.0604, 5251.817
585.5425, 5247.630
586.0246, 5245.789
586.5067, 5246.204
586.9889, 5246.977
587.4710, 5248.854
587.9531, 5249.696
588.4352, 5246.458
588.9174, 5239.648
589.3995, 5231.962
589.8816, 5224.254
