##NAMES=Euxenite-(Y)
##RRUFFID=R080101
##IDEAL CHEMISTRY=(Y^3+^,Ca,Ce^3+^,U^4+^,Th^4+^)(Nb^5+^,Ta^5+^,Ti^4+^)_2_O_6_
##LOCALITY=Betafo, Madagascar
##OWNER=RRUFF
##SOURCE=Michael Scott
##DESCRIPTION=Khaki colored fragment from metamict sample R060856, after heating at T = 1000 C for 24 hours
##STATUS=The identification of this mineral has been confirmed by X-ray diffraction.
##URL=rruff.info/R080101
90.52570, 0.0000000E+00
91.00781, 236.5776
91.48993, 225.3467
91.97205, 220.8631
92.45416, 224.8148
92.93628, 235.3924
93.41840, 248.7184
93.90051, 264.0564
94.38263, 281.9883
94.86475, 303.4860
95.34686, 328.5513
95.82898, 357.4196
96.31110, 389.1904
96.79321, 424.2072
97.27533, 465.4606
97.75745, 513.2292
98.23956, 567.2363
98.72168, 624.5840
99.20380, 684.1038
99.68591, 748.7866
100.1680, 821.6501
100.6501, 902.0690
101.1323, 990.6356
101.6144, 1086.854
102.0965, 1190.661
102.5786, 1301.773
103.0607, 1419.118
103.5428, 1545.491
104.0250, 1688.813
104.5071, 1850.508
104.9892, 2024.734
105.4713, 2208.131
105.9534, 2399.759
106.4355, 2602.194
106.9177, 2823.355
107.3998, 3055.556
107.8819, 3282.542
108.3640, 3500.214
108.8461, 3713.344
109.3282, 3927.006
109.8104, 4146.284
110.2925, 4355.505
110.7746, 4549.585
111.2567, 4729.215
111.7388, 4907.891
112.2209, 5077.847
112.7031, 5250.067
113.1852, 5434.175
113.6673, 5631.518
114.1494, 5839.586
114.6315, 6057.002
115.1136, 6285.471
115.5958, 6528.451
116.0779, 6796.986
116.5600, 7077.875
117.0421, 7355.112
117.5242, 7631.197
118.0063, 7899.426
118.4885, 8159.248
118.9706, 8410.295
119.4527, 8654.105
119.9348, 8900.326
120.4169, 9138.774
120.8990, 9354.533
121.3812, 9534.303
121.8633, 9688.878
122.3454, 9825.347
122.8275, 9944.520
123.3096, 10049.55
123.7917, 10141.16
124.2739, 10220.26
124.7560, 10290.21
125.2381, 10350.35
125.7202, 10403.40
126.2023, 10452.36
126.6844, 10496.25
127.1666, 10539.17
127.6487, 10586.28
128.1308, 10637.76
128.6129, 10692.40
129.0950, 10748.12
129.5771, 10806.25
130.0593, 10871.97
130.5414, 10946.56
131.0235, 11029.20
131.5056, 11108.01
131.9877, 11142.60
132.4698, 11129.01
132.9520, 11122.63
133.4341, 11123.18
133.9162, 11121.47
134.3983, 11114.34
134.8804, 11102.71
135.3625, 11091.82
135.8447, 11083.05
136.3268, 11072.65
136.8089, 11054.92
137.2910, 11029.34
137.7731, 11000.34
138.2552, 10969.31
138.7374, 10936.44
139.2195, 10900.12
139.7016, 10859.45
140.1837, 10815.23
140.6658, 10769.81
141.1479, 10722.23
141.6301, 10673.72
142.1122, 10624.23
142.5943, 10572.89
143.0764, 10520.96
143.5585, 10466.63
144.0406, 10411.29
144.5228, 10358.11
145.0049, 10307.53
145.4870, 10258.92
145.9691, 10212.83
146.4512, 10170.64
146.9333, 10128.02
147.4155, 10085.23
147.8976, 10041.85
148.3797, 9996.697
148.8618, 9946.574
149.3439, 9896.613
149.8260, 9850.149
150.3082, 9811.132
150.7903, 9770.556
151.2724, 9725.216
151.7545, 9674.984
152.2366, 9628.371
152.7188, 9587.154
153.2009, 9548.416
153.6830, 9510.264
154.1651, 9474.499
154.6472, 9436.806
155.1293, 9396.377
155.6115, 9352.694
156.0936, 9308.526
156.5757, 9266.605
157.0578, 9223.698
157.5399, 9176.868
158.0220, 9117.209
158.5042, 9060.690
158.9863, 9014.347
159.4684, 8979.950
159.9505, 8949.457
160.4326, 8922.082
160.9147, 8897.285
161.3969, 8874.186
161.8790, 8850.188
162.3611, 8829.514
162.8432, 8815.547
163.3253, 8811.153
163.8074, 8806.051
164.2896, 8793.087
164.7717, 8775.888
165.2538, 8761.810
165.7359, 8756.429
166.2180, 8753.791
166.7001, 8749.791
167.1823, 8744.225
167.6644, 8735.692
168.1465, 8722.817
168.6286, 8706.115
169.1107, 8687.130
169.5928, 8666.195
170.0750, 8643.706
170.5571, 8619.772
171.0392, 8594.941
171.5213, 8568.543
172.0034, 8539.537
172.4855, 8508.270
172.9677, 8476.827
173.4498, 8445.495
173.9319, 8414.852
174.4140, 8385.667
174.8961, 8357.877
175.3782, 8331.923
175.8604, 8308.816
176.3425, 8288.004
176.8246, 8265.976
177.3067, 8236.412
177.7888, 8203.524
178.2709, 8176.612
178.7531, 8160.305
179.2352, 8149.444
179.7173, 8136.378
180.1994, 8121.146
180.6815, 8106.314
181.1636, 8093.197
181.6458, 8082.151
182.1279, 8074.799
182.6100, 8072.693
183.0921, 8074.078
183.5742, 8075.396
184.0563, 8076.575
184.5385, 8078.399
185.0206, 8081.927
185.5027, 8086.849
185.9848, 8091.726
186.4669, 8096.784
186.9490, 8101.275
187.4312, 8101.415
187.9133, 8096.261
188.3954, 8092.710
188.8775, 8100.146
189.3596, 8117.532
189.8417, 8135.766
190.3239, 8150.013
190.8060, 8161.891
191.2881, 8179.384
191.7702, 8202.987
192.2523, 8229.737
192.7344, 8256.590
193.2166, 8283.507
193.6987, 8310.767
194.1808, 8339.210
194.6629, 8368.610
195.1450, 8396.062
195.6271, 8420.269
196.1093, 8445.862
196.5914, 8479.252
197.0735, 8520.547
197.5556, 8567.606
198.0377, 8621.464
198.5198, 8682.597
199.0020, 8739.944
199.4841, 8792.704
199.9662, 8843.051
200.4483, 8895.333
200.9304, 8949.666
201.4125, 9004.857
201.8947, 9061.955
202.3768, 9121.593
202.8589, 9174.613
203.3410, 9219.880
203.8231, 9260.244
204.3052, 9300.715
204.7874, 9342.396
205.2695, 9380.849
205.7516, 9415.483
206.2337, 9447.302
206.7158, 9467.752
207.1979, 9473.677
207.6801, 9471.303
208.1622, 9474.251
208.6443, 9485.177
209.1264, 9493.368
209.6085, 9493.151
210.0906, 9482.598
210.5728, 9472.178
211.0549, 9461.588
211.5370, 9451.625
212.0191, 9444.375
212.5012, 9440.066
212.9833, 9437.949
213.4655, 9438.471
213.9476, 9443.084
214.4297, 9444.737
214.9118, 9441.081
215.3939, 9435.629
215.8760, 9437.775
216.3581, 9450.517
216.8403, 9464.558
217.3224, 9474.841
217.8045, 9479.218
218.2866, 9486.528
218.7687, 9497.934
219.2508, 9511.728
219.7330, 9523.271
220.2151, 9532.104
220.6972, 9538.955
221.1793, 9543.783
221.6614, 9545.870
222.1435, 9547.434
222.6257, 9548.846
223.1078, 9549.567
223.5899, 9548.186
224.0720, 9544.476
224.5541, 9539.170
225.0362, 9532.303
225.5184, 9523.114
226.0005, 9514.966
226.4826, 9508.706
226.9647, 9503.589
227.4468, 9497.410
227.9289, 9491.572
228.4111, 9483.049
228.8932, 9469.948
229.3753, 9449.639
229.8574, 9432.014
230.3395, 9420.604
230.8216, 9411.434
231.3038, 9391.935
231.7859, 9354.525
232.2680, 9317.990
232.7501, 9291.262
233.2322, 9279.503
233.7143, 9265.639
234.1965, 9248.306
234.6786, 9228.860
235.1607, 9211.032
235.6428, 9195.545
236.1249, 9180.315
236.6070, 9163.983
237.0892, 9144.188
237.5713, 9128.190
238.0534, 9116.541
238.5355, 9108.421
239.0176, 9101.850
239.4997, 9096.563
239.9819, 9093.044
240.4640, 9091.927
240.9461, 9095.038
241.4282, 9096.373
241.9103, 9096.308
242.3924, 9094.440
242.8746, 9089.145
243.3567, 9077.068
243.8388, 9066.842
244.3209, 9061.728
244.8030, 9062.082
245.2851, 9067.172
245.7673, 9077.891
246.2494, 9093.116
246.7315, 9110.619
247.2136, 9131.313
247.6957, 9152.919
248.1778, 9174.240
248.6600, 9193.783
249.1421, 9217.737
249.6242, 9249.147
250.1063, 9283.478
250.5884, 9310.452
251.0705, 9321.894
251.5527, 9339.963
252.0348, 9374.285
252.5169, 9431.189
252.9990, 9481.955
253.4811, 9524.460
253.9632, 9562.640
254.4454, 9602.505
254.9275, 9644.061
255.4096, 9687.644
255.8917, 9734.006
256.3738, 9783.696
256.8560, 9832.131
257.3381, 9878.679
257.8202, 9924.879
258.3023, 9973.919
258.7844, 10025.28
259.2665, 10079.64
259.7487, 10138.08
260.2308, 10201.04
260.7129, 10263.04
261.1950, 10323.11
261.6771, 10382.96
262.1592, 10444.40
262.6414, 10506.03
263.1235, 10571.53
263.6056, 10642.35
264.0877, 10719.64
264.5698, 10793.84
265.0519, 10863.62
265.5341, 10931.85
266.0162, 11003.41
266.4983, 11079.56
266.9804, 11153.52
267.4625, 11223.54
267.9446, 11289.14
268.4268, 11358.33
268.9089, 11432.26
269.3910, 11505.34
269.8731, 11570.94
270.3552, 11625.96
270.8373, 11684.58
271.3195, 11752.73
271.8016, 11828.51
272.2837, 11894.23
272.7658, 11947.56
273.2479, 11997.73
273.7300, 12056.49
274.2122, 12126.47
274.6943, 12187.21
275.1764, 12231.93
275.6585, 12264.00
276.1406, 12301.93
276.6227, 12347.88
277.1049, 12392.94
277.5870, 12430.08
278.0691, 12459.05
278.5512, 12484.02
279.0333, 12506.15
279.5154, 12524.55
279.9976, 12535.44
280.4797, 12538.06
280.9618, 12536.99
281.4439, 12537.58
281.9260, 12539.88
282.4081, 12530.56
282.8903, 12505.93
283.3724, 12470.76
283.8545, 12436.16
284.3366, 12402.34
284.8187, 12366.32
285.3008, 12326.22
285.7830, 12281.95
286.2651, 12236.50
286.7472, 12189.57
287.2293, 12141.99
287.7114, 12095.48
288.1935, 12049.96
288.6757, 12003.78
289.1578, 11954.63
289.6399, 11903.39
290.1220, 11858.71
290.6041, 11822.31
291.0862, 11787.37
291.5684, 11741.85
292.0505, 11686.88
292.5326, 11635.34
293.0147, 11596.29
293.4968, 11565.48
293.9789, 11528.35
294.4611, 11484.32
294.9432, 11437.73
295.4253, 11392.34
295.9074, 11348.30
296.3895, 11307.20
296.8716, 11271.20
297.3538, 11237.94
297.8359, 11201.84
298.3180, 11162.44
298.8001, 11123.60
299.2822, 11089.87
299.7643, 11059.12
300.2465, 11026.27
300.7286, 10987.50
301.2107, 10947.13
301.6928, 10910.67
302.1749, 10878.29
302.6570, 10846.99
303.1392, 10816.17
303.6213, 10784.83
304.1034, 10751.78
304.5855, 10715.25
305.0676, 10678.17
305.5497, 10642.47
306.0319, 10608.24
306.5140, 10574.04
306.9961, 10536.69
307.4782, 10500.13
307.9603, 10469.56
308.4424, 10449.66
308.9246, 10429.63
309.4067, 10399.58
309.8888, 10362.35
310.3709, 10325.51
310.8530, 10292.95
311.3351, 10262.98
311.8173, 10235.12
312.2994, 10210.32
312.7815, 10183.31
313.2636, 10148.21
313.7457, 10109.30
314.2278, 10073.94
314.7100, 10049.56
315.1921, 10027.19
315.6742, 10000.08
316.1563, 9966.349
316.6384, 9936.726
317.1205, 9925.167
317.6027, 9918.371
318.0848, 9899.487
318.5669, 9852.665
319.0490, 9802.178
319.5311, 9756.830
320.0132, 9717.178
320.4954, 9679.342
320.9775, 9643.190
321.4596, 9608.079
321.9417, 9574.025
322.4238, 9540.910
322.9059, 9508.853
323.3881, 9479.832
323.8702, 9453.448
324.3523, 9421.964
324.8344, 9382.713
325.3165, 9339.251
325.7986, 9293.374
326.2808, 9238.975
326.7629, 9189.709
327.2450, 9148.487
327.7271, 9113.667
328.2092, 9078.538
328.6913, 9044.247
329.1735, 9008.666
329.6556, 8970.024
330.1377, 8924.780
330.6198, 8883.205
331.1019, 8848.141
331.5840, 8815.858
332.0662, 8778.105
332.5483, 8729.101
333.0304, 8682.368
333.5125, 8643.960
333.9946, 8615.643
334.4767, 8583.207
334.9589, 8544.347
335.4410, 8503.968
335.9231, 8468.971
336.4052, 8442.359
336.8873, 8413.953
337.3694, 8380.315
337.8515, 8342.191
338.3336, 8309.415
338.8158, 8282.928
339.2979, 8260.020
339.7800, 8238.578
340.2621, 8219.214
340.7442, 8198.837
341.2263, 8176.603
341.7085, 8153.584
342.1906, 8134.141
342.6727, 8118.161
343.1548, 8105.490
343.6369, 8097.061
344.1190, 8092.587
344.6012, 8086.773
345.0833, 8078.836
345.5654, 8069.596
346.0475, 8058.961
346.5296, 8047.190
347.0117, 8038.831
347.4939, 8039.833
347.9760, 8046.429
348.4581, 8044.955
348.9402, 8033.399
349.4223, 8021.540
349.9044, 8020.487
350.3866, 8028.327
350.8687, 8038.376
351.3508, 8049.287
351.8329, 8060.292
352.3150, 8069.233
352.7971, 8076.277
353.2793, 8085.176
353.7614, 8099.089
354.2435, 8116.954
354.7256, 8137.476
355.2077, 8162.584
355.6898, 8187.167
356.1720, 8204.686
356.6541, 8217.131
357.1362, 8232.901
357.6183, 8256.424
358.1004, 8285.769
358.5826, 8320.073
359.0647, 8361.034
359.5468, 8402.066
360.0289, 8439.731
360.5110, 8474.954
360.9931, 8509.640
361.4753, 8539.687
361.9574, 8572.804
362.4395, 8613.517
362.9216, 8663.086
363.4037, 8714.733
363.8858, 8768.013
364.3680, 8821.831
364.8501, 8875.272
365.3322, 8923.490
365.8143, 8975.553
366.2964, 9033.989
366.7785, 9099.115
367.2607, 9167.173
367.7428, 9237.642
368.2249, 9311.719
368.7070, 9390.537
369.1891, 9477.207
369.6712, 9563.420
370.1534, 9646.754
370.6355, 9729.645
371.1176, 9819.794
371.5997, 9918.749
372.0818, 10022.70
372.5639, 10131.24
373.0461, 10246.12
373.5282, 10360.92
374.0103, 10475.36
374.4924, 10591.89
374.9745, 10712.92
375.4566, 10839.99
375.9388, 10968.96
376.4209, 11095.81
376.9030, 11222.97
377.3851, 11359.86
377.8672, 11508.80
378.3493, 11666.17
378.8315, 11827.07
379.3136, 11993.05
379.7957, 12163.79
380.2778, 12341.58
380.7599, 12523.97
381.2420, 12708.89
381.7242, 12893.28
382.2063, 13087.03
382.6884, 13294.78
383.1705, 13515.96
383.6526, 13742.82
384.1347, 13974.02
384.6169, 14210.34
385.0990, 14442.79
385.5811, 14676.34
386.0632, 14917.29
386.5453, 15170.03
387.0274, 15432.03
387.5096, 15695.16
387.9917, 15958.30
388.4738, 16230.69
388.9559, 16517.33
389.4380, 16811.68
389.9201, 17107.62
390.4023, 17400.60
390.8844, 17694.40
391.3665, 17990.03
391.8486, 18289.90
392.3307, 18592.21
392.8128, 18899.63
393.2950, 19206.85
393.7771, 19511.52
394.2592, 19807.17
394.7413, 20113.06
395.2234, 20443.38
395.7055, 20783.57
396.1877, 21111.25
396.6698, 21413.73
397.1519, 21710.01
397.6340, 22009.00
398.1161, 22312.17
398.5982, 22607.71
399.0804, 22897.10
399.5625, 23177.73
400.0446, 23447.39
400.5267, 23703.74
401.0088, 23954.79
401.4909, 24198.41
401.9731, 24436.74
402.4552, 24674.12
402.9373, 24915.24
403.4194, 25148.38
403.9015, 25367.07
404.3836, 25568.49
404.8658, 25767.44
405.3479, 25963.88
405.8300, 26154.55
406.3121, 26334.79
406.7942, 26502.77
407.2763, 26670.66
407.7585, 26845.64
408.2406, 27024.26
408.7227, 27180.46
409.2048, 27311.13
409.6869, 27437.33
410.1690, 27578.54
410.6512, 27730.76
411.1333, 27881.53
411.6154, 28029.45
412.0975, 28173.72
412.5796, 28313.90
413.0617, 28450.77
413.5439, 28589.86
414.0260, 28740.92
414.5081, 28895.65
414.9902, 29038.79
415.4723, 29169.34
415.9544, 29298.49
416.4366, 29436.95
416.9187, 29578.67
417.4008, 29713.91
417.8829, 29844.36
418.3650, 29963.90
418.8471, 30067.50
419.3293, 30156.07
419.8114, 30241.51
420.2935, 30331.94
420.7756, 30418.41
421.2577, 30493.60
421.7398, 30560.39
422.2220, 30611.21
422.7041, 30647.47
423.1862, 30666.88
423.6683, 30665.75
424.1504, 30636.51
424.6325, 30593.52
425.1147, 30541.44
425.5968, 30480.25
426.0789, 30404.73
426.5610, 30305.36
427.0431, 30200.29
427.5252, 30106.10
428.0074, 30030.23
428.4895, 29946.97
428.9716, 29851.46
429.4537, 29748.22
429.9358, 29653.00
430.4179, 29566.85
430.9001, 29485.08
431.3822, 29406.24
431.8643, 29330.33
432.3464, 29254.70
432.8285, 29176.03
433.3106, 29108.62
433.7928, 29076.24
434.2749, 29075.29
434.7570, 29075.67
435.2391, 29069.89
435.7212, 29058.53
436.2033, 29047.22
436.6855, 29034.75
437.1676, 29006.30
437.6497, 28956.35
438.1318, 28882.51
438.6139, 28782.04
439.0960, 28655.70
439.5782, 28498.62
440.0603, 28309.67
440.5424, 28085.88
441.0245, 27825.33
441.5066, 27517.21
441.9887, 27177.75
442.4709, 26824.48
442.9530, 26456.13
443.4351, 26034.00
443.9172, 25521.68
444.3993, 24964.83
444.8814, 24403.51
445.3636, 23843.02
445.8457, 23273.91
446.3278, 22683.83
446.8099, 22086.91
447.2920, 21502.10
447.7741, 20924.83
448.2563, 20361.47
448.7384, 19823.52
449.2205, 19306.01
449.7026, 18810.26
450.1847, 18338.39
450.6668, 17893.03
451.1490, 17477.53
451.6311, 17089.26
452.1132, 16737.49
452.5953, 16420.16
453.0774, 16140.09
453.5595, 15887.91
454.0417, 15662.27
454.5238, 15468.96
455.0059, 15309.38
455.4880, 15183.79
455.9701, 15087.76
456.4522, 15022.36
456.9344, 14982.19
457.4165, 14964.01
457.8986, 14966.44
458.3807, 14985.96
458.8628, 15020.32
459.3449, 15072.54
459.8271, 15150.74
460.3092, 15251.84
460.7913, 15363.56
461.2734, 15480.37
461.7555, 15603.21
462.2376, 15732.90
462.7198, 15866.92
463.2019, 16014.80
463.6840, 16186.12
464.1661, 16370.72
464.6482, 16556.29
465.1303, 16744.29
465.6125, 16927.63
466.0946, 17100.59
466.5767, 17265.90
467.0588, 17435.37
467.5409, 17617.58
468.0230, 17797.63
468.5052, 17967.98
468.9873, 18121.67
469.4694, 18284.21
469.9515, 18461.47
470.4336, 18642.13
470.9157, 18812.17
471.3979, 18968.43
471.8800, 19122.64
472.3621, 19279.31
472.8442, 19435.76
473.3263, 19585.40
473.8084, 19727.89
474.2906, 19866.00
474.7727, 20002.10
475.2548, 20135.46
475.7369, 20262.81
476.2190, 20383.92
476.7011, 20499.24
477.1833, 20612.70
477.6654, 20722.48
478.1475, 20823.73
478.6296, 20912.84
479.1117, 20993.62
479.5938, 21070.30
480.0760, 21142.77
480.5581, 21207.55
481.0402, 21263.80
481.5223, 21311.81
482.0044, 21352.71
482.4865, 21388.19
482.9687, 21411.63
483.4508, 21423.09
483.9329, 21420.58
484.4150, 21401.19
484.8971, 21352.89
485.3792, 21299.74
485.8614, 21250.65
486.3435, 21204.34
486.8256, 21139.33
487.3077, 21054.29
487.7898, 20953.18
488.2719, 20835.00
488.7541, 20696.22
489.2362, 20559.49
489.7183, 20425.73
490.2004, 20292.75
490.6825, 20155.03
491.1646, 20011.70
491.6468, 19866.16
492.1289, 19716.12
492.6110, 19565.47
493.0931, 19413.43
493.5752, 19259.56
494.0573, 19116.89
494.5395, 18994.83
495.0216, 18889.58
495.5037, 18790.82
495.9858, 18699.60
496.4679, 18612.66
496.9500, 18526.24
497.4322, 18443.39
497.9143, 18370.68
498.3964, 18316.06
498.8785, 18267.50
499.3606, 18222.12
499.8427, 18178.27
500.3249, 18131.44
500.8070, 18079.34
501.2891, 18023.98
501.7712, 17967.76
502.2533, 17913.94
502.7354, 17851.04
503.2176, 17781.71
503.6997, 17701.20
504.1818, 17604.00
504.6639, 17485.73
505.1460, 17358.19
505.6281, 17223.13
506.1103, 17079.21
506.5924, 16926.47
507.0745, 16764.43
507.5566, 16594.57
508.0387, 16419.98
508.5208, 16240.04
509.0030, 16039.88
509.4851, 15817.44
509.9672, 15586.89
510.4493, 15363.70
510.9314, 15145.24
511.4135, 14920.78
511.8957, 14688.18
512.3778, 14452.93
512.8599, 14220.79
513.3420, 13992.09
513.8242, 13768.28
514.3063, 13542.80
514.7884, 13324.20
515.2705, 13121.45
515.7526, 12935.89
516.2347, 12756.08
516.7169, 12574.18
517.1990, 12398.24
517.6811, 12234.27
518.1632, 12084.01
518.6453, 11944.26
519.1274, 11814.11
519.6096, 11693.69
520.0917, 11585.68
520.5738, 11493.23
521.0559, 11408.21
521.5380, 11327.92
522.0201, 11252.73
522.5023, 11189.13
522.9844, 11137.02
523.4665, 11096.62
523.9486, 11069.72
524.4307, 11055.85
524.9128, 11046.47
525.3950, 11040.31
525.8771, 11040.95
526.3592, 11055.32
526.8413, 11080.93
527.3234, 11109.29
527.8055, 11134.97
528.2877, 11163.53
528.7698, 11202.95
529.2519, 11251.38
529.7340, 11302.60
530.2161, 11350.22
530.6982, 11401.16
531.1804, 11462.04
531.6625, 11533.40
532.1446, 11610.04
532.6267, 11694.86
533.1088, 11781.66
533.5909, 11863.38
534.0731, 11931.25
534.5552, 12005.19
535.0373, 12090.47
535.5194, 12182.04
536.0015, 12272.35
536.4836, 12362.29
536.9658, 12447.45
537.4479, 12524.87
537.9300, 12594.44
538.4121, 12663.28
538.8942, 12731.66
539.3763, 12795.89
539.8585, 12853.90
540.3406, 12905.26
540.8227, 12947.54
541.3048, 12980.14
541.7869, 13005.82
542.2690, 13030.96
542.7512, 13052.20
543.2333, 13061.09
543.7154, 13047.18
544.1975, 13025.39
544.6796, 13009.92
545.1617, 12997.91
545.6439, 12977.25
546.1260, 12944.64
546.6081, 12900.10
547.0902, 12841.61
547.5723, 12766.80
548.0544, 12690.24
548.5366, 12616.73
549.0187, 12540.04
549.5008, 12454.41
549.9829, 12355.30
550.4650, 12255.82
550.9471, 12158.18
551.4293, 12060.48
551.9114, 11954.33
552.3935, 11837.58
552.8756, 11723.04
553.3577, 11616.56
553.8398, 11516.29
554.3220, 11413.84
554.8041, 11308.76
555.2862, 11202.79
555.7683, 11094.55
556.2504, 10986.13
556.7325, 10878.41
557.2147, 10770.78
557.6968, 10668.13
558.1789, 10575.67
558.6610, 10490.11
559.1431, 10407.51
559.6252, 10330.52
560.1074, 10252.10
560.5895, 10166.37
561.0716, 10076.10
561.5537, 9992.504
562.0358, 9918.348
562.5179, 9849.652
563.0001, 9786.534
563.4822, 9729.887
563.9643, 9671.713
564.4464, 9610.030
564.9285, 9549.608
565.4106, 9493.380
565.8928, 9441.462
566.3749, 9392.033
566.8570, 9344.390
567.3391, 9299.370
567.8212, 9258.145
568.3033, 9220.283
568.7855, 9185.490
569.2676, 9154.067
569.7497, 9124.733
570.2318, 9095.223
570.7139, 9065.975
571.1960, 9036.506
571.6782, 9005.286
572.1603, 8974.918
572.6424, 8946.556
573.1245, 8919.740
573.6066, 8900.263
574.0887, 8899.028
574.5709, 8900.624
575.0530, 8892.843
575.5351, 8864.065
576.0172, 8840.271
576.4993, 8823.010
576.9814, 8810.681
577.4636, 8801.938
577.9457, 8799.438
578.4278, 8792.998
578.9099, 8777.793
579.3920, 8757.752
579.8741, 8749.378
580.3563, 8753.482
580.8384, 8758.662
581.3205, 8757.568
581.8026, 8752.268
582.2847, 8747.901
582.7668, 8744.528
583.2490, 8744.085
583.7311, 8749.488
584.2131, 8758.256
584.6953, 8767.219
585.1774, 8775.182
585.6595, 8784.246
586.1416, 8797.100
586.6237, 8811.371
587.1058, 8823.659
