##NAMES=Eveite
##RRUFFID=R100048
##IDEAL CHEMISTRY=Mn^2+^_2_As^5+^O_4_(OH)
##LOCALITY=Langban, Filipstad, Varmland, Sweden
##OWNER=RRUFF
##SOURCE=William W Pinch
##DESCRIPTION=Groups of very pale green (gray) crystals associated with pink akrochordite, R100028, and colorless barite, co-type (Flink 32/22). Used for structure refinement in Yang et al (2011)
##STATUS=The identification of this mineral has been confirmed by single-crystal X-ray diffraction.
##URL=rruff.info/R100048
90.01007, 0.0000000E+00
90.49219, 35.25098
90.97430, 34.12482
91.45642, 33.72552
91.93854, 34.97787
92.42065, 36.68548
92.90277, 36.98032
93.38489, 35.59698
93.86700, 33.50922
94.34912, 31.74094
94.83124, 30.25582
95.31335, 28.89470
95.79547, 27.51318
96.27759, 26.16901
96.75970, 25.03428
97.24182, 24.13018
97.72394, 23.46665
98.20605, 23.24523
98.68817, 23.54350
99.17029, 23.63756
99.65240, 22.29998
100.1345, 19.30840
100.6166, 18.41872
101.0988, 21.27068
101.5809, 27.16993
102.0630, 29.94896
102.5451, 28.54191
103.0272, 25.95525
103.5093, 26.01962
103.9915, 30.48088
104.4736, 32.97647
104.9557, 30.84340
105.4378, 22.58744
105.9199, 18.30338
106.4020, 19.92432
106.8842, 24.54352
107.3663, 27.08223
107.8484, 25.76217
108.3305, 24.39098
108.8126, 24.25657
109.2947, 25.97126
109.7769, 27.91890
110.2590, 31.58516
110.7411, 35.75081
111.2232, 36.53217
111.7053, 29.26909
112.1874, 21.83884
112.6696, 17.83285
113.1517, 20.33111
113.6338, 23.31603
114.1159, 26.59207
114.5980, 29.97294
115.0801, 32.26458
115.5623, 32.62442
116.0444, 32.03196
116.5265, 31.24806
117.0086, 29.86728
117.4907, 28.84709
117.9728, 28.78742
118.4550, 29.73295
118.9371, 30.45814
119.4192, 30.11519
119.9013, 29.30438
120.3834, 28.79622
120.8655, 28.91651
121.3477, 29.44516
121.8298, 30.36930
122.3119, 31.78290
122.7940, 33.05990
123.2761, 33.89131
123.7582, 34.26545
124.2404, 34.15638
124.7225, 32.73126
125.2046, 31.09539
125.6867, 30.76300
126.1688, 32.24741
126.6509, 34.32956
127.1331, 35.82144
127.6152, 36.79078
128.0973, 37.57433
128.5794, 37.92461
129.0615, 38.24620
129.5436, 39.67273
130.0258, 43.00526
130.5079, 46.94757
130.9900, 48.56799
131.4721, 47.85528
131.9542, 47.87434
132.4363, 51.99274
132.9185, 59.63287
133.4006, 66.82867
133.8827, 72.57304
134.3648, 77.02058
134.8469, 80.49085
135.3290, 82.56436
135.8112, 85.52383
136.2933, 92.58285
136.7754, 104.0415
137.2575, 115.2607
137.7396, 124.1184
138.2217, 130.5927
138.7039, 140.1437
139.1860, 153.6830
139.6681, 168.8972
140.1502, 182.5302
140.6323, 194.0637
141.1144, 205.3037
141.5966, 217.1517
142.0787, 229.9542
142.5608, 241.4164
143.0429, 251.0329
143.5250, 259.5735
144.0071, 268.8663
144.4893, 279.6190
144.9714, 289.8427
145.4535, 298.3255
145.9356, 303.7137
146.4177, 310.2280
146.8998, 318.0271
147.3820, 327.0166
147.8641, 337.2039
148.3462, 348.8085
148.8283, 361.2729
149.3104, 374.3763
149.7925, 386.3519
150.2747, 401.2384
150.7568, 420.6911
151.2389, 444.1880
151.7210, 465.3598
152.2031, 482.9827
152.6852, 498.8318
153.1674, 514.1984
153.6495, 526.6816
154.1316, 541.1011
154.6137, 559.7001
155.0958, 582.6066
155.5779, 602.3608
156.0601, 616.3907
156.5422, 627.7159
157.0243, 638.7414
157.5064, 650.8027
157.9885, 661.7722
158.4706, 670.6511
158.9528, 677.1487
159.4349, 683.8002
159.9170, 690.5414
160.3991, 697.9896
160.8812, 706.8594
161.3633, 718.4003
161.8455, 730.5694
162.3276, 742.5169
162.8097, 753.9020
163.2918, 765.5744
163.7739, 776.5655
164.2560, 787.2717
164.7382, 794.6993
165.2203, 804.8112
165.7024, 816.8209
166.1845, 829.8825
166.6666, 844.9060
167.1487, 857.7906
167.6309, 865.1976
168.1130, 869.0125
168.5951, 873.0621
169.0772, 879.7532
169.5593, 887.1882
170.0414, 893.9933
170.5236, 900.3538
171.0057, 905.1594
171.4878, 906.6889
171.9699, 905.8554
172.4520, 905.3923
172.9341, 907.3126
173.4163, 910.2706
173.8984, 912.5948
174.3805, 913.5156
174.8626, 914.3748
175.3447, 916.8725
175.8268, 920.6396
176.3090, 923.9998
176.7911, 924.9116
177.2732, 924.7941
177.7553, 926.0358
178.2374, 929.8110
178.7195, 934.5363
179.2017, 938.4059
179.6838, 941.4809
180.1659, 943.9729
180.6480, 945.0815
181.1301, 945.7167
181.6122, 948.1845
182.0944, 954.0930
182.5765, 961.4647
183.0586, 967.7870
183.5407, 972.9608
184.0228, 976.0433
184.5049, 974.3177
184.9871, 969.2500
185.4692, 966.2419
185.9513, 967.7117
186.4334, 972.0270
186.9155, 975.5032
187.3976, 978.0711
187.8798, 980.4435
188.3619, 983.0775
188.8440, 986.0518
189.3261, 989.7640
189.8082, 995.0189
190.2903, 1001.128
190.7725, 1005.884
191.2546, 1009.403
191.7367, 1011.302
192.2188, 1009.997
192.7009, 1005.716
193.1830, 1003.112
193.6652, 1004.696
194.1473, 1009.705
194.6294, 1013.278
195.1115, 1015.247
195.5936, 1016.363
196.0757, 1017.213
196.5579, 1017.759
197.0400, 1019.132
197.5221, 1022.316
198.0042, 1027.114
198.4863, 1030.591
198.9684, 1032.541
199.4506, 1033.603
199.9327, 1034.438
200.4148, 1034.973
200.8969, 1035.957
201.3790, 1038.208
201.8611, 1041.809
202.3433, 1043.376
202.8254, 1042.172
203.3075, 1040.076
203.7896, 1040.640
204.2717, 1044.408
204.7538, 1047.953
205.2360, 1049.665
205.7181, 1049.316
206.2002, 1048.945
206.6823, 1048.096
207.1644, 1047.750
207.6465, 1050.549
208.1287, 1057.756
208.6108, 1063.621
209.0929, 1064.656
209.5750, 1059.378
210.0571, 1057.775
210.5392, 1061.212
211.0214, 1067.147
211.5035, 1069.773
211.9856, 1067.535
212.4677, 1066.273
212.9498, 1069.158
213.4319, 1077.484
213.9140, 1084.361
214.3962, 1089.487
214.8783, 1093.300
215.3604, 1096.549
215.8425, 1098.886
216.3246, 1101.459
216.8067, 1104.990
217.2889, 1109.911
217.7710, 1113.991
218.2531, 1116.668
218.7352, 1118.716
219.2173, 1122.420
219.6994, 1129.130
220.1816, 1134.909
220.6637, 1138.031
221.1458, 1137.928
221.6279, 1136.702
222.1100, 1133.896
222.5921, 1130.206
223.0743, 1127.504
223.5564, 1126.597
224.0385, 1125.351
224.5206, 1122.766
225.0027, 1118.354
225.4848, 1113.797
225.9670, 1108.624
226.4491, 1103.541
226.9312, 1100.725
227.4133, 1102.129
227.8954, 1102.655
228.3775, 1099.500
228.8597, 1090.083
229.3418, 1083.149
229.8239, 1079.234
230.3060, 1077.665
230.7881, 1076.905
231.2702, 1077.560
231.7524, 1078.016
232.2345, 1077.531
232.7166, 1075.803
233.1987, 1073.757
233.6808, 1071.364
234.1629, 1068.681
234.6451, 1065.671
235.1272, 1061.696
235.6093, 1058.429
236.0914, 1056.778
236.5735, 1057.764
237.0556, 1058.068
237.5378, 1057.218
238.0199, 1055.871
238.5020, 1055.783
238.9841, 1057.876
239.4662, 1059.907
239.9483, 1060.916
240.4305, 1060.527
240.9126, 1059.978
241.3947, 1059.340
241.8768, 1058.498
242.3589, 1056.996
242.8410, 1053.840
243.3232, 1051.496
243.8053, 1051.323
244.2874, 1054.985
244.7695, 1056.663
245.2516, 1055.588
245.7337, 1052.844
246.2159, 1050.697
246.6980, 1048.777
247.1801, 1048.071
247.6622, 1049.449
248.1443, 1054.640
248.6264, 1056.984
249.1086, 1055.630
249.5907, 1051.891
250.0728, 1048.051
250.5549, 1042.670
251.0370, 1039.632
251.5191, 1041.336
252.0013, 1050.442
252.4834, 1055.010
252.9655, 1052.924
253.4476, 1047.511
253.9297, 1044.882
254.4118, 1045.866
254.8940, 1048.108
255.3761, 1051.186
255.8582, 1055.741
256.3403, 1058.578
256.8224, 1059.513
257.3046, 1058.894
257.7867, 1056.887
258.2688, 1052.234
258.7509, 1048.874
259.2330, 1048.507
259.7151, 1051.796
260.1973, 1054.311
260.6794, 1056.182
261.1615, 1057.140
261.6436, 1056.100
262.1257, 1051.253
262.6078, 1048.911
263.0900, 1052.186
263.5721, 1062.120
264.0542, 1067.161
264.5363, 1065.353
265.0184, 1061.026
265.5005, 1059.819
265.9827, 1062.726
266.4648, 1065.838
266.9469, 1067.952
267.4290, 1069.015
267.9111, 1070.872
268.3932, 1073.807
268.8754, 1077.064
269.3575, 1079.882
269.8396, 1082.339
270.3217, 1084.094
270.8038, 1084.587
271.2859, 1083.978
271.7681, 1085.738
272.2502, 1090.912
272.7323, 1096.301
273.2144, 1098.090
273.6965, 1095.520
274.1786, 1093.508
274.6608, 1092.893
275.1429, 1093.685
275.6250, 1096.474
276.1071, 1102.057
276.5892, 1107.365
277.0714, 1108.855
277.5535, 1106.001
278.0356, 1104.457
278.5177, 1105.682
278.9998, 1108.914
279.4819, 1110.971
279.9641, 1111.722
280.4462, 1111.985
280.9283, 1112.663
281.4104, 1113.810
281.8925, 1113.522
282.3746, 1110.773
282.8568, 1106.969
283.3389, 1106.189
283.8210, 1108.621
284.3031, 1112.558
284.7852, 1117.845
285.2673, 1124.238
285.7495, 1127.697
286.2316, 1126.440
286.7137, 1123.808
287.1958, 1128.413
287.6779, 1140.523
288.1600, 1151.021
288.6422, 1152.490
289.1243, 1146.379
289.6064, 1143.367
290.0885, 1144.758
290.5706, 1148.320
291.0527, 1151.037
291.5349, 1152.911
292.0170, 1153.807
292.4991, 1152.890
292.9812, 1150.828
293.4633, 1150.129
293.9454, 1151.055
294.4276, 1152.808
294.9097, 1154.518
295.3918, 1156.193
295.8739, 1157.829
296.3560, 1159.516
296.8381, 1161.140
297.3203, 1162.272
297.8024, 1162.841
298.2845, 1163.380
298.7666, 1164.534
299.2487, 1166.119
299.7308, 1167.623
300.2130, 1169.151
300.6951, 1170.347
301.1772, 1170.005
301.6593, 1168.141
302.1414, 1167.106
302.6235, 1169.612
303.1057, 1174.437
303.5878, 1179.098
304.0699, 1183.336
304.5520, 1186.631
305.0341, 1188.002
305.5162, 1187.624
305.9984, 1186.966
306.4805, 1186.789
306.9626, 1187.055
307.4447, 1187.934
307.9268, 1190.694
308.4089, 1192.419
308.8911, 1189.302
309.3732, 1182.462
309.8553, 1176.541
310.3374, 1173.982
310.8195, 1173.795
311.3016, 1175.374
311.7838, 1179.432
312.2659, 1183.410
312.7480, 1185.651
313.2301, 1186.510
313.7122, 1186.904
314.1943, 1187.259
314.6765, 1187.337
315.1586, 1186.758
315.6407, 1185.135
316.1228, 1184.087
316.6049, 1183.650
317.0870, 1184.406
317.5692, 1187.289
318.0513, 1196.569
318.5334, 1204.846
319.0155, 1207.792
319.4976, 1204.329
319.9797, 1200.969
320.4619, 1200.010
320.9440, 1200.185
321.4261, 1200.085
321.9082, 1198.532
322.3903, 1197.436
322.8724, 1197.642
323.3546, 1199.202
323.8367, 1200.475
324.3188, 1201.666
324.8009, 1202.209
325.2830, 1201.670
325.7651, 1198.416
326.2473, 1195.892
326.7294, 1195.108
327.2115, 1195.803
327.6936, 1195.760
328.1757, 1193.799
328.6578, 1191.869
329.1400, 1190.939
329.6221, 1191.964
330.1042, 1192.703
330.5863, 1193.114
331.0684, 1193.211
331.5505, 1192.992
332.0327, 1191.723
332.5148, 1190.953
332.9969, 1191.337
333.4790, 1193.210
333.9611, 1195.214
334.4432, 1197.255
334.9254, 1199.476
335.4075, 1202.226
335.8896, 1206.087
336.3717, 1209.371
336.8538, 1211.600
337.3359, 1212.792
337.8180, 1212.642
338.3001, 1210.143
338.7823, 1207.865
339.2644, 1209.285
339.7465, 1215.443
340.2286, 1220.761
340.7107, 1223.625
341.1928, 1224.470
341.6750, 1226.107
342.1571, 1228.692
342.6392, 1231.514
343.1213, 1234.128
343.6034, 1236.503
344.0855, 1238.451
344.5677, 1239.788
345.0498, 1240.790
345.5319, 1242.304
346.0140, 1244.362
346.4961, 1245.967
346.9782, 1246.393
347.4604, 1245.803
347.9425, 1244.684
348.4246, 1242.839
348.9067, 1241.241
349.3888, 1241.446
349.8709, 1243.247
350.3531, 1245.441
350.8352, 1247.707
351.3173, 1249.900
351.7994, 1252.079
352.2815, 1254.327
352.7636, 1255.469
353.2458, 1253.401
353.7279, 1249.378
354.2100, 1246.105
354.6921, 1244.474
355.1742, 1244.159
355.6563, 1245.010
356.1385, 1246.973
356.6206, 1249.550
357.1027, 1254.640
357.5848, 1259.316
358.0669, 1259.803
358.5490, 1252.392
359.0312, 1244.601
359.5133, 1240.872
359.9954, 1240.558
360.4775, 1241.565
360.9596, 1244.640
361.4417, 1247.537
361.9239, 1248.240
362.4060, 1245.174
362.8881, 1243.627
363.3702, 1248.129
363.8523, 1254.913
364.3344, 1258.203
364.8166, 1252.848
365.2987, 1246.859
365.7808, 1242.895
366.2629, 1241.055
366.7450, 1241.377
367.2271, 1246.403
367.7093, 1252.376
368.1914, 1255.992
368.6735, 1254.311
369.1556, 1253.231
369.6377, 1253.790
370.1198, 1255.795
370.6020, 1257.629
371.0841, 1260.001
371.5662, 1261.547
372.0483, 1261.339
372.5304, 1257.548
373.0125, 1255.642
373.4947, 1257.469
373.9768, 1260.639
374.4589, 1258.956
374.9410, 1249.703
375.4231, 1241.165
375.9052, 1236.802
376.3874, 1237.256
376.8695, 1236.705
377.3516, 1234.859
377.8337, 1232.494
378.3158, 1230.478
378.7979, 1228.832
379.2801, 1227.467
379.7622, 1226.837
380.2443, 1226.416
380.7264, 1222.493
381.2085, 1214.343
381.6906, 1207.968
382.1728, 1210.057
382.6549, 1219.219
383.1370, 1226.479
383.6191, 1230.220
384.1012, 1231.680
384.5833, 1232.625
385.0655, 1233.074
385.5476, 1233.196
386.0297, 1232.102
386.5118, 1230.988
386.9939, 1232.541
387.4760, 1237.313
387.9582, 1242.369
388.4403, 1244.810
388.9224, 1245.532
389.4045, 1246.390
389.8866, 1247.691
390.3687, 1249.790
390.8509, 1253.104
391.3330, 1257.562
391.8151, 1262.617
392.2972, 1269.045
392.7793, 1275.354
393.2614, 1279.953
393.7436, 1280.536
394.2257, 1281.966
394.7078, 1287.203
395.1899, 1294.925
395.6720, 1301.661
396.1541, 1306.153
396.6363, 1309.557
397.1184, 1312.127
397.6005, 1313.347
398.0826, 1315.498
398.5647, 1318.864
399.0468, 1323.369
399.5290, 1328.924
400.0111, 1339.175
400.4932, 1346.500
400.9753, 1348.663
401.4574, 1345.682
401.9395, 1343.520
402.4217, 1341.427
402.9038, 1340.887
403.3859, 1343.408
403.8680, 1351.422
404.3501, 1356.545
404.8322, 1357.332
405.3144, 1355.262
405.7965, 1354.059
406.2786, 1353.732
406.7607, 1354.211
407.2428, 1355.857
407.7249, 1358.741
408.2071, 1360.349
408.6892, 1360.374
409.1713, 1360.042
409.6534, 1360.414
410.1355, 1361.544
410.6176, 1364.671
411.0998, 1371.340
411.5819, 1379.502
412.0640, 1383.735
412.5461, 1384.138
413.0282, 1384.130
413.5103, 1385.630
413.9925, 1388.662
414.4746, 1393.751
414.9567, 1401.635
415.4388, 1409.681
415.9209, 1414.725
416.4030, 1417.786
416.8852, 1421.543
417.3673, 1429.047
417.8494, 1436.623
418.3315, 1440.511
418.8136, 1440.415
419.2957, 1440.985
419.7779, 1445.437
420.2600, 1451.579
420.7421, 1457.141
421.2242, 1461.163
421.7063, 1464.900
422.1884, 1468.583
422.6706, 1472.297
423.1527, 1476.496
423.6348, 1481.526
424.1169, 1486.839
424.5990, 1492.022
425.0811, 1496.018
425.5633, 1502.261
426.0454, 1512.558
426.5275, 1524.406
427.0096, 1534.818
427.4917, 1543.297
427.9738, 1550.955
428.4560, 1557.741
428.9381, 1563.758
429.4202, 1570.124
429.9023, 1576.704
430.3844, 1583.706
430.8665, 1591.459
431.3487, 1600.232
431.8308, 1607.955
432.3129, 1614.197
432.7950, 1619.595
433.2771, 1625.137
433.7592, 1630.749
434.2414, 1636.894
434.7235, 1644.938
435.2056, 1653.819
435.6877, 1658.742
436.1698, 1659.475
436.6519, 1658.903
437.1341, 1660.184
437.6162, 1662.407
438.0983, 1663.214
438.5804, 1661.847
439.0625, 1658.996
439.5446, 1655.065
440.0268, 1650.234
440.5089, 1645.126
440.9910, 1640.214
441.4731, 1635.160
441.9552, 1629.989
442.4373, 1625.072
442.9195, 1618.266
443.4016, 1607.329
443.8837, 1594.285
444.3658, 1581.590
444.8479, 1570.725
445.3300, 1559.562
445.8122, 1546.240
446.2943, 1531.352
446.7764, 1519.150
447.2585, 1513.761
447.7406, 1508.514
448.2227, 1499.776
448.7049, 1484.524
449.1870, 1471.705
449.6691, 1462.156
450.1512, 1454.684
450.6333, 1447.806
451.1154, 1442.033
451.5976, 1435.574
452.0797, 1427.627
452.5618, 1418.346
453.0439, 1410.641
453.5260, 1404.943
454.0081, 1399.917
454.4903, 1394.253
454.9724, 1388.024
455.4545, 1383.203
455.9366, 1380.091
456.4187, 1378.448
456.9008, 1378.282
457.3830, 1379.466
457.8651, 1381.016
458.3472, 1384.202
458.8293, 1386.926
459.3114, 1383.623
459.7935, 1374.387
460.2757, 1366.739
460.7578, 1368.606
461.2399, 1375.314
461.7220, 1380.314
462.2041, 1381.271
462.6862, 1381.293
463.1684, 1382.092
463.6505, 1383.486
464.1326, 1385.052
464.6147, 1385.581
465.0968, 1387.081
465.5789, 1391.107
466.0611, 1398.184
466.5432, 1404.282
467.0253, 1407.910
467.5074, 1410.532
467.9895, 1413.355
468.4716, 1417.084
468.9538, 1420.198
469.4359, 1421.748
469.9180, 1422.612
470.4001, 1426.066
470.8822, 1434.378
471.3643, 1441.230
471.8465, 1443.561
472.3286, 1440.839
472.8107, 1439.669
473.2928, 1440.665
473.7749, 1441.817
474.2570, 1440.914
474.7392, 1437.976
475.2213, 1434.311
475.7034, 1430.527
476.1855, 1425.790
476.6676, 1417.289
477.1497, 1405.424
477.6319, 1394.460
478.1140, 1387.113
478.5961, 1382.143
479.0782, 1377.743
479.5603, 1373.816
480.0424, 1369.952
480.5246, 1366.739
481.0067, 1363.113
481.4888, 1357.447
481.9709, 1346.346
482.4530, 1336.331
482.9352, 1331.754
483.4173, 1331.158
483.8994, 1329.936
484.3815, 1324.662
484.8636, 1319.939
485.3457, 1318.473
485.8279, 1321.673
486.3100, 1323.418
486.7921, 1321.908
487.2742, 1319.435
487.7563, 1317.914
488.2384, 1317.239
488.7206, 1317.851
489.2027, 1320.602
489.6848, 1324.556
490.1669, 1325.983
490.6490, 1323.986
491.1311, 1322.178
491.6133, 1322.125
492.0954, 1323.816
492.5775, 1327.283
493.0596, 1332.945
493.5417, 1338.562
494.0238, 1341.359
494.5060, 1341.871
494.9881, 1342.117
495.4702, 1341.538
495.9523, 1342.599
496.4344, 1350.813
496.9165, 1364.313
497.3987, 1376.044
497.8808, 1380.645
498.3629, 1382.567
498.8450, 1385.979
499.3271, 1391.270
499.8092, 1396.772
500.2914, 1401.600
500.7735, 1406.214
501.2556, 1411.184
501.7377, 1416.672
502.2198, 1422.390
502.7019, 1428.706
503.1841, 1435.247
503.6662, 1441.063
504.1483, 1446.579
504.6304, 1450.909
505.1125, 1453.299
505.5946, 1453.500
506.0768, 1455.356
506.5589, 1460.009
507.0410, 1464.643
507.5231, 1466.475
508.0052, 1464.848
508.4873, 1465.222
508.9695, 1469.077
509.4516, 1473.803
509.9337, 1474.571
510.4158, 1471.484
510.8979, 1466.468
511.3800, 1459.337
511.8622, 1451.116
512.3443, 1444.481
512.8264, 1439.357
513.3085, 1433.462
513.7906, 1423.790
514.2728, 1412.802
514.7549, 1404.014
515.2370, 1398.832
515.7191, 1393.634
516.2012, 1385.677
516.6833, 1376.368
517.1655, 1367.742
517.6476, 1359.989
518.1297, 1353.520
518.6118, 1349.185
519.0939, 1346.741
519.5760, 1343.413
520.0582, 1337.879
520.5403, 1332.279
521.0224, 1327.423
521.5045, 1322.980
521.9866, 1320.381
522.4688, 1320.857
522.9509, 1321.795
523.4330, 1319.356
523.9151, 1312.592
524.3972, 1307.818
524.8793, 1307.087
525.3615, 1308.629
525.8436, 1307.717
526.3257, 1304.370
526.8078, 1300.608
527.2899, 1296.767
527.7720, 1293.471
528.2542, 1292.989
528.7363, 1295.531
529.2184, 1297.487
529.7005, 1294.633
530.1826, 1289.699
530.6647, 1286.500
531.1469, 1287.135
531.6290, 1288.030
532.1111, 1286.666
532.5932, 1284.178
533.0753, 1282.883
533.5574, 1284.909
534.0396, 1286.811
534.5217, 1287.536
535.0038, 1286.992
535.4859, 1285.487
535.9680, 1281.883
536.4501, 1278.444
536.9323, 1276.622
537.4144, 1277.297
537.8965, 1276.873
538.3786, 1274.613
538.8607, 1272.161
539.3428, 1272.538
539.8250, 1276.029
540.3071, 1278.523
540.7892, 1278.402
541.2713, 1276.900
541.7534, 1277.789
542.2355, 1280.732
542.7177, 1282.045
543.1998, 1277.374
543.6819, 1270.325
544.1640, 1266.523
544.6461, 1266.445
545.1282, 1267.840
545.6104, 1270.468
546.0925, 1273.154
546.5746, 1274.490
547.0567, 1272.677
547.5388, 1271.420
548.0209, 1273.076
548.5031, 1276.110
548.9852, 1277.176
549.4673, 1273.313
549.9494, 1270.028
550.4315, 1268.952
550.9136, 1270.075
551.3958, 1270.330
551.8779, 1268.746
552.3600, 1267.941
552.8421, 1270.159
553.3242, 1275.903
553.8063, 1279.900
554.2885, 1281.844
554.7706, 1282.275
555.2527, 1281.485
555.7348, 1279.647
556.2169, 1277.828
556.6990, 1276.318
557.1812, 1275.051
557.6633, 1273.605
558.1454, 1272.234
558.6275, 1271.899
559.1096, 1274.709
559.5917, 1277.719
560.0739, 1277.574
560.5560, 1273.984
561.0381, 1272.459
561.5202, 1278.630
562.0023, 1285.673
562.4844, 1288.380
562.9666, 1281.572
563.4487, 1277.133
563.9308, 1277.266
564.4129, 1279.414
564.8950, 1279.475
565.3771, 1275.900
565.8593, 1273.704
566.3414, 1274.115
566.8235, 1276.734
567.3056, 1280.624
567.7877, 1286.180
568.2698, 1289.890
568.7520, 1287.286
569.2341, 1280.848
569.7162, 1281.694
570.1983, 1290.639
570.6804, 1298.974
571.1625, 1296.884
571.6447, 1289.139
572.1268, 1283.470
572.6089, 1282.313
573.0910, 1282.257
573.5731, 1281.306
574.0552, 1279.916
574.5374, 1278.855
575.0195, 1277.865
575.5016, 1277.795
575.9837, 1279.671
576.4658, 1283.232
576.9479, 1285.195
577.4301, 1283.965
577.9122, 1282.957
578.3943, 1284.037
578.8764, 1287.983
579.3585, 1289.325
579.8406, 1287.248
580.3228, 1284.378
580.8049, 1283.383
581.2870, 1284.175
581.7691, 1285.430
582.2512, 1287.023
582.7333, 1288.691
583.2155, 1290.047
583.6975, 1291.120
584.1796, 1292.111
