##NAMES=Eveite
##RRUFFID=R100048
##IDEAL CHEMISTRY=Mn^2+^_2_As^5+^O_4_(OH)
##LOCALITY=Langban, Filipstad, Varmland, Sweden
##OWNER=RRUFF
##SOURCE=William W Pinch
##DESCRIPTION=Groups of very pale green (gray) crystals associated with pink akrochordite, R100028, and colorless barite, co-type (Flink 32/22). Used for structure refinement in Yang et al (2011)
##STATUS=The identification of this mineral has been confirmed by single-crystal X-ray diffraction.
##URL=rruff.info/R100048
91.53320, 278.5941
92.01532, 279.3961
92.49744, 279.0580
92.97955, 281.5675
93.46167, 283.1457
93.94379, 280.9761
94.42590, 276.2276
94.90802, 270.7001
95.39014, 265.7760
95.87225, 261.7254
96.35437, 257.2870
96.83649, 251.5325
97.31860, 245.5447
97.80072, 240.4983
98.28284, 236.8673
98.76495, 234.1147
99.24707, 230.8594
99.72919, 226.5512
100.2113, 222.4284
100.6934, 217.9839
101.1755, 213.8166
101.6577, 211.1999
102.1398, 211.5127
102.6219, 215.6546
103.1040, 217.8314
103.5861, 216.4458
104.0682, 214.9053
104.5504, 215.9680
105.0325, 219.6783
105.5146, 223.0308
105.9967, 221.4606
106.4788, 212.2801
106.9609, 204.8902
107.4431, 200.3699
107.9252, 197.7233
108.4073, 195.7263
108.8894, 194.0338
109.3715, 192.7273
109.8536, 191.9569
110.3358, 191.7090
110.8179, 191.7460
111.3000, 192.4729
111.7821, 193.7263
112.2642, 193.7753
112.7463, 190.6097
113.2285, 186.7132
113.7106, 184.5624
114.1927, 184.7512
114.6748, 186.2598
115.1569, 187.7031
115.6390, 188.8772
116.1212, 190.5871
116.6033, 194.3621
117.0854, 198.2635
117.5675, 199.9880
118.0496, 198.0895
118.5317, 193.6418
119.0139, 191.8563
119.4960, 196.3249
119.9781, 199.8369
120.4602, 200.6779
120.9423, 199.6477
121.4244, 198.2274
121.9066, 197.4975
122.3887, 197.4741
122.8708, 198.0215
123.3529, 200.0070
123.8350, 201.6765
124.3171, 201.8675
124.7993, 200.7020
125.2814, 199.4810
125.7635, 199.6953
126.2456, 201.8364
126.7277, 202.5369
127.2098, 199.6936
127.6920, 196.3029
128.1741, 196.1672
128.6562, 200.5377
129.1383, 205.7048
129.6204, 206.1053
130.1025, 202.3035
130.5847, 199.6868
131.0668, 201.5255
131.5489, 206.5104
132.0310, 209.8808
132.5131, 209.4107
132.9952, 208.4251
133.4774, 209.9750
133.9595, 214.0973
134.4416, 218.7573
134.9237, 222.6034
135.4058, 225.7900
135.8879, 227.1673
136.3701, 224.8788
136.8522, 221.7211
137.3343, 219.6048
137.8164, 218.9266
138.2985, 218.1447
138.7806, 214.2979
139.2628, 204.8269
139.7449, 196.8755
140.2270, 191.9265
140.7091, 188.1462
141.1912, 183.7122
141.6733, 177.8287
142.1555, 171.1979
142.6376, 166.3405
143.1197, 164.6700
143.6018, 163.3483
144.0839, 162.1182
144.5660, 161.0525
145.0482, 160.3751
145.5303, 160.2763
146.0124, 160.6297
146.4945, 160.4719
146.9766, 159.3537
147.4587, 158.2869
147.9409, 157.9374
148.4230, 158.1210
148.9051, 157.9417
149.3872, 156.6295
149.8693, 154.3661
150.3514, 152.5349
150.8336, 150.8317
151.3157, 149.7685
151.7978, 150.1889
152.2799, 152.3285
152.7620, 154.3840
153.2441, 155.2760
153.7263, 155.1407
154.2084, 153.8682
154.6905, 149.8910
155.1726, 144.9617
155.6547, 143.3162
156.1368, 146.6403
156.6190, 150.3438
157.1011, 152.0001
157.5832, 152.1821
158.0653, 151.9833
158.5474, 152.1450
159.0295, 152.5999
159.5117, 152.4062
159.9938, 150.3992
160.4759, 148.8936
160.9580, 149.0668
161.4401, 150.5055
161.9222, 152.0392
162.4044, 152.5368
162.8865, 151.7351
163.3686, 151.4589
163.8507, 152.7624
164.3328, 153.6615
164.8149, 152.7624
165.2971, 150.3091
165.7792, 147.8351
166.2613, 147.1367
166.7434, 148.8409
167.2255, 150.7751
167.7076, 154.6998
168.1898, 157.6915
168.6719, 156.7452
169.1540, 151.5557
169.6361, 145.3904
170.1182, 143.0341
170.6003, 146.7860
171.0825, 148.6429
171.5646, 146.4844
172.0467, 142.9468
172.5288, 141.1880
173.0109, 142.2189
173.4930, 144.4415
173.9752, 145.1149
174.4573, 144.0042
174.9394, 143.4289
175.4215, 144.7776
175.9036, 147.1442
176.3857, 148.4853
176.8679, 148.1240
177.3500, 146.6246
177.8321, 144.2815
178.3142, 140.8321
178.7963, 138.7409
179.2784, 140.6454
179.7606, 145.9420
180.2427, 149.5446
180.7248, 149.3562
181.2069, 147.4803
181.6890, 145.3632
182.1711, 143.0559
182.6533, 141.5972
183.1354, 142.5582
183.6175, 146.3670
184.0996, 149.2012
184.5817, 149.6897
185.0638, 149.1902
185.5460, 148.0716
186.0281, 146.4616
186.5102, 144.9140
186.9923, 144.2282
187.4744, 144.6360
187.9565, 145.3469
188.4387, 146.2794
188.9208, 147.4160
189.4029, 148.7820
189.8850, 150.3832
190.3671, 152.1298
190.8492, 153.9434
191.3314, 156.2475
191.8135, 157.8234
192.2956, 158.9290
192.7777, 159.2239
193.2598, 158.0040
193.7419, 155.0525
194.2241, 151.3047
194.7062, 149.0154
195.1883, 149.2619
195.6704, 149.9207
196.1525, 151.5262
196.6346, 153.3353
197.1168, 154.3126
197.5989, 153.9713
198.0810, 152.9354
198.5631, 153.0520
199.0452, 155.3827
199.5273, 157.3785
200.0095, 158.7966
200.4916, 159.6009
200.9737, 159.5942
201.4558, 158.5472
201.9379, 156.9097
202.4200, 156.0250
202.9022, 156.3963
203.3843, 156.4964
203.8664, 155.1265
204.3485, 152.9734
204.8306, 152.0554
205.3127, 153.5428
205.7949, 156.4944
206.2770, 158.7709
206.7591, 160.3571
207.2412, 161.4408
207.7233, 162.0746
208.2054, 162.2770
208.6876, 162.0936
209.1697, 161.2667
209.6518, 160.2615
210.1339, 159.6938
210.6160, 159.5736
211.0981, 159.9353
211.5803, 161.1572
212.0624, 163.2417
212.5445, 164.7567
213.0266, 164.6160
213.5087, 164.0008
213.9908, 163.9458
214.4730, 164.6068
214.9551, 165.7858
215.4372, 167.5324
215.9193, 170.0419
216.4014, 171.9446
216.8836, 172.4470
217.3657, 172.4038
217.8478, 172.1532
218.3299, 171.7634
218.8120, 171.5969
219.2941, 172.2644
219.7763, 174.0591
220.2584, 175.7231
220.7405, 177.3777
221.2226, 178.6321
221.7047, 179.3815
222.1868, 179.5621
222.6690, 178.8084
223.1511, 176.0949
223.6332, 169.6029
224.1153, 165.3735
224.5974, 165.5774
225.0795, 166.8598
225.5617, 166.9438
226.0438, 165.1568
226.5259, 162.2006
227.0080, 159.1893
227.4901, 155.8462
227.9722, 153.0332
228.4544, 151.0445
228.9365, 149.3522
229.4186, 147.4195
229.9007, 145.1509
230.3828, 143.0399
230.8649, 142.0171
231.3471, 143.1218
231.8292, 143.6919
232.3113, 143.0926
232.7934, 142.3713
233.2755, 142.5555
233.7576, 143.8747
234.2398, 145.5979
234.7219, 146.5263
235.2040, 146.4434
235.6861, 145.7626
236.1682, 143.7812
236.6503, 141.5915
237.1325, 140.2050
237.6146, 139.8864
238.0967, 140.1889
238.5788, 140.5085
239.0609, 140.9636
239.5430, 141.1076
240.0252, 140.7305
240.5073, 140.1292
240.9894, 139.5362
241.4715, 139.0060
241.9536, 138.6047
242.4357, 138.4215
242.9179, 138.4704
243.4000, 138.7148
243.8821, 139.3689
244.3642, 140.1188
244.8463, 140.8166
245.3284, 141.4661
245.8106, 141.5397
246.2927, 140.0510
246.7748, 136.9171
247.2569, 134.4390
247.7390, 132.8923
248.2211, 132.1947
248.7033, 132.7159
249.1854, 134.7077
249.6675, 136.3934
250.1496, 135.7856
250.6317, 133.1677
251.1138, 130.0723
251.5960, 124.9328
252.0781, 120.2546
252.5602, 120.2716
253.0423, 126.1350
253.5244, 132.2267
254.0065, 132.8563
254.4887, 129.7109
254.9708, 127.1718
255.4529, 126.4379
255.9350, 126.8694
256.4171, 127.8188
256.8992, 129.4104
257.3813, 130.8606
257.8635, 131.8290
258.3456, 132.2585
258.8277, 131.8287
259.3098, 129.6946
259.7919, 127.0967
260.2740, 125.8587
260.7562, 126.1697
261.2383, 127.0221
261.7204, 128.5613
262.2025, 130.1291
262.6846, 130.6762
263.1667, 129.1777
263.6489, 127.4146
264.1310, 128.5797
264.6131, 133.6491
265.0952, 137.3882
265.5773, 135.9042
266.0594, 132.4873
266.5416, 130.0646
267.0237, 129.4803
267.5058, 129.9522
267.9879, 130.4675
268.4700, 130.9623
268.9521, 131.8025
269.4343, 133.5370
269.9164, 135.4583
270.3985, 136.9500
270.8806, 137.8309
271.3627, 138.6206
271.8448, 140.2338
272.3270, 143.0203
272.8091, 144.8313
273.2912, 144.1363
273.7733, 142.9137
274.2554, 142.4634
274.7375, 142.9817
275.2197, 143.5488
275.7018, 142.8980
276.1839, 140.7381
276.6660, 139.2733
277.1481, 139.6415
277.6302, 140.2040
278.1124, 140.1958
278.5945, 139.5574
279.0766, 138.6510
279.5587, 137.5858
280.0408, 136.2397
280.5229, 135.8251
281.0051, 137.7958
281.4872, 139.5391
281.9693, 139.9028
282.4514, 139.0201
282.9335, 137.6476
283.4156, 136.1690
283.8978, 134.5616
284.3799, 133.9223
284.8620, 135.0734
285.3441, 136.4501
285.8262, 137.6241
286.3083, 138.6013
286.7905, 139.4568
287.2726, 140.1394
287.7547, 140.7220
288.2368, 142.0151
288.7189, 145.8147
289.2010, 148.0873
289.6832, 146.6776
290.1653, 143.3111
290.6474, 140.5610
291.1295, 139.9391
291.6116, 140.9832
292.0938, 141.8823
292.5759, 142.7536
293.0580, 143.2600
293.5401, 143.1446
294.0222, 142.7458
294.5043, 142.3786
294.9865, 142.1754
295.4686, 142.1834
295.9507, 142.5608
296.4328, 143.6138
296.9149, 144.4958
297.3970, 144.6781
297.8792, 144.9001
298.3613, 145.9724
298.8434, 148.0941
299.3255, 150.5606
299.8076, 152.1595
300.2897, 152.4406
300.7719, 152.8434
301.2540, 153.9190
301.7361, 154.7795
302.2182, 154.3093
302.7003, 152.6278
303.1824, 151.3401
303.6646, 152.7511
304.1467, 158.0664
304.6288, 161.6693
305.1109, 163.0407
305.5930, 163.3036
306.0751, 162.2027
306.5573, 160.2508
307.0394, 158.7667
307.5215, 159.1478
308.0036, 161.5979
308.4857, 162.9382
308.9678, 162.3906
309.4500, 161.4412
309.9321, 160.1212
310.4142, 158.7197
310.8963, 157.7439
311.3784, 157.6092
311.8605, 158.1557
312.3427, 158.0911
312.8248, 155.9934
313.3069, 154.9871
313.7890, 156.1064
314.2711, 158.4777
314.7532, 161.2297
315.2354, 163.9770
315.7175, 166.3368
316.1996, 166.9686
316.6817, 163.6925
317.1638, 162.1984
317.6459, 164.1734
318.1281, 167.4118
318.6102, 170.0930
319.0923, 171.6047
319.5744, 172.3128
320.0565, 172.8587
320.5386, 173.5294
321.0208, 173.3029
321.5029, 171.0659
321.9850, 168.8662
322.4671, 168.4797
322.9492, 169.8011
323.4313, 170.9288
323.9135, 169.4733
324.3956, 164.6538
324.8777, 161.2254
325.3598, 159.7233
325.8419, 159.1088
326.3240, 159.6284
326.8062, 160.7905
327.2883, 161.4895
327.7704, 160.7030
328.2525, 158.5628
328.7346, 157.4111
329.2167, 158.1229
329.6989, 158.9086
330.1810, 159.5730
330.6631, 159.9815
331.1452, 159.9172
331.6273, 159.2207
332.1094, 158.1247
332.5916, 157.3580
333.0737, 157.1005
333.5558, 156.8881
334.0379, 156.4622
334.5200, 156.1227
335.0021, 156.2154
335.4843, 156.8412
335.9664, 157.7110
336.4485, 158.1892
336.9306, 157.7798
337.4127, 158.4981
337.8948, 162.5513
338.3770, 166.2134
338.8591, 166.8180
339.3412, 164.4121
339.8233, 161.3452
340.3055, 160.0777
340.7876, 160.8436
341.2697, 161.0674
341.7518, 159.8654
342.2339, 158.9831
342.7160, 159.2872
343.1982, 160.4651
343.6803, 161.7090
344.1624, 162.5236
344.6445, 162.9572
345.1266, 163.2205
345.6087, 163.1719
346.0909, 163.1838
346.5730, 163.7197
347.0551, 164.2696
347.5372, 164.0173
348.0193, 162.4607
348.5014, 160.5421
348.9836, 160.2017
349.4657, 162.0845
349.9478, 163.3801
350.4299, 162.8584
350.9120, 161.7758
351.3941, 160.9099
351.8763, 160.4195
352.3584, 160.2087
352.8405, 160.3803
353.3226, 160.9591
353.8047, 161.0061
354.2868, 159.9970
354.7690, 158.8192
355.2511, 158.0547
355.7332, 157.6339
356.2153, 157.1998
356.6974, 156.0451
357.1795, 154.6106
357.6617, 155.0368
358.1438, 158.6369
358.6259, 161.3730
359.1080, 159.8177
359.5901, 156.1544
360.0722, 153.9283
360.5544, 154.9630
361.0365, 157.3242
361.5186, 158.3250
362.0007, 157.8228
362.4828, 157.0001
362.9649, 156.0262
363.4471, 155.1485
363.9292, 154.7101
364.4113, 154.8371
364.8934, 154.9877
365.3755, 154.6347
365.8576, 153.8946
366.3398, 153.3790
366.8219, 153.1441
367.3040, 153.3229
367.7861, 154.2229
368.2682, 155.7643
368.7503, 157.1095
369.2325, 157.6220
369.7146, 157.8218
370.1967, 159.0244
370.6788, 161.6454
371.1609, 163.3566
371.6430, 161.6153
372.1252, 157.4207
372.6073, 154.1884
373.0894, 152.6168
373.5715, 151.9519
374.0536, 152.3125
374.5357, 153.3974
375.0179, 153.1848
375.5000, 150.1638
375.9821, 145.7248
376.4642, 143.2484
376.9463, 143.5026
377.4284, 143.6604
377.9106, 142.2691
378.3927, 140.1964
378.8748, 139.0831
379.3569, 139.4395
379.8390, 140.2451
380.3211, 140.3182
380.8033, 139.6373
381.2854, 138.1267
381.7675, 134.3800
382.2496, 130.8068
382.7317, 129.2873
383.2138, 129.8883
383.6960, 131.8633
384.1781, 135.0993
384.6602, 139.3393
385.1423, 140.9862
385.6244, 137.8191
386.1065, 135.0590
386.5887, 134.5408
387.0708, 135.5601
387.5529, 137.1312
388.0350, 138.8831
388.5171, 140.2984
388.9992, 140.2016
389.4814, 136.8382
389.9635, 134.6227
390.4456, 133.1282
390.9277, 133.0300
391.4098, 135.7707
391.8919, 141.0179
392.3741, 146.2771
392.8562, 148.9106
393.3383, 148.6247
393.8204, 147.9606
394.3025, 144.9412
394.7846, 143.5973
395.2668, 146.5098
395.7489, 151.9893
396.2310, 157.0332
396.7131, 159.9607
397.1952, 160.9865
397.6773, 160.7690
398.1595, 158.3679
398.6416, 156.2306
399.1237, 153.4179
399.6058, 151.6970
400.0879, 153.5293
400.5700, 159.1023
401.0522, 165.0069
401.5343, 166.7912
402.0164, 163.6531
402.4985, 161.0406
402.9806, 158.2896
403.4627, 157.0133
403.9449, 159.0720
404.4270, 163.2615
404.9091, 166.5592
405.3912, 166.9256
405.8733, 165.1308
406.3554, 163.2108
406.8376, 160.4232
407.3197, 159.3799
407.8018, 163.1018
408.2839, 168.1502
408.7660, 170.7570
409.2481, 169.7429
409.7303, 167.9680
410.2124, 168.4769
410.6945, 171.1074
411.1766, 173.2730
411.6587, 174.1788
412.1408, 174.7906
412.6230, 175.8587
413.1051, 177.3762
413.5872, 179.3960
414.0693, 182.4048
414.5514, 185.7603
415.0335, 188.4733
415.5157, 190.4824
415.9978, 191.8705
416.4799, 192.1620
416.9620, 191.9592
417.4441, 193.0648
417.9262, 196.3452
418.4084, 199.8796
418.8905, 202.5892
419.3726, 204.7052
419.8547, 206.7906
420.3368, 209.0280
420.8189, 211.3537
421.3011, 213.8010
421.7832, 216.6394
422.2653, 218.4612
422.7474, 218.1676
423.2295, 217.4344
423.7116, 217.6377
424.1938, 218.8806
424.6759, 220.5623
425.1580, 222.1599
425.6401, 223.7318
426.1222, 226.4688
426.6043, 232.2594
427.0865, 236.8371
427.5686, 238.1323
428.0507, 237.9048
428.5328, 238.8156
429.0149, 241.8601
429.4970, 245.7032
429.9792, 247.9504
430.4613, 247.6097
430.9434, 247.8172
431.4255, 248.8289
431.9076, 250.0583
432.3897, 251.4812
432.8719, 252.8724
433.3540, 253.6404
433.8361, 253.0870
434.3182, 251.5518
434.8003, 251.7655
435.2824, 256.2483
435.7646, 258.5070
436.2467, 255.6693
436.7288, 250.6989
437.2109, 246.5758
437.6930, 244.2277
438.1751, 242.9221
438.6573, 242.1072
439.1394, 241.8793
439.6215, 240.6985
440.1036, 237.7661
440.5857, 234.4446
441.0678, 231.5747
441.5500, 229.0820
442.0321, 226.6345
442.5142, 224.3898
442.9963, 221.9485
443.4784, 218.4163
443.9605, 213.6775
444.4427, 208.7094
444.9248, 203.7634
445.4069, 199.0261
445.8890, 194.8742
446.3711, 191.4846
446.8532, 188.1889
447.3354, 184.4333
447.8175, 180.5380
448.2996, 177.2571
448.7817, 174.8037
449.2638, 172.7083
449.7459, 170.5048
450.2281, 168.1823
450.7102, 166.0287
451.1923, 164.4100
451.6744, 162.6463
452.1565, 159.8453
452.6386, 156.4822
453.1208, 154.1442
453.6029, 153.7643
454.0850, 154.5429
454.5671, 154.2611
455.0492, 151.9091
455.5313, 149.8136
456.0135, 147.4011
456.4956, 145.6537
456.9777, 145.8107
457.4598, 147.7254
457.9419, 149.8262
458.4240, 150.6274
458.9062, 150.1101
459.3883, 149.4701
459.8704, 148.0679
460.3525, 147.2971
460.8346, 148.0418
461.3167, 149.3717
461.7989, 149.9480
462.2810, 149.2461
462.7631, 148.2752
463.2452, 148.8350
463.7273, 151.3078
464.2094, 153.0055
464.6916, 152.7788
465.1737, 152.4518
465.6558, 153.2265
466.1379, 154.8555
466.6200, 156.3239
467.1021, 157.2498
467.5843, 157.5795
468.0664, 156.7000
468.5485, 154.2766
469.0306, 153.1137
469.5127, 155.1324
469.9948, 158.8304
470.4770, 161.9345
470.9591, 164.4774
471.4412, 166.0198
471.9233, 165.7413
472.4054, 164.4622
472.8875, 163.8323
473.3697, 164.1929
473.8518, 164.3840
474.3339, 163.1929
474.8160, 160.6365
475.2981, 158.8494
475.7802, 160.0510
476.2624, 159.6899
476.7445, 154.0078
477.2266, 145.5688
477.7087, 139.3876
478.1908, 137.4255
478.6729, 137.8615
479.1551, 137.4500
479.6372, 135.6935
480.1193, 134.2212
480.6014, 133.1520
481.0835, 132.2121
481.5656, 131.2713
482.0478, 130.3312
482.5299, 129.4338
483.0120, 128.5970
483.4941, 127.8448
483.9762, 127.3269
484.4583, 127.2253
484.9405, 126.9867
485.4226, 126.2599
485.9047, 125.5295
486.3868, 125.1355
486.8689, 125.1347
487.3510, 125.4530
487.8332, 125.8462
488.3153, 126.4532
488.7974, 128.3349
489.2795, 132.3441
489.7616, 135.6023
490.2437, 135.5383
490.7259, 133.7621
491.2080, 132.5400
491.6901, 132.0803
492.1722, 132.6191
492.6543, 135.3134
493.1364, 139.1975
493.6186, 141.3070
494.1007, 140.7215
494.5828, 138.9070
495.0649, 136.8493
495.5470, 134.3869
496.0291, 135.1620
496.5113, 142.9251
496.9934, 150.5834
497.4755, 153.5767
497.9576, 153.1336
498.4397, 152.6007
498.9218, 153.5677
499.4040, 155.4596
499.8861, 156.9782
500.3682, 157.6643
500.8503, 158.8176
501.3324, 160.8916
501.8145, 162.9939
502.2967, 164.5731
502.7788, 165.6815
503.2609, 166.6881
503.7430, 167.8516
504.2251, 169.1178
504.7072, 170.3056
505.1894, 171.5393
505.6715, 172.4092
506.1536, 173.0123
506.6357, 173.0924
507.1178, 171.9447
507.5999, 169.6154
508.0821, 167.8947
508.5642, 169.0308
509.0463, 171.7765
509.5284, 172.3304
510.0105, 170.2137
510.4926, 167.0381
510.9748, 163.3630
511.4569, 159.4242
511.9390, 155.7631
512.4211, 152.4859
512.9032, 149.3915
513.3853, 146.3506
513.8674, 143.4437
514.3495, 140.9693
514.8317, 138.9686
515.3138, 136.9101
515.7959, 134.1427
516.2780, 130.5602
516.7601, 127.8286
517.2422, 126.0950
517.7244, 124.8835
518.2065, 124.8350
518.6886, 124.9425
519.1707, 123.5629
519.6528, 120.1842
520.1349, 116.0826
520.6171, 113.2254
521.0992, 111.9022
521.5813, 110.6424
522.0634, 109.1760
522.5455, 108.0671
523.0276, 107.8023
523.5098, 108.0037
523.9919, 107.9488
524.4740, 107.2657
524.9561, 106.3452
525.4382, 105.7743
525.9203, 105.5638
526.4025, 105.2276
526.8846, 104.4787
527.3667, 103.8121
527.8488, 103.9616
528.3309, 104.7484
528.8130, 104.9524
529.2952, 103.7564
529.7773, 102.1804
530.2594, 101.2499
530.7415, 100.8150
531.2236, 99.91578
531.7057, 97.94153
532.1879, 95.83862
532.6700, 95.56711
533.1521, 98.54682
533.6342, 100.1135
534.1163, 99.33501
534.5984, 97.84314
535.0806, 96.16561
535.5627, 94.68186
536.0448, 94.21578
536.5269, 95.41309
537.0090, 97.41216
537.4911, 97.30053
537.9733, 93.26766
538.4554, 91.14167
538.9375, 93.27866
539.4196, 96.04562
539.9017, 97.40625
540.3839, 97.32409
540.8660, 96.71033
541.3481, 96.25120
541.8302, 95.60087
542.3123, 93.68221
542.7944, 90.29861
543.2766, 87.30490
543.7587, 84.80682
544.2408, 83.68949
544.7229, 85.73215
545.2050, 91.45878
545.6871, 95.58180
546.1693, 95.43126
546.6514, 93.29963
547.1335, 91.15296
547.6156, 89.31419
548.0977, 88.31662
548.5798, 88.62273
549.0620, 89.78926
549.5441, 90.31863
550.0262, 89.79420
550.5083, 89.13766
550.9904, 87.53333
551.4725, 86.41680
551.9547, 87.52090
552.4368, 90.31574
552.9189, 92.45520
553.4010, 91.98357
553.8831, 89.72966
554.3652, 89.26254
554.8474, 91.66688
555.3295, 93.12112
555.8116, 91.62319
556.2937, 89.52725
556.7758, 88.52977
557.2579, 88.70167
557.7401, 88.95402
558.2222, 88.61299
558.7043, 87.96066
559.1864, 87.15656
559.6685, 86.20864
560.1506, 86.54514
560.6328, 89.58881
561.1149, 93.64230
561.5970, 94.75566
562.0791, 92.17075
562.5612, 89.76427
563.0433, 88.13433
563.5255, 87.04339
564.0076, 86.60543
564.4897, 86.58016
564.9718, 86.06174
565.4539, 84.35371
565.9360, 82.11653
566.4182, 81.76725
566.9003, 85.21487
567.3824, 86.91962
567.8645, 84.22688
568.3466, 81.80515
568.8287, 83.28926
569.3109, 87.90330
569.7930, 92.10904
570.2751, 93.92651
570.7572, 93.76457
571.2393, 91.91454
571.7214, 88.17519
572.2036, 85.26027
572.6857, 84.15200
573.1678, 84.15158
573.6499, 84.55188
574.1320, 85.33760
574.6141, 86.13728
575.0963, 87.16943
575.5784, 87.91730
576.0605, 87.71806
576.5426, 86.81178
577.0247, 85.97168
577.5068, 85.52925
577.9890, 85.47751
578.4711, 85.86694
578.9532, 87.10526
579.4353, 87.72768
579.9174, 86.52692
580.3995, 85.98663
580.8817, 88.52813
581.3638, 92.40979
581.8459, 94.02616
582.3280, 91.52529
582.8101, 87.30225
583.2922, 85.35709
583.7744, 85.88596
584.2565, 85.81413
584.7386, 84.19026
585.2207, 82.68555
585.7029, 82.89845
586.1850, 84.13438
