##NAMES=Ezcurrite
##RRUFFID=R060645
##IDEAL CHEMISTRY=Na_2_B_5_O_7_(OH)_3_&#183;2H_2_O
##LOCALITY=Salar del Hombre Muerto, Catamarca, Argentina
##OWNER=RRUFF
##SOURCE=Michael Scott
##DESCRIPTION=Colorless prismatic fragment
##STATUS=The identification of this mineral has been confirmed by X-ray diffraction and chemical analysis
##URL=rruff.info/R060645
##MEASURED CHEMISTRY=Na_2.00_B_5_O_7_(OH)_3_Â·2H_2_O ;trace amounts of Si; B and OH not measured but estimated by stoichiometry
112.843, 4714.845
113.326, 5003.565
113.808, 5306.690
114.290, 5626.962
114.772, 5963.091
115.254, 6314.501
115.736, 6667.841
116.218, 7039.861
116.700, 7440.342
117.182, 7890.585
117.664, 8356.459
118.147, 8827.380
118.629, 9309.761
119.111, 9778.966
119.593, 10214.900
120.075, 10626.730
120.557, 11027.060
121.039, 11434.110
121.521, 11825.630
122.004, 12182.630
122.486, 12500.880
122.968, 12786.830
123.450, 13038.620
123.932, 13260.710
124.414, 13456.070
124.896, 13618.350
125.378, 13757.680
125.860, 13888.440
126.343, 14015.710
126.825, 14137.380
127.307, 14251.900
127.789, 14358.490
128.271, 14456.180
128.753, 14542.290
129.235, 14618.050
129.717, 14687.780
130.200, 14756.000
130.682, 14820.000
131.164, 14874.160
131.646, 14922.030
132.128, 14948.420
132.610, 14927.170
133.092, 14858.550
133.574, 14773.430
134.057, 14685.200
134.539, 14593.340
135.021, 14499.170
135.503, 14402.490
135.985, 14302.820
136.467, 14199.010
136.949, 14090.220
137.431, 13977.050
137.913, 13862.620
138.396, 13749.610
138.878, 13618.540
139.360, 13471.980
139.842, 13304.740
140.324, 13085.320
140.806, 12793.330
141.288, 12479.010
141.770, 12184.740
142.253, 11912.380
142.735, 11654.970
143.217, 11410.150
143.699, 11180.310
144.181, 10952.200
144.663, 10718.600
145.145, 10490.420
145.627, 10289.520
146.109, 10124.760
146.592, 9972.250
147.074, 9823.185
147.556, 9677.926
148.038, 9536.029
148.520, 9392.056
149.002, 9252.795
149.484, 9135.906
149.966, 9052.037
150.449, 8983.314
150.931, 8921.959
151.413, 8872.231
151.895, 8826.025
152.377, 8783.343
152.859, 8744.614
153.341, 8710.867
153.823, 8703.119
154.305, 8688.889
154.788, 8647.590
155.270, 8518.188
155.752, 8421.300
156.234, 8400.225
156.716, 8458.381
157.198, 8494.696
157.680, 8467.391
158.162, 8416.398
158.645, 8381.681
159.127, 8394.305
159.609, 8406.623
160.091, 8396.333
160.573, 8355.781
161.055, 8321.168
161.537, 8317.198
162.019, 8324.499
162.501, 8312.757
162.984, 8245.394
163.466, 8171.513
163.948, 8115.548
164.430, 8075.349
164.912, 8069.611
165.394, 8018.418
165.876, 8012.096
166.358, 7994.876
166.840, 7967.355
167.323, 7898.658
167.805, 7883.132
168.287, 7851.211
168.769, 7767.492
169.251, 7685.864
169.733, 7606.547
170.215, 7529.782
170.697, 7463.626
171.180, 7398.230
171.662, 7320.235
172.144, 7213.451
172.626, 7102.716
173.108, 7010.583
173.590, 6936.462
174.072, 6867.652
174.554, 6794.438
175.036, 6719.899
175.519, 6650.392
176.001, 6590.311
176.483, 6535.783
176.965, 6482.032
177.447, 6428.451
177.929, 6375.369
178.411, 6322.767
178.893, 6270.155
179.376, 6217.249
179.858, 6163.312
180.340, 6108.141
180.822, 6049.598
181.304, 5983.598
181.786, 5925.799
182.268, 5905.205
182.750, 5915.267
183.232, 5917.248
183.715, 5871.135
184.197, 5797.501
184.679, 5761.854
185.161, 5783.609
185.643, 5824.883
186.125, 5819.406
186.607, 5768.888
187.089, 5714.340
187.572, 5678.512
188.054, 5661.068
188.536, 5665.205
189.018, 5700.271
189.500, 5749.290
189.982, 5772.384
190.464, 5768.586
190.946, 5756.583
191.428, 5748.139
191.911, 5743.637
192.393, 5748.042
192.875, 5766.929
193.357, 5794.526
193.839, 5807.469
194.321, 5803.411
194.803, 5797.251
195.285, 5809.298
195.768, 5840.256
196.250, 5859.195
196.732, 5852.703
197.214, 5824.411
197.696, 5804.653
198.178, 5793.506
198.660, 5790.402
199.142, 5798.912
199.624, 5821.053
200.107, 5836.882
200.589, 5838.020
201.071, 5824.292
201.553, 5807.533
202.035, 5785.583
202.517, 5763.925
202.999, 5750.283
203.481, 5744.430
203.964, 5746.942
204.446, 5759.883
204.928, 5784.553
205.410, 5809.102
205.892, 5834.545
206.374, 5858.070
206.856, 5872.252
207.338, 5874.026
207.820, 5875.663
208.303, 5882.842
208.785, 5896.085
209.267, 5913.197
209.749, 5935.306
210.231, 5960.508
210.713, 5981.666
211.195, 5995.640
211.677, 6013.767
212.160, 6041.548
212.642, 6077.873
213.124, 6128.658
213.606, 6196.871
214.088, 6279.394
214.570, 6361.911
215.052, 6439.492
215.534, 6524.670
216.016, 6628.624
216.499, 6758.549
216.981, 6882.145
217.463, 6994.196
217.945, 7096.037
218.427, 7199.652
218.909, 7303.951
219.391, 7412.288
219.873, 7530.217
220.355, 7664.965
220.838, 7791.925
221.320, 7908.211
221.802, 8012.570
222.284, 8116.853
222.766, 8228.679
223.248, 8331.549
223.730, 8409.416
224.212, 8447.082
224.695, 8493.384
225.177, 8567.521
225.659, 8672.160
226.141, 8726.896
226.623, 8719.963
227.105, 8676.960
227.587, 8622.703
228.069, 8556.058
228.551, 8478.888
229.034, 8389.226
229.516, 8286.003
229.998, 8179.264
230.480, 8064.210
230.962, 7947.453
231.444, 7838.161
231.926, 7744.423
232.408, 7640.925
232.891, 7516.127
233.373, 7361.225
233.855, 7232.963
234.337, 7140.984
234.819, 7067.629
235.301, 6988.430
235.783, 6900.063
236.265, 6812.502
236.747, 6728.168
237.230, 6647.432
237.712, 6568.367
238.194, 6485.657
238.676, 6409.424
239.158, 6357.081
239.640, 6339.574
240.122, 6328.224
240.604, 6314.928
241.087, 6299.028
241.569, 6284.208
242.051, 6272.710
242.533, 6261.345
243.015, 6244.228
243.497, 6233.036
243.979, 6236.291
244.461, 6236.040
244.943, 6232.469
245.426, 6215.639
245.908, 6215.931
246.390, 6209.361
246.872, 6206.188
247.354, 6204.617
247.836, 6200.694
248.318, 6204.275
248.800, 6219.747
249.283, 6229.371
249.765, 6230.654
250.247, 6227.196
250.729, 6227.118
251.211, 6234.146
251.693, 6238.975
252.175, 6236.395
252.657, 6219.675
253.139, 6215.577
253.622, 6229.860
254.104, 6254.739
254.586, 6272.345
255.068, 6279.490
255.550, 6285.465
256.032, 6293.837
256.514, 6304.352
256.996, 6318.597
257.478, 6338.277
257.961, 6360.877
258.443, 6380.136
258.925, 6396.379
259.407, 6408.133
259.889, 6412.924
260.371, 6406.221
260.853, 6405.451
261.335, 6411.056
261.818, 6422.448
262.300, 6437.961
262.782, 6457.931
263.264, 6481.364
263.746, 6510.430
264.228, 6549.678
264.710, 6575.321
265.192, 6578.771
265.674, 6572.322
266.157, 6588.585
266.639, 6633.833
267.121, 6686.786
267.603, 6736.995
268.085, 6783.503
268.567, 6834.275
269.049, 6892.073
269.531, 6953.345
270.013, 7007.787
270.496, 7051.410
270.978, 7100.339
271.460, 7166.167
271.942, 7254.372
272.424, 7328.967
272.906, 7380.220
273.388, 7424.680
273.871, 7502.234
274.353, 7617.973
274.835, 7744.654
275.317, 7866.241
275.799, 7981.892
276.281, 8113.617
276.763, 8269.026
277.245, 8433.320
277.727, 8572.366
278.210, 8683.691
278.692, 8789.768
279.174, 8899.438
279.656, 9012.241
280.138, 9140.686
280.620, 9288.011
281.102, 9446.984
281.584, 9609.947
282.066, 9779.684
282.549, 9932.505
283.031, 10056.460
283.513, 10152.100
283.995, 10231.300
284.477, 10293.150
284.959, 10341.890
285.441, 10388.480
285.923, 10433.560
286.405, 10459.650
286.888, 10457.540
287.370, 10428.360
287.852, 10377.540
288.334, 10304.190
288.816, 10212.260
289.298, 10103.440
289.780, 9978.248
290.263, 9852.754
290.745, 9742.503
291.227, 9640.806
291.709, 9520.790
292.191, 9380.453
292.673, 9228.207
293.155, 9072.328
293.637, 8912.878
294.119, 8756.440
294.602, 8601.364
295.084, 8451.372
295.566, 8310.586
296.048, 8180.070
296.530, 8062.054
297.012, 7962.163
297.494, 7879.209
297.976, 7803.539
298.458, 7725.366
298.941, 7654.236
299.423, 7610.046
299.905, 7595.054
300.387, 7598.091
300.869, 7615.607
301.351, 7643.173
301.833, 7669.292
302.315, 7677.777
302.797, 7685.405
303.280, 7711.403
303.762, 7756.119
304.244, 7821.700
304.726, 7926.304
305.208, 8052.762
305.690, 8168.015
306.172, 8236.899
306.654, 8300.901
307.137, 8411.850
307.619, 8570.252
308.101, 8725.352
308.583, 8836.502
309.065, 8923.712
309.547, 9017.852
310.029, 9140.547
310.511, 9266.141
310.993, 9379.925
311.476, 9481.647
311.958, 9577.335
312.440, 9686.229
312.922, 9785.765
313.404, 9849.806
313.886, 9846.442
314.368, 9825.684
314.850, 9822.647
315.333, 9831.683
315.815, 9807.012
316.297, 9711.987
316.779, 9582.511
317.261, 9449.007
317.743, 9315.193
318.225, 9180.923
318.707, 9050.920
319.190, 8922.628
319.672, 8785.650
320.154, 8624.646
320.636, 8461.483
321.118, 8308.928
321.600, 8146.458
322.082, 8022.703
322.564, 7965.843
323.046, 7959.946
323.529, 7952.117
324.011, 7923.844
324.493, 7897.951
324.975, 7884.016
325.457, 7868.760
325.939, 7886.524
326.421, 7957.955
326.903, 8065.382
327.385, 8164.445
327.868, 8238.418
328.350, 8315.278
328.832, 8402.844
329.314, 8496.710
329.796, 8610.699
330.278, 8763.145
330.760, 8930.254
331.242, 9073.460
331.724, 9172.516
332.207, 9274.704
332.689, 9402.712
333.171, 9573.925
333.653, 9698.476
334.135, 9768.006
334.617, 9797.078
335.099, 9807.829
335.582, 9806.562
336.064, 9773.669
336.546, 9700.830
337.028, 9585.996
337.510, 9453.790
337.992, 9298.667
338.474, 9131.620
338.956, 8968.539
339.438, 8807.293
339.921, 8647.680
340.403, 8483.744
340.885, 8319.813
341.367, 8179.933
341.849, 8069.184
342.331, 7968.717
342.813, 7866.527
343.295, 7761.448
343.777, 7653.062
344.260, 7539.392
344.742, 7423.130
345.224, 7310.327
345.706, 7202.725
346.188, 7089.430
346.670, 6953.546
347.152, 6803.719
347.634, 6673.956
348.116, 6576.269
348.599, 6493.356
349.081, 6392.676
349.563, 6276.743
350.045, 6165.951
350.527, 6071.419
351.009, 5991.487
351.491, 5925.766
351.973, 5877.675
352.456, 5832.555
352.938, 5769.679
353.420, 5695.669
353.902, 5631.176
354.384, 5593.882
354.866, 5568.586
355.348, 5535.583
355.830, 5491.865
356.312, 5451.108
356.795, 5426.524
357.277, 5411.861
357.759, 5396.288
358.241, 5376.097
358.723, 5353.077
359.205, 5325.050
359.687, 5291.803
360.169, 5265.619
360.652, 5253.476
361.134, 5251.139
361.616, 5254.172
362.098, 5272.605
362.580, 5285.143
363.062, 5275.482
363.544, 5247.023
364.026, 5234.735
364.509, 5266.219
364.991, 5306.374
365.473, 5331.947
365.955, 5327.417
366.437, 5320.827
366.919, 5308.471
367.401, 5294.937
367.883, 5298.674
368.365, 5340.708
368.848, 5384.835
369.330, 5415.446
369.812, 5424.916
370.294, 5434.121
370.776, 5436.264
371.258, 5439.878
371.740, 5464.208
372.222, 5528.324
372.704, 5584.630
373.187, 5611.846
373.669, 5599.748
374.151, 5612.403
374.633, 5659.299
375.115, 5719.913
375.597, 5765.149
376.079, 5786.297
376.561, 5822.908
377.043, 5895.360
377.526, 5997.290
378.008, 6060.634
378.490, 6075.882
378.972, 6082.006
379.454, 6115.877
379.936, 6177.667
380.418, 6245.811
380.901, 6320.950
381.383, 6396.455
381.865, 6456.403
382.347, 6500.410
382.829, 6538.517
383.311, 6565.763
383.793, 6591.254
384.275, 6645.807
384.757, 6740.924
385.240, 6850.812
385.722, 6942.556
386.204, 7020.376
386.686, 7096.232
387.168, 7175.295
387.650, 7257.753
388.132, 7343.333
388.614, 7431.790
389.096, 7520.903
389.579, 7607.307
390.061, 7692.559
390.543, 7777.797
391.025, 7878.902
391.507, 7970.311
391.989, 8042.992
392.471, 8095.884
392.953, 8112.030
393.435, 8075.927
393.918, 8002.817
394.400, 7906.030
394.882, 7779.036
395.364, 7641.236
395.846, 7500.802
396.328, 7354.463
396.810, 7192.491
397.292, 6984.197
397.775, 6780.580
398.257, 6606.609
398.739, 6475.924
399.221, 6360.055
399.703, 6262.142
400.185, 6177.431
400.667, 6096.580
401.149, 6016.283
401.632, 5943.792
402.114, 5879.854
402.596, 5822.521
403.078, 5785.010
403.560, 5775.850
404.042, 5776.908
404.524, 5766.300
405.006, 5740.248
405.488, 5715.788
405.971, 5697.075
406.453, 5683.292
406.935, 5667.953
407.417, 5649.271
407.899, 5635.646
408.381, 5635.795
408.863, 5649.065
409.345, 5662.439
409.828, 5673.927
410.310, 5684.319
410.792, 5693.644
411.274, 5702.292
411.756, 5713.677
412.238, 5732.050
412.720, 5754.570
413.202, 5773.218
413.684, 5786.487
414.167, 5801.941
414.649, 5831.429
415.131, 5868.710
415.613, 5900.037
416.095, 5912.109
416.577, 5919.775
417.059, 5933.241
417.541, 5952.960
418.023, 5982.066
418.506, 6026.379
418.988, 6078.900
419.470, 6133.486
419.952, 6186.938
420.434, 6243.228
420.916, 6305.282
421.398, 6371.802
421.880, 6435.986
422.362, 6496.939
422.845, 6555.192
423.327, 6611.570
423.809, 6662.626
424.291, 6718.609
424.773, 6784.998
425.255, 6856.052
425.737, 6923.886
426.220, 6998.920
426.702, 7058.055
427.184, 7092.921
427.666, 7102.283
428.148, 7113.740
428.630, 7124.540
429.112, 7140.888
429.594, 7175.620
430.076, 7240.706
430.559, 7271.580
431.041, 7250.728
431.523, 7194.540
432.005, 7154.353
432.487, 7132.071
432.969, 7111.272
433.451, 7083.799
433.933, 7049.668
434.415, 7004.744
434.898, 6945.790
435.380, 6889.705
435.862, 6857.195
436.344, 6847.104
436.826, 6854.549
437.308, 6892.498
437.790, 6940.543
438.272, 6961.220
438.754, 6956.192
439.237, 6960.517
439.719, 7003.869
440.201, 7070.326
440.683, 7139.709
441.165, 7202.454
441.647, 7272.203
442.129, 7359.114
442.612, 7458.934
443.094, 7564.050
443.576, 7676.417
444.058, 7789.188
444.540, 7896.045
445.022, 7990.291
445.504, 8098.737
445.986, 8231.775
446.468, 8378.894
446.951, 8528.512
447.433, 8711.040
447.915, 8861.694
448.397, 8975.779
448.879, 9053.047
449.361, 9080.540
449.843, 9048.963
450.325, 8979.429
450.807, 8886.847
451.290, 8778.383
451.772, 8619.660
452.254, 8392.330
452.736, 8127.735
453.218, 7884.189
453.700, 7660.455
454.182, 7460.146
454.664, 7285.293
455.147, 7135.777
455.629, 7005.839
456.111, 6894.609
456.593, 6806.591
457.075, 6755.400
457.557, 6732.142
458.039, 6704.507
458.521, 6650.997
459.003, 6601.704
459.486, 6596.155
459.968, 6630.013
460.450, 6683.540
460.932, 6745.513
461.414, 6820.543
461.896, 6910.488
462.378, 7011.263
462.860, 7138.512
463.342, 7301.539
463.825, 7495.318
464.307, 7709.877
464.789, 7938.116
465.271, 8190.712
465.753, 8471.536
466.235, 8778.614
466.717, 9106.608
467.199, 9448.205
467.681, 9819.078
468.164, 10229.850
468.646, 10698.670
469.128, 11174.840
469.610, 11639.740
470.092, 12115.190
470.574, 12648.960
471.056, 13254.340
471.539, 13890.280
472.021, 14531.730
472.503, 15183.090
472.985, 15908.270
473.467, 16724.301
473.949, 17560.930
474.431, 18336.551
474.913, 19057.410
475.395, 19766.439
475.878, 20525.340
476.360, 21215.850
476.842, 21671.150
477.324, 21886.230
477.806, 21817.859
478.288, 21389.680
478.770, 20685.980
479.252, 19784.199
479.734, 18673.170
480.217, 17489.119
480.699, 16235.920
481.181, 14987.660
481.663, 13865.470
482.145, 12919.740
482.627, 12103.010
483.109, 11417.240
483.591, 10854.960
484.073, 10357.190
484.556, 9915.323
485.038, 9534.728
485.520, 9219.805
486.002, 8995.118
486.484, 8803.813
486.966, 8643.897
487.448, 8517.078
487.931, 8429.356
488.413, 8397.332
488.895, 8372.199
489.377, 8335.158
489.859, 8289.643
490.341, 8291.444
490.823, 8351.288
491.305, 8424.178
491.787, 8462.157
492.270, 8469.709
492.752, 8525.919
493.234, 8647.813
493.716, 8809.650
494.198, 8977.100
494.680, 9149.785
495.162, 9331.060
495.644, 9522.212
496.126, 9721.479
496.609, 9915.109
497.091, 10105.740
497.573, 10320.000
498.055, 10592.480
498.537, 10896.190
499.019, 11201.190
499.501, 11494.170
499.983, 11799.780
500.466, 12135.360
500.948, 12493.400
501.430, 12858.270
501.912, 13220.660
502.394, 13594.860
502.876, 13979.850
503.358, 14374.730
503.840, 14808.970
504.322, 15301.180
504.805, 15817.000
505.287, 16323.350
505.769, 16809.141
506.251, 17301.811
506.733, 17805.779
507.215, 18317.711
507.697, 18816.449
508.179, 19301.910
508.661, 19773.240
509.144, 20243.699
509.626, 20704.240
510.108, 21109.000
510.590, 21459.109
511.072, 21741.859
511.554, 21967.061
512.036, 22115.211
512.518, 22140.830
513.000, 22033.230
513.483, 21795.189
513.965, 21400.170
514.447, 20870.859
514.929, 20276.240
515.411, 19650.029
515.893, 18969.330
516.375, 18186.641
516.857, 17267.779
517.340, 16426.711
517.822, 15810.520
518.304, 15247.400
518.786, 14582.010
519.268, 13613.560
519.750, 12767.070
520.232, 12084.290
520.714, 11542.070
521.196, 11068.100
521.679, 10683.670
522.161, 10333.110
522.643, 9988.285
523.125, 9644.373
523.607, 9397.825
524.089, 9268.118
524.571, 9173.229
525.054, 9019.059
525.536, 8815.741
526.018, 8628.706
526.500, 8473.152
526.982, 8343.579
527.464, 8234.294
527.946, 8145.742
528.428, 8075.687
528.910, 8027.403
529.393, 7994.822
529.875, 7973.499
530.357, 7963.615
530.839, 7955.443
531.321, 7936.337
531.803, 7920.297
532.285, 7920.301
532.767, 7947.441
533.250, 7981.538
533.732, 8012.550
534.214, 8047.845
534.696, 8106.935
535.178, 8213.982
535.660, 8315.456
536.142, 8386.505
536.624, 8422.974
537.106, 8509.612
537.589, 8661.267
538.071, 8836.044
538.553, 8996.434
539.035, 9142.827
539.517, 9300.603
539.999, 9469.128
540.481, 9657.676
540.963, 9883.435
541.445, 10140.440
541.928, 10415.050
542.410, 10703.460
542.892, 11001.030
543.374, 11297.000
543.856, 11594.620
544.338, 11907.010
544.820, 12272.190
545.302, 12637.720
545.784, 12959.660
546.267, 13252.800
546.749, 13457.210
547.231, 13572.210
547.713, 13581.860
548.195, 13461.240
548.677, 13141.610
549.159, 12758.590
549.641, 12311.820
550.124, 11809.610
550.606, 11352.290
551.088, 10937.860
551.570, 10563.820
552.052, 10219.190
552.534, 9896.184
553.016, 9664.789
553.498, 9534.411
553.981, 9469.934
554.463, 9433.684
554.945, 9424.075
555.427, 9429.924
555.909, 9441.246
556.391, 9473.763
556.873, 9549.807
557.355, 9667.296
557.838, 9816.863
558.320, 10004.790
558.802, 10214.840
559.284, 10438.260
559.766, 10675.150
560.248, 10917.210
560.730, 11139.260
561.212, 11373.200
561.694, 11649.460
562.177, 11982.380
562.659, 12349.180
563.141, 12763.730
563.623, 13206.150
564.105, 13626.440
564.587, 14001.920
565.069, 14383.240
565.551, 14790.560
566.033, 15218.680
566.516, 15640.220
566.998, 16059.420
567.480, 16457.789
567.962, 16832.109
568.444, 17177.779
568.926, 17493.689
569.408, 17792.279
569.890, 18012.510
570.372, 18072.369
570.855, 17996.670
571.337, 17839.939
571.819, 17604.029
572.301, 17312.711
572.783, 16977.330
573.265, 16598.609
573.747, 16162.870
574.229, 15653.720
574.711, 15098.660
575.194, 14504.400
575.676, 13845.270
576.158, 13230.380
576.640, 12681.050
577.122, 12175.760
577.604, 11691.300
578.086, 11228.740
578.568, 10792.680
579.051, 10374.880
579.533, 9986.548
580.015, 9655.608
580.497, 9386.712
580.979, 9140.964
581.461, 8903.345
581.943, 8677.528
582.425, 8473.075
582.907, 8288.216
583.390, 8123.214
583.872, 7982.576
584.354, 7860.947
584.836, 7755.080
585.318, 7668.643
585.800, 7584.685
586.282, 7483.842
586.765, 7382.490
587.247, 7302.995
587.729, 7277.895
588.211, 7245.327
588.693, 7176.116
589.175, 7083.520
589.657, 7033.748
590.139, 7052.403
590.621, 7071.897
591.104, 7060.473
591.586, 7015.391
592.068, 6981.384
592.550, 6957.556
593.032, 6947.362
593.514, 6957.004
593.996, 6984.191
594.478, 7020.466
594.960, 7067.992
595.443, 7114.387
595.925, 7136.072
596.407, 7144.608
596.889, 7166.484
597.371, 7226.626
597.853, 7292.924
598.335, 7344.795
598.817, 7384.056
599.299, 7425.177
599.782, 7466.876
600.264, 7516.272
600.746, 7580.995
601.228, 7674.218
601.710, 7740.621
602.192, 7765.048
602.674, 7777.451
603.156, 7811.061
603.638, 7872.221
604.121, 7919.972
604.603, 7953.213
605.085, 7963.437
605.567, 7930.939
606.049, 7857.919
606.531, 7762.302
607.013, 7644.398
607.495, 7514.074
607.978, 7380.132
608.460, 7244.071
608.942, 7114.187
609.424, 6988.384
609.906, 6874.391
610.388, 6779.168
610.870, 6708.737
611.352, 6639.927
611.834, 6563.043
612.317, 6486.298
612.799, 6418.825
613.281, 6360.183
613.763, 6312.577
614.245, 6281.520
614.727, 6259.810
615.209, 6227.184
615.692, 6180.646
616.174, 6141.188
616.656, 6117.511
617.138, 6106.715
617.620, 6089.701
618.102, 6067.510
618.584, 6054.943
619.066, 6065.787
619.549, 6070.947
620.031, 6070.731
620.513, 6049.032
620.995, 6055.074
621.477, 6049.998
621.959, 6044.467
622.441, 6054.412
622.923, 6035.838
623.405, 6045.538
623.888, 6041.885
624.370, 6025.477
624.852, 6029.561
625.334, 6067.313
625.816, 6101.524
626.298, 6120.885
626.780, 6128.210
627.262, 6143.262
627.744, 6167.187
628.227, 6191.129
628.709, 6208.787
