##NAMES=Fairfieldite
##RRUFFID=R050539
##IDEAL CHEMISTRY=Ca_2_Mn^2+^(PO_4_)_2_&#183;2H_2_O
##LOCALITY=Foote mine, Kings Mountain, Cleveland County, North Carolina, USA
##OWNER=RRUFF
##SOURCE=University of Arizona Mineral Museum
##DESCRIPTION=Transparent tabular crystals associated with fluorapatite
##STATUS=The identification of this mineral has been confirmed by X-ray diffraction and chemical analysis
##URL=rruff.info/R050539
##MEASURED CHEMISTRY=Ca_2.00_(Mn^2+^_0.82_Fe^2+^_0.15_Mg_0.03_)_Σ=1_(P_1.00_O_4_)_2_·2H_2_O
92.37695, 231.7999
92.85907, 230.2849
93.34119, 230.8159
93.82330, 231.5116
94.30542, 231.0893
94.78754, 229.2709
95.26965, 226.6409
95.75177, 224.2570
96.23389, 222.5993
96.71600, 221.4376
97.19812, 220.5866
97.68024, 219.9737
98.16235, 219.9683
98.64447, 221.1385
99.12659, 223.7552
99.60870, 226.2592
100.0908, 228.3648
100.5729, 230.9554
101.0551, 234.8655
101.5372, 240.5576
102.0193, 247.7060
102.5014, 254.6633
102.9835, 263.7962
103.4656, 270.3254
103.9478, 274.0370
104.4299, 274.6041
104.9120, 271.3965
105.3941, 263.7322
105.8762, 251.0851
106.3583, 237.8990
106.8405, 222.6878
107.3226, 208.1005
107.8047, 195.4297
108.2868, 184.8593
108.7689, 176.0426
109.2510, 169.1107
109.7332, 164.1883
110.2153, 159.2543
110.6974, 153.6347
111.1795, 147.9619
111.6616, 143.1372
112.1437, 139.4176
112.6259, 136.5859
113.1080, 134.4341
113.5901, 132.9174
114.0722, 131.7015
114.5543, 130.7047
115.0364, 129.9106
115.5185, 129.0663
116.0007, 127.9555
116.4828, 126.9054
116.9649, 126.1252
117.4470, 125.6475
117.9291, 125.3249
118.4112, 124.9438
118.8934, 124.4110
119.3755, 124.0629
119.8576, 123.8867
120.3397, 123.8938
120.8218, 124.0357
121.3039, 124.2978
121.7861, 124.7892
122.2682, 125.8413
122.7503, 128.7951
123.2324, 130.8415
123.7145, 131.3264
124.1966, 130.8533
124.6788, 130.2332
125.1609, 129.9041
125.6430, 129.8601
126.1251, 130.0563
126.6072, 130.6539
127.0893, 131.2672
127.5715, 131.7560
128.0536, 132.1256
128.5357, 132.4314
129.0178, 132.7193
129.4999, 132.9704
129.9821, 133.1311
130.4642, 133.0847
130.9463, 133.0092
131.4284, 133.0787
131.9105, 133.3051
132.3926, 133.6530
132.8748, 134.0800
133.3569, 134.6034
133.8390, 135.2908
134.3211, 136.2743
134.8032, 137.4591
135.2853, 138.4905
135.7674, 139.1049
136.2496, 139.9472
136.7317, 141.3169
137.2138, 143.1369
137.6959, 145.1802
138.1780, 147.1933
138.6601, 149.1163
139.1423, 151.6600
139.6244, 155.0267
140.1065, 158.8820
140.5886, 162.9020
141.0707, 167.2100
141.5528, 172.3359
142.0350, 178.8808
142.5171, 186.9873
142.9992, 196.5183
143.4813, 208.5409
143.9634, 220.9279
144.4455, 233.6199
144.9277, 246.1288
145.4098, 256.3847
145.8919, 260.9591
146.3740, 258.3450
146.8561, 251.7063
147.3382, 238.6362
147.8204, 222.3452
148.3025, 206.2336
148.7846, 191.2279
149.2667, 177.7812
149.7488, 167.0444
150.2309, 158.8568
150.7131, 152.1838
151.1952, 147.0578
151.6773, 143.2319
152.1594, 140.0382
152.6415, 137.3015
153.1236, 135.0764
153.6058, 133.2465
154.0879, 131.8242
154.5700, 130.7811
155.0521, 130.2292
155.5342, 130.1914
156.0163, 130.1514
156.4985, 129.8922
156.9806, 129.5607
157.4627, 129.2564
157.9448, 128.9962
158.4269, 128.7937
158.9090, 128.6258
159.3912, 128.3900
159.8733, 128.4785
160.3554, 129.1963
160.8375, 130.1332
161.3196, 130.9104
161.8017, 131.3477
162.2839, 131.6076
162.7660, 132.1667
163.2481, 133.1651
163.7302, 134.3257
164.2123, 135.6932
164.6944, 137.1644
165.1766, 138.5768
165.6587, 139.8340
166.1408, 140.9954
166.6229, 142.5018
167.1050, 144.9434
167.5871, 147.0934
168.0693, 148.4515
168.5514, 149.3355
169.0335, 150.3926
169.5156, 152.0575
169.9977, 154.3032
170.4798, 156.4135
170.9620, 158.0363
171.4441, 159.8779
171.9262, 162.0756
172.4083, 164.6994
172.8904, 168.0175
173.3725, 172.2932
173.8547, 177.5408
174.3368, 183.0422
174.8189, 188.8367
175.3010, 194.8866
175.7831, 201.2400
176.2652, 207.9213
176.7474, 214.6222
177.2295, 221.4312
177.7116, 228.0780
178.1937, 233.6412
178.6758, 237.2237
179.1579, 239.8763
179.6401, 242.9277
180.1222, 246.1364
180.6043, 250.4862
181.0864, 256.4106
181.5685, 263.7828
182.0506, 272.6524
182.5328, 283.2618
183.0149, 295.3402
183.4970, 308.3676
183.9791, 323.1987
184.4612, 337.5745
184.9433, 352.4141
185.4255, 366.1088
185.9076, 376.0551
186.3897, 380.6034
186.8718, 379.8488
187.3539, 374.7594
187.8360, 361.4399
188.3182, 347.4303
188.8003, 333.4055
189.2824, 320.3594
189.7645, 309.6472
190.2466, 302.3452
190.7287, 298.4518
191.2109, 297.5623
191.6930, 300.7335
192.1751, 305.8293
192.6572, 312.4697
193.1393, 320.5176
193.6214, 329.9415
194.1036, 340.6367
194.5857, 352.6207
195.0678, 366.3719
195.5499, 381.4453
196.0320, 398.1787
196.5141, 416.4057
196.9963, 436.2792
197.4784, 458.5061
197.9605, 483.6623
198.4426, 512.0980
198.9247, 542.7131
199.4068, 577.9277
199.8890, 613.2487
200.3711, 647.6577
200.8532, 680.5166
201.3353, 708.4406
201.8174, 729.6313
202.2995, 742.9378
202.7817, 743.3728
203.2638, 727.8987
203.7459, 701.0152
204.2280, 664.3135
204.7101, 617.4427
205.1922, 567.8774
205.6744, 520.5203
206.1565, 475.4099
206.6386, 434.1502
207.1207, 396.3334
207.6028, 362.8260
208.0849, 335.1832
208.5671, 313.8140
209.0492, 296.8297
209.5313, 283.6375
210.0134, 273.5525
210.4955, 266.0091
210.9776, 261.1496
211.4598, 258.6270
211.9419, 257.6300
212.4240, 258.0578
212.9061, 260.3942
213.3882, 266.0447
213.8703, 273.5414
214.3525, 280.2642
214.8346, 285.1526
215.3167, 288.2272
215.7988, 289.4305
216.2809, 288.4740
216.7630, 285.8165
217.2451, 281.4724
217.7273, 275.8969
218.2094, 269.8246
218.6915, 263.6320
219.1736, 257.3124
219.6557, 250.8344
220.1378, 243.6756
220.6200, 237.0849
221.1021, 231.1170
221.5842, 225.9713
222.0663, 221.9228
222.5484, 219.2354
223.0305, 217.8286
223.5127, 216.9225
223.9948, 216.3431
224.4769, 216.5683
224.9590, 217.8768
225.4411, 220.0466
225.9232, 222.6465
226.4054, 225.3630
226.8875, 228.2525
227.3696, 232.2795
227.8517, 238.0857
228.3338, 244.3840
228.8159, 250.7650
229.2981, 257.4653
229.7802, 264.8881
230.2623, 273.3483
230.7444, 282.8018
231.2265, 292.5534
231.7086, 302.7467
232.1908, 313.0449
232.6729, 323.8783
233.1550, 334.7699
233.6371, 345.0550
234.1192, 354.4395
234.6013, 362.7806
235.0835, 368.7342
235.5656, 372.9621
236.0477, 374.7307
236.5298, 373.8370
237.0119, 370.3104
237.4940, 364.1668
237.9762, 355.3439
238.4583, 343.9312
238.9404, 330.2564
239.4225, 313.1111
239.9046, 295.6241
240.3867, 278.4521
240.8689, 261.7393
241.3510, 245.8085
241.8331, 230.6155
242.3152, 216.5973
242.7973, 204.7777
243.2794, 195.4701
243.7616, 187.3814
244.2437, 180.1836
244.7258, 173.8644
245.2079, 168.4019
245.6900, 163.8197
246.1721, 160.1342
246.6543, 157.1927
247.1364, 154.9686
247.6185, 153.4063
248.1006, 152.6250
248.5827, 152.5217
249.0648, 152.7471
249.5470, 153.2782
250.0291, 154.0008
250.5112, 154.8464
250.9933, 155.9128
251.4754, 156.5807
251.9576, 156.5175
252.4397, 155.7705
252.9218, 154.5528
253.4039, 152.9337
253.8860, 150.7771
254.3681, 147.9072
254.8503, 144.3246
255.3324, 140.7342
255.8145, 137.5698
256.2966, 134.7750
256.7787, 132.0572
257.2608, 129.3323
257.7430, 126.7427
258.2251, 124.3756
258.7072, 122.2233
259.1893, 120.2302
259.6714, 118.4029
260.1535, 116.7247
260.6357, 115.0550
261.1178, 113.2728
261.5999, 111.6765
262.0820, 110.4053
262.5641, 109.4294
263.0462, 108.6557
263.5284, 108.0576
264.0105, 107.6251
264.4926, 107.3070
264.9747, 107.2355
265.4568, 107.0868
265.9389, 106.5821
266.4211, 105.8952
266.9032, 105.3974
267.3853, 105.4109
267.8674, 105.7816
268.3495, 105.7853
268.8316, 105.0223
269.3138, 104.5075
269.7959, 104.7120
270.2780, 105.3457
270.7601, 106.0100
271.2422, 106.5420
271.7243, 106.9113
272.2065, 106.9320
272.6886, 106.1584
273.1707, 105.8158
273.6528, 106.3871
274.1349, 107.4386
274.6170, 108.5080
275.0992, 109.4051
275.5813, 110.1514
276.0634, 110.7528
276.5455, 111.0147
277.0276, 111.5159
277.5097, 112.4313
277.9919, 113.5503
278.4740, 114.6317
278.9561, 115.5965
279.4382, 116.6321
279.9203, 118.1530
280.4024, 120.4501
280.8846, 122.6129
281.3667, 124.5019
281.8488, 126.2730
282.3309, 128.0422
282.8130, 129.8347
283.2951, 131.5751
283.7773, 133.1401
284.2594, 134.4615
284.7415, 135.7688
285.2236, 137.4187
285.7057, 138.8015
286.1878, 139.6090
286.6700, 139.7720
287.1521, 139.3436
287.6342, 138.2708
288.1163, 136.3192
288.5984, 134.6679
289.0805, 133.6699
289.5627, 132.6382
290.0448, 131.1232
290.5269, 129.2370
291.0090, 127.4598
291.4911, 126.2317
291.9732, 125.5875
292.4554, 125.0789
292.9375, 124.6967
293.4196, 124.4537
293.9017, 124.4386
294.3838, 124.5708
294.8659, 124.6549
295.3481, 124.5162
295.8302, 124.2022
296.3123, 124.3682
296.7944, 125.4541
297.2765, 126.5790
297.7586, 127.5057
298.2408, 128.3794
298.7229, 129.4188
299.2050, 130.7400
299.6871, 132.3120
300.1692, 134.0057
300.6513, 135.5331
301.1335, 137.5769
301.6156, 140.2800
302.0977, 143.4679
302.5798, 147.0070
303.0619, 150.8293
303.5440, 154.8813
304.0262, 159.0715
304.5083, 162.7535
304.9904, 167.6433
305.4725, 174.2031
305.9546, 181.5770
306.4367, 189.2413
306.9189, 197.0012
307.4010, 204.8723
307.8831, 212.9923
308.3652, 221.9743
308.8473, 229.4406
309.3294, 235.6308
309.8116, 240.4650
310.2937, 244.2875
310.7758, 246.8680
311.2579, 247.2875
311.7400, 244.5781
312.2221, 238.4803
312.7043, 230.6714
313.1864, 219.9173
313.6685, 208.9026
314.1506, 198.3896
314.6327, 188.4515
315.1148, 178.8858
315.5970, 169.5373
316.0791, 160.4591
316.5612, 152.4339
317.0433, 145.8134
317.5254, 139.8038
318.0075, 134.2790
318.4897, 129.2849
318.9718, 124.9486
319.4539, 121.3439
319.9360, 118.3645
320.4181, 115.6395
320.9002, 113.2974
321.3824, 111.1183
321.8645, 109.0420
322.3466, 107.1460
322.8287, 105.4881
323.3108, 104.1021
323.7929, 102.9707
324.2751, 102.1097
324.7572, 101.7848
325.2393, 101.2105
325.7214, 100.1365
326.2035, 99.02908
326.6856, 98.22900
327.1678, 97.75828
327.6499, 97.37596
328.1320, 96.79727
328.6141, 95.93287
329.0962, 95.32034
329.5783, 94.98877
330.0605, 94.83980
330.5426, 94.93082
331.0247, 95.18089
331.5068, 95.43312
331.9889, 95.58330
332.4710, 95.62706
332.9532, 95.48991
333.4353, 94.73498
333.9174, 94.27103
334.3995, 94.44882
334.8816, 94.98486
335.3637, 95.46984
335.8459, 95.69265
336.3280, 95.76048
336.8101, 95.98783
337.2922, 96.50056
337.7743, 96.99854
338.2564, 97.37361
338.7386, 97.77357
339.2206, 98.37049
339.7028, 99.19798
340.1849, 100.0905
340.6670, 100.7897
341.1491, 101.1954
341.6312, 101.6501
342.1133, 102.0405
342.5955, 102.5606
343.0776, 103.3312
343.5597, 104.3451
344.0418, 105.5242
344.5239, 106.8354
345.0060, 108.2958
345.4882, 109.5848
345.9703, 110.5063
346.4524, 111.4379
346.9345, 112.4169
347.4166, 113.4851
347.8987, 114.7064
348.3809, 116.1242
348.8630, 117.7054
349.3451, 119.2808
349.8272, 120.8144
350.3093, 122.4298
350.7914, 124.0245
351.2736, 125.7587
351.7557, 127.8454
352.2378, 130.3594
352.7199, 133.0500
353.2020, 135.4335
353.6841, 137.3115
354.1663, 139.4908
354.6484, 142.3126
355.1305, 145.2605
355.6126, 148.0051
356.0947, 150.5384
356.5768, 153.0936
357.0590, 155.9301
357.5411, 159.0445
358.0232, 162.1089
358.5053, 165.0847
358.9874, 168.0437
359.4695, 171.1057
359.9517, 174.1645
360.4338, 177.0074
360.9159, 179.5454
361.3980, 181.7560
361.8801, 183.6085
362.3622, 185.0977
362.8444, 186.1929
363.3265, 186.8564
363.8086, 187.1736
364.2907, 187.2636
364.7728, 187.1934
365.2549, 186.7272
365.7371, 185.4748
366.2192, 183.3631
366.7013, 181.0796
367.1834, 178.6977
367.6655, 176.2474
368.1476, 173.7557
368.6298, 171.2151
369.1119, 168.6278
369.5940, 166.0516
370.0761, 163.4494
370.5582, 160.5878
371.0403, 157.1971
371.5225, 154.0159
372.0046, 151.5345
372.4867, 149.6185
372.9688, 147.9847
373.4509, 146.6284
373.9330, 145.4442
374.4152, 144.3308
374.8973, 143.3120
375.3794, 142.1810
375.8615, 140.6462
376.3436, 139.0363
376.8257, 137.8700
377.3079, 137.3246
377.7900, 136.8918
378.2721, 136.1255
378.7542, 135.1332
379.2363, 134.3979
379.7184, 134.0866
380.2006, 134.0241
380.6827, 134.0239
381.1648, 134.0844
381.6469, 134.1330
382.1290, 134.1491
382.6111, 134.1391
383.0933, 134.1016
383.5754, 134.0347
384.0575, 133.9465
384.5396, 133.6485
385.0217, 133.3009
385.5038, 133.8060
385.9860, 136.1287
386.4681, 138.4604
386.9502, 139.5889
387.4323, 139.7677
387.9144, 139.8919
388.3965, 140.3353
388.8787, 141.0605
389.3608, 141.9976
389.8429, 143.1361
390.3250, 144.4560
390.8071, 145.9800
391.2892, 147.6726
391.7714, 149.4817
392.2535, 151.3933
392.7356, 153.4672
393.2177, 155.7872
393.6998, 158.4285
394.1819, 160.9732
394.6641, 163.0926
395.1462, 165.4278
395.6283, 168.2748
396.1104, 171.6353
396.5925, 175.4364
397.0746, 179.7048
397.5568, 184.3011
398.0389, 188.6061
398.5210, 191.9814
399.0031, 195.7996
399.4852, 200.0421
399.9673, 204.8857
400.4495, 210.7373
400.9316, 217.6499
401.4137, 225.0344
401.8958, 231.9348
402.3779, 237.9251
402.8600, 244.5988
403.3422, 251.9672
403.8243, 259.9393
404.3064, 268.4740
404.7885, 277.5819
405.2706, 287.3582
405.7527, 297.8668
406.2349, 309.0844
406.7170, 320.3440
407.1991, 331.3230
407.6812, 342.7580
408.1633, 354.5865
408.6454, 366.9902
409.1276, 380.2255
409.6097, 394.3573
410.0918, 409.1551
410.5739, 424.2854
411.0560, 439.5617
411.5381, 455.8501
412.0203, 472.9622
412.5024, 491.4612
412.9845, 511.8987
413.4666, 534.0365
413.9487, 556.9822
414.4308, 579.6910
414.9130, 602.5878
415.3951, 627.3669
415.8772, 654.3364
416.3593, 682.4495
416.8414, 711.5706
417.3235, 741.3665
417.8057, 771.5398
418.2878, 802.2267
418.7699, 832.9037
419.2520, 863.5792
419.7341, 894.1461
420.2162, 923.7839
420.6984, 952.6246
421.1805, 979.6379
421.6626, 1003.624
422.1447, 1024.937
422.6268, 1043.394
423.1089, 1059.936
423.5911, 1073.168
424.0732, 1080.909
424.5553, 1082.880
425.0374, 1081.135
425.5195, 1077.100
426.0016, 1070.364
426.4838, 1060.310
426.9659, 1045.133
427.4480, 1028.694
427.9301, 1012.341
428.4122, 996.0450
428.8943, 979.6314
429.3765, 962.9024
429.8586, 946.5417
430.3407, 931.7167
430.8228, 918.6862
431.3049, 906.9512
431.7870, 896.2185
432.2692, 887.0597
432.7513, 880.0587
433.2334, 875.1413
433.7155, 871.6700
434.1976, 869.1793
434.6797, 867.6814
435.1619, 867.3877
435.6440, 868.8480
436.1261, 870.9389
436.6082, 874.2076
437.0903, 877.7059
437.5724, 880.7273
438.0546, 882.9333
438.5367, 883.7680
439.0188, 882.5588
439.5009, 879.6509
439.9830, 873.4980
440.4651, 863.2604
440.9473, 850.3646
441.4294, 835.4740
441.9115, 818.4308
442.3936, 798.6394
442.8757, 775.7012
443.3578, 749.7936
443.8400, 721.9574
444.3221, 691.4456
444.8042, 660.5540
445.2863, 629.4041
445.7684, 598.5294
446.2505, 568.7012
446.7327, 540.0877
447.2148, 512.6278
447.6969, 486.3850
448.1790, 461.4194
448.6611, 437.6600
449.1432, 414.9933
449.6254, 393.9465
450.1075, 375.1877
450.5896, 358.3989
451.0717, 342.8661
451.5538, 328.8813
452.0359, 315.7795
452.5181, 302.9281
453.0002, 290.3740
453.4823, 278.6710
453.9644, 268.1215
454.4465, 258.5205
454.9286, 249.4451
455.4108, 240.8755
455.8929, 232.8036
456.3750, 225.0478
456.8571, 217.8967
457.3392, 211.7726
457.8214, 206.6831
458.3035, 202.0300
458.7856, 197.2974
459.2677, 192.4746
459.7498, 187.7403
460.2319, 182.8626
460.7141, 178.3137
461.1962, 174.3382
461.6783, 170.7319
462.1604, 167.2137
462.6425, 163.6771
463.1246, 160.2708
463.6068, 157.2724
464.0889, 154.8643
464.5710, 152.4337
465.0531, 149.9735
465.5352, 147.5058
466.0173, 144.9407
466.4995, 142.3634
466.9816, 139.9901
467.4637, 137.9997
467.9458, 136.2637
468.4279, 134.3017
468.9100, 131.8941
469.3922, 129.8166
469.8743, 128.5917
470.3564, 127.5965
470.8385, 126.3125
471.3206, 124.6654
471.8027, 123.0297
472.2849, 121.7607
472.7670, 120.7480
473.2491, 119.5770
473.7312, 118.1661
474.2133, 116.7216
474.6954, 115.3408
475.1776, 114.0370
475.6597, 112.8768
476.1418, 111.9258
476.6239, 111.0604
477.1060, 110.1974
477.5881, 109.3551
478.0703, 108.5844
478.5524, 107.9224
479.0345, 107.2882
479.5166, 106.5679
479.9987, 105.7373
480.4808, 104.9222
480.9630, 104.2534
481.4451, 103.5021
481.9272, 102.3036
482.4093, 100.8536
482.8914, 99.83257
483.3735, 99.69771
483.8557, 100.1335
484.3378, 99.99629
484.8199, 98.64090
485.3020, 97.61857
485.7841, 97.13944
486.2662, 96.88869
486.7484, 96.67748
487.2305, 96.44939
487.7126, 96.19247
488.1947, 95.91581
488.6768, 95.60844
489.1589, 95.08558
489.6411, 94.13398
490.1232, 93.30375
490.6053, 92.63966
491.0874, 92.22390
491.5695, 92.30550
492.0516, 93.00024
492.5338, 93.59779
493.0159, 93.22836
493.4980, 92.00445
493.9801, 90.92519
494.4622, 90.10727
494.9443, 89.50615
495.4265, 89.23840
495.9086, 89.17473
496.3907, 88.94697
496.8728, 88.27980
497.3549, 87.58109
497.8370, 87.19802
498.3192, 87.07545
498.8013, 87.04623
499.2834, 87.08564
499.7655, 87.07849
500.2476, 86.79292
500.7297, 86.09243
501.2119, 85.60793
501.6940, 85.52901
502.1761, 85.55324
502.6582, 85.45232
503.1403, 85.25741
503.6224, 85.17308
504.1045, 85.35545
504.5866, 85.65275
505.0688, 85.49377
505.5509, 84.36186
506.0330, 83.58540
506.5151, 83.41642
506.9972, 83.46302
507.4793, 83.46432
507.9615, 83.38814
508.4436, 83.33090
508.9257, 83.40596
509.4078, 83.57095
509.8899, 83.53306
510.3720, 83.15842
510.8542, 82.87346
511.3363, 82.95481
511.8184, 83.14185
512.3005, 83.14529
512.7827, 82.89448
513.2648, 82.67732
513.7469, 82.68627
514.2290, 82.89731
514.7111, 83.31184
515.1932, 83.99393
515.6754, 84.57891
516.1575, 84.78968
516.6396, 84.65528
517.1217, 84.39889
517.6038, 83.80005
518.0859, 83.34396
518.5681, 83.36691
519.0502, 83.64838
519.5323, 83.77074
520.0144, 83.62112
520.4965, 83.48959
520.9786, 83.76794
521.4608, 84.57610
521.9429, 85.05907
522.4250, 84.91621
522.9071, 84.83456
523.3892, 85.15492
523.8713, 85.66721
524.3535, 85.98238
524.8356, 85.94332
525.3177, 85.84103
525.7998, 86.21755
526.2819, 87.20993
526.7640, 87.97629
527.2462, 88.07328
527.7283, 88.35378
528.2104, 89.55058
528.6925, 91.22425
529.1746, 92.29720
529.6567, 92.00501
530.1389, 91.39698
530.6210, 91.94755
531.1031, 93.59507
531.5852, 95.29011
532.0673, 96.81471
532.5494, 98.14767
533.0316, 99.14687
533.5137, 99.83162
533.9958, 100.7341
534.4779, 102.0110
534.9600, 103.4996
535.4421, 105.2118
535.9243, 107.0489
536.4064, 108.7453
536.8885, 110.1561
537.3706, 111.3992
537.8527, 112.6815
538.3348, 113.8315
538.8170, 115.4306
539.2991, 117.7218
539.7812, 120.1978
540.2633, 122.6789
540.7454, 125.1050
541.2275, 127.3963
541.7097, 129.4579
542.1918, 131.5036
542.6739, 134.1078
543.1560, 137.3896
543.6381, 140.8966
544.1202, 144.7622
544.6024, 148.6400
545.0845, 152.1453
545.5666, 155.4060
546.0487, 158.9940
546.5308, 163.4822
547.0129, 168.3696
547.4951, 172.8303
547.9772, 176.8827
548.4593, 180.9595
548.9414, 185.3902
549.4235, 189.7373
549.9056, 193.2184
550.3878, 195.9297
550.8699, 197.7202
551.3520, 198.8889
551.8341, 198.8474
552.3162, 196.9075
552.7983, 193.2652
553.2805, 188.6601
553.7626, 183.4688
554.2447, 177.7217
554.7268, 171.4348
555.2089, 164.1081
555.6910, 157.1402
556.1732, 150.4821
556.6553, 144.1893
557.1374, 138.1592
557.6195, 132.4695
558.1016, 127.3829
558.5837, 123.0661
559.0659, 119.4016
559.5480, 116.1358
560.0301, 113.2903
560.5122, 110.7864
560.9943, 108.6181
561.4764, 106.8187
561.9586, 105.3541
562.4407, 104.2312
562.9228, 103.4890
563.4049, 103.0763
563.8870, 103.0959
564.3691, 103.8314
564.8513, 105.1684
565.3334, 106.4493
565.8155, 107.3055
566.2976, 108.1629
566.7797, 109.8777
567.2618, 112.9334
567.7440, 115.7723
568.2261, 118.0058
568.7082, 120.3594
569.1903, 123.3373
569.6724, 126.7775
570.1545, 130.2957
570.6367, 133.6716
571.1188, 136.9745
571.6009, 140.2322
572.0830, 143.3417
572.5651, 146.9101
573.0472, 151.1690
573.5294, 155.7591
574.0115, 160.3008
574.4936, 165.0147
574.9757, 170.4724
575.4578, 176.9479
575.9399, 184.2168
576.4221, 191.8250
576.9042, 199.8980
577.3863, 209.2395
577.8684, 219.9950
578.3505, 232.2601
578.8326, 246.0789
579.3148, 261.5607
579.7969, 278.5985
580.2790, 296.8605
580.7611, 316.9768
581.2432, 340.1858
581.7253, 365.1991
582.2075, 390.8465
582.6896, 416.3933
583.1717, 440.9965
583.6538, 463.8408
584.1359, 485.4989
584.6180, 501.3882
585.1002, 513.5181
585.5823, 516.8632
586.0643, 508.3553
