##NAMES=Fairfieldite
##RRUFFID=R070630
##IDEAL CHEMISTRY=Ca_2_Mn^2+^(PO_4_)_2_&#183;2H_2_O
##LOCALITY=Tip Top mine, Custer County, South Dakota, USA
##OWNER=RRUFF
##SOURCE=Dakota Matrix Minerals
##DESCRIPTION=Transparent white to colorless lamellar and massive crystals associated with whitlockite
##STATUS=The identification of this mineral is confirmed by single-crystal X-ray diffraction and chemical analysis.
##URL=rruff.info/R070630
##MEASURED CHEMISTRY=Ca_1.99_(Mn_0.83_Mg_0.16_Fe_0.01_)(P_1.00_O_4_)_2_Â·2H_2_O
86.68555, 1073.480
87.16766, 1105.125
87.64978, 1134.792
88.13190, 1162.563
88.61401, 1185.926
89.09613, 1195.564
89.57825, 1204.458
90.06036, 1221.152
90.54248, 1248.000
91.02460, 1283.597
91.50671, 1326.834
91.98883, 1386.154
92.47095, 1439.012
92.95306, 1480.155
93.43518, 1512.924
93.91730, 1540.856
94.39941, 1564.931
94.88153, 1585.042
95.36365, 1615.736
95.84576, 1650.989
96.32788, 1701.039
96.81000, 1776.999
97.29212, 1875.100
97.77424, 1979.424
98.25636, 2073.077
98.73847, 2150.908
99.22059, 2230.502
99.70271, 2308.640
100.1848, 2389.798
100.6669, 2479.341
101.1491, 2578.874
101.6312, 2684.642
102.1133, 2724.252
102.5954, 2749.524
103.0775, 2786.785
103.5596, 2854.466
104.0418, 2943.690
104.5239, 3026.246
105.0060, 3108.115
105.4881, 3162.822
105.9702, 3159.967
106.4523, 3094.204
106.9345, 2979.936
107.4166, 2818.214
107.8987, 2594.757
108.3808, 2380.415
108.8629, 2206.096
109.3450, 2058.016
109.8272, 1923.419
110.3093, 1790.894
110.7914, 1665.668
111.2735, 1575.036
111.7556, 1546.076
112.2377, 1524.538
112.7199, 1490.129
113.2020, 1447.038
113.6841, 1408.328
114.1662, 1388.652
114.6483, 1395.074
115.1304, 1389.471
115.6126, 1363.962
116.0947, 1334.368
116.5768, 1306.946
117.0589, 1283.588
117.5410, 1264.557
118.0231, 1250.515
118.5053, 1248.893
118.9874, 1241.396
119.4695, 1219.722
119.9516, 1195.005
120.4337, 1179.650
120.9158, 1179.130
121.3980, 1190.505
121.8801, 1205.606
122.3622, 1231.796
122.8443, 1252.217
123.3264, 1260.677
123.8085, 1258.546
124.2907, 1250.413
124.7728, 1237.820
125.2549, 1220.776
125.7370, 1202.137
126.2191, 1173.728
126.7012, 1148.384
127.1834, 1140.716
127.6655, 1153.342
128.1476, 1170.362
128.6297, 1182.065
129.1118, 1189.977
129.5939, 1195.890
130.0761, 1198.680
130.5582, 1199.766
131.0403, 1203.990
131.5224, 1212.683
132.0045, 1223.327
132.4866, 1237.153
132.9688, 1252.450
133.4509, 1263.453
133.9330, 1265.181
134.4151, 1257.015
134.8972, 1244.335
135.3793, 1217.268
135.8615, 1193.072
136.3436, 1177.579
136.8257, 1172.674
137.3078, 1179.319
137.7899, 1201.569
138.2720, 1254.876
138.7542, 1294.288
139.2363, 1317.394
139.7184, 1328.861
140.2005, 1330.510
140.6826, 1323.245
141.1647, 1310.083
141.6469, 1299.832
142.1290, 1280.803
142.6111, 1278.549
143.0932, 1304.002
143.5753, 1347.038
144.0574, 1394.098
144.5396, 1439.119
145.0217, 1480.584
145.5038, 1506.429
145.9859, 1523.336
146.4680, 1523.011
146.9501, 1493.642
147.4323, 1439.728
147.9144, 1383.059
148.3965, 1338.932
148.8786, 1307.949
149.3607, 1279.322
149.8429, 1252.584
150.3250, 1228.019
150.8071, 1205.263
151.2892, 1183.857
151.7713, 1166.480
152.2534, 1160.963
152.7356, 1163.419
153.2177, 1159.469
153.6998, 1139.487
154.1819, 1109.854
154.6640, 1083.985
155.1461, 1060.311
155.6283, 1047.160
156.1104, 1054.502
156.5925, 1079.410
157.0746, 1102.923
157.5567, 1108.143
158.0388, 1095.697
158.5210, 1091.991
159.0031, 1111.613
159.4852, 1133.217
159.9673, 1144.760
160.4494, 1144.828
160.9315, 1138.887
161.4137, 1129.874
161.8958, 1112.805
162.3779, 1110.022
162.8600, 1136.644
163.3421, 1169.842
163.8242, 1194.035
164.3064, 1204.272
164.7885, 1207.439
165.2706, 1218.255
165.7527, 1244.975
166.2348, 1266.347
166.7169, 1274.683
167.1991, 1279.113
167.6812, 1289.009
168.1633, 1309.118
168.6454, 1337.274
169.1275, 1364.706
169.6096, 1386.575
170.0918, 1412.966
170.5739, 1442.832
171.0560, 1478.399
171.5381, 1525.582
172.0202, 1590.597
172.5023, 1671.427
172.9845, 1727.610
173.4666, 1734.137
173.9487, 1746.293
174.4308, 1789.001
174.9129, 1857.653
175.3951, 1931.425
175.8772, 1996.129
176.3593, 2050.791
176.8414, 2097.505
177.3235, 2139.572
177.8056, 2172.550
178.2878, 2190.564
178.7699, 2193.596
179.2520, 2191.916
179.7341, 2193.903
180.2162, 2199.656
180.6983, 2207.427
181.1805, 2209.083
181.6626, 2215.899
182.1447, 2241.875
182.6268, 2289.811
183.1089, 2352.819
183.5910, 2426.648
184.0732, 2509.773
184.5553, 2600.363
185.0374, 2709.960
185.5195, 2826.503
186.0016, 2926.290
186.4837, 3013.835
186.9659, 3065.561
187.4480, 3064.363
187.9301, 3013.751
188.4122, 2931.699
188.8943, 2815.745
189.3764, 2670.919
189.8586, 2531.806
190.3407, 2393.434
190.8228, 2276.703
191.3049, 2196.656
191.7870, 2153.644
192.2691, 2131.696
192.7513, 2122.460
193.2334, 2127.841
193.7155, 2126.671
194.1976, 2094.065
194.6797, 2067.112
195.1618, 2067.587
195.6440, 2099.632
196.1261, 2151.862
196.6082, 2213.864
197.0903, 2292.377
197.5724, 2360.580
198.0546, 2401.914
198.5367, 2439.698
199.0188, 2486.539
199.5009, 2547.034
199.9830, 2622.845
200.4651, 2722.842
200.9473, 2875.882
201.4294, 2998.564
201.9115, 3084.433
202.3936, 3140.837
202.8757, 3173.564
203.3578, 3184.887
203.8400, 3174.809
204.3221, 3142.459
204.8042, 3075.111
205.2863, 2999.125
205.7684, 2905.796
206.2505, 2809.816
206.7327, 2727.397
207.2148, 2667.354
207.6969, 2625.231
208.1790, 2582.317
208.6611, 2529.581
209.1432, 2486.397
209.6254, 2455.993
210.1075, 2436.712
210.5896, 2423.915
211.0717, 2414.070
211.5538, 2409.950
212.0359, 2432.286
212.5181, 2513.201
213.0002, 2583.033
213.4823, 2622.210
213.9644, 2637.202
214.4465, 2644.943
214.9286, 2657.981
215.4108, 2673.256
215.8929, 2653.875
216.3750, 2585.174
216.8571, 2505.682
217.3392, 2422.665
217.8213, 2339.735
218.3035, 2265.139
218.7856, 2205.735
219.2677, 2160.528
219.7498, 2109.086
220.2319, 2043.679
220.7140, 1979.798
221.1962, 1925.505
221.6783, 1880.444
222.1604, 1839.328
222.6425, 1797.594
223.1246, 1756.632
223.6067, 1724.782
224.0889, 1700.307
224.5710, 1685.859
225.0531, 1683.440
225.5352, 1693.054
226.0173, 1713.939
226.4994, 1748.914
226.9816, 1796.580
227.4637, 1841.605
227.9458, 1879.474
228.4279, 1916.730
228.9100, 1959.978
229.3921, 2009.781
229.8743, 2060.596
230.3564, 2102.929
230.8385, 2142.058
231.3206, 2197.681
231.8027, 2282.014
232.2849, 2380.251
232.7670, 2478.471
233.2491, 2577.373
233.7312, 2668.754
234.2133, 2742.015
234.6954, 2802.136
235.1776, 2859.561
235.6597, 2932.904
236.1418, 2999.162
236.6239, 3022.894
237.1060, 2999.406
237.5881, 2947.555
238.0703, 2872.502
238.5524, 2779.314
239.0345, 2674.337
239.5166, 2555.180
239.9987, 2426.546
240.4808, 2292.551
240.9630, 2147.791
241.4451, 2012.107
241.9272, 1897.376
242.4093, 1799.639
242.8914, 1713.677
243.3735, 1642.195
243.8557, 1580.127
244.3378, 1512.870
244.8199, 1433.275
245.3020, 1364.823
245.7841, 1326.094
246.2662, 1306.819
246.7484, 1289.294
247.2305, 1264.801
247.7126, 1236.075
248.1947, 1210.930
248.6768, 1191.024
249.1589, 1171.948
249.6411, 1146.506
250.1232, 1120.309
250.6053, 1104.353
251.0874, 1109.926
251.5695, 1129.367
252.0516, 1137.879
252.5338, 1131.218
253.0159, 1120.080
253.4980, 1111.329
253.9801, 1102.264
254.4622, 1087.554
254.9443, 1060.843
255.4265, 1026.976
255.9086, 1003.869
256.3907, 998.5518
256.8728, 993.1392
257.3549, 976.1113
257.8370, 954.2671
258.3192, 939.7949
258.8013, 943.4530
259.2834, 958.3560
259.7655, 958.0811
260.2476, 933.3061
260.7297, 907.1660
261.2119, 881.0950
261.6940, 860.7204
262.1761, 855.5590
262.6582, 873.6220
263.1403, 909.4475
263.6224, 944.1251
264.1046, 985.3586
264.5867, 1011.864
265.0688, 1010.314
265.5509, 993.5125
266.0330, 978.8870
266.5151, 974.4999
266.9973, 979.7294
267.4794, 993.0697
267.9615, 1018.496
268.4436, 1046.188
268.9257, 1078.258
269.4078, 1109.035
269.8900, 1129.497
270.3721, 1132.592
270.8542, 1125.914
271.3363, 1133.105
271.8184, 1159.511
272.3005, 1192.242
272.7827, 1231.232
273.2648, 1272.177
273.7469, 1308.872
274.2290, 1337.262
274.7111, 1361.873
275.1932, 1395.170
275.6754, 1441.240
276.1575, 1488.865
276.6396, 1538.941
277.1217, 1587.076
277.6038, 1626.818
278.0859, 1653.977
278.5681, 1676.335
279.0502, 1712.089
279.5323, 1764.460
280.0144, 1824.909
280.4965, 1903.475
280.9786, 1982.214
281.4608, 2043.149
281.9429, 2078.562
282.4250, 2098.833
282.9071, 2124.555
283.3892, 2160.664
283.8713, 2190.847
284.3535, 2214.116
284.8356, 2230.313
285.3177, 2242.444
285.7998, 2251.524
286.2819, 2248.487
286.7640, 2214.528
287.2462, 2135.685
287.7283, 2061.529
288.2104, 2003.859
288.6925, 1950.260
289.1746, 1892.618
289.6567, 1828.610
290.1389, 1759.905
290.6210, 1687.104
291.1031, 1608.486
291.5852, 1532.123
292.0673, 1454.617
292.5495, 1382.436
293.0316, 1321.471
293.5137, 1272.229
293.9958, 1229.011
294.4779, 1185.698
294.9601, 1142.211
295.4422, 1099.331
295.9243, 1041.651
296.4064, 996.7559
296.8885, 987.7385
297.3706, 1012.142
297.8528, 1040.739
298.3349, 1042.890
298.8170, 1015.117
299.2991, 990.5689
299.7812, 966.7283
300.2633, 950.6277
300.7455, 948.2960
301.2276, 957.9031
301.7097, 971.2237
302.1918, 982.5952
302.6739, 991.9942
303.1560, 999.0262
303.6382, 1004.285
304.1203, 1006.100
304.6024, 999.7512
305.0845, 988.8843
305.5666, 983.1146
306.0487, 991.1315
306.5309, 1011.044
307.0130, 1027.851
307.4951, 1040.350
307.9772, 1051.073
308.4593, 1065.093
308.9414, 1078.334
309.4236, 1082.269
309.9057, 1068.403
310.3878, 1042.808
310.8699, 1026.095
311.3520, 1022.083
311.8341, 1020.292
312.3163, 1022.444
312.7984, 1022.549
313.2805, 1010.634
313.7626, 978.5219
314.2447, 936.5958
314.7268, 905.7143
315.2090, 889.0458
315.6911, 874.5524
316.1732, 857.1168
316.6553, 839.3933
317.1374, 824.9617
317.6195, 816.3832
318.1017, 808.0061
318.5838, 788.9316
319.0659, 756.0068
319.5480, 731.6012
320.0301, 732.5256
320.5122, 741.0355
320.9944, 741.4888
321.4765, 730.2930
321.9586, 715.4135
322.4407, 702.7564
322.9228, 692.3690
323.4049, 687.7865
323.8871, 696.8160
324.3692, 706.1775
324.8513, 701.0914
325.3334, 679.7957
325.8155, 659.5894
326.2976, 654.3146
326.7798, 661.3600
327.2619, 666.2167
327.7440, 663.8225
328.2261, 661.8608
328.7082, 670.1514
329.1903, 687.7273
329.6725, 700.7902
330.1546, 702.0668
330.6367, 694.0806
331.1188, 680.7958
331.6009, 659.7465
332.0830, 641.3826
332.5652, 637.5719
333.0473, 645.0590
333.5294, 653.7886
334.0115, 663.3900
334.4936, 671.4033
334.9757, 672.2960
335.4579, 664.7560
335.9400, 659.3998
336.4221, 667.5894
336.9042, 685.1488
337.3863, 695.1687
337.8684, 690.9598
338.3506, 682.0084
338.8327, 674.4667
339.3148, 668.6343
339.7969, 666.2188
340.2790, 668.7843
340.7611, 675.6561
341.2433, 683.2899
341.7254, 693.2044
342.2075, 702.1146
342.6896, 709.0657
343.1717, 713.8171
343.6538, 715.3685
344.1360, 712.8537
344.6181, 707.4982
345.1002, 701.7281
345.5823, 691.5073
346.0644, 688.0199
346.5465, 696.5155
347.0287, 712.8619
347.5108, 731.1604
347.9929, 749.4983
348.4750, 769.3477
348.9571, 794.1237
349.4392, 830.7556
349.9214, 854.7585
350.4035, 852.3279
350.8856, 843.9927
351.3677, 849.9783
351.8498, 872.7238
352.3319, 898.5201
352.8141, 911.4235
353.2962, 906.6480
353.7783, 911.7394
354.2604, 931.5670
354.7425, 955.5875
355.2246, 980.2422
355.7068, 1004.215
356.1889, 1026.148
356.6710, 1045.232
357.1531, 1061.439
357.6352, 1072.155
358.1173, 1070.059
358.5995, 1070.710
359.0816, 1077.710
359.5637, 1090.377
360.0458, 1108.305
360.5279, 1131.997
361.0100, 1158.379
361.4922, 1176.651
361.9743, 1181.389
362.4564, 1184.647
362.9385, 1186.788
363.4206, 1188.679
363.9027, 1191.886
364.3849, 1196.795
364.8670, 1201.016
365.3491, 1200.280
365.8312, 1192.868
366.3133, 1184.828
366.7954, 1176.638
367.2776, 1167.984
367.7597, 1158.679
368.2418, 1148.667
368.7239, 1138.072
369.2060, 1126.062
369.6881, 1112.349
370.1703, 1102.597
370.6524, 1106.034
371.1345, 1103.451
371.6166, 1082.909
372.0987, 1049.031
372.5808, 1014.043
373.0630, 979.0731
373.5451, 949.4097
374.0272, 949.4344
374.5093, 995.8891
374.9915, 1035.537
375.4736, 1039.558
375.9557, 1022.424
376.4378, 1001.828
376.9199, 980.8753
377.4020, 962.6926
377.8842, 953.8082
378.3663, 955.0464
378.8484, 952.2602
379.3305, 935.5450
379.8126, 914.6519
380.2947, 901.7778
380.7769, 897.9589
381.2590, 900.9119
381.7411, 912.1348
382.2232, 929.5109
382.7053, 946.9099
383.1874, 965.2048
383.6696, 978.3349
384.1517, 973.7969
384.6338, 951.3933
385.1159, 935.7122
385.5980, 937.8436
386.0801, 948.2218
386.5623, 956.2748
387.0444, 960.5663
387.5265, 961.9450
388.0086, 960.0702
388.4907, 954.8591
388.9728, 953.6489
389.4550, 957.5158
389.9371, 964.2846
390.4192, 973.9637
390.9013, 985.7228
391.3834, 995.9810
391.8655, 1001.409
392.3477, 1005.231
392.8298, 1023.576
393.3119, 1077.492
393.7940, 1119.165
394.2761, 1137.887
394.7582, 1141.597
395.2404, 1136.107
395.7225, 1124.047
396.2046, 1112.775
396.6867, 1114.779
397.1688, 1132.268
397.6509, 1160.331
398.1331, 1208.421
398.6152, 1258.178
399.0973, 1300.236
399.5794, 1332.630
400.0615, 1355.401
400.5436, 1363.483
401.0258, 1354.724
401.5079, 1374.288
401.9900, 1455.020
402.4721, 1530.646
402.9542, 1575.407
403.4363, 1601.849
403.9185, 1634.020
404.4006, 1684.684
404.8827, 1749.497
405.3648, 1819.843
405.8469, 1900.693
406.3290, 1974.032
406.8112, 2025.709
407.2933, 2071.734
407.7754, 2123.099
408.2575, 2181.907
408.7396, 2253.009
409.2217, 2345.813
409.7039, 2458.898
410.1860, 2571.893
410.6681, 2678.373
411.1502, 2787.690
411.6323, 2911.301
412.1144, 3047.700
412.5966, 3179.242
413.0787, 3289.083
413.5608, 3392.661
414.0429, 3519.131
414.5250, 3673.515
415.0071, 3825.507
415.4893, 3949.373
415.9714, 4049.660
416.4535, 4159.292
416.9356, 4273.798
417.4177, 4402.204
417.8998, 4560.592
418.3820, 4738.479
418.8641, 4909.468
419.3462, 5063.475
419.8283, 5198.033
420.3104, 5302.864
420.7925, 5355.332
421.2747, 5417.270
421.7568, 5516.124
422.2389, 5616.762
422.7210, 5682.141
423.2031, 5705.006
423.6852, 5703.420
424.1674, 5699.676
424.6495, 5699.612
425.1316, 5669.382
425.6137, 5603.619
426.0958, 5517.878
426.5779, 5408.576
427.0601, 5284.152
427.5422, 5159.964
428.0243, 5045.895
428.5064, 4940.026
428.9885, 4831.198
429.4706, 4710.437
429.9528, 4601.384
430.4349, 4509.664
430.9170, 4429.029
431.3991, 4353.366
431.8812, 4280.603
432.3633, 4215.048
432.8455, 4166.535
433.3276, 4136.058
433.8097, 4096.706
434.2918, 4032.494
434.7739, 3971.884
435.2560, 3933.286
435.7382, 3915.835
436.2203, 3911.656
436.7024, 3925.012
437.1845, 3946.704
437.6666, 3960.520
438.1487, 3965.584
438.6309, 3964.402
439.1130, 3958.954
439.5951, 3947.834
440.0772, 3928.843
440.5593, 3906.134
441.0414, 3870.431
441.5236, 3809.362
442.0057, 3730.858
442.4878, 3658.217
442.9699, 3601.248
443.4520, 3545.512
443.9341, 3464.705
444.4163, 3348.638
444.8984, 3229.883
445.3805, 3107.183
445.8626, 2983.198
446.3447, 2856.624
446.8268, 2729.261
447.3090, 2608.030
447.7911, 2499.283
448.2732, 2402.628
448.7553, 2311.126
449.2374, 2230.554
449.7195, 2148.787
450.2017, 2056.389
450.6838, 1963.255
451.1659, 1885.527
451.6480, 1830.414
452.1301, 1786.183
452.6122, 1728.917
453.0944, 1652.098
453.5765, 1584.215
454.0586, 1532.469
454.5407, 1489.108
455.0228, 1452.095
455.5049, 1420.521
455.9871, 1390.175
456.4692, 1359.588
456.9513, 1328.267
457.4334, 1292.800
457.9156, 1250.735
458.3977, 1211.601
458.8798, 1181.727
459.3619, 1158.952
459.8440, 1140.906
460.3261, 1136.120
460.8083, 1124.662
461.2904, 1080.376
461.7725, 1014.338
462.2546, 967.9628
462.7367, 957.5735
463.2188, 969.7134
463.7010, 986.6183
464.1831, 1017.454
464.6652, 1023.248
465.1473, 973.2712
465.6294, 914.2622
466.1115, 889.4813
466.5937, 898.8996
467.0758, 912.2853
467.5579, 904.5744
468.0400, 877.0204
468.5221, 857.8135
469.0042, 855.6918
469.4864, 852.1731
469.9685, 843.9257
470.4506, 832.4634
470.9327, 817.9380
471.4148, 800.5735
471.8969, 785.6712
472.3791, 784.3293
472.8612, 801.4824
473.3433, 810.4741
473.8254, 810.5979
474.3075, 799.6514
474.7896, 764.0641
475.2718, 712.9272
475.7539, 679.6254
476.2360, 697.1661
476.7181, 741.6774
477.2002, 758.2353
477.6823, 742.3970
478.1645, 724.0668
478.6466, 717.6271
479.1287, 718.4086
479.6108, 717.5539
480.0929, 715.4077
480.5750, 710.0406
481.0572, 696.6252
481.5393, 680.0605
482.0214, 669.8902
482.5035, 668.5911
482.9856, 672.1137
483.4677, 677.1396
483.9499, 684.9492
484.4320, 685.1360
484.9141, 667.8743
485.3962, 652.8532
485.8783, 654.1670
486.3604, 665.6522
486.8426, 671.6528
487.3247, 663.0686
487.8068, 646.2477
488.2889, 640.7781
488.7710, 658.4019
489.2531, 665.4329
489.7353, 651.9572
490.2174, 633.5121
490.6995, 620.1381
491.1816, 613.1924
491.6637, 609.3163
492.1458, 604.6271
492.6280, 599.9645
493.1101, 602.5382
493.5922, 616.1157
494.0743, 628.9616
494.5564, 635.8384
495.0385, 637.6423
495.5207, 634.0080
496.0028, 620.8026
496.4849, 609.6563
496.9670, 614.6048
497.4491, 630.0928
497.9312, 634.6962
498.4134, 620.0733
498.8955, 600.6000
499.3776, 596.2487
499.8597, 610.8185
500.3418, 618.9405
500.8239, 618.3087
501.3061, 611.5477
501.7882, 595.1542
502.2703, 573.4660
502.7524, 558.4451
503.2345, 557.5419
503.7166, 567.7788
504.1988, 578.5053
504.6809, 591.7374
505.1630, 602.1566
505.6451, 610.5322
506.1272, 615.4481
506.6093, 615.6276
507.0915, 611.0021
507.5736, 602.4544
508.0557, 586.5223
508.5378, 565.1695
509.0199, 559.2540
509.5020, 576.6061
509.9842, 594.3484
510.4663, 602.1711
510.9484, 602.7747
511.4305, 598.8421
511.9126, 589.3701
512.3948, 578.8318
512.8769, 571.7176
513.3590, 566.5495
513.8411, 556.6095
514.3232, 538.4008
514.8054, 521.6702
515.2875, 518.5509
515.7696, 531.3749
516.2517, 545.0780
516.7338, 564.8680
517.2159, 580.4163
517.6981, 581.9074
518.1802, 574.1537
518.6623, 569.7180
519.1444, 575.4016
519.6265, 587.1152
520.1086, 593.5001
520.5908, 589.4040
521.0729, 589.9232
521.5550, 603.6317
522.0371, 615.5360
522.5192, 614.0077
523.0013, 600.3201
523.4835, 585.2500
523.9656, 575.1013
524.4477, 570.0679
524.9298, 572.4398
525.4119, 584.7485
525.8940, 595.5464
526.3762, 598.6048
526.8583, 597.5806
527.3404, 597.9774
527.8225, 601.4138
528.3046, 602.3821
528.7867, 594.6395
529.2689, 583.4536
529.7510, 576.8784
530.2331, 576.3446
530.7152, 583.5507
531.1973, 602.7231
531.6794, 634.1230
532.1616, 651.2321
532.6437, 645.7488
533.1258, 637.8766
533.6079, 631.3141
534.0900, 626.9142
534.5721, 625.2339
535.0543, 626.4801
535.5364, 630.5611
536.0185, 636.6893
536.5006, 643.9087
536.9827, 658.2998
537.4648, 688.9437
537.9470, 717.1375
538.4291, 734.0359
538.9112, 742.4374
539.3933, 748.2938
539.8754, 751.5492
540.3575, 757.1357
540.8397, 775.2823
541.3218, 804.2731
541.8039, 822.7631
542.2860, 818.1836
542.7681, 810.7892
543.2502, 834.1377
543.7324, 891.4685
544.2145, 935.8060
544.6966, 949.3545
545.1787, 956.7990
545.6608, 975.9496
546.1429, 1005.326
546.6251, 1036.777
547.1072, 1066.156
547.5893, 1091.977
548.0714, 1109.748
548.5535, 1113.487
549.0356, 1119.459
549.5178, 1131.480
549.9999, 1143.302
550.4820, 1150.142
550.9641, 1152.559
551.4462, 1155.354
551.9283, 1165.184
552.4105, 1176.599
552.8926, 1173.885
553.3747, 1155.967
553.8568, 1128.197
554.3389, 1084.261
554.8210, 1037.123
555.3032, 1006.976
555.7853, 997.2977
556.2674, 989.5181
556.7495, 978.2653
557.2316, 963.8345
557.7137, 945.4011
558.1959, 923.4305
558.6780, 902.2369
559.1601, 885.7500
559.6422, 872.5224
560.1243, 852.2935
560.6064, 811.9355
561.0886, 780.7421
561.5707, 765.2442
562.0528, 757.6793
562.5349, 752.3125
563.0170, 747.5356
563.4991, 743.0217
563.9813, 738.2457
564.4634, 733.3623
564.9455, 729.2393
565.4276, 725.1057
565.9097, 723.5886
566.3918, 728.7266
566.8740, 736.1951
567.3561, 740.3669
567.8382, 739.9171
568.3203, 738.1349
568.8024, 736.1611
569.2845, 734.2559
569.7667, 732.2593
570.2488, 730.2309
570.7309, 730.3076
571.2130, 734.8159
571.6951, 743.4295
572.1772, 749.8730
572.6594, 751.5720
573.1415, 754.3898
573.6236, 757.8942
574.1057, 763.8596
574.5878, 774.9492
575.0699, 791.3337
575.5521, 809.5709
576.0342, 825.1329
576.5163, 838.4145
576.9984, 858.1880
577.4805, 890.8138
577.9626, 917.2918
578.4448, 919.2555
578.9269, 912.4141
579.4090, 918.8445
579.8911, 945.4938
580.3732, 975.8080
