##NAMES=Fairfieldite
##RRUFFID=R070630
##IDEAL CHEMISTRY=Ca_2_Mn^2+^(PO_4_)_2_&#183;2H_2_O
##LOCALITY=Tip Top mine, Custer County, South Dakota, USA
##OWNER=RRUFF
##SOURCE=Dakota Matrix Minerals
##DESCRIPTION=Transparent white to colorless lamellar and massive crystals associated with whitlockite
##STATUS=The identification of this mineral is confirmed by single-crystal X-ray diffraction and chemical analysis.
##URL=rruff.info/R070630
##MEASURED CHEMISTRY=Ca_1.99_(Mn_0.83_Mg_0.16_Fe_0.01_)(P_1.00_O_4_)_2_Â·2H_2_O
115.6752, 289.5681
116.1573, 279.5350
116.6394, 273.9746
117.1216, 283.0468
117.6037, 305.6503
118.0858, 333.6970
118.5679, 365.8258
119.0500, 400.1242
119.5321, 434.2288
120.0143, 471.7138
120.4964, 506.0423
120.9785, 528.3304
121.4606, 536.4549
121.9427, 546.3004
122.4248, 578.0894
122.9070, 623.3219
123.3891, 659.8401
123.8712, 665.3539
124.3533, 656.4296
124.8354, 657.4246
125.3175, 668.6119
125.7996, 696.6517
126.2818, 762.2390
126.7639, 863.1938
127.2460, 959.9976
127.7281, 1021.889
128.2102, 1055.553
128.6924, 1086.453
129.1745, 1123.372
129.6566, 1161.408
130.1387, 1180.016
130.6208, 1174.829
131.1029, 1174.404
131.5850, 1224.166
132.0672, 1324.197
132.5493, 1405.519
133.0314, 1427.648
133.5135, 1392.810
133.9956, 1393.314
134.4777, 1439.987
134.9599, 1507.695
135.4420, 1540.276
135.9241, 1528.173
136.4062, 1521.208
136.8883, 1550.431
137.3704, 1622.565
137.8526, 1695.385
138.3347, 1771.116
138.8168, 1844.860
139.2989, 1889.288
139.7810, 1891.792
140.2631, 1885.277
140.7453, 1899.677
141.2274, 1950.502
141.7095, 1986.974
142.1916, 1991.498
142.6737, 1957.730
143.1558, 1954.784
143.6380, 1996.019
144.1201, 2059.360
144.6022, 2118.745
145.0843, 2186.535
145.5664, 2213.948
146.0485, 2206.537
146.5307, 2144.217
147.0128, 2094.699
147.4949, 2066.806
147.9770, 2051.682
148.4591, 2028.227
148.9412, 1989.917
149.4234, 1948.855
149.9055, 1910.015
150.3876, 1865.404
150.8697, 1831.958
151.3518, 1810.408
151.8339, 1800.457
152.3161, 1802.923
152.7982, 1830.902
153.2803, 1863.819
153.7624, 1887.329
154.2445, 1895.062
154.7266, 1897.793
155.2087, 1894.561
155.6909, 1884.240
156.1730, 1881.531
156.6551, 1893.067
157.1372, 1912.771
157.6193, 1933.816
158.1014, 1953.343
158.5836, 1974.275
159.0657, 1996.924
159.5478, 2019.327
160.0299, 2048.492
160.5120, 2096.974
160.9941, 2154.201
161.4763, 2198.187
161.9584, 2209.757
162.4405, 2210.999
162.9226, 2217.134
163.4047, 2233.149
163.8868, 2252.020
164.3690, 2267.760
164.8511, 2282.273
165.3332, 2303.910
165.8153, 2339.749
166.2974, 2384.085
166.7795, 2430.841
167.2617, 2471.718
167.7438, 2518.845
168.2259, 2586.958
168.7080, 2674.888
169.1901, 2761.436
169.6722, 2828.090
170.1544, 2883.724
170.6365, 2943.108
171.1186, 3017.419
171.6007, 3095.971
172.0828, 3169.326
172.5649, 3236.539
173.0471, 3301.932
173.5292, 3365.491
174.0113, 3429.281
174.4934, 3498.611
174.9755, 3583.826
175.4576, 3674.458
175.9397, 3755.087
176.4219, 3828.028
176.9040, 3882.406
177.3861, 3901.992
177.8682, 3889.704
178.3503, 3863.327
178.8324, 3825.986
179.3146, 3783.394
179.7967, 3745.468
180.2788, 3705.734
180.7609, 3681.534
181.2430, 3708.377
181.7251, 3785.472
182.2073, 3884.042
182.6894, 3977.375
183.1715, 4070.112
183.6536, 4178.188
184.1357, 4313.621
184.6178, 4466.445
185.1000, 4626.333
185.5821, 4799.175
186.0642, 4947.340
186.5463, 5030.792
187.0284, 5051.561
187.5105, 5035.133
187.9927, 4980.085
188.4748, 4893.134
188.9569, 4798.223
189.4390, 4690.419
189.9211, 4589.984
190.4032, 4528.815
190.8854, 4507.750
191.3675, 4500.343
191.8496, 4488.555
192.3317, 4474.275
192.8138, 4487.891
193.2959, 4535.919
193.7781, 4605.584
194.2602, 4668.913
194.7423, 4723.010
195.2244, 4789.691
195.7065, 4886.877
196.1886, 5015.320
196.6708, 5146.851
197.1529, 5278.426
197.6350, 5410.669
198.1171, 5544.447
198.5992, 5678.997
199.0813, 5818.522
199.5634, 5970.280
200.0456, 6137.521
200.5277, 6298.868
201.0098, 6462.877
201.4919, 6622.950
201.9740, 6715.715
202.4561, 6737.567
202.9383, 6700.521
203.4204, 6612.834
203.9025, 6469.970
204.3846, 6291.548
204.8667, 6074.756
205.3488, 5818.488
205.8310, 5566.822
206.3131, 5311.165
206.7952, 5072.362
207.2773, 4882.034
207.7594, 4747.930
208.2415, 4637.614
208.7237, 4541.871
209.2058, 4460.985
209.6879, 4394.910
210.1700, 4344.339
210.6521, 4308.031
211.1342, 4285.730
211.6164, 4282.376
212.0985, 4281.837
212.5806, 4276.073
213.0627, 4261.478
213.5448, 4254.943
214.0269, 4259.236
214.5091, 4270.704
214.9912, 4283.136
215.4733, 4307.385
215.9554, 4312.257
216.4375, 4275.497
216.9196, 4182.384
217.4018, 4092.778
217.8839, 4013.467
218.3660, 3941.475
218.8481, 3854.469
219.3302, 3736.382
219.8123, 3628.318
220.2945, 3562.869
220.7766, 3556.429
221.2587, 3553.335
221.7408, 3549.153
222.2229, 3543.507
222.7050, 3529.716
223.1871, 3497.120
223.6693, 3468.997
224.1514, 3466.006
224.6335, 3497.729
225.1156, 3535.574
225.5977, 3577.900
226.0798, 3624.633
226.5620, 3663.448
227.0441, 3687.367
227.5262, 3709.662
228.0083, 3745.176
228.4904, 3798.922
228.9725, 3856.253
229.4547, 3912.629
229.9368, 3966.546
230.4189, 4030.599
230.9010, 4105.243
231.3831, 4190.430
231.8652, 4288.653
232.3474, 4414.736
232.8295, 4531.422
233.3116, 4625.693
233.7937, 4692.772
234.2758, 4760.255
234.7579, 4840.361
235.2401, 4913.766
235.7222, 4946.661
236.2043, 4932.659
236.6864, 4888.056
237.1685, 4820.158
237.6507, 4736.072
238.1328, 4606.183
238.6149, 4411.848
239.0970, 4178.227
239.5791, 3961.513
240.0612, 3765.834
240.5434, 3580.365
241.0255, 3401.327
241.5076, 3221.063
241.9897, 3062.186
242.4718, 2927.298
242.9539, 2813.441
243.4360, 2712.967
243.9182, 2630.212
244.4003, 2554.698
244.8824, 2480.004
245.3645, 2401.302
245.8466, 2335.912
246.3287, 2285.936
246.8109, 2249.874
247.2930, 2223.040
247.7751, 2213.093
248.2572, 2202.148
248.7393, 2177.479
249.2214, 2127.906
249.7036, 2090.367
250.1857, 2068.153
250.6678, 2060.531
251.1499, 2064.342
251.6320, 2088.385
252.1141, 2111.984
252.5963, 2120.547
253.0784, 2110.351
253.5605, 2093.676
254.0426, 2070.831
254.5247, 2042.365
255.0068, 2009.003
255.4890, 1961.948
255.9711, 1921.992
256.4532, 1909.942
256.9353, 1945.171
257.4174, 1960.154
257.8995, 1937.526
258.3817, 1881.240
258.8638, 1843.176
259.3459, 1827.394
259.8280, 1824.173
260.3101, 1825.783
260.7922, 1833.428
261.2744, 1842.569
261.7565, 1851.992
262.2386, 1861.869
262.7207, 1873.570
263.2028, 1885.944
263.6849, 1901.917
264.1671, 1925.822
264.6492, 1960.019
265.1313, 1993.839
265.6134, 2022.620
266.0955, 2046.714
266.5776, 2078.628
267.0598, 2117.666
267.5419, 2165.155
268.0240, 2227.781
268.5061, 2312.124
268.9882, 2385.290
269.4703, 2436.481
269.9525, 2466.138
270.4346, 2497.163
270.9167, 2531.958
271.3988, 2564.387
271.8809, 2582.788
272.3630, 2582.133
272.8452, 2593.684
273.3273, 2632.569
273.8094, 2697.127
274.2915, 2744.565
274.7736, 2769.323
275.2557, 2789.048
275.7379, 2827.990
276.2200, 2888.764
276.7021, 2949.201
277.1842, 3000.859
277.6663, 3044.144
278.1484, 3093.758
278.6305, 3151.472
279.1126, 3210.552
279.5948, 3260.853
280.0769, 3301.938
280.5590, 3340.147
281.0411, 3375.842
281.5232, 3409.781
282.0053, 3450.770
282.4875, 3501.539
282.9696, 3551.605
283.4517, 3591.800
283.9338, 3622.128
284.4159, 3631.188
284.8980, 3606.235
285.3802, 3552.710
285.8623, 3508.899
286.3444, 3478.391
286.8265, 3442.995
287.3086, 3376.721
287.7907, 3281.243
288.2729, 3176.970
288.7550, 3072.328
289.2371, 2966.385
289.7192, 2853.236
290.2013, 2731.302
290.6834, 2613.650
291.1656, 2518.488
291.6477, 2443.745
292.1298, 2380.356
292.6119, 2331.707
293.0940, 2291.341
293.5761, 2236.600
294.0583, 2164.162
294.5404, 2095.078
295.0225, 2054.982
295.5046, 2038.825
295.9867, 2027.463
296.4688, 2016.694
296.9510, 2003.607
297.4331, 1981.076
297.9152, 1947.521
298.3973, 1913.155
298.8794, 1885.800
299.3615, 1865.401
299.8437, 1851.016
300.3258, 1845.281
300.8079, 1844.243
301.2900, 1843.849
301.7721, 1844.357
302.2542, 1841.719
302.7364, 1828.062
303.2185, 1808.638
303.7006, 1794.017
304.1827, 1790.262
304.6648, 1793.140
305.1469, 1800.555
305.6291, 1812.925
306.1112, 1823.198
306.5933, 1822.367
307.0754, 1816.320
307.5575, 1814.960
308.0396, 1828.022
308.5218, 1843.846
309.0039, 1856.143
309.4860, 1865.024
309.9681, 1863.505
310.4502, 1840.036
310.9323, 1805.231
311.4145, 1773.921
311.8966, 1754.734
312.3787, 1738.093
312.8608, 1716.959
313.3429, 1690.357
313.8250, 1668.349
314.3072, 1658.849
314.7893, 1654.872
315.2714, 1648.203
315.7535, 1636.963
316.2356, 1621.756
316.7177, 1598.273
317.1999, 1565.248
317.6820, 1543.415
318.1641, 1550.875
318.6462, 1567.495
319.1283, 1573.391
319.6104, 1557.370
320.0926, 1536.386
320.5747, 1511.657
321.0568, 1482.839
321.5389, 1462.694
322.0210, 1456.622
322.5031, 1458.856
322.9852, 1464.555
323.4673, 1484.986
323.9495, 1496.451
324.4316, 1488.547
324.9137, 1460.406
325.3958, 1445.860
325.8779, 1458.912
326.3600, 1478.752
326.8422, 1490.875
327.3243, 1494.852
327.8064, 1491.311
328.2885, 1475.628
328.7706, 1448.643
329.2527, 1431.714
329.7349, 1426.428
330.2170, 1429.846
330.6991, 1441.561
331.1812, 1471.330
331.6633, 1490.981
332.1454, 1494.833
332.6276, 1485.239
333.1097, 1478.521
333.5918, 1476.742
334.0739, 1474.766
334.5560, 1466.702
335.0381, 1446.825
335.5203, 1441.470
336.0024, 1458.933
336.4845, 1491.461
336.9666, 1508.040
337.4487, 1503.596
337.9308, 1497.557
338.4130, 1504.798
338.8951, 1527.409
339.3772, 1540.685
339.8593, 1538.546
340.3414, 1529.616
340.8235, 1536.901
341.3057, 1562.144
341.7878, 1588.183
342.2699, 1600.902
342.7520, 1602.368
343.2341, 1614.198
343.7162, 1641.630
344.1984, 1673.637
344.6805, 1688.581
345.1626, 1687.679
345.6447, 1688.937
346.1268, 1705.030
346.6089, 1731.461
347.0911, 1754.800
347.5732, 1773.925
348.0553, 1790.142
348.5374, 1803.376
349.0195, 1814.372
349.5016, 1826.255
349.9838, 1843.652
350.4659, 1861.794
350.9480, 1871.400
351.4301, 1870.850
351.9122, 1870.737
352.3943, 1881.202
352.8765, 1899.292
353.3586, 1918.921
353.8407, 1935.854
354.3228, 1953.798
354.8049, 1976.359
355.2870, 2003.854
355.7692, 2032.420
356.2513, 2064.405
356.7334, 2094.715
357.2155, 2116.660
357.6976, 2115.854
358.1797, 2115.811
358.6619, 2134.698
359.1440, 2172.142
359.6261, 2198.457
360.1082, 2189.744
360.5903, 2169.732
361.0724, 2159.897
361.5546, 2177.750
362.0367, 2194.439
362.5188, 2202.219
363.0009, 2201.509
363.4830, 2197.932
363.9651, 2188.756
364.4473, 2179.464
364.9294, 2173.455
365.4115, 2186.645
365.8936, 2185.250
366.3757, 2154.091
366.8578, 2101.657
367.3399, 2070.145
367.8221, 2080.228
368.3042, 2092.738
368.7863, 2089.485
369.2684, 2059.799
369.7505, 2032.236
370.2326, 2005.779
370.7148, 1982.219
371.1969, 1967.017
371.6790, 1962.271
372.1611, 1962.412
372.6432, 1967.947
373.1253, 1983.530
373.6075, 1983.190
374.0896, 1960.616
374.5717, 1929.252
375.0538, 1911.362
375.5359, 1908.597
376.0180, 1911.351
376.5002, 1919.006
376.9823, 1930.920
377.4644, 1932.558
377.9465, 1921.389
378.4286, 1907.711
378.9107, 1905.647
379.3929, 1914.331
379.8750, 1921.068
380.3571, 1918.584
380.8392, 1911.810
381.3213, 1914.166
381.8034, 1925.830
382.2856, 1944.061
382.7677, 1972.093
383.2498, 2005.045
383.7319, 2030.540
384.2140, 2044.130
384.6961, 2048.972
385.1783, 2044.351
385.6604, 2031.864
386.1425, 2024.061
386.6246, 2024.998
387.1067, 2036.923
387.5888, 2065.107
388.0710, 2122.519
388.5531, 2177.380
389.0352, 2203.517
389.5173, 2208.175
389.9994, 2212.882
390.4815, 2224.755
390.9637, 2242.367
391.4458, 2264.079
391.9279, 2287.752
392.4100, 2320.235
392.8921, 2372.059
393.3742, 2433.450
393.8564, 2486.163
394.3385, 2512.099
394.8206, 2540.959
395.3027, 2585.319
395.7848, 2650.524
396.2669, 2713.264
396.7491, 2768.752
397.2312, 2821.695
397.7133, 2877.722
398.1954, 2934.235
398.6775, 2996.307
399.1596, 3065.388
399.6418, 3141.640
400.1239, 3220.714
400.6060, 3300.498
401.0881, 3385.675
401.5702, 3480.906
402.0523, 3587.063
402.5345, 3698.275
403.0166, 3813.503
403.4987, 3933.177
403.9808, 4059.636
404.4629, 4191.823
404.9450, 4329.957
405.4272, 4472.153
405.9093, 4618.820
406.3914, 4779.899
406.8735, 4959.765
407.3556, 5146.928
407.8377, 5316.805
408.3199, 5470.645
408.8020, 5624.654
409.2841, 5791.702
409.7662, 5967.661
410.2483, 6137.008
410.7304, 6297.356
411.2126, 6456.601
411.6946, 6618.745
412.1768, 6784.905
412.6589, 6962.849
413.1410, 7161.553
413.6231, 7369.367
414.1052, 7576.814
414.5873, 7782.615
415.0695, 7975.381
415.5516, 8134.731
416.0337, 8279.866
416.5158, 8429.912
416.9979, 8600.438
417.4800, 8770.390
417.9622, 8931.477
418.4443, 9083.617
418.9264, 9230.693
419.4085, 9384.756
419.8906, 9525.616
420.3727, 9638.220
420.8549, 9707.396
421.3370, 9770.622
421.8191, 9847.380
422.3012, 9921.854
422.7833, 9953.417
423.2654, 9940.675
423.7476, 9884.916
424.2297, 9778.937
424.7118, 9606.555
425.1939, 9445.123
425.6760, 9305.858
426.1581, 9170.719
426.6403, 9013.224
427.1224, 8830.701
427.6045, 8635.317
428.0866, 8427.863
428.5687, 8208.097
429.0508, 7989.321
429.5330, 7767.111
430.0151, 7558.604
430.4972, 7377.673
430.9793, 7224.428
431.4614, 7082.188
431.9435, 6946.976
432.4257, 6823.813
432.9078, 6731.146
433.3899, 6666.849
433.8720, 6600.152
434.3541, 6499.242
434.8362, 6383.644
435.3184, 6298.211
435.8005, 6252.929
436.2826, 6217.798
436.7647, 6165.030
437.2468, 6099.458
437.7289, 6033.336
438.2111, 5973.262
438.6932, 5913.853
439.1753, 5852.896
439.6574, 5790.482
440.1395, 5720.506
440.6216, 5642.478
441.1038, 5553.876
441.5859, 5453.198
442.0680, 5337.510
442.5501, 5211.183
443.0322, 5068.963
443.5143, 4913.630
443.9965, 4763.009
444.4786, 4619.793
444.9607, 4482.080
445.4428, 4347.156
445.9249, 4217.887
446.4070, 4088.429
446.8892, 3958.403
447.3713, 3829.261
447.8534, 3704.506
448.3355, 3581.944
448.8176, 3467.829
449.2997, 3364.228
449.7819, 3272.268
450.2640, 3182.285
450.7461, 3093.467
451.2282, 3006.907
451.7103, 2924.779
452.1924, 2846.399
452.6746, 2771.596
453.1567, 2696.458
453.6388, 2626.291
454.1209, 2580.738
454.6030, 2559.035
455.0851, 2535.349
455.5673, 2481.471
456.0494, 2411.689
456.5315, 2358.313
457.0136, 2330.810
457.4957, 2311.063
457.9778, 2280.431
458.4599, 2242.791
458.9420, 2207.102
459.4242, 2178.991
459.9063, 2154.277
460.3884, 2131.082
460.8705, 2109.636
461.3526, 2086.452
461.8347, 2056.509
462.3169, 2025.965
462.7990, 2000.955
463.2811, 1990.797
463.7632, 1978.565
464.2453, 1959.607
464.7274, 1934.419
465.2096, 1908.040
465.6917, 1871.518
466.1738, 1841.977
466.6559, 1829.490
467.1380, 1851.207
467.6201, 1855.917
468.1023, 1834.847
468.5844, 1801.813
469.0665, 1786.578
469.5486, 1796.362
470.0307, 1801.569
470.5128, 1790.207
470.9950, 1763.249
471.4771, 1736.980
471.9592, 1710.565
472.4413, 1688.344
472.9234, 1676.476
473.4055, 1673.701
473.8877, 1671.602
474.3698, 1667.311
474.8519, 1663.580
475.3340, 1667.135
475.8161, 1676.712
476.2982, 1683.830
476.7804, 1682.586
477.2625, 1676.031
477.7446, 1665.809
478.2267, 1649.917
478.7088, 1639.557
479.1909, 1653.116
479.6731, 1675.123
480.1552, 1680.922
480.6373, 1643.904
481.1194, 1604.426
481.6015, 1578.623
482.0836, 1567.103
482.5658, 1562.290
483.0479, 1564.787
483.5300, 1572.235
484.0121, 1583.430
484.4942, 1611.048
484.9763, 1624.079
485.4585, 1615.417
485.9406, 1592.346
486.4227, 1574.712
486.9048, 1564.005
487.3869, 1555.989
487.8690, 1549.129
488.3512, 1543.470
488.8333, 1539.408
489.3154, 1537.261
489.7975, 1535.935
490.2796, 1534.089
490.7617, 1531.764
491.2439, 1530.108
491.7260, 1530.986
492.2081, 1531.425
492.6902, 1522.559
493.1723, 1505.744
493.6544, 1492.288
494.1366, 1491.526
494.6187, 1498.620
495.1008, 1508.206
495.5829, 1521.036
496.0650, 1531.101
496.5471, 1532.147
497.0293, 1527.933
497.5114, 1525.065
497.9935, 1532.874
498.4756, 1536.317
498.9577, 1522.957
499.4398, 1491.728
499.9220, 1474.920
500.4041, 1492.486
500.8862, 1517.634
501.3683, 1531.330
501.8504, 1527.106
502.3325, 1520.979
502.8146, 1512.694
503.2968, 1503.099
503.7789, 1494.061
504.2610, 1484.770
504.7431, 1477.866
505.2252, 1475.984
505.7073, 1479.120
506.1895, 1474.526
506.6716, 1459.089
507.1537, 1447.268
507.6358, 1462.570
508.1179, 1499.450
508.6000, 1521.262
509.0822, 1512.307
509.5643, 1491.127
510.0464, 1486.343
510.5285, 1495.119
511.0106, 1503.813
511.4927, 1503.355
511.9749, 1498.637
512.4570, 1493.545
512.9391, 1487.746
513.4212, 1486.165
513.9033, 1496.698
514.3854, 1511.468
514.8676, 1520.159
515.3497, 1513.352
515.8318, 1507.032
516.3139, 1506.596
516.7960, 1511.643
517.2781, 1514.216
517.7603, 1511.238
518.2424, 1508.380
518.7245, 1509.147
519.2066, 1518.030
519.6887, 1518.667
520.1708, 1506.646
520.6530, 1490.703
521.1351, 1485.036
521.6172, 1490.166
522.0993, 1502.102
522.5814, 1524.021
523.0635, 1551.178
523.5457, 1561.762
524.0278, 1555.464
524.5099, 1547.816
524.9920, 1552.290
525.4741, 1564.760
525.9562, 1577.058
526.4384, 1588.063
526.9205, 1597.308
527.4026, 1600.569
527.8847, 1601.746
528.3668, 1609.310
528.8489, 1637.235
529.3311, 1664.031
529.8132, 1673.173
530.2953, 1663.722
530.7774, 1663.491
531.2595, 1688.835
531.7416, 1720.746
532.2238, 1745.394
532.7059, 1748.637
533.1880, 1762.822
533.6701, 1792.245
534.1522, 1831.751
534.6343, 1869.772
535.1165, 1907.290
535.5986, 1941.705
536.0807, 1970.065
536.5628, 1993.332
537.0449, 2024.907
537.5270, 2066.574
538.0092, 2109.981
538.4913, 2148.840
538.9734, 2182.966
539.4555, 2212.064
539.9376, 2235.295
540.4197, 2254.484
540.9019, 2268.556
541.3840, 2280.211
541.8661, 2297.981
542.3482, 2330.315
542.8303, 2367.574
543.3124, 2402.463
543.7946, 2434.302
544.2767, 2467.735
544.7588, 2508.332
545.2409, 2549.575
545.7230, 2585.942
546.2051, 2611.245
546.6873, 2638.353
547.1694, 2669.609
547.6515, 2703.349
548.1336, 2736.336
548.6157, 2770.980
549.0978, 2800.361
549.5800, 2824.524
550.0621, 2843.742
550.5442, 2843.342
551.0263, 2821.482
551.5084, 2786.481
551.9905, 2741.931
552.4727, 2689.675
552.9548, 2641.960
553.4369, 2603.719
553.9190, 2565.743
554.4011, 2511.210
554.8832, 2444.824
555.3654, 2381.380
555.8475, 2330.618
556.3296, 2285.130
556.8117, 2234.287
557.2938, 2177.323
557.7759, 2132.141
558.2581, 2120.785
558.7402, 2116.628
559.2223, 2097.578
559.7044, 2038.195
560.1865, 1991.055
560.6686, 1970.250
561.1508, 1964.202
561.6329, 1948.415
562.1150, 1908.547
562.5971, 1883.625
563.0792, 1894.462
563.5613, 1939.672
564.0435, 1943.953
564.5256, 1898.470
565.0077, 1844.473
565.4898, 1812.784
565.9719, 1802.664
566.4540, 1809.100
566.9362, 1835.066
567.4183, 1867.380
567.9004, 1888.683
568.3824, 1901.530
568.8646, 1912.188
569.3467, 1920.325
569.8288, 1930.010
570.3109, 1944.740
570.7930, 1964.299
571.2751, 1987.027
571.7573, 2015.859
572.2394, 2044.727
572.7215, 2068.432
573.2036, 2078.935
573.6857, 2097.849
574.1678, 2132.595
574.6500, 2174.392
575.1321, 2211.270
575.6142, 2243.813
576.0963, 2269.830
576.5784, 2286.641
577.0605, 2296.419
577.5427, 2308.184
578.0248, 2320.422
578.5069, 2344.449
578.9890, 2397.919
579.4711, 2471.494
579.9532, 2521.873
580.4354, 2542.120
580.9175, 2561.553
581.3996, 2610.396
581.8817, 2680.092
582.3638, 2754.818
582.8459, 2838.258
583.3281, 2916.731
583.8102, 2979.592
584.2923, 3029.828
584.7744, 3076.561
585.2565, 3133.526
585.7386, 3178.580
586.2208, 3198.040
586.7029, 3182.213
587.1850, 3175.815
587.6671, 3185.663
588.1492, 3198.432
588.6313, 3199.826
589.1135, 3183.294
589.5956, 3180.982
590.0777, 3199.243
590.5598, 3230.982
591.0419, 3262.721
591.5240, 3294.134
592.0062, 3324.579
592.4883, 3353.756
592.9704, 3381.766
593.4525, 3407.148
593.9346, 3430.198
594.4167, 3455.283
594.8989, 3478.003
595.3810, 3508.151
595.8631, 3559.405
596.3452, 3647.407
596.8273, 3727.198
597.3094, 3764.009
597.7916, 3786.038
598.2737, 3837.933
598.7558, 3952.532
599.2379, 4069.307
599.7200, 4185.548
600.2021, 4298.347
600.6843, 4382.102
601.1664, 4436.775
601.6485, 4461.111
602.1306, 4454.726
602.6127, 4417.841
603.0948, 4347.439
603.5770, 4244.901
604.0591, 4108.528
604.5412, 3927.439
605.0233, 3710.727
605.5054, 3487.942
605.9875, 3254.791
606.4697, 3033.462
606.9518, 2847.912
607.4339, 2691.190
607.9160, 2541.966
608.3981, 2384.647
608.8802, 2239.460
609.3624, 2118.092
