##NAMES=Faizievite
##RRUFFID=R070221
##IDEAL CHEMISTRY=Li_6_K_2_Na(Ca_6_Na)Ti^4+^_4_(Si_6_O_18_)_2_(Si_12_O_30_)F_2_
##LOCALITY=Dara-i-Pioz Glacier, Alayskiy (Alai) Range, Tien Shan Mts, Districts of the Republican Subordination, Tajikistan
##OWNER=RRUFF
##SOURCE=Michael Scott
##DESCRIPTION=Pale brownish yellow massive associated with quartz
##STATUS=The identification of this mineral is confirmed by single-crystal X-ray diffraction and chemical analysis.
##URL=rruff.info/R070221
##MEASURED CHEMISTRY=Li_6.00_(K_1.78_[box]_0.20_Ba_0.02_)_Σ=2_(Na_0.80_K_0.20_)_Σ=1_(Ca_6.12_Na_0.74_Sr_0.11_Mn_0.03_)_Σ=7_(Ti_3.88_Al_0.10_Nb^5+^_0.02_)_Σ=4_(Si_6.00_O_18_)_2_(Si_12.00_O_30_)(F_1.72_(OH)_0.28_)_Σ=2_; Li assumed by stoichiometry; OH by charge balance
173.2856, 6453.301
173.7677, 6497.144
174.2498, 6552.130
174.7319, 6598.303
175.2140, 6621.057
175.6961, 6628.131
176.1783, 6629.046
176.6604, 6621.469
177.1425, 6615.501
177.6246, 6623.332
178.1067, 6644.072
178.5888, 6672.608
179.0710, 6715.150
179.5531, 6762.425
180.0352, 6791.482
180.5173, 6789.981
180.9994, 6774.441
181.4815, 6769.433
181.9637, 6774.803
182.4458, 6786.995
182.9279, 6802.399
183.4100, 6821.981
183.8921, 6850.646
184.3742, 6897.541
184.8564, 6951.088
185.3385, 6979.952
185.8206, 6982.918
186.3027, 6978.930
186.7848, 6984.501
187.2669, 6999.304
187.7491, 7020.871
188.2312, 7050.995
188.7133, 7087.189
189.1954, 7123.230
189.6775, 7160.155
190.1596, 7191.124
190.6418, 7204.691
191.1239, 7201.198
191.6060, 7197.857
192.0881, 7200.050
192.5702, 7207.814
193.0524, 7221.555
193.5345, 7241.273
194.0166, 7266.786
194.4987, 7302.093
194.9808, 7348.370
195.4629, 7386.803
195.9451, 7403.390
196.4272, 7398.914
196.9093, 7404.000
197.3914, 7421.710
197.8735, 7445.684
198.3556, 7463.375
198.8378, 7473.636
199.3199, 7484.534
199.8020, 7499.978
200.2841, 7519.928
200.7662, 7544.699
201.2483, 7578.256
201.7305, 7613.037
202.2126, 7627.866
202.6947, 7618.418
203.1768, 7605.165
203.6589, 7598.528
204.1410, 7598.304
204.6232, 7607.208
205.1053, 7627.612
205.5874, 7656.381
206.0695, 7684.538
206.5516, 7713.665
207.0337, 7738.020
207.5159, 7751.264
207.9980, 7749.591
208.4801, 7753.847
208.9622, 7767.295
209.4443, 7788.590
209.9264, 7812.349
210.4086, 7840.799
210.8907, 7867.329
211.3728, 7884.073
211.8549, 7885.630
212.3370, 7897.214
212.8191, 7926.971
213.3013, 7971.447
213.7834, 8002.734
214.2655, 8016.282
214.7476, 8024.001
215.2297, 8036.401
215.7118, 8056.443
216.1940, 8072.927
216.6761, 8081.792
217.1582, 8083.704
217.6403, 8093.500
218.1224, 8114.013
218.6045, 8138.452
219.0867, 8160.896
219.5688, 8181.573
220.0509, 8199.424
220.5330, 8214.609
221.0151, 8227.421
221.4972, 8231.738
221.9794, 8220.056
222.4615, 8208.292
222.9436, 8214.140
223.4257, 8244.115
223.9078, 8279.370
224.3899, 8319.694
224.8721, 8367.534
225.3542, 8392.901
225.8363, 8381.741
226.3184, 8361.642
226.8005, 8367.416
227.2827, 8414.590
227.7648, 8458.111
228.2469, 8486.971
228.7290, 8499.840
229.2111, 8506.255
229.6932, 8497.880
230.1754, 8489.715
230.6575, 8505.141
231.1396, 8565.378
231.6217, 8610.964
232.1038, 8619.813
232.5859, 8581.185
233.0681, 8564.877
233.5502, 8581.789
234.0323, 8613.143
234.5144, 8629.305
234.9965, 8611.424
235.4786, 8610.741
235.9608, 8651.191
236.4429, 8748.719
236.9250, 8808.304
237.4071, 8808.191
237.8892, 8783.156
238.3713, 8791.371
238.8535, 8859.159
239.3356, 8915.937
239.8177, 8935.077
240.2998, 8902.688
240.7819, 8886.527
241.2640, 8892.259
241.7462, 8910.650
242.2283, 8925.108
242.7104, 8929.312
243.1925, 8940.183
243.6746, 8966.635
244.1567, 9018.307
244.6389, 9051.411
245.1210, 9055.724
245.6031, 9047.540
246.0852, 9057.464
246.5673, 9099.263
247.0494, 9135.586
247.5316, 9150.515
248.0137, 9133.900
248.4958, 9130.947
248.9779, 9147.415
249.4600, 9174.363
249.9421, 9195.033
250.4243, 9207.737
250.9064, 9217.294
251.3885, 9221.842
251.8706, 9212.887
252.3527, 9230.882
252.8348, 9291.864
253.3170, 9369.750
253.7991, 9411.595
254.2812, 9398.330
254.7633, 9384.889
255.2454, 9395.812
255.7275, 9444.009
256.2097, 9465.990
256.6918, 9449.046
257.1739, 9414.390
257.6560, 9401.223
258.1381, 9415.330
258.6202, 9439.241
259.1024, 9469.521
259.5845, 9509.933
260.0666, 9539.185
260.5487, 9553.564
261.0308, 9559.523
261.5129, 9568.596
261.9951, 9580.005
262.4772, 9596.260
262.9593, 9619.508
263.4414, 9652.148
263.9235, 9681.852
264.4056, 9710.333
264.8878, 9734.574
265.3699, 9749.209
265.8520, 9752.296
266.3341, 9751.567
266.8162, 9747.329
267.2983, 9737.266
267.7805, 9740.062
268.2626, 9759.843
268.7447, 9787.925
269.2268, 9811.020
269.7089, 9829.926
270.1910, 9840.776
270.6732, 9837.164
271.1553, 9815.926
271.6374, 9813.268
272.1195, 9833.396
272.6016, 9865.978
273.0837, 9895.624
273.5659, 9923.011
274.0480, 9944.622
274.5301, 9954.009
275.0122, 9950.106
275.4943, 9968.536
275.9764, 10016.49
276.4586, 10073.25
276.9407, 10105.46
277.4228, 10109.84
277.9049, 10114.98
278.3870, 10132.51
278.8691, 10161.82
279.3513, 10190.69
279.8334, 10220.47
280.3155, 10246.38
280.7976, 10258.67
281.2798, 10256.50
281.7619, 10257.86
282.2440, 10268.65
282.7261, 10288.56
283.2082, 10319.78
283.6903, 10366.44
284.1725, 10409.20
284.6546, 10418.65
285.1367, 10396.01
285.6188, 10375.32
286.1009, 10364.87
286.5830, 10365.73
287.0652, 10386.50
287.5473, 10429.31
288.0294, 10478.12
288.5115, 10519.32
288.9936, 10552.60
289.4757, 10573.26
289.9579, 10571.33
290.4400, 10557.88
290.9221, 10567.32
291.4042, 10601.25
291.8863, 10638.07
292.3684, 10654.86
292.8506, 10655.35
293.3327, 10655.61
293.8148, 10657.19
294.2969, 10663.63
294.7790, 10684.63
295.2611, 10720.35
295.7433, 10759.15
296.2254, 10794.38
296.7075, 10825.59
297.1896, 10849.93
297.6717, 10864.21
298.1538, 10874.00
298.6360, 10888.75
299.1181, 10907.96
299.6002, 10924.15
300.0823, 10929.55
300.5644, 10928.22
301.0465, 10927.28
301.5287, 10925.76
302.0108, 10928.89
302.4929, 10947.03
302.9750, 10977.62
303.4571, 11004.96
303.9392, 11009.41
304.4214, 11007.11
304.9035, 11023.05
305.3856, 11075.39
305.8677, 11127.09
306.3498, 11137.02
306.8319, 11115.91
307.3141, 11101.85
307.7962, 11120.54
308.2783, 11155.70
308.7604, 11194.75
309.2425, 11240.95
309.7246, 11276.18
310.2068, 11277.67
310.6889, 11257.76
311.1710, 11248.53
311.6531, 11269.13
312.1352, 11304.08
312.6173, 11347.66
313.0995, 11408.36
313.5816, 11448.54
314.0637, 11430.58
314.5458, 11381.10
315.0279, 11350.12
315.5100, 11374.00
315.9922, 11408.48
316.4743, 11427.83
316.9564, 11423.65
317.4385, 11427.04
317.9206, 11454.88
318.4027, 11494.92
318.8849, 11530.09
319.3670, 11557.82
319.8491, 11578.11
320.3312, 11586.58
320.8133, 11579.34
321.2954, 11582.85
321.7776, 11608.78
322.2597, 11645.43
322.7418, 11680.31
323.2239, 11710.30
323.7060, 11739.70
324.1881, 11771.36
324.6703, 11806.09
325.1524, 11833.49
325.6345, 11847.43
326.1166, 11856.31
326.5987, 11866.91
327.0808, 11873.80
327.5630, 11889.04
328.0451, 11921.74
328.5272, 11970.28
329.0093, 11997.96
329.4914, 11984.83
329.9735, 11968.35
330.4557, 11975.30
330.9378, 12034.48
331.4199, 12065.10
331.9020, 12044.48
332.3841, 11987.83
332.8662, 11971.89
333.3484, 12015.13
333.8305, 12071.28
334.3126, 12117.05
334.7947, 12150.85
335.2768, 12176.90
335.7589, 12191.81
336.2411, 12200.99
336.7232, 12219.90
337.2053, 12252.08
337.6874, 12283.28
338.1695, 12303.74
338.6516, 12310.48
339.1338, 12334.85
339.6159, 12385.27
340.0980, 12440.55
340.5801, 12456.42
341.0622, 12427.73
341.5443, 12409.15
342.0265, 12427.94
342.5086, 12479.62
342.9907, 12526.79
343.4728, 12570.48
343.9549, 12604.00
344.4370, 12612.07
344.9192, 12597.49
345.4013, 12587.06
345.8834, 12590.79
346.3655, 12605.30
346.8476, 12623.67
347.3297, 12645.97
347.8119, 12667.69
348.2940, 12680.05
348.7761, 12687.71
349.2582, 12704.80
349.7403, 12739.65
350.2225, 12781.71
350.7046, 12816.72
351.1867, 12845.51
351.6688, 12872.25
352.1509, 12902.16
352.6331, 12931.45
353.1152, 12952.88
353.5973, 12959.99
354.0794, 12968.04
354.5615, 12993.48
355.0436, 13031.67
355.5258, 13068.51
356.0079, 13102.21
356.4900, 13127.87
356.9721, 13137.43
357.4542, 13123.54
357.9363, 13114.42
358.4185, 13126.59
358.9006, 13154.18
359.3827, 13187.06
359.8648, 13228.57
360.3469, 13268.57
360.8290, 13302.02
361.3112, 13328.38
361.7933, 13349.78
362.2754, 13361.82
362.7575, 13371.38
363.2396, 13386.00
363.7217, 13418.76
364.2039, 13445.15
364.6860, 13456.58
365.1681, 13452.79
365.6502, 13449.13
366.1323, 13438.80
366.6144, 13434.25
367.0966, 13444.29
367.5787, 13485.70
368.0608, 13521.27
368.5429, 13546.38
369.0250, 13563.18
369.5071, 13581.30
369.9893, 13594.13
370.4714, 13615.72
370.9535, 13656.68
371.4356, 13736.89
371.9177, 13788.68
372.3998, 13800.12
372.8820, 13788.38
373.3641, 13791.08
373.8462, 13811.72
374.3283, 13837.71
374.8104, 13865.35
375.2925, 13895.33
375.7747, 13921.58
376.2568, 13944.09
376.7389, 13963.36
377.2210, 13978.39
377.7031, 13988.74
378.1852, 14001.03
378.6674, 14016.79
379.1495, 14036.13
379.6316, 14064.16
380.1137, 14102.15
380.5958, 14135.02
381.0779, 14139.30
381.5601, 14122.66
382.0422, 14124.58
382.5243, 14162.07
383.0064, 14211.89
383.4885, 14232.70
383.9706, 14228.07
384.4528, 14223.04
384.9349, 14232.80
385.4170, 14253.78
385.8991, 14283.79
386.3812, 14327.41
386.8633, 14364.79
387.3455, 14371.45
387.8276, 14357.49
388.3097, 14346.02
388.7918, 14344.28
389.2739, 14352.65
389.7560, 14373.64
390.2382, 14408.18
390.7203, 14445.98
391.2024, 14492.43
391.6845, 14535.24
392.1666, 14560.71
392.6487, 14537.36
393.1309, 14520.73
393.6130, 14540.80
394.0951, 14593.98
394.5772, 14634.80
395.0593, 14633.63
395.5414, 14627.91
396.0236, 14641.14
396.5057, 14704.08
396.9878, 14753.52
397.4699, 14782.14
397.9520, 14792.66
398.4341, 14793.23
398.9163, 14769.13
399.3984, 14750.36
399.8805, 14749.39
400.3626, 14774.49
400.8447, 14791.35
401.3268, 14789.19
401.8090, 14786.77
402.2911, 14813.89
402.7732, 14882.43
403.2553, 14949.46
403.7374, 15007.76
404.2195, 15056.60
404.7017, 15076.54
405.1838, 15057.88
405.6659, 15036.60
406.1480, 15047.57
406.6301, 15091.23
407.1122, 15138.93
407.5944, 15191.83
408.0765, 15239.46
408.5586, 15245.91
409.0407, 15212.11
409.5228, 15185.17
410.0049, 15198.02
410.4871, 15241.88
410.9692, 15299.62
411.4513, 15375.68
411.9334, 15441.21
412.4155, 15451.21
412.8976, 15422.57
413.3798, 15403.90
413.8619, 15426.03
414.3440, 15464.00
414.8261, 15490.47
415.3082, 15505.02
415.7903, 15524.37
416.2725, 15571.16
416.7546, 15624.60
417.2367, 15661.48
417.7188, 15654.98
418.2009, 15651.04
418.6830, 15675.46
419.1652, 15721.09
419.6473, 15760.84
420.1294, 15778.19
420.6115, 15793.06
421.0937, 15817.19
421.5758, 15856.79
422.0579, 15894.58
422.5400, 15930.74
423.0221, 15963.33
423.5042, 15989.87
423.9864, 16005.26
424.4685, 16019.97
424.9506, 16036.55
425.4327, 16054.99
425.9148, 16071.83
426.3969, 16081.80
426.8791, 16096.12
427.3612, 16127.49
427.8433, 16185.03
428.3254, 16230.01
428.8075, 16253.44
429.2896, 16261.88
429.7718, 16274.83
430.2539, 16291.25
430.7360, 16317.19
431.2181, 16369.60
431.7002, 16444.25
432.1823, 16472.29
432.6645, 16442.32
433.1466, 16392.27
433.6287, 16366.48
434.1108, 16363.94
434.5929, 16381.26
435.0750, 16427.48
435.5572, 16488.22
436.0393, 16545.25
436.5214, 16597.92
437.0035, 16632.12
437.4856, 16612.87
437.9677, 16575.05
438.4499, 16570.07
438.9320, 16626.85
439.4141, 16692.42
439.8962, 16739.04
440.3783, 16765.82
440.8604, 16771.88
441.3426, 16719.25
441.8247, 16674.06
442.3068, 16681.84
442.7889, 16760.65
443.2710, 16828.83
443.7531, 16854.12
444.2353, 16861.66
444.7174, 16879.67
445.1995, 16937.35
445.6816, 16977.68
446.1637, 16978.24
446.6458, 16944.66
447.1280, 16938.13
447.6101, 16969.70
448.0922, 17016.35
448.5743, 17070.21
449.0564, 17147.65
449.5385, 17185.85
450.0207, 17167.21
450.5028, 17123.23
450.9849, 17113.91
451.4670, 17144.24
451.9491, 17184.30
452.4312, 17224.06
452.9134, 17263.95
453.3955, 17312.13
453.8776, 17370.33
454.3597, 17423.47
454.8418, 17449.45
455.3239, 17455.51
455.8061, 17473.09
456.2882, 17517.81
456.7703, 17564.23
457.2524, 17567.16
457.7345, 17536.85
458.2166, 17515.19
458.6988, 17539.45
459.1809, 17579.36
459.6630, 17595.96
460.1451, 17580.58
460.6272, 17578.48
461.1093, 17634.65
461.5915, 17715.74
462.0736, 17779.25
462.5557, 17808.98
463.0378, 17820.96
463.5199, 17803.03
464.0020, 17762.95
464.4842, 17755.86
464.9663, 17829.08
465.4484, 17911.89
465.9305, 17966.12
466.4126, 17965.69
466.8947, 17981.60
467.3769, 18025.93
467.8590, 18081.19
468.3411, 18118.01
468.8232, 18125.22
469.3053, 18136.04
469.7874, 18161.54
470.2696, 18200.53
470.7517, 18230.32
471.2338, 18249.27
471.7159, 18263.87
472.1980, 18277.10
472.6801, 18289.21
473.1623, 18309.21
473.6444, 18342.44
474.1265, 18376.43
474.6086, 18380.04
475.0907, 18359.50
475.5728, 18354.99
476.0550, 18411.35
476.5371, 18489.24
477.0192, 18514.67
477.5013, 18484.62
477.9834, 18458.44
478.4655, 18491.17
478.9477, 18552.54
479.4298, 18602.02
479.9119, 18617.74
480.3940, 18632.01
480.8761, 18669.64
481.3582, 18720.14
481.8404, 18752.78
482.3225, 18728.54
482.8046, 18708.05
483.2867, 18724.95
483.7688, 18799.09
484.2509, 18851.45
484.7331, 18858.25
485.2152, 18849.02
485.6973, 18851.11
486.1794, 18870.51
486.6615, 18890.81
487.1436, 18907.85
487.6258, 18924.01
488.1079, 18953.72
488.5900, 19003.31
489.0721, 19048.40
489.5542, 19071.50
490.0363, 19072.48
490.5185, 19084.02
491.0006, 19108.38
491.4827, 19138.21
491.9648, 19163.10
492.4470, 19184.38
492.9291, 19209.99
493.4112, 19248.08
493.8933, 19286.64
494.3754, 19297.21
494.8575, 19285.47
495.3397, 19286.38
495.8218, 19348.61
496.3039, 19423.33
496.7860, 19449.58
497.2681, 19405.11
497.7502, 19366.75
498.2324, 19371.04
498.7145, 19407.04
499.1966, 19459.97
499.6787, 19543.20
500.1608, 19624.63
500.6429, 19705.96
501.1251, 19784.46
501.6072, 19822.01
502.0893, 19762.44
502.5714, 19709.40
503.0535, 19716.52
503.5356, 19825.44
504.0178, 19892.55
504.4999, 19900.39
504.9820, 19881.63
505.4641, 19885.54
505.9462, 19915.44
506.4283, 19951.51
506.9105, 19993.05
507.3926, 20035.12
507.8747, 20050.19
508.3568, 20036.46
508.8389, 20030.61
509.3210, 20068.94
509.8032, 20136.27
510.2853, 20194.34
510.7674, 20240.45
511.2495, 20268.30
511.7316, 20258.39
512.2137, 20226.05
512.6959, 20202.63
513.1780, 20190.18
513.6601, 20199.92
514.1422, 20253.54
514.6243, 20343.55
515.1064, 20419.36
515.5886, 20465.56
516.0707, 20488.46
516.5528, 20486.01
517.0349, 20429.54
517.5170, 20407.29
517.9991, 20449.04
518.4813, 20521.29
518.9634, 20583.87
519.4455, 20638.50
519.9276, 20680.21
520.4097, 20706.34
520.8918, 20718.04
521.3740, 20724.85
521.8561, 20726.23
522.3382, 20724.54
522.8203, 20718.58
523.3024, 20709.04
523.7845, 20703.46
524.2667, 20699.11
524.7488, 20711.16
525.2309, 20776.26
525.7130, 20877.42
526.1951, 20952.68
526.6772, 20961.80
527.1594, 20953.59
527.6415, 20995.85
528.1236, 21075.10
528.6057, 21132.99
529.0878, 21112.45
529.5699, 21072.80
530.0521, 21056.53
530.5342, 21070.41
531.0163, 21101.05
531.4984, 21152.89
531.9805, 21215.83
532.4626, 21279.27
532.9448, 21362.53
533.4269, 21420.36
533.9090, 21431.91
534.3911, 21412.62
534.8732, 21424.54
535.3553, 21485.30
535.8375, 21544.85
536.3196, 21581.05
536.8017, 21593.51
537.2838, 21596.10
537.7659, 21583.10
538.2480, 21579.33
538.7302, 21628.10
539.2123, 21718.77
539.6944, 21769.61
540.1765, 21748.59
540.6586, 21706.53
541.1407, 21715.26
541.6229, 21764.54
542.1050, 21817.35
542.5871, 21867.24
543.0692, 21903.03
543.5513, 21898.48
544.0334, 21853.14
544.5156, 21836.13
544.9977, 21916.25
545.4798, 22017.10
545.9619, 22076.11
546.4440, 22040.79
546.9261, 22023.99
547.4083, 22046.42
547.8904, 22096.21
548.3725, 22153.60
548.8546, 22236.75
549.3367, 22296.90
549.8188, 22310.47
550.3010, 22284.16
550.7831, 22302.10
551.2652, 22375.77
551.7473, 22455.62
552.2294, 22501.75
552.7115, 22518.47
553.1937, 22549.70
553.6758, 22602.09
554.1579, 22655.89
554.6400, 22680.38
555.1221, 22685.88
555.6042, 22702.46
556.0864, 22756.79
556.5685, 22810.99
557.0506, 22816.93
557.5327, 22788.26
558.0148, 22775.64
558.4969, 22812.25
558.9791, 22866.27
559.4612, 22921.86
559.9433, 22979.22
560.4254, 23026.93
560.9075, 23061.06
561.3896, 23085.29
561.8718, 23102.46
562.3539, 23098.09
562.8360, 23113.42
563.3181, 23164.53
563.8002, 23230.75
564.2823, 23257.35
564.7645, 23234.14
565.2466, 23216.06
565.7287, 23225.50
566.2108, 23257.86
566.6929, 23295.29
567.1750, 23337.97
567.6572, 23374.44
568.1393, 23381.12
568.6214, 23376.43
569.1035, 23400.79
569.5856, 23466.40
570.0677, 23538.02
570.5499, 23591.67
571.0320, 23631.58
571.5141, 23664.88
571.9962, 23692.44
572.4783, 23715.62
572.9604, 23732.71
573.4426, 23744.86
573.9247, 23758.21
574.4068, 23784.01
574.8889, 23801.29
575.3710, 23797.52
575.8531, 23764.93
576.3353, 23753.64
576.8174, 23771.57
577.2995, 23799.17
577.7816, 23814.75
578.2637, 23815.63
578.7458, 23835.40
579.2280, 23883.81
579.7101, 23944.18
580.1922, 23983.61
580.6743, 24006.37
581.1564, 24036.47
581.6385, 24100.50
582.1207, 24169.96
582.6028, 24196.89
583.0849, 24187.23
583.5670, 24189.12
584.0491, 24240.94
584.5313, 24309.26
585.0134, 24369.61
585.4955, 24417.95
585.9776, 24458.84
586.4597, 24498.91
586.9418, 24529.35
587.4240, 24538.16
587.9061, 24495.00
588.3882, 24478.81
588.8703, 24509.95
589.3524, 24570.22
589.8345, 24602.61
590.3167, 24598.29
590.7988, 24600.71
591.2809, 24636.78
591.7630, 24696.26
592.2451, 24712.70
592.7272, 24683.78
593.2094, 24668.61
593.6915, 24744.47
594.1736, 24863.36
594.6557, 24929.40
595.1378, 24917.53
595.6199, 24888.23
596.1021, 24859.36
596.5842, 24848.61
597.0663, 24881.40
597.5485, 25035.82
598.0306, 25161.07
598.5127, 25190.42
598.9948, 25145.53
599.4769, 25123.14
599.9590, 25142.97
600.4412, 25169.04
600.9233, 25187.27
601.4054, 25196.02
601.8875, 25226.48
602.3696, 25284.68
602.8517, 25349.37
603.3339, 25402.98
603.8160, 25446.32
604.2981, 25483.29
604.7802, 25513.82
605.2623, 25538.66
605.7444, 25548.11
606.2266, 25551.71
606.7087, 25575.41
607.1908, 25652.25
607.6729, 25728.78
608.1550, 25758.25
608.6371, 25751.66
609.1193, 25745.84
609.6014, 25744.65
610.0835, 25757.04
610.5656, 25793.86
611.0477, 25860.80
611.5298, 25910.35
612.0120, 25927.50
612.4941, 25939.96
612.9762, 25966.20
613.4583, 26010.40
613.9404, 26054.58
614.4225, 26101.41
614.9047, 26141.62
615.3868, 26154.21
615.8689, 26142.29
616.3510, 26146.36
616.8331, 26182.76
617.3152, 26235.11
617.7974, 26282.34
618.2795, 26324.58
618.7616, 26364.72
619.2437, 26405.91
619.7258, 26444.21
620.2079, 26476.32
620.6901, 26501.94
621.1722, 26526.17
621.6543, 26552.39
622.1364, 26576.77
622.6185, 26595.61
623.1006, 26602.54
623.5828, 26618.31
624.0649, 26646.34
624.5470, 26680.06
625.0291, 26710.84
625.5112, 26737.05
625.9933, 26772.08
626.4755, 26825.54
626.9576, 26878.83
627.4397, 26878.31
627.9218, 26832.58
628.4039, 26807.31
628.8860, 26847.13
629.3682, 26919.76
629.8503, 26991.08
630.3324, 27059.22
630.8145, 27110.25
631.2966, 27113.10
631.7787, 27111.30
632.2609, 27139.35
632.7430, 27211.43
633.2251, 27274.69
633.7072, 27309.09
634.1893, 27336.01
634.6714, 27374.63
635.1536, 27436.85
635.6357, 27484.92
636.1178, 27515.54
636.5999, 27530.89
637.0820, 27523.69
637.5641, 27492.03
638.0463, 27490.93
638.5284, 27558.22
639.0105, 27649.56
639.4926, 27657.64
639.9747, 27599.20
640.4568, 27570.52
640.9390, 27672.50
641.4211, 27803.34
641.9032, 27858.19
642.3853, 27829.64
642.8674, 27815.48
643.3495, 27866.07
643.8317, 27937.04
644.3138, 27998.98
644.7959, 28046.31
645.2780, 28087.65
645.7601, 28118.14
646.2422, 28146.78
646.7244, 28187.23
647.2065, 28243.40
647.6886, 28289.90
648.1707, 28322.80
648.6528, 28342.42
649.1349, 28340.03
649.6171, 28320.08
650.0992, 28313.95
650.5813, 28339.71
651.0634, 28385.10
651.5455, 28447.58
652.0276, 28521.73
652.5098, 28575.42
652.9919, 28576.05
653.4740, 28563.02
653.9561, 28556.77
654.4382, 28557.92
654.9203, 28575.43
655.4025, 28627.35
655.8846, 28682.12
656.3667, 28718.42
656.8488, 28731.89
657.3309, 28739.17
657.8130, 28739.04
658.2952, 28736.24
658.7773, 28731.50
659.2594, 28726.46
659.7415, 28742.19
660.2236, 28787.83
660.7057, 28850.84
661.1879, 28932.13
