##NAMES=Faizievite
##RRUFFID=R070221
##IDEAL CHEMISTRY=Li_6_K_2_Na(Ca_6_Na)Ti^4+^_4_(Si_6_O_18_)_2_(Si_12_O_30_)F_2_
##LOCALITY=Dara-i-Pioz Glacier, Alayskiy (Alai) Range, Tien Shan Mts, Districts of the Republican Subordination, Tajikistan
##OWNER=RRUFF
##SOURCE=Michael Scott
##DESCRIPTION=Pale brownish yellow massive associated with quartz
##STATUS=The identification of this mineral is confirmed by single-crystal X-ray diffraction and chemical analysis.
##URL=rruff.info/R070221
##MEASURED CHEMISTRY=Li_6.00_(K_1.78_[box]_0.20_Ba_0.02_)_Σ=2_(Na_0.80_K_0.20_)_Σ=1_(Ca_6.12_Na_0.74_Sr_0.11_Mn_0.03_)_Σ=7_(Ti_3.88_Al_0.10_Nb^5+^_0.02_)_Σ=4_(Si_6.00_O_18_)_2_(Si_12.00_O_30_)(F_1.72_(OH)_0.28_)_Σ=2_; Li assumed by stoichiometry; OH by charge balance
165.3741, 9208.905
165.8563, 9352.662
166.3384, 9444.063
166.8205, 9504.894
167.3026, 9570.792
167.7847, 9662.801
168.2668, 9767.171
168.7490, 9854.760
169.2311, 9923.911
169.7132, 9979.690
170.1953, 10018.06
170.6774, 10047.17
171.1595, 10080.27
171.6417, 10128.24
172.1238, 10182.05
172.6059, 10215.90
173.0880, 10217.01
173.5701, 10223.93
174.0522, 10256.66
174.5344, 10304.90
175.0165, 10353.67
175.4986, 10394.50
175.9807, 10432.12
176.4628, 10481.87
176.9449, 10552.63
177.4271, 10619.22
177.9092, 10671.17
178.3913, 10713.90
178.8734, 10753.99
179.3555, 10794.34
179.8376, 10834.99
180.3197, 10876.98
180.8019, 10922.37
181.2840, 10965.24
181.7661, 11003.45
182.2482, 11038.74
182.7303, 11070.59
183.2124, 11095.72
183.6946, 11122.17
184.1767, 11178.37
184.6588, 11295.01
185.1409, 11386.06
185.6230, 11415.25
186.1051, 11415.36
186.5873, 11423.52
187.0694, 11457.23
187.5515, 11507.98
188.0336, 11554.19
188.5157, 11592.22
188.9978, 11631.28
189.4800, 11675.06
189.9621, 11719.74
190.4442, 11760.32
190.9263, 11793.69
191.4084, 11825.32
191.8905, 11869.50
192.3727, 11936.07
192.8548, 11998.33
193.3369, 12052.17
193.8190, 12100.33
194.3011, 12145.29
194.7832, 12188.02
195.2654, 12228.43
195.7475, 12264.55
196.2296, 12288.83
196.7117, 12324.36
197.1938, 12381.55
197.6759, 12445.21
198.1581, 12501.20
198.6402, 12545.04
199.1223, 12583.56
199.6044, 12631.86
200.0865, 12705.42
200.5686, 12756.51
201.0508, 12749.21
201.5329, 12741.40
202.0150, 12788.80
202.4971, 12903.42
202.9792, 13037.96
203.4613, 13112.59
203.9435, 13091.89
204.4256, 13089.41
204.9077, 13113.37
205.3898, 13152.07
205.8719, 13202.26
206.3540, 13261.33
206.8362, 13322.29
207.3183, 13375.98
207.8004, 13419.67
208.2825, 13461.58
208.7646, 13496.43
209.2467, 13533.79
209.7289, 13581.39
210.2110, 13638.66
210.6931, 13697.94
211.1752, 13750.90
211.6573, 13796.95
212.1395, 13837.31
212.6216, 13861.91
213.1037, 13889.51
213.5858, 13933.21
214.0679, 13990.27
214.5500, 14046.33
215.0322, 14084.94
215.5143, 14101.27
215.9964, 14131.96
216.4785, 14183.64
216.9606, 14243.40
217.4427, 14314.06
217.9249, 14390.14
218.4070, 14460.38
218.8891, 14515.23
219.3712, 14554.41
219.8533, 14588.09
220.3354, 14609.55
220.8176, 14631.82
221.2997, 14655.21
221.7818, 14682.17
222.2639, 14719.39
222.7460, 14775.10
223.2281, 14845.32
223.7103, 14881.78
224.1924, 14840.65
224.6745, 14811.91
225.1566, 14819.84
225.6387, 14850.73
226.1208, 14885.14
226.6030, 14913.16
227.0851, 14933.21
227.5672, 14937.70
228.0493, 14911.83
228.5314, 14889.52
229.0135, 14874.62
229.4957, 14866.82
229.9778, 14866.31
230.4599, 14873.30
230.9420, 14885.68
231.4241, 14898.90
231.9062, 14915.82
232.3884, 14928.23
232.8705, 14939.41
233.3526, 14944.19
233.8347, 14936.15
234.3168, 14913.52
234.7989, 14883.31
235.2811, 14856.76
235.7632, 14832.98
236.2453, 14815.34
236.7274, 14799.15
237.2095, 14791.39
237.6916, 14802.52
238.1738, 14832.08
238.6559, 14863.43
239.1380, 14876.27
239.6201, 14867.45
240.1022, 14851.11
240.5843, 14812.94
241.0665, 14779.47
241.5486, 14765.06
242.0307, 14769.07
242.5128, 14780.83
242.9949, 14793.07
243.4770, 14806.60
243.9592, 14810.31
244.4413, 14788.92
244.9234, 14771.98
245.4055, 14773.82
245.8876, 14789.65
246.3697, 14805.48
246.8519, 14810.35
247.3340, 14805.94
247.8161, 14808.42
248.2982, 14830.40
248.7803, 14841.70
249.2624, 14826.37
249.7446, 14795.52
250.2267, 14767.04
250.7088, 14750.47
251.1909, 14742.34
251.6730, 14729.99
252.1551, 14702.74
252.6373, 14694.20
253.1194, 14725.46
253.6015, 14774.33
254.0836, 14822.45
254.5657, 14866.83
255.0478, 14894.29
255.5300, 14871.35
256.0121, 14777.29
256.4942, 14712.10
256.9763, 14725.44
257.4584, 14767.15
257.9406, 14805.95
258.4227, 14835.52
258.9048, 14860.29
259.3869, 14886.15
259.8690, 14913.48
260.3511, 14932.98
260.8333, 14933.86
261.3154, 14934.54
261.7975, 14949.61
262.2796, 14978.86
262.7617, 15010.04
263.2438, 15040.00
263.7260, 15066.60
264.2081, 15072.94
264.6902, 15039.97
265.1723, 15013.70
265.6544, 15030.94
266.1365, 15082.10
266.6187, 15136.65
267.1008, 15193.58
267.5829, 15241.82
268.0650, 15247.83
268.5471, 15195.63
269.0292, 15151.00
269.5114, 15175.35
269.9935, 15237.20
270.4756, 15284.24
270.9577, 15288.36
271.4398, 15284.21
271.9219, 15314.55
272.4041, 15380.49
272.8862, 15446.70
273.3683, 15498.41
273.8504, 15537.54
274.3325, 15569.64
274.8146, 15593.80
275.2968, 15613.00
275.7789, 15627.26
276.2610, 15637.63
276.7431, 15647.34
277.2252, 15654.78
277.7073, 15666.10
278.1895, 15695.32
278.6716, 15747.81
279.1537, 15790.07
279.6358, 15801.57
280.1179, 15796.81
280.6000, 15799.06
281.0822, 15813.05
281.5643, 15836.75
282.0464, 15871.44
282.5285, 15918.23
283.0106, 15959.38
283.4927, 15995.14
283.9749, 16022.95
284.4570, 16034.63
284.9391, 16031.58
285.4212, 16032.92
285.9033, 16054.46
286.3854, 16096.51
286.8676, 16140.19
287.3497, 16205.44
287.8318, 16253.21
288.3139, 16249.30
288.7960, 16211.00
289.2781, 16186.24
289.7603, 16203.61
290.2424, 16251.12
290.7245, 16278.05
291.2066, 16263.92
291.6887, 16256.05
292.1708, 16267.14
292.6530, 16286.30
293.1351, 16301.44
293.6172, 16308.18
294.0993, 16306.68
294.5814, 16296.06
295.0635, 16263.56
295.5457, 16246.88
296.0278, 16257.88
296.5099, 16274.94
296.9920, 16283.80
297.4741, 16282.54
297.9562, 16275.61
298.4384, 16264.39
298.9205, 16244.28
299.4026, 16253.28
299.8847, 16339.76
300.3668, 16406.26
300.8489, 16401.77
301.3311, 16350.97
301.8131, 16309.79
302.2953, 16316.06
302.7774, 16360.45
303.2595, 16395.73
303.7416, 16420.31
304.2237, 16436.85
304.7058, 16439.12
305.1880, 16437.57
305.6701, 16444.81
306.1522, 16465.77
306.6343, 16491.36
307.1164, 16506.30
307.5985, 16507.96
308.0807, 16508.54
308.5628, 16508.51
309.0449, 16509.18
309.5270, 16510.77
310.0091, 16513.56
310.4912, 16518.96
310.9734, 16530.17
311.4555, 16546.38
311.9376, 16557.97
312.4197, 16560.98
312.9018, 16564.02
313.3839, 16576.65
313.8661, 16593.98
314.3482, 16602.78
314.8303, 16591.51
315.3124, 16570.51
315.7945, 16557.51
316.2766, 16553.24
316.7588, 16552.94
317.2409, 16554.93
317.7230, 16559.30
318.2051, 16567.47
318.6872, 16584.67
319.1693, 16596.67
319.6515, 16588.66
320.1336, 16564.91
320.6157, 16543.15
321.0978, 16527.24
321.5799, 16519.48
322.0620, 16530.02
322.5442, 16564.74
323.0263, 16580.76
323.5084, 16536.53
323.9905, 16479.37
324.4726, 16477.75
324.9547, 16542.92
325.4369, 16626.27
325.9190, 16685.11
326.4011, 16716.69
326.8832, 16734.55
327.3653, 16720.90
327.8474, 16710.41
328.3296, 16724.42
328.8117, 16758.41
329.2938, 16796.68
329.7759, 16830.73
330.2580, 16861.11
330.7401, 16889.24
331.2223, 16912.05
331.7044, 16936.57
332.1865, 16964.86
332.6686, 16994.67
333.1507, 17024.37
333.6328, 17053.19
334.1150, 17079.88
334.5971, 17100.25
335.0792, 17103.33
335.5613, 17130.92
336.0434, 17203.11
336.5255, 17278.88
337.0077, 17338.34
337.4898, 17382.03
337.9719, 17419.82
338.4540, 17457.39
338.9361, 17495.54
339.4182, 17541.38
339.9004, 17594.56
340.3825, 17656.55
340.8646, 17729.65
341.3467, 17810.14
341.8288, 17893.84
342.3109, 17979.92
342.7931, 18066.69
343.2752, 18151.45
343.7573, 18233.99
344.2394, 18317.11
344.7215, 18406.34
345.2036, 18492.53
345.6858, 18563.08
346.1679, 18618.51
346.6500, 18684.30
347.1321, 18787.89
347.6142, 18913.86
348.0963, 19016.47
348.5785, 19084.43
349.0606, 19150.82
349.5427, 19244.47
350.0248, 19357.94
350.5069, 19469.91
350.9890, 19590.66
351.4712, 19698.02
351.9533, 19762.18
352.4354, 19792.17
352.9175, 19836.48
353.3996, 19921.05
353.8817, 20030.40
354.3639, 20124.86
354.8460, 20201.65
355.3281, 20272.99
355.8102, 20340.30
356.2923, 20404.00
356.7744, 20463.39
357.2566, 20518.69
357.7387, 20570.52
358.2208, 20619.80
358.7029, 20667.03
359.1850, 20708.69
359.6671, 20744.18
360.1493, 20775.53
360.6314, 20805.23
361.1135, 20831.43
361.5956, 20849.28
362.0777, 20855.40
362.5598, 20853.09
363.0420, 20853.13
363.5241, 20845.14
364.0062, 20858.00
364.4883, 20921.31
364.9704, 20988.15
365.4525, 21016.59
365.9347, 20998.94
366.4168, 20962.17
366.8989, 20932.94
367.3810, 20911.13
367.8631, 20895.72
368.3452, 20889.89
368.8274, 20886.97
369.3095, 20885.74
369.7916, 20884.54
370.2737, 20880.17
370.7558, 20873.82
371.2379, 20861.25
371.7201, 20830.02
372.2022, 20777.33
372.6843, 20733.49
373.1664, 20714.81
373.6485, 20710.94
374.1306, 20704.30
374.6128, 20692.37
375.0949, 20685.06
375.5770, 20700.26
376.0591, 20721.64
376.5412, 20712.03
377.0233, 20661.39
377.5055, 20599.14
377.9876, 20555.72
378.4697, 20533.82
378.9518, 20502.09
379.4339, 20451.71
379.9160, 20399.14
380.3982, 20355.71
380.8803, 20318.60
381.3624, 20281.19
381.8445, 20240.99
382.3266, 20194.33
382.8087, 20128.24
383.2909, 20007.06
383.7730, 19914.46
384.2551, 19870.19
384.7372, 19843.16
385.2193, 19813.36
385.7014, 19774.68
386.1836, 19724.41
386.6657, 19655.25
387.1478, 19565.56
387.6299, 19493.85
388.1120, 19445.11
388.5941, 19410.09
389.0763, 19396.11
389.5584, 19390.92
390.0405, 19374.55
390.5226, 19335.61
391.0047, 19289.82
391.4868, 19264.62
391.9690, 19262.93
392.4511, 19253.93
392.9332, 19220.44
393.4153, 19185.02
393.8974, 19172.29
394.3795, 19182.12
394.8617, 19188.19
395.3438, 19177.86
395.8259, 19155.54
396.3080, 19124.84
396.7901, 19085.41
397.2722, 19049.51
397.7544, 19024.10
398.2365, 19010.05
398.7186, 19006.15
399.2007, 19029.13
399.6828, 19043.43
400.1649, 19027.21
400.6471, 18995.15
401.1292, 18970.53
401.6113, 18960.88
402.0934, 18962.08
402.5755, 18968.71
403.0576, 18983.48
403.5398, 18995.51
404.0219, 19004.07
404.5040, 19011.06
404.9861, 19012.22
405.4682, 19012.53
405.9503, 19024.47
406.4325, 19057.63
406.9146, 19104.31
407.3967, 19135.73
407.8788, 19143.04
408.3609, 19153.04
408.8430, 19179.38
409.3252, 19204.81
409.8073, 19208.50
410.2894, 19189.63
410.7715, 19179.26
411.2536, 19216.57
411.7357, 19289.25
412.2179, 19326.61
412.7000, 19307.22
413.1821, 19292.86
413.6642, 19334.26
414.1463, 19410.80
414.6284, 19484.78
415.1106, 19559.40
415.5927, 19617.70
416.0748, 19636.96
416.5569, 19628.62
417.0390, 19626.56
417.5211, 19641.48
418.0033, 19669.92
418.4854, 19708.26
418.9675, 19759.72
419.4496, 19810.59
419.9317, 19863.10
420.4138, 19912.36
420.8960, 19948.09
421.3781, 19976.71
421.8602, 20019.07
422.3423, 20090.64
422.8244, 20182.89
423.3065, 20258.51
423.7887, 20307.69
424.2708, 20354.92
424.7529, 20396.04
425.2350, 20440.95
425.7171, 20499.89
426.1992, 20573.20
426.6814, 20649.40
427.1635, 20720.50
427.6456, 20786.56
428.1277, 20838.06
428.6098, 20861.17
429.0919, 20896.49
429.5741, 20973.87
430.0562, 21074.28
430.5383, 21170.89
431.0204, 21257.68
431.5025, 21339.02
431.9846, 21419.38
432.4668, 21497.46
432.9489, 21570.23
433.4310, 21638.55
433.9131, 21695.29
434.3952, 21725.94
434.8773, 21726.28
435.3595, 21745.67
435.8416, 21794.27
436.3237, 21855.75
436.8058, 21937.80
437.2879, 22024.80
437.7701, 22076.10
438.2522, 22068.26
438.7343, 22029.18
439.2164, 22031.60
439.6985, 22112.33
440.1806, 22169.30
440.6628, 22205.35
441.1449, 22216.80
441.6270, 22181.13
442.1091, 22113.95
442.5912, 22068.69
443.0733, 22097.72
443.5555, 22175.47
444.0376, 22199.37
444.5197, 22153.50
445.0018, 22098.26
445.4839, 22048.31
445.9660, 22004.13
446.4482, 21969.49
446.9303, 21946.81
447.4124, 21919.36
447.8945, 21861.19
448.3766, 21794.05
448.8587, 21775.49
449.3409, 21816.99
449.8230, 21850.67
450.3051, 21820.13
450.7872, 21731.06
451.2693, 21654.73
451.7514, 21594.01
452.2336, 21541.60
452.7157, 21498.16
453.1978, 21460.68
453.6799, 21427.64
454.1620, 21397.92
454.6441, 21366.30
455.1263, 21325.04
455.6084, 21271.55
456.0905, 21223.37
456.5726, 21192.37
457.0547, 21154.84
457.5368, 21093.81
458.0190, 21023.79
458.5011, 20968.40
458.9832, 20938.30
459.4653, 20922.59
459.9474, 20909.36
460.4295, 20898.79
460.9117, 20880.33
461.3938, 20849.86
461.8759, 20813.51
462.3580, 20779.22
462.8401, 20745.25
463.3222, 20700.11
463.8044, 20625.15
464.2865, 20549.62
464.7686, 20507.28
465.2507, 20489.31
465.7328, 20458.76
466.2149, 20398.67
466.6971, 20321.18
467.1792, 20251.33
467.6613, 20198.79
468.1434, 20132.28
468.6255, 20030.89
469.1076, 19933.78
469.5898, 19871.25
470.0719, 19835.45
470.5540, 19799.66
471.0361, 19746.51
471.5182, 19682.56
472.0003, 19625.43
472.4825, 19576.89
472.9646, 19531.38
473.4467, 19482.10
473.9288, 19440.19
474.4109, 19420.78
474.8930, 19420.92
475.3752, 19411.90
475.8573, 19373.71
476.3394, 19317.41
476.8215, 19261.76
477.3036, 19207.34
477.7857, 19145.01
478.2679, 19067.16
478.7500, 18981.14
479.2321, 18905.01
479.7142, 18845.06
480.1963, 18779.11
480.6784, 18680.97
481.1606, 18589.79
481.6427, 18552.73
482.1248, 18563.78
482.6069, 18573.21
483.0890, 18542.75
483.5711, 18480.65
484.0533, 18433.38
484.5354, 18420.24
485.0175, 18389.60
485.4996, 18313.21
485.9817, 18233.28
486.4638, 18184.64
486.9460, 18169.91
487.4281, 18167.75
487.9102, 18170.17
488.3923, 18171.91
488.8744, 18149.72
489.3565, 18096.75
489.8387, 18061.04
490.3208, 18084.53
490.8029, 18131.30
491.2850, 18122.88
491.7671, 18035.40
492.2492, 17962.73
492.7314, 17942.44
493.2135, 17950.54
493.6956, 17969.49
494.1777, 17992.71
494.6598, 18004.11
495.1419, 17990.04
495.6241, 17954.54
496.1062, 17923.71
496.5883, 17911.78
497.0704, 17884.02
497.5525, 17808.97
498.0346, 17736.56
498.5168, 17713.94
498.9989, 17742.19
499.4810, 17782.37
499.9631, 17812.25
500.4452, 17828.09
500.9273, 17804.47
501.4095, 17726.73
501.8916, 17672.86
502.3737, 17693.96
502.8558, 17749.03
503.3379, 17772.34
503.8200, 17756.85
504.3022, 17734.19
504.7843, 17708.38
505.2664, 17686.07
505.7485, 17677.63
506.2306, 17682.21
506.7127, 17689.36
507.1949, 17692.50
507.6770, 17692.07
508.1591, 17690.22
508.6412, 17694.33
509.1233, 17685.32
509.6054, 17642.53
510.0876, 17602.00
510.5697, 17593.45
511.0518, 17614.80
511.5339, 17641.87
512.0161, 17657.06
512.4982, 17665.66
512.9803, 17687.45
513.4624, 17727.55
513.9445, 17747.52
514.4266, 17722.77
514.9088, 17680.50
515.3909, 17654.48
515.8730, 17644.94
516.3551, 17645.65
516.8372, 17671.33
517.3193, 17694.19
517.8015, 17679.73
518.2836, 17636.35
518.7657, 17601.61
519.2478, 17595.42
519.7299, 17610.28
520.2120, 17630.89
520.6942, 17677.19
521.1763, 17689.93
521.6584, 17640.11
522.1405, 17588.05
522.6226, 17574.08
523.1047, 17584.71
523.5869, 17577.01
524.0690, 17519.98
524.5511, 17452.16
525.0332, 17442.69
525.5153, 17491.17
525.9974, 17537.05
526.4796, 17572.93
526.9617, 17590.63
527.4438, 17568.10
527.9259, 17511.34
528.4080, 17475.37
528.8901, 17475.88
529.3723, 17491.24
529.8544, 17523.38
530.3365, 17558.32
530.8186, 17566.13
531.3007, 17537.31
531.7828, 17495.35
532.2650, 17472.06
532.7471, 17469.51
533.2292, 17472.11
533.7113, 17477.21
534.1934, 17491.24
534.6755, 17538.53
535.1577, 17587.13
535.6398, 17585.37
536.1219, 17513.50
536.6040, 17437.88
537.0861, 17430.24
537.5682, 17468.90
538.0504, 17480.19
538.5325, 17452.25
539.0146, 17422.70
539.4967, 17419.03
539.9788, 17435.74
540.4609, 17445.09
540.9431, 17454.62
541.4252, 17447.69
541.9073, 17406.64
542.3894, 17356.91
542.8715, 17320.67
543.3536, 17300.94
543.8358, 17291.54
544.3179, 17288.96
544.8000, 17291.28
545.2821, 17289.55
545.7642, 17281.87
546.2463, 17275.47
546.7285, 17273.65
547.2106, 17272.75
547.6927, 17271.87
548.1748, 17270.34
548.6569, 17262.74
549.1390, 17235.13
549.6211, 17208.51
550.1032, 17214.57
550.5853, 17244.77
551.0674, 17258.38
551.5496, 17237.27
552.0317, 17202.25
552.5138, 17186.07
552.9959, 17191.07
553.4780, 17208.04
553.9601, 17249.55
554.4423, 17287.93
554.9244, 17313.57
555.4065, 17328.31
555.8886, 17332.95
556.3707, 17327.38
556.8528, 17323.92
557.3350, 17341.26
557.8171, 17376.24
558.2992, 17403.76
558.7813, 17421.99
559.2634, 17430.75
559.7455, 17424.30
560.2277, 17408.75
560.7098, 17405.05
561.1919, 17428.76
561.6740, 17437.37
562.1561, 17395.41
562.6382, 17345.33
563.1204, 17335.68
563.6025, 17367.17
564.0846, 17410.19
564.5667, 17446.60
565.0488, 17472.07
565.5309, 17469.72
566.0131, 17435.38
566.4952, 17383.69
566.9773, 17294.11
567.4594, 17205.93
567.9415, 17145.88
568.4236, 17110.42
568.9058, 17077.99
569.3879, 17040.47
569.8700, 17000.93
570.3521, 16970.44
570.8342, 16941.35
571.3163, 16879.11
571.7985, 16769.88
572.2806, 16658.15
572.7627, 16600.49
573.2448, 16603.98
573.7269, 16593.09
574.2090, 16564.07
574.6912, 16525.76
575.1733, 16465.31
575.6554, 16404.56
576.1375, 16371.39
576.6196, 16370.06
577.1017, 16374.03
577.5839, 16356.32
578.0660, 16324.65
578.5481, 16309.06
579.0302, 16312.92
579.5123, 16306.74
579.9944, 16275.96
580.4766, 16228.37
580.9587, 16170.33
581.4408, 16087.43
581.9229, 16050.76
582.4050, 16128.17
582.8871, 16202.57
583.3693, 16181.41
583.8514, 16096.96
584.3335, 16030.36
584.8156, 16019.08
585.2977, 16032.58
585.7798, 16020.00
586.2620, 15977.78
586.7441, 15953.14
587.2262, 15959.61
587.7083, 15964.86
588.1904, 15942.71
588.6725, 15909.27
589.1547, 15892.87
589.6368, 15904.91
590.1189, 15913.50
590.6010, 15902.33
591.0831, 15879.56
591.5652, 15848.66
592.0474, 15814.26
592.5295, 15794.86
593.0116, 15805.00
593.4937, 15832.63
593.9758, 15840.99
594.4579, 15826.76
594.9401, 15801.02
595.4222, 15731.49
595.9043, 15681.41
596.3864, 15705.58
596.8685, 15774.38
597.3506, 15809.05
597.8328, 15766.20
598.3149, 15708.27
598.7970, 15693.16
599.2791, 15706.79
599.7612, 15713.22
600.2433, 15705.51
600.7255, 15693.12
601.2076, 15682.99
601.6897, 15675.37
602.1718, 15672.13
602.6539, 15679.27
603.1360, 15682.61
603.6182, 15677.07
604.1003, 15670.55
604.5824, 15669.71
605.0645, 15673.75
605.5466, 15678.35
606.0287, 15687.08
606.5109, 15686.85
606.9930, 15646.10
607.4751, 15571.84
607.9572, 15519.73
608.4393, 15503.18
608.9214, 15514.38
609.4036, 15556.43
609.8857, 15629.41
610.3678, 15654.63
610.8499, 15586.51
611.3320, 15533.14
611.8141, 15541.77
612.2963, 15562.96
612.7784, 15536.10
613.2605, 15462.85
613.7426, 15402.84
614.2247, 15409.94
614.7068, 15454.82
615.1890, 15464.66
615.6711, 15438.14
616.1532, 15402.99
616.6353, 15359.43
617.1174, 15323.98
617.5995, 15316.88
618.0817, 15338.86
618.5638, 15368.03
619.0459, 15418.19
619.5280, 15458.48
620.0101, 15467.55
620.4922, 15464.71
620.9744, 15479.26
621.4565, 15513.50
621.9386, 15539.89
622.4207, 15530.92
622.9028, 15495.49
623.3849, 15468.89
623.8671, 15452.96
624.3492, 15434.30
624.8313, 15404.16
625.3134, 15374.99
625.7955, 15365.84
626.2776, 15375.34
626.7598, 15377.48
627.2419, 15358.03
627.7240, 15341.99
628.2061, 15346.49
628.6882, 15360.62
629.1703, 15364.78
629.6525, 15356.35
630.1346, 15354.18
630.6167, 15382.87
631.0988, 15432.69
631.5809, 15444.76
632.0630, 15408.34
632.5452, 15375.13
633.0273, 15352.42
633.5094, 15347.72
633.9915, 15380.87
634.4736, 15448.92
634.9557, 15489.93
635.4379, 15466.61
635.9200, 15439.23
636.4021, 15443.16
636.8842, 15464.57
637.3663, 15479.92
637.8484, 15484.03
638.3306, 15488.73
638.8127, 15506.50
639.2948, 15534.95
639.7769, 15559.58
640.2590, 15581.02
640.7411, 15595.90
641.2233, 15595.19
641.7054, 15595.28
642.1875, 15613.21
642.6696, 15647.94
643.1517, 15688.04
643.6339, 15747.86
644.1160, 15794.67
644.5981, 15796.56
645.0802, 15779.36
645.5623, 15782.09
646.0444, 15812.79
646.5266, 15854.88
647.0087, 15893.94
647.4908, 15930.70
647.9729, 15967.88
648.4550, 16003.72
648.9371, 16048.78
649.4193, 16128.02
649.9014, 16192.76
650.3835, 16177.69
650.8656, 16097.16
651.3477, 16053.89
651.8298, 16116.96
652.3120, 16161.70
652.7941, 16103.06
653.2762, 16004.21
