##NAMES=Famatinite
##RRUFFID=R110022
##IDEAL CHEMISTRY=Cu^1+^Cu^2+^_2_Sb^3+^S^2-^_4_
##LOCALITY=Quiruvilca, La Libertad Department, Peru
##OWNER=RRUFF
##SOURCE=William Pinch
##DESCRIPTION=Pinkish grey metallic massive associated with black metallic tetrahedral tennantite R110024 on pyrite
##STATUS=The identification of this mineral is confirmed by single-crystal X-ray diffraction and chemical analysis.
##URL=rruff.info/R110022
##MEASURED CHEMISTRY=Cu_2.99_(Sb_0.61_As_0.40_)_Î£=1.01_S_4_
176.9043, 22.57082
177.3864, 22.47122
177.8685, 22.31549
178.3506, 22.42207
178.8328, 22.89375
179.3149, 23.25783
179.7970, 23.35360
180.2791, 23.27621
180.7612, 23.06114
181.2433, 22.70313
181.7255, 22.27932
182.2076, 21.94999
182.6897, 21.73444
183.1718, 21.59197
183.6539, 21.47483
184.1360, 21.42350
184.6181, 21.47415
185.1003, 21.64274
185.5824, 21.93278
186.0645, 22.36530
186.5466, 23.22481
187.0287, 23.87462
187.5108, 24.15664
187.9930, 24.20515
188.4751, 24.21867
188.9572, 24.31738
189.4393, 24.43439
189.9214, 24.17575
190.4035, 22.88259
190.8857, 21.94642
191.3678, 21.76664
191.8499, 22.11295
192.3320, 22.65974
192.8141, 23.27828
193.2962, 23.88157
193.7784, 23.73169
194.2605, 21.72757
194.7426, 20.30931
195.2247, 20.84104
195.7068, 22.73336
196.1889, 24.24171
196.6711, 24.22357
197.1532, 22.97302
197.6353, 22.21824
198.1174, 22.24228
198.5995, 22.43967
199.0816, 22.52540
199.5638, 22.50749
200.0459, 22.42025
200.5280, 22.15081
201.0101, 21.88758
201.4922, 22.11705
201.9743, 23.35973
202.4565, 24.59389
202.9386, 24.77597
203.4207, 23.87439
203.9028, 23.10494
204.3849, 23.53049
204.8670, 24.34437
205.3492, 24.29834
205.8313, 22.73424
206.3134, 20.79739
206.7955, 20.00142
207.2776, 20.57999
207.7597, 21.21568
208.2419, 21.28950
208.7240, 21.11983
209.2061, 20.98652
209.6882, 20.98321
210.1703, 21.04450
210.6524, 21.05162
211.1346, 20.97185
211.6167, 20.92299
212.0988, 20.86799
212.5809, 20.88715
213.0630, 21.10653
213.5451, 21.60133
214.0273, 22.21470
214.5094, 22.61863
214.9915, 22.87428
215.4736, 22.75565
215.9557, 21.71991
216.4378, 20.57288
216.9200, 20.26693
217.4021, 21.25682
217.8842, 22.93637
218.3663, 23.52637
218.8484, 21.68051
219.3305, 20.68270
219.8127, 21.60090
220.2948, 23.20945
220.7769, 24.14771
221.2590, 23.79563
221.7411, 22.64160
222.2232, 22.13535
222.7054, 23.19297
223.1875, 23.83273
223.6696, 23.58820
224.1517, 22.99266
224.6338, 22.65676
225.1159, 22.85140
225.5980, 23.43215
226.0802, 23.98768
226.5623, 24.31857
227.0444, 24.86597
227.5265, 25.96843
228.0086, 27.21939
228.4907, 27.97919
228.9729, 27.95150
229.4550, 27.54500
229.9371, 27.84788
230.4192, 29.37785
230.9013, 30.75706
231.3834, 31.99923
231.8656, 32.91409
232.3477, 33.02480
232.8298, 32.03696
233.3119, 30.61779
233.7940, 30.32979
234.2761, 31.55503
234.7583, 32.66947
235.2404, 33.21387
235.7225, 33.39345
236.2046, 33.59914
236.6867, 33.99719
237.1688, 34.36859
237.6510, 34.19426
238.1331, 33.34608
238.6152, 32.79927
239.0973, 32.99302
239.5794, 33.71229
240.0615, 34.59492
240.5437, 35.69369
241.0258, 36.61755
241.5079, 36.70072
241.9900, 35.95914
242.4721, 35.33547
242.9542, 35.40417
243.4364, 35.89106
243.9185, 36.07085
244.4006, 35.72424
244.8827, 35.18245
245.3648, 34.68127
245.8469, 34.23137
246.3290, 34.02235
246.8112, 34.47647
247.2933, 35.27479
247.7754, 35.33746
248.2575, 34.13409
248.7396, 32.84005
249.2217, 32.45576
249.7039, 32.76168
250.1860, 33.03924
250.6681, 32.85075
251.1502, 32.31720
251.6323, 31.91778
252.1144, 31.83592
252.5966, 31.61022
253.0787, 30.74587
253.5608, 29.54085
254.0429, 28.66539
254.5250, 28.59343
255.0071, 29.15371
255.4893, 29.71419
255.9714, 30.34239
256.4535, 30.84530
256.9356, 31.13656
257.4177, 31.27031
257.8998, 31.31388
258.3820, 31.23794
258.8641, 31.12774
259.3462, 31.34515
259.8283, 32.26101
260.3104, 32.87706
260.7925, 32.67030
261.2747, 32.08096
261.7568, 31.70026
262.2389, 31.84770
262.7210, 32.33305
263.2031, 32.60323
263.6852, 32.55632
264.1674, 32.45015
264.6495, 32.38142
265.1316, 32.28405
265.6137, 32.02644
266.0958, 31.53590
266.5779, 31.00274
267.0601, 30.95464
267.5422, 31.92144
268.0243, 32.40041
268.5064, 31.85940
268.9885, 30.98584
269.4706, 30.33500
269.9528, 30.10943
270.4349, 30.22468
270.9170, 30.57642
271.3991, 31.42414
271.8812, 31.98066
272.3633, 32.02279
272.8455, 31.91402
273.3276, 31.96045
273.8097, 32.22312
274.2918, 32.50948
274.7739, 32.54656
275.2560, 32.35019
275.7382, 31.82491
276.2202, 30.75838
276.7024, 29.59460
277.1845, 28.49025
277.6666, 27.52929
278.1487, 26.84680
278.6308, 26.64149
279.1129, 27.07749
279.5951, 27.43762
280.0772, 27.90556
280.5593, 28.16409
281.0414, 27.90438
281.5235, 27.22018
282.0056, 26.50100
282.4878, 26.10393
282.9699, 26.04002
283.4520, 26.24342
283.9341, 26.94615
284.4162, 27.65079
284.8983, 28.37011
285.3805, 28.94724
285.8626, 28.98144
286.3447, 28.05102
286.8268, 26.19027
287.3089, 25.35553
287.7910, 26.30859
288.2732, 27.37453
288.7553, 28.22757
289.2374, 28.84038
289.7195, 29.18062
290.2016, 29.19707
290.6837, 28.99338
291.1659, 29.16663
291.6480, 30.07355
292.1301, 30.93556
292.6122, 31.40755
293.0943, 31.81478
293.5764, 32.72773
294.0586, 34.43250
294.5407, 36.53493
295.0228, 37.97277
295.5049, 37.42683
295.9870, 37.83517
296.4691, 39.87242
296.9513, 42.66816
297.4334, 45.34378
297.9155, 47.59847
298.3976, 49.65285
298.8797, 51.84666
299.3618, 54.07898
299.8440, 56.72221
300.3261, 59.91473
300.8082, 63.39855
301.2903, 66.85332
301.7724, 70.26353
302.2545, 74.12961
302.7367, 79.17680
303.2188, 85.88725
303.7009, 91.85499
304.1830, 96.53934
304.6651, 101.0205
305.1472, 106.3621
305.6294, 112.3457
306.1115, 117.6126
306.5936, 120.8863
307.0757, 122.0402
307.5578, 123.6074
308.0399, 125.8378
308.5221, 128.1535
309.0042, 130.5081
309.4863, 132.7639
309.9684, 134.5329
310.4505, 135.4882
310.9326, 135.8019
311.4148, 136.6562
311.8969, 138.9523
312.3790, 140.6752
312.8611, 140.8486
313.3432, 140.2219
313.8253, 140.1445
314.3075, 141.2780
314.7896, 142.9780
315.2717, 143.5873
315.7538, 142.8275
316.2359, 141.3543
316.7180, 138.9644
317.2001, 135.9920
317.6823, 132.7757
318.1644, 129.4040
318.6465, 125.8316
319.1286, 121.9728
319.6107, 117.7819
320.0928, 113.3897
320.5750, 108.8328
321.0571, 104.0403
321.5392, 98.84406
322.0213, 93.29484
322.5034, 87.63821
322.9855, 82.15057
323.4677, 76.79604
323.9498, 71.64198
324.4319, 66.34921
324.9140, 61.51387
325.3961, 57.46552
325.8782, 54.13663
326.3604, 51.22303
326.8425, 48.52776
327.3246, 46.06006
327.8067, 43.88479
328.2888, 41.66109
328.7709, 40.05597
329.2531, 39.58910
329.7352, 39.80156
330.2173, 40.01480
330.6994, 39.91844
331.1815, 39.54655
331.6636, 38.98175
332.1458, 37.91196
332.6279, 37.03390
333.1100, 36.05949
333.5921, 35.44110
334.0742, 35.95174
334.5563, 37.70849
335.0385, 39.68324
335.5206, 40.31902
336.0027, 38.87262
336.4848, 37.93462
336.9669, 37.49533
337.4490, 37.49603
337.9312, 38.15849
338.4133, 39.32737
338.8954, 40.38852
339.3775, 40.73344
339.8596, 40.28159
340.3417, 40.13213
340.8239, 40.46642
341.3060, 40.86816
341.7881, 41.22810
342.2702, 41.54242
342.7523, 41.88633
343.2344, 42.33367
343.7166, 42.77370
344.1987, 42.65789
344.6808, 41.47436
345.1629, 40.26717
345.6450, 39.09679
346.1271, 37.96651
346.6093, 36.89296
347.0914, 35.88483
347.5735, 34.87999
348.0556, 33.73164
348.5377, 31.99163
349.0198, 30.96309
349.5020, 31.12009
349.9841, 31.52827
350.4662, 31.67933
350.9483, 31.45068
351.4304, 30.87124
351.9125, 29.88770
352.3947, 28.37412
352.8768, 27.31490
353.3589, 27.10788
353.8410, 26.95632
354.3231, 26.51129
354.8052, 25.90635
355.2874, 25.47822
355.7695, 25.47918
356.2516, 25.82300
356.7337, 26.03973
357.2158, 26.34321
357.6979, 26.17649
358.1800, 24.84790
358.6621, 23.28217
359.1443, 22.72411
359.6264, 23.63986
360.1085, 24.98284
360.5906, 24.64258
361.0727, 21.57186
361.5548, 19.56822
362.0370, 19.59943
362.5191, 20.29090
363.0012, 21.07869
363.4833, 21.77967
363.9654, 22.18728
364.4475, 21.97494
364.9297, 21.09134
365.4118, 20.44114
365.8939, 19.99139
366.3760, 19.85101
366.8581, 20.48575
367.3402, 21.43380
367.8224, 21.70313
368.3045, 20.43958
368.7866, 18.32486
369.2687, 17.58892
369.7508, 19.15420
370.2329, 20.04299
370.7151, 18.30275
371.1972, 15.89674
371.6793, 14.84210
372.1614, 15.81351
372.6435, 17.53377
373.1256, 18.64048
373.6078, 19.13397
374.0899, 18.95253
374.5720, 17.23810
375.0541, 15.59584
375.5362, 15.41782
376.0183, 16.59004
376.5005, 17.72128
376.9826, 17.83231
377.4647, 17.16024
377.9468, 16.53079
378.4289, 15.91231
378.9110, 15.51984
379.3932, 15.71893
379.8753, 16.22297
380.3574, 16.45431
380.8395, 15.92514
381.3216, 15.32947
381.8037, 15.77926
382.2859, 17.30665
382.7680, 18.32641
383.2501, 17.84367
383.7322, 16.63012
384.2143, 15.93856
384.6964, 15.86507
385.1786, 16.06705
385.6607, 16.56041
386.1428, 17.18668
386.6249, 17.54954
387.1070, 17.57546
387.5891, 17.26093
388.0713, 16.25460
388.5534, 14.63830
389.0355, 13.75400
389.5176, 14.69562
389.9997, 15.98048
390.4818, 15.87384
390.9640, 14.37584
391.4461, 13.07952
391.9282, 13.15285
392.4103, 14.33408
392.8924, 15.04937
393.3745, 15.06832
393.8567, 14.92060
394.3388, 14.52850
394.8209, 14.14539
395.3030, 14.45915
395.7851, 15.81842
396.2672, 17.41597
396.7494, 17.76087
397.2315, 16.12465
397.7136, 14.93869
398.1957, 14.29325
398.6778, 14.13456
399.1599, 14.76176
399.6420, 16.00727
400.1241, 16.95267
400.6063, 16.71817
401.0884, 15.25754
401.5705, 14.15481
402.0526, 13.39063
402.5347, 12.94264
403.0168, 12.93583
403.4990, 13.21523
403.9811, 13.56616
404.4632, 13.88583
404.9453, 14.18251
405.4274, 14.48744
405.9095, 14.92905
406.3917, 15.14145
406.8738, 15.09769
407.3559, 14.86222
407.8380, 14.28318
408.3201, 13.46731
408.8022, 12.88698
409.2844, 13.07648
409.7665, 14.09213
410.2486, 14.99610
410.7307, 16.25502
411.2128, 16.83671
411.6949, 15.75398
412.1771, 13.93812
412.6592, 12.98738
413.1413, 13.82401
413.6234, 15.48850
414.1055, 15.79883
414.5876, 14.22998
415.0698, 12.90686
415.5519, 12.30177
416.0340, 12.14358
416.5161, 12.42307
416.9982, 13.09650
417.4803, 13.78182
417.9625, 14.05279
418.4446, 14.00136
418.9267, 14.36765
419.4088, 15.55990
419.8909, 16.50911
420.3730, 16.33284
420.8552, 15.44591
421.3373, 14.65773
421.8194, 14.26151
422.3015, 14.05705
422.7836, 13.83772
423.2657, 13.60380
423.7479, 13.33179
424.2300, 12.92275
424.7121, 12.55873
425.1942, 12.50353
425.6763, 12.78574
426.1584, 13.20355
426.6406, 13.86011
427.1227, 14.54378
427.6048, 14.82422
428.0869, 14.60903
428.5690, 14.29290
429.0511, 14.17370
429.5333, 14.28014
430.0154, 14.64746
430.4975, 15.94257
430.9796, 16.87116
431.4617, 16.28930
431.9438, 14.73745
432.4260, 13.67671
432.9081, 13.84027
433.3902, 14.72633
433.8723, 15.16616
434.3544, 15.00506
434.8365, 14.61213
435.3187, 13.60215
435.8008, 12.62705
436.2829, 12.28785
436.7650, 12.60606
437.2471, 13.17509
437.7292, 13.64225
438.2114, 14.00986
438.6935, 14.24759
439.1756, 14.31296
439.6577, 14.29239
440.1398, 14.21379
440.6219, 14.05664
441.1040, 13.71925
441.5862, 13.16224
442.0683, 12.61226
442.5504, 12.53151
443.0325, 13.09990
443.5146, 13.58587
443.9967, 14.03999
444.4789, 14.30029
444.9610, 14.18289
445.4431, 13.76230
445.9252, 13.29923
446.4073, 12.90453
446.8894, 12.62796
447.3716, 12.73560
447.8537, 13.42919
448.3358, 14.00183
448.8179, 13.92112
449.3000, 13.65283
449.7821, 13.75404
450.2643, 14.41342
450.7464, 15.08919
451.2285, 15.38009
451.7106, 15.30311
452.1927, 14.80745
452.6748, 13.62758
453.1570, 12.56007
453.6391, 12.61456
454.1212, 13.55430
454.6033, 14.39793
455.0854, 15.20321
455.5675, 15.60669
456.0497, 14.85078
456.5318, 13.19191
457.0139, 12.21814
457.4960, 12.92814
457.9781, 14.60779
458.4602, 15.27110
458.9424, 14.45863
459.4245, 13.79055
459.9066, 13.64747
460.3887, 13.72760
460.8708, 13.69990
461.3529, 13.52933
461.8351, 13.43665
462.3172, 13.66318
462.7993, 14.22568
463.2814, 14.53487
463.7635, 14.65751
464.2456, 14.47278
464.7278, 13.49289
465.2099, 12.33573
465.6920, 12.03263
466.1741, 12.94845
466.6562, 14.18114
467.1383, 14.01025
467.6205, 11.63624
468.1026, 10.35280
468.5847, 11.58694
469.0668, 12.74906
469.5489, 12.32592
470.0310, 10.81527
470.5132, 9.783120
470.9953, 10.35550
471.4774, 11.88704
471.9595, 12.72163
472.4416, 12.72054
472.9237, 12.53152
473.4059, 12.09740
473.8880, 11.75086
474.3701, 11.90987
474.8522, 12.63992
475.3343, 13.29108
475.8164, 13.38460
476.2986, 13.09087
476.7807, 12.78256
477.2628, 12.47486
477.7449, 12.30530
478.2270, 12.48714
478.7091, 12.90625
479.1913, 13.07902
479.6734, 12.92104
480.1555, 12.57973
480.6376, 11.82475
481.1197, 10.97288
481.6018, 10.80565
482.0839, 11.61105
482.5660, 12.74857
483.0482, 13.33302
483.5303, 13.18809
484.0124, 13.05947
484.4945, 13.05672
484.9766, 12.96776
485.4587, 12.40783
485.9409, 11.67059
486.4230, 11.53706
486.9051, 12.49146
487.3872, 14.04310
487.8693, 14.71901
488.3514, 13.88441
488.8336, 13.36091
489.3157, 13.40212
489.7978, 13.64934
490.2799, 13.98163
490.7620, 14.31814
491.2441, 14.50679
491.7263, 14.44387
492.2084, 14.13071
492.6905, 13.40648
493.1726, 11.80351
493.6547, 10.92327
494.1368, 12.38185
494.6190, 14.43567
495.1011, 15.24982
495.5832, 14.40944
496.0653, 13.11591
496.5474, 12.05115
497.0295, 11.24582
497.5117, 10.83417
497.9938, 10.87142
498.4759, 11.16273
498.9580, 11.66289
499.4401, 12.31360
499.9222, 12.79879
500.4044, 13.11466
500.8865, 13.24762
501.3686, 13.11608
501.8507, 12.80750
502.3328, 12.40885
502.8149, 11.93728
503.2971, 11.67686
503.7792, 12.13581
504.2613, 13.78288
504.7434, 14.40271
505.2255, 12.98756
505.7076, 11.65588
506.1898, 11.59529
506.6719, 12.37636
507.1540, 12.94128
507.6361, 12.71806
508.1182, 12.15632
508.6003, 12.38763
509.0825, 13.87442
509.5646, 14.91282
510.0467, 15.27561
510.5288, 15.20228
511.0109, 14.55575
511.4930, 13.52762
511.9752, 12.70607
512.4573, 12.63529
512.9394, 12.90257
513.4215, 12.28877
513.9036, 10.52439
514.3857, 9.636466
514.8679, 11.12559
515.3500, 13.36148
515.8321, 14.10062
516.3142, 13.12207
516.7963, 12.29074
517.2784, 12.71858
517.7606, 13.61914
518.2427, 13.88997
518.7248, 13.44553
519.2069, 12.71240
519.6890, 11.83272
520.1711, 10.94218
520.6533, 10.77828
521.1354, 12.17434
521.6175, 13.06980
522.0996, 12.75998
522.5817, 12.00323
523.0638, 11.44652
523.5460, 11.25347
524.0281, 11.40850
524.5102, 11.96431
524.9923, 12.89956
525.4744, 13.50208
525.9565, 13.56860
526.4387, 13.53776
526.9208, 13.44278
527.4029, 13.33021
527.8850, 13.23476
528.3671, 13.16745
528.8492, 13.14189
529.3314, 13.18406
529.8135, 13.28768
530.2956, 13.41456
530.7777, 13.62555
531.2598, 13.72746
531.7419, 13.31106
532.2241, 12.76745
532.7062, 12.84359
533.1883, 14.06278
533.6704, 15.12782
534.1525, 14.82415
534.6346, 13.73781
535.1168, 13.46987
535.5989, 14.46921
536.0810, 15.30529
536.5631, 14.26709
537.0452, 11.23562
537.5273, 9.839872
538.0095, 11.15233
538.4916, 12.73826
538.9737, 14.12137
539.4558, 15.07466
539.9379, 15.16277
540.4200, 14.30138
540.9022, 13.14918
541.3843, 12.66059
541.8664, 12.99703
542.3485, 13.08187
542.8306, 12.65102
543.3127, 12.24542
543.7948, 11.88419
544.2769, 11.70167
544.7590, 11.98687
545.2411, 12.90625
545.7233, 13.88115
546.2054, 14.18428
546.6875, 13.84773
547.1696, 13.24369
547.6517, 12.18323
548.1339, 11.33210
548.6160, 11.59792
549.0981, 12.56295
549.5802, 13.02832
550.0623, 12.18013
550.5444, 11.40355
551.0266, 11.86107
551.5087, 13.04057
551.9908, 13.67630
552.4729, 13.36721
552.9550, 12.83570
553.4371, 13.01010
553.9193, 14.06366
554.4014, 14.78277
554.8835, 15.09039
555.3656, 15.20298
555.8477, 15.04829
556.3298, 14.79964
556.8120, 14.75250
557.2941, 15.00197
557.7762, 15.26670
558.2583, 15.06191
558.7404, 14.29580
559.2225, 13.85340
559.7047, 13.99247
560.1868, 14.16109
560.6689, 14.01345
561.1510, 13.73856
561.6331, 13.68362
562.1152, 14.01824
562.5974, 14.41017
563.0795, 14.52354
563.5616, 14.43427
564.0437, 14.47012
564.5258, 14.74649
565.0079, 14.90137
565.4901, 14.47251
565.9722, 13.51619
566.4543, 13.10173
566.9364, 13.77643
567.4185, 14.36266
567.9006, 14.34437
568.3828, 13.99132
568.8649, 13.58048
569.3470, 13.23058
569.8291, 13.16798
570.3112, 13.77520
570.7933, 15.13523
571.2755, 15.68571
571.7576, 14.69529
572.2397, 13.78638
572.7218, 13.33988
573.2039, 13.17734
573.6860, 13.08402
574.1682, 13.00620
574.6503, 13.03992
575.1324, 13.44080
575.6145, 14.06289
576.0966, 14.09803
576.5787, 13.26992
577.0609, 12.78231
577.5430, 13.76175
578.0251, 15.47072
578.5072, 16.08915
578.9893, 15.09644
579.4714, 14.10770
579.9536, 13.79556
580.4357, 13.79454
580.9178, 13.67746
581.3999, 13.38893
581.8820, 13.03673
582.3641, 12.67534
582.8463, 12.34397
583.3284, 12.27761
583.8105, 12.83793
584.2926, 13.13739
584.7747, 12.92754
585.2568, 12.58579
585.7390, 12.40383
586.2211, 12.38365
586.7032, 12.31753
587.1853, 11.91751
587.6674, 11.46646
588.1495, 11.91443
588.6317, 13.45964
589.1138, 14.68479
589.5959, 15.13669
590.0780, 15.05142
590.5601, 14.51304
591.0422, 13.53150
591.5244, 13.08554
592.0065, 14.27097
592.4886, 15.49549
592.9707, 14.93903
593.4528, 13.09582
593.9349, 11.87351
594.4171, 12.15891
594.8992, 13.11876
595.3813, 13.24975
595.8634, 12.05310
596.3455, 11.51115
596.8276, 12.13616
597.3098, 12.78108
597.7919, 13.01023
598.2740, 12.91775
598.7561, 12.64063
599.2382, 12.21859
599.7203, 11.92347
600.2025, 12.29706
600.6846, 13.31082
601.1667, 13.82523
601.6488, 13.62891
602.1309, 13.11648
602.6130, 12.11266
603.0952, 11.04228
603.5773, 10.92613
604.0594, 12.45263
604.5415, 13.88098
605.0236, 14.19913
605.5057, 13.90617
605.9879, 13.72284
606.4700, 13.77615
606.9521, 13.90395
607.4342, 13.97982
607.9163, 14.00909
608.3984, 14.03669
608.8806, 14.20157
609.3627, 14.16069
609.8448, 13.38050
610.3269, 12.76629
610.8090, 13.31636
611.2911, 14.82979
611.7733, 16.06960
612.2554, 16.03611
612.7375, 15.27973
613.2196, 15.16074
613.7017, 15.75979
614.1838, 16.11420
614.6660, 15.81385
615.1481, 15.29950
615.6302, 14.96747
616.1123, 14.81290
616.5944, 15.08847
617.0765, 16.51158
617.5587, 17.75098
618.0408, 17.65906
618.5229, 16.72468
619.0050, 16.09814
619.4871, 16.17727
619.9692, 16.43918
620.4514, 16.08565
620.9335, 14.91935
621.4156, 14.64374
621.8977, 16.05170
622.3798, 17.44845
622.8619, 18.74409
623.3441, 19.63022
623.8262, 19.53884
624.3083, 18.37177
624.7904, 17.20229
625.2725, 16.87046
625.7546, 17.24246
626.2367, 18.19492
626.7188, 19.81140
627.2009, 20.94350
627.6830, 20.86464
628.1652, 20.03463
628.6473, 19.47544
629.1294, 19.24706
629.6115, 19.03757
630.0936, 18.43348
630.5757, 18.14526
631.0579, 19.13991
631.5400, 20.88341
632.0221, 21.90485
632.5042, 21.43945
632.9863, 20.22537
633.4684, 19.65844
633.9506, 19.89988
634.4327, 19.98221
634.9148, 19.82944
635.3969, 19.53951
635.8790, 18.84219
636.3611, 18.13345
636.8433, 18.20630
637.3254, 19.49484
637.8075, 20.81763
638.2896, 21.36747
638.7717, 21.33812
639.2538, 21.06135
639.7360, 20.58818
640.2181, 19.92527
640.7002, 19.03459
641.1823, 17.99637
641.6644, 17.12692
642.1465, 16.24030
642.6287, 15.81840
643.1108, 16.35864
643.5929, 16.94138
644.0750, 16.83880
644.5571, 16.23266
645.0392, 15.83222
645.5214, 16.09974
646.0035, 16.54031
646.4856, 16.15892
646.9677, 14.96055
647.4498, 14.23678
647.9319, 14.37361
648.4141, 14.69026
648.8962, 14.50676
649.3783, 14.02859
649.8604, 14.06775
650.3425, 15.46739
650.8246, 16.32966
651.3068, 15.17032
651.7889, 13.44761
652.2710, 13.13479
652.7531, 14.34160
653.2352, 15.75413
653.7173, 16.40342
654.1995, 16.34331
654.6816, 15.67654
655.1637, 13.93146
655.6458, 12.71544
656.1279, 12.67223
656.6100, 12.91475
657.0922, 12.93769
657.5743, 12.81618
658.0564, 12.91913
658.5385, 13.61055
659.0206, 14.26970
659.5027, 14.27978
659.9849, 13.78171
660.4670, 13.17738
660.9491, 12.56103
661.4312, 11.75101
661.9133, 10.45534
662.3954, 8.759293
662.8776, 7.905154
663.3597, 8.112534
663.8418, 8.906631
664.3239, 10.91635
664.8060, 12.99803
665.2881, 14.22028
665.7703, 14.60101
666.2524, 14.70598
666.7345, 14.85756
667.2166, 14.99553
667.6987, 14.96599
668.1808, 14.77593
668.6630, 14.73080
669.1451, 14.99667
669.6272, 15.19568
670.1093, 14.87620
670.5914, 14.09100
671.0735, 13.57449
