##NAMES=Famatinite
##RRUFFID=R110022
##IDEAL CHEMISTRY=Cu^1+^Cu^2+^_2_Sb^3+^S^2-^_4_
##LOCALITY=Quiruvilca, La Libertad Department, Peru
##OWNER=RRUFF
##SOURCE=William Pinch
##DESCRIPTION=Pinkish grey metallic massive associated with black metallic tetrahedral tennantite R110024 on pyrite
##STATUS=The identification of this mineral is confirmed by single-crystal X-ray diffraction and chemical analysis.
##URL=rruff.info/R110022
##MEASURED CHEMISTRY=Cu_2.99_(Sb_0.61_As_0.40_)_Î£=1.01_S_4_
179.7447, 25.77252
180.2268, 24.70209
180.7090, 23.70083
181.1911, 22.84382
181.6732, 22.39378
182.1553, 22.93583
182.6374, 23.90586
183.1195, 23.89396
183.6017, 22.71741
184.0838, 21.43708
184.5659, 21.11921
185.0480, 21.70583
185.5301, 22.92908
186.0123, 25.33080
186.4944, 28.33594
186.9765, 29.85533
187.4586, 29.62106
187.9407, 28.71899
188.4228, 28.86764
188.9050, 29.93323
189.3871, 30.47652
189.8692, 29.08817
190.3513, 26.32424
190.8334, 25.12297
191.3155, 25.85140
191.7977, 27.56915
192.2798, 29.28206
192.7619, 30.99574
193.2440, 31.65612
193.7261, 29.76999
194.2082, 25.70694
194.6904, 24.02579
195.1725, 25.46141
195.6546, 28.35091
196.1367, 29.55966
196.6188, 28.99763
197.1009, 28.14817
197.5831, 27.81285
198.0652, 27.98530
198.5473, 27.95652
199.0294, 27.59373
199.5115, 27.14298
199.9937, 27.04720
200.4758, 27.29037
200.9579, 27.95421
201.4400, 29.48190
201.9221, 32.02488
202.4042, 33.13619
202.8864, 32.19398
203.3685, 30.23857
203.8506, 30.11175
204.3327, 32.42025
204.8148, 34.10920
205.2969, 32.86597
205.7791, 28.02058
206.2612, 25.30576
206.7433, 25.64613
207.2254, 27.83949
207.7075, 28.84100
208.1896, 28.41836
208.6718, 27.49266
209.1539, 26.31286
209.6360, 24.65623
210.1181, 23.99208
210.6002, 24.68101
211.0823, 26.24969
211.5645, 27.38299
212.0466, 27.98977
212.5287, 28.38941
213.0108, 28.79111
213.4929, 29.29032
213.9750, 29.44034
214.4572, 29.20986
214.9393, 28.62113
215.4214, 27.51136
215.9035, 25.30662
216.3856, 23.74147
216.8678, 24.16035
217.3499, 27.66331
217.8320, 29.38589
218.3141, 28.22470
218.7962, 25.38644
219.2783, 24.98346
219.7605, 28.46698
220.2426, 31.74823
220.7247, 32.25737
221.2068, 28.37393
221.6889, 26.50952
222.1710, 27.89627
222.6532, 31.25359
223.1353, 32.38719
223.6174, 30.23606
224.0995, 27.65708
224.5816, 26.04144
225.0637, 25.58097
225.5459, 25.56147
226.0280, 25.97729
226.5101, 26.81386
226.9922, 28.16279
227.4743, 30.71751
227.9564, 32.71753
228.4386, 33.09242
228.9207, 30.65645
229.4028, 29.50533
229.8849, 30.16075
230.3670, 32.02023
230.8492, 33.52996
231.3313, 34.98990
231.8134, 35.63169
232.2955, 34.80442
232.7776, 31.09208
233.2597, 29.35516
233.7419, 30.56043
234.2240, 33.49646
234.7061, 34.89470
235.1882, 33.89888
235.6703, 32.67757
236.1524, 32.16928
236.6346, 32.78587
237.1167, 33.16068
237.5988, 33.11311
238.0809, 32.88938
238.5630, 33.04246
239.0451, 33.52860
239.5273, 34.46497
240.0094, 36.13237
240.4915, 39.42453
240.9736, 40.98410
241.4557, 39.83899
241.9378, 37.40367
242.4200, 36.71233
242.9021, 38.77135
243.3842, 40.99988
243.8663, 42.40107
244.3484, 42.62375
244.8306, 43.05009
245.3127, 43.61277
245.7948, 44.40801
246.2769, 45.74570
246.7590, 48.25215
247.2411, 50.20794
247.7233, 50.85596
248.2054, 49.70295
248.6875, 49.12082
249.1696, 49.42078
249.6517, 50.08755
250.1338, 50.31968
250.6160, 50.12237
251.0981, 49.47570
251.5802, 48.31302
252.0623, 46.52967
252.5444, 44.69796
253.0265, 42.64720
253.5087, 40.70073
253.9908, 39.35525
254.4729, 38.69491
254.9550, 38.45367
255.4371, 38.70771
255.9192, 39.57224
256.4014, 39.95188
256.8835, 39.66549
257.3656, 39.07300
257.8477, 38.56290
258.3298, 38.07148
258.8120, 37.82446
259.2941, 38.03046
259.7762, 38.75190
260.2583, 38.75770
260.7404, 37.65266
261.2225, 36.32115
261.7047, 35.76482
262.1868, 36.34829
262.6689, 36.73696
263.1510, 36.55251
263.6331, 35.81974
264.1152, 35.48616
264.5974, 35.81923
265.0795, 36.14046
265.5616, 35.62089
266.0437, 33.79420
266.5258, 32.69651
267.0079, 32.98115
267.4901, 34.42568
267.9722, 34.93221
268.4543, 34.17488
268.9364, 33.14426
269.4185, 32.62167
269.9006, 32.67665
270.3828, 32.93359
270.8649, 33.33436
271.3470, 33.89558
271.8291, 34.76921
272.3112, 36.09180
272.7933, 37.39407
273.2755, 38.31977
273.7576, 38.83384
274.2397, 39.25328
274.7218, 39.66376
275.2039, 39.96938
275.6860, 39.86675
276.1682, 39.32112
276.6503, 38.49501
277.1324, 37.23433
277.6145, 35.45647
278.0966, 34.53945
278.5787, 34.72743
279.0609, 35.66467
279.5430, 36.88491
280.0251, 38.54309
280.5072, 39.48794
280.9893, 38.67388
281.4715, 36.12133
281.9536, 34.34797
282.4357, 33.50842
282.9178, 33.37975
283.3999, 33.84852
283.8820, 34.96362
284.3642, 35.78582
284.8463, 35.88662
285.3284, 35.28852
285.8105, 34.06653
286.2926, 31.98843
286.7747, 30.01574
287.2569, 29.75934
287.7390, 31.15126
288.2211, 32.39541
288.7032, 32.79356
289.1853, 32.45331
289.6674, 31.70943
290.1496, 30.48609
290.6317, 29.33191
291.1138, 28.95240
291.5959, 29.25280
292.0780, 29.55868
292.5602, 29.47393
293.0423, 29.30887
293.5244, 30.17036
294.0065, 32.10936
294.4886, 33.79422
294.9707, 33.53690
295.4529, 31.91191
295.9350, 31.04995
296.4171, 31.80211
296.8992, 33.32793
297.3813, 34.25107
297.8634, 34.59166
298.3456, 34.59194
298.8277, 34.30477
299.3098, 33.81659
299.7919, 33.27553
300.2740, 32.62949
300.7561, 32.09867
301.2383, 31.92346
301.7204, 32.10246
302.2025, 32.65117
302.6846, 34.08962
303.1667, 35.75946
303.6488, 36.48481
304.1310, 35.76171
304.6131, 35.07990
305.0952, 36.46739
305.5773, 39.17088
306.0594, 41.14698
306.5415, 40.46046
307.0237, 38.93648
307.5058, 38.59504
307.9879, 39.74952
308.4700, 41.23768
308.9521, 42.30298
309.4343, 43.08442
309.9164, 43.85394
310.3985, 44.26760
310.8806, 45.03642
311.3627, 47.10971
311.8448, 50.56279
312.3270, 53.49260
312.8091, 53.99462
313.2912, 53.58108
313.7733, 54.03837
314.2554, 56.85200
314.7375, 59.95862
315.2197, 62.30229
315.7018, 63.96395
316.1839, 65.52633
316.6660, 66.91069
317.1481, 68.49585
317.6302, 70.56778
318.1124, 73.21756
318.5945, 76.33913
319.0766, 80.26383
319.5587, 84.72862
320.0408, 88.87811
320.5229, 92.14959
321.0051, 95.23847
321.4872, 98.65627
321.9693, 103.1354
322.4514, 106.6356
322.9335, 108.4297
323.4156, 108.9931
323.8978, 109.2418
324.3799, 110.0344
324.8620, 109.9304
325.3441, 108.4547
325.8262, 105.5663
326.3083, 101.3705
326.7905, 94.78362
327.2726, 87.22093
327.7547, 80.51411
328.2368, 75.37122
328.7189, 70.35224
329.2010, 64.95636
329.6832, 59.09902
330.1653, 54.33408
330.6474, 51.44274
331.1295, 49.08596
331.6116, 46.07013
332.0938, 41.30352
332.5759, 37.59497
333.0580, 35.33616
333.5401, 34.44363
334.0222, 34.58954
334.5043, 36.59787
334.9865, 38.51002
335.4686, 39.10995
335.9507, 37.93042
336.4328, 36.61896
336.9149, 34.95906
337.3970, 33.35210
337.8792, 33.11389
338.3613, 34.77563
338.8434, 36.29226
339.3255, 36.58443
339.8076, 35.41872
340.2898, 34.86330
340.7719, 35.03299
341.2540, 35.60547
341.7361, 36.04100
342.2182, 36.27553
342.7003, 36.93800
343.1825, 38.53401
343.6646, 40.83249
344.1467, 42.05297
344.6288, 42.06137
345.1109, 41.72334
345.5930, 41.88170
346.0752, 42.49723
346.5573, 43.19904
347.0394, 43.94988
347.5215, 44.69133
348.0036, 45.29505
348.4857, 45.76034
348.9679, 46.18690
349.4500, 46.59411
349.9321, 47.02193
350.4142, 47.68751
350.8963, 48.79076
351.3784, 49.72197
351.8606, 49.42244
352.3427, 48.17882
352.8248, 47.03870
353.3069, 46.63506
353.7890, 46.68030
354.2711, 46.75283
354.7533, 46.79971
355.2354, 47.05556
355.7175, 47.84974
356.1996, 48.97604
356.6817, 50.07475
357.1638, 51.41523
357.6460, 52.36406
358.1281, 51.90420
358.6102, 50.20200
359.0923, 49.32035
359.5744, 51.99044
360.0565, 55.36546
360.5387, 56.58357
361.0208, 53.05877
361.5029, 49.47698
361.9850, 47.92329
362.4671, 47.96666
362.9492, 48.32127
363.4314, 49.37349
363.9135, 50.01189
364.3956, 49.48587
364.8777, 47.11479
365.3598, 44.96280
365.8419, 43.11160
366.3241, 41.81300
366.8062, 41.46541
367.2883, 43.99480
367.7704, 45.67660
368.2526, 44.98053
368.7347, 41.20864
369.2168, 38.98725
369.6989, 40.08734
370.1810, 41.69895
370.6631, 41.40452
371.1453, 36.76234
371.6274, 33.88450
372.1095, 34.10110
372.5916, 36.88396
373.0737, 38.77096
373.5558, 39.83545
374.0380, 39.92398
374.5201, 38.55351
375.0022, 34.75618
375.4843, 32.92590
375.9664, 33.91059
376.4485, 36.31040
376.9307, 37.36144
377.4128, 36.83353
377.8949, 35.87973
378.3770, 34.73974
378.8591, 33.45475
379.3412, 32.95919
379.8234, 33.42960
380.3055, 34.08159
380.7876, 33.73528
381.2697, 32.48291
381.7518, 32.13086
382.2339, 33.64075
382.7161, 35.97222
383.1982, 36.51570
383.6803, 35.31938
384.1624, 33.90054
384.6445, 33.34039
385.1266, 33.42341
385.6088, 33.67769
386.0909, 34.09523
386.5730, 34.46992
387.0551, 34.78075
387.5372, 34.88818
388.0193, 34.38500
388.5015, 32.00311
388.9836, 29.46666
389.4657, 29.09656
389.9478, 31.08821
390.4299, 32.75106
390.9120, 31.62022
391.3942, 29.29093
391.8763, 27.74678
392.3584, 28.25907
392.8405, 29.15872
393.3226, 29.63268
393.8047, 29.77433
394.2869, 30.01073
394.7690, 30.39563
395.2511, 31.00351
395.7332, 32.03885
396.2154, 34.24004
396.6975, 35.38147
397.1796, 34.18160
397.6617, 31.75976
398.1438, 30.05111
398.6259, 29.46666
399.1081, 29.45035
399.5902, 30.19013
400.0723, 31.93616
400.5544, 32.63218
401.0365, 31.46626
401.5186, 29.84986
402.0008, 28.95984
402.4829, 29.18317
402.9650, 29.38288
403.4471, 29.39533
403.9292, 29.29129
404.4113, 29.37651
404.8935, 29.70177
405.3756, 30.09869
405.8577, 30.49252
406.3398, 30.88053
406.8219, 31.33821
407.3040, 32.00676
407.7862, 32.47906
408.2683, 31.84953
408.7504, 30.06716
409.2325, 28.90079
409.7146, 29.13148
410.1967, 30.39209
410.6789, 31.82154
411.1610, 33.45753
411.6431, 34.32935
412.1252, 32.59333
412.6073, 29.34937
413.0894, 28.05468
413.5716, 30.06828
414.0537, 32.76974
414.5358, 32.77225
415.0179, 30.71550
415.5000, 28.68715
415.9821, 27.57528
416.4643, 27.22015
416.9464, 27.67627
417.4285, 28.99371
417.9106, 30.34458
418.3927, 31.14250
418.8748, 31.68887
419.3570, 32.32716
419.8391, 33.90378
420.3212, 34.89831
420.8033, 34.30465
421.2854, 32.44935
421.7675, 30.86897
422.2497, 30.11494
422.7318, 29.69633
423.2139, 29.38745
423.6960, 29.21444
424.1781, 29.03692
424.6602, 28.71166
425.1424, 28.41018
425.6245, 28.38314
426.1066, 28.62021
426.5887, 29.15784
427.0709, 30.23551
427.5530, 31.85235
428.0351, 32.62194
428.5172, 32.13388
428.9993, 31.36961
429.4814, 30.95240
429.9636, 30.83900
430.4457, 31.39775
430.9278, 33.10299
431.4099, 35.05676
431.8920, 34.92651
432.3741, 32.40283
432.8563, 30.19523
433.3384, 29.81903
433.8205, 30.94492
434.3026, 31.30268
434.7847, 30.83755
435.2668, 30.07401
435.7490, 29.36004
436.2311, 28.75373
436.7132, 28.52320
437.1953, 28.87558
437.6774, 29.44075
438.1595, 29.62575
438.6417, 29.54957
439.1238, 29.70514
439.6059, 30.89217
440.0880, 32.20562
440.5701, 32.60374
441.0522, 31.88383
441.5344, 30.88600
442.0165, 29.84576
442.4986, 28.92786
442.9807, 28.34146
443.4628, 28.35217
443.9449, 28.51420
444.4271, 28.75348
444.9092, 29.03477
445.3913, 29.17881
445.8734, 28.94961
446.3555, 28.71557
446.8376, 28.64990
447.3198, 28.76133
447.8019, 29.05986
448.2840, 29.71528
448.7661, 30.48038
449.2482, 30.99959
449.7303, 31.10877
450.2125, 31.24835
450.6946, 31.55794
451.1767, 32.01448
451.6588, 32.32435
452.1409, 32.61185
452.6230, 32.47416
453.1052, 31.22623
453.5873, 28.67615
454.0694, 27.59586
454.5515, 28.48254
455.0337, 30.32450
455.5158, 31.78623
455.9979, 32.84573
456.4800, 32.95420
456.9621, 30.98742
457.4442, 28.17016
457.9264, 27.70353
458.4085, 29.50913
458.8906, 31.54556
459.3727, 32.13478
459.8548, 31.85927
460.3369, 31.65363
460.8191, 31.80559
461.3012, 31.86035
461.7833, 31.11957
462.2654, 30.01996
462.7475, 29.47060
463.2296, 30.54521
463.7118, 31.71475
464.1939, 32.17231
464.6760, 31.86762
465.1581, 31.17711
465.6402, 29.27912
466.1223, 27.60734
466.6045, 27.20273
467.0866, 30.66437
467.5687, 32.33968
468.0508, 30.43993
468.5329, 26.70667
469.0150, 25.11472
469.4972, 27.43775
469.9793, 29.20090
470.4614, 28.54403
470.9435, 25.24357
471.4256, 24.27779
471.9077, 26.43900
472.3899, 29.35319
472.8720, 31.01711
473.3541, 31.38823
473.8362, 31.04220
474.3183, 29.76383
474.8004, 28.27793
475.2826, 28.21295
475.7647, 29.47281
476.2468, 30.69625
476.7289, 31.28382
477.2110, 31.32696
477.6931, 30.78827
478.1753, 29.67232
478.6574, 28.77666
479.1395, 29.15137
479.6216, 30.05666
480.1037, 30.34923
480.5858, 29.45745
481.0680, 28.41271
481.5501, 27.65425
482.0322, 27.26675
482.5143, 27.44096
482.9964, 29.15949
483.4786, 30.67337
483.9607, 30.87980
484.4428, 29.59152
484.9249, 28.85959
485.4070, 30.04299
485.8892, 31.32051
486.3713, 31.33440
486.8534, 27.97211
487.3355, 26.51783
487.8176, 28.28900
488.2997, 31.64013
488.7819, 32.92664
489.2640, 31.11877
489.7461, 29.59030
490.2282, 29.58840
490.7103, 30.99639
491.1924, 31.72266
491.6746, 31.63406
492.1567, 31.43142
492.6388, 32.15820
493.1209, 33.57768
493.6030, 33.15168
494.0851, 29.94174
494.5673, 26.45691
495.0494, 27.16536
495.5315, 30.93880
496.0136, 33.67985
496.4957, 32.45307
496.9778, 29.81973
497.4600, 28.53767
497.9421, 28.53580
498.4242, 28.83798
498.9063, 28.95698
499.3884, 29.06591
499.8705, 29.34979
500.3527, 29.95387
500.8348, 30.45467
501.3169, 30.70423
501.7990, 30.75328
502.2811, 30.67179
502.7632, 30.37626
503.2454, 30.05187
503.7275, 29.49726
504.2096, 28.79828
504.6917, 29.02779
505.1738, 31.13663
505.6559, 32.88173
506.1381, 32.79107
506.6202, 30.08316
507.1023, 28.85650
507.5844, 29.53790
508.0665, 30.93035
508.5486, 31.22527
509.0308, 30.38445
509.5129, 30.30837
509.9950, 31.85282
510.4771, 34.09574
510.9592, 35.13391
511.4413, 35.01613
511.9235, 34.30018
512.4056, 32.91929
512.8877, 31.31962
513.3698, 30.24899
513.8519, 29.79990
514.3340, 29.29714
514.8162, 27.46564
515.2983, 25.58250
515.7804, 25.26184
516.2625, 28.60987
516.7446, 31.53080
517.2267, 31.87576
517.7089, 30.55248
518.1910, 29.77854
518.6731, 30.83847
519.1552, 31.76176
519.6373, 31.73925
520.1194, 30.65993
520.6016, 29.81755
521.0837, 29.11854
521.5658, 28.76812
522.0479, 29.08996
522.5300, 30.47776
523.0121, 30.99360
523.4943, 30.21810
523.9764, 28.90546
524.4585, 28.38185
524.9406, 28.66625
525.4227, 29.21853
525.9048, 29.93097
526.3870, 30.73679
526.8691, 31.59043
527.3513, 32.47446
527.8334, 33.08437
528.3155, 33.08146
528.7976, 32.71901
529.2797, 32.33749
529.7618, 31.96839
530.2440, 31.63909
530.7261, 31.26138
531.2082, 30.97047
531.6903, 30.94576
532.1724, 31.66239
532.6545, 32.21101
533.1367, 31.89202
533.6188, 31.09141
534.1009, 31.17675
534.5830, 34.12723
535.0651, 36.25415
535.5472, 35.87636
536.0294, 32.39336
536.5115, 30.92697
536.9936, 32.72280
537.4757, 34.79518
537.9578, 34.23652
538.4399, 30.38276
538.9221, 28.16525
539.4042, 28.30484
539.8863, 29.86167
540.3684, 31.65297
540.8505, 33.59494
541.3326, 34.64671
541.8148, 33.92105
542.2969, 32.32666
542.7790, 31.41608
543.2611, 31.13708
543.7432, 31.03075
544.2253, 30.87603
544.7075, 30.68859
545.1896, 30.38441
545.6717, 29.86572
546.1538, 29.72925
546.6359, 30.66860
547.1180, 31.97482
547.6002, 32.88265
548.0823, 33.47774
548.5644, 33.35849
549.0465, 31.68717
549.5286, 29.21089
550.0107, 28.16050
550.4929, 29.59774
550.9750, 30.85047
551.4571, 30.88657
551.9392, 29.69609
552.4213, 29.54118
552.9034, 30.76872
553.3856, 31.94336
553.8677, 31.48995
554.3498, 29.62021
554.8319, 29.08059
555.3140, 30.35849
555.7961, 32.21069
556.2783, 33.11098
556.7604, 33.27222
557.2425, 33.25974
557.7246, 33.12280
558.2067, 33.07023
558.6888, 33.54752
559.1710, 34.33797
559.6531, 34.69439
560.1352, 33.66594
560.6173, 32.55570
561.0994, 32.23570
561.5815, 32.88253
562.0637, 33.35096
562.5458, 33.21358
563.0279, 32.95115
563.5100, 32.93612
563.9921, 33.55761
564.4742, 33.68710
564.9564, 32.96041
565.4385, 31.99614
565.9206, 32.06219
566.4027, 33.48838
566.8848, 34.21865
567.3669, 33.35866
567.8491, 31.54262
568.3312, 30.92829
568.8133, 31.47558
569.2954, 32.10941
569.7775, 32.24004
570.2596, 31.95692
570.7418, 31.11033
571.2239, 29.64982
571.7060, 28.81102
572.1881, 30.43933
572.6702, 32.79324
573.1523, 33.88356
573.6345, 32.54816
574.1166, 31.08742
574.5987, 30.13594
575.0808, 29.66054
575.5629, 29.59733
576.0450, 30.44452
576.5272, 31.14422
577.0093, 31.52160
577.4914, 31.59152
577.9735, 31.31751
578.4556, 30.26540
578.9377, 29.78037
579.4199, 30.94576
579.9020, 33.80006
580.3841, 35.06476
580.8662, 34.54397
581.3483, 33.48750
581.8304, 33.20133
582.3126, 33.42811
582.7947, 33.22602
583.2768, 32.33201
583.7589, 31.23933
584.2410, 30.24672
584.7231, 29.45905
585.2053, 29.08423
585.6874, 29.45629
586.1696, 30.03540
586.6517, 30.78065
587.1338, 31.56214
587.6159, 31.82985
588.0980, 30.84053
588.5801, 29.83983
589.0623, 29.27614
589.5444, 29.12312
590.0265, 29.63260
590.5086, 31.26113
590.9907, 32.96829
591.4728, 33.99281
591.9550, 34.29352
592.4371, 33.98208
592.9192, 32.83326
593.4013, 31.63674
593.8834, 32.05669
594.3655, 33.72401
594.8477, 34.15742
595.3298, 31.79642
595.8119, 28.78284
596.2940, 28.28657
596.7761, 29.67604
597.2582, 30.81411
597.7404, 30.10329
598.2225, 29.09846
598.7046, 29.02041
599.1867, 29.92448
599.6688, 30.51993
600.1509, 30.12991
600.6331, 29.52454
601.1152, 29.15020
601.5973, 28.96607
602.0794, 29.18542
602.5615, 30.14321
603.0436, 31.18159
603.5258, 31.57920
604.0079, 31.30598
604.4900, 30.39589
604.9721, 28.46787
605.4542, 26.48446
605.9363, 26.89905
606.4185, 29.41350
606.9006, 31.39804
607.3827, 31.10528
607.8648, 29.90825
608.3469, 29.82536
608.8290, 30.69095
609.3112, 31.57824
609.7933, 32.06384
610.2754, 32.27643
610.7575, 32.32153
611.2396, 32.21566
611.7217, 31.88201
612.2039, 30.48894
612.6860, 29.37235
613.1681, 29.63524
613.6502, 32.84512
614.1323, 34.66027
614.6144, 34.41199
615.0966, 33.28927
615.5787, 33.14064
616.0608, 34.20229
616.5429, 34.69254
617.0250, 34.05650
617.5071, 32.77134
617.9893, 31.61046
618.4714, 30.65145
618.9535, 30.51041
619.4356, 32.56826
619.9177, 35.03914
620.3998, 35.35707
620.8820, 33.71122
621.3641, 32.05942
621.8462, 31.52420
622.3283, 31.36220
622.8104, 30.89015
623.2925, 29.72640
623.7747, 29.44332
624.2568, 31.13110
624.7389, 33.31107
625.2210, 34.86414
625.7031, 35.91850
626.1852, 35.95723
626.6674, 34.57780
627.1495, 32.60437
627.6316, 31.16811
628.1137, 30.24851
628.5958, 30.52217
629.0779, 32.77561
629.5601, 35.65471
630.0422, 36.35041
630.5243, 35.19398
631.0064, 33.77948
631.4885, 32.64195
631.9706, 31.89403
632.4528, 31.63262
632.9349, 31.86219
633.4170, 32.55521
633.8991, 34.56349
634.3812, 36.37907
634.8633, 36.96991
635.3455, 35.68827
635.8276, 34.90908
636.3097, 35.02578
636.7918, 35.35896
637.2739, 35.30772
637.7560, 34.73249
638.2382, 34.27430
638.7203, 33.87975
639.2024, 33.82298
639.6845, 34.69017
640.1666, 36.38426
640.6487, 38.16339
641.1309, 40.18422
641.6130, 41.66698
642.0951, 41.04796
642.5772, 38.92454
643.0594, 37.00264
643.5415, 36.05707
644.0236, 35.59983
644.5057, 35.39095
644.9879, 35.41614
645.4700, 35.65115
645.9521, 36.59774
646.4342, 37.28517
646.9163, 37.26421
647.3984, 36.43138
647.8806, 35.55259
648.3627, 34.52222
648.8448, 33.63120
649.3269, 33.14138
649.8090, 33.05450
650.2911, 33.03202
650.7733, 33.05945
651.2554, 33.09468
651.7375, 32.86112
652.2196, 32.60366
652.7017, 33.09989
653.1838, 35.25286
653.6660, 36.85694
654.1481, 35.09135
654.6302, 31.77279
655.1123, 30.09182
655.5944, 33.09798
656.0765, 35.80732
656.5587, 36.69572
657.0408, 35.98342
657.5229, 34.84894
658.0050, 32.94203
658.4871, 31.22440
658.9692, 29.92536
659.4514, 29.07309
659.9335, 29.18172
660.4156, 30.36287
660.8977, 31.57402
661.3798, 32.12342
661.8619, 32.11407
662.3441, 31.78186
662.8262, 31.13661
663.3083, 30.32719
663.7904, 29.73811
664.2725, 28.92194
664.7546, 27.13171
665.2368, 23.46976
665.7189, 20.89161
666.2010, 20.45093
666.6831, 21.54704
667.1652, 23.61670
667.6473, 27.83999
668.1295, 30.96413
668.6116, 32.61834
669.0937, 33.19535
669.5758, 33.24432
670.0579, 32.68472
670.5400, 32.41227
671.0222, 32.83002
671.5043, 33.54251
671.9864, 33.80499
672.4685, 33.64157
672.9506, 33.17194
673.4327, 32.13399
673.9149, 31.06247
