##NAMES=Faujasite-Mg
##RRUFFID=R080141
##IDEAL CHEMISTRY=(Mg,Na,K,Ca)_2_(Si,Al)_12_O_24_&#183;15H_2_O
##LOCALITY=Limburg Quarries, Sasbach, Kaiserstuhl, Baden-Wurttemberg, Germany
##OWNER=RRUFF
##SOURCE=James Shigley
##DESCRIPTION=Colorless octahedra in basalt vesicles
##STATUS=The identification of this mineral has been confirmed only by single crystal X-ray diffraction.
##URL=rruff.info/R080141
91.00781, 146.6320
91.48993, 142.8989
91.97205, 141.4107
92.45416, 142.0818
92.93628, 144.9793
93.41840, 150.5477
93.90051, 159.3372
94.38263, 169.9272
94.86475, 179.8844
95.34686, 189.2263
95.82898, 199.6567
96.31110, 212.2408
96.79321, 226.9877
97.27533, 243.6506
97.75745, 261.6909
98.23956, 281.4445
98.72168, 303.6668
99.20380, 327.9942
99.68591, 355.2112
100.1680, 386.1884
100.6501, 420.7070
101.1323, 458.7221
101.6144, 499.7432
102.0965, 543.6360
102.5786, 591.9841
103.0607, 645.3907
103.5428, 703.0645
104.0250, 764.9910
104.5071, 830.5481
104.9892, 900.5105
105.4713, 974.3215
105.9534, 1050.328
106.4355, 1133.661
106.9177, 1228.355
107.3998, 1330.490
107.8819, 1431.144
108.3640, 1527.747
108.8461, 1623.766
109.3282, 1722.139
109.8104, 1825.086
110.2925, 1925.605
110.7746, 2022.356
111.2567, 2115.207
111.7388, 2207.154
112.2209, 2297.310
112.7031, 2386.214
113.1852, 2475.280
113.6673, 2558.752
114.1494, 2647.219
114.6315, 2742.541
115.1136, 2845.565
115.5958, 2957.885
116.0779, 3082.575
116.5600, 3216.160
117.0421, 3354.140
117.5242, 3499.464
118.0063, 3647.019
118.4885, 3795.909
118.9706, 3946.047
119.4527, 4097.240
119.9348, 4254.231
120.4169, 4411.466
120.8990, 4561.257
121.3812, 4699.679
121.8633, 4827.856
122.3454, 4944.441
122.8275, 5048.658
123.3096, 5145.206
123.7917, 5237.853
124.2739, 5326.213
124.7560, 5408.875
125.2381, 5485.041
125.7202, 5555.180
126.2023, 5617.962
126.6844, 5670.262
127.1666, 5719.643
127.6487, 5776.718
128.1308, 5841.452
128.6129, 5908.439
129.0950, 5971.188
129.5771, 6032.420
130.0593, 6102.538
130.5414, 6185.990
131.0235, 6279.079
131.5056, 6366.578
131.9877, 6424.434
132.4698, 6452.616
132.9520, 6483.106
133.4341, 6516.039
133.9162, 6553.177
134.3983, 6595.544
134.8804, 6642.620
135.3625, 6693.460
135.8447, 6750.664
136.3268, 6806.306
136.8089, 6849.253
137.2910, 6878.387
137.7731, 6903.995
138.2552, 6929.854
138.7374, 6955.787
139.2195, 6982.733
139.7016, 7012.950
140.1837, 7042.213
140.6658, 7060.396
141.1479, 7064.135
141.6301, 7064.688
142.1122, 7066.942
142.5943, 7071.261
143.0764, 7075.711
143.5585, 7080.568
144.0406, 7085.324
144.5228, 7088.399
145.0049, 7088.575
145.4870, 7088.511
145.9691, 7089.693
146.4512, 7092.889
146.9333, 7096.241
147.4155, 7099.071
147.8976, 7101.756
148.3797, 7107.114
148.8618, 7117.496
149.3439, 7129.002
149.8260, 7139.084
150.3082, 7146.079
150.7903, 7153.519
151.2724, 7161.617
151.7545, 7170.249
152.2366, 7179.667
152.7188, 7189.716
153.2009, 7200.367
153.6830, 7211.471
154.1651, 7228.640
154.6472, 7240.556
155.1293, 7242.851
155.6115, 7234.327
156.0936, 7225.899
156.5757, 7219.025
157.0578, 7213.344
157.5399, 7208.584
158.0220, 7203.736
158.5042, 7200.861
158.9863, 7201.950
159.4684, 7208.466
159.9505, 7213.120
160.4326, 7212.255
160.9147, 7208.573
161.3969, 7206.018
161.8790, 7207.285
162.3611, 7209.162
162.8432, 7209.419
163.3253, 7206.678
163.8074, 7205.550
164.2896, 7207.963
164.7717, 7213.298
165.2538, 7220.421
165.7359, 7232.790
166.2180, 7244.232
166.7001, 7248.908
167.1823, 7242.248
167.6644, 7236.271
168.1465, 7240.194
168.6286, 7251.100
169.1107, 7260.890
169.5928, 7264.844
170.0750, 7265.550
170.5571, 7265.598
171.0392, 7265.235
171.5213, 7265.033
172.0034, 7265.369
172.4855, 7266.318
172.9677, 7268.006
173.4498, 7270.703
173.9319, 7274.229
174.4140, 7278.354
174.8961, 7283.307
175.3782, 7288.536
175.8604, 7294.069
176.3425, 7299.776
176.8246, 7304.378
177.3067, 7305.697
177.7888, 7305.305
178.2709, 7306.501
178.7531, 7311.253
179.2352, 7317.296
179.7173, 7321.946
180.1994, 7325.204
180.6815, 7326.263
181.1636, 7321.093
181.6458, 7312.540
182.1279, 7309.465
182.6100, 7317.511
183.0921, 7331.595
183.5742, 7342.101
184.0563, 7348.797
184.5385, 7352.920
185.0206, 7354.444
185.5027, 7353.857
185.9848, 7353.560
186.4669, 7354.241
186.9490, 7355.752
187.4312, 7357.979
187.9133, 7360.936
188.3954, 7363.996
188.8775, 7366.615
189.3596, 7368.749
189.8417, 7370.150
190.3239, 7370.463
190.8060, 7369.928
191.2881, 7369.508
191.7702, 7369.182
192.2523, 7369.337
192.7344, 7370.588
193.2166, 7372.994
193.6987, 7375.966
194.1808, 7380.544
194.6629, 7386.326
195.1450, 7387.463
195.6271, 7382.781
196.1093, 7376.497
196.5914, 7374.702
197.0735, 7377.585
197.5556, 7382.084
198.0377, 7387.373
198.5198, 7393.463
199.0020, 7398.652
199.4841, 7402.664
199.9662, 7406.080
200.4483, 7409.854
200.9304, 7413.946
201.4125, 7418.325
201.8947, 7423.540
202.3768, 7429.828
202.8589, 7433.828
203.3410, 7435.334
203.8231, 7434.876
204.3052, 7432.675
204.7874, 7428.001
205.2695, 7424.813
205.7516, 7425.421
206.2337, 7430.501
206.7158, 7434.956
207.1979, 7438.633
207.6801, 7441.832
208.1622, 7445.335
208.6443, 7449.592
209.1264, 7452.907
209.6085, 7454.190
210.0906, 7452.864
210.5728, 7451.773
211.0549, 7449.831
211.5370, 7448.997
212.0191, 7455.072
212.5012, 7471.550
212.9833, 7486.618
213.4655, 7493.471
213.9476, 7488.860
214.4297, 7488.650
214.9118, 7494.076
215.3939, 7503.646
215.8760, 7514.346
216.3581, 7527.146
216.8403, 7538.836
217.3224, 7547.416
217.8045, 7551.743
218.2866, 7556.262
218.7687, 7560.573
219.2508, 7565.090
219.7330, 7570.904
220.2151, 7577.884
220.6972, 7585.917
221.1793, 7595.133
221.6614, 7606.575
222.1435, 7616.021
222.6257, 7622.965
223.1078, 7627.947
223.5899, 7632.893
224.0720, 7638.902
224.5541, 7643.253
225.0362, 7644.219
225.5184, 7639.268
226.0005, 7637.666
226.4826, 7640.653
226.9647, 7647.014
227.4468, 7653.651
227.9289, 7661.797
228.4111, 7668.634
228.8932, 7672.186
229.3753, 7669.070
229.8574, 7671.463
230.3395, 7682.662
230.8216, 7698.776
231.3038, 7708.859
231.7859, 7709.433
232.2680, 7708.867
232.7501, 7710.640
233.2322, 7714.740
233.7143, 7721.121
234.1965, 7730.844
234.6786, 7742.563
235.1607, 7752.506
235.6428, 7758.949
236.1249, 7765.865
236.6070, 7775.028
237.0892, 7787.319
237.5713, 7799.745
238.0534, 7812.994
238.5355, 7826.089
239.0176, 7836.458
239.4997, 7843.167
239.9819, 7848.611
240.4640, 7853.706
240.9461, 7858.474
241.4282, 7863.004
241.9103, 7867.580
242.3924, 7871.902
242.8746, 7874.977
243.3567, 7875.542
243.8388, 7876.959
244.3209, 7880.978
244.8030, 7889.259
245.2851, 7895.904
245.7673, 7900.540
246.2494, 7903.831
246.7315, 7906.997
247.2136, 7909.560
247.6957, 7912.862
248.1778, 7917.726
248.6600, 7925.083
249.1421, 7930.972
249.6242, 7934.299
250.1063, 7936.750
250.5884, 7941.736
251.0705, 7950.364
251.5527, 7959.547
252.0348, 7968.103
252.5169, 7975.910
252.9990, 7983.561
253.4811, 7991.087
253.9632, 7998.056
254.4454, 8004.890
254.9275, 8011.392
255.4096, 8017.528
255.8917, 8023.623
256.3738, 8029.123
256.8560, 8037.296
257.3381, 8049.737
257.8202, 8063.595
258.3023, 8074.858
258.7844, 8083.107
259.2665, 8089.515
259.7487, 8094.217
260.2308, 8097.001
260.7129, 8099.053
261.1950, 8099.106
261.6771, 8099.737
262.1592, 8105.080
262.6414, 8117.129
263.1235, 8128.664
263.6056, 8137.277
264.0877, 8142.787
264.5698, 8149.244
265.0519, 8156.802
265.5341, 8165.084
266.0162, 8174.092
266.4983, 8184.388
266.9804, 8193.482
267.4625, 8200.420
267.9446, 8205.207
268.4268, 8211.546
268.9089, 8220.275
269.3910, 8228.878
269.8731, 8234.263
270.3552, 8235.278
270.8373, 8237.452
271.3195, 8241.994
271.8016, 8248.726
272.2837, 8256.646
272.7658, 8266.382
273.2479, 8275.996
273.7300, 8284.042
274.2122, 8290.521
274.6943, 8295.351
275.1764, 8297.910
275.6585, 8298.863
276.1406, 8301.478
276.6227, 8305.942
277.1049, 8311.707
277.5870, 8318.204
278.0691, 8325.391
278.5512, 8334.526
279.0333, 8346.564
279.5154, 8360.334
279.9976, 8371.713
280.4797, 8380.402
280.9618, 8388.293
281.4439, 8397.573
281.9260, 8408.197
282.4081, 8415.438
282.8903, 8417.632
283.3724, 8417.158
283.8545, 8419.340
284.3366, 8424.211
284.8187, 8431.319
285.3008, 8441.655
285.7830, 8454.871
286.2651, 8464.923
286.7472, 8470.087
287.2293, 8474.262
287.7114, 8486.143
288.1935, 8505.624
288.6757, 8523.706
289.1578, 8534.007
289.6399, 8538.045
290.1220, 8543.299
290.6041, 8550.449
291.0862, 8557.960
291.5684, 8563.566
292.0505, 8567.416
292.5326, 8570.851
293.0147, 8574.845
293.4968, 8578.965
293.9789, 8582.018
294.4611, 8583.950
294.9432, 8585.073
295.4253, 8585.255
295.9074, 8584.816
296.3895, 8584.950
296.8716, 8586.191
297.3538, 8588.413
297.8359, 8591.314
298.3180, 8594.936
298.8001, 8599.248
299.2822, 8606.262
299.7643, 8614.195
300.2465, 8618.120
300.7286, 8613.218
301.2107, 8605.473
301.6928, 8603.218
302.1749, 8606.231
302.6570, 8610.700
303.1392, 8614.024
303.6213, 8616.706
304.1034, 8619.543
304.5855, 8622.948
305.0676, 8626.471
305.5497, 8630.586
306.0319, 8634.860
306.5140, 8637.224
306.9961, 8634.606
307.4782, 8629.849
307.9603, 8626.287
308.4424, 8624.927
308.9246, 8624.295
309.4067, 8622.824
309.8888, 8620.976
310.3709, 8620.195
310.8530, 8623.116
311.3351, 8626.351
311.8173, 8626.671
312.2994, 8622.734
312.7815, 8618.448
313.2636, 8616.381
313.7457, 8615.653
314.2278, 8614.639
314.7100, 8610.765
315.1921, 8607.955
315.6742, 8609.404
316.1563, 8616.238
316.6384, 8622.648
317.1205, 8626.339
317.6027, 8628.109
318.0848, 8628.922
318.5669, 8630.212
319.0490, 8629.558
319.5311, 8624.394
320.0132, 8614.340
320.4954, 8607.084
320.9775, 8605.252
321.4596, 8606.851
321.9417, 8610.251
322.4238, 8618.672
322.9059, 8625.093
323.3881, 8627.611
323.8702, 8626.387
324.3523, 8624.028
324.8344, 8616.928
325.3165, 8611.507
325.7986, 8611.502
326.2808, 8622.909
326.7629, 8633.187
327.2450, 8642.838
327.7271, 8651.165
328.2092, 8655.321
328.6913, 8649.734
329.1735, 8644.885
329.6556, 8644.901
330.1377, 8652.146
330.6198, 8659.707
331.1019, 8667.966
331.5840, 8676.264
332.0662, 8683.507
332.5483, 8688.929
333.0304, 8694.210
333.5125, 8700.249
333.9946, 8707.878
334.4767, 8711.236
334.9589, 8707.377
335.4410, 8702.006
335.9231, 8702.750
336.4052, 8711.779
336.8873, 8721.473
337.3694, 8730.900
337.8516, 8739.918
338.3336, 8744.576
338.8158, 8743.491
339.2979, 8741.362
339.7800, 8742.850
340.2621, 8748.681
340.7442, 8753.913
341.2263, 8757.739
341.7085, 8760.449
342.1906, 8761.902
342.6727, 8761.675
343.1548, 8763.034
343.6369, 8769.135
344.1190, 8779.545
344.6012, 8788.510
345.0833, 8794.667
345.5654, 8800.205
346.0475, 8809.071
346.5296, 8821.022
347.0117, 8834.112
347.4939, 8848.912
347.9760, 8863.931
348.4581, 8874.231
348.9402, 8879.079
349.4223, 8881.642
349.9044, 8884.984
350.3866, 8889.022
350.8687, 8893.481
351.3508, 8899.904
351.8329, 8906.040
352.3150, 8907.503
352.7971, 8904.429
353.2793, 8901.179
353.7614, 8901.285
354.2435, 8903.437
354.7256, 8905.406
355.2077, 8905.892
355.6898, 8906.743
356.1720, 8911.262
356.6541, 8918.184
357.1362, 8922.177
357.6183, 8917.303
358.1004, 8909.679
358.5826, 8904.851
359.0647, 8904.465
359.5468, 8905.323
360.0289, 8906.415
360.5110, 8907.487
360.9931, 8908.072
361.4753, 8908.877
361.9574, 8908.434
362.4395, 8904.610
362.9216, 8896.116
363.4037, 8891.634
363.8858, 8900.423
364.3680, 8912.018
364.8501, 8915.402
365.3322, 8896.856
365.8143, 8881.759
366.2964, 8878.142
366.7785, 8885.910
367.2607, 8891.754
367.7428, 8893.154
368.2249, 8893.312
368.7070, 8894.158
369.1891, 8896.741
369.6712, 8898.651
370.1534, 8898.925
370.6355, 8898.337
371.1176, 8899.231
371.5997, 8900.220
372.0818, 8904.110
372.5639, 8913.046
373.0461, 8930.239
373.5282, 8940.900
374.0103, 8942.610
374.4924, 8939.956
374.9745, 8940.062
375.4566, 8943.946
375.9388, 8947.385
376.4209, 8949.184
376.9030, 8949.527
377.3851, 8949.447
377.8672, 8948.712
378.3493, 8949.021
378.8315, 8952.740
379.3136, 8960.135
379.7957, 8966.857
380.2778, 8972.322
380.7599, 8976.749
381.2420, 8980.012
381.7242, 8982.048
382.2063, 8985.105
382.6884, 8991.134
383.1705, 8999.261
383.6526, 9006.456
384.1347, 9012.103
384.6169, 9017.205
385.0990, 9022.858
385.5811, 9028.813
386.0632, 9034.325
386.5453, 9039.382
387.0274, 9043.610
387.5096, 9045.703
387.9917, 9045.721
388.4738, 9046.667
388.9559, 9052.612
389.4380, 9060.524
389.9201, 9066.425
390.4023, 9068.822
390.8844, 9069.319
391.3665, 9066.826
391.8486, 9062.757
392.3307, 9062.278
392.8128, 9070.612
393.2950, 9081.462
393.7771, 9090.854
394.2592, 9098.151
394.7413, 9103.482
395.2234, 9104.890
395.7055, 9104.502
396.1877, 9105.684
396.6698, 9112.259
397.1519, 9117.481
397.6340, 9118.394
398.1161, 9114.233
398.5982, 9112.437
399.0804, 9116.541
399.5625, 9121.577
400.0446, 9123.998
400.5267, 9122.470
401.0088, 9120.668
401.4909, 9118.068
401.9731, 9115.565
402.4552, 9116.809
402.9373, 9123.588
403.4194, 9131.347
403.9015, 9137.691
404.3836, 9141.768
404.8658, 9147.924
405.3479, 9156.939
405.8300, 9166.637
406.3121, 9173.257
406.7942, 9176.052
407.2763, 9180.067
407.7585, 9187.654
408.2406, 9197.730
408.7227, 9203.815
409.2048, 9205.319
409.6869, 9206.627
410.1690, 9211.774
410.6512, 9220.121
411.1333, 9229.510
411.6154, 9240.760
412.0975, 9250.718
412.5796, 9253.020
413.0617, 9249.129
413.5439, 9246.234
414.0260, 9250.047
414.5081, 9256.819
414.9902, 9261.387
415.4723, 9263.393
415.9544, 9263.968
416.4366, 9262.185
416.9187, 9259.985
417.4008, 9260.241
417.8829, 9267.590
418.3650, 9274.623
418.8471, 9274.982
419.3293, 9270.125
419.8114, 9268.934
420.2935, 9279.034
420.7756, 9291.665
421.2577, 9300.709
421.7398, 9303.952
422.2220, 9306.385
422.7041, 9308.476
423.1862, 9310.612
423.6683, 9313.457
424.1504, 9318.615
424.6325, 9323.033
425.1147, 9325.234
425.5968, 9324.757
426.0789, 9326.780
426.5610, 9333.459
427.0431, 9340.697
427.5252, 9344.566
428.0074, 9342.018
428.4895, 9343.391
428.9716, 9351.282
429.4537, 9363.175
429.9358, 9370.918
430.4179, 9373.551
430.9001, 9375.099
431.3822, 9377.749
431.8643, 9381.531
432.3464, 9382.917
432.8285, 9380.996
433.3106, 9379.698
433.7928, 9385.916
434.2749, 9398.511
434.7570, 9407.563
435.2391, 9408.270
435.7212, 9405.000
436.2033, 9406.740
436.6855, 9413.063
437.1676, 9419.324
437.6497, 9420.785
438.1318, 9420.563
438.6139, 9424.143
439.0960, 9433.537
439.5782, 9442.654
440.0603, 9445.625
440.5424, 9444.803
441.0245, 9444.571
441.5066, 9444.924
441.9887, 9447.899
442.4709, 9456.409
442.9530, 9470.162
443.4351, 9481.746
443.9172, 9486.806
444.3993, 9489.303
444.8814, 9492.001
445.3636, 9495.670
445.8457, 9499.006
446.3278, 9500.033
446.8099, 9500.552
447.2920, 9505.248
447.7741, 9520.516
448.2563, 9533.035
448.7384, 9537.637
449.2205, 9532.939
449.7026, 9532.612
450.1847, 9538.292
450.6668, 9546.509
451.1490, 9554.403
451.6311, 9562.230
452.1132, 9569.104
452.5953, 9574.628
453.0774, 9579.462
453.5595, 9585.540
454.0417, 9592.902
454.5238, 9601.049
455.0059, 9610.299
455.4880, 9620.167
455.9701, 9628.217
456.4522, 9633.900
456.9344, 9640.253
457.4165, 9650.808
457.8986, 9664.709
458.3807, 9679.496
458.8628, 9695.765
459.3449, 9711.165
459.8271, 9721.532
460.3092, 9728.233
460.7913, 9737.280
461.2734, 9755.954
461.7555, 9776.220
462.2376, 9790.519
462.7198, 9796.206
463.2019, 9802.939
463.6840, 9814.455
464.1661, 9829.613
464.6482, 9847.042
465.1303, 9871.885
465.6125, 9892.974
466.0946, 9905.566
466.5767, 9910.634
467.0588, 9916.825
467.5409, 9925.489
468.0230, 9934.828
468.5052, 9944.307
468.9873, 9954.712
469.4694, 9963.010
469.9515, 9966.228
470.4336, 9970.029
470.9157, 9984.380
471.3979, 10013.67
471.8800, 10038.46
472.3621, 10052.88
472.8442, 10059.04
473.3263, 10066.97
473.8084, 10076.65
474.2906, 10088.05
474.7727, 10102.34
475.2548, 10118.58
475.7369, 10132.17
476.2190, 10142.24
476.7011, 10151.02
477.1833, 10160.24
477.6654, 10170.34
478.1475, 10182.57
478.6296, 10197.49
479.1117, 10214.80
479.5938, 10236.70
480.0760, 10262.16
480.5581, 10283.50
481.0402, 10294.08
481.5223, 10300.38
482.0044, 10306.86
482.4865, 10312.71
482.9687, 10323.15
483.4508, 10343.34
483.9329, 10368.40
484.4150, 10391.10
484.8971, 10408.07
485.3792, 10424.91
485.8614, 10442.93
486.3435, 10462.06
486.8256, 10481.14
487.3077, 10498.80
487.7898, 10517.72
488.2719, 10539.58
488.7541, 10564.50
489.2362, 10590.95
489.7183, 10620.02
490.2004, 10649.21
490.6825, 10674.13
491.1646, 10694.16
491.6468, 10717.13
492.1289, 10747.36
492.6110, 10781.16
493.0931, 10808.27
493.5752, 10828.88
494.0573, 10850.14
494.5395, 10879.81
495.0216, 10913.50
495.5037, 10943.22
495.9858, 10967.49
496.4679, 10987.84
496.9500, 11002.45
497.4322, 11014.39
497.9143, 11028.46
498.3964, 11051.15
498.8785, 11072.56
499.3606, 11085.82
499.8427, 11092.57
500.3249, 11099.40
500.8070, 11111.76
501.2891, 11122.55
501.7712, 11127.56
502.2533, 11124.46
502.7354, 11121.10
503.2176, 11119.71
503.6997, 11117.41
504.1818, 11111.15
504.6639, 11099.56
505.1460, 11086.18
505.6281, 11071.63
506.1103, 11055.35
506.5924, 11035.09
507.0745, 11009.17
507.5566, 10984.64
508.0387, 10967.44
508.5208, 10956.82
509.0030, 10936.98
509.4851, 10906.70
509.9672, 10874.14
510.4493, 10850.17
510.9314, 10831.62
511.4135, 10806.66
511.8957, 10769.97
512.3778, 10730.82
512.8599, 10701.21
513.3420, 10678.52
513.8242, 10654.94
514.3063, 10623.87
514.7884, 10591.91
515.2705, 10564.92
515.7526, 10543.43
516.2347, 10521.37
516.7169, 10494.43
517.1990, 10466.94
517.6811, 10442.09
518.1632, 10420.80
518.6453, 10401.29
519.1274, 10383.20
519.6096, 10366.51
520.0917, 10351.83
520.5738, 10341.26
521.0559, 10328.88
521.5380, 10311.53
522.0201, 10289.87
522.5023, 10276.12
522.9844, 10272.47
523.4665, 10270.70
523.9486, 10265.39
524.4307, 10256.66
524.9128, 10245.85
525.3950, 10232.45
525.8771, 10219.53
526.3592, 10211.11
526.8413, 10206.64
527.3234, 10204.14
527.8055, 10204.40
528.2877, 10204.70
528.7698, 10201.54
529.2519, 10195.48
529.7340, 10188.98
530.2161, 10183.45
530.6982, 10178.06
531.1804, 10172.14
531.6625, 10165.75
532.1446, 10159.10
532.6267, 10149.80
533.1088, 10141.77
533.5909, 10138.79
534.0731, 10149.63
534.5552, 10155.41
535.0373, 10152.28
535.5194, 10143.73
536.0015, 10138.40
536.4836, 10137.65
536.9658, 10137.26
537.4479, 10134.93
537.9300, 10130.85
538.4121, 10131.95
538.8942, 10139.05
539.3763, 10147.25
539.8585, 10152.26
540.3406, 10154.54
540.8227, 10156.77
541.3048, 10158.97
541.7869, 10162.13
542.2690, 10169.75
542.7512, 10179.38
543.2333, 10184.86
543.7154, 10179.47
544.1975, 10172.38
544.6796, 10173.17
545.1617, 10179.58
545.6439, 10181.54
546.1260, 10166.72
546.6081, 10152.06
547.0902, 10149.25
547.5723, 10163.46
548.0544, 10173.09
548.5366, 10171.65
549.0187, 10166.42
549.5008, 10163.71
549.9829, 10164.32
550.4650, 10166.25
550.9471, 10170.12
551.4293, 10174.85
551.9114, 10177.54
552.3935, 10177.57
552.8756, 10178.88
553.3577, 10184.32
553.8398, 10192.30
554.3220, 10194.74
554.8041, 10191.51
555.2862, 10186.93
555.7683, 10183.54
556.2504, 10181.36
556.7325, 10180.28
557.2147, 10180.12
557.6968, 10181.73
558.1789, 10186.79
558.6610, 10193.79
559.1431, 10200.49
559.6252, 10206.24
560.1074, 10211.22
560.5895, 10214.72
561.0716, 10217.28
561.5537, 10220.75
562.0358, 10228.29
562.5179, 10234.04
563.0001, 10234.82
563.4822, 10229.84
563.9643, 10229.00
564.4464, 10234.74
564.9285, 10241.27
565.4106, 10243.77
565.8928, 10241.30
566.3749, 10241.56
566.8570, 10245.73
567.3391, 10251.55
567.8212, 10255.91
568.3033, 10258.90
568.7855, 10260.78
569.2676, 10260.72
569.7497, 10260.52
570.2318, 10263.31
570.7139, 10268.48
571.1960, 10273.68
571.6782, 10276.94
572.1603, 10279.92
572.6424, 10284.70
573.1245, 10291.72
573.6066, 10296.36
574.0887, 10294.08
574.5709, 10290.44
575.0530, 10289.88
575.5351, 10296.45
576.0172, 10301.10
576.4993, 10301.96
576.9814, 10301.62
577.4636, 10304.55
577.9457, 10312.39
578.4278, 10319.13
578.9099, 10322.88
579.3920, 10324.48
579.8741, 10327.13
580.3563, 10330.86
580.8384, 10334.73
581.3205, 10338.58
581.8026, 10342.10
582.2847, 10343.31
582.7668, 10342.05
583.2490, 10342.59
583.7311, 10352.16
584.2132, 10364.29
584.6953, 10370.11
585.1774, 10365.08
585.6595, 10359.31
586.1416, 10353.67
586.6237, 10351.77
587.1058, 10358.91
587.5880, 10394.54
