##NAMES=Faujasite-Ca
##RRUFFID=R070462
##IDEAL CHEMISTRY=(Ca,Na,Mg)_2_(Si,Al)_12_O_24_&#183;15H_2_O
##LOCALITY=Table Mountain, San Bernardino County, California, USA
##OWNER=RRUFF
##SOURCE=Michael Scott
##DESCRIPTION=Isolated colorless octahedra in basalt vesicules, associated with spherical aggregates of colorless phillipsite-Ca
##STATUS=The identification of this mineral is confirmed by single-crystal X-ray diffraction and chemical analysis.
##URL=rruff.info/R070462
##MEASURED CHEMISTRY=(Ca_1.04_Na_0.44_Mg_0.23_K_0.04_Fe_0.03_)_Σ=1.78_(Si_8.92_Al_3.08_)_12_O_24_·4.5H_2_O ; H_2_O estimated by difference
155.9408, 16644.98
156.4229, 16957.57
156.9050, 17173.55
157.3871, 17274.79
157.8692, 17313.03
158.3513, 17316.00
158.8335, 17324.71
159.3156, 17396.96
159.7977, 17447.14
160.2798, 17426.69
160.7619, 17270.73
161.2440, 17123.54
161.7262, 17037.28
162.2083, 16998.78
162.6904, 16953.75
163.1725, 16853.18
163.6546, 16752.55
164.1367, 16694.78
164.6189, 16731.48
165.1010, 16776.61
165.5831, 16782.60
166.0652, 16753.07
166.5473, 16736.14
167.0294, 16760.50
167.5116, 16809.10
167.9937, 16863.00
168.4758, 16918.66
168.9579, 16973.69
169.4400, 17026.55
169.9221, 17076.86
170.4043, 17124.32
170.8864, 17154.51
171.3685, 17182.22
171.8506, 17233.91
172.3327, 17360.02
172.8148, 17495.14
173.2970, 17569.22
173.7791, 17568.59
174.2612, 17551.01
174.7433, 17572.81
175.2254, 17618.53
175.7076, 17648.97
176.1897, 17634.28
176.6718, 17595.33
177.1539, 17561.58
177.6360, 17540.32
178.1181, 17516.87
178.6003, 17461.85
179.0824, 17383.87
179.5645, 17326.25
180.0466, 17342.13
180.5287, 17394.57
181.0108, 17402.82
181.4930, 17334.91
181.9751, 17243.76
182.4572, 17214.31
182.9393, 17241.54
183.4214, 17272.86
183.9035, 17254.29
184.3857, 17204.87
184.8678, 17184.12
185.3499, 17215.43
185.8320, 17276.10
186.3141, 17324.73
186.7962, 17361.59
187.2784, 17386.19
187.7605, 17388.33
188.2426, 17373.42
188.7247, 17372.34
189.2068, 17401.87
189.6889, 17449.71
190.1711, 17478.59
190.6532, 17486.35
191.1353, 17487.83
191.6174, 17498.75
192.0995, 17518.37
192.5816, 17539.71
193.0638, 17569.87
193.5459, 17602.45
194.0280, 17595.11
194.5101, 17541.25
194.9922, 17470.91
195.4743, 17420.71
195.9565, 17391.52
196.4386, 17372.66
196.9207, 17361.71
197.4028, 17358.81
197.8849, 17361.87
198.3671, 17371.92
198.8492, 17386.82
199.3313, 17404.49
199.8134, 17425.69
200.2955, 17444.45
200.7776, 17459.14
201.2598, 17469.72
201.7419, 17472.98
202.2240, 17469.06
202.7061, 17456.69
203.1882, 17422.63
203.6703, 17355.12
204.1525, 17313.55
204.6346, 17351.10
205.1167, 17485.48
205.5988, 17543.62
206.0809, 17492.67
206.5630, 17375.98
207.0452, 17310.06
207.5273, 17304.41
208.0094, 17321.53
208.4915, 17348.00
208.9736, 17390.80
209.4557, 17402.81
209.9379, 17366.79
210.4200, 17301.31
210.9021, 17277.68
211.3842, 17309.41
211.8663, 17353.33
212.3484, 17379.95
212.8306, 17385.08
213.3127, 17390.61
213.7948, 17400.30
214.2769, 17412.84
214.7590, 17420.93
215.2411, 17426.22
215.7233, 17424.00
216.2054, 17405.80
216.6875, 17360.58
217.1696, 17333.76
217.6517, 17336.30
218.1338, 17365.23
218.6160, 17387.82
219.0981, 17402.36
219.5802, 17412.86
220.0623, 17422.86
220.5444, 17433.33
221.0265, 17439.18
221.5087, 17433.78
221.9908, 17417.86
222.4729, 17431.05
222.9550, 17493.50
223.4371, 17561.16
223.9192, 17590.47
224.4014, 17565.69
224.8835, 17537.06
225.3656, 17508.56
225.8477, 17479.15
226.3298, 17481.04
226.8119, 17532.41
227.2941, 17595.60
227.7762, 17629.44
228.2583, 17616.51
228.7404, 17607.12
229.2225, 17614.59
229.7046, 17640.96
230.1868, 17653.77
230.6689, 17642.66
231.1510, 17626.41
231.6331, 17629.09
232.1152, 17663.88
232.5974, 17693.57
233.0795, 17710.74
233.5616, 17715.23
234.0437, 17712.46
234.5258, 17707.21
235.0079, 17692.63
235.4901, 17653.77
235.9722, 17559.88
236.4543, 17498.93
236.9364, 17504.06
237.4185, 17591.99
237.9006, 17652.90
238.3828, 17675.28
238.8649, 17678.94
239.3470, 17692.09
239.8291, 17721.11
240.3112, 17747.49
240.7933, 17764.86
241.2755, 17770.96
241.7576, 17775.73
242.2397, 17774.94
242.7218, 17774.60
243.2039, 17784.39
243.6860, 17807.34
244.1682, 17834.88
244.6503, 17865.81
245.1324, 17902.73
245.6145, 17934.50
246.0966, 17969.78
246.5787, 17994.80
247.0609, 17981.21
247.5430, 17895.41
248.0251, 17829.53
248.5072, 17819.72
248.9893, 17884.78
249.4714, 17928.65
249.9536, 17942.54
250.4357, 17940.67
250.9178, 17948.92
251.3999, 17979.97
251.8820, 17998.05
252.3641, 17986.48
252.8463, 17933.76
253.3284, 17898.22
253.8105, 17881.44
254.2926, 17881.22
254.7747, 17898.51
255.2568, 17950.19
255.7390, 17987.88
256.2211, 17989.82
256.7032, 17942.74
257.1853, 17918.21
257.6674, 17922.62
258.1495, 17945.05
258.6317, 17968.95
259.1138, 17997.17
259.5959, 18020.01
260.0780, 18031.87
260.5601, 18029.00
261.0422, 18032.48
261.5244, 18045.07
262.0065, 18061.37
262.4886, 18069.90
262.9707, 18063.94
263.4528, 18066.60
263.9349, 18092.48
264.4171, 18151.90
264.8992, 18177.53
265.3813, 18154.59
265.8634, 18113.06
266.3455, 18107.41
266.8276, 18153.53
267.3098, 18191.42
267.7919, 18192.58
268.2740, 18147.55
268.7561, 18133.75
269.2382, 18160.83
269.7203, 18207.66
270.2025, 18245.00
270.6846, 18273.89
271.1667, 18288.19
271.6488, 18281.76
272.1309, 18252.29
272.6130, 18226.04
273.0952, 18198.84
273.5773, 18181.22
274.0594, 18196.43
274.5415, 18253.47
275.0236, 18300.98
275.5057, 18317.48
275.9879, 18302.43
276.4700, 18285.94
276.9521, 18265.07
277.4342, 18249.08
277.9163, 18256.45
278.3984, 18291.70
278.8806, 18318.45
279.3627, 18318.28
279.8448, 18293.22
280.3269, 18283.25
280.8090, 18289.24
281.2911, 18308.07
281.7733, 18344.06
282.2554, 18398.91
282.7375, 18436.36
283.2196, 18432.64
283.7017, 18395.11
284.1838, 18386.94
284.6660, 18411.86
285.1481, 18452.03
285.6302, 18496.45
286.1123, 18544.67
286.5944, 18569.35
287.0765, 18547.96
287.5587, 18495.02
288.0408, 18479.59
288.5229, 18506.87
289.0050, 18544.76
289.4871, 18558.23
289.9692, 18550.17
290.4514, 18542.01
290.9335, 18539.36
291.4156, 18542.00
291.8977, 18551.86
292.3798, 18569.61
292.8619, 18585.23
293.3441, 18584.14
293.8262, 18570.35
294.3083, 18563.57
294.7904, 18574.70
295.2726, 18593.30
295.7547, 18594.32
296.2368, 18577.71
296.7189, 18561.38
297.2010, 18564.09
297.6831, 18580.19
298.1653, 18594.07
298.6474, 18602.44
299.1295, 18605.56
299.6116, 18602.52
300.0937, 18593.74
300.5758, 18583.41
301.0580, 18568.99
301.5401, 18556.01
302.0222, 18556.28
302.5043, 18577.90
302.9864, 18607.41
303.4685, 18633.49
303.9507, 18655.28
304.4328, 18666.15
304.9149, 18649.14
305.3970, 18622.21
305.8791, 18612.90
306.3612, 18637.03
306.8434, 18663.81
307.3255, 18656.14
307.8076, 18623.98
308.2897, 18602.85
308.7718, 18630.38
309.2539, 18672.73
309.7361, 18690.72
310.2182, 18666.18
310.7003, 18641.14
311.1824, 18657.25
311.6645, 18697.49
312.1466, 18718.57
312.6288, 18671.42
313.1109, 18612.79
313.5930, 18591.85
314.0751, 18628.77
314.5572, 18662.87
315.0393, 18647.57
315.5215, 18608.34
316.0036, 18592.14
316.4857, 18661.53
316.9678, 18727.30
317.4499, 18728.64
317.9320, 18641.78
318.4142, 18569.47
318.8963, 18561.05
319.3784, 18587.05
319.8605, 18607.12
320.3426, 18604.96
320.8247, 18597.76
321.3069, 18590.03
321.7890, 18580.94
322.2711, 18577.51
322.7532, 18593.80
323.2353, 18611.10
323.7174, 18609.63
324.1996, 18547.69
324.6817, 18503.40
325.1638, 18509.78
325.6459, 18572.48
326.1280, 18608.16
326.6101, 18582.44
327.0923, 18540.53
327.5744, 18519.05
328.0565, 18544.53
328.5386, 18563.51
329.0207, 18576.15
329.5028, 18582.07
329.9850, 18562.68
330.4671, 18486.68
330.9492, 18411.87
331.4313, 18375.37
331.9134, 18413.26
332.3955, 18432.13
332.8777, 18410.78
333.3598, 18362.46
333.8419, 18349.59
334.3240, 18391.74
334.8061, 18442.01
335.2882, 18475.45
335.7704, 18485.50
336.2525, 18493.68
336.7346, 18499.09
337.2167, 18503.17
337.6988, 18509.68
338.1809, 18517.58
338.6631, 18529.50
339.1452, 18549.61
339.6273, 18581.54
340.1094, 18600.88
340.5915, 18608.13
341.0736, 18602.49
341.5558, 18572.74
342.0379, 18511.78
342.5200, 18474.63
343.0021, 18495.42
343.4842, 18569.46
343.9663, 18618.98
344.4485, 18641.13
344.9306, 18648.06
345.4127, 18645.89
345.8948, 18636.41
346.3769, 18645.96
346.8590, 18700.33
347.3412, 18778.08
347.8233, 18800.81
348.3054, 18765.66
348.7875, 18721.23
349.2696, 18709.89
349.7517, 18727.16
350.2339, 18759.00
350.7160, 18806.24
351.1981, 18860.11
351.6802, 18914.49
352.1623, 18967.07
352.6444, 19002.06
353.1266, 18996.66
353.6087, 18966.84
354.0908, 18938.16
354.5729, 18913.11
355.0550, 18895.60
355.5371, 18899.29
356.0193, 18916.57
356.5014, 18921.90
356.9835, 18893.43
357.4656, 18850.46
357.9477, 18810.24
358.4298, 18775.11
358.9120, 18746.30
359.3941, 18724.88
359.8762, 18711.01
360.3583, 18704.37
360.8404, 18705.85
361.3225, 18714.29
361.8047, 18736.25
362.2868, 18776.29
362.7689, 18795.80
363.2510, 18758.43
363.7331, 18699.48
364.2152, 18659.03
364.6974, 18661.24
365.1795, 18669.77
365.6616, 18678.15
366.1437, 18685.91
366.6258, 18682.19
367.1079, 18654.24
367.5901, 18620.95
368.0722, 18595.86
368.5543, 18593.83
369.0364, 18585.08
369.5185, 18552.60
370.0006, 18506.38
370.4828, 18499.75
370.9649, 18574.92
371.4470, 18649.65
371.9291, 18685.12
372.4112, 18663.72
372.8933, 18633.08
373.3755, 18578.55
373.8576, 18520.43
374.3397, 18510.27
374.8218, 18568.58
375.3039, 18630.14
375.7861, 18673.71
376.2682, 18699.44
376.7503, 18694.38
377.2324, 18647.00
377.7145, 18586.76
378.1967, 18550.09
378.6788, 18538.04
379.1609, 18546.88
379.6430, 18589.99
380.1251, 18655.92
380.6072, 18667.21
381.0894, 18615.49
381.5715, 18559.87
382.0536, 18562.58
382.5357, 18616.30
383.0178, 18667.96
383.4999, 18712.91
383.9821, 18741.95
384.4642, 18726.08
384.9463, 18668.52
385.4284, 18613.61
385.9105, 18583.00
386.3926, 18576.25
386.8748, 18598.15
387.3569, 18657.05
387.8390, 18719.62
388.3211, 18749.12
388.8032, 18754.02
389.2853, 18756.72
389.7675, 18779.55
390.2496, 18799.49
390.7317, 18786.70
391.2138, 18735.45
391.6959, 18694.05
392.1780, 18698.21
392.6602, 18728.67
393.1423, 18759.34
393.6244, 18806.98
394.1065, 18830.23
394.5886, 18789.11
395.0707, 18690.64
395.5529, 18624.74
396.0350, 18642.11
396.5171, 18689.57
396.9992, 18730.30
397.4813, 18757.86
397.9634, 18776.77
398.4456, 18782.36
398.9277, 18778.46
399.4098, 18778.51
399.8919, 18790.82
400.3740, 18800.51
400.8561, 18802.29
401.3383, 18794.95
401.8204, 18782.59
402.3025, 18759.43
402.7846, 18734.93
403.2667, 18722.65
403.7488, 18723.37
404.2310, 18736.11
404.7131, 18763.64
405.1952, 18805.80
405.6773, 18848.19
406.1594, 18894.77
406.6415, 18933.44
407.1237, 18950.81
407.6058, 18945.00
408.0879, 18932.40
408.5700, 18910.59
409.0521, 18887.16
409.5342, 18888.12
410.0164, 18914.05
410.4985, 18942.67
410.9806, 18964.08
411.4627, 18976.66
411.9448, 18970.45
412.4269, 18940.73
412.9091, 18904.91
413.3912, 18882.59
413.8733, 18872.88
414.3554, 18874.08
414.8375, 18902.25
415.3196, 18933.23
415.8018, 18927.69
416.2839, 18884.70
416.7660, 18845.76
417.2481, 18848.59
417.7302, 18872.78
418.2123, 18892.77
418.6945, 18899.48
419.1766, 18900.62
419.6587, 18896.63
420.1408, 18889.61
420.6229, 18887.93
421.1050, 18899.76
421.5872, 18915.07
422.0693, 18927.84
422.5514, 18935.73
423.0335, 18943.72
423.5156, 18953.14
423.9977, 18962.94
424.4799, 18971.70
424.9620, 18973.00
425.4441, 18978.47
425.9262, 18991.85
426.4083, 19014.02
426.8904, 19035.12
427.3726, 19061.40
427.8547, 19080.96
428.3368, 19081.12
428.8189, 19048.04
429.3010, 19027.91
429.7831, 19030.86
430.2653, 19050.84
430.7474, 19061.09
431.2295, 19057.88
431.7116, 19058.63
432.1937, 19078.83
432.6758, 19119.42
433.1580, 19143.80
433.6401, 19146.69
434.1222, 19141.88
434.6043, 19150.33
435.0864, 19170.54
435.5685, 19189.89
436.0507, 19200.45
436.5328, 19206.18
437.0149, 19216.21
437.4970, 19229.92
437.9791, 19245.81
438.4612, 19270.50
438.9434, 19294.81
439.4255, 19301.46
439.9076, 19279.63
440.3897, 19249.50
440.8718, 19231.50
441.3539, 19220.96
441.8361, 19204.27
442.3182, 19149.39
442.8003, 19104.48
443.2824, 19112.93
443.7645, 19195.37
444.2466, 19262.50
444.7288, 19276.33
445.2109, 19258.74
445.6930, 19235.04
446.1751, 19181.73
446.6572, 19151.94
447.1393, 19173.68
447.6215, 19244.59
448.1036, 19283.26
448.5857, 19250.49
449.0678, 19217.95
449.5499, 19227.34
450.0320, 19310.08
450.5142, 19371.35
450.9963, 19410.06
451.4784, 19426.29
451.9605, 19410.41
452.4426, 19344.27
452.9247, 19303.40
453.4069, 19324.36
453.8890, 19404.03
454.3711, 19460.85
454.8532, 19492.22
455.3353, 19511.37
455.8174, 19532.23
456.2996, 19553.20
456.7817, 19561.02
457.2638, 19544.52
457.7459, 19522.85
458.2281, 19529.48
458.7102, 19561.21
459.1923, 19600.96
459.6744, 19662.55
460.1565, 19716.75
460.6386, 19708.22
461.1208, 19621.60
461.6029, 19540.52
462.0850, 19534.89
462.5671, 19573.85
463.0492, 19611.68
463.5313, 19632.83
464.0135, 19649.19
464.4956, 19669.47
464.9777, 19692.76
465.4598, 19705.46
465.9419, 19686.18
466.4240, 19666.87
466.9062, 19666.58
467.3883, 19695.20
467.8704, 19728.55
468.3525, 19764.16
468.8346, 19802.39
469.3167, 19847.02
469.7989, 19910.87
470.2810, 19958.30
470.7631, 19973.80
471.2452, 19955.84
471.7273, 19957.45
472.2094, 19987.31
472.6916, 20020.40
473.1737, 20035.97
473.6558, 20033.82
474.1379, 20027.33
474.6200, 20016.89
475.1021, 20007.13
475.5843, 20006.56
476.0664, 20015.53
476.5485, 20032.12
477.0306, 20057.32
477.5127, 20089.12
477.9948, 20125.06
478.4770, 20165.25
478.9591, 20201.42
479.4412, 20211.05
479.9233, 20213.80
480.4054, 20244.06
480.8875, 20333.38
481.3697, 20426.87
481.8518, 20488.89
482.3339, 20524.49
482.8160, 20551.15
483.2981, 20564.59
483.7802, 20579.75
484.2624, 20605.71
484.7445, 20646.46
485.2266, 20687.66
485.7087, 20725.02
486.1908, 20762.52
486.6729, 20804.68
487.1551, 20862.96
487.6372, 20911.29
488.1193, 20941.61
488.6014, 20957.70
489.0835, 20984.20
489.5656, 21022.58
490.0478, 21069.67
490.5299, 21129.18
491.0120, 21205.68
491.4941, 21260.42
491.9762, 21285.31
492.4583, 21306.36
492.9405, 21367.96
493.4226, 21467.57
493.9047, 21556.44
494.3868, 21614.10
494.8689, 21653.92
495.3510, 21701.05
495.8332, 21755.09
496.3153, 21816.71
496.7974, 21898.93
497.2795, 21983.94
497.7616, 22048.24
498.2437, 22089.85
498.7259, 22104.73
499.2080, 22051.59
499.6901, 21976.92
500.1722, 21955.53
500.6543, 22096.40
501.1364, 22218.38
501.6186, 22230.09
502.1007, 22137.01
502.5828, 22075.55
503.0649, 22099.33
503.5470, 22140.69
504.0291, 22162.08
504.5113, 22160.37
504.9934, 22145.17
505.4755, 22112.10
505.9576, 22068.93
506.4397, 22026.60
506.9218, 21984.54
507.4040, 21945.68
507.8861, 21912.84
508.3682, 21883.87
508.8503, 21841.88
509.3324, 21783.69
509.8145, 21729.08
510.2967, 21703.38
510.7788, 21696.85
511.2609, 21662.03
511.7430, 21587.69
512.2252, 21501.54
512.7073, 21439.65
513.1894, 21393.39
513.6715, 21340.08
514.1536, 21259.45
514.6357, 21174.51
515.1179, 21110.66
515.6000, 21064.78
516.0821, 21010.13
516.5642, 20909.25
517.0463, 20809.71
517.5284, 20752.75
518.0106, 20781.96
518.4927, 20776.09
518.9748, 20683.01
519.4569, 20546.63
519.9390, 20435.21
520.4211, 20347.96
520.9033, 20289.36
521.3854, 20275.31
521.8675, 20299.61
522.3496, 20279.48
522.8317, 20194.68
523.3138, 20107.98
523.7960, 20063.36
524.2781, 20063.76
524.7602, 20061.50
525.2423, 20057.96
525.7244, 20042.32
526.2065, 19985.51
526.6887, 19896.22
527.1708, 19826.93
527.6529, 19807.23
528.1350, 19810.64
528.6171, 19790.20
529.0992, 19751.57
529.5814, 19731.21
530.0635, 19776.88
530.5456, 19837.79
531.0277, 19860.33
531.5098, 19827.10
531.9919, 19794.67
532.4741, 19790.50
532.9562, 19799.77
533.4383, 19804.97
533.9204, 19799.76
534.4025, 19792.17
534.8846, 19784.40
535.3668, 19775.95
535.8489, 19763.99
536.3310, 19745.81
536.8131, 19728.89
537.2952, 19720.47
537.7773, 19726.64
538.2595, 19704.55
538.7416, 19643.61
539.2237, 19577.40
539.7058, 19545.72
540.1879, 19547.75
540.6700, 19556.97
541.1522, 19569.93
541.6343, 19583.81
542.1164, 19591.06
542.5985, 19592.88
543.0806, 19597.43
543.5627, 19619.78
544.0449, 19641.27
544.5270, 19633.31
545.0091, 19594.05
545.4912, 19557.90
545.9733, 19539.87
546.4554, 19538.13
546.9376, 19554.30
547.4197, 19625.07
547.9018, 19658.85
548.3839, 19598.76
548.8660, 19488.45
549.3481, 19420.05
549.8303, 19437.50
550.3124, 19455.40
550.7945, 19455.76
551.2766, 19439.15
551.7587, 19416.59
552.2408, 19383.33
552.7230, 19354.39
553.2051, 19337.83
553.6872, 19333.35
554.1693, 19352.96
554.6514, 19405.32
555.1335, 19460.07
555.6157, 19470.26
556.0978, 19442.66
556.5799, 19407.14
557.0620, 19365.67
557.5441, 19329.39
558.0262, 19316.96
558.5084, 19324.72
558.9905, 19334.06
559.4726, 19342.85
559.9547, 19343.42
560.4368, 19323.89
560.9189, 19276.75
561.4011, 19244.88
561.8832, 19251.90
562.3653, 19276.45
562.8474, 19298.19
563.3295, 19317.46
563.8116, 19329.98
564.2938, 19334.25
564.7759, 19331.87
565.2580, 19326.74
565.7401, 19317.95
566.2222, 19307.93
566.7043, 19293.05
567.1865, 19275.08
567.6686, 19279.53
568.1507, 19307.97
568.6328, 19347.06
569.1149, 19397.40
569.5970, 19450.54
570.0792, 19473.87
570.5613, 19457.52
571.0434, 19426.70
571.5255, 19392.54
572.0076, 19364.20
572.4897, 19359.13
572.9719, 19426.55
573.4540, 19482.28
573.9361, 19457.45
574.4182, 19369.13
574.9003, 19311.08
575.3824, 19332.26
575.8646, 19372.15
576.3467, 19408.01
576.8288, 19447.34
577.3109, 19450.97
577.7930, 19398.84
578.2751, 19330.61
578.7573, 19282.88
579.2394, 19258.54
579.7215, 19244.18
580.2036, 19238.70
580.6857, 19241.75
581.1678, 19264.45
581.6500, 19304.93
582.1321, 19316.85
582.6142, 19251.85
583.0963, 19154.03
583.5784, 19107.95
584.0605, 19110.87
584.5427, 19131.19
585.0248, 19155.98
585.5069, 19182.13
585.9890, 19209.16
586.4711, 19241.24
586.9532, 19258.46
587.4354, 19236.63
587.9175, 19201.22
588.3996, 19182.40
588.8817, 19192.83
589.3638, 19211.22
589.8459, 19243.43
590.3281, 19281.12
590.8102, 19295.01
591.2923, 19273.42
591.7744, 19252.40
592.2565, 19244.75
592.7386, 19250.00
593.2208, 19268.00
593.7029, 19301.22
594.1850, 19330.44
594.6671, 19336.79
595.1492, 19325.33
595.6313, 19309.46
596.1135, 19289.76
596.5956, 19272.80
597.0777, 19266.41
597.5598, 19267.39
598.0419, 19269.77
598.5240, 19262.88
599.0062, 19265.62
599.4883, 19305.05
599.9704, 19367.06
600.4525, 19392.77
600.9346, 19311.55
601.4167, 19244.38
601.8989, 19246.11
602.3810, 19329.50
602.8631, 19382.28
603.3452, 19396.36
603.8273, 19390.54
604.3094, 19376.38
604.7916, 19352.39
605.2737, 19328.70
605.7558, 19301.09
606.2379, 19286.01
606.7200, 19325.57
607.2021, 19405.17
607.6843, 19454.48
608.1664, 19426.49
608.6485, 19376.98
609.1306, 19375.28
609.6127, 19410.21
610.0948, 19437.00
610.5770, 19429.00
611.0591, 19408.33
611.5412, 19384.57
612.0233, 19357.43
612.5054, 19339.88
612.9875, 19339.71
613.4697, 19346.71
613.9518, 19355.09
614.4339, 19373.06
614.9160, 19372.25
615.3981, 19341.22
615.8802, 19302.96
616.3624, 19297.60
616.8445, 19328.56
617.3266, 19351.26
617.8087, 19352.30
618.2908, 19338.75
618.7729, 19323.33
619.2551, 19306.25
619.7372, 19288.84
620.2193, 19265.13
620.7014, 19245.13
621.1835, 19241.91
621.6656, 19255.88
622.1478, 19273.48
622.6299, 19297.68
623.1120, 19317.06
623.5941, 19321.62
624.0762, 19300.24
624.5583, 19283.92
625.0405, 19278.97
625.5226, 19278.89
626.0047, 19275.69
626.4868, 19266.31
626.9689, 19262.22
627.4510, 19267.60
627.9332, 19276.98
628.4153, 19274.05
628.8974, 19258.20
629.3795, 19243.95
629.8616, 19233.34
630.3438, 19230.02
630.8259, 19247.01
631.3080, 19282.39
631.7901, 19316.64
632.2722, 19333.83
632.7543, 19344.96
633.2365, 19364.35
633.7186, 19399.38
634.2007, 19419.18
634.6828, 19408.27
635.1649, 19380.12
635.6470, 19347.38
636.1292, 19285.56
636.6113, 19259.48
637.0934, 19291.16
637.5755, 19350.18
638.0576, 19376.46
638.5397, 19363.26
639.0219, 19348.62
639.5040, 19342.50
639.9861, 19343.54
640.4682, 19346.02
640.9503, 19350.13
641.4324, 19363.24
641.9146, 19407.91
642.3967, 19455.13
642.8788, 19456.61
643.3609, 19409.09
643.8430, 19368.50
644.3251, 19373.18
644.8073, 19395.90
645.2894, 19415.19
645.7715, 19428.89
646.2536, 19436.68
646.7357, 19434.03
647.2178, 19428.22
