##NAMES=Faujasite-Mg
##RRUFFID=R080141
##IDEAL CHEMISTRY=(Mg,Na,K,Ca)_2_(Si,Al)_12_O_24_&#183;15H_2_O
##LOCALITY=Limburg Quarries, Sasbach, Kaiserstuhl, Baden-Wurttemberg, Germany
##OWNER=RRUFF
##SOURCE=James Shigley
##DESCRIPTION=Colorless octahedra in basalt vesicles
##STATUS=The identification of this mineral has been confirmed only by single crystal X-ray diffraction.
##URL=rruff.info/R080141
93.78320, 476.8255
94.26532, 474.6434
94.74744, 476.4996
95.22955, 481.2289
95.71167, 487.7596
96.19379, 491.8778
96.67590, 494.6005
97.15802, 495.7476
97.64014, 494.6588
98.12225, 492.1272
98.60437, 489.5273
99.08649, 487.4268
99.56860, 485.6680
100.0507, 483.8319
100.5328, 481.0431
101.0150, 478.2668
101.4971, 476.5075
101.9792, 475.8374
102.4613, 474.9277
102.9434, 472.8370
103.4255, 470.3759
103.9077, 468.0003
104.3898, 465.7570
104.8719, 463.8344
105.3540, 462.6750
105.8361, 462.6320
106.3182, 462.7145
106.8004, 462.7928
107.2825, 462.7916
107.7646, 462.5235
108.2467, 461.8097
108.7288, 460.7075
109.2109, 460.1810
109.6931, 460.8580
110.1752, 461.4413
110.6573, 461.5820
111.1394, 461.3192
111.6215, 460.8595
112.1036, 460.3758
112.5858, 459.8575
113.0679, 459.2627
113.5500, 458.4983
114.0321, 457.7231
114.5142, 457.0028
114.9964, 456.3470
115.4785, 455.8463
115.9606, 455.8033
116.4427, 456.1886
116.9248, 456.1212
117.4069, 454.6997
117.8891, 452.7263
118.3712, 452.0433
118.8533, 453.6491
119.3354, 455.6310
119.8175, 456.0945
120.2996, 455.1640
120.7818, 454.0179
121.2639, 453.5891
121.7460, 453.9120
122.2281, 453.9594
122.7102, 452.9884
123.1923, 452.0636
123.6745, 452.0356
124.1566, 452.9696
124.6387, 453.9121
125.1208, 453.2639
125.6029, 449.7019
126.0850, 447.3658
126.5672, 447.1412
127.0493, 447.7118
127.5314, 448.2005
128.0135, 448.2353
128.4956, 447.7898
128.9777, 446.7649
129.4599, 443.8976
129.9420, 441.8658
130.4241, 441.4373
130.9062, 441.8756
131.3883, 442.1402
131.8705, 441.6840
132.3526, 440.5686
132.8347, 439.1443
133.3168, 437.0038
133.7989, 435.0287
134.2810, 433.6137
134.7632, 432.7040
135.2453, 432.0085
135.7274, 431.4622
136.2095, 430.9630
136.6916, 430.2021
137.1737, 429.1060
137.6559, 427.7724
138.1380, 426.0232
138.6201, 423.6420
139.1022, 421.8724
139.5843, 422.4080
140.0664, 423.9644
140.5486, 424.6827
141.0307, 423.5119
141.5128, 421.0066
141.9949, 418.7783
142.4770, 416.8512
142.9591, 415.2021
143.4413, 413.9055
143.9234, 412.8398
144.4055, 411.7887
144.8876, 410.6337
145.3697, 409.3778
145.8518, 407.9478
146.3340, 406.0704
146.8161, 404.2544
147.2982, 402.6289
147.7803, 401.2007
148.2624, 399.9227
148.7445, 398.7357
149.2267, 397.6275
149.7088, 396.7250
150.1909, 396.3365
150.6730, 395.8663
151.1551, 394.9278
151.6372, 393.4932
152.1194, 391.8465
152.6015, 390.2985
153.0836, 388.8372
153.5657, 387.6129
154.0478, 386.6153
154.5299, 385.8541
155.0121, 385.5456
155.4942, 385.7935
155.9763, 385.9788
156.4584, 385.0659
156.9405, 383.0765
157.4227, 380.7059
157.9048, 377.4342
158.3869, 373.9331
158.8690, 371.8423
159.3511, 372.1384
159.8332, 373.1162
160.3154, 372.6637
160.7975, 370.7799
161.2796, 368.5760
161.7617, 366.6057
162.2438, 364.8582
162.7259, 363.3588
163.2081, 362.2953
163.6902, 361.3454
164.1723, 360.2409
164.6544, 358.9502
165.1365, 357.6996
165.6186, 356.7895
166.1008, 356.3399
166.5829, 355.7092
167.0650, 354.3460
167.5471, 353.0607
168.0292, 352.5317
168.5113, 352.8896
168.9935, 353.5344
169.4756, 353.4386
169.9577, 352.1530
170.4398, 350.9383
170.9219, 350.0327
171.4040, 349.1584
171.8862, 348.0168
172.3683, 346.5098
172.8504, 344.8551
173.3325, 343.5533
173.8146, 342.6070
174.2967, 342.1097
174.7789, 342.6103
175.2610, 343.3804
175.7431, 343.5110
176.2252, 342.5721
176.7073, 340.9027
177.1894, 339.6195
177.6716, 338.8316
178.1537, 338.2294
178.6358, 337.9342
179.1179, 337.7784
179.6000, 337.4486
180.0821, 336.8051
180.5643, 335.8603
181.0464, 334.6387
181.5285, 332.7230
182.0106, 331.1492
182.4927, 330.7370
182.9749, 331.2181
183.4570, 331.3185
183.9391, 330.1550
184.4212, 328.3946
184.9033, 327.5502
185.3854, 328.1505
185.8676, 328.8305
186.3497, 328.3081
186.8318, 326.5450
187.3139, 324.9341
187.7960, 324.2547
188.2781, 324.0001
188.7603, 323.6657
189.2424, 323.1723
189.7245, 322.5349
190.2066, 321.6436
190.6887, 320.3193
191.1708, 319.4051
191.6530, 319.6548
192.1351, 320.2231
192.6172, 320.4001
193.0993, 319.9233
193.5814, 318.9970
194.0635, 317.9488
194.5457, 316.5215
195.0278, 315.5249
195.5099, 315.5602
195.9920, 315.8452
196.4741, 315.5443
196.9562, 314.2617
197.4384, 312.3834
197.9205, 310.9824
198.4026, 310.0322
198.8847, 309.7252
199.3668, 310.7936
199.8489, 312.2259
200.3311, 312.8142
200.8132, 311.9300
201.2953, 309.9777
201.7774, 308.5701
202.2595, 308.1468
202.7416, 307.8246
203.2238, 307.5637
203.7059, 307.3415
204.1880, 307.1245
204.6701, 306.8912
205.1522, 306.6670
205.6344, 306.5739
206.1165, 307.2754
206.5986, 307.3490
207.0807, 305.8315
207.5628, 303.5070
208.0449, 301.8987
208.5271, 301.8888
209.0092, 303.0492
209.4913, 303.6165
209.9734, 303.2207
210.4555, 302.8183
210.9376, 303.0151
211.4198, 303.5139
211.9019, 303.3922
212.3840, 301.9748
212.8661, 299.8173
213.3482, 298.4671
213.8303, 298.0322
214.3125, 298.1243
214.7946, 298.9292
215.2767, 300.2652
215.7588, 301.1124
216.2409, 300.9351
216.7230, 300.0039
217.2052, 298.8574
217.6873, 297.2115
218.1694, 295.9904
218.6515, 296.2348
219.1336, 297.8811
219.6157, 299.2163
220.0979, 299.6050
220.5800, 299.3091
221.0621, 298.4543
221.5442, 296.8703
222.0263, 295.4744
222.5084, 295.4117
222.9906, 296.8344
223.4727, 297.9135
223.9548, 297.8216
224.4369, 297.2987
224.9190, 296.6965
225.4011, 296.0534
225.8833, 295.7223
226.3654, 296.4122
226.8475, 298.4960
227.3296, 299.7733
227.8117, 299.3258
228.2938, 298.2072
228.7760, 296.6590
229.2581, 294.8065
229.7402, 293.3356
230.2223, 293.3468
230.7044, 295.4145
231.1866, 297.1462
231.6687, 298.3102
232.1508, 299.0840
232.6329, 299.3372
233.1150, 299.1399
233.5971, 298.9631
234.0793, 299.6251
234.5614, 301.8538
235.0435, 303.0807
235.5256, 302.5216
236.0077, 301.6415
236.4898, 301.3037
236.9720, 301.6709
237.4541, 302.3833
237.9362, 303.0138
238.4183, 303.7204
238.9004, 303.8901
239.3825, 302.8834
239.8647, 301.9106
240.3468, 301.8585
240.8289, 302.7822
241.3110, 304.0232
241.7931, 304.7777
242.2752, 304.8478
242.7574, 304.9326
243.2395, 305.0873
243.7216, 305.2117
244.2037, 305.1795
244.6858, 305.0073
245.1679, 304.8883
245.6501, 305.0762
246.1322, 305.7310
246.6143, 305.9927
247.0964, 305.7287
247.5785, 305.2216
248.0606, 304.4514
248.5428, 303.5147
249.0249, 302.8539
249.5070, 302.9905
249.9891, 304.1059
250.4712, 304.6796
250.9533, 304.3507
251.4355, 303.8026
251.9176, 303.5182
252.3997, 303.5041
252.8818, 303.4155
253.3639, 302.8956
253.8460, 301.9473
254.3282, 301.4128
254.8103, 301.5070
255.2924, 301.8306
255.7745, 302.0832
256.2566, 302.2761
256.7387, 302.6877
257.2209, 303.6822
257.7030, 305.0814
258.1851, 305.8235
258.6672, 305.3812
259.1493, 304.7060
259.6314, 304.3846
260.1136, 304.4049
260.5957, 304.5929
261.0778, 304.8733
261.5599, 305.2554
262.0420, 305.7224
262.5241, 306.3062
263.0063, 306.9356
263.4884, 307.7264
263.9705, 308.6224
264.4526, 309.0753
264.9347, 308.5400
265.4168, 307.5775
265.8990, 307.2884
266.3811, 307.9098
266.8632, 308.7168
267.3453, 309.2007
267.8275, 309.4018
268.3096, 309.6130
268.7917, 309.8210
269.2738, 310.2178
269.7559, 311.1058
270.2380, 312.6037
270.7202, 313.9778
271.2023, 314.6218
271.6844, 314.6383
272.1665, 314.7900
272.6486, 315.6227
273.1307, 316.2202
273.6129, 315.3298
274.0950, 312.9713
274.5771, 311.2622
275.0592, 312.0543
275.5413, 314.8971
276.0234, 317.1961
276.5056, 318.6216
276.9877, 319.2812
277.4698, 318.9910
277.9519, 317.9764
278.4340, 317.3766
278.9161, 318.3426
279.3983, 320.4171
279.8804, 321.4247
280.3625, 320.5156
280.8446, 319.6563
281.3267, 320.2115
281.8088, 321.7191
282.2910, 323.1082
282.7731, 323.7171
283.2552, 323.7656
283.7373, 323.9557
284.2194, 324.2666
284.7015, 324.7755
285.1837, 325.6284
285.6658, 326.6549
286.1479, 327.6032
286.6300, 328.3336
287.1121, 328.9353
287.5942, 329.6226
288.0764, 330.4641
288.5585, 331.2270
289.0406, 331.6889
289.5227, 332.0904
290.0048, 332.7803
290.4869, 333.9804
290.9691, 335.1943
291.4512, 335.3871
291.9333, 334.0748
292.4154, 333.3003
292.8975, 334.0399
293.3796, 335.2562
293.8618, 336.2608
294.3439, 336.8778
294.8260, 337.2071
295.3081, 337.3066
295.7902, 337.1077
296.2723, 337.0040
296.7545, 337.0602
297.2366, 337.2315
297.7187, 337.5670
298.2008, 338.0395
298.6829, 338.4849
299.1650, 338.7818
299.6472, 338.9458
300.1293, 338.7923
300.6114, 337.8356
301.0935, 336.9680
301.5756, 336.7354
302.0577, 336.9851
302.5399, 337.1364
303.0220, 336.6992
303.5041, 335.7000
303.9862, 334.6779
304.4683, 333.5147
304.9504, 332.4809
305.4326, 331.8409
305.9147, 331.3840
306.3968, 330.7485
306.8789, 329.7522
307.3610, 328.3905
307.8431, 326.5745
308.3253, 323.7610
308.8074, 321.3731
309.2895, 319.9892
309.7716, 319.1158
310.2537, 318.1933
310.7358, 316.9684
311.2180, 315.5733
311.7001, 314.3412
312.1822, 313.4164
312.6643, 312.2956
313.1464, 310.7565
313.6285, 309.0751
314.1107, 307.4257
314.5928, 305.8618
315.0749, 304.3909
315.5570, 303.0563
316.0392, 301.9047
316.5213, 300.7182
317.0034, 299.1811
317.4855, 297.8199
317.9676, 297.1390
318.4497, 297.0625
318.9319, 296.9337
319.4140, 296.0679
319.8961, 294.4033
320.3782, 292.6410
320.8603, 290.3798
321.3424, 288.4293
321.8246, 287.3683
322.3067, 286.8958
322.7888, 286.2221
323.2709, 284.6623
323.7530, 282.3895
324.2351, 280.7547
324.7173, 280.0968
325.1994, 279.6507
325.6815, 279.4971
326.1636, 279.2947
326.6457, 278.4738
327.1278, 276.6444
327.6100, 274.3393
328.0921, 272.8795
328.5742, 272.6035
329.0563, 272.4719
329.5384, 272.5023
330.0205, 272.4096
330.5027, 271.8566
330.9848, 270.7478
331.4669, 269.4650
331.9490, 268.4712
332.4311, 267.7448
332.9132, 267.4095
333.3954, 267.9862
333.8775, 268.6020
334.3596, 268.7787
334.8417, 268.4966
335.3238, 268.0355
335.8059, 267.6379
336.2881, 267.3053
336.7702, 266.8838
337.2523, 265.9307
337.7344, 265.4235
338.2165, 265.9499
338.6986, 267.2392
339.1808, 268.6780
339.6629, 270.0282
340.1450, 271.2052
340.6271, 271.8531
341.1092, 271.7353
341.5913, 271.5229
342.0735, 271.1506
342.5556, 270.9478
343.0377, 271.3920
343.5198, 272.7423
344.0019, 274.5591
344.4840, 276.3038
344.9662, 278.1309
345.4483, 279.2638
345.9304, 278.6759
346.4125, 277.7446
346.8946, 277.3555
347.3767, 277.6508
347.8589, 278.3906
348.3410, 279.6115
348.8231, 281.2925
349.3052, 282.3640
349.7873, 282.3305
350.2694, 282.0172
350.7516, 282.1418
351.2337, 282.5562
351.7158, 282.6026
352.1979, 281.6475
352.6800, 280.0021
353.1621, 278.6854
353.6443, 277.7496
354.1264, 277.0682
354.6085, 276.8462
355.0906, 276.7699
355.5727, 276.3243
356.0548, 275.2784
356.5370, 273.8691
357.0191, 272.3396
357.5012, 270.6853
357.9833, 269.0666
358.4654, 267.5229
358.9475, 266.0810
359.4297, 264.7615
359.9118, 263.5546
360.3939, 262.5110
360.8760, 261.9003
361.3581, 261.5722
361.8402, 260.6809
362.3224, 258.8273
362.8045, 256.6752
363.2866, 254.7935
363.7687, 253.1756
364.2508, 251.9397
364.7329, 251.3964
365.2151, 251.1774
365.6972, 250.6169
366.1793, 249.6027
366.6614, 248.5800
367.1436, 247.9534
367.6257, 247.5874
368.1078, 247.0613
368.5899, 246.2164
369.0720, 245.2775
369.5541, 244.5384
370.0363, 243.9331
370.5184, 242.9344
371.0005, 241.0346
371.4826, 238.8379
371.9647, 237.7604
372.4468, 238.2382
372.9290, 238.5974
373.4111, 237.9723
373.8932, 236.8308
374.3753, 236.0764
374.8574, 235.9755
375.3395, 236.0933
375.8217, 235.8961
376.3038, 235.3522
376.7859, 234.7592
377.2680, 234.0302
377.7501, 233.3373
378.2322, 232.8833
378.7144, 232.6492
379.1965, 232.3900
379.6786, 231.9119
380.1607, 231.2368
380.6428, 230.6301
381.1249, 230.0069
381.6071, 229.5359
382.0892, 229.4187
382.5713, 229.4784
383.0534, 229.3603
383.5355, 228.9011
384.0176, 228.2605
384.4998, 227.7644
384.9819, 227.2634
385.4640, 227.2024
385.9461, 228.3808
386.4282, 229.5153
386.9103, 229.2270
387.3925, 227.4742
387.8746, 225.4814
388.3567, 224.5760
388.8388, 224.9163
389.3209, 225.2349
389.8030, 225.6333
390.2852, 225.9148
390.7673, 226.0685
391.2494, 226.0427
391.7315, 225.6077
392.2136, 224.5637
392.6957, 223.2754
393.1779, 223.2388
393.6600, 226.1513
394.1421, 227.9030
394.6242, 227.5234
395.1063, 226.2586
395.5884, 225.0779
396.0706, 224.2792
396.5527, 223.7822
397.0348, 223.5186
397.5169, 223.5539
397.9990, 223.5637
398.4811, 223.4824
398.9633, 223.4339
399.4454, 223.5173
399.9275, 223.6789
400.4096, 223.7895
400.8917, 223.7733
401.3738, 223.6308
401.8560, 223.3456
402.3381, 222.8415
402.8202, 222.3399
403.3023, 221.7317
403.7844, 221.2398
404.2665, 221.2277
404.7487, 221.8422
405.2308, 222.4683
405.7129, 222.2453
406.1950, 221.1182
406.6771, 220.1405
407.1592, 219.3472
407.6414, 218.9462
408.1235, 219.3199
408.6056, 220.2983
409.0877, 220.9890
409.5698, 220.5172
410.0519, 219.4462
410.5341, 219.2460
411.0162, 220.1968
411.4983, 221.0627
411.9804, 220.9017
412.4625, 220.1991
412.9446, 219.7395
413.4268, 219.6792
413.9089, 219.8271
414.3910, 220.1708
414.8731, 220.6400
415.3553, 220.8442
415.8374, 220.5422
416.3195, 220.1194
416.8016, 220.2710
417.2837, 221.0463
417.7658, 221.4892
418.2480, 221.0061
418.7301, 220.2395
419.2122, 219.9404
419.6943, 220.1798
420.1764, 220.6149
420.6585, 221.0851
421.1407, 221.5317
421.6228, 221.4617
422.1049, 219.9912
422.5870, 219.0138
423.0691, 219.7639
423.5512, 221.4418
424.0334, 222.5825
424.5155, 222.5909
424.9976, 221.9210
425.4797, 221.4097
425.9618, 221.2231
426.4439, 220.8602
426.9261, 219.9238
427.4082, 219.1226
427.8903, 219.0804
428.3724, 219.7189
428.8545, 220.4827
429.3366, 220.9551
429.8188, 221.1344
430.3009, 220.9305
430.7830, 219.4380
431.2651, 218.5778
431.7472, 219.0987
432.2293, 220.2480
432.7115, 221.1890
433.1936, 221.6006
433.6757, 221.6046
434.1578, 221.2238
434.6399, 220.1334
435.1220, 219.8051
435.6042, 221.2885
436.0863, 222.7662
436.5684, 223.3958
437.0505, 223.2414
437.5326, 222.7517
438.0147, 222.0365
438.4969, 221.2753
438.9790, 221.2427
439.4611, 222.3386
439.9432, 223.1501
440.4253, 222.6079
440.9074, 221.7024
441.3896, 221.5710
441.8717, 222.5665
442.3538, 223.6654
442.8359, 223.8400
443.3180, 223.2617
443.8001, 222.9224
444.2823, 223.0013
444.7644, 223.3854
445.2465, 224.0843
445.7286, 225.0315
446.2107, 225.9175
446.6928, 226.5699
447.1750, 227.1833
447.6571, 228.1083
448.1392, 229.2771
448.6213, 230.0137
449.1034, 229.8068
449.5855, 229.0606
450.0677, 228.9333
450.5498, 229.6521
451.0319, 230.3706
451.5140, 230.7255
451.9961, 231.0332
452.4782, 231.7295
452.9604, 232.8800
453.4425, 234.1632
453.9246, 235.2575
454.4067, 236.1437
454.8888, 237.0324
455.3709, 237.7995
455.8531, 238.6955
456.3352, 239.8860
456.8173, 241.2503
457.2994, 242.6038
457.7815, 243.8571
458.2636, 245.0439
458.7458, 246.2165
459.2279, 247.2444
459.7100, 248.5549
460.1921, 250.5002
460.6742, 252.4099
461.1563, 253.7167
461.6385, 254.5771
462.1206, 255.6501
462.6027, 257.5027
463.0848, 259.9766
463.5669, 262.2714
464.0491, 264.3576
464.5312, 266.2822
465.0133, 268.1217
465.4954, 269.7783
465.9775, 271.0238
466.4597, 271.7737
466.9418, 272.6306
467.4239, 274.1945
467.9060, 276.3925
468.3881, 278.8173
468.8702, 281.5959
469.3524, 284.2478
469.8345, 286.1023
470.3166, 287.4673
470.7987, 289.2343
471.2808, 291.9864
471.7629, 294.9563
472.2451, 297.4757
472.7272, 299.6012
473.2093, 301.5457
473.6914, 303.2883
474.1735, 305.0953
474.6556, 307.6538
475.1378, 311.3248
475.6199, 314.4164
476.1020, 316.3736
476.5841, 317.8615
477.0662, 319.2270
477.5483, 320.6251
478.0305, 322.5217
478.5126, 325.3620
478.9947, 328.9825
479.4768, 331.8416
479.9589, 333.1071
480.4410, 334.6506
480.9232, 337.0370
481.4053, 339.6453
481.8874, 341.7375
482.3695, 343.1826
482.8516, 344.4706
483.3337, 346.1030
483.8159, 348.0416
484.2980, 350.6785
484.7801, 354.6241
485.2622, 358.6105
485.7443, 362.3945
486.2264, 365.8690
486.7086, 368.7494
487.1907, 370.7593
487.6728, 372.7160
488.1549, 375.8741
488.6370, 380.2874
489.1191, 385.0867
489.6013, 390.1428
490.0834, 395.5161
490.5655, 401.5032
491.0476, 407.9701
491.5297, 413.9035
492.0118, 418.5411
492.4940, 422.6380
492.9761, 426.8235
493.4582, 431.1779
493.9403, 436.5015
494.4224, 443.6351
494.9045, 451.6187
495.3867, 457.7837
495.8688, 461.4450
496.3509, 465.4373
496.8330, 470.4940
497.3151, 476.1653
497.7972, 482.5503
498.2794, 489.3474
498.7615, 494.9520
499.2436, 497.7586
499.7257, 497.9515
500.2078, 499.1227
500.6899, 502.8715
501.1721, 505.6569
501.6542, 506.6311
502.1363, 506.4969
502.6184, 506.0889
503.1005, 505.6068
503.5826, 504.5875
504.0648, 502.2443
504.5469, 498.3940
505.0290, 495.1237
505.5111, 493.0617
505.9932, 490.7918
506.4753, 488.1054
506.9575, 484.7945
507.4396, 480.4482
507.9217, 474.7770
508.4038, 468.5190
508.8859, 462.5775
509.3680, 456.9178
509.8502, 451.1311
510.3323, 445.0328
510.8144, 438.9091
511.2965, 433.3362
511.7786, 428.1430
512.2607, 421.9689
512.7429, 413.6845
513.2250, 404.9328
513.7071, 397.1030
514.1892, 390.0247
514.6713, 382.6261
515.1534, 374.2852
515.6356, 365.6925
516.1177, 358.2460
516.5998, 352.4737
517.0819, 346.5638
517.5640, 340.5895
518.0461, 334.3691
518.5283, 327.5070
519.0104, 320.2340
519.4925, 313.3079
519.9746, 307.2242
520.4567, 301.8388
520.9388, 296.6375
521.4210, 291.6775
521.9031, 286.8023
522.3852, 281.9664
522.8673, 277.1985
523.3494, 272.4239
523.8315, 267.7119
524.3137, 263.3536
524.7958, 259.7741
525.2779, 256.7278
525.7600, 253.3290
526.2421, 249.4130
526.7242, 245.7881
527.2064, 242.9660
527.6885, 240.5677
528.1706, 238.0646
528.6527, 235.3791
529.1348, 232.8750
529.6169, 231.0321
530.0991, 229.3780
530.5812, 226.9395
531.0633, 223.6167
531.5454, 220.4417
532.0275, 218.1814
532.5096, 216.7218
532.9918, 215.3280
533.4739, 214.0997
533.9560, 212.8088
534.4381, 211.4504
534.9202, 209.9847
535.4023, 208.2110
535.8845, 206.1853
536.3666, 204.3707
536.8487, 203.2947
537.3308, 202.9517
537.8129, 202.4469
538.2951, 201.6436
538.7772, 200.8476
539.2593, 200.2625
539.7415, 199.6531
540.2236, 198.7003
540.7057, 197.3357
541.1878, 195.9251
541.6699, 194.7739
542.1520, 193.8832
542.6342, 193.3794
543.1163, 193.5716
543.5984, 193.4095
544.0805, 191.5815
544.5626, 189.0566
545.0447, 187.7518
545.5269, 188.5266
546.0090, 189.3899
546.4911, 189.1619
546.9732, 188.2214
547.4553, 187.1574
547.9374, 186.0867
548.4196, 185.3267
548.9017, 185.2439
549.3838, 185.8569
549.8659, 186.2615
550.3480, 186.8441
550.8301, 186.8093
551.3123, 185.3366
551.7944, 183.3940
552.2765, 182.1889
552.7586, 182.0235
553.2407, 182.2988
553.7228, 182.3565
554.2050, 182.1922
554.6871, 181.8839
555.1692, 181.3945
555.6513, 180.8031
556.1334, 179.9385
556.6155, 179.0840
557.0977, 178.6451
557.5798, 178.7646
558.0619, 179.0304
558.5440, 179.1998
559.0261, 179.2235
559.5082, 178.7443
559.9904, 177.5356
560.4725, 176.6678
560.9546, 177.3487
561.4367, 179.1193
561.9188, 179.6393
562.4009, 177.9586
562.8831, 176.1932
563.3652, 174.7009
563.8473, 173.7617
564.3294, 174.1634
564.8115, 175.9017
565.2936, 177.5247
565.7758, 177.4951
566.2579, 175.8057
566.7400, 174.6751
567.2221, 174.7134
567.7042, 174.5961
568.1863, 173.9212
568.6685, 173.0896
569.1506, 172.4599
569.6327, 172.1325
570.1148, 172.0846
570.5969, 172.5218
571.0790, 173.3021
571.5612, 173.4265
572.0433, 172.6446
572.5254, 171.8941
573.0075, 171.7272
573.4896, 171.8527
573.9717, 171.8604
574.4539, 171.7317
574.9360, 171.4447
575.4181, 170.7980
575.9002, 170.0755
576.3823, 169.7315
576.8644, 169.7876
577.3466, 169.8712
577.8287, 169.6982
578.3108, 169.3514
578.7929, 169.2387
579.2750, 169.6228
579.7571, 169.9018
580.2393, 170.2419
580.7214, 170.3210
581.2035, 169.6440
581.6856, 168.3837
582.1677, 167.3017
582.6498, 166.9824
583.1320, 167.2672
583.6141, 167.6978
584.0962, 168.3967
584.5783, 168.8184
585.0604, 168.6167
585.5425, 168.2257
586.0247, 167.9984
586.5068, 167.9375
586.9889, 167.8983
587.4710, 167.8270
587.9531, 167.7403
588.4352, 167.7854
588.9174, 167.8866
589.3995, 167.5066
589.8816, 166.2895
590.3637, 164.8484
