##NAMES=Fayalite
##RRUFFID=R100103
##IDEAL CHEMISTRY=Fe^2+^_2_SiO_4_
##LOCALITY=Franklin, Sussex County, New Jersey, USA
##OWNER=RRUFF
##SOURCE=American Museum of Natural History
##DESCRIPTION=Dark brown fragment
##STATUS=The identification of this mineral is confirmed by single-crystal X-ray diffraction and chemical analysis.
##URL=rruff.info/R100103
##MEASURED CHEMISTRY=(Fe^+2^_1.908_Mg_0.046_Zn_0.028_Ca_0.009_Mn^+2^_0.006_Ni_0.001_Al_0.001_)_Î£=1.999_Si_1.000_O_4_
138.2217, 12.78370
138.7039, 13.27949
139.1860, 14.69550
139.6681, 16.64007
140.1502, 18.83701
140.6323, 21.62888
141.1144, 23.45133
141.5966, 23.15829
142.0787, 19.81959
142.5608, 18.71924
143.0429, 20.67556
143.5250, 24.40020
144.0071, 26.98876
144.4893, 28.09870
144.9714, 28.58983
145.4535, 28.71526
145.9356, 27.92232
146.4177, 27.89452
146.8998, 28.90454
147.3820, 30.72496
147.8641, 32.44239
148.3462, 33.64419
148.8283, 35.10860
149.3104, 37.30491
149.7925, 41.25989
150.2747, 44.58733
150.7568, 46.68713
151.2389, 47.70480
151.7210, 49.43494
152.2031, 52.81965
152.6852, 56.32448
153.1674, 59.03308
153.6495, 59.24516
154.1316, 60.37457
154.6137, 63.57607
155.0958, 68.91224
155.5779, 72.97280
156.0601, 75.42933
156.5422, 76.42566
157.0243, 76.04582
157.5064, 72.76977
157.9885, 69.54560
158.4706, 67.21368
158.9528, 65.89390
159.4349, 64.81644
159.9170, 63.91377
160.3991, 63.11122
160.8812, 62.32251
161.3633, 61.18703
161.8455, 60.32904
162.3276, 60.09607
162.8097, 60.62225
163.2918, 61.27230
163.7739, 61.59256
164.2560, 61.83343
164.7382, 62.10586
165.2203, 63.97552
165.7024, 65.67007
166.1845, 65.65273
166.6666, 63.05465
167.1487, 61.04216
167.6309, 61.78661
168.1130, 64.35646
168.5951, 66.77897
169.0772, 67.94423
169.5593, 68.68221
170.0414, 69.68006
170.5236, 71.08297
171.0057, 72.69780
171.4878, 74.51553
171.9699, 76.47695
172.4520, 78.36181
172.9341, 80.34883
173.4163, 82.10865
173.8984, 83.31361
174.3805, 84.06864
174.8626, 83.98692
175.3447, 82.40579
175.8268, 79.54722
176.3090, 76.40857
176.7911, 73.45524
177.2732, 70.72299
177.7553, 68.33260
178.2374, 66.47224
178.7195, 64.77103
179.2017, 62.53157
179.6838, 59.82072
180.1659, 57.50757
180.6480, 56.38316
181.1301, 56.14503
181.6122, 56.06188
182.0944, 55.87977
182.5765, 55.77077
183.0586, 56.34285
183.5407, 57.57544
184.0228, 58.38172
184.5049, 57.15942
184.9871, 54.51979
185.4692, 52.76396
185.9513, 53.16599
186.4334, 54.69929
186.9155, 54.67255
187.3976, 52.95525
187.8798, 51.20258
188.3619, 51.40688
188.8440, 53.26601
189.3261, 54.84190
189.8082, 55.52927
190.2903, 55.44179
190.7725, 54.71498
191.2546, 53.17585
191.7367, 51.85682
192.2188, 52.16532
192.7009, 54.01936
193.1830, 55.86667
193.6652, 57.24054
194.1473, 58.16078
194.6294, 58.53778
195.1115, 58.25915
195.5936, 57.81511
196.0757, 58.05092
196.5579, 59.00676
197.0400, 59.49206
197.5221, 58.76302
198.0042, 56.93342
198.4863, 55.80486
198.9684, 55.58870
199.4506, 55.61725
199.9327, 54.68281
200.4148, 52.62590
200.8969, 51.02116
201.3790, 50.78065
201.8611, 51.97534
202.3433, 52.38305
202.8254, 51.78921
203.3075, 50.75012
203.7896, 50.35897
204.2717, 50.81368
204.7538, 50.90032
205.2360, 49.78234
205.7181, 47.21339
206.2002, 45.79353
206.6823, 45.79714
207.1644, 46.61283
207.6465, 47.10140
208.1287, 47.13630
208.6108, 47.27235
209.0929, 47.91178
209.5750, 49.27886
210.0571, 49.88548
210.5392, 49.50260
211.0214, 48.57422
211.5035, 47.92907
211.9856, 47.50270
212.4677, 47.54435
212.9498, 48.40710
213.4319, 50.48523
213.9140, 51.66880
214.3962, 51.79073
214.8783, 51.10522
215.3604, 50.01282
215.8425, 48.08142
216.3246, 46.68713
216.8067, 46.63527
217.2889, 48.46798
217.7710, 49.76805
218.2531, 50.41500
218.7352, 50.55182
219.2173, 50.45234
219.6994, 49.89174
220.1816, 49.52318
220.6637, 49.64334
221.1458, 50.35407
221.6279, 51.32040
222.1100, 52.79356
222.5921, 54.42451
223.0743, 55.29078
223.5564, 55.10637
224.0385, 54.65306
224.5206, 54.21180
225.0027, 53.58410
225.4848, 53.52357
225.9670, 54.29826
226.4491, 55.56121
226.9312, 56.39021
227.4133, 56.53694
227.8954, 56.64345
228.3775, 57.05143
228.8597, 58.05554
229.3418, 58.58715
229.8239, 58.24141
230.3060, 57.51752
230.7881, 57.95424
231.2702, 60.49218
231.7524, 62.77096
232.2345, 63.59146
232.7166, 62.10473
233.1987, 61.16883
233.6808, 60.89745
234.1629, 61.15653
234.6451, 61.58493
235.1272, 62.07420
235.6093, 62.89257
236.0914, 64.31316
236.5735, 67.09769
237.0556, 68.66659
237.5378, 68.36607
238.0199, 67.04514
238.5020, 66.97822
238.9841, 69.19876
239.4662, 71.14620
239.9483, 71.55852
240.4305, 69.29899
240.9126, 68.23820
241.3947, 69.00068
241.8768, 70.76402
242.3589, 71.54144
242.8410, 71.19380
243.3232, 70.07601
243.8053, 68.09797
244.2874, 64.27516
244.7695, 62.03656
245.2516, 61.95495
245.7337, 63.21209
246.2159, 64.01555
246.6980, 64.24241
247.1801, 64.21080
247.6622, 64.04704
248.1443, 63.78582
248.6264, 63.28498
249.1086, 62.48815
249.5907, 61.47878
250.0728, 60.34778
250.5549, 58.75687
251.0370, 57.61745
251.5191, 57.41942
252.0013, 58.61269
252.4834, 59.21019
252.9655, 58.93237
253.4476, 58.22123
253.9297, 57.96520
254.4118, 58.57718
254.8940, 58.87288
255.3761, 58.32633
255.8582, 56.63534
256.3403, 55.25921
256.8224, 54.09097
257.3046, 53.31540
257.7867, 53.36779
258.2688, 54.66275
258.7509, 55.91517
259.2330, 56.68956
259.7151, 56.92170
260.1973, 57.09593
260.6794, 57.22332
261.1615, 57.28079
261.6436, 57.16533
262.1257, 56.69116
262.6078, 56.50737
263.0900, 56.95292
263.5721, 58.14935
264.0542, 58.74741
264.5363, 58.48784
265.0184, 57.94561
265.5005, 57.87281
265.9827, 58.40875
266.4648, 59.00221
266.9469, 59.45162
267.4290, 59.74412
267.9111, 60.46037
268.3932, 61.92085
268.8754, 63.29773
269.3575, 63.45452
269.8396, 61.95795
270.3217, 60.83650
270.8038, 60.60280
271.2859, 61.22356
271.7681, 62.14998
272.2502, 63.49974
272.7323, 64.91160
273.2144, 65.94140
273.6965, 66.51257
274.1786, 67.15323
274.6608, 68.02242
275.1429, 69.07070
275.6250, 69.87971
276.1071, 70.31329
276.5892, 70.89322
277.0714, 72.23808
277.5535, 74.47246
278.0356, 76.36703
278.5177, 77.63741
278.9998, 78.41221
279.4819, 79.26616
279.9641, 80.27991
280.4462, 81.07426
280.9283, 81.03450
281.4104, 80.10743
281.8925, 80.14452
282.3746, 81.74412
282.8568, 84.24710
283.3389, 85.74239
283.8210, 86.13938
284.3031, 86.22840
284.7852, 86.32727
285.2673, 86.46622
285.7495, 87.39632
286.2316, 89.52968
286.7137, 92.03340
287.1958, 92.90661
287.6779, 92.09383
288.1600, 91.32837
288.6422, 91.97773
289.1243, 93.79066
289.6064, 94.84959
290.0885, 94.89236
290.5706, 94.44270
291.0527, 94.30529
291.5349, 94.46159
292.0170, 94.62876
292.4991, 94.83301
292.9812, 94.95284
293.4633, 94.48634
293.9454, 93.35494
294.4276, 91.86194
294.9097, 90.06767
295.3918, 88.11425
295.8739, 86.80322
296.3560, 87.40709
296.8381, 88.84696
297.3203, 88.26254
297.8024, 85.43072
298.2845, 82.17110
298.7666, 80.22274
299.2487, 79.39851
299.7308, 79.07730
300.2130, 79.81474
300.6951, 80.59881
301.1772, 79.41561
301.6593, 76.28108
302.1414, 72.97784
302.6235, 70.62998
303.1057, 69.27536
303.5878, 69.13902
304.0699, 71.49345
304.5520, 74.13572
305.0341, 73.95402
305.5162, 71.28176
305.9984, 68.92290
306.4805, 69.32995
306.9626, 71.19935
307.4447, 72.73315
307.9268, 73.44814
308.4089, 73.69238
308.8911, 73.72818
309.3732, 73.54484
309.8553, 73.09986
310.3374, 72.20675
310.8195, 71.11226
311.3016, 70.02705
311.7838, 68.89245
312.2659, 67.99720
312.7480, 67.60973
313.2301, 67.62609
313.7122, 67.77539
314.1943, 68.33858
314.6765, 68.73125
315.1586, 68.46392
315.6407, 67.31239
316.1228, 66.06144
316.6049, 64.99947
317.0870, 64.09618
317.5692, 63.31623
318.0513, 62.89671
318.5334, 62.38309
319.0155, 61.46487
319.4976, 60.03213
319.9797, 58.75796
320.4619, 57.80871
320.9440, 57.14704
321.4261, 56.74086
321.9082, 57.11538
322.3903, 57.22271
322.8724, 56.43589
323.3546, 54.71845
323.8367, 53.68507
324.3188, 54.36533
324.8009, 55.45155
325.2830, 55.93808
325.7651, 55.54951
326.2473, 54.73824
326.7294, 53.14444
327.2115, 50.94958
327.6936, 49.55902
328.1757, 50.05025
328.6578, 50.65027
329.1400, 50.46734
329.6221, 48.35204
330.1042, 47.01217
330.5863, 46.67267
331.0684, 47.12590
331.5505, 47.81626
332.0327, 49.36251
332.5148, 50.42341
332.9969, 50.37216
333.4790, 48.70251
333.9611, 47.28408
334.4432, 45.95906
334.9254, 44.97460
335.4075, 44.85105
335.8896, 46.00963
336.3717, 47.19161
336.8538, 48.11246
337.3359, 48.81637
337.8180, 48.72759
338.3001, 47.47668
338.7823, 46.00051
339.2644, 45.46225
339.7465, 46.08349
340.2286, 46.66502
340.7107, 46.95825
341.1928, 46.97836
341.6750, 46.69388
342.1571, 45.96942
342.6392, 45.42392
343.1213, 45.82133
343.6034, 47.18014
344.0855, 47.92947
344.5677, 47.68077
345.0498, 46.80187
345.5319, 45.97471
346.0140, 45.18135
346.4961, 44.93513
346.9782, 46.02721
347.4604, 48.10088
347.9425, 49.32555
348.4246, 49.45576
348.9067, 48.97532
349.3888, 48.44571
349.8709, 47.87595
350.3531, 47.31350
350.8352, 46.68071
351.3173, 46.09569
351.7994, 45.80091
352.2815, 45.81680
352.7636, 46.00179
353.2458, 46.27244
353.7279, 46.61009
354.2100, 46.97559
354.6921, 47.38825
355.1742, 47.79595
355.6563, 48.17134
356.1385, 48.50744
356.6206, 48.75627
357.1027, 48.89077
357.5848, 48.91640
358.0669, 48.82260
358.5490, 48.49474
359.0312, 48.21358
359.5133, 48.22554
359.9954, 48.44239
360.4775, 48.59009
360.9596, 48.28698
361.4417, 48.03302
361.9239, 48.28733
362.4060, 49.41497
362.8881, 50.17989
363.3702, 49.45611
363.8523, 48.20297
364.3344, 47.89130
364.8166, 50.33398
365.2987, 52.54832
365.7808, 53.09742
366.2629, 51.67532
366.7450, 50.77586
367.2271, 51.16089
367.7093, 52.05292
368.1914, 52.76847
368.6735, 53.16357
369.1556, 53.47602
369.6377, 53.69455
370.1198, 53.83446
370.6020, 54.01960
371.0841, 54.50081
371.5662, 54.79443
372.0483, 54.60060
372.5304, 53.49354
373.0125, 52.69099
373.4947, 52.23619
373.9768, 52.09850
374.4589, 52.27446
374.9410, 52.99382
375.4231, 53.55817
375.9052, 53.72508
376.3874, 53.48111
376.8695, 52.77617
377.3516, 51.24040
377.8337, 49.85453
378.3158, 50.09566
378.7979, 52.23148
379.2801, 53.99862
379.7622, 54.76168
380.2443, 54.68218
380.7264, 54.42474
381.2085, 53.96432
381.6906, 53.50951
382.1728, 53.29017
382.6549, 53.25753
383.1370, 53.11474
383.6191, 52.80085
384.1012, 52.37105
384.5833, 51.78748
385.0655, 51.09602
385.5476, 50.63367
386.0297, 50.94591
386.5118, 51.52906
386.9939, 51.20403
387.4760, 49.71271
387.9582, 48.47998
388.4403, 49.35784
388.9224, 51.47340
389.4045, 53.00360
389.8866, 52.66609
390.3687, 51.80349
390.8509, 51.71428
391.3330, 52.31075
391.8151, 52.50909
392.2972, 51.08895
392.7793, 49.22506
393.2614, 48.05928
393.7436, 48.22587
394.2257, 48.66955
394.7078, 49.26490
395.1899, 49.83378
395.6720, 49.90808
396.1541, 48.79728
396.6363, 47.59135
397.1184, 46.82092
397.6005, 46.66421
398.0826, 46.55519
398.5647, 46.35608
399.0468, 46.17801
399.5290, 46.15570
400.0111, 46.56721
400.4932, 46.84403
400.9753, 46.85653
401.4574, 46.60486
401.9395, 46.33651
402.4217, 45.84857
402.9038, 45.55285
403.3859, 45.83645
403.8680, 47.24410
404.3501, 47.88556
404.8322, 47.36964
405.3144, 46.13018
405.7965, 45.44609
406.2786, 45.59291
406.7607, 45.35974
407.2428, 43.76783
407.7249, 40.72522
408.2071, 39.50937
408.6892, 40.45244
409.1713, 42.20958
409.6534, 43.20046
410.1355, 43.44736
410.6176, 43.50488
411.0998, 43.47821
411.5819, 43.40718
412.0640, 43.30726
412.5461, 43.18827
413.0282, 43.28456
413.5103, 44.18254
413.9925, 45.37495
414.4746, 45.74614
414.9567, 44.97211
415.4388, 43.76054
415.9209, 42.47960
416.4030, 41.30755
416.8852, 40.65275
417.3673, 41.41191
417.8494, 42.33099
418.3315, 42.09227
418.8136, 40.60610
419.2957, 39.51685
419.7779, 40.24207
420.2600, 41.61910
420.7421, 42.47115
421.2242, 41.83595
421.7063, 41.28519
422.1884, 41.65386
422.6706, 42.60135
423.1527, 42.85305
423.6348, 40.91373
424.1169, 39.17685
424.5990, 38.92412
425.0811, 41.42082
425.5633, 42.70200
426.0454, 41.52879
426.5275, 39.54235
427.0096, 38.88009
427.4917, 40.80402
427.9738, 42.13718
428.4560, 42.08418
428.9381, 40.71040
429.4202, 39.42729
429.9023, 37.97837
430.3844, 37.11153
430.8665, 37.70406
431.3487, 40.13100
431.8308, 41.66084
432.3129, 41.88781
432.7950, 41.33057
433.2771, 40.99441
433.7592, 40.89030
434.2414, 40.79232
434.7235, 40.64872
435.2056, 40.43312
435.6877, 39.86246
436.1698, 38.88583
436.6519, 38.19263
437.1341, 38.82615
437.6162, 40.30524
438.0983, 41.38704
438.5804, 41.67696
439.0625, 41.51214
439.5446, 41.09377
440.0268, 40.49994
440.5089, 40.01505
440.9910, 39.87137
441.4731, 39.87232
441.9552, 39.88151
442.4373, 39.90613
442.9195, 39.80281
443.4016, 39.27521
443.8837, 38.65123
444.3658, 38.32949
444.8479, 38.68340
445.3300, 39.09995
445.8122, 39.30681
446.2943, 39.34896
446.7764, 39.66835
447.2585, 41.21827
447.7406, 42.37768
448.2227, 42.20064
448.7049, 39.39206
449.1870, 37.76063
449.6691, 37.79317
450.1512, 38.77028
450.6333, 39.63551
451.1154, 40.53628
451.5976, 40.99535
452.0797, 40.69054
452.5618, 39.70777
453.0439, 39.35879
453.5260, 39.73770
454.0081, 40.47005
454.4903, 41.53735
454.9724, 42.91649
455.4545, 43.43473
455.9366, 42.77034
456.4187, 41.55565
456.9008, 40.74760
457.3830, 40.32549
457.8651, 40.19940
458.3472, 40.44336
458.8293, 40.90991
459.3114, 41.45668
459.7935, 42.07179
460.2757, 42.42640
460.7578, 42.18134
461.2399, 41.52832
461.7220, 40.67958
462.2041, 39.44062
462.6862, 38.43201
463.1684, 38.07726
463.6505, 38.25464
464.1326, 38.69379
464.6147, 39.73280
465.0968, 40.64085
465.5789, 41.00197
466.0611, 40.74096
466.5432, 40.31949
467.0253, 39.47532
467.5074, 38.69800
467.9895, 38.40107
468.4716, 38.90142
468.9538, 39.51954
469.4359, 40.40326
469.9180, 41.36890
470.4001, 41.78518
470.8822, 41.39739
471.3643, 40.91010
471.8465, 40.65769
472.3286, 40.69662
472.8107, 40.29433
473.2928, 39.29600
473.7749, 38.25045
474.2570, 37.68327
474.7392, 37.59452
475.2213, 38.20127
475.7034, 39.91383
476.1855, 41.90802
476.6676, 42.25457
477.1497, 41.10376
477.6319, 39.88437
478.1140, 39.21572
478.5961, 39.10027
479.0782, 39.77494
479.5603, 41.31713
480.0424, 42.74908
480.5246, 43.39613
481.0067, 43.39895
481.4888, 42.92452
481.9709, 41.23936
482.4530, 39.99652
482.9352, 40.49220
483.4173, 42.19983
483.8994, 43.45503
484.3815, 43.36759
484.8636, 42.96996
485.3457, 42.74546
485.8279, 42.78859
486.3100, 42.78866
486.7921, 42.64769
487.2742, 42.49260
487.7563, 42.44600
488.2384, 42.65425
488.7206, 42.70978
489.2027, 42.49916
489.6848, 42.11473
490.1669, 41.86537
490.6490, 41.73878
491.1311, 41.79369
491.6133, 42.16503
492.0954, 42.84541
492.5775, 43.10743
493.0596, 42.83280
493.5417, 42.63857
494.0238, 43.49835
494.5060, 45.12732
494.9881, 46.16351
495.4702, 46.16145
495.9523, 45.56675
496.4344, 44.68601
496.9165, 43.66541
497.3987, 43.05641
497.8808, 43.36468
498.3629, 44.10665
498.8450, 44.86188
499.3271, 45.60453
499.8092, 46.34616
500.2914, 47.39730
500.7735, 48.30734
501.2556, 48.66917
501.7377, 47.84151
502.2198, 47.09904
502.7019, 46.68938
503.1841, 46.56084
503.6662, 46.56712
504.1483, 46.90741
504.6304, 47.15459
505.1125, 47.12292
505.5946, 46.77076
506.0768, 46.67633
506.5589, 46.87621
507.0410, 47.28330
507.5231, 47.95536
508.0052, 49.00387
508.4873, 49.56338
508.9695, 49.48626
509.4516, 48.94787
509.9337, 48.07487
510.4158, 46.89836
510.8979, 46.02319
511.3800, 46.00375
511.8622, 46.36898
512.3443, 45.89618
512.8264, 44.63609
513.3085, 43.46536
513.7906, 43.48977
514.2728, 43.83817
514.7549, 43.09946
515.2370, 40.43837
515.7191, 38.41787
516.2012, 39.57052
516.6833, 42.20484
517.1655, 43.73896
517.6476, 42.41582
518.1297, 40.77588
518.6118, 39.49585
519.0939, 38.60687
519.5760, 38.14318
520.0582, 38.72997
520.5403, 39.21540
521.0224, 39.01416
521.5045, 37.65648
521.9866, 37.00933
522.4688, 37.30384
522.9509, 38.05411
523.4330, 38.79521
523.9151, 39.61394
524.3972, 39.87151
524.8793, 39.19569
525.3615, 38.06994
525.8436, 37.80436
526.3257, 38.39019
526.8078, 39.18005
527.2899, 40.18195
527.7720, 41.05781
528.2542, 40.77418
528.7363, 39.25482
529.2184, 37.73479
529.7005, 37.26526
530.1826, 37.44414
530.6647, 37.82270
531.1469, 38.71907
531.6290, 39.04279
532.1111, 37.40098
532.5932, 34.79643
533.0753, 33.27866
533.5574, 34.27484
534.0396, 35.63871
534.5217, 36.71998
535.0038, 37.46771
535.4859, 38.09540
535.9680, 38.41186
536.4501, 38.79736
536.9323, 39.57952
537.4144, 41.23450
537.8965, 41.86650
538.3786, 41.08094
538.8607, 39.75519
539.3428, 39.28887
539.8250, 39.75003
540.3071, 40.06847
540.7892, 39.83376
541.2713, 39.34369
541.7534, 39.35711
542.2355, 39.84050
542.7177, 40.43633
543.1998, 41.10262
543.6819, 41.67514
544.1640, 41.92517
544.6461, 41.84092
545.1282, 41.41029
545.6104, 39.97491
546.0925, 38.45421
546.5746, 37.92067
547.0567, 39.38877
547.5388, 40.87230
548.0209, 41.89138
548.5031, 42.43886
548.9852, 42.52606
549.4673, 41.26762
549.9494, 40.48551
550.4315, 40.70782
550.9136, 41.93056
551.3958, 43.37101
551.8779, 45.49865
552.3600, 47.05513
552.8421, 46.94878
553.3242, 44.92273
553.8063, 43.69067
554.2885, 43.42760
554.7706, 43.79327
555.2527, 44.60961
555.7348, 45.76561
556.2169, 46.57640
556.6990, 46.84200
557.1812, 46.64503
557.6633, 45.84927
558.1454, 44.61677
558.6275, 43.55377
559.1096, 42.92954
559.5917, 42.67950
560.0739, 43.01441
560.5560, 43.96049
561.0381, 44.41186
561.5202, 43.29530
562.0023, 41.88854
562.4844, 41.14881
562.9666, 41.72750
563.4487, 42.20749
563.9308, 42.52007
564.4129, 42.68456
564.8950, 42.66884
565.3771, 42.23629
565.8593, 42.19722
566.3414, 42.95512
566.8235, 44.21619
567.3056, 44.60891
567.7877, 44.04464
568.2698, 43.23087
568.7520, 42.49964
569.2341, 41.85516
569.7162, 41.18996
570.1983, 40.48429
570.6804, 40.11736
571.1625, 40.97820
571.6447, 42.28582
572.1268, 42.66694
572.6089, 41.35021
573.0910, 40.01879
573.5731, 39.99752
574.0552, 40.66010
574.5374, 40.91056
575.0195, 39.36639
575.5016, 38.39326
575.9837, 39.35109
576.4658, 42.00706
576.9479, 43.32690
577.4301, 42.51881
577.9122, 41.21761
578.3943, 39.95382
578.8764, 38.61274
579.3585, 38.10305
579.8406, 38.66557
580.3228, 39.52277
580.8049, 39.81281
581.2870, 39.57473
581.7691, 39.59021
582.2512, 40.09676
582.7333, 40.65618
583.2155, 40.38446
583.6975, 39.57660
584.1796, 39.15061
584.6617, 40.25971
585.1439, 41.41269
585.6260, 41.03455
586.1081, 39.39434
586.5902, 37.86701
587.0723, 36.69817
587.5544, 36.14098
588.0366, 36.59250
588.5187, 38.49969
589.0008, 39.61227
589.4829, 39.25208
589.9650, 38.27232
590.4471, 37.20869
590.9293, 35.76928
591.4114, 34.96688
591.8935, 35.04845
592.3756, 35.58826
592.8577, 35.82504
593.3398, 35.73932
593.8220, 35.64957
594.3041, 35.64138
594.7862, 35.70753
595.2683, 35.85736
595.7504, 36.07962
596.2325, 36.30155
596.7147, 36.66186
597.1968, 36.89730
597.6789, 36.56403
598.1610, 35.62064
598.6431, 34.83127
599.1252, 34.77476
599.6074, 34.97221
600.0895, 35.02306
600.5716, 34.71971
601.0537, 34.50530
601.5358, 34.66653
602.0179, 34.86511
602.5001, 34.61544
602.9822, 33.55191
603.4643, 32.77589
603.9464, 32.48957
604.4285, 32.60512
604.9106, 32.89406
605.3928, 33.37732
605.8749, 33.81873
606.3570, 34.11295
606.8391, 34.27309
607.3212, 34.19704
607.8033, 33.90531
608.2855, 33.91952
608.7676, 35.09922
609.2497, 36.62859
609.7318, 37.43375
610.2139, 37.29094
610.6960, 36.77222
611.1782, 35.70073
611.6603, 34.63688
612.1424, 34.16637
612.6245, 34.96133
613.1066, 35.71511
613.5887, 36.26299
614.0709, 36.66143
614.5530, 37.06386
615.0351, 37.61977
615.5172, 37.82441
615.9993, 37.40967
616.4814, 36.53339
616.9636, 36.01200
617.4457, 35.85138
617.9278, 35.97663
618.4099, 36.45304
618.8920, 37.17072
619.3741, 37.96215
619.8563, 38.83363
620.3384, 39.37252
620.8205, 38.75955
621.3026, 37.82876
621.7847, 37.72295
622.2668, 39.09618
622.7490, 40.15935
623.2311, 39.57615
623.7132, 38.43074
624.1953, 38.10929
624.6774, 39.87758
625.1595, 41.22743
625.6417, 41.91766
626.1238, 41.98473
626.6059, 41.33918
627.0880, 39.54402
627.5701, 38.37286
628.0522, 38.70266
628.5344, 40.16406
629.0165, 40.88355
629.4986, 40.84895
629.9807, 40.61803
630.4628, 40.48077
630.9449, 40.45112
631.4271, 40.62313
631.9092, 41.01382
632.3913, 41.31243
632.8734, 40.95001
