##NAMES=Fayalite
##RRUFFID=R100102
##IDEAL CHEMISTRY=Fe^2+^_2_SiO_4_
##LOCALITY=Bushveld Intrusive, 7 km east of Olepane, Limpopo Province, South Africa
##OWNER=RRUFF
##SOURCE=American Museum of Natural History
##DESCRIPTION=Pale brown fragments, variety hortonolite
##STATUS=The identification of this mineral is confirmed by single-crystal X-ray diffraction and chemical analysis.
##URL=rruff.info/R100102
##MEASURED CHEMISTRY=(Fe^+2^_1.100_Mg_0.883_Mn^+2^_0.014_Ca_0.002_Zn_0.001_Al_0.001_)_Î£=2.001_Si_0.999_O_4_
121.9066, 90.57491
122.3887, 90.66562
122.8708, 90.45484
123.3529, 89.67245
123.8350, 88.90065
124.3171, 88.49326
124.7993, 88.42259
125.2814, 88.34483
125.7635, 87.89990
126.2456, 86.98647
126.7277, 86.12514
127.2098, 85.28921
127.6920, 84.52377
128.1741, 83.87431
128.6562, 83.35670
129.1383, 82.93711
129.6204, 82.65833
130.1025, 82.50577
130.5847, 82.22100
131.0668, 81.63933
131.5489, 80.82954
132.0310, 80.02122
132.5131, 79.20425
132.9952, 78.46612
133.4774, 77.89212
133.9595, 77.48148
134.4416, 77.09861
134.9237, 76.63399
135.4058, 76.08096
135.8879, 75.48098
136.3701, 74.91833
136.8522, 74.26437
137.3343, 73.31269
137.8164, 72.02848
138.2985, 70.75613
138.7806, 70.11914
139.2628, 70.57321
139.7449, 70.86620
140.2270, 70.81571
140.7091, 70.60629
141.1912, 70.42905
141.6733, 70.37025
142.1555, 70.34113
142.6376, 70.03537
143.1197, 69.09760
143.6018, 68.25908
144.0839, 67.68328
144.5660, 67.24582
145.0482, 66.73769
145.5303, 66.03011
146.0124, 65.15459
146.4945, 64.33645
146.9766, 63.32849
147.4587, 62.59518
147.9409, 62.62247
148.4230, 63.22328
148.9051, 63.52253
149.3872, 62.75695
149.8693, 61.12950
150.3514, 60.05206
150.8336, 59.76184
151.3157, 59.89753
151.7978, 60.26209
152.2799, 60.89801
152.7620, 61.43620
153.2441, 61.51036
153.7263, 61.29601
154.2084, 61.05037
154.6905, 60.85299
155.1726, 60.68241
155.6547, 60.50588
156.1368, 60.36970
156.6190, 60.13308
157.1011, 59.64453
157.5832, 59.01512
158.0653, 58.45284
158.5474, 58.07457
159.0295, 57.87717
159.5117, 57.83026
159.9938, 58.14704
160.4759, 58.40928
160.9580, 58.41633
161.4401, 58.23195
161.9222, 58.03837
162.4044, 57.99473
162.8865, 58.11728
163.3686, 58.30324
163.8507, 58.90918
164.3328, 59.27851
164.8149, 59.02767
165.2971, 58.19245
165.7792, 57.10201
166.2613, 56.09275
166.7434, 55.07174
167.2255, 54.50100
167.7076, 54.69749
168.1898, 55.05618
168.6719, 55.15356
169.1540, 54.90596
169.6361, 54.51415
170.1182, 54.25975
170.6003, 54.22532
171.0825, 54.12479
171.5646, 53.74353
172.0467, 53.36878
172.5288, 53.42281
173.0109, 54.07110
173.4930, 54.89158
173.9752, 55.10932
174.4573, 54.65465
174.9394, 54.31742
175.4215, 54.40703
175.9036, 54.77837
176.3857, 55.12993
176.8679, 55.41985
177.3500, 55.58813
177.8321, 55.53546
178.3142, 55.24422
178.7963, 54.96288
179.2784, 54.91591
179.7606, 55.05821
180.2427, 55.00360
180.7248, 54.44528
181.2069, 53.83018
181.6890, 53.54374
182.1711, 53.61914
182.6533, 53.87632
183.1354, 54.26847
183.6175, 54.85575
184.0996, 55.10086
184.5817, 54.43999
185.0638, 53.65666
185.5460, 53.22535
186.0281, 53.24363
186.5102, 53.44135
186.9923, 53.43394
187.4744, 53.12313
187.9565, 52.86487
188.4387, 52.72902
188.9208, 52.63802
189.4029, 52.56252
189.8850, 52.48740
190.3671, 52.37976
190.8492, 52.16146
191.3314, 51.70768
191.8135, 51.34988
192.2956, 51.02468
192.7777, 50.83049
193.2598, 50.91945
193.7419, 51.34185
194.2241, 51.93333
194.7062, 52.29834
195.1883, 52.42854
195.6704, 52.29245
196.1525, 51.68870
196.6346, 50.88295
197.1168, 50.15948
197.5989, 49.63894
198.0810, 49.29274
198.5631, 49.05328
199.0452, 49.00376
199.5273, 48.94209
200.0095, 48.82690
200.4916, 48.68080
200.9737, 48.50771
201.4558, 48.28019
201.9379, 48.08612
202.4200, 48.23143
202.9022, 49.01652
203.3843, 49.56260
203.8664, 49.37614
204.3485, 48.68515
204.8306, 48.11995
205.3127, 47.96636
205.7949, 48.08802
206.2770, 48.18026
206.7591, 48.29161
207.2412, 48.28454
207.7233, 48.02325
208.2054, 47.54345
208.6876, 47.06953
209.1697, 46.68312
209.6518, 46.35832
210.1339, 46.02629
210.6160, 45.65119
211.0981, 45.37019
211.5803, 45.40449
212.0624, 45.75574
212.5445, 45.89727
213.0266, 45.36507
213.5087, 44.70935
213.9908, 44.51818
214.4730, 44.94794
214.9551, 45.45464
215.4372, 45.33362
215.9193, 44.44470
216.4014, 43.80079
216.8835, 44.03717
217.3657, 44.43377
217.8478, 44.37985
218.3299, 43.71662
218.8120, 43.07876
219.2941, 43.56105
219.7762, 45.72650
220.2584, 47.12980
220.7405, 46.82243
221.2226, 45.97290
221.7047, 45.34431
222.1868, 45.14402
222.6689, 45.08364
223.1511, 44.64190
223.6332, 43.46944
224.1153, 42.72698
224.5974, 42.63459
225.0795, 42.86224
225.5616, 43.30114
226.0438, 43.88229
226.5259, 44.41908
227.0080, 44.57052
227.4901, 44.12452
227.9722, 43.64583
228.4543, 42.93531
228.9365, 42.33407
229.4186, 42.18107
229.9007, 42.54487
230.3828, 43.16425
230.8649, 43.58773
231.3470, 43.71064
231.8292, 43.78185
232.3113, 43.73165
232.7934, 43.67406
233.2755, 43.81960
233.7576, 44.19083
234.2397, 44.46459
234.7219, 44.06083
235.2040, 42.15150
235.6861, 41.07071
236.1682, 41.31519
236.6503, 42.09455
237.1324, 42.69409
237.6146, 42.92549
238.0967, 43.10369
238.5788, 43.75020
239.0609, 45.30425
239.5430, 46.25712
240.0251, 46.28343
240.5073, 45.81776
240.9894, 45.13713
241.4715, 44.30894
241.9536, 43.61187
242.4357, 43.48803
242.9178, 44.10830
243.4000, 44.55148
243.8821, 44.66463
244.3642, 44.59081
244.8463, 44.50391
245.3284, 44.44282
245.8106, 44.27072
246.2927, 43.66434
246.7748, 42.58214
247.2569, 42.04516
247.7390, 42.64138
248.2211, 43.67254
248.7033, 44.34626
249.1854, 44.54182
249.6675, 44.41203
250.1496, 43.91465
250.6317, 43.12274
251.1138, 42.61061
251.5960, 42.84087
252.0781, 43.26898
252.5602, 43.11166
253.0423, 42.22117
253.5244, 41.20156
254.0065, 40.40802
254.4887, 39.87267
254.9708, 39.80834
255.4529, 40.84212
255.9350, 42.14959
256.4171, 42.37810
256.8992, 41.24413
257.3813, 40.15827
257.8635, 40.48237
258.3456, 41.52319
258.8277, 42.12296
259.3098, 41.70022
259.7919, 40.80982
260.2740, 40.20055
260.7562, 39.89300
261.2383, 39.77783
261.7204, 39.88477
262.2025, 40.12782
262.6846, 40.44054
263.1667, 40.87269
263.6489, 41.28241
264.1310, 41.45009
264.6131, 41.33273
265.0952, 41.15946
265.5773, 41.08000
266.0594, 40.97615
266.5416, 40.69680
267.0237, 40.15721
267.5058, 39.54980
267.9879, 39.04679
268.4700, 38.58882
268.9521, 38.52421
269.4343, 39.50502
269.9164, 40.65852
270.3985, 41.28857
270.8806, 41.20745
271.3627, 40.81309
271.8448, 40.59286
272.3270, 40.59454
272.8091, 40.51481
273.2912, 40.00686
273.7733, 39.57155
274.2554, 39.60577
274.7375, 40.16242
275.2197, 40.84686
275.7018, 41.18826
276.1839, 41.11541
276.6660, 41.15445
277.1481, 41.58757
277.6302, 41.99653
278.1124, 42.25227
278.5945, 42.30822
279.0766, 42.07148
279.5587, 41.30968
280.0408, 39.92938
280.5229, 38.85373
281.0051, 38.09436
281.4872, 37.71516
281.9693, 37.94216
282.4514, 38.63554
282.9335, 39.37405
283.4156, 39.81364
283.8978, 39.95000
284.3799, 39.99601
284.8620, 39.91022
285.3441, 39.76394
285.8262, 39.55822
286.3083, 39.31105
286.7905, 39.05130
287.2726, 38.79532
287.7547, 38.54457
288.2368, 38.30429
288.7189, 37.84135
289.2010, 37.69889
289.6832, 38.28403
290.1653, 39.21852
290.6474, 39.96991
291.1295, 40.24343
291.6116, 40.08494
292.0938, 39.62916
292.5759, 38.48078
293.0580, 37.61295
293.5401, 37.31394
294.0222, 37.32823
294.5043, 37.34875
294.9865, 37.23321
295.4686, 37.12178
295.9507, 37.42387
296.4328, 38.65410
296.9149, 39.35347
297.3970, 38.93756
297.8792, 38.22627
298.3613, 37.98186
298.8434, 38.41884
299.3255, 39.11578
299.8076, 39.33401
300.2897, 38.74714
300.7719, 38.41859
301.2540, 38.49420
301.7361, 38.72864
302.2182, 39.08845
302.7003, 39.50475
303.1824, 39.76895
303.6646, 39.54711
304.1467, 38.60160
304.6288, 38.04251
305.1109, 38.26060
305.5930, 38.49649
306.0751, 38.32555
306.5573, 37.81471
307.0394, 37.33324
307.5215, 37.22576
308.0036, 37.51826
308.4857, 37.80445
308.9678, 38.26367
309.4500, 38.53595
309.9321, 38.32030
310.4142, 37.83698
310.8963, 37.57862
311.3784, 37.94637
311.8605, 38.79461
312.3427, 38.95234
312.8248, 37.37712
313.3069, 36.31555
313.7890, 36.45937
314.2711, 37.25683
314.7532, 38.01585
315.2354, 38.39740
315.7175, 38.48717
316.1996, 38.52208
316.6817, 38.51826
317.1638, 38.42138
317.6459, 38.07856
318.1281, 37.72980
318.6102, 37.63231
319.0923, 37.85473
319.5744, 38.20583
320.0565, 38.34309
320.5386, 38.08661
321.0208, 38.03748
321.5029, 38.63721
321.9850, 39.10804
322.4671, 38.73653
322.9492, 37.57772
323.4313, 36.44442
323.9135, 36.35286
324.3956, 37.63944
324.8777, 38.25016
325.3598, 37.31025
325.8419, 36.50483
326.3240, 36.63865
326.8062, 37.49333
327.2883, 38.32660
327.7704, 38.55200
328.2525, 38.20646
328.7346, 37.96857
329.2167, 38.02443
329.6989, 37.97525
330.1810, 37.71702
330.6631, 37.29699
331.1452, 36.77683
331.6273, 36.17993
332.1094, 35.53655
332.5916, 34.90584
333.0737, 34.07568
333.5558, 33.66043
334.0379, 34.18458
334.5200, 34.88724
335.0021, 34.93437
335.4843, 34.07605
335.9664, 32.94068
336.4485, 32.68991
336.9306, 33.87057
337.4127, 34.28536
337.8948, 32.94259
338.3770, 31.40409
338.8591, 30.47815
339.3412, 30.27929
339.8233, 30.56233
340.3054, 31.37290
340.7875, 32.85637
341.2697, 33.33819
341.7518, 31.56497
342.2339, 29.97586
342.7160, 29.70815
343.1981, 30.39632
343.6802, 31.02449
344.1624, 30.82428
344.6445, 30.02471
345.1266, 29.83928
345.6087, 30.78276
346.0908, 31.50579
346.5729, 31.37931
347.0551, 30.87576
347.5372, 30.58401
348.0193, 30.75115
348.5014, 31.19911
348.9835, 31.71052
349.4656, 32.43303
349.9478, 32.70775
350.4299, 31.84183
350.9120, 30.78029
351.3941, 30.27188
351.8762, 30.44730
352.3583, 30.75091
352.8405, 30.51864
353.3226, 29.72606
353.8047, 29.28517
354.2868, 29.68920
354.7689, 30.08539
355.2510, 29.82224
355.7332, 29.03549
356.2153, 28.35640
356.6974, 28.30627
357.1795, 28.71127
357.6616, 28.88960
358.1437, 28.77871
358.6259, 28.54911
359.1080, 28.07931
359.5901, 27.59759
360.0722, 27.50616
360.5543, 28.05300
361.0364, 28.92965
361.5186, 29.84919
362.0007, 30.86183
362.4828, 31.46286
362.9649, 31.20198
363.4470, 30.53798
363.9291, 29.97269
364.4113, 29.56010
364.8934, 29.22357
365.3755, 28.85095
365.8576, 28.48073
366.3397, 28.35751
366.8218, 28.64383
367.3040, 29.03866
367.7861, 29.28332
368.2682, 29.38376
368.7503, 29.28250
369.2325, 28.67095
369.7146, 27.92582
370.1967, 27.84448
370.6788, 28.61328
371.1609, 29.28951
371.6430, 28.88796
372.1252, 27.78705
372.6073, 27.26950
373.0894, 28.11662
373.5715, 29.11229
374.0536, 29.18321
374.5357, 28.47544
375.0179, 27.82789
375.5000, 27.57122
375.9821, 27.71162
376.4642, 28.30355
376.9463, 29.62751
377.4284, 30.69634
377.9106, 30.97626
378.3927, 30.79761
378.8748, 30.74006
379.3569, 30.96829
379.8390, 31.25163
380.3211, 31.27468
380.8033, 30.97742
381.2854, 30.76494
381.7675, 30.66468
382.2496, 30.66009
382.7317, 30.78036
383.2138, 31.00603
383.6960, 31.23938
384.1781, 31.42941
384.6602, 31.56565
385.1423, 31.51406
385.6244, 30.93665
386.1065, 30.58095
386.5887, 30.73501
387.0708, 31.26795
387.5529, 32.10238
388.0350, 33.23632
388.5171, 34.28984
388.9992, 34.39216
389.4814, 32.12636
389.9635, 31.11270
390.4456, 32.61423
390.9277, 34.51241
391.4098, 34.88542
391.8919, 33.60844
392.3741, 32.07775
392.8562, 31.77876
393.3383, 32.90306
393.8204, 33.80089
394.3025, 34.51049
394.7846, 34.97614
395.2668, 34.97911
395.7489, 34.74479
396.2310, 34.74329
396.7131, 35.29325
397.1952, 36.10362
397.6773, 36.11304
398.1595, 34.65189
398.6416, 33.47709
399.1237, 32.83332
399.6058, 32.51876
400.0879, 32.38186
400.5700, 32.37849
401.0522, 32.51951
401.5343, 32.88403
402.0164, 33.53678
402.4985, 34.01897
402.9806, 34.35232
403.4627, 34.45276
403.9449, 34.02864
404.4270, 33.32228
404.9091, 32.96790
405.3912, 33.59486
405.8733, 34.73956
406.3554, 34.83055
406.8376, 33.40954
407.3197, 32.07506
407.8018, 31.47318
408.2839, 31.27366
408.7660, 31.22930
409.2481, 31.31081
409.7303, 31.37925
410.2124, 31.30562
410.6945, 31.09299
411.1766, 30.77974
411.6587, 30.32535
412.1408, 29.82979
412.6230, 29.30752
413.1051, 28.78457
413.5872, 28.48907
414.0693, 28.92113
414.5514, 29.48990
415.0335, 29.00096
415.5157, 27.27218
415.9978, 25.77433
416.4799, 25.47690
416.9620, 26.17090
417.4441, 27.04958
417.9262, 28.44213
418.4084, 29.54133
418.8905, 29.75824
419.3726, 29.32166
419.8547, 28.81111
420.3368, 28.42484
420.8189, 28.02863
421.3011, 27.29402
421.7832, 25.98370
422.2653, 25.35757
422.7474, 26.24310
423.2295, 27.40106
423.7116, 27.67779
424.1938, 27.06369
424.6759, 26.35917
425.1580, 26.19118
425.6401, 26.52469
426.1222, 26.70157
426.6043, 26.92385
427.0865, 26.78518
427.5686, 25.72718
428.0507, 24.38847
428.5328, 23.72695
429.0149, 24.09723
429.4970, 24.97290
429.9792, 25.44947
430.4613, 25.43598
430.9434, 25.18782
431.4255, 24.38492
431.9076, 23.66638
432.3897, 23.45771
432.8719, 23.68028
433.3540, 23.95859
433.8361, 23.99042
434.3182, 23.82302
434.8003, 23.80371
435.2824, 24.00636
435.7646, 24.25439
436.2467, 24.53795
436.7288, 24.82133
437.2109, 25.17848
437.6930, 25.63925
438.1751, 25.81385
438.6573, 24.88717
439.1394, 22.71907
439.6215, 21.48596
440.1036, 22.05890
440.5857, 23.02203
441.0678, 23.55132
441.5500, 23.68101
442.0321, 23.61822
442.5142, 23.38964
442.9963, 23.06639
443.4784, 22.70670
443.9605, 22.27583
444.4427, 22.09167
444.9248, 22.45521
445.4069, 23.10533
445.8890, 23.60265
446.3711, 23.95492
446.8532, 24.08788
447.3354, 23.74640
447.8175, 23.17929
448.2996, 23.02289
448.7817, 23.47799
449.2638, 23.96373
449.7459, 23.77994
450.2281, 22.87408
450.7102, 22.27288
451.1923, 22.26682
451.6744, 22.35000
452.1565, 22.11260
452.6386, 21.68459
453.1208, 21.52172
453.6029, 21.88530
454.0850, 22.58269
454.5671, 23.08091
455.0492, 23.25315
455.5313, 23.38306
456.0135, 23.47991
456.4956, 23.53243
456.9777, 23.55022
457.4598, 23.52281
457.9419, 23.40456
458.4240, 23.13864
458.9062, 22.72313
459.3883, 22.33109
459.8704, 21.86989
460.3525, 21.54537
460.8346, 21.51837
461.3167, 21.60995
461.7989, 21.54879
462.2810, 21.22674
462.7631, 20.89061
463.2452, 20.99273
463.7273, 21.63956
464.2094, 22.08595
464.6916, 22.06500
465.1737, 21.97910
465.6558, 22.04657
466.1379, 22.25032
466.6200, 22.49187
467.1021, 22.76812
467.5843, 23.02506
468.0664, 23.13058
468.5485, 23.06514
469.0306, 22.97913
469.5127, 22.82018
469.9948, 22.76232
470.4770, 23.18517
470.9591, 24.33782
471.4412, 25.07390
471.9233, 24.39691
472.4054, 23.01897
472.8875, 22.28459
473.3697, 22.45254
473.8518, 22.92896
474.3339, 23.25390
474.8160, 23.41173
475.2981, 23.38725
475.7802, 23.00775
476.2624, 22.63314
476.7445, 22.41157
477.2266, 22.31012
477.7087, 22.29577
478.1908, 22.35780
478.6729, 22.39286
479.1551, 22.18221
479.6372, 21.43542
480.1193, 21.14548
480.6014, 21.86701
481.0835, 22.48547
481.5656, 22.14652
482.0478, 21.14575
482.5299, 20.39734
483.0120, 20.52322
483.4941, 21.31347
483.9762, 21.99322
484.4583, 22.54888
484.9405, 23.01515
485.4226, 23.71125
485.9047, 24.12518
486.3868, 23.55048
486.8689, 22.02062
487.3510, 20.68649
487.8332, 20.67331
488.3153, 21.72475
488.7974, 22.65472
489.2795, 23.50852
489.7616, 24.01894
490.2437, 23.61843
490.7259, 22.85840
491.2080, 22.62092
491.6901, 23.25704
492.1722, 24.05280
492.6543, 24.66825
493.1364, 25.04219
493.6186, 24.92904
494.1007, 24.20390
494.5828, 23.23068
495.0649, 22.32580
495.5470, 21.47860
496.0291, 21.05714
496.5113, 21.25676
496.9934, 21.71261
497.4755, 22.49580
497.9576, 23.35985
498.4397, 23.66124
498.9218, 23.05695
499.4040, 22.04355
499.8861, 21.75684
500.3682, 22.74600
500.8503, 23.47624
501.3324, 24.02999
501.8145, 24.29254
502.2967, 23.98464
502.7788, 23.29489
503.2609, 22.76950
503.7430, 22.81215
504.2251, 23.27998
504.7072, 23.63345
505.1894, 23.87269
505.6715, 23.99615
506.1536, 23.87450
506.6357, 23.72494
507.1178, 23.70651
507.5999, 23.84098
508.0821, 24.07393
508.5642, 24.51746
509.0463, 25.02548
509.5284, 25.03621
510.0105, 24.36148
510.4926, 23.89939
510.9748, 24.41017
511.4569, 25.47933
511.9390, 26.13224
512.4211, 26.27064
512.9032, 26.06731
513.3853, 25.26275
513.8674, 24.26264
514.3495, 23.76611
514.8317, 23.92588
515.3138, 24.54961
515.7959, 25.56189
516.2780, 27.03101
516.7601, 27.80033
517.2422, 27.47031
517.7244, 27.01283
518.2065, 26.68529
518.6886, 26.45765
519.1707, 26.23054
519.6528, 25.97527
520.1349, 25.79601
520.6171, 25.89851
521.0992, 26.39710
521.5813, 26.71151
522.0634, 26.72515
522.5455, 26.65791
523.0276, 26.41288
523.5098, 26.17033
523.9919, 26.32091
524.4740, 27.15907
524.9561, 28.11068
525.4382, 28.21442
525.9203, 27.45036
526.4025, 26.99048
526.8846, 27.40125
527.3667, 27.79940
527.8488, 27.05369
528.3309, 25.38963
528.8130, 24.29575
529.2952, 24.63536
529.7773, 25.40056
530.2594, 25.81632
530.7415, 25.86445
531.2236, 25.51157
531.7057, 24.66110
532.1879, 23.64044
532.6700, 23.09516
533.1521, 23.29186
533.6342, 23.37512
534.1163, 23.34749
534.5984, 23.18859
535.0806, 22.71106
535.5627, 22.07841
536.0448, 21.73369
536.5269, 21.97287
537.0090, 22.59767
537.4911, 23.03940
537.9733, 23.37766
538.4554, 23.34821
538.9375, 22.30179
539.4196, 21.40426
539.9017, 21.57915
540.3839, 22.65257
540.8660, 23.63979
541.3481, 23.96656
541.8302, 23.75173
542.3123, 23.03284
542.7944, 21.69355
543.2766, 20.92480
543.7587, 21.55859
544.2408, 22.71439
544.7229, 23.02453
545.2050, 22.37724
545.6871, 21.93609
546.1693, 22.35472
546.6514, 23.01815
547.1335, 23.13976
547.6156, 22.77032
548.0977, 22.61203
548.5798, 23.11941
549.0620, 24.10294
549.5441, 24.91830
550.0262, 25.85601
550.5083, 26.19123
550.9904, 25.27509
551.4725, 24.24314
551.9547, 24.08704
552.4368, 24.68746
552.9189, 25.18974
553.4010, 24.92182
553.8831, 24.10297
554.3652, 23.65235
554.8474, 23.77328
555.3295, 23.75393
555.8116, 23.04448
556.2937, 22.38804
556.7758, 22.46337
557.2579, 23.25016
557.7401, 23.96378
558.2222, 24.02614
558.7043, 23.76693
559.1864, 23.73822
559.6685, 23.95559
560.1506, 24.33768
560.6328, 24.98092
561.1149, 25.63340
561.5970, 25.67470
562.0791, 24.93983
562.5612, 24.26649
563.0433, 23.81930
563.5255, 23.48577
564.0076, 23.12701
564.4897, 22.77829
564.9718, 22.60037
565.4539, 22.69871
565.9360, 23.03433
566.4182, 23.51809
566.9003, 24.50222
567.3824, 24.95610
567.8645, 24.41747
568.3466, 23.72710
568.8287, 23.34000
569.3109, 23.27857
569.7930, 23.42842
570.2751, 23.81074
570.7572, 24.26231
571.2393, 24.42933
571.7214, 24.29766
572.2036, 24.04022
572.6857, 23.61003
573.1678, 23.18820
573.6499, 23.03625
574.1320, 23.14609
574.6141, 23.14991
575.0963, 22.87344
575.5784, 22.50978
576.0605, 22.11433
576.5426, 21.76286
577.0247, 21.71149
577.5068, 22.10093
577.9890, 22.70184
578.4711, 23.10804
578.9532, 23.37680
579.4353, 23.27235
579.9174, 22.42279
580.3995, 21.61947
580.8817, 21.24722
581.3638, 21.20547
581.8459, 21.26494
582.3280, 21.32370
582.8101, 21.38967
583.2922, 21.51627
583.7744, 21.71855
584.2565, 21.74302
584.7386, 21.48577
585.2207, 21.14054
585.7028, 20.69649
586.1849, 20.27024
586.6671, 20.21378
587.1492, 20.96097
587.6313, 21.62852
588.1134, 21.42972
588.5955, 20.67704
589.0776, 20.03454
589.5598, 19.66426
590.0419, 19.60567
590.5240, 19.96018
591.0061, 20.75188
591.4882, 21.36241
591.9703, 21.78359
592.4525, 22.05961
592.9346, 22.26600
593.4167, 22.29947
593.8988, 21.96846
594.3809, 21.27134
594.8630, 20.48627
595.3452, 19.82697
595.8273, 19.31257
596.3094, 19.21544
596.7915, 19.77759
597.2736, 20.20331
597.7557, 19.83534
598.2379, 19.31561
598.7200, 19.48475
599.2021, 20.53608
599.6842, 21.24312
600.1663, 20.55944
600.6484, 19.36739
601.1306, 18.99351
601.6127, 19.46237
602.0948, 19.97799
602.5769, 20.09659
603.0590, 19.92773
603.5411, 19.76541
604.0233, 19.49757
604.5054, 19.43546
604.9875, 19.85079
605.4696, 20.23028
605.9517, 20.15549
606.4338, 19.76624
606.9160, 19.46618
607.3981, 19.47582
607.8802, 19.71504
608.3623, 20.15578
608.8444, 20.88362
609.3265, 21.05777
609.8087, 20.04823
610.2908, 19.10658
610.7729, 19.43770
611.2550, 20.58965
611.7371, 21.19962
612.2192, 20.65445
612.7014, 19.80348
613.1835, 18.99154
613.6656, 18.36049
614.1477, 18.34870
614.6298, 19.05832
615.1119, 19.89937
615.5941, 20.26592
