##NAMES=Fayalite
##RRUFFID=R070374
##IDEAL CHEMISTRY=Fe^2+^_2_SiO_4_
##LOCALITY=Little Lake, Lake County, California, USA
##OWNER=RRUFF
##SOURCE=Michael Scott
##DESCRIPTION=Large dark brown crystal fragment
##STATUS=The identification of this mineral has been confirmed by X-ray diffraction and chemical analysis
##URL=rruff.info/R070374
##MEASURED CHEMISTRY=(Fe^2+^_1.89_Mn^2+^_0.11_)_Î£=2_Si_1.00_O_4_ ; trace amounts of Mg
110.4128, 55.51604
110.8950, 52.76110
111.3771, 48.55785
111.8592, 48.67970
112.3413, 53.50124
112.8234, 60.87418
113.3055, 69.85812
113.7877, 80.41480
114.2698, 91.95569
114.7519, 103.5246
115.2340, 116.7491
115.7161, 134.4909
116.1982, 158.8047
116.6804, 182.4891
117.1625, 198.2905
117.6446, 205.7331
118.1267, 209.5905
118.6088, 209.2717
119.0909, 207.0682
119.5731, 204.9909
120.0552, 203.9962
120.5373, 202.0777
121.0194, 195.3355
121.5015, 181.5154
121.9836, 169.2934
122.4658, 159.9582
122.9479, 153.7822
123.4300, 150.9495
123.9121, 151.2444
124.3942, 155.6335
124.8763, 166.4640
125.3585, 185.1624
125.8406, 209.0476
126.3227, 236.8916
126.8048, 268.6874
127.2869, 304.6395
127.7690, 344.5433
128.2512, 388.7772
128.7333, 436.7347
129.2154, 478.2219
129.6975, 538.2859
130.1796, 626.7390
130.6617, 734.3954
131.1439, 853.6232
131.6260, 983.2983
132.1081, 1117.135
132.5902, 1205.205
133.0723, 1222.947
133.5544, 1215.997
134.0366, 1187.048
134.5187, 1138.933
135.0008, 1071.802
135.4829, 984.0350
135.9650, 877.1905
136.4471, 785.1810
136.9293, 706.5526
137.4114, 642.5109
137.8935, 594.7858
138.3756, 562.1823
138.8577, 541.8133
139.3398, 532.0057
139.8220, 532.8883
140.3041, 543.2308
140.7862, 568.1445
141.2683, 595.2429
141.7504, 615.5489
142.2325, 632.0021
142.7147, 655.8450
143.1968, 696.5100
143.6789, 754.6389
144.1610, 814.1667
144.6431, 874.2432
145.1252, 935.9701
145.6074, 1000.493
146.0895, 1067.566
146.5716, 1135.723
147.0537, 1204.448
147.5358, 1273.487
148.0179, 1339.457
148.5001, 1401.124
148.9822, 1460.647
149.4643, 1517.949
149.9464, 1573.734
150.4285, 1632.186
150.9106, 1697.576
151.3928, 1769.680
151.8749, 1843.408
152.3570, 1926.036
152.8391, 2005.543
153.3212, 2076.117
153.8033, 2137.555
154.2855, 2179.211
154.7676, 2194.735
155.2497, 2182.425
155.7318, 2135.351
156.2139, 2039.070
156.6960, 1913.717
157.1782, 1773.776
157.6603, 1616.712
158.1424, 1467.829
158.6245, 1348.141
159.1066, 1252.451
159.5887, 1173.262
160.0709, 1106.903
160.5530, 1056.976
161.0351, 1035.625
161.5172, 1050.169
161.9993, 1067.140
162.4814, 1063.326
162.9636, 1045.037
163.4457, 1021.077
163.9278, 986.9684
164.4099, 951.1390
164.8920, 931.2037
165.3741, 932.0573
165.8563, 935.3112
166.3384, 924.3393
166.8205, 908.1077
167.3026, 902.9175
167.7847, 921.7887
168.2668, 953.8365
168.7490, 975.2797
169.2311, 983.3255
169.7132, 986.8300
170.1953, 990.6296
170.6774, 993.4848
171.1595, 993.0267
171.6417, 987.0500
172.1238, 977.5309
172.6059, 970.6877
173.0880, 971.0208
173.5701, 964.4083
174.0522, 937.2236
174.5344, 901.2354
175.0165, 874.0686
175.4986, 865.9042
175.9807, 870.9155
176.4628, 873.8781
176.9449, 876.2440
177.4271, 873.2756
177.9092, 858.7505
178.3913, 839.7139
178.8734, 826.1164
179.3555, 823.8324
179.8376, 829.0129
180.3197, 830.0090
180.8019, 824.1013
181.2840, 818.6908
181.7661, 816.2186
182.2482, 815.4769
182.7303, 814.8995
183.2124, 813.5499
183.6946, 812.1631
184.1767, 812.3469
184.6588, 811.9310
185.1409, 817.5497
185.6230, 836.7005
186.1051, 859.7141
186.5873, 874.9834
187.0694, 876.3835
187.5515, 869.0245
188.0336, 865.9016
188.5157, 866.4410
188.9978, 873.1677
189.4800, 888.4077
189.9621, 908.0853
190.4442, 928.9003
190.9263, 949.4793
191.4084, 969.0781
191.8905, 984.8651
192.3727, 990.8163
192.8548, 1004.316
193.3369, 1033.756
193.8190, 1068.279
194.3011, 1098.717
194.7832, 1121.499
195.2654, 1136.928
195.7475, 1146.392
196.2296, 1154.568
196.7117, 1146.202
197.1938, 1113.252
197.6759, 1069.496
198.1581, 1025.099
198.6402, 983.6279
199.1223, 945.4503
199.6044, 911.2222
200.0865, 880.9291
200.5686, 855.1723
201.0508, 834.5422
201.5329, 817.0453
202.0150, 801.3874
202.4971, 787.1255
202.9792, 774.9427
203.4613, 765.9299
203.9435, 760.5521
204.4256, 757.6746
204.9077, 760.4545
205.3898, 763.0875
205.8719, 761.4070
206.3540, 754.7079
206.8362, 745.4422
207.3183, 736.2354
207.8004, 725.6784
208.2825, 719.2607
208.7646, 722.2542
209.2467, 724.8442
209.7289, 718.9130
210.2110, 704.9717
210.6931, 691.5628
211.1752, 689.5881
211.6573, 703.0975
212.1395, 713.2935
212.6216, 720.4862
213.1037, 724.3911
213.5858, 722.7480
214.0679, 716.8524
214.5500, 711.0204
215.0322, 709.4158
215.5143, 712.4071
215.9964, 717.3992
216.4785, 728.9297
216.9606, 738.2672
217.4427, 741.2308
217.9249, 738.8826
218.4070, 734.8662
218.8891, 731.8212
219.3712, 729.7150
219.8533, 729.8168
220.3354, 733.9133
220.8176, 738.6294
221.2997, 744.4734
221.7818, 750.2407
222.2639, 753.8453
222.7460, 753.6707
223.2281, 750.0012
223.7103, 745.8959
224.1924, 739.2263
224.6745, 734.5521
225.1566, 733.5521
225.6387, 734.9708
226.1208, 737.1538
226.6030, 739.2866
227.0851, 741.1473
227.5672, 741.6561
228.0493, 738.5665
228.5314, 737.2225
229.0135, 739.5525
229.4957, 743.6094
229.9778, 747.0967
230.4599, 748.9595
230.9420, 750.0040
231.4241, 752.3470
231.9062, 757.1785
232.3884, 761.2595
232.8705, 762.9677
233.3526, 764.4930
233.8347, 767.5419
234.3168, 772.7055
234.7989, 779.8504
235.2811, 789.5913
235.7632, 805.1935
236.2453, 815.4390
236.7274, 817.2584
237.2095, 815.7386
237.6916, 812.1584
238.1738, 807.6400
238.6559, 805.7408
239.1380, 813.0471
239.6201, 834.2742
240.1022, 847.0789
240.5843, 844.1379
241.0665, 837.9849
241.5486, 834.4944
242.0307, 833.7455
242.5128, 832.2296
242.9949, 825.4594
243.4770, 812.6309
243.9592, 804.2186
244.4413, 805.7366
244.9234, 806.5877
245.4055, 801.0272
245.8876, 791.3052
246.3697, 783.8811
246.8519, 784.5778
247.3340, 792.1155
247.8161, 794.5847
248.2982, 787.2269
248.7803, 781.0164
249.2624, 779.2389
249.7446, 781.0793
250.2267, 785.5579
250.7088, 793.1216
251.1909, 801.9476
251.6730, 806.7926
252.1551, 806.8384
252.6373, 804.3051
253.1194, 796.2141
253.6015, 787.7103
254.0836, 785.4250
254.5657, 792.7275
255.0478, 803.2955
255.5300, 806.1247
256.0121, 798.5935
256.4942, 793.2585
256.9763, 797.6504
257.4584, 803.3370
257.9406, 803.3501
258.4227, 796.0695
258.9048, 787.5629
259.3869, 783.6716
259.8690, 784.4913
260.3511, 788.0242
260.8333, 796.6575
261.3154, 805.5823
261.7975, 811.6504
262.2796, 814.7363
262.7617, 816.0579
263.2438, 815.6548
263.7260, 813.9141
264.2081, 812.8033
264.6902, 811.4964
265.1723, 812.6367
265.6544, 819.6570
266.1365, 830.8260
266.6187, 840.2791
267.1008, 843.8725
267.5829, 844.1359
268.0650, 846.1553
268.5471, 850.0428
269.0292, 855.6880
269.5114, 865.9849
269.9935, 877.7597
270.4756, 885.0325
270.9577, 882.6859
271.4398, 878.1370
271.9219, 879.9427
272.4041, 888.2626
272.8862, 897.8358
273.3683, 905.6102
273.8504, 913.3948
274.3325, 924.8577
274.8146, 942.9173
275.2968, 959.6912
275.7789, 968.4895
276.2610, 971.1167
276.7431, 974.6671
277.2252, 980.8287
277.7073, 990.2664
278.1895, 1005.102
278.6716, 1026.617
279.1537, 1046.285
279.6358, 1059.045
280.1179, 1068.382
280.6000, 1080.082
281.0822, 1095.507
281.5643, 1112.952
282.0464, 1130.050
282.5285, 1146.337
283.0106, 1167.079
283.4927, 1197.577
283.9749, 1229.797
284.4570, 1256.542
284.9391, 1277.346
285.4212, 1295.727
285.9033, 1313.488
286.3854, 1330.845
286.8676, 1352.798
287.3497, 1386.147
287.8318, 1417.119
288.3139, 1437.831
288.7960, 1450.678
289.2781, 1463.149
289.7603, 1480.100
290.2424, 1498.692
290.7245, 1506.253
291.2066, 1489.133
291.6887, 1478.618
292.1708, 1489.124
292.6530, 1505.309
293.1351, 1505.991
293.6172, 1483.972
294.0993, 1451.296
294.5814, 1430.021
295.0635, 1433.242
295.5457, 1422.556
296.0278, 1384.986
296.5099, 1344.037
296.9920, 1316.075
297.4741, 1302.784
297.9562, 1296.659
298.4384, 1290.202
298.9205, 1283.157
299.4026, 1277.576
299.8847, 1273.923
300.3668, 1271.215
300.8489, 1270.197
301.3311, 1269.847
301.8131, 1267.557
302.2953, 1260.765
302.7774, 1251.555
303.2595, 1250.960
303.7416, 1264.455
304.2237, 1279.096
304.7058, 1292.404
305.1880, 1305.228
305.6701, 1318.310
306.1522, 1331.896
306.6343, 1346.395
307.1164, 1364.421
307.5985, 1389.192
308.0807, 1405.143
308.5628, 1399.444
309.0449, 1390.903
309.5270, 1390.632
310.0091, 1399.534
310.4912, 1411.082
310.9734, 1423.648
311.4555, 1436.171
311.9376, 1434.759
312.4197, 1409.295
312.9018, 1382.748
313.3839, 1373.561
313.8661, 1374.966
314.3482, 1369.139
314.8303, 1341.711
315.3124, 1304.919
315.7945, 1280.682
316.2766, 1270.520
316.7588, 1264.417
317.2409, 1261.949
317.7230, 1258.529
318.2051, 1246.278
318.6872, 1221.820
319.1693, 1192.832
319.6515, 1161.130
320.1336, 1128.650
320.6157, 1104.874
321.0978, 1096.183
321.5799, 1092.876
322.0620, 1077.910
322.5442, 1049.534
323.0263, 1024.055
323.5084, 1007.307
323.9905, 995.3994
324.4726, 982.7538
324.9547, 968.4004
325.4369, 956.2502
325.9190, 950.5097
326.4011, 951.9660
326.8832, 952.4846
327.3653, 952.9284
327.8474, 951.7108
328.3296, 947.1459
328.8117, 940.0407
329.2938, 932.6417
329.7759, 926.1276
330.2580, 920.4985
330.7401, 915.9760
331.2223, 914.2351
331.7044, 911.4980
332.1865, 905.8312
332.6686, 899.6715
333.1507, 895.8088
333.6328, 895.0380
334.1150, 895.8429
334.5971, 895.6899
335.0792, 892.9526
335.5613, 893.8552
336.0434, 901.3444
336.5255, 909.4044
337.0077, 916.2792
337.4898, 921.1193
337.9719, 922.6460
338.4540, 919.0150
338.9361, 911.0190
339.4182, 905.7901
339.9004, 904.1698
340.3825, 904.3871
340.8646, 907.4349
341.3467, 911.2292
341.8288, 912.7404
342.3109, 910.4797
342.7931, 907.2971
343.2752, 907.8707
343.7573, 912.8336
344.2394, 916.8760
344.7215, 915.3288
345.2036, 915.3682
345.6858, 924.3050
346.1679, 942.2043
346.6500, 959.3699
347.1321, 968.7664
347.6142, 972.7745
348.0963, 978.4056
348.5785, 987.1265
349.0606, 994.9821
349.5427, 996.4071
350.0248, 994.1560
350.5069, 996.7559
350.9890, 1007.768
351.4712, 1022.558
351.9533, 1040.566
352.4354, 1060.322
352.9175, 1073.380
353.3996, 1073.784
353.8817, 1067.314
354.3639, 1069.466
354.8460, 1082.342
355.3281, 1096.995
355.8102, 1112.920
356.2923, 1128.928
356.7744, 1142.523
357.2566, 1153.482
357.7387, 1165.236
358.2208, 1182.343
358.7029, 1206.918
359.1850, 1224.843
359.6671, 1228.722
360.1493, 1234.232
360.6314, 1248.160
361.1135, 1269.242
361.5956, 1294.500
362.0777, 1322.863
362.5598, 1352.233
363.0420, 1374.528
363.5241, 1381.941
364.0062, 1394.875
364.4883, 1421.889
364.9704, 1450.949
365.4525, 1471.528
365.9347, 1481.561
366.4168, 1487.370
366.8989, 1494.708
367.3810, 1503.539
367.8631, 1515.714
368.3452, 1533.137
368.8274, 1552.007
369.3095, 1571.565
369.7916, 1591.047
370.2737, 1608.598
370.7558, 1622.853
371.2379, 1635.126
371.7201, 1647.295
372.2022, 1659.323
372.6843, 1671.379
373.1664, 1683.242
373.6485, 1695.327
374.1306, 1709.412
374.6128, 1727.523
375.0949, 1740.474
375.5770, 1740.965
376.0591, 1733.266
376.5412, 1725.213
377.0233, 1718.230
377.5055, 1712.140
377.9876, 1706.588
378.4697, 1701.625
378.9518, 1698.593
379.4339, 1696.206
379.9160, 1696.945
380.3982, 1706.055
380.8803, 1719.892
381.3624, 1728.619
381.8445, 1726.778
382.3266, 1716.760
382.8087, 1705.585
383.2909, 1691.240
383.7730, 1678.509
384.2551, 1668.292
384.7372, 1659.208
385.2193, 1650.357
385.7014, 1641.467
386.1836, 1632.498
386.6657, 1624.104
387.1478, 1616.614
387.6299, 1603.957
388.1120, 1583.276
388.5941, 1560.159
389.0763, 1534.327
389.5584, 1507.881
390.0405, 1484.939
390.5226, 1468.072
391.0047, 1452.272
391.4868, 1427.217
391.9690, 1391.446
392.4511, 1361.693
392.9332, 1347.351
393.4153, 1336.445
393.8974, 1317.115
394.3795, 1289.223
394.8617, 1261.571
395.3438, 1238.924
395.8259, 1219.122
396.3080, 1197.554
396.7901, 1173.640
397.2722, 1152.421
397.7544, 1137.877
398.2365, 1129.267
398.7186, 1120.769
399.2007, 1114.470
399.6828, 1106.073
400.1649, 1093.264
400.6471, 1077.434
401.1292, 1060.508
401.6113, 1043.013
402.0934, 1025.211
402.5755, 1006.664
403.0576, 984.7144
403.5398, 971.1130
404.0219, 973.3450
404.5040, 975.6459
404.9861, 968.5676
405.4682, 954.6414
405.9503, 942.0262
406.4325, 936.1910
406.9146, 934.7733
407.3967, 929.0837
407.8788, 915.9588
408.3609, 905.0969
408.8430, 900.2869
409.3252, 896.9619
409.8073, 891.6780
410.2894, 883.8870
410.7715, 875.0544
411.2536, 864.9559
411.7357, 854.4378
412.2179, 848.9170
412.7000, 850.5449
413.1821, 852.8839
413.6642, 851.4370
414.1463, 847.5291
414.6284, 843.5266
415.1106, 839.3990
415.5927, 835.8380
416.0748, 834.0811
416.5569, 833.3904
417.0390, 831.1457
417.5211, 826.1558
418.0033, 820.5059
418.4854, 817.9370
418.9675, 820.7742
419.4496, 818.2897
419.9317, 802.0703
420.4138, 787.0568
420.8960, 785.0334
421.3781, 793.5848
421.8602, 802.9616
422.3423, 807.1146
422.8244, 806.7128
423.3065, 804.5256
423.7887, 798.6078
424.2708, 793.9251
424.7529, 793.4058
425.2350, 792.6056
425.7171, 786.1219
426.1992, 774.1356
426.6814, 763.7270
427.1635, 763.2204
427.6456, 771.5760
428.1277, 775.9658
428.6098, 774.1672
429.0919, 772.6541
429.5741, 777.6539
430.0562, 784.3290
430.5383, 784.3494
431.0204, 772.5691
431.5025, 760.6874
431.9846, 760.1314
432.4668, 767.8234
432.9489, 772.9211
433.4310, 772.6808
433.9131, 768.9757
434.3952, 762.6733
434.8773, 753.2424
435.3595, 748.1040
435.8416, 751.7003
436.3237, 756.0847
436.8058, 756.7893
437.2879, 754.2596
437.7701, 749.7521
438.2522, 743.6569
438.7343, 737.6567
439.2164, 736.2045
439.6985, 742.0421
440.1806, 747.7381
440.6628, 757.2426
441.1449, 763.3027
441.6270, 758.1479
442.1091, 744.3209
442.5912, 732.3721
443.0733, 730.8663
443.5555, 737.2186
444.0376, 741.8197
444.5197, 744.7847
445.0018, 745.6686
445.4839, 743.4199
445.9660, 739.3678
446.4482, 734.0247
446.9303, 727.1285
447.4124, 721.6913
447.8945, 720.3367
448.3766, 721.6006
448.8587, 722.6771
449.3409, 723.2279
449.8230, 723.1622
450.3051, 722.0148
450.7872, 720.0547
451.2693, 719.7552
451.7514, 723.4198
452.2336, 725.9412
452.7157, 724.0996
453.1978, 720.6613
453.6799, 720.4059
454.1620, 724.4218
454.6441, 728.3232
455.1263, 725.6155
455.6084, 714.1475
456.0905, 708.2954
456.5726, 713.5948
457.0547, 719.1310
457.5368, 722.6542
458.0190, 724.0045
458.5011, 722.8338
458.9832, 718.6068
459.4653, 713.6918
459.9474, 711.1150
460.4295, 710.8900
460.9117, 713.0102
461.3938, 719.0651
461.8759, 725.3179
462.3580, 727.9193
462.8401, 727.5878
463.3222, 728.0859
463.8044, 733.6042
464.2865, 737.8979
464.7686, 732.7654
465.2507, 720.8605
465.7328, 713.7031
466.2149, 717.1003
466.6971, 724.9244
467.1792, 724.8583
467.6613, 709.8769
468.1434, 701.8702
468.6255, 705.0135
469.1076, 711.3347
469.5898, 717.4465
470.0719, 722.4420
470.5540, 725.3857
471.0361, 725.3998
471.5182, 723.8116
472.0003, 725.4744
472.4825, 733.5217
472.9646, 736.2031
473.4467, 723.2272
473.9288, 709.6522
474.4109, 705.5398
474.8930, 710.9645
475.3752, 719.1166
475.8573, 729.6374
476.3394, 739.0056
476.8215, 739.1595
477.3036, 729.8452
477.7857, 722.6211
478.2679, 724.7487
478.7500, 731.3843
479.2321, 730.0273
479.7142, 717.0339
480.1963, 706.5715
480.6784, 701.3342
481.1606, 699.7670
481.6427, 702.3875
482.1248, 707.9158
482.6069, 711.4105
483.0890, 708.5700
483.5711, 701.2922
484.0533, 700.4055
484.5354, 710.7198
485.0175, 719.6925
485.4996, 725.7367
485.9817, 729.7757
486.4638, 731.1804
486.9460, 730.5779
487.4281, 731.6198
487.9102, 739.9758
488.3923, 752.0474
488.8744, 755.7178
489.3565, 749.4903
489.8387, 742.8510
490.3208, 739.4108
490.8029, 739.2844
491.2850, 742.3254
491.7671, 749.4360
492.2492, 757.0242
492.7314, 763.2750
493.2135, 769.6618
493.6956, 778.4189
494.1777, 789.3841
494.6598, 799.9955
495.1419, 808.1072
495.6241, 814.2968
496.1062, 822.7940
496.5883, 840.5461
497.0704, 850.4182
497.5525, 839.9389
498.0346, 828.7307
498.5168, 836.1780
498.9989, 862.2546
499.4810, 888.8069
499.9631, 899.7764
500.4452, 899.3210
500.9273, 902.8337
501.4095, 910.9382
501.8916, 920.4200
502.3737, 929.7212
502.8558, 939.8570
503.3379, 953.7079
503.8200, 973.6620
504.3022, 987.1214
504.7843, 984.2633
505.2664, 975.3114
505.7485, 972.5207
506.2306, 976.1890
506.7127, 979.2008
507.1949, 976.6236
507.6770, 969.8517
508.1591, 965.1123
508.6412, 966.2256
509.1233, 963.6274
509.6054, 956.7184
510.0876, 946.2240
510.5697, 930.9701
511.0518, 912.1893
511.5339, 894.0580
512.0161, 879.3317
512.4982, 867.5827
512.9803, 858.2307
513.4624, 851.8922
513.9445, 844.4872
514.4266, 833.9193
514.9088, 822.1777
515.3909, 811.3527
515.8730, 801.2980
516.3551, 793.5443
516.8372, 790.3229
517.3193, 788.2712
517.8015, 783.8432
518.2836, 777.5467
518.7657, 772.5978
519.2478, 771.0281
519.7299, 770.4235
520.2120, 764.2555
520.6942, 743.9299
521.1763, 734.7476
521.6584, 745.5213
522.1405, 757.8102
522.6226, 761.8339
523.1047, 759.1327
523.5869, 755.6693
524.0690, 754.5109
524.5511, 754.2977
525.0332, 752.8296
525.5153, 750.1134
525.9974, 746.7816
526.4796, 741.5638
526.9617, 738.0988
527.4438, 742.6594
527.9259, 754.0153
528.4080, 760.6885
528.8901, 756.7993
529.3723, 752.0389
529.8544, 753.3268
530.3365, 757.6635
530.8186, 757.9872
531.3007, 752.0381
531.7828, 745.3992
532.2650, 746.3919
532.7471, 756.8264
533.2292, 763.6099
533.7113, 763.4674
534.1934, 763.3266
534.6755, 765.4356
535.1577, 768.7349
535.6398, 771.5283
536.1219, 773.2392
536.6040, 775.4072
537.0861, 781.2594
537.5682, 788.7839
538.0504, 789.5673
538.5325, 781.4454
539.0146, 776.0333
539.4967, 783.5828
539.9788, 800.5372
540.4609, 808.9612
540.9431, 805.0169
541.4252, 798.9845
541.9073, 788.7516
542.3894, 780.0466
542.8715, 779.2685
543.3536, 786.2394
543.8358, 795.5565
544.3179, 802.8743
544.8000, 809.1070
545.2821, 819.2121
545.7642, 836.2479
546.2463, 848.7517
546.7285, 852.4298
547.2106, 851.2486
547.6927, 845.1244
548.1748, 835.1865
548.6569, 831.0140
549.1390, 841.9579
549.6211, 857.1424
550.1032, 862.6019
550.5853, 860.9970
551.0674, 865.7933
551.5496, 883.2911
552.0317, 905.1525
552.5138, 917.8234
552.9959, 918.4007
553.4780, 919.4986
553.9601, 917.3152
554.4423, 919.5993
554.9244, 933.4163
555.4065, 952.5297
555.8886, 966.5211
556.3707, 971.4927
556.8528, 974.4880
557.3350, 985.9659
557.8171, 1004.260
558.2992, 1014.091
558.7813, 1010.876
559.2634, 1009.490
559.7455, 1022.204
560.2277, 1044.026
560.7098, 1058.548
561.1919, 1064.134
561.6740, 1065.164
562.1561, 1057.819
562.6382, 1049.736
563.1204, 1050.408
563.6025, 1059.482
564.0846, 1069.188
564.5667, 1074.099
565.0488, 1074.918
565.5309, 1074.992
566.0131, 1076.309
566.4952, 1071.833
566.9773, 1051.207
567.4594, 1031.772
567.9415, 1028.605
568.4236, 1037.841
568.9058, 1039.921
569.3879, 1020.055
569.8700, 995.3220
570.3521, 982.4550
570.8342, 979.2086
571.3163, 979.6590
571.7985, 982.5529
572.2806, 983.0437
572.7627, 974.8707
573.2448, 957.0166
573.7269, 939.7387
574.2090, 917.4911
574.6912, 902.1639
575.1733, 901.5881
575.6554, 906.9423
576.1375, 908.8572
576.6196, 905.1382
577.1017, 898.9507
577.5839, 893.5404
578.0660, 887.9568
578.5481, 876.5427
579.0302, 857.7866
579.5123, 846.9737
579.9944, 855.2510
580.4766, 871.9072
580.9587, 875.1907
581.4408, 862.0099
581.9229, 851.4993
582.4050, 846.0462
582.8871, 844.2749
583.3693, 849.6646
583.8514, 857.4788
584.3335, 857.0113
584.8156, 843.2702
585.2977, 824.6564
585.7798, 815.5164
586.2620, 817.0792
586.7441, 813.0479
587.2262, 797.2228
587.7083, 784.6621
588.1904, 789.5359
588.6725, 801.8022
589.1547, 804.3729
589.6368, 791.6711
590.1189, 778.0499
590.6010, 770.0087
591.0831, 765.1308
591.5652, 760.8013
592.0474, 756.6177
592.5295, 752.6966
593.0116, 749.0891
593.4937, 745.9331
593.9758, 743.6021
594.4579, 742.1406
594.9401, 741.4261
595.4222, 741.1254
595.9043, 741.9202
596.3864, 745.4735
596.8685, 750.3843
597.3506, 753.3569
597.8328, 753.4700
598.3149, 750.6675
598.7970, 743.1562
599.2791, 732.8215
599.7612, 724.2482
600.2433, 718.2863
600.7255, 714.6014
601.2076, 713.2929
601.6897, 713.9747
602.1718, 713.4810
602.6539, 710.4953
603.1360, 708.1088
603.6182, 706.4159
604.1003, 705.4988
604.5824, 706.5751
605.0645, 708.7155
605.5466, 708.4642
606.0287, 702.5856
606.5109, 694.9499
