##NAMES=Fayalite
##RRUFFID=R070157
##IDEAL CHEMISTRY=Fe^2+^_2_SiO_4_
##LOCALITY=Coso Hot Springs, Inyo County, California, USA
##OWNER=RRUFF
##SOURCE=James Shigley
##DESCRIPTION=Brown transparent tabular crystals associated with fine grained quartz
##STATUS=The identification of this mineral is confirmed by single-crystal X-ray diffraction and chemical analysis.
##URL=rruff.info/R070157
##MEASURED CHEMISTRY=(Fe^2+^_1.88_Mn_0.11_Zn_0.01_)_Î£=2_Si_1.00_O_4_ ; trace amounts of Mg
129.5057, 786.7835
129.9878, 836.4691
130.4699, 890.3206
130.9521, 947.9086
131.4342, 1012.906
131.9163, 1096.146
132.3984, 1204.498
132.8805, 1294.112
133.3626, 1340.542
133.8448, 1369.730
134.3269, 1397.325
134.8090, 1427.436
135.2911, 1456.896
135.7732, 1480.907
136.2553, 1499.039
136.7375, 1512.603
137.2196, 1520.269
137.7017, 1524.968
138.1838, 1527.705
138.6659, 1528.702
139.1480, 1530.634
139.6302, 1540.324
140.1123, 1567.293
140.5944, 1583.815
141.0765, 1572.065
141.5586, 1556.365
142.0407, 1562.219
142.5229, 1600.173
143.0050, 1655.799
143.4871, 1692.548
143.9692, 1699.583
144.4513, 1700.663
144.9334, 1682.081
145.4156, 1665.661
145.8977, 1674.588
146.3798, 1719.605
146.8619, 1793.217
147.3440, 1871.750
147.8261, 1965.217
148.3083, 2051.947
148.7904, 2123.469
149.2725, 2189.131
149.7546, 2261.595
150.2367, 2347.177
150.7188, 2441.414
151.2010, 2528.010
151.6831, 2661.110
152.1652, 2722.084
152.6473, 2656.083
153.1294, 2518.067
153.6115, 2377.574
154.0937, 2268.517
154.5758, 2188.984
155.0579, 2133.065
155.5400, 2121.985
156.0221, 2108.129
156.5042, 2076.296
156.9864, 2036.909
157.4685, 2007.684
157.9506, 1997.812
158.4327, 2003.709
158.9148, 2012.084
159.3969, 2021.287
159.8791, 2034.182
160.3612, 2056.842
160.8433, 2083.596
161.3254, 2103.759
161.8075, 2112.451
162.2896, 2110.203
162.7718, 2098.242
163.2539, 2075.094
163.7360, 2046.867
164.2181, 2012.888
164.7002, 1975.022
165.1823, 1937.530
165.6645, 1901.633
166.1466, 1868.410
166.6287, 1840.351
167.1108, 1810.491
167.5929, 1794.016
168.0750, 1800.840
168.5572, 1826.802
169.0393, 1861.362
169.5214, 1904.444
170.0035, 1948.451
170.4856, 1976.330
170.9677, 1987.481
171.4499, 1986.533
171.9320, 1973.892
172.4141, 1950.589
172.8962, 1918.938
173.3783, 1876.621
173.8604, 1829.436
174.3426, 1788.364
174.8247, 1754.791
175.3068, 1723.456
175.7889, 1693.217
176.2710, 1663.443
176.7531, 1629.944
177.2353, 1589.232
177.7174, 1546.135
178.1995, 1509.315
178.6816, 1481.349
179.1637, 1451.515
179.6458, 1406.143
180.1279, 1349.845
180.6101, 1310.291
181.0922, 1305.331
181.5743, 1312.809
182.0564, 1300.641
182.5385, 1264.849
183.0206, 1229.643
183.5028, 1211.264
183.9849, 1207.790
184.4670, 1206.642
184.9491, 1202.192
185.4312, 1201.907
185.9133, 1215.717
186.3955, 1245.153
186.8776, 1271.929
187.3597, 1282.897
187.8418, 1279.645
188.3239, 1273.857
188.8060, 1269.338
189.2882, 1261.005
189.7703, 1241.421
190.2524, 1210.730
190.7345, 1184.776
191.2166, 1178.024
191.6987, 1187.577
192.1809, 1192.539
192.6630, 1185.465
193.1451, 1177.537
193.6272, 1178.960
194.1093, 1188.894
194.5914, 1198.229
195.0736, 1201.135
195.5557, 1198.162
196.0378, 1193.152
196.5199, 1187.491
197.0020, 1178.116
197.4841, 1161.209
197.9663, 1138.341
198.4484, 1117.426
198.9305, 1103.897
199.4126, 1096.796
199.8947, 1089.954
200.3768, 1079.937
200.8590, 1075.067
201.3411, 1084.298
201.8232, 1102.872
202.3053, 1116.516
202.7874, 1113.068
203.2695, 1096.551
203.7517, 1085.658
204.2338, 1082.292
204.7159, 1082.215
205.1980, 1085.048
205.6801, 1089.027
206.1622, 1090.247
206.6444, 1085.813
207.1265, 1077.078
207.6086, 1067.770
208.0907, 1055.612
208.5728, 1047.396
209.0549, 1049.854
209.5371, 1057.373
210.0192, 1060.367
210.5013, 1051.353
210.9834, 1036.660
211.4655, 1032.682
211.9476, 1043.249
212.4298, 1056.455
212.9119, 1070.480
213.3940, 1083.078
213.8761, 1089.924
214.3582, 1086.830
214.8403, 1080.748
215.3225, 1087.184
215.8046, 1112.284
216.2867, 1132.005
216.7688, 1133.613
217.2509, 1127.326
217.7330, 1121.071
218.2152, 1115.954
218.6973, 1116.222
219.1794, 1131.760
219.6615, 1168.018
220.1436, 1197.797
220.6257, 1205.927
221.1079, 1207.431
221.5900, 1213.970
222.0721, 1228.713
222.5542, 1244.711
223.0363, 1255.062
223.5184, 1260.136
224.0006, 1256.962
224.4827, 1233.010
224.9648, 1208.088
225.4469, 1197.397
225.9290, 1202.904
226.4111, 1211.354
226.8933, 1209.758
227.3754, 1197.808
227.8575, 1185.700
228.3396, 1176.308
228.8217, 1165.800
229.3038, 1149.762
229.7859, 1128.889
230.2681, 1110.250
230.7502, 1097.961
231.2323, 1092.134
231.7144, 1095.339
232.1965, 1116.901
232.6786, 1136.647
233.1608, 1140.115
233.6429, 1130.642
234.1250, 1121.359
234.6071, 1121.718
235.0892, 1129.365
235.5714, 1133.311
236.0535, 1131.846
236.5356, 1129.100
237.0177, 1126.970
237.4998, 1125.436
237.9819, 1124.435
238.4641, 1123.212
238.9462, 1122.750
239.4283, 1126.226
239.9104, 1135.625
240.3925, 1143.663
240.8746, 1143.768
241.3568, 1140.796
241.8389, 1141.978
242.3210, 1152.388
242.8031, 1164.866
243.2852, 1168.977
243.7673, 1163.764
244.2495, 1154.980
244.7316, 1141.496
245.2137, 1127.216
245.6958, 1115.517
246.1779, 1106.002
246.6600, 1102.062
247.1422, 1109.954
247.6243, 1129.788
248.1064, 1147.160
248.5885, 1157.535
249.0706, 1163.044
249.5527, 1166.506
250.0349, 1168.052
250.5170, 1167.410
250.9991, 1161.018
251.4812, 1150.851
251.9633, 1149.016
252.4454, 1162.084
252.9276, 1179.387
253.4097, 1189.420
253.8918, 1192.566
254.3739, 1195.468
254.8560, 1203.221
255.3381, 1212.970
255.8203, 1217.640
256.3024, 1215.566
256.7845, 1210.183
257.2666, 1200.993
257.7487, 1189.830
258.2308, 1185.763
258.7130, 1195.996
259.1951, 1212.833
259.6772, 1226.347
260.1593, 1235.809
260.6414, 1243.513
261.1235, 1249.804
261.6057, 1255.601
262.0878, 1264.022
262.5699, 1278.571
263.0520, 1293.457
263.5341, 1303.002
264.0162, 1307.754
264.4984, 1313.203
264.9805, 1321.005
265.4626, 1332.494
265.9447, 1350.139
266.4268, 1376.500
266.9089, 1404.796
267.3911, 1432.536
267.8732, 1459.616
268.3553, 1485.191
268.8374, 1508.185
269.3195, 1530.869
269.8016, 1558.217
270.2838, 1589.527
270.7659, 1624.784
271.2480, 1668.172
271.7301, 1714.099
272.2122, 1754.116
272.6943, 1786.068
273.1765, 1815.148
273.6586, 1847.002
274.1407, 1881.066
274.6228, 1922.988
275.1049, 1975.302
275.5870, 2034.516
276.0692, 2103.885
276.5513, 2181.136
277.0334, 2249.914
277.5155, 2293.597
277.9976, 2309.984
278.4797, 2341.133
278.9619, 2388.833
279.4440, 2447.294
279.9261, 2519.016
280.4082, 2600.107
280.8903, 2679.656
281.3724, 2750.955
281.8546, 2816.117
282.3367, 2887.656
282.8188, 2979.577
283.3009, 3060.560
283.7830, 3114.654
284.2651, 3157.656
284.7473, 3210.833
285.2294, 3282.473
285.7115, 3366.475
286.1936, 3451.093
286.6757, 3548.774
287.1578, 3625.863
287.6400, 3675.407
288.1221, 3710.355
288.6042, 3741.983
289.0863, 3771.583
289.5684, 3790.824
290.0505, 3787.021
290.5327, 3751.628
291.0148, 3729.100
291.4969, 3751.305
291.9790, 3755.960
292.4611, 3709.430
292.9432, 3620.827
293.4254, 3519.371
293.9075, 3425.646
294.3896, 3338.667
294.8717, 3253.861
295.3538, 3173.810
295.8359, 3092.178
296.3181, 3007.761
296.8002, 2920.875
297.2823, 2831.702
297.7644, 2738.811
298.2465, 2647.706
298.7286, 2571.441
299.2108, 2515.631
299.6929, 2459.553
300.1750, 2390.888
300.6571, 2325.157
301.1392, 2276.179
301.6213, 2246.076
302.1035, 2223.800
302.5855, 2195.843
303.0677, 2161.717
303.5498, 2137.999
304.0319, 2134.412
304.5140, 2134.227
304.9961, 2129.323
305.4782, 2118.975
305.9604, 2101.602
306.4425, 2069.598
306.9246, 2029.986
307.4067, 2005.922
307.8888, 2005.308
308.3709, 2001.462
308.8531, 1971.812
309.3352, 1927.761
309.8173, 1887.902
310.2994, 1858.638
310.7815, 1833.906
311.2636, 1807.089
311.7458, 1778.371
312.2279, 1751.674
312.7100, 1730.267
313.1921, 1710.825
313.6742, 1687.865
314.1563, 1662.564
314.6385, 1630.970
315.1206, 1583.985
315.6027, 1529.735
316.0848, 1487.056
316.5669, 1462.047
317.0490, 1445.054
317.5312, 1423.736
318.0133, 1397.044
318.4954, 1374.083
318.9775, 1362.292
319.4596, 1350.747
319.9417, 1327.170
320.4239, 1292.081
320.9060, 1257.066
321.3881, 1231.243
321.8702, 1214.632
322.3523, 1201.924
322.8344, 1199.957
323.3166, 1194.028
323.7987, 1174.837
324.2808, 1148.321
324.7629, 1126.189
325.2450, 1114.231
325.7271, 1108.409
326.2093, 1098.023
326.6914, 1074.749
327.1735, 1058.343
327.6556, 1053.635
328.1377, 1052.819
328.6198, 1049.591
329.1020, 1042.700
329.5841, 1034.817
330.0662, 1029.216
330.5483, 1026.628
331.0304, 1022.593
331.5125, 1017.053
331.9947, 1010.073
332.4768, 999.2982
332.9589, 987.0772
333.4410, 978.4808
333.9231, 977.6721
334.4052, 982.1622
334.8874, 981.9585
335.3695, 974.4445
335.8516, 967.0477
336.3337, 958.4055
336.8158, 952.4222
337.2979, 954.4606
337.7801, 966.5035
338.2622, 981.4428
338.7443, 991.2183
339.2264, 995.7249
339.7085, 998.5546
340.1906, 1001.119
340.6728, 1001.060
341.1549, 993.4424
341.6370, 979.8052
342.1191, 972.5281
342.6012, 984.8943
343.0833, 1006.845
343.5655, 1014.750
344.0476, 1004.510
344.5297, 994.3957
345.0118, 999.2679
345.4939, 1013.715
345.9760, 1022.809
346.4582, 1019.571
346.9403, 1016.207
347.4224, 1021.483
347.9045, 1033.832
348.3866, 1048.434
348.8687, 1064.313
349.3509, 1079.518
349.8330, 1089.762
350.3151, 1094.258
350.7972, 1097.211
351.2793, 1095.242
351.7614, 1094.305
352.2436, 1101.170
352.7257, 1116.602
353.2078, 1136.390
353.6899, 1157.372
354.1720, 1180.112
354.6541, 1196.698
355.1363, 1201.460
355.6184, 1207.267
356.1005, 1219.059
356.5826, 1235.435
357.0647, 1253.213
357.5468, 1270.815
358.0290, 1288.646
358.5111, 1308.080
358.9932, 1332.901
359.4753, 1352.697
359.9574, 1361.731
360.4395, 1369.516
360.9217, 1383.900
361.4038, 1405.608
361.8859, 1428.977
362.3680, 1446.994
362.8501, 1459.206
363.3322, 1477.473
363.8144, 1507.896
364.2965, 1536.818
364.7786, 1558.477
365.2607, 1574.393
365.7428, 1587.364
366.2249, 1597.595
366.7071, 1606.662
367.1892, 1617.509
367.6713, 1630.541
368.1534, 1641.805
368.6355, 1648.352
369.1176, 1653.565
369.5998, 1662.297
370.0819, 1675.486
370.5640, 1687.302
371.0461, 1694.801
371.5282, 1698.748
372.0103, 1701.367
372.4925, 1703.430
372.9746, 1701.375
373.4567, 1689.808
373.9388, 1669.068
374.4209, 1653.168
374.9030, 1646.151
375.3852, 1640.964
375.8673, 1637.113
376.3494, 1631.953
376.8315, 1616.921
377.3136, 1586.254
377.7957, 1547.733
378.2779, 1521.638
378.7600, 1521.101
379.2421, 1515.735
379.7242, 1503.610
380.2063, 1487.495
380.6884, 1467.544
381.1706, 1444.960
381.6527, 1424.502
382.1348, 1411.157
382.6169, 1405.267
383.0990, 1400.311
383.5811, 1405.768
384.0633, 1401.331
384.5454, 1371.165
385.0275, 1330.598
385.5096, 1302.732
385.9917, 1298.508
386.4738, 1306.887
386.9560, 1309.268
387.4381, 1304.336
387.9202, 1300.574
388.4023, 1304.296
388.8844, 1305.783
389.3665, 1296.036
389.8487, 1275.709
390.3308, 1255.914
390.8129, 1241.172
391.2950, 1231.802
391.7771, 1230.112
392.2592, 1237.487
392.7414, 1244.801
393.2235, 1246.111
393.7056, 1242.717
394.1877, 1239.141
394.6698, 1233.380
395.1519, 1230.274
395.6341, 1233.711
396.1162, 1241.473
396.5983, 1249.830
397.0804, 1257.862
397.5625, 1263.606
398.0446, 1263.594
398.5268, 1254.789
399.0089, 1249.942
399.4910, 1254.979
399.9731, 1258.683
400.4552, 1251.590
400.9373, 1237.023
401.4194, 1225.594
401.9016, 1224.463
402.3837, 1231.132
402.8658, 1235.312
403.3479, 1236.683
403.8300, 1235.694
404.3121, 1229.248
404.7943, 1222.772
405.2764, 1222.191
405.7585, 1227.877
406.2406, 1233.247
406.7227, 1231.402
407.2048, 1222.578
407.6870, 1212.488
408.1691, 1199.928
408.6512, 1188.174
409.1333, 1181.311
409.6154, 1176.047
410.0975, 1165.607
410.5797, 1144.167
411.0618, 1122.582
411.5439, 1115.559
412.0260, 1120.461
412.5081, 1117.827
412.9902, 1098.410
413.4724, 1073.918
413.9545, 1063.857
414.4366, 1069.334
414.9187, 1069.887
415.4008, 1059.875
415.8829, 1044.563
416.3651, 1025.870
416.8472, 1005.393
417.3293, 989.0377
417.8114, 981.3660
418.2935, 980.4246
418.7756, 975.8586
419.2578, 960.7376
419.7399, 950.6622
420.2220, 950.9479
420.7041, 954.7045
421.1862, 956.7499
421.6683, 955.3478
422.1505, 949.5760
422.6326, 936.6644
423.1147, 915.7949
423.5968, 901.3538
424.0789, 896.1279
424.5610, 894.3279
425.0432, 897.1743
425.5253, 900.9117
426.0074, 899.0242
426.4895, 887.5662
426.9716, 874.2770
427.4537, 870.8732
427.9359, 876.7006
428.4180, 875.8953
428.9001, 859.4037
429.3822, 842.6020
429.8643, 844.3357
430.3464, 862.8469
430.8286, 879.7593
431.3107, 895.1466
431.7928, 903.3776
432.2749, 893.5693
432.7570, 869.1595
433.2391, 850.0898
433.7213, 847.9203
434.2034, 857.0220
434.6855, 860.3101
435.1676, 851.0640
435.6497, 845.8326
436.1318, 851.7871
436.6140, 857.8442
437.0961, 851.7855
437.5782, 834.5682
438.0603, 818.9169
438.5424, 817.2897
439.0245, 828.3618
439.5067, 832.2153
439.9888, 821.5273
440.4709, 814.4324
440.9530, 820.0510
441.4351, 828.9521
441.9172, 830.1711
442.3994, 820.6126
442.8815, 808.6791
443.3636, 804.2003
443.8457, 805.5970
444.3278, 800.4686
444.8099, 783.5767
445.2921, 768.1498
445.7742, 766.1241
446.2563, 773.9918
446.7384, 782.9203
447.2205, 792.6873
447.7026, 801.8177
448.1848, 810.2133
448.6669, 817.1999
449.1490, 820.9132
449.6311, 820.7004
450.1132, 817.1682
450.5953, 810.9462
451.0775, 800.9945
451.5596, 791.4481
452.0417, 780.1022
452.5238, 771.1327
453.0059, 766.8989
453.4880, 766.8607
453.9702, 770.5867
454.4523, 778.4086
454.9344, 786.7635
455.4165, 785.4831
455.8986, 770.1837
456.3807, 757.4973
456.8629, 748.3192
457.3450, 744.0228
457.8271, 749.0107
458.3092, 761.3118
458.7913, 770.8091
459.2734, 768.9757
459.7556, 761.2108
460.2377, 757.4135
460.7198, 757.7106
461.2019, 761.1966
461.6840, 770.8726
462.1661, 780.8237
462.6483, 776.8572
463.1304, 750.9003
463.6125, 736.5060
464.0946, 755.6014
464.5767, 783.5182
465.0588, 793.1170
465.5410, 782.7391
466.0231, 767.3496
466.5052, 758.0759
466.9873, 754.2928
467.4694, 750.9477
467.9515, 746.1618
468.4337, 744.3757
468.9158, 749.0535
469.3979, 755.0745
469.8800, 759.0977
470.3621, 759.9053
470.8442, 755.7835
471.3264, 739.7971
471.8085, 714.6993
472.2906, 708.8895
472.7727, 732.3462
473.2548, 752.9353
473.7369, 748.0626
474.2191, 732.4248
474.7012, 725.4468
475.1833, 733.2681
475.6654, 740.4561
476.1475, 732.4709
476.6296, 717.9388
477.1118, 715.8093
477.5939, 729.7662
478.0760, 748.1439
478.5581, 761.6081
479.0402, 770.0864
479.5223, 774.8221
480.0045, 777.1473
480.4866, 774.7863
480.9687, 762.2440
481.4508, 746.7277
481.9329, 736.4613
482.4150, 733.9064
482.8972, 737.5425
483.3793, 747.6284
483.8614, 765.1741
484.3435, 775.3851
484.8256, 776.1685
485.3077, 771.8833
485.7899, 759.6014
486.2720, 745.4503
486.7541, 737.8364
487.2362, 738.8598
487.7183, 747.9232
488.2004, 773.5472
488.6826, 808.1110
489.1647, 819.8932
489.6468, 799.0949
490.1289, 773.4267
490.6110, 769.1628
491.0931, 785.5535
491.5753, 791.3861
492.0574, 771.9144
492.5395, 758.4810
493.0216, 771.7972
493.5037, 796.0844
493.9858, 805.5410
494.4680, 793.3021
494.9501, 775.9356
495.4322, 775.6461
495.9143, 795.2589
496.3964, 808.1541
496.8785, 810.7369
497.3607, 810.2116
497.8428, 806.4896
498.3249, 801.9718
498.8070, 800.0375
499.2891, 802.0030
499.7712, 805.1591
500.2533, 806.5114
500.7354, 806.5706
501.2176, 808.6622
501.6997, 814.4552
502.1818, 818.0948
502.6639, 812.2574
503.1460, 799.2478
503.6281, 794.4303
504.1103, 807.3202
504.5924, 818.1247
505.0745, 818.4182
505.5566, 811.9422
506.0387, 803.0370
506.5208, 793.1526
507.0030, 783.3126
507.4851, 773.9884
507.9672, 764.8839
508.4493, 762.6671
508.9314, 773.9700
509.4135, 784.0486
509.8957, 788.8760
510.3778, 790.7175
510.8599, 792.2805
511.3420, 794.2743
511.8241, 795.5609
512.3063, 795.2822
512.7884, 793.4379
513.2705, 788.8162
513.7526, 780.1683
514.2347, 774.7513
514.7169, 780.0831
515.1990, 792.1644
515.6811, 795.7035
516.1632, 784.3472
516.6453, 774.6026
517.1274, 771.6157
517.6096, 772.8475
518.0917, 776.5252
518.5738, 781.7454
519.0559, 786.6647
519.5380, 789.8351
520.0201, 791.2171
520.5023, 790.4055
520.9844, 786.0743
521.4665, 781.7018
521.9486, 774.6044
522.4307, 769.9538
522.9128, 773.9955
523.3950, 786.6465
523.8771, 798.9713
524.3592, 804.0192
524.8413, 804.7413
525.3234, 808.8665
525.8055, 816.8394
526.2877, 818.7499
526.7698, 805.8106
527.2519, 787.7247
527.7340, 788.6175
528.2161, 816.3702
528.6982, 836.3224
529.1804, 841.5184
529.6625, 839.0604
530.1446, 828.4005
530.6267, 814.4714
531.1088, 810.1684
531.5909, 823.9367
532.0731, 847.5004
532.5552, 858.8904
533.0373, 851.9890
533.5194, 852.3431
534.0015, 871.2121
534.4836, 890.6066
534.9658, 899.3138
535.4479, 899.7623
535.9300, 901.3137
536.4121, 908.2003
536.8942, 917.2453
537.3763, 925.9437
537.8585, 934.0958
538.3406, 938.8241
538.8227, 937.9699
539.3048, 940.9837
539.7869, 961.7262
540.2690, 1004.795
540.7512, 1030.806
541.2333, 1025.338
541.7154, 1021.069
542.1975, 1031.141
542.6796, 1048.610
543.1617, 1062.629
543.6439, 1070.162
544.1260, 1078.235
544.6081, 1096.874
545.0902, 1125.443
545.5723, 1148.699
546.0544, 1163.900
546.5366, 1179.413
547.0187, 1201.266
547.5008, 1225.366
547.9829, 1245.918
548.4650, 1261.714
548.9471, 1276.075
549.4292, 1290.740
549.9113, 1304.629
550.3934, 1314.766
550.8755, 1321.846
551.3577, 1332.041
551.8398, 1350.297
552.3219, 1373.461
552.8040, 1389.754
553.2861, 1394.747
553.7682, 1400.385
554.2504, 1407.970
554.7325, 1415.817
555.2146, 1422.443
555.6967, 1428.341
556.1788, 1435.529
556.6609, 1445.810
557.1431, 1456.953
557.6252, 1464.688
558.1073, 1469.490
558.5894, 1477.595
559.0715, 1492.363
559.5536, 1506.661
560.0358, 1511.425
560.5179, 1505.789
561.0000, 1505.127
561.4821, 1515.732
561.9642, 1524.555
562.4464, 1529.075
562.9285, 1527.433
563.4106, 1514.149
563.8927, 1489.174
564.3748, 1463.945
564.8569, 1451.935
565.3391, 1452.566
565.8212, 1451.734
566.3033, 1450.635
566.7854, 1445.522
567.2675, 1432.271
567.7496, 1415.442
568.2318, 1399.429
568.7139, 1384.712
569.1960, 1370.430
569.6781, 1358.747
570.1602, 1345.726
570.6423, 1324.832
571.1245, 1297.392
571.6066, 1271.346
572.0887, 1251.127
572.5708, 1234.129
573.0529, 1214.976
573.5350, 1193.324
574.0172, 1169.851
574.4993, 1139.535
574.9814, 1112.385
575.4635, 1091.872
575.9456, 1077.942
576.4277, 1071.796
576.9099, 1076.069
577.3920, 1079.423
577.8741, 1068.004
578.3562, 1045.069
578.8383, 1021.087
579.3204, 996.5652
579.8026, 979.5959
580.2847, 980.0005
580.7668, 993.6071
581.2489, 992.8888
581.7310, 966.7816
582.2131, 943.4828
582.6953, 926.2979
583.1774, 914.2611
583.6595, 908.5984
584.1416, 907.7147
584.6237, 906.6208
585.1058, 902.0504
585.5880, 894.7022
586.0701, 885.4377
586.5522, 873.7687
587.0343, 863.9774
587.5164, 856.3066
587.9985, 851.7396
588.4807, 855.1069
588.9628, 864.0876
589.4449, 864.0565
589.9270, 842.1597
590.4091, 821.9981
590.8912, 818.2326
591.3734, 823.3400
591.8555, 826.5427
592.3376, 824.8011
592.8197, 818.4883
593.3018, 806.8883
593.7839, 790.7869
594.2661, 779.9329
594.7482, 775.6072
595.2303, 774.0267
595.7124, 773.8698
596.1945, 776.3026
596.6766, 784.9500
597.1588, 799.2328
597.6409, 808.5140
598.1230, 807.1791
598.6051, 799.4419
599.0872, 783.8499
599.5693, 764.9377
600.0515, 759.2599
600.5336, 773.3456
601.0157, 793.0798
601.4978, 799.1360
601.9799, 789.4949
602.4620, 780.1166
602.9442, 767.8231
603.4263, 759.8888
603.9084, 758.4227
604.3905, 761.9522
604.8726, 771.4552
605.3547, 786.6591
605.8369, 797.2374
606.3190, 792.9285
606.8011, 780.4788
607.2832, 770.0369
607.7653, 762.3461
608.2474, 760.8817
608.7296, 768.0797
609.2117, 779.9547
609.6938, 790.1551
610.1759, 800.3058
610.6580, 803.0205
611.1401, 795.3814
611.6223, 784.2556
612.1044, 768.7576
612.5865, 752.8502
613.0686, 741.2449
613.5507, 735.3782
614.0328, 735.2283
614.5150, 743.5804
614.9971, 757.6725
615.4792, 769.3961
615.9613, 778.6251
616.4434, 781.0840
616.9255, 771.8524
617.4077, 757.5269
617.8898, 752.4484
618.3719, 760.3722
618.8540, 767.5964
619.3361, 775.3056
619.8182, 780.5731
620.3004, 780.5234
620.7825, 777.1437
621.2646, 773.8155
621.7467, 771.8204
622.2288, 770.6692
622.7109, 768.7177
623.1931, 766.6797
623.6752, 771.4379
624.1573, 785.9898
