##NAMES=Fayalite
##RRUFFID=R070157
##IDEAL CHEMISTRY=Fe^2+^_2_SiO_4_
##LOCALITY=Coso Hot Springs, Inyo County, California, USA
##OWNER=RRUFF
##SOURCE=James Shigley
##DESCRIPTION=Brown transparent tabular crystals associated with fine grained quartz
##STATUS=The identification of this mineral is confirmed by single-crystal X-ray diffraction and chemical analysis.
##URL=rruff.info/R070157
##MEASURED CHEMISTRY=(Fe^2+^_1.88_Mn_0.11_Zn_0.01_)_Î£=2_Si_1.00_O_4_ ; trace amounts of Mg
133.7897, 391.9739
134.2718, 395.0819
134.7539, 395.3158
135.2360, 398.1627
135.7182, 403.4974
136.2003, 412.6720
136.6824, 428.0492
137.1645, 450.6650
137.6466, 470.1420
138.1287, 487.2848
138.6109, 500.6839
139.0930, 505.1436
139.5751, 497.3561
140.0572, 488.8946
140.5393, 487.2853
141.0214, 496.0240
141.5036, 500.4047
141.9857, 496.9345
142.4678, 487.4687
142.9499, 484.5007
143.4320, 490.7655
143.9141, 500.3385
144.3963, 508.5650
144.8784, 514.0209
145.3605, 520.7468
145.8426, 530.8234
146.3247, 544.9662
146.8068, 553.4466
147.2890, 549.7707
147.7711, 543.6956
148.2532, 546.1818
148.7353, 566.2895
149.2174, 585.3860
149.6995, 598.5684
150.1817, 602.7784
150.6638, 609.5687
151.1459, 621.5902
151.6280, 635.9346
152.1101, 647.6128
152.5922, 650.4242
153.0744, 655.2531
153.5565, 666.8098
154.0386, 693.8946
154.5207, 714.3691
155.0028, 723.1613
155.4849, 722.7959
155.9671, 721.0500
156.4492, 715.1453
156.9313, 711.0402
157.4134, 712.0492
157.8955, 722.0677
158.3777, 733.9263
158.8598, 745.7466
159.3419, 757.7840
159.8240, 771.4559
160.3061, 790.1215
160.7882, 809.4628
161.2704, 825.7783
161.7525, 832.2995
162.2346, 840.3533
162.7167, 855.1835
163.1988, 877.2494
163.6809, 901.6281
164.1631, 925.1016
164.6452, 949.8723
165.1273, 978.9310
165.6094, 1014.325
166.0915, 1053.498
166.5736, 1095.290
167.0558, 1139.896
167.5379, 1185.559
168.0200, 1227.842
168.5021, 1270.034
168.9842, 1318.275
169.4663, 1388.442
169.9485, 1460.086
170.4306, 1516.562
170.9127, 1558.093
171.3948, 1575.475
171.8769, 1553.862
172.3590, 1499.414
172.8412, 1431.557
173.3233, 1357.045
173.8054, 1278.227
174.2875, 1197.654
174.7696, 1112.243
175.2517, 1029.972
175.7339, 957.0127
176.2160, 893.2029
176.6981, 842.3382
177.1802, 811.6652
177.6623, 795.1470
178.1444, 780.9054
178.6266, 765.9511
179.1087, 750.9899
179.5908, 736.3854
180.0729, 722.2260
180.5550, 710.7349
181.0371, 705.0161
181.5193, 703.9408
182.0014, 704.1780
182.4835, 706.6904
182.9656, 709.2203
183.4477, 704.5350
183.9298, 691.6216
184.4120, 679.5361
184.8941, 680.9004
185.3762, 693.5175
185.8583, 704.1660
186.3404, 705.9384
186.8225, 700.9892
187.3047, 697.2948
187.7868, 695.0975
188.2689, 693.8623
188.7510, 692.8853
189.2331, 692.1790
189.7152, 691.9641
190.1974, 692.3782
190.6795, 693.3949
191.1616, 694.9242
191.6437, 697.0251
192.1258, 699.5147
192.6080, 702.0911
193.0901, 704.7957
193.5722, 707.4529
194.0543, 710.0004
194.5364, 712.4247
195.0185, 714.6810
195.5007, 716.7785
195.9828, 718.6737
196.4649, 720.2781
196.9470, 721.6441
197.4291, 722.5513
197.9112, 721.3324
198.3934, 717.6249
198.8755, 719.5528
199.3576, 730.2219
199.8397, 746.7304
200.3218, 757.6940
200.8039, 762.1152
201.2861, 764.3804
201.7682, 767.5975
202.2503, 771.7003
202.7324, 777.4044
203.2145, 785.5707
203.6966, 795.6437
204.1788, 803.2077
204.6609, 807.3794
205.1430, 810.9095
205.6251, 815.5159
206.1072, 820.3848
206.5893, 830.1080
207.0715, 846.7903
207.5536, 870.0743
208.0357, 894.0760
208.5178, 920.5089
208.9999, 944.9485
209.4820, 961.7185
209.9642, 968.6641
210.4463, 974.8922
210.9284, 982.5853
211.4105, 991.6691
211.8926, 1002.041
212.3747, 1013.112
212.8569, 1026.172
213.3390, 1043.543
213.8211, 1065.884
214.3032, 1090.393
214.7853, 1116.810
215.2674, 1145.420
215.7496, 1172.945
216.2317, 1199.827
216.7138, 1225.338
217.1959, 1247.295
217.6780, 1262.591
218.1601, 1281.413
218.6423, 1308.985
219.1244, 1349.871
219.6065, 1383.720
220.0886, 1409.948
220.5707, 1429.858
221.0528, 1445.461
221.5350, 1456.712
222.0171, 1464.229
222.4992, 1467.940
222.9813, 1466.484
223.4634, 1464.820
223.9455, 1463.655
224.4277, 1462.061
224.9098, 1458.085
225.3919, 1452.968
225.8740, 1443.428
226.3561, 1426.603
226.8382, 1397.498
227.3204, 1373.075
227.8025, 1353.564
228.2846, 1339.234
228.7667, 1331.341
229.2488, 1332.884
229.7310, 1336.749
230.2131, 1339.341
230.6952, 1339.910
231.1773, 1340.651
231.6594, 1340.801
232.1415, 1341.131
232.6237, 1345.067
233.1058, 1353.102
233.5879, 1364.096
234.0700, 1378.140
234.5521, 1398.577
235.0342, 1414.823
235.5164, 1424.537
235.9985, 1428.885
236.4806, 1436.123
236.9627, 1453.209
237.4448, 1464.323
237.9269, 1457.260
238.4091, 1418.809
238.8912, 1388.896
239.3733, 1374.503
239.8554, 1373.323
240.3375, 1366.594
240.8196, 1352.208
241.3018, 1334.710
241.7839, 1317.100
242.2660, 1299.802
242.7481, 1281.544
243.2302, 1262.217
243.7123, 1241.818
244.1945, 1219.696
244.6766, 1192.527
245.1587, 1167.490
245.6408, 1150.635
246.1229, 1147.420
246.6050, 1141.253
247.0872, 1129.637
247.5693, 1112.787
248.0514, 1094.021
248.5335, 1070.676
249.0156, 1048.349
249.4977, 1031.759
249.9799, 1021.614
250.4620, 1016.064
250.9441, 1017.137
251.4262, 1024.347
251.9083, 1024.646
252.3904, 1014.274
252.8726, 1001.432
253.3547, 994.1593
253.8368, 996.7943
254.3189, 994.7067
254.8010, 981.9555
255.2831, 959.2037
255.7653, 951.0017
256.2474, 966.1743
256.7295, 984.9720
257.2116, 986.9280
257.6937, 962.0370
258.1758, 945.2788
258.6580, 945.0299
259.1401, 960.6993
259.6222, 974.3635
260.1043, 986.8867
260.5864, 996.0488
261.0685, 998.3317
261.5507, 990.1798
262.0328, 985.0917
262.5149, 986.5519
262.9970, 994.2990
263.4791, 999.8672
263.9612, 1002.319
264.4434, 1004.115
264.9255, 1007.539
265.4076, 1012.750
265.8897, 1018.998
266.3718, 1025.915
266.8539, 1033.540
267.3361, 1044.325
267.8182, 1059.693
268.3003, 1075.518
268.7824, 1087.799
269.2645, 1095.744
269.7466, 1102.660
270.2288, 1107.866
270.7109, 1112.043
271.1930, 1123.902
271.6751, 1145.991
272.1572, 1170.555
272.6393, 1189.086
273.1215, 1199.874
273.6036, 1214.202
274.0857, 1235.573
274.5678, 1262.873
275.0499, 1287.518
275.5320, 1308.983
276.0142, 1329.899
276.4963, 1352.185
276.9784, 1375.724
277.4605, 1403.066
277.9426, 1437.233
278.4247, 1475.630
278.9069, 1503.987
279.3890, 1519.460
279.8711, 1534.664
280.3532, 1561.901
280.8354, 1601.562
281.3175, 1644.209
281.7996, 1689.741
282.2817, 1735.862
282.7638, 1771.483
283.2459, 1795.208
283.7281, 1816.440
284.2102, 1844.886
284.6923, 1880.124
285.1744, 1911.170
285.6565, 1933.607
286.1386, 1951.033
286.6208, 1975.214
287.1029, 2007.088
287.5850, 2036.983
288.0671, 2058.392
288.5492, 2071.381
289.0313, 2076.047
289.5135, 2071.095
289.9956, 2058.850
290.4777, 2044.057
290.9598, 2026.666
291.4419, 2007.187
291.9240, 1987.272
292.4062, 1965.874
292.8883, 1938.758
293.3704, 1903.350
293.8525, 1863.627
294.3346, 1826.037
294.8167, 1790.665
295.2989, 1753.949
295.7810, 1709.837
296.2631, 1662.429
296.7452, 1621.643
297.2273, 1591.035
297.7094, 1565.925
298.1916, 1540.143
298.6737, 1514.065
299.1558, 1488.579
299.6379, 1464.827
300.1200, 1442.150
300.6021, 1418.160
301.0843, 1391.273
301.5664, 1365.824
302.0485, 1347.282
302.5306, 1334.523
303.0127, 1323.896
303.4948, 1314.348
303.9770, 1305.103
304.4591, 1295.187
304.9412, 1284.849
305.4233, 1272.877
305.9054, 1256.348
306.3875, 1237.070
306.8697, 1219.627
307.3518, 1206.943
307.8339, 1197.295
308.3160, 1189.987
308.7981, 1185.885
309.2802, 1180.566
309.7624, 1171.389
310.2445, 1158.781
310.7266, 1143.700
311.2087, 1122.862
311.6908, 1101.939
312.1729, 1085.264
312.6551, 1073.595
313.1372, 1063.917
313.6193, 1055.747
314.1014, 1048.376
314.5835, 1040.795
315.0656, 1033.375
315.5478, 1024.960
316.0299, 1015.203
316.5120, 1004.204
316.9941, 990.8156
317.4762, 969.3745
317.9583, 947.0845
318.4405, 932.2996
318.9226, 933.9276
319.4047, 937.9179
319.8868, 939.5258
320.3689, 938.3498
320.8510, 936.2139
321.3332, 934.3204
321.8153, 931.3405
322.2974, 926.0002
322.7795, 915.9951
323.2616, 905.7124
323.7437, 894.8442
324.2259, 883.3367
324.7080, 876.1383
325.1901, 877.2532
325.6722, 880.9562
326.1543, 882.9639
326.6364, 884.5386
327.1186, 882.7601
327.6007, 875.8939
328.0828, 864.4361
328.5649, 854.4578
329.0470, 846.8174
329.5291, 839.9442
330.0113, 832.6342
330.4934, 821.0553
330.9755, 815.2057
331.4576, 817.6776
331.9397, 826.6272
332.4218, 834.7717
332.9040, 844.7861
333.3861, 850.4111
333.8682, 846.4103
334.3503, 824.6348
334.8324, 815.4225
335.3145, 825.2809
335.7967, 845.7728
336.2788, 853.7568
336.7609, 844.7824
337.2430, 834.3817
337.7251, 830.7822
338.2072, 835.6757
338.6894, 836.3757
339.1715, 831.6073
339.6536, 824.2452
340.1357, 818.0172
340.6178, 812.1556
341.0999, 811.9571
341.5821, 823.2751
342.0642, 844.9344
342.5463, 857.1975
343.0284, 858.7611
343.5105, 854.6136
343.9926, 848.3062
344.4748, 840.1986
344.9569, 837.8400
345.4390, 847.7965
345.9211, 865.3218
346.4032, 873.3030
346.8853, 871.1265
347.3675, 866.6577
347.8496, 867.4320
348.3317, 872.4343
348.8138, 878.0818
349.2959, 883.5433
349.7780, 888.7505
350.2602, 893.3389
350.7423, 897.3875
351.2244, 902.2284
351.7065, 909.5836
352.1887, 918.3616
352.6708, 926.3830
353.1529, 932.7225
353.6350, 938.7358
354.1171, 945.4306
354.5992, 952.9467
355.0814, 961.5901
355.5635, 974.7687
356.0456, 987.6949
356.5277, 993.9973
357.0098, 988.9702
357.4919, 986.3406
357.9741, 997.8489
358.4562, 1018.082
358.9383, 1035.939
359.4204, 1044.190
359.9025, 1049.921
360.3846, 1056.992
360.8668, 1065.668
361.3489, 1076.613
361.8310, 1092.390
362.3131, 1109.923
362.7952, 1125.082
363.2773, 1133.636
363.7595, 1142.276
364.2416, 1154.611
364.7237, 1171.613
365.2058, 1184.260
365.6879, 1187.419
366.1700, 1187.218
366.6522, 1189.003
367.1343, 1195.090
367.6164, 1201.178
368.0985, 1206.954
368.5806, 1212.392
369.0627, 1217.061
369.5449, 1220.949
370.0270, 1224.064
370.5091, 1226.535
370.9912, 1228.838
371.4733, 1229.406
371.9554, 1226.447
372.4376, 1221.801
372.9197, 1223.065
373.4018, 1234.951
373.8839, 1244.008
374.3660, 1242.541
374.8481, 1227.479
375.3303, 1215.747
375.8124, 1208.758
376.2945, 1203.855
376.7766, 1195.179
377.2587, 1181.680
377.7408, 1170.836
378.2230, 1167.247
378.7051, 1170.141
379.1872, 1168.451
379.6693, 1161.515
380.1514, 1152.607
380.6335, 1145.021
381.1157, 1138.714
381.5978, 1134.031
382.0799, 1131.893
382.5620, 1131.045
383.0441, 1127.867
383.5262, 1122.371
384.0084, 1117.952
384.4905, 1120.589
384.9726, 1126.331
385.4547, 1124.805
385.9368, 1109.172
386.4189, 1092.414
386.9011, 1091.897
387.3832, 1104.062
387.8653, 1114.743
388.3474, 1111.996
388.8295, 1104.913
389.3116, 1103.660
389.7938, 1111.340
390.2759, 1119.915
390.7580, 1125.807
391.2401, 1129.001
391.7222, 1129.553
392.2043, 1123.307
392.6865, 1117.754
393.1686, 1116.895
393.6507, 1121.384
394.1328, 1128.136
394.6149, 1138.558
395.0970, 1149.756
395.5792, 1158.857
396.0613, 1164.629
396.5434, 1168.919
397.0255, 1170.341
397.5076, 1169.198
397.9897, 1172.552
398.4719, 1186.003
398.9540, 1200.441
399.4361, 1210.928
399.9182, 1215.414
400.4003, 1219.033
400.8824, 1222.122
401.3646, 1224.435
401.8467, 1224.879
402.3288, 1221.879
402.8109, 1219.799
403.2930, 1220.993
403.7751, 1226.526
404.2573, 1229.914
404.7394, 1230.951
405.2215, 1230.120
405.7036, 1228.483
406.1857, 1226.329
406.6678, 1221.326
407.1500, 1212.332
407.6321, 1199.800
408.1142, 1185.440
408.5963, 1169.007
409.0784, 1153.304
409.5605, 1141.088
410.0427, 1132.055
410.5248, 1124.663
411.0069, 1119.600
411.4890, 1114.489
411.9711, 1104.246
412.4532, 1089.678
412.9354, 1076.090
413.4175, 1069.494
413.8996, 1065.531
414.3817, 1057.157
414.8638, 1042.317
415.3459, 1027.514
415.8281, 1020.419
416.3102, 1017.321
416.7923, 1011.079
417.2744, 994.4867
417.7565, 976.7148
418.2386, 964.3961
418.7208, 957.9225
419.2029, 951.7167
419.6850, 939.9388
420.1671, 928.8499
420.6492, 924.1137
421.1313, 938.7989
421.6135, 947.6143
422.0956, 940.7513
422.5777, 921.4520
423.0598, 907.3885
423.5420, 907.9705
424.0241, 908.6336
424.5062, 901.9056
424.9883, 877.8179
425.4704, 865.0081
425.9525, 870.2368
426.4347, 883.7220
426.9168, 887.5956
427.3989, 876.2501
427.8810, 866.1732
428.3631, 863.6948
428.8452, 869.2985
429.3274, 867.8126
429.8095, 856.9601
430.2916, 843.9199
430.7737, 835.5075
431.2558, 831.8560
431.7379, 830.9170
432.2201, 832.9905
432.7022, 836.9728
433.1843, 840.5476
433.6664, 843.6865
434.1485, 845.3047
434.6306, 844.0520
435.1128, 840.6824
435.5949, 837.0593
436.0770, 833.2289
436.5591, 829.8446
437.0412, 826.9946
437.5233, 825.1732
438.0055, 825.6927
438.4876, 832.0334
438.9697, 839.2528
439.4518, 843.1678
439.9339, 843.6758
440.4160, 840.7764
440.8982, 830.8156
441.3803, 819.0717
441.8624, 810.6540
442.3445, 807.7026
442.8266, 807.4308
443.3087, 810.0288
443.7909, 814.7839
444.2730, 819.2599
444.7551, 823.4944
445.2372, 826.8668
445.7193, 829.0516
446.2014, 829.6013
446.6836, 829.9911
447.1657, 830.7109
447.6478, 831.0897
448.1299, 829.9215
448.6120, 824.4637
449.0941, 822.2231
449.5763, 825.7164
450.0584, 834.5632
450.5405, 842.2559
451.0226, 849.7793
451.5047, 854.1376
451.9868, 851.8972
452.4690, 842.3152
452.9511, 833.9611
453.4332, 827.2625
453.9153, 822.9713
454.3974, 824.2254
454.8795, 830.7885
455.3617, 836.2514
455.8438, 837.3467
456.3259, 834.9221
456.8080, 829.9814
457.2901, 822.3604
457.7722, 816.0572
458.2544, 815.9269
458.7365, 819.7522
459.2186, 823.3187
459.7007, 824.6956
460.1828, 825.9396
460.6649, 829.4777
461.1471, 834.6168
461.6292, 838.4890
462.1113, 839.3410
462.5934, 838.6623
463.0755, 837.0883
463.5576, 833.8622
464.0398, 832.2031
464.5219, 836.5347
465.0040, 842.0822
465.4861, 842.0933
465.9682, 824.3307
466.4503, 812.6884
466.9325, 816.4449
467.4146, 835.6523
467.8967, 844.8397
468.3788, 837.5140
468.8609, 827.1735
469.3430, 821.9699
469.8252, 821.9000
470.3073, 827.9385
470.7894, 843.3303
471.2715, 862.2166
471.7536, 871.1627
472.2357, 869.0959
472.7179, 863.9626
473.2000, 857.7874
473.6821, 851.0788
474.1642, 846.9926
474.6463, 845.5170
475.1284, 846.7604
475.6106, 852.7629
476.0927, 861.8601
476.5748, 868.2790
477.0569, 868.8060
477.5390, 868.7160
478.0211, 875.7304
478.5033, 887.9421
478.9854, 898.4297
479.4675, 903.8086
479.9496, 905.2770
480.4317, 902.1130
480.9138, 892.9682
481.3960, 887.0239
481.8781, 889.1889
482.3602, 896.5948
482.8423, 905.8410
483.3244, 918.5255
483.8065, 930.4488
484.2887, 941.8823
484.7708, 952.3302
485.2529, 957.9448
485.7350, 954.9688
486.2171, 950.8809
486.6992, 948.8308
487.1814, 949.0210
487.6635, 951.2505
488.1456, 957.6801
488.6277, 964.0880
489.1098, 962.3647
489.5919, 949.7873
490.0741, 942.4412
490.5562, 946.1940
491.0383, 958.6450
491.5204, 969.5476
492.0026, 979.0500
492.4847, 986.2955
492.9668, 988.9957
493.4489, 988.8004
493.9310, 991.9296
494.4131, 1000.734
494.8953, 1007.942
495.3774, 1001.244
495.8595, 986.1644
496.3416, 976.4928
496.8237, 986.3588
497.3058, 998.0874
497.7880, 994.9253
498.2701, 977.5818
498.7522, 965.2426
499.2343, 970.1476
499.7164, 981.8085
500.1985, 992.7745
500.6807, 1003.859
501.1628, 1010.373
501.6449, 1008.537
502.1270, 1001.877
502.6091, 998.0418
503.0912, 1000.256
503.5734, 1001.438
504.0555, 999.1411
504.5376, 993.1929
505.0197, 989.8747
505.5018, 990.9116
505.9839, 991.5925
506.4661, 987.1778
506.9482, 976.8724
507.4303, 968.8345
507.9124, 964.3674
508.3945, 962.1139
508.8766, 959.6833
509.3588, 957.1224
509.8409, 955.0738
510.3230, 955.0004
510.8051, 955.3490
511.2872, 952.2030
511.7693, 945.5372
512.2515, 939.5031
512.7336, 937.8908
513.2157, 938.5704
513.6978, 939.0864
514.1799, 939.9390
514.6620, 938.5416
515.1442, 931.0488
515.6263, 920.2836
516.1084, 912.5066
516.5905, 910.4368
517.0726, 910.8945
517.5547, 914.5399
518.0369, 922.5093
518.5190, 924.0817
519.0011, 914.1252
519.4832, 901.5891
519.9653, 892.3094
520.4474, 886.3016
520.9296, 884.1890
521.4117, 887.9488
521.8938, 894.1832
522.3759, 894.9803
522.8580, 889.5710
523.3401, 882.8027
523.8223, 873.3265
524.3044, 863.6566
524.7865, 870.1833
525.2686, 893.9429
525.7507, 916.0375
526.2328, 916.4146
526.7150, 902.7045
527.1971, 892.0295
527.6792, 888.3625
528.1613, 887.4547
528.6434, 884.2510
529.1255, 880.7866
529.6077, 881.3445
530.0898, 893.1931
530.5719, 905.1042
531.0540, 909.2692
531.5361, 905.4498
532.0182, 905.1691
532.5004, 917.2794
532.9825, 930.1018
533.4646, 935.8901
533.9467, 928.6858
534.4288, 922.6729
534.9109, 917.3477
535.3931, 913.4086
535.8752, 911.7780
536.3573, 911.9238
536.8394, 916.2526
537.3215, 928.1326
537.8036, 945.2415
538.2858, 949.6867
538.7679, 939.3868
539.2500, 931.1470
539.7321, 941.5454
540.2142, 965.4371
540.6964, 982.6350
541.1785, 990.1597
541.6606, 993.6793
542.1427, 997.8884
542.6248, 1002.784
543.1069, 1008.362
543.5891, 1015.356
544.0712, 1022.424
544.5533, 1028.499
545.0354, 1033.762
545.5175, 1039.175
545.9996, 1043.670
546.4818, 1049.518
546.9639, 1058.609
547.4460, 1073.513
547.9281, 1085.312
548.4102, 1091.820
548.8923, 1095.870
549.3745, 1100.097
549.8566, 1103.818
550.3387, 1109.482
550.8208, 1119.034
551.3029, 1130.315
551.7850, 1134.697
552.2672, 1131.101
552.7493, 1127.356
553.2314, 1127.495
553.7135, 1131.037
554.1956, 1136.491
554.6777, 1144.168
555.1599, 1150.165
555.6420, 1147.824
556.1241, 1141.391
556.6062, 1139.966
557.0883, 1149.197
557.5704, 1157.876
558.0526, 1155.793
558.5347, 1146.555
559.0168, 1138.088
559.4989, 1135.003
559.9810, 1132.369
560.4631, 1126.521
560.9453, 1117.014
561.4274, 1112.962
561.9095, 1123.530
562.3916, 1133.950
562.8737, 1135.379
563.3558, 1121.624
563.8380, 1112.787
564.3201, 1110.675
564.8022, 1111.976
565.2843, 1112.101
565.7664, 1111.174
566.2485, 1107.807
566.7307, 1100.429
567.2128, 1090.970
567.6949, 1084.011
568.1770, 1079.562
568.6591, 1078.678
569.1412, 1087.775
569.6234, 1098.871
570.1055, 1098.032
570.5876, 1082.793
571.0697, 1065.635
571.5518, 1054.261
572.0339, 1046.299
572.5161, 1039.189
572.9982, 1033.527
573.4803, 1027.059
573.9624, 1017.962
574.4445, 1007.432
574.9266, 999.3015
575.4088, 991.5623
575.8909, 988.9392
576.3730, 995.0598
576.8551, 1010.453
577.3372, 1018.505
577.8193, 1017.403
578.3015, 1012.597
578.7836, 1007.073
579.2657, 1000.889
579.7478, 997.7405
580.2299, 998.7984
580.7120, 1000.498
581.1942, 996.4243
581.6763, 988.3373
582.1584, 982.7841
582.6405, 985.2651
583.1226, 988.8907
583.6047, 985.2197
584.0869, 975.9008
584.5690, 968.0005
585.0511, 964.0308
585.5332, 963.4733
586.0153, 966.7904
586.4974, 974.9028
586.9796, 982.4373
587.4617, 989.0898
587.9438, 994.3588
588.4259, 997.8483
588.9080, 998.6138
589.3901, 999.4494
589.8723, 1001.421
590.3544, 1002.963
590.8365, 999.1448
591.3186, 988.6295
591.8007, 981.8232
592.2828, 982.1520
592.7650, 989.0943
593.2471, 1005.400
593.7292, 1030.673
594.2113, 1049.249
594.6934, 1042.412
595.1755, 1024.477
595.6577, 1017.531
596.1398, 1025.755
596.6219, 1035.608
597.1040, 1040.267
597.5862, 1040.776
598.0683, 1038.433
598.5504, 1028.063
599.0325, 1021.127
599.5146, 1021.243
599.9968, 1026.857
600.4789, 1033.370
600.9610, 1042.125
601.4431, 1049.697
601.9252, 1055.743
602.4073, 1060.079
602.8895, 1058.676
603.3716, 1049.782
603.8537, 1041.251
604.3358, 1039.542
604.8179, 1043.712
605.3000, 1047.799
605.7822, 1051.368
606.2643, 1054.363
606.7464, 1056.542
607.2285, 1058.191
607.7106, 1060.122
608.1927, 1064.587
608.6749, 1066.941
609.1570, 1062.727
609.6391, 1053.750
610.1212, 1045.163
610.6033, 1037.189
611.0854, 1031.194
611.5676, 1028.368
612.0497, 1029.029
612.5318, 1029.358
613.0139, 1029.850
613.4960, 1029.397
613.9781, 1026.243
614.4603, 1018.936
614.9424, 1017.675
615.4245, 1024.205
615.9066, 1033.542
616.3887, 1040.677
616.8708, 1045.293
617.3530, 1045.220
617.8351, 1038.426
618.3172, 1028.907
618.7993, 1019.817
619.2814, 1011.912
619.7635, 1007.385
620.2457, 1011.027
620.7278, 1015.454
621.2099, 1014.198
621.6920, 1007.213
622.1741, 1004.960
622.6563, 1017.566
623.1384, 1030.054
623.6205, 1033.325
624.1026, 1022.791
624.5847, 1014.555
625.0668, 1008.305
625.5490, 1004.713
626.0311, 1005.953
626.5132, 1012.793
626.9953, 1015.951
627.4774, 1012.247
627.9595, 1006.310
628.4417, 1007.291
