##NAMES=Fayalite
##RRUFFID=R100103
##IDEAL CHEMISTRY=Fe^2+^_2_SiO_4_
##LOCALITY=Franklin, Sussex County, New Jersey, USA
##OWNER=RRUFF
##SOURCE=American Museum of Natural History
##DESCRIPTION=Dark brown fragment
##STATUS=The identification of this mineral is confirmed by single-crystal X-ray diffraction and chemical analysis.
##URL=rruff.info/R100103
##MEASURED CHEMISTRY=(Fe^+2^_1.908_Mg_0.046_Zn_0.028_Ca_0.009_Mn^+2^_0.006_Ni_0.001_Al_0.001_)_Î£=1.999_Si_1.000_O_4_
152.2799, 69.44268
152.7620, 68.77940
153.2441, 68.50455
153.7263, 68.42413
154.2084, 68.20197
154.6905, 67.66250
155.1726, 66.91846
155.6547, 66.21085
156.1368, 65.56252
156.6190, 64.91585
157.1011, 64.35527
157.5832, 63.77959
158.0653, 62.95869
158.5474, 61.56191
159.0295, 59.66684
159.5117, 58.32147
159.9938, 57.93523
160.4759, 57.75105
160.9580, 57.63137
161.4401, 57.50332
161.9222, 57.25801
162.4044, 56.75666
162.8865, 55.91972
163.3686, 55.28203
163.8507, 54.82655
164.3328, 54.55815
164.8149, 54.50007
165.2971, 54.64483
165.7792, 54.99125
166.2613, 55.61840
166.7434, 56.90430
167.2255, 57.23966
167.7076, 55.78076
168.1898, 54.08937
168.6719, 53.33754
169.1540, 53.73174
169.6361, 54.58046
170.1182, 54.91761
170.6003, 54.48160
171.0825, 54.15586
171.5646, 54.00272
172.0467, 53.96873
172.5288, 54.04890
173.0109, 54.26457
173.4930, 54.46109
173.9752, 54.30230
174.4573, 53.73458
174.9394, 53.28812
175.4215, 53.35707
175.9036, 53.65548
176.3857, 53.46823
176.8679, 52.38878
177.3500, 51.06007
177.8321, 50.40648
178.3142, 50.47701
178.7963, 50.52789
179.2784, 50.02026
179.7606, 49.02999
180.2427, 48.20755
180.7248, 47.76078
181.2069, 47.53413
181.6890, 47.44070
182.1711, 47.48137
182.6533, 47.47715
183.1354, 47.09010
183.6175, 46.20727
184.0996, 45.83960
184.5817, 47.10766
185.0638, 48.42724
185.5460, 48.71841
186.0281, 47.77322
186.5102, 46.41687
186.9923, 45.87172
187.4744, 46.56503
187.9565, 46.93711
188.4387, 46.41526
188.9208, 45.77142
189.4029, 45.63024
189.8850, 46.16389
190.3671, 46.98737
190.8492, 47.39314
191.3314, 47.28931
191.8135, 46.82798
192.2956, 45.43559
192.7777, 44.02262
193.2598, 43.50285
193.7419, 44.21896
194.2241, 45.67976
194.7062, 46.70189
195.1883, 47.09237
195.6704, 47.19423
196.1525, 46.69679
196.6346, 46.01566
197.1168, 45.70655
197.5989, 46.02711
198.0810, 46.68402
198.5631, 46.80957
199.0452, 45.89285
199.5273, 45.15818
200.0095, 44.93962
200.4916, 45.00831
200.9737, 44.94453
201.4558, 44.51587
201.9379, 43.93553
202.4200, 43.88148
202.9022, 44.77870
203.3843, 45.36976
203.8664, 44.88312
204.3485, 43.70061
204.8306, 42.95430
205.3127, 43.32343
205.7949, 44.19993
206.2770, 44.18135
206.7591, 42.85344
207.2412, 41.60816
207.7233, 41.34184
208.2054, 41.91905
208.6876, 42.52014
209.1697, 42.84034
209.6518, 42.99280
210.1339, 43.19998
210.6160, 43.53015
211.0981, 43.73667
211.5803, 43.54850
212.0624, 42.96529
212.5445, 42.38513
213.0266, 41.74503
213.5087, 41.32484
213.9908, 41.51225
214.4730, 42.45882
214.9551, 43.49319
215.4372, 43.87207
215.9193, 43.52497
216.4014, 42.97039
216.8836, 41.92717
217.3657, 40.96711
217.8478, 40.52282
218.3299, 40.70500
218.8120, 41.22130
219.2941, 41.78655
219.7763, 42.54274
220.2584, 42.85399
220.7405, 42.10541
221.2226, 41.20932
221.7047, 40.74150
222.1868, 40.86519
222.6690, 41.44221
223.1511, 42.41097
223.6332, 44.31165
224.1153, 45.32093
224.5974, 44.79515
225.0795, 43.77445
225.5617, 42.88746
226.0438, 42.34499
226.5259, 42.10241
227.0080, 42.11097
227.4901, 42.54022
227.9722, 42.92704
228.4544, 43.35767
228.9365, 43.68773
229.4186, 43.79088
229.9007, 43.63691
230.3828, 43.29290
230.8649, 42.83028
231.3471, 41.71378
231.8292, 41.41849
232.3113, 42.74519
232.7934, 44.35321
233.2755, 45.11023
233.7576, 44.71465
234.2398, 43.69657
234.7219, 42.92525
235.2040, 42.55859
235.6861, 42.18357
236.1682, 41.39758
236.6503, 40.81287
237.1325, 41.27605
237.6146, 42.95156
238.0967, 44.86269
238.5788, 45.49417
239.0609, 44.05350
239.5430, 43.08855
240.0252, 43.12258
240.5073, 43.44967
240.9894, 43.21804
241.4715, 42.22807
241.9536, 41.23021
242.4357, 41.37304
242.9179, 43.04671
243.4000, 44.10816
243.8821, 44.14471
244.3642, 43.56929
244.8463, 42.59311
245.3284, 41.21703
245.8106, 40.05985
246.2927, 40.02097
246.7748, 41.14473
247.2569, 42.08073
247.7390, 42.53563
248.2211, 42.74575
248.7033, 43.05427
249.1854, 43.54414
249.6675, 43.87563
250.1496, 43.56487
250.6317, 42.71218
251.1138, 41.98363
251.5960, 41.46766
252.0781, 41.16632
252.5602, 41.15182
253.0423, 41.47602
253.5244, 41.82848
254.0065, 41.96447
254.4887, 41.92014
254.9708, 41.74907
255.4529, 41.42015
255.9350, 40.98887
256.4171, 40.50257
256.8992, 39.94036
257.3813, 39.42616
257.8635, 39.00307
258.3456, 38.69125
258.8277, 38.55592
259.3098, 38.54283
259.7919, 38.76107
260.2740, 39.54342
260.7562, 41.07770
261.2383, 42.36131
261.7204, 42.68235
262.2025, 42.43874
262.6846, 41.99002
263.1667, 41.22927
263.6489, 40.56134
264.1310, 40.73143
264.6131, 41.98555
265.0952, 43.00538
265.5773, 42.98073
266.0594, 42.50297
266.5416, 42.06355
267.0237, 41.77804
267.5058, 41.61152
267.9879, 41.48492
268.4700, 41.36206
268.9521, 41.45353
269.4343, 42.28970
269.9164, 43.13221
270.3985, 43.27258
270.8806, 42.48997
271.3627, 41.50951
271.8448, 41.26921
272.3270, 41.90717
272.8091, 42.55981
273.2912, 43.21908
273.7733, 43.70198
274.2554, 43.72952
274.7375, 43.28270
275.2197, 42.87654
275.7018, 43.24885
276.1839, 44.58665
276.6660, 45.47167
277.1481, 45.10928
277.6302, 44.66412
278.1124, 44.71795
278.5945, 45.29984
279.0766, 46.06863
279.5587, 46.80828
280.0408, 47.56611
280.5229, 47.88734
281.0051, 47.28457
281.4872, 46.61333
281.9693, 46.13271
282.4514, 45.88319
282.9335, 45.86636
283.4156, 46.20356
283.8978, 46.91039
284.3799, 47.23198
284.8620, 46.89165
285.3441, 46.40492
285.8262, 45.72419
286.3083, 45.02967
286.7905, 44.69889
287.2726, 45.13740
287.7547, 46.21272
288.2368, 46.59645
288.7189, 45.41872
289.2010, 44.56590
289.6832, 44.80436
290.1653, 45.63593
290.6474, 46.29524
291.1295, 46.33176
291.6116, 45.88813
292.0938, 45.54622
292.5759, 45.48323
293.0580, 45.26055
293.5401, 44.64461
294.0222, 43.89594
294.5043, 43.32744
294.9865, 43.08294
295.4686, 43.02422
295.9507, 42.76579
296.4328, 41.91832
296.9149, 41.60548
297.3970, 42.51796
297.8792, 43.63122
298.3613, 43.94838
298.8434, 43.20035
299.3255, 42.02449
299.8076, 41.49130
300.2897, 41.89916
300.7719, 42.30339
301.2540, 43.03865
301.7361, 43.48884
302.2182, 43.06902
302.7003, 41.78920
303.1824, 40.29433
303.6646, 39.28086
304.1467, 38.71840
304.6288, 38.80894
305.1109, 40.65488
305.5930, 42.15999
306.0751, 41.93030
306.5573, 40.29985
307.0394, 38.75714
307.5215, 38.76604
308.0036, 40.48061
308.4857, 41.48600
308.9678, 41.08787
309.4500, 40.63235
309.9321, 40.56353
310.4142, 40.73058
310.8963, 40.76091
311.3784, 40.39363
311.8605, 39.67319
312.3427, 38.94855
312.8248, 37.86710
313.3069, 37.22290
313.7890, 37.37500
314.2711, 37.97100
314.7532, 38.62354
315.2354, 39.15211
315.7175, 39.50377
316.1996, 39.48861
316.6817, 38.77160
317.1638, 38.20680
317.6459, 38.00081
318.1281, 37.91058
318.6102, 37.74038
319.0923, 37.42308
319.5744, 36.99010
320.0565, 36.45882
320.5386, 35.69859
321.0208, 35.15466
321.5029, 34.80247
321.9850, 34.66402
322.4671, 34.87970
322.9492, 35.39311
323.4313, 35.89692
323.9135, 36.02503
324.3956, 35.67752
324.8777, 35.45760
325.3598, 35.47049
325.8419, 35.51286
326.3240, 35.63137
326.8062, 35.72779
327.2883, 35.55534
327.7704, 34.82119
328.2525, 33.58788
328.7346, 32.96526
329.2167, 33.78155
329.6989, 34.28663
330.1810, 33.76145
330.6631, 32.72578
331.1452, 31.95241
331.6273, 31.85758
332.1094, 32.28678
332.5916, 32.80763
333.0737, 33.64975
333.5558, 34.16577
334.0379, 34.20502
334.5200, 33.94764
335.0021, 33.43599
335.4843, 32.70148
335.9664, 32.02996
336.4485, 31.95067
336.9306, 32.71222
337.4127, 33.32621
337.8948, 33.89604
338.3770, 34.15245
338.8591, 33.69886
339.3412, 32.62601
339.8233, 31.58590
340.3055, 31.29985
340.7876, 31.85540
341.2697, 32.29592
341.7518, 32.72434
342.2339, 32.90694
342.7160, 32.46870
343.1982, 31.69681
343.6803, 31.28547
344.1624, 31.86609
344.6445, 33.15877
345.1266, 33.70612
345.6087, 33.03264
346.0909, 32.35938
346.5730, 31.88671
347.0551, 31.71169
347.5372, 32.08191
348.0193, 33.21310
348.5014, 34.54275
348.9836, 34.96066
349.4657, 34.16257
349.9478, 33.46674
350.4299, 33.35931
350.9120, 33.39531
351.3941, 33.23090
351.8763, 32.80615
352.3584, 32.36989
352.8405, 32.17374
353.3226, 32.22116
353.8047, 32.36661
354.2868, 32.71602
354.7690, 33.03014
355.2511, 33.11547
355.7332, 33.01958
356.2153, 32.95387
356.6974, 33.11514
357.1795, 33.42686
357.6617, 33.55919
358.1438, 33.40025
358.6259, 33.28786
359.1080, 33.55133
359.5901, 33.96085
360.0722, 34.11507
360.5544, 33.72191
361.0365, 33.18526
361.5186, 33.09416
362.0007, 33.49487
362.4828, 34.00842
362.9649, 34.80024
363.4471, 35.42862
363.9292, 35.20600
364.4113, 33.82978
364.8934, 32.65724
365.3755, 33.10102
365.8576, 34.81257
366.3398, 35.79874
366.8219, 35.32992
367.3040, 34.40314
367.7861, 34.09281
368.2682, 34.33722
368.7503, 34.55892
369.2325, 34.33767
369.7146, 34.00419
370.1967, 34.27340
370.6788, 35.32104
371.1609, 36.25328
371.6430, 36.25206
372.1252, 35.56074
372.6073, 35.00396
373.0894, 34.72197
373.5715, 34.58184
374.0536, 34.51833
374.5357, 34.52180
375.0179, 34.53432
375.5000, 34.52868
375.9821, 34.51481
376.4642, 34.55148
376.9463, 34.77285
377.4284, 34.74569
377.9106, 33.84234
378.3927, 32.68608
378.8748, 32.55571
379.3569, 33.88356
379.8390, 35.54987
380.3211, 36.06393
380.8033, 35.17748
381.2854, 34.53438
381.7675, 34.41002
382.2496, 34.45465
382.7317, 34.41265
383.2138, 34.26704
383.6960, 34.11863
384.1781, 34.05964
384.6602, 34.07359
385.1423, 33.91432
385.6244, 33.27364
386.1065, 32.83338
386.5887, 33.11445
387.0708, 33.69479
387.5529, 33.72239
388.0350, 32.79261
388.5171, 31.49349
388.9992, 31.13089
389.4814, 32.67076
389.9635, 33.70658
390.4456, 33.96029
390.9277, 33.90480
391.4098, 33.99281
391.8919, 34.24231
392.3741, 34.24825
392.8562, 33.48975
393.3383, 31.76406
393.8204, 30.83126
394.3025, 31.28775
394.7846, 31.85666
395.2668, 32.24067
395.7489, 32.40602
396.2310, 32.34153
396.7131, 32.02051
397.1952, 31.53705
397.6773, 31.22683
398.1595, 31.23590
398.6416, 31.17889
399.1237, 30.87841
399.6058, 30.57492
400.0879, 30.51604
400.5700, 30.74155
401.0522, 31.03579
401.5343, 31.13177
402.0164, 30.99449
402.4985, 30.85954
402.9806, 30.67225
403.4627, 30.55207
403.9449, 30.63465
404.4270, 30.83273
404.9091, 30.91782
405.3912, 30.69459
405.8733, 30.28259
406.3554, 30.16172
406.8376, 30.63499
407.3197, 30.62735
407.8018, 28.97984
408.2839, 26.97801
408.7660, 26.03263
409.2481, 26.57592
409.7303, 27.59556
410.2124, 28.12220
410.6945, 28.18451
411.1766, 28.25695
411.6587, 28.47907
412.1408, 28.68526
412.6230, 28.68742
413.1051, 28.51553
413.5872, 28.39067
414.0693, 28.39349
414.5514, 28.50471
415.0335, 28.84116
415.5157, 29.46208
415.9978, 29.68592
416.4799, 28.72979
416.9620, 27.08923
417.4441, 26.32768
417.9262, 27.12577
418.4084, 27.97871
418.8905, 27.88013
419.3726, 27.17051
419.8547, 26.75803
420.3368, 26.98890
420.8189, 27.51038
421.3011, 27.73770
421.7832, 27.56369
422.2653, 27.56865
422.7474, 28.18903
423.2295, 28.76038
423.7116, 28.46986
424.1938, 27.40553
424.6759, 26.58733
425.1580, 26.90879
425.6401, 28.27123
426.1222, 28.82543
426.6043, 27.68035
427.0865, 26.89303
427.5686, 27.36361
428.0507, 28.37479
428.5328, 28.90299
429.0149, 28.55861
429.4970, 27.69776
429.9792, 26.86702
430.4613, 25.69476
430.9434, 25.42323
431.4255, 26.88126
431.9076, 28.35076
432.3897, 28.80267
432.8719, 28.35237
433.3540, 27.74111
433.8361, 27.56019
434.3182, 27.72357
434.8003, 27.58026
435.2824, 26.87325
435.7646, 26.24861
436.2467, 25.70476
436.7288, 25.38828
437.2109, 25.56782
437.6930, 26.33376
438.1751, 27.21066
438.6573, 27.57507
439.1394, 27.38885
439.6215, 27.20880
440.1036, 27.12704
440.5857, 27.04377
441.0678, 26.91091
441.5500, 26.72541
442.0321, 26.48251
442.5142, 26.11301
442.9963, 25.71015
443.4784, 25.42597
443.9605, 25.25894
444.4427, 25.23262
444.9248, 25.46227
445.4069, 25.79280
445.8890, 25.92138
446.3711, 25.73125
446.8532, 25.63322
447.3354, 26.04423
447.8175, 26.68917
448.2996, 26.88486
448.7817, 26.42524
449.2638, 25.86197
449.7459, 25.84306
450.2281, 26.41109
450.7102, 26.70284
451.1923, 26.48880
451.6744, 26.16629
452.1565, 25.87448
452.6386, 25.67178
453.1208, 25.68906
453.6029, 26.00371
454.0850, 26.54944
454.5671, 27.14912
455.0492, 28.31184
455.5313, 28.79437
456.0135, 28.02205
456.4956, 26.94326
456.9777, 26.26579
457.4598, 26.10331
457.9419, 26.21237
458.4240, 26.38696
458.9062, 26.62813
459.3883, 26.84885
459.8704, 27.25951
460.3525, 27.39344
460.8346, 26.93929
461.3167, 26.22994
461.7989, 25.68584
462.2810, 25.46616
462.7631, 25.41133
463.2452, 25.26254
463.7273, 24.98631
464.2094, 24.81507
464.6916, 24.81580
465.1737, 24.90087
465.6558, 25.14509
466.1379, 25.45535
466.6200, 25.51722
467.1021, 24.89016
467.5843, 24.02334
468.0664, 23.89857
468.5485, 24.60976
469.0306, 25.39433
469.5127, 26.01815
469.9948, 26.44574
470.4770, 26.63613
470.9591, 26.56297
471.4412, 26.34662
471.9233, 25.94412
472.4054, 25.46387
472.8875, 25.08695
473.3697, 24.84250
473.8518, 24.73970
474.3339, 24.77527
474.8160, 24.96588
475.2981, 25.37362
475.7802, 26.52582
476.2624, 27.33619
476.7445, 27.07286
477.2266, 26.16205
477.7087, 25.34416
478.1908, 24.90273
478.6729, 24.85185
479.1551, 25.28124
479.6372, 26.69534
480.1193, 27.37749
480.6014, 26.92999
481.0835, 26.21491
481.5656, 25.42441
482.0478, 24.76865
482.5299, 24.68017
483.0120, 25.54336
483.4941, 26.99239
483.9762, 27.56232
484.4583, 26.76621
484.9405, 26.07311
485.4226, 25.80214
485.9047, 25.71240
486.3868, 25.59955
486.8689, 25.44833
487.3510, 25.43853
487.8332, 25.87695
488.3153, 26.62595
488.7974, 27.00435
489.2795, 26.91560
489.7616, 26.63047
490.2437, 26.21335
490.7259, 25.72661
491.2080, 25.21453
491.6901, 24.54973
492.1722, 24.13767
492.6543, 24.37765
493.1364, 25.11087
493.6186, 25.98085
494.1007, 26.98455
494.5828, 27.74683
495.0649, 27.76945
495.5470, 26.96886
496.0291, 26.22513
496.5113, 25.39501
496.9934, 24.78427
497.4755, 24.63859
497.9576, 24.85453
498.4397, 25.18834
498.9218, 25.52491
499.4040, 25.87871
499.8861, 26.29953
500.3682, 27.02988
500.8503, 27.35151
501.3324, 27.12506
501.8145, 26.66213
502.2967, 25.97608
502.7788, 25.20577
503.2609, 24.66565
503.7430, 24.61442
504.2251, 24.91022
504.7072, 24.97993
505.1894, 24.67974
505.6715, 24.48454
506.1536, 24.44255
506.6357, 24.59723
507.1178, 25.15824
507.5999, 26.10549
508.0821, 26.83508
508.5642, 26.77740
509.0463, 26.16187
509.5284, 25.61009
510.0105, 25.12677
510.4926, 24.85913
510.9748, 25.08472
511.4569, 25.54607
511.9390, 25.60137
512.4211, 24.91484
512.9032, 24.37641
513.3853, 24.76996
513.8674, 25.50994
514.3495, 25.33322
514.8317, 23.96175
515.3138, 22.73088
515.7959, 23.16547
516.2780, 25.45261
516.7601, 26.52404
517.2422, 25.63964
517.7244, 24.58372
518.2065, 23.72404
518.6886, 23.14449
519.1707, 23.02237
519.6528, 23.39151
520.1349, 23.87378
520.6171, 23.77802
521.0992, 22.79279
521.5813, 22.50497
522.0634, 23.69280
522.5455, 24.83289
523.0276, 25.47864
523.5098, 25.66386
523.9919, 25.43728
524.4740, 24.70668
524.9561, 23.90166
525.4382, 23.66267
525.9203, 23.99929
526.4025, 24.50091
526.8846, 25.27403
527.3667, 25.90963
527.8488, 25.97562
528.3309, 25.54255
528.8130, 25.01632
529.2952, 24.30723
529.7773, 23.71398
530.2594, 23.80039
530.7415, 24.34010
531.2236, 24.12793
531.7057, 22.43226
532.1879, 20.29142
532.6700, 19.77575
533.1521, 21.90641
533.6342, 23.38965
534.1163, 23.73365
534.5984, 23.78147
535.0806, 23.95646
535.5627, 24.31358
536.0448, 24.89400
536.5269, 25.76805
537.0090, 26.68484
537.4911, 26.77056
537.9733, 25.40535
538.4554, 24.58050
538.9375, 24.99105
539.4196, 25.60229
539.9017, 25.76839
540.3839, 25.52582
540.8660, 25.31172
541.3481, 25.45604
541.8302, 25.79029
542.3123, 25.94982
542.7944, 25.92662
543.2766, 25.80477
543.7587, 25.63853
544.2408, 25.36192
544.7229, 24.76101
545.2050, 23.74388
545.6871, 23.19419
546.1693, 23.77713
546.6514, 24.75604
547.1335, 25.48064
547.6156, 25.85836
548.0977, 25.72387
548.5798, 24.86180
549.0620, 23.59505
549.5441, 23.01850
550.0262, 23.52441
550.5083, 24.25441
550.9904, 25.82785
551.4725, 27.15398
551.9547, 27.18521
552.4368, 26.11264
552.9189, 24.92915
553.4010, 24.30959
553.8831, 24.23022
554.3652, 24.74072
554.8474, 26.25261
555.3295, 27.30748
555.8116, 27.30056
556.2937, 26.85347
556.7758, 26.22017
557.2579, 25.47787
557.7401, 24.94544
558.2222, 24.83701
558.7043, 25.04829
559.1864, 25.59039
559.6685, 26.46150
560.1506, 26.84318
560.6328, 26.10469
561.1149, 24.85405
561.5970, 24.49003
562.0791, 25.27442
562.5612, 25.90650
563.0433, 26.13655
563.5255, 26.13049
564.0076, 25.83839
564.4897, 25.40221
564.9718, 25.32372
565.4539, 25.98279
565.9360, 27.03926
566.4182, 27.29657
566.9003, 26.16099
567.3824, 25.34107
567.8645, 25.10624
568.3466, 25.05369
568.8287, 24.84071
569.3109, 24.55948
569.7930, 24.66299
570.2751, 25.69351
570.7572, 27.01276
571.2393, 27.07332
571.7214, 25.74969
572.2036, 24.72757
572.6857, 24.73539
573.1678, 25.06084
573.6499, 24.65274
574.1320, 23.53452
574.6141, 23.10380
575.0963, 24.48287
575.5784, 26.11496
576.0605, 26.71688
576.5426, 26.39734
577.0247, 25.57068
577.5068, 24.35253
577.9890, 23.20024
578.4711, 23.04689
578.9532, 24.56797
579.4353, 25.36650
579.9174, 24.87599
580.3995, 24.32520
580.8817, 24.40400
581.3638, 24.84610
581.8459, 24.98638
582.3280, 24.47242
582.8101, 23.84781
583.2922, 24.29532
583.7744, 25.95985
584.2565, 26.42539
584.7386, 24.58777
585.2207, 22.61080
585.7029, 22.02556
586.1850, 22.47662
586.6671, 23.13833
587.1492, 24.06730
587.6313, 24.81135
588.1135, 24.98886
588.5956, 24.73762
589.0777, 24.30095
589.5598, 23.73284
590.0419, 23.24358
590.5240, 23.08813
591.0062, 23.28778
591.4883, 23.33904
591.9704, 23.06992
592.4525, 22.87935
592.9346, 22.79594
593.4167, 22.87877
593.8989, 23.31371
594.3810, 24.07557
594.8631, 24.75669
595.3452, 24.93107
595.8273, 24.62672
596.3094, 24.10868
596.7916, 23.16995
597.2737, 22.48553
597.7558, 22.51370
598.2379, 22.86680
598.7200, 23.18900
599.2021, 23.44720
599.6843, 23.63598
600.1664, 23.81857
600.6485, 23.89828
601.1306, 23.66339
601.6127, 23.13671
602.0948, 22.59806
602.5770, 22.15911
603.0591, 21.90524
603.5412, 22.09183
604.0233, 23.29473
604.5054, 23.98652
604.9875, 23.78656
605.4697, 23.42041
605.9518, 23.24717
606.4339, 23.30438
606.9160, 23.59412
607.3981, 24.15631
607.8802, 24.76809
608.3624, 24.98090
608.8445, 24.76318
609.3266, 24.35577
609.8087, 23.57194
610.2908, 22.90075
610.7729, 22.78382
611.2551, 23.06283
611.7372, 23.26905
612.2193, 23.22189
612.7014, 23.14523
613.1835, 23.21087
613.6656, 23.36366
614.1478, 23.50408
614.6299, 23.60611
615.1120, 23.62581
615.5941, 23.49652
616.0762, 23.21681
616.5583, 23.05643
617.0405, 22.99283
617.5226, 23.07700
618.0047, 23.57199
618.4868, 24.06413
618.9689, 23.99908
619.4510, 23.39546
619.9332, 22.93433
620.4153, 23.30868
620.8974, 24.25642
621.3795, 24.80992
621.8616, 24.90424
622.3438, 24.94623
622.8259, 25.05329
623.3080, 25.20880
623.7901, 25.49733
624.2722, 25.95180
624.7543, 25.98069
625.2365, 24.81587
625.7186, 23.67560
626.2007, 23.79669
626.6828, 24.79753
627.1649, 25.52208
627.6470, 25.48508
628.1292, 25.01495
628.6113, 24.60056
629.0934, 24.19803
629.5755, 24.03412
630.0576, 24.48486
630.5397, 24.77445
631.0219, 24.31791
631.5040, 23.70252
631.9861, 23.94644
632.4682, 25.37896
632.9503, 26.65340
633.4324, 26.09467
633.9146, 24.38853
634.3967, 23.93708
634.8788, 25.07374
635.3609, 26.05122
635.8430, 25.71846
636.3251, 24.58365
636.8073, 24.13875
637.2894, 24.64905
637.7715, 25.08652
638.2536, 25.46022
638.7357, 25.57335
639.2178, 24.99322
639.7000, 24.00776
640.1821, 23.46882
640.6642, 23.86943
641.1463, 24.68781
641.6284, 24.76547
642.1105, 23.87829
642.5927, 23.47668
643.0748, 24.08576
643.5569, 24.68760
644.0390, 24.59627
644.5211, 24.11420
645.0032, 23.88593
645.4854, 24.19787
645.9675, 24.45722
646.4496, 24.10631
646.9317, 23.47791
