##NAMES=Fayalite
##RRUFFID=R070293
##IDEAL CHEMISTRY=Fe^2+^_2_SiO_4_
##LOCALITY=Pike's Peak, Teller County, Colorado, USA
##OWNER=RRUFF
##SOURCE=Michael Scott
##DESCRIPTION=Black single crystal fragment with internal hints of red and green
##STATUS=The identification of this mineral has been confirmed by X-ray diffraction and chemical analysis
##URL=rruff.info/R070293
##MEASURED CHEMISTRY=(Fe^2+^_1.87_Mn^2+^_0.13_)_Î£=2_Si_1.00_O_4_ ; trace amounts of Mg
120.2527, 49.58891
120.7348, 54.46294
121.2169, 60.15867
121.6990, 65.13551
122.1812, 69.69412
122.6633, 73.81004
123.1454, 77.07931
123.6275, 81.06725
124.1096, 87.87217
124.5917, 96.94815
125.0739, 106.0647
125.5560, 112.9461
126.0381, 118.8678
126.5202, 126.7922
127.0023, 138.4875
127.4844, 151.2190
127.9666, 159.5457
128.4487, 163.5300
128.9308, 168.2094
129.4129, 179.1050
129.8950, 195.1468
130.3772, 210.2989
130.8593, 222.9557
131.3414, 233.4294
131.8235, 242.4369
132.3056, 249.6493
132.7877, 256.4529
133.2699, 263.5109
133.7520, 270.7437
134.2341, 281.2086
134.7162, 297.1894
135.1983, 318.7535
135.6804, 339.3478
136.1626, 358.4905
136.6447, 376.9934
137.1268, 396.0236
137.6089, 415.1758
138.0910, 435.8053
138.5731, 458.5490
139.0553, 484.2503
139.5374, 509.4168
140.0195, 534.0168
140.5016, 557.8712
140.9837, 578.9749
141.4658, 596.2355
141.9480, 612.7891
142.4301, 629.7683
142.9122, 644.1931
143.3943, 665.3051
143.8764, 694.9868
144.3585, 732.8790
144.8407, 774.8867
145.3228, 819.0106
145.8049, 868.5317
146.2870, 926.6025
146.7691, 998.4278
147.2512, 1070.856
147.7334, 1137.999
148.2155, 1196.033
148.6976, 1269.040
149.1797, 1357.867
149.6618, 1461.770
150.1439, 1578.696
150.6261, 1708.256
151.1082, 1849.847
151.5903, 2002.989
152.0724, 2168.857
152.5545, 2342.670
153.0366, 2547.725
153.5188, 2758.853
154.0009, 2925.873
154.4830, 3085.254
154.9651, 3168.395
155.4472, 3144.265
155.9293, 2971.253
156.4115, 2747.229
156.8936, 2452.170
157.3757, 2110.408
157.8578, 1801.846
158.3399, 1543.056
158.8221, 1329.109
159.3042, 1154.127
159.7863, 1032.179
160.2684, 934.2102
160.7505, 855.6955
161.2326, 794.9267
161.7148, 744.5536
162.1969, 704.6353
162.6790, 672.1472
163.1611, 644.6088
163.6432, 622.7867
164.1253, 604.0687
164.6075, 586.2007
165.0896, 569.0715
165.5717, 556.8121
166.0538, 554.8577
166.5359, 558.7045
167.0180, 561.8666
167.5002, 559.3232
167.9823, 556.5561
168.4644, 557.8558
168.9465, 563.8156
169.4286, 571.8978
169.9107, 581.3478
170.3929, 591.5665
170.8750, 601.5424
171.3571, 614.1011
171.8392, 624.5967
172.3213, 627.9236
172.8034, 623.0654
173.2856, 612.1721
173.7677, 594.1761
174.2498, 570.7796
174.7319, 548.1759
175.2140, 529.3723
175.6961, 513.8458
176.1783, 500.8046
176.6604, 489.9781
177.1425, 482.1001
177.6246, 479.6375
178.1067, 481.9175
178.5888, 484.4129
179.0710, 482.9638
179.5531, 479.3068
180.0352, 477.3036
180.5173, 478.0760
180.9994, 480.7508
181.4815, 483.9432
181.9637, 487.6928
182.4458, 492.3417
182.9279, 497.6872
183.4100, 504.0695
183.8921, 512.9296
184.3742, 525.4619
184.8564, 540.4140
185.3385, 554.9554
185.8206, 569.2573
186.3027, 582.5853
186.7848, 592.4649
187.2669, 599.7285
187.7491, 611.0821
188.2312, 631.2557
188.7133, 657.3519
189.1954, 678.1341
189.6775, 692.4606
190.1596, 706.0087
190.6418, 724.2343
191.1239, 747.1495
191.6060, 776.9146
192.0881, 820.4260
192.5702, 874.8715
193.0524, 913.5340
193.5345, 933.2770
194.0166, 945.2068
194.4987, 969.5097
194.9808, 1007.655
195.4629, 1036.041
195.9451, 1045.458
196.4272, 1036.101
196.9093, 1004.578
197.3914, 945.2867
197.8735, 872.4628
198.3556, 812.7780
198.8378, 767.9787
199.3199, 726.3759
199.8020, 679.9745
200.2841, 628.1818
200.7662, 587.1204
201.2483, 559.6113
201.7305, 541.6160
202.2126, 523.1276
202.6947, 503.3075
203.1768, 486.1268
203.6589, 473.8307
204.1410, 466.6664
204.6232, 463.9807
205.1053, 467.4973
205.5874, 474.6916
206.0695, 477.2096
206.5516, 474.4636
207.0337, 468.5826
207.5159, 459.5544
207.9980, 446.0283
208.4801, 436.8664
208.9622, 434.4933
209.4443, 437.2936
209.9264, 437.1633
210.4086, 433.1344
210.8907, 428.1003
211.3728, 423.9926
211.8549, 420.5035
212.3370, 418.9921
212.8191, 420.2100
213.3013, 423.7658
213.7834, 426.2785
214.2655, 427.0360
214.7476, 427.9051
215.2297, 431.1508
215.7118, 438.7802
216.1940, 443.0223
216.6761, 440.9570
217.1582, 433.0485
217.6403, 430.3978
218.1224, 435.2411
218.6045, 442.3837
219.0867, 446.5440
219.5688, 445.7495
220.0509, 446.7253
220.5330, 451.9169
221.0151, 461.5695
221.4972, 466.3940
221.9794, 463.5590
222.4615, 459.1067
222.9436, 460.2377
223.4257, 471.1786
223.9078, 478.8359
224.3899, 478.5289
224.8721, 469.1755
225.3542, 466.6512
225.8363, 474.9808
226.3184, 486.2993
226.8005, 490.4231
227.2827, 481.3851
227.7648, 476.6860
228.2469, 482.6398
228.7290, 501.4895
229.2111, 512.7493
229.6932, 511.6689
230.1754, 506.7177
230.6575, 509.7807
231.1396, 526.8218
231.6217, 541.2116
232.1038, 547.2676
232.5859, 542.6451
233.0681, 542.4154
233.5502, 548.0755
234.0323, 557.0223
234.5144, 565.4807
234.9965, 572.0848
235.4786, 580.5033
235.9608, 592.8812
236.4429, 610.8720
236.9250, 624.3920
237.4071, 632.4124
237.8892, 636.4807
238.3713, 638.7831
238.8535, 638.4771
239.3356, 637.8206
239.8177, 637.6481
240.2998, 638.3650
240.7819, 637.9865
241.2640, 636.3308
241.7462, 633.6805
242.2283, 630.5955
242.7104, 627.5594
243.1925, 623.2774
243.6746, 617.0663
244.1567, 608.1620
244.6389, 599.6880
245.1210, 591.0757
245.6031, 583.2384
246.0852, 578.4164
246.5673, 579.4194
247.0494, 578.5847
247.5316, 571.9435
248.0137, 555.6844
248.4958, 547.1376
248.9779, 550.4850
249.4600, 559.2466
249.9421, 560.5396
250.4243, 549.0797
250.9064, 539.6692
251.3885, 538.8683
251.8706, 550.8884
252.3527, 557.2471
252.8348, 556.0674
253.3170, 550.4133
253.7991, 545.8412
254.2812, 542.4899
254.7633, 540.0181
255.2454, 537.8140
255.7275, 534.8314
256.2097, 536.8203
256.6918, 547.1818
257.1739, 560.1580
257.6560, 563.3884
258.1381, 549.8423
258.6202, 541.1705
259.1024, 548.2480
259.5845, 577.4716
260.0666, 594.7902
260.5487, 595.5962
261.0308, 587.9464
261.5129, 587.1658
261.9951, 596.2878
262.4772, 605.0303
262.9593, 608.5224
263.4414, 604.9047
263.9235, 605.2325
264.4056, 610.5383
264.8878, 618.8519
265.3699, 627.1526
265.8520, 635.8080
266.3341, 643.5732
266.8162, 649.1819
267.2983, 651.6421
267.7805, 658.6582
268.2626, 672.2098
268.7447, 688.0587
269.2268, 697.9344
269.7089, 699.7041
270.1910, 703.1379
270.6732, 713.0477
271.1553, 730.3306
271.6374, 744.6097
272.1195, 754.9589
272.6016, 763.6891
273.0837, 773.9077
273.5659, 785.6755
274.0480, 798.7676
274.5301, 812.9973
275.0122, 828.2671
275.4943, 846.1780
275.9764, 867.0493
276.4586, 889.9619
276.9407, 914.6266
277.4228, 941.1617
277.9049, 965.7243
278.3870, 984.7643
278.8691, 998.7466
279.3513, 1018.616
279.8334, 1044.980
280.3155, 1075.674
280.7976, 1109.229
281.2798, 1145.530
281.7619, 1180.657
282.2440, 1212.342
282.7261, 1241.191
283.2082, 1271.425
283.6903, 1302.826
284.1725, 1336.416
284.6546, 1374.163
285.1367, 1415.643
285.6188, 1458.405
286.1009, 1503.120
286.5830, 1548.523
287.0652, 1588.325
287.5473, 1621.480
288.0294, 1653.118
288.5115, 1692.244
288.9936, 1737.184
289.4757, 1772.748
289.9579, 1793.326
290.4400, 1801.257
290.9221, 1802.474
291.4042, 1796.815
291.8863, 1786.441
292.3684, 1774.601
292.8506, 1760.256
293.3327, 1738.430
293.8148, 1703.191
294.2969, 1661.899
294.7790, 1629.135
295.2611, 1604.789
295.7433, 1581.521
296.2254, 1553.066
296.7075, 1520.130
297.1896, 1485.246
297.6717, 1444.283
298.1538, 1405.051
298.6360, 1382.202
299.1181, 1374.494
299.6002, 1369.687
300.0823, 1356.714
300.5644, 1340.061
301.0465, 1327.993
301.5287, 1322.651
302.0108, 1322.783
302.4929, 1327.136
302.9750, 1335.818
303.4571, 1349.173
303.9392, 1373.147
304.4214, 1400.290
304.9035, 1420.037
305.3856, 1424.986
305.8677, 1429.088
306.3498, 1445.099
306.8319, 1470.567
307.3141, 1497.288
307.7962, 1524.241
308.2783, 1547.973
308.7604, 1564.228
309.2425, 1568.409
309.7246, 1572.461
310.2068, 1587.782
310.6889, 1609.435
311.1710, 1624.801
311.6531, 1627.577
312.1352, 1621.895
312.6173, 1610.019
313.0995, 1591.468
313.5816, 1569.672
314.0637, 1548.429
314.5458, 1524.809
315.0279, 1493.203
315.5100, 1438.993
315.9922, 1385.625
316.4743, 1348.294
316.9564, 1333.701
317.4385, 1314.549
317.9206, 1275.563
318.4027, 1228.051
318.8849, 1187.817
319.3670, 1165.582
319.8491, 1145.641
320.3312, 1122.664
320.8133, 1095.901
321.2954, 1067.613
321.7776, 1035.628
322.2597, 1003.135
322.7418, 973.5327
323.2239, 945.1729
323.7060, 921.8780
324.1881, 906.5719
324.6703, 900.1306
325.1524, 891.0662
325.6345, 875.7045
326.1166, 859.0649
326.5987, 845.0450
327.0808, 835.0905
327.5630, 826.0856
328.0451, 817.4543
328.5272, 809.2596
329.0093, 802.9155
329.4914, 799.8230
329.9735, 797.4491
330.4557, 794.2972
330.9378, 790.7440
331.4199, 785.5782
331.9020, 777.4246
332.3841, 767.3517
332.8662, 760.5020
333.3484, 757.1900
333.8305, 756.7266
334.3126, 759.7700
334.7947, 768.8776
335.2768, 773.0450
335.7589, 769.6107
336.2411, 762.1007
336.7232, 759.4927
337.2053, 762.8962
337.6874, 768.0335
338.1695, 773.7196
338.6516, 780.2567
339.1338, 783.6302
339.6159, 782.4064
340.0980, 780.1270
340.5801, 783.9931
341.0622, 794.9211
341.5443, 803.8732
342.0265, 804.7987
342.5086, 799.1678
342.9907, 802.1526
343.4728, 815.1291
343.9549, 831.2379
344.4370, 841.2805
344.9192, 845.9371
345.4013, 852.3046
345.8834, 863.7659
346.3655, 878.3750
346.8476, 890.6296
347.3297, 900.4390
347.8119, 909.2853
348.2940, 918.1327
348.7761, 927.0179
349.2582, 935.5600
349.7403, 942.3837
350.2225, 950.3396
350.7046, 963.3640
351.1867, 981.3708
351.6688, 1002.808
352.1509, 1030.228
352.6331, 1059.467
353.1152, 1083.919
353.5973, 1100.712
354.0794, 1115.033
354.5615, 1129.906
355.0436, 1145.772
355.5258, 1163.970
356.0079, 1187.038
356.4900, 1211.759
356.9721, 1234.421
357.4542, 1252.817
357.9363, 1274.710
358.4185, 1307.221
358.9006, 1345.885
359.3827, 1382.973
359.8648, 1414.053
360.3469, 1443.906
360.8290, 1473.711
361.3112, 1503.077
361.7933, 1537.145
362.2754, 1582.861
362.7575, 1632.383
363.2396, 1677.378
363.7217, 1713.367
364.2039, 1746.635
364.6860, 1775.949
365.1681, 1801.447
365.6502, 1833.760
366.1323, 1880.749
366.6144, 1931.116
367.0966, 1977.330
367.5787, 2024.911
368.0608, 2060.427
368.5429, 2075.755
369.0250, 2076.086
369.5071, 2088.003
369.9893, 2119.575
370.4714, 2153.224
370.9535, 2180.746
371.4356, 2200.237
371.9177, 2217.230
372.3998, 2231.445
372.8820, 2243.417
373.3641, 2253.915
373.8462, 2262.438
374.3283, 2270.789
374.8104, 2280.827
375.2925, 2293.352
375.7747, 2297.487
376.2568, 2290.217
376.7389, 2280.600
377.2210, 2282.080
377.7031, 2295.471
378.1852, 2308.380
378.6674, 2318.010
379.1495, 2324.102
379.6316, 2324.892
380.1137, 2319.963
380.5958, 2313.465
381.0779, 2308.500
381.5601, 2305.047
382.0422, 2303.905
382.5243, 2307.065
383.0064, 2310.209
383.4885, 2307.440
383.9706, 2298.659
384.4528, 2283.405
384.9349, 2258.641
385.4170, 2227.778
385.8991, 2195.593
386.3812, 2162.141
386.8633, 2128.543
387.3455, 2098.505
387.8276, 2069.319
388.3097, 2034.175
388.7918, 1982.875
389.2739, 1928.926
389.7560, 1884.525
390.2382, 1851.446
390.7203, 1817.698
391.2024, 1777.373
391.6845, 1732.813
392.1666, 1686.146
392.6487, 1631.871
393.1309, 1581.731
393.6130, 1543.331
394.0951, 1515.453
394.5772, 1485.598
395.0593, 1448.732
395.5414, 1410.011
396.0236, 1373.001
396.5057, 1340.331
396.9878, 1306.680
397.4699, 1270.616
397.9520, 1233.225
398.4341, 1198.213
398.9163, 1164.909
399.3984, 1134.734
399.8805, 1108.624
400.3626, 1088.064
400.8447, 1067.048
401.3268, 1044.407
401.8090, 1022.202
402.2911, 1003.205
402.7732, 988.7199
403.2553, 974.4346
403.7374, 958.6093
404.2195, 941.5087
404.7017, 928.6247
405.1838, 921.1257
405.6659, 914.5723
406.1480, 904.7984
406.6301, 891.7225
407.1122, 878.4973
407.5944, 865.5983
408.0765, 852.9138
408.5586, 840.7795
409.0407, 829.1237
409.5228, 816.6227
410.0049, 800.5870
410.4871, 783.1197
410.9692, 770.4194
411.4513, 763.6935
411.9334, 759.3015
412.4155, 754.8685
412.8976, 749.5256
413.3798, 741.0742
413.8619, 722.5486
414.3440, 703.7223
414.8261, 697.0067
415.3082, 702.5505
415.7903, 706.9621
416.2725, 699.9945
416.7546, 687.6133
417.2367, 676.3579
417.7188, 668.9758
418.2009, 662.6440
418.6830, 655.6572
419.1652, 648.5635
419.6473, 643.6518
420.1294, 643.9449
420.6115, 644.9004
421.0937, 644.2670
421.5758, 642.1629
422.0579, 637.5640
422.5400, 627.2198
423.0221, 614.9382
423.5042, 606.7812
423.9864, 605.7147
424.4685, 605.7695
424.9506, 606.3089
425.4327, 607.5333
425.9148, 606.3818
426.3969, 601.6869
426.8791, 595.9514
427.3612, 591.2486
427.8433, 587.6378
428.3254, 585.0027
428.8075, 583.7345
429.2896, 583.2924
429.7718, 581.8607
430.2539, 579.3445
430.7360, 576.3629
431.2181, 572.7303
431.7002, 568.5984
432.1823, 566.7066
432.6645, 567.7630
433.1466, 569.1467
433.6287, 566.9473
434.1108, 561.7516
434.5929, 556.3673
435.0750, 551.0735
435.5572, 546.7392
436.0393, 545.0596
436.5214, 545.9824
437.0035, 548.4022
437.4856, 553.0395
437.9677, 558.1531
438.4499, 561.2484
438.9320, 561.3183
439.4141, 559.8600
439.8962, 556.6866
440.3783, 552.7034
440.8604, 550.1508
441.3426, 552.1607
441.8247, 554.2952
442.3068, 553.0343
442.7889, 546.5858
443.2710, 543.5943
443.7531, 551.8804
444.2353, 562.6437
444.7174, 566.2935
445.1995, 553.3376
445.6816, 542.0261
446.1637, 535.3452
446.6458, 533.0677
447.1280, 532.5743
447.6101, 535.8231
448.0922, 538.6981
448.5743, 538.6644
449.0564, 534.1458
449.5385, 530.8727
450.0207, 529.0671
450.5028, 528.5042
450.9849, 529.1658
451.4670, 531.3935
451.9491, 533.0998
452.4312, 533.6006
452.9134, 532.9094
453.3955, 530.6927
453.8776, 526.7060
454.3597, 522.9893
454.8418, 520.5417
455.3239, 519.8141
455.8061, 523.8991
456.2882, 536.8795
456.7703, 549.7372
457.2524, 546.5898
457.7345, 530.9963
458.2166, 517.3781
458.6988, 516.7333
459.1809, 521.4402
459.6630, 523.3987
460.1451, 521.5113
460.6272, 518.9741
461.1093, 516.8678
461.5915, 515.5844
462.0736, 515.6687
462.5557, 520.0385
463.0378, 523.1200
463.5199, 522.0776
464.0020, 517.4456
464.4842, 513.3412
464.9663, 508.5493
465.4484, 506.0732
465.9305, 507.9842
466.4126, 520.3386
466.8947, 526.3583
467.3769, 521.8936
467.8590, 512.9160
468.3411, 509.4181
468.8232, 514.3798
469.3053, 518.9757
469.7874, 520.8740
470.2696, 520.2089
470.7517, 519.4761
471.2338, 518.7917
471.7159, 517.6962
472.1980, 515.1723
472.6801, 511.2868
473.1623, 509.1777
473.6444, 509.2617
474.1265, 511.3066
474.6086, 515.7322
475.0907, 522.1810
475.5728, 528.3399
476.0550, 534.3655
476.5371, 538.8525
477.0192, 538.0577
477.5013, 531.7832
477.9834, 526.2855
478.4655, 528.4832
478.9477, 533.7082
479.4298, 535.6016
479.9119, 528.6190
480.3940, 522.5222
480.8761, 523.6031
481.3582, 529.7625
481.8404, 534.9803
482.3225, 535.4969
482.8046, 536.1100
483.2867, 539.4551
483.7688, 547.0035
484.2509, 552.9330
484.7331, 556.0615
485.2152, 557.6837
485.6973, 559.0377
486.1794, 560.3659
486.6615, 560.8698
487.1436, 559.5294
487.6258, 557.2338
488.1079, 558.5929
488.5900, 564.6436
489.0721, 571.4814
489.5542, 576.5936
490.0363, 579.9712
490.5185, 585.1433
491.0006, 592.1968
491.4827, 600.9155
491.9648, 612.3745
492.4470, 625.7895
492.9291, 636.4884
493.4112, 641.3973
493.8933, 643.7819
494.3754, 646.9571
494.8575, 651.3412
495.3397, 659.3582
495.8218, 676.4017
496.3039, 696.2356
496.7860, 711.2296
497.2681, 719.1328
497.7502, 727.5811
498.2324, 740.1368
498.7145, 755.8799
499.1966, 773.8109
499.6787, 796.7579
500.1608, 818.5414
500.6429, 836.5577
501.1251, 851.0551
501.6072, 866.5043
502.0893, 884.0281
502.5714, 902.0604
503.0535, 920.2394
503.5356, 939.9512
504.0178, 956.4563
504.4999, 969.6747
504.9820, 979.5822
505.4641, 987.3416
505.9462, 994.0291
506.4283, 992.6639
506.9105, 979.3224
507.3926, 956.8032
507.8747, 935.3145
508.3568, 914.7457
508.8389, 895.9440
509.3210, 879.4940
509.8032, 864.9985
510.2853, 851.6415
510.7674, 839.7518
511.2495, 827.1435
511.7316, 810.6570
512.2137, 791.7713
512.6959, 773.7741
513.1780, 758.0891
513.6601, 743.5027
514.1422, 728.5454
514.6243, 713.6069
515.1064, 701.3509
515.5886, 696.9056
516.0707, 692.5649
516.5528, 682.9804
517.0349, 662.5018
517.5170, 647.0290
517.9991, 641.8272
518.4813, 641.0725
518.9634, 637.4612
519.4455, 628.6451
519.9276, 620.9944
520.4097, 615.8137
520.8918, 612.9238
521.3740, 610.4475
521.8561, 608.1120
522.3382, 607.0948
522.8203, 608.4688
523.3024, 612.1087
523.7845, 617.3112
524.2667, 625.2079
524.7488, 630.1984
525.2309, 621.6752
525.7130, 603.7573
526.1951, 590.9666
526.6772, 589.5417
527.1594, 594.3845
527.6415, 602.6287
528.1236, 612.9628
528.6057, 619.7691
529.0878, 616.5494
529.5699, 610.6486
530.0521, 607.8873
530.5342, 609.8558
531.0163, 611.0096
531.4984, 608.1924
531.9805, 604.2596
532.4626, 602.2352
532.9448, 601.8146
533.4269, 604.2765
533.9090, 610.8810
534.3911, 620.5925
534.8732, 629.5099
535.3553, 638.9418
535.8375, 645.2092
536.3196, 645.1334
536.8017, 638.1726
537.2838, 636.9336
537.7659, 642.4436
538.2480, 650.2658
538.7302, 655.6376
539.2123, 658.9960
539.6944, 663.5171
540.1765, 671.1316
540.6586, 677.9301
541.1407, 675.9212
541.6229, 667.8030
542.1050, 663.2303
542.5871, 671.3562
543.0692, 682.7463
543.5513, 688.1727
544.0334, 687.1606
544.5156, 687.2759
544.9977, 694.7189
545.4798, 703.2159
545.9619, 707.2289
546.4440, 696.5793
546.9261, 695.0372
547.4083, 714.0958
547.8904, 742.7429
548.3725, 760.5737
548.8546, 761.0876
549.3367, 761.5122
549.8188, 765.0651
550.3010, 771.8389
550.7831, 784.5823
551.2652, 805.6970
551.7473, 824.8182
552.2294, 831.4184
552.7115, 827.2951
553.1937, 831.3417
553.6758, 846.3824
554.1579, 864.0750
554.6400, 872.3578
555.1221, 874.7616
555.6042, 881.4208
556.0864, 899.5630
556.5685, 919.9826
557.0506, 933.8752
557.5327, 942.4493
558.0148, 949.9258
558.4969, 957.8889
558.9791, 965.7766
559.4612, 972.9579
559.9433, 979.0451
560.4254, 985.9905
560.9075, 996.1689
561.3896, 1006.174
561.8718, 1013.223
562.3539, 1016.694
562.8360, 1018.200
563.3181, 1017.562
563.8002, 1015.163
564.2823, 1011.352
564.7645, 1005.585
565.2466, 1001.152
565.7287, 1001.005
566.2108, 1003.409
566.6929, 999.4802
567.1750, 989.1228
567.6572, 975.3077
568.1393, 957.2448
568.6214, 938.2216
569.1035, 926.6638
569.5856, 925.4454
570.0677, 924.8376
570.5499, 915.8112
571.0320, 902.2057
571.5141, 890.0551
571.9962, 882.0342
572.4783, 875.4177
572.9604, 869.1369
573.4426, 863.3811
573.9247, 859.0560
574.4068, 858.9593
574.8889, 857.8942
575.3710, 853.0073
575.8531, 842.7476
576.3353, 837.9435
576.8174, 842.4046
577.2995, 846.7379
577.7816, 839.1937
578.2637, 817.9016
578.7458, 806.6684
579.2280, 811.9326
579.7101, 823.2139
580.1922, 821.4607
580.6743, 808.4738
581.1564, 794.4256
581.6385, 781.6548
582.1207, 771.7274
582.6028, 769.6567
583.0849, 774.1961
583.5670, 775.4695
584.0491, 764.0936
584.5313, 749.3975
585.0134, 738.6375
585.4955, 733.8458
585.9776, 730.0031
586.4597, 725.2510
586.9418, 721.1070
587.4240, 719.5724
587.9061, 725.1533
588.3882, 726.2934
588.8703, 720.7230
589.3524, 710.2047
589.8345, 699.5873
590.3167, 688.7384
590.7988, 678.1637
591.2809, 667.6190
591.7630, 657.5407
592.2451, 651.4506
592.7272, 649.4854
593.2094, 648.1660
593.6915, 643.0703
594.1736, 636.8705
594.6557, 636.2162
595.1378, 644.0877
595.6199, 649.3508
596.1021, 640.1843
596.5842, 624.0436
597.0663, 611.5125
597.5485, 609.9115
598.0306, 608.6536
598.5127, 604.5428
598.9948, 598.0489
599.4769, 591.2881
599.9590, 583.0641
600.4412, 576.0942
600.9233, 571.3522
601.4054, 568.8839
601.8875, 568.0160
602.3696, 569.7713
602.8517, 570.6168
603.3339, 566.7650
603.8160, 558.6148
604.2981, 551.7037
604.7802, 546.8085
605.2623, 542.8975
605.7444, 538.8999
606.2266, 534.8631
606.7087, 531.1511
607.1908, 528.6300
607.6729, 525.6270
608.1550, 519.0522
608.6371, 510.5702
609.1193, 505.3627
609.6014, 508.6214
610.0835, 513.0323
610.5656, 515.7981
611.0477, 516.9022
611.5298, 514.4975
612.0120, 503.4021
612.4941, 493.9583
612.9762, 494.6434
613.4583, 510.4232
613.9404, 517.6329
614.4225, 513.1215
614.9047, 503.6565
615.3868, 498.4706
