##NAMES=Fayalite
##RRUFFID=R100104
##IDEAL CHEMISTRY=Fe^2+^_2_SiO_4_
##LOCALITY=Dannemora, Uppsala Province, Sweden
##OWNER=RRUFF
##SOURCE=American Museum of Natural History
##DESCRIPTION=Dark brown fragment, variety knebelite
##STATUS=The identification of this mineral is confirmed by single-crystal X-ray diffraction and chemical analysis.
##URL=rruff.info/R100104
##MEASURED CHEMISTRY=(Fe^+2^_1.020_Mn^+2^_0.931_Mg_0.052_Ca_0.002_Zn_0.001_)_Î£=2.006_Si_0.997_O_4_
128.5794, 9.642852
129.0615, 9.608485
129.5436, 10.09447
130.0258, 11.43515
130.5079, 13.00307
130.9900, 13.53402
131.4721, 13.02436
131.9542, 12.44799
132.4363, 12.87430
132.9185, 14.11981
133.4006, 14.88078
133.8827, 14.56923
134.3648, 13.54756
134.8469, 13.11952
135.3290, 13.35110
135.8112, 13.88926
136.2933, 14.23435
136.7754, 14.34704
137.2575, 14.90045
137.7396, 16.32508
138.2217, 18.56347
138.7039, 20.34524
139.1860, 21.56959
139.6681, 22.49859
140.1502, 23.54474
140.6323, 24.72623
141.1144, 25.92826
141.5966, 27.06884
142.0787, 28.07220
142.5608, 29.36769
143.0429, 31.10072
143.5250, 33.04020
144.0071, 34.60145
144.4893, 35.49948
144.9714, 36.46045
145.4535, 37.68996
145.9356, 38.73693
146.4177, 41.05904
146.8998, 45.36565
147.3820, 51.05270
147.8641, 55.74716
148.3462, 58.36616
148.8283, 60.95199
149.3104, 64.65215
149.7925, 70.64429
150.2747, 76.20262
150.7568, 81.29264
151.2389, 85.88097
151.7210, 89.42665
152.2031, 92.02813
152.6852, 93.50820
153.1674, 93.77785
153.6495, 91.39827
154.1316, 89.29155
154.6137, 87.94954
155.0958, 87.39348
155.5779, 86.84816
156.0601, 85.99147
156.5422, 85.20972
157.0243, 84.84469
157.5064, 84.34829
157.9885, 84.83839
158.4706, 86.96146
158.9528, 90.93430
159.4349, 94.80797
159.9170, 97.63585
160.3991, 100.2328
160.8812, 103.5408
161.3633, 107.9100
161.8455, 112.9837
162.3276, 118.8117
162.8097, 125.4715
163.2918, 132.1119
163.7739, 138.7427
164.2560, 144.8838
164.7382, 149.0910
165.2203, 153.1275
165.7024, 155.4546
166.1845, 154.9840
166.6666, 151.5465
167.1487, 145.6969
167.6309, 136.3687
168.1130, 124.7958
168.5951, 113.7489
169.0772, 104.1353
169.5593, 95.66714
170.0414, 88.02409
170.5236, 80.91853
171.0057, 75.03797
171.4878, 71.33293
171.9699, 69.27961
172.4520, 67.38450
172.9341, 64.40054
173.4163, 61.21535
173.8984, 58.94326
174.3805, 58.11341
174.8626, 57.74732
175.3447, 56.90120
175.8268, 55.66909
176.3090, 54.48441
176.7911, 53.44085
177.2732, 52.67410
177.7553, 52.53112
178.2374, 53.62007
178.7195, 54.77838
179.2017, 54.14091
179.6838, 51.88939
180.1659, 49.80116
180.6480, 49.46858
181.1301, 50.32763
181.6122, 51.07416
182.0944, 51.39669
182.5765, 51.36468
183.0586, 50.95203
183.5407, 50.17113
184.0228, 49.43290
184.5049, 49.14816
184.9871, 49.22728
185.4692, 49.37422
185.9513, 49.58818
186.4334, 49.77501
186.9155, 49.63808
187.3976, 49.15162
187.8798, 48.64964
188.3619, 48.49128
188.8440, 48.63451
189.3261, 48.81987
189.8082, 48.91883
190.2903, 48.99318
190.7725, 49.30902
191.2546, 49.90426
191.7367, 50.56209
192.2188, 51.00985
192.7009, 51.26456
193.1830, 51.57830
193.6652, 52.12621
194.1473, 52.84531
194.6294, 53.34818
195.1115, 53.66137
195.5936, 53.68002
196.0757, 53.06561
196.5579, 51.78809
197.0400, 50.75585
197.5221, 50.48724
198.0042, 50.91413
198.4863, 50.95559
198.9684, 50.55656
199.4506, 49.89272
199.9327, 49.15842
200.4148, 48.32859
200.8969, 47.61982
201.3790, 47.14928
201.8611, 46.92785
202.3433, 46.62758
202.8254, 46.14851
203.3075, 45.74601
203.7896, 45.99622
204.2717, 47.05852
204.7538, 47.96231
205.2360, 48.23878
205.7181, 47.81617
206.2002, 47.41426
206.6823, 47.01052
207.1644, 46.65337
207.6465, 46.45040
208.1287, 46.43657
208.6108, 46.46031
209.0929, 46.39792
209.5750, 46.17300
210.0571, 46.33937
210.5392, 47.08153
211.0214, 48.05167
211.5035, 48.44593
211.9856, 48.03254
212.4677, 47.67907
212.9498, 47.82727
213.4319, 48.62743
213.9140, 49.28149
214.3962, 49.74401
214.8783, 50.08316
215.3604, 50.45754
215.8425, 50.90873
216.3246, 51.30718
216.8067, 51.47865
217.2889, 51.14959
217.7710, 51.58857
218.2531, 53.13951
218.7352, 55.29707
219.2173, 56.84843
219.6994, 57.53675
220.1816, 58.11646
220.6637, 58.93444
221.1458, 60.06197
221.6279, 61.25004
222.1100, 62.58931
222.5921, 63.95599
223.0743, 64.95728
223.5564, 65.16154
224.0385, 65.75323
224.5206, 67.44957
225.0027, 71.05211
225.4848, 73.60874
225.9670, 74.64272
226.4491, 74.73046
226.9312, 75.39242
227.4133, 76.81650
227.8954, 78.50706
228.3775, 80.17336
228.8597, 81.66851
229.3418, 83.60136
229.8239, 86.21047
230.3060, 89.20347
230.7881, 91.66894
231.2702, 93.38841
231.7524, 94.95327
232.2345, 96.62125
232.7166, 98.54708
233.1987, 100.2282
233.6808, 101.3763
234.1629, 102.3439
234.6451, 104.1417
235.1272, 107.0833
235.6093, 110.3728
236.0914, 113.7466
236.5735, 117.4896
237.0556, 120.6328
237.5378, 122.8560
238.0199, 124.5795
238.5020, 126.9638
238.9841, 130.7941
239.4662, 134.1714
239.9483, 136.2241
240.4305, 136.3340
240.9126, 136.5689
241.3947, 137.2346
241.8768, 137.9287
242.3589, 137.6622
242.8410, 136.2879
243.3232, 134.1828
243.8053, 131.4388
244.2874, 127.7686
244.7695, 124.1044
245.2516, 120.3092
245.7337, 116.5501
246.2159, 113.2639
246.6980, 110.8219
247.1801, 108.2611
247.6622, 105.0903
248.1443, 100.8664
248.6264, 97.25771
249.1086, 94.32761
249.5907, 91.95438
250.0728, 89.97215
250.5549, 88.72457
251.0370, 87.28188
251.5191, 85.12186
252.0013, 81.77175
252.4834, 79.36276
252.9655, 78.13504
253.4476, 77.71920
253.9297, 77.56023
254.4118, 77.98486
254.8940, 78.04904
255.3761, 77.23728
255.8582, 75.11932
256.3403, 73.91162
256.8224, 74.02281
257.3046, 74.72872
257.7867, 74.75690
258.2688, 73.70005
258.7509, 72.82875
259.2330, 72.60880
259.7151, 73.15434
260.1973, 73.64857
260.6794, 73.98058
261.1615, 74.36088
261.6436, 75.16550
262.1257, 76.66230
262.6078, 77.94115
263.0900, 78.64369
263.5721, 78.69800
264.0542, 78.95692
264.5363, 79.51720
265.0184, 80.16673
265.5005, 80.59297
265.9827, 80.63388
266.4648, 80.90683
266.9469, 81.57941
267.4290, 82.64883
267.9111, 84.01973
268.3932, 85.82875
268.8754, 87.71105
269.3575, 89.21153
269.8396, 90.23354
270.3217, 91.28658
270.8038, 92.52345
271.2859, 93.93864
271.7681, 95.17126
272.2502, 96.14018
272.7323, 97.09550
273.2144, 98.27670
273.6965, 99.72340
274.1786, 101.1915
274.6608, 102.5870
275.1429, 103.9537
275.6250, 105.7542
276.1071, 108.1423
276.5892, 110.5181
277.0714, 112.2975
277.5535, 113.4614
278.0356, 114.2995
278.5177, 114.7956
278.9998, 115.0254
279.4819, 115.2339
279.9641, 115.3805
280.4462, 115.6895
280.9283, 116.5427
281.4104, 117.9675
281.8925, 118.8433
282.3746, 118.8877
282.8568, 118.3598
283.3389, 118.0597
283.8210, 118.0464
284.3031, 117.7978
284.7852, 116.8562
285.2673, 115.2627
285.7495, 113.6004
286.2316, 111.8975
286.7137, 110.2163
287.1958, 108.5920
287.6779, 107.0138
288.1600, 105.7913
288.6422, 105.3880
289.1243, 105.6417
289.6064, 105.3911
290.0885, 104.4734
290.5706, 103.1937
291.0527, 101.8896
291.5349, 100.5802
292.0170, 99.53378
292.4991, 98.91003
292.9812, 98.67397
293.4633, 98.76871
293.9454, 99.22707
294.4276, 99.86510
294.9097, 100.4791
295.3918, 101.0721
295.8739, 101.6461
296.3560, 102.0646
296.8381, 102.4763
297.3203, 103.2709
297.8024, 104.4770
298.2845, 105.8213
298.7666, 107.3204
299.2487, 108.7710
299.7308, 109.5896
300.2130, 108.9536
300.6951, 107.7531
301.1772, 107.5804
301.6593, 108.4317
302.1414, 109.3492
302.6235, 109.6742
303.1057, 109.4505
303.5878, 108.7398
304.0699, 107.3220
304.5520, 105.6150
305.0341, 104.0867
305.5162, 102.7226
305.9984, 101.3342
306.4805, 99.74171
306.9626, 98.06197
307.4447, 96.51835
307.9268, 95.32532
308.4089, 94.04708
308.8911, 92.25802
309.3732, 90.03263
309.8553, 87.68027
310.3374, 85.28402
310.8195, 82.89014
311.3016, 80.57170
311.7838, 78.34692
312.2659, 76.20008
312.7480, 74.10256
313.2301, 72.10137
313.7122, 70.26614
314.1943, 68.60271
314.6765, 67.11827
315.1586, 65.87241
315.6407, 64.96909
316.1228, 63.97776
316.6049, 62.57000
317.0870, 60.95835
317.5692, 59.51390
318.0513, 58.47377
318.5334, 57.52924
319.0155, 56.51139
319.4976, 55.37023
319.9797, 54.34365
320.4619, 53.70785
320.9440, 53.15300
321.4261, 52.34208
321.9082, 50.73411
322.3903, 49.29403
322.8724, 48.41710
323.3546, 48.12542
323.8367, 47.73169
324.3188, 46.83453
324.8009, 45.93330
325.2830, 45.41851
325.7651, 45.67144
326.2473, 45.93547
326.7294, 46.16774
327.2115, 46.35254
327.6936, 46.37331
328.1757, 46.19043
328.6578, 45.86620
329.1400, 45.42572
329.6221, 44.69434
330.1042, 44.09491
330.5863, 43.79047
331.0684, 43.62138
331.5505, 43.09540
332.0327, 41.69487
332.5148, 40.54051
332.9969, 40.13720
333.4790, 40.86826
333.9611, 41.31736
334.4432, 41.45408
334.9254, 41.32478
335.4075, 40.97308
335.8896, 40.26157
336.3717, 39.59641
336.8538, 39.08900
337.3359, 38.73434
337.8180, 38.53532
338.3001, 38.45110
338.7823, 38.58381
339.2644, 39.24528
339.7465, 40.71094
340.2286, 41.47430
340.7107, 40.92863
341.1928, 39.31635
341.6750, 38.43540
342.1571, 38.38837
342.6392, 38.63441
343.1213, 38.72621
343.6034, 38.65860
344.0855, 38.72018
344.5677, 38.99038
345.0498, 39.38221
345.5319, 39.63464
346.0140, 39.73921
346.4961, 39.94181
346.9782, 40.46769
347.4604, 41.25211
347.9425, 42.01241
348.4246, 42.78766
348.9067, 43.36190
349.3888, 43.24996
349.8709, 42.57541
350.3531, 42.02166
350.8352, 41.99739
351.3173, 42.31345
351.7994, 42.62746
352.2815, 42.92699
352.7636, 43.22832
353.2458, 43.58233
353.7279, 43.94965
354.2100, 44.24020
354.6921, 44.22586
355.1742, 44.24852
355.6563, 44.69982
356.1385, 45.55559
356.6206, 46.57065
357.1027, 47.84671
357.5848, 49.08656
358.0669, 49.90042
358.5490, 49.81360
359.0312, 49.82769
359.5133, 50.59684
359.9954, 51.99058
360.4775, 53.60611
360.9596, 55.66109
361.4417, 57.59998
361.9239, 59.01337
362.4060, 59.68602
362.8881, 60.27631
363.3702, 60.94336
363.8523, 61.69879
364.3344, 62.56057
364.8166, 63.49102
365.2987, 64.57587
365.7808, 65.90556
366.2629, 67.54080
366.7450, 69.01562
367.2271, 70.15958
367.7093, 71.16136
368.1914, 72.18698
368.6735, 72.97926
369.1556, 74.11229
369.6377, 75.91784
370.1198, 78.28353
370.6020, 80.06673
371.0841, 80.63463
371.5662, 81.21360
372.0483, 82.50188
372.5304, 85.17731
373.0125, 87.30136
373.4947, 88.69773
373.9768, 89.55111
374.4589, 90.22758
374.9410, 90.50713
375.4231, 91.07835
375.9052, 92.41138
376.3874, 94.71761
376.8695, 96.03756
377.3516, 96.07774
377.8337, 95.64820
378.3158, 95.82485
378.7979, 96.70992
379.2801, 97.46397
379.7622, 97.95668
380.2443, 98.13314
380.7264, 97.56956
381.2085, 96.16124
381.6906, 94.76803
382.1728, 94.27079
382.6549, 94.50815
383.1370, 94.49442
383.6191, 94.05888
384.1012, 93.30446
384.5833, 92.25114
385.0655, 90.94568
385.5476, 89.75174
386.0297, 88.77493
386.5118, 88.05965
386.9939, 87.86111
387.4760, 88.30742
387.9582, 88.52697
388.4403, 87.29402
388.9224, 85.23121
389.4045, 83.64214
389.8866, 83.68970
390.3687, 83.99234
390.8509, 83.19241
391.3330, 81.39219
391.8151, 79.77353
392.2972, 79.13577
392.7793, 78.98560
393.2614, 78.86970
393.7436, 78.79180
394.2257, 78.55936
394.7078, 77.88951
395.1899, 76.98437
395.6720, 76.37458
396.1541, 76.79086
396.6363, 77.09375
397.1184, 76.67897
397.6005, 75.24705
398.0826, 73.85020
398.5647, 72.61353
399.0468, 71.50651
399.5290, 70.49216
400.0111, 69.36863
400.4932, 68.56095
400.9753, 68.31194
401.4574, 68.61707
401.9395, 68.56622
402.4217, 68.22301
402.9038, 67.45926
403.3859, 66.05324
403.8680, 63.40967
404.3501, 61.57795
404.8322, 60.95705
405.3144, 61.11742
405.7965, 61.02301
406.2786, 60.71763
406.7607, 60.01118
407.2428, 58.58213
407.7249, 56.38289
408.2071, 54.96718
408.6892, 54.45345
409.1713, 54.34324
409.6534, 54.13040
410.1355, 53.80942
410.6176, 53.25942
411.0998, 52.38103
411.5819, 51.28899
412.0640, 50.15951
412.5461, 49.01054
413.0282, 48.05505
413.5103, 47.72401
413.9925, 47.68494
414.4746, 47.12693
414.9567, 45.72423
415.4388, 44.35206
415.9209, 44.00950
416.4030, 44.41138
416.8852, 44.84046
417.3673, 45.12732
417.8494, 45.16244
418.3315, 44.74725
418.8136, 43.86903
419.2957, 43.00364
419.7779, 42.51434
420.2600, 42.13457
420.7421, 41.60510
421.2242, 40.47200
421.7063, 39.56874
422.1884, 39.29968
422.6706, 39.50693
423.1527, 39.58159
423.6348, 39.23592
424.1169, 38.84731
424.5990, 38.57092
425.0811, 38.40935
425.5633, 38.39657
426.0454, 38.91111
426.5275, 39.41763
427.0096, 39.17879
427.4917, 37.43373
427.9738, 36.11174
428.4560, 35.75401
428.9381, 36.30334
429.4202, 36.49501
429.9023, 36.20417
430.3844, 35.78385
430.8665, 35.46693
431.3487, 35.25528
431.8308, 35.17885
432.3129, 35.33768
432.7950, 35.50476
433.2771, 35.00470
433.7592, 33.80043
434.2414, 32.97267
434.7235, 33.30650
435.2056, 34.46269
435.6877, 34.99645
436.1698, 34.86467
436.6519, 34.62812
437.1341, 35.14766
437.6162, 36.01261
438.0983, 36.04940
438.5804, 34.43828
439.0625, 32.58996
439.5446, 32.27822
440.0268, 33.16881
440.5089, 34.04118
440.9910, 34.32658
441.4731, 34.19447
441.9552, 33.67762
442.4373, 32.69443
442.9195, 31.85767
443.4016, 31.50045
443.8837, 31.45940
444.3658, 31.53597
444.8479, 31.65253
445.3300, 31.89733
445.8122, 32.46581
446.2943, 33.28308
446.7764, 33.74579
447.2585, 33.39769
447.7406, 32.95637
448.2227, 32.82183
448.7049, 33.46144
449.1870, 33.49040
449.6691, 32.46273
450.1512, 31.04566
450.6333, 30.37202
451.1154, 30.86204
451.5976, 31.16077
452.0797, 30.76376
452.5618, 29.75404
453.0439, 29.43004
453.5260, 29.91162
454.0081, 30.71738
454.4903, 31.65749
454.9724, 32.71611
455.4545, 33.22246
455.9366, 32.98757
456.4187, 32.38391
456.9008, 32.01648
457.3830, 31.85524
457.8651, 31.70523
458.3472, 31.45769
458.8293, 31.16138
459.3114, 30.87666
459.7935, 30.60758
460.2757, 30.40318
460.7578, 30.41531
461.2399, 30.48565
461.7220, 30.35955
462.2041, 29.78937
462.6862, 29.31668
463.1684, 29.41174
463.6505, 29.87466
464.1326, 30.24132
464.6147, 30.21078
465.0968, 30.13236
465.5789, 30.17951
466.0611, 30.37716
466.5432, 30.60573
467.0253, 30.86779
467.5074, 31.13538
467.9895, 31.38448
468.4716, 31.67749
468.9538, 31.86563
469.4359, 31.79989
469.9180, 31.62361
470.4001, 31.88474
470.8822, 33.02354
471.3643, 33.80583
471.8465, 33.57864
472.3286, 32.20017
472.8107, 31.30467
473.2928, 30.93880
473.7749, 30.95890
474.2570, 31.42727
474.7392, 32.33789
475.2213, 32.79080
475.7034, 32.50668
476.1855, 31.75733
476.6676, 30.94680
477.1497, 30.10186
477.6319, 29.50470
478.1140, 29.41909
478.5961, 29.65304
479.0782, 29.86420
479.5603, 30.01830
480.0424, 30.31333
480.5246, 31.21832
481.0067, 32.28222
481.4888, 32.85505
481.9709, 32.33777
482.4530, 31.73737
482.9352, 31.55333
483.4173, 31.70169
483.8994, 31.91718
484.3815, 32.06582
484.8636, 32.29923
485.3457, 32.82981
485.8279, 33.92823
486.3100, 34.34522
486.7921, 33.14726
487.2742, 31.67763
487.7563, 31.12504
488.2384, 32.02443
488.7206, 32.95291
489.2027, 33.87037
489.6848, 34.68578
490.1669, 34.93856
490.6490, 34.38548
491.1311, 34.00583
491.6133, 34.41018
492.0954, 35.58176
492.5775, 36.34782
493.0596, 36.66892
493.5417, 36.73078
494.0238, 36.66881
494.5060, 36.50434
494.9881, 36.30732
495.4702, 36.01843
495.9523, 35.82986
496.4344, 36.08375
496.9165, 36.69876
497.3987, 37.36673
497.8808, 38.18516
498.3629, 38.81937
498.8450, 38.72377
499.3271, 37.81427
499.8092, 37.26758
500.2914, 38.06141
500.7735, 39.34367
501.2556, 40.32735
501.7377, 40.70625
502.2198, 40.88739
502.7019, 40.75389
503.1841, 40.47484
503.6662, 40.51066
504.1483, 41.12432
504.6304, 41.81974
505.1125, 42.44924
505.5946, 42.99994
506.0768, 43.71088
506.5589, 44.81986
507.0410, 45.72804
507.5231, 45.74648
508.0052, 44.64495
508.4873, 44.26153
508.9695, 45.00527
509.4516, 46.23503
509.9337, 46.66850
510.4158, 46.35120
510.8979, 46.14978
511.3800, 46.69626
511.8622, 47.53784
512.3443, 47.66156
512.8264, 47.08339
513.3085, 46.12436
513.7906, 44.72017
514.2728, 43.19592
514.7549, 41.94649
515.2370, 41.01855
515.7191, 40.45984
516.2012, 40.75715
516.6833, 41.34610
517.1655, 41.36483
517.6476, 39.85909
518.1297, 38.41064
518.6118, 37.67658
519.0939, 37.59417
519.5760, 37.29749
520.0582, 36.41285
520.5403, 35.53129
521.0224, 34.93070
521.5045, 34.74453
521.9866, 34.42669
522.4688, 33.89751
522.9509, 33.32371
523.4330, 32.81364
523.9151, 32.28863
524.3972, 32.35072
524.8793, 33.41526
525.3615, 34.90375
525.8436, 35.07122
526.3257, 33.93908
526.8078, 32.96179
527.2899, 33.40512
527.7720, 34.54023
528.2542, 34.50438
528.7363, 33.18422
529.2184, 31.86529
529.7005, 31.62823
530.1826, 32.06878
530.6647, 32.71018
531.1469, 33.71917
531.6290, 34.39265
532.1111, 33.89845
532.5932, 32.80975
533.0753, 32.29657
533.5574, 33.38863
534.0396, 34.44312
534.5217, 34.84531
535.0038, 34.52833
535.4859, 34.27587
535.9680, 34.01404
536.4501, 33.91373
536.9323, 34.07711
537.4144, 34.55205
537.8965, 35.23391
538.3786, 36.31969
538.8607, 37.34506
539.3428, 37.35107
539.8250, 36.22489
540.3071, 35.66853
540.7892, 36.35423
541.2713, 37.77134
541.7534, 38.84741
542.2355, 39.56769
542.7177, 39.76777
543.1998, 38.65224
543.6819, 37.20555
544.1640, 37.21459
544.6461, 38.87716
545.1282, 40.46633
545.6104, 40.50924
546.0925, 39.90558
546.5746, 39.68540
547.0567, 40.57846
547.5388, 41.26612
548.0209, 40.93998
548.5031, 40.10949
548.9852, 39.88941
549.4673, 41.05505
549.9494, 42.21391
550.4315, 43.10438
550.9136, 43.72622
551.3958, 43.91018
551.8779, 43.43423
552.3600, 42.89412
552.8421, 42.73911
553.3242, 43.04456
553.8063, 42.99059
554.2885, 42.49110
554.7706, 41.77398
555.2527, 41.03988
555.7348, 40.31894
556.2169, 39.80824
556.6990, 39.61722
557.1812, 39.60732
557.6633, 39.69210
558.1454, 39.81990
558.6275, 39.79566
559.1096, 39.29280
559.5917, 38.73991
560.0739, 38.48671
560.5560, 38.55788
561.0381, 38.77395
561.5202, 39.39139
562.0023, 39.92207
562.4844, 39.98477
562.9666, 39.07085
563.4487, 38.37474
563.9308, 38.12450
564.4129, 38.05579
564.8950, 37.71474
565.3771, 36.81907
565.8593, 36.31007
566.3414, 36.50010
566.8235, 37.22502
567.3056, 37.88538
567.7877, 38.53239
568.2698, 38.70266
568.7520, 37.73121
569.2341, 36.01361
569.7162, 35.07410
570.1983, 34.99160
570.6804, 35.26774
571.1625, 35.72985
571.6447, 36.17060
572.1268, 36.21279
572.6089, 35.60760
573.0910, 34.93618
573.5731, 34.52100
574.0552, 34.30145
574.5374, 34.16246
575.0195, 34.28178
575.5016, 34.26253
575.9837, 33.89575
576.4658, 33.21467
576.9479, 32.63480
577.4301, 32.04622
577.9122, 31.70941
578.3943, 31.81226
578.8764, 32.47972
579.3585, 32.88299
579.8406, 32.99141
580.3228, 32.90398
580.8049, 32.68382
581.2870, 32.33805
581.7691, 31.97626
582.2512, 31.62250
582.7333, 31.25080
583.2155, 30.75712
583.6975, 30.20521
584.1796, 29.77282
584.6617, 29.67042
585.1439, 29.63688
585.6260, 29.38909
586.1081, 28.97841
586.5902, 28.66737
587.0723, 28.66465
587.5544, 28.73013
588.0366, 28.74475
588.5187, 28.70599
589.0008, 28.56968
589.4829, 28.17081
589.9650, 27.78102
590.4471, 27.60232
590.9293, 27.68444
591.4114, 27.87319
591.8935, 28.18677
592.3756, 28.57369
592.8577, 28.97066
593.3398, 29.38026
593.8220, 29.71302
594.3041, 29.98026
594.7862, 30.12133
595.2683, 29.98234
595.7504, 29.57707
596.2325, 28.99640
596.7147, 27.90544
597.1968, 26.88220
597.6789, 26.80765
598.1610, 27.76172
598.6431, 28.45288
599.1252, 27.68498
599.6074, 26.62142
600.0895, 26.26515
600.5716, 27.42899
601.0537, 28.19790
601.5358, 27.96308
602.0179, 27.30587
602.5001, 26.95548
602.9822, 26.99391
603.4643, 27.20901
603.9464, 27.69324
604.4285, 28.27887
604.9106, 28.31672
605.3928, 27.73213
605.8749, 27.27333
606.3570, 27.44489
606.8391, 28.01771
607.3212, 28.18201
607.8033, 27.95452
608.2855, 27.75246
608.7676, 27.83801
609.2497, 28.16504
609.7318, 28.84109
610.2139, 30.05456
610.6960, 30.76107
611.1782, 29.84803
611.6603, 28.37260
612.1424, 27.44758
612.6245, 27.74692
613.1066, 28.11279
613.5887, 28.47754
614.0709, 28.79579
614.5530, 28.96095
615.0351, 28.86827
615.5172, 28.84146
615.9993, 28.97857
616.4814, 29.25262
616.9636, 29.56654
617.4457, 29.93504
617.9278, 30.17425
618.4099, 30.03251
618.8920, 29.68121
619.3741, 29.71826
619.8563, 30.17386
620.3384, 30.40592
620.8205, 29.50324
621.3026, 28.24021
621.7847, 27.59584
622.2668, 27.94403
622.7490, 28.43869
623.2311, 28.76378
623.7132, 29.00132
