##NAMES=Fayalite
##RRUFFID=R100102
##IDEAL CHEMISTRY=Fe^2+^_2_SiO_4_
##LOCALITY=Bushveld Intrusive, 7 km east of Olepane, Limpopo Province, South Africa
##OWNER=RRUFF
##SOURCE=American Museum of Natural History
##DESCRIPTION=Pale brown fragments, variety hortonolite
##STATUS=The identification of this mineral is confirmed by single-crystal X-ray diffraction and chemical analysis.
##URL=rruff.info/R100102
##MEASURED CHEMISTRY=(Fe^+2^_1.100_Mg_0.883_Mn^+2^_0.014_Ca_0.002_Zn_0.001_Al_0.001_)_Î£=2.001_Si_0.999_O_4_
129.0615, 10.58686
129.5436, 10.69567
130.0258, 11.52168
130.5079, 12.66037
130.9900, 13.39402
131.4721, 13.71666
131.9542, 13.95343
132.4363, 14.44467
132.9185, 15.13602
133.4006, 15.62753
133.8827, 15.66937
134.3648, 15.45184
134.8469, 15.68141
135.3290, 16.39822
135.8112, 17.39064
136.2933, 18.36232
136.7754, 19.29582
137.2575, 20.54317
137.7396, 22.37242
138.2217, 24.73030
138.7039, 26.79232
139.1860, 28.52002
139.6681, 30.01578
140.1502, 31.44117
140.6323, 32.75917
141.1144, 34.08170
141.5966, 35.40950
142.0787, 36.67534
142.5608, 38.28339
143.0429, 40.46552
143.5250, 42.85585
144.0071, 44.55827
144.4893, 45.24563
144.9714, 45.75164
145.4535, 46.35675
145.9356, 46.73507
146.4177, 47.93586
146.8998, 50.49355
147.3820, 53.95298
147.8641, 56.48359
148.3462, 57.17314
148.8283, 57.76038
149.3104, 59.17521
149.7925, 61.75815
150.2747, 64.72836
150.7568, 68.11526
151.2389, 71.88753
151.7210, 75.69190
152.2031, 79.62087
152.6852, 83.48705
153.1674, 87.21765
153.6495, 91.07041
154.1316, 94.47742
154.6137, 97.28820
155.0958, 99.49500
155.5779, 101.4854
156.0601, 103.2596
156.5422, 104.8612
157.0243, 106.3056
157.5064, 107.3423
157.9885, 108.4582
158.4706, 109.7221
158.9528, 111.1169
159.4349, 112.8709
159.9170, 115.4664
160.3991, 118.3271
160.8812, 120.7866
161.3633, 122.0715
161.8455, 123.3807
162.3276, 125.3369
162.8097, 128.1125
163.2918, 130.8303
163.7739, 132.9306
164.2560, 134.6115
164.7382, 135.5680
165.2203, 136.7842
165.7024, 138.2760
166.1845, 139.8891
166.6666, 141.6263
167.1487, 143.4196
167.6309, 145.0672
168.1130, 146.7547
168.5951, 148.8459
169.0772, 152.0164
169.5593, 155.4055
170.0414, 158.1958
170.5236, 160.0036
171.0057, 161.7971
171.4878, 164.5546
171.9699, 167.9651
172.4520, 171.0228
172.9341, 172.7004
173.4163, 173.9135
173.8984, 175.8111
174.3805, 178.9784
174.8626, 182.3358
175.3447, 184.9401
175.8268, 186.8945
176.3090, 188.6740
176.7911, 190.3723
177.2732, 192.1292
177.7553, 194.1952
178.2374, 196.8007
178.7195, 199.5583
179.2017, 201.9138
179.6838, 203.9282
180.1659, 205.9718
180.6480, 208.3712
181.1301, 211.0247
181.6122, 213.7869
182.0944, 216.8167
182.5765, 219.7804
183.0586, 221.9395
183.5407, 223.2694
184.0228, 224.7593
184.5049, 227.8408
184.9871, 231.9668
185.4692, 235.0046
185.9513, 235.8974
186.4334, 235.4444
186.9155, 235.4442
187.3976, 235.9095
187.8798, 236.6704
188.3619, 237.9258
188.8440, 239.5235
189.3261, 240.3817
189.8082, 240.0263
190.2903, 238.6648
190.7725, 236.9743
191.2546, 234.9099
191.7367, 232.6382
192.2188, 230.3597
192.7009, 228.0434
193.1830, 225.4736
193.6652, 222.5281
194.1473, 219.2276
194.6294, 215.8666
195.1115, 212.4478
195.5936, 208.9583
196.0757, 205.2218
196.5579, 201.2146
197.0400, 197.6044
197.5221, 194.7294
198.0042, 192.5599
198.4863, 190.5016
198.9684, 188.5653
199.4506, 186.7388
199.9327, 185.1054
200.4148, 183.6929
200.8969, 182.1549
201.3790, 180.1369
201.8611, 177.6073
202.3433, 175.8920
202.8254, 175.2492
203.3075, 174.9960
203.7896, 173.7635
204.2717, 171.2520
204.7538, 169.2308
205.2360, 168.8705
205.7181, 170.4987
206.2002, 170.5969
206.6823, 168.7150
207.1644, 165.8498
207.6465, 163.8752
208.1287, 163.0325
208.6108, 162.2966
209.0929, 161.1107
209.5750, 159.2774
210.0571, 158.1242
210.5392, 157.8803
211.0214, 158.1068
211.5035, 157.8454
211.9856, 156.9230
212.4677, 156.0113
212.9498, 155.4732
213.4319, 155.4677
213.9140, 155.1525
214.3962, 154.3713
214.8783, 153.3684
215.3604, 152.7940
215.8425, 152.8886
216.3246, 152.8523
216.8067, 152.1746
217.2889, 150.4771
217.7710, 149.5161
218.2531, 149.6351
218.7352, 150.3371
219.2173, 150.3657
219.6994, 149.3543
220.1816, 148.3634
220.6637, 147.9297
221.1458, 148.3752
221.6279, 148.4487
222.1100, 148.0888
222.5921, 147.3714
223.0743, 146.3718
223.5564, 144.7482
224.0385, 143.4628
224.5206, 143.1020
225.0027, 144.1804
225.4848, 144.7534
225.9670, 144.5430
226.4491, 143.8918
226.9312, 143.7402
227.4133, 144.4155
227.8954, 145.0619
228.3775, 145.1799
228.8597, 144.2825
229.3418, 144.1114
229.8239, 145.0969
230.3060, 146.7053
230.7881, 147.3490
231.2702, 146.3896
231.7524, 145.4333
232.2345, 145.2832
232.7166, 146.4900
233.1987, 147.1931
233.6808, 147.2379
234.1629, 146.8141
234.6451, 146.3860
235.1272, 145.8537
235.6093, 145.4778
236.0914, 145.4019
236.5735, 145.7928
237.0556, 146.1007
237.5378, 146.2269
238.0199, 146.3044
238.5020, 146.7247
238.9841, 147.8711
239.4662, 148.8064
239.9483, 149.0491
240.4305, 148.0917
240.9126, 147.6517
241.3947, 147.9537
241.8768, 148.6988
242.3589, 149.1554
242.8410, 149.2144
243.3232, 149.1468
243.8053, 149.0610
244.2874, 148.9771
244.7695, 148.7910
245.2516, 148.3231
245.7337, 147.8200
246.2159, 147.8948
246.6980, 148.9519
247.1801, 149.9543
247.6622, 150.4785
248.1443, 150.3199
248.6264, 150.2418
249.1086, 150.1510
249.5907, 150.1853
250.0728, 150.7164
250.5549, 152.1911
251.0370, 153.4089
251.5191, 153.8607
252.0013, 153.2936
252.4834, 152.7490
252.9655, 152.0828
253.4476, 151.5247
253.9297, 151.5937
254.4118, 152.6857
254.8940, 153.6519
255.3761, 153.9691
255.8582, 153.3248
256.3403, 153.3733
256.8224, 154.5417
257.3046, 156.0770
257.7867, 156.5969
258.2688, 155.5490
258.7509, 154.6694
259.2330, 154.6112
259.7151, 155.5556
260.1973, 156.2227
260.6794, 156.4300
261.1615, 156.5292
261.6436, 157.0993
262.1257, 158.4229
262.6078, 159.5363
263.0900, 160.0811
263.5721, 159.9922
264.0542, 159.9725
264.5363, 159.9251
265.0184, 160.0569
265.5005, 160.7383
265.9827, 162.2085
266.4648, 163.5060
266.9469, 164.3199
267.4290, 164.6367
267.9111, 164.9460
268.3932, 165.2231
268.8754, 165.5257
269.3575, 165.9172
269.8396, 166.4087
270.3217, 166.9899
270.8038, 167.7948
271.2859, 168.7889
271.7681, 168.9857
272.2502, 168.0569
272.7323, 167.0145
273.2144, 167.1032
273.6965, 168.6223
274.1786, 169.6196
274.6608, 169.5106
275.1429, 168.4863
275.6250, 167.9712
276.1071, 168.0845
276.5892, 168.3661
277.0714, 168.4045
277.5535, 168.1784
278.0356, 167.9187
278.5177, 167.6519
278.9998, 167.3895
279.4819, 167.1929
279.9641, 167.0789
280.4462, 166.9601
280.9283, 166.8279
281.4104, 166.6929
281.8925, 166.2434
282.3746, 165.2748
282.8568, 164.0809
283.3389, 163.4531
283.8210, 163.4015
284.3031, 163.8274
284.7852, 165.0894
285.2673, 167.0809
285.7495, 168.0183
286.2316, 167.4963
286.7137, 166.0780
287.1958, 164.7621
287.6779, 163.5413
288.1600, 162.5911
288.6422, 162.1576
289.1243, 162.1561
289.6064, 161.9990
290.0885, 161.6119
290.5706, 161.1169
291.0527, 160.6362
291.5349, 160.1816
292.0170, 159.9036
292.4991, 160.1172
292.9812, 160.6152
293.4633, 160.5136
293.9454, 159.6531
294.4276, 158.6825
294.9097, 158.6555
295.3918, 159.3798
295.8739, 159.8409
296.3560, 159.1891
296.8381, 157.9560
297.3203, 157.5404
297.8024, 158.0470
298.2845, 158.6507
298.7666, 158.5412
299.2487, 157.8262
299.7308, 156.8333
300.2130, 155.5278
300.6951, 154.0870
301.1772, 152.7931
301.6593, 151.6519
302.1414, 150.5571
302.6235, 149.7177
303.1057, 148.8548
303.5878, 147.4075
304.0699, 144.8510
304.5520, 141.8717
305.0341, 139.1583
305.5162, 136.7142
305.9984, 134.4622
306.4805, 132.2191
306.9626, 130.1857
307.4447, 128.7375
307.9268, 128.2729
308.4089, 127.9924
308.8911, 127.1439
309.3732, 125.8484
309.8553, 124.6081
310.3374, 123.9177
310.8195, 123.3333
311.3016, 122.3010
311.7838, 120.3267
312.2659, 118.7054
312.7480, 118.6174
313.2301, 119.5806
313.7122, 120.3898
314.1943, 120.4569
314.6765, 120.1938
315.1586, 119.8375
315.6407, 119.3672
316.1228, 119.0067
316.6049, 118.9076
317.0870, 118.9857
317.5692, 119.1028
318.0513, 119.1040
318.5334, 119.2151
319.0155, 119.6947
319.4976, 120.6702
319.9797, 121.2283
320.4619, 120.7132
320.9440, 119.7425
321.4261, 119.0153
321.9082, 118.7947
322.3903, 118.7394
322.8724, 118.8129
323.3546, 119.0145
323.8367, 119.1355
324.3188, 118.8916
324.8009, 118.6881
325.2830, 118.8367
325.7651, 120.0814
326.2473, 120.9015
326.7294, 120.8989
327.2115, 120.1809
327.6936, 119.5938
328.1757, 119.4896
328.6578, 119.3123
329.1400, 118.7785
329.6221, 117.4343
330.1042, 116.3640
330.5863, 115.8445
331.0684, 115.6056
331.5505, 114.8511
332.0327, 113.1569
332.5148, 111.4349
332.9969, 110.0271
333.4790, 109.0574
333.9611, 108.1505
334.4432, 107.4342
334.9254, 106.7010
335.4075, 105.5765
335.8896, 103.8536
336.3717, 102.1360
336.8538, 100.6084
337.3359, 99.26447
337.8180, 98.02706
338.3001, 96.84855
338.7823, 95.85210
339.2644, 95.33690
339.7465, 95.50314
340.2286, 95.23490
340.7107, 94.12333
341.1928, 92.31265
341.6750, 90.92961
342.1571, 89.99574
342.6392, 89.32679
343.1213, 88.79079
343.6034, 88.39212
344.0855, 88.10078
344.5677, 87.98797
345.0498, 87.90340
345.5319, 87.35112
346.0140, 86.30900
346.4961, 85.42730
346.9782, 85.33826
347.4604, 85.83773
347.9425, 85.89300
348.4246, 85.34030
348.9067, 84.53683
349.3888, 83.97816
349.8709, 83.62646
350.3531, 83.26758
350.8352, 82.77685
351.3173, 82.21245
351.7994, 81.63075
352.2815, 81.02507
352.7636, 80.54652
353.2458, 80.47144
353.7279, 80.63151
354.2100, 80.66030
354.6921, 80.27747
355.1742, 79.79224
355.6563, 79.53817
356.1385, 79.49932
356.6206, 79.49828
357.1027, 79.58350
357.5848, 79.57570
358.0669, 79.23109
358.5490, 78.26421
359.0312, 77.27782
359.5133, 76.50372
359.9954, 75.98802
360.4775, 75.85680
360.9596, 76.64293
361.4417, 77.52494
361.9239, 77.94097
362.4060, 77.72007
362.8881, 77.27650
363.3702, 76.62838
363.8523, 75.88071
364.3344, 75.19465
364.8166, 74.45972
365.2987, 73.92969
365.7808, 73.78144
366.2629, 74.06587
366.7450, 74.30936
367.2271, 74.69372
367.7093, 74.88235
368.1914, 74.57946
368.6735, 72.77087
369.1556, 71.56699
369.6377, 71.65768
370.1198, 72.83984
370.6020, 73.32143
371.0841, 72.35398
371.5662, 71.38084
372.0483, 71.22287
372.5304, 72.52341
373.0125, 73.41580
373.4947, 73.71477
373.9768, 73.62933
374.4589, 73.61288
374.9410, 73.59334
375.4231, 73.79652
375.9052, 74.38163
376.3874, 75.42445
376.8695, 76.28275
377.3516, 76.97398
377.8337, 77.46640
378.3158, 77.64157
378.7979, 77.43398
379.2801, 77.41611
379.7622, 77.78270
380.2443, 78.45583
380.7264, 79.12819
381.2085, 79.79973
381.6906, 80.44454
382.1728, 80.94128
382.6549, 81.34919
383.1370, 82.07948
383.6191, 83.34201
384.1012, 84.71688
384.5833, 85.46278
385.0655, 85.64526
385.5476, 85.76854
386.0297, 85.99483
386.5118, 86.39454
386.9939, 87.24145
387.4760, 88.63143
387.9582, 89.91846
388.4403, 90.16416
388.9224, 89.87492
389.4045, 90.09624
389.8866, 92.15067
390.3687, 94.28908
390.8509, 94.67934
391.3330, 93.47362
391.8151, 92.47923
392.2972, 93.04646
392.7793, 94.21692
393.2614, 95.08162
393.7436, 95.33334
394.2257, 95.33126
394.7078, 94.99146
395.1899, 94.48621
395.6720, 94.26775
396.1541, 95.01828
396.6363, 95.66029
397.1184, 95.58102
397.6005, 94.40293
398.0826, 93.50204
398.5647, 93.20293
399.0468, 93.25004
399.5290, 93.33360
400.0111, 93.14709
400.4932, 93.31339
400.9753, 94.13650
401.4574, 95.61562
401.9395, 96.61922
402.4217, 96.86356
402.9038, 96.94006
403.3859, 97.28097
403.8680, 98.14889
404.3501, 98.63931
404.8322, 98.59706
405.3144, 98.18078
405.7965, 97.81892
406.2786, 97.55148
406.7607, 97.19656
407.2428, 96.55708
407.7249, 95.60960
408.2071, 95.22424
408.6892, 95.55476
409.1713, 95.98682
409.6534, 95.65276
410.1355, 94.59389
410.6176, 93.63378
411.0998, 93.02446
411.5819, 92.65617
412.0640, 92.30486
412.5461, 91.97172
413.0282, 91.60683
413.5103, 91.25710
413.9925, 90.84382
414.4746, 90.07935
414.9567, 88.73839
415.4388, 87.56807
415.9209, 87.46090
416.4030, 88.13493
416.8852, 88.88821
417.3673, 89.64973
417.8494, 90.15027
418.3315, 90.05783
418.8136, 89.34816
419.2957, 88.58603
419.7779, 88.22876
420.2600, 87.91997
420.7421, 87.30874
421.2242, 85.85499
421.7063, 84.53793
422.1884, 83.65224
422.6706, 83.14794
423.1527, 82.79895
423.6348, 82.83317
424.1169, 82.79530
424.5990, 82.43249
425.0811, 81.48138
425.5633, 80.78201
426.0454, 80.84306
426.5275, 80.97326
427.0096, 80.21497
427.4917, 77.59759
427.9738, 75.58706
428.4560, 74.87081
428.9381, 75.37487
429.4202, 75.55718
429.9023, 75.39647
430.3844, 74.95313
430.8665, 74.14312
431.3487, 72.84203
431.8308, 71.97662
432.3129, 71.73772
432.7950, 71.82475
433.2771, 71.57818
433.7592, 70.98190
434.2414, 70.50060
434.7235, 70.40397
435.2056, 70.60454
435.6877, 70.74216
436.1698, 70.80820
436.6519, 70.90437
437.1341, 71.38143
437.6162, 71.97681
438.0983, 71.94224
438.5804, 70.74596
439.0625, 69.31010
439.5446, 68.77013
440.0268, 68.92500
440.5089, 69.03956
440.9910, 68.52580
441.4731, 67.87684
441.9552, 67.56335
442.4373, 67.70144
442.9195, 67.84715
443.4016, 67.68625
443.8837, 67.43526
444.3658, 67.35744
444.8479, 67.77070
445.3300, 68.12720
445.8122, 68.20158
446.2943, 68.02748
446.7764, 67.93837
447.2585, 68.05442
447.7406, 68.21136
448.2227, 68.34921
448.7049, 68.60806
449.1870, 68.55888
449.6691, 67.97621
450.1512, 67.19768
450.6333, 66.79342
451.1154, 66.95774
451.5976, 67.06792
452.0797, 66.92892
452.5618, 66.56450
453.0439, 66.29582
453.5260, 66.09133
454.0081, 66.09239
454.4903, 66.53944
454.9724, 67.41955
455.4545, 68.06653
455.9366, 68.36890
456.4187, 68.46066
456.9008, 68.60947
457.3830, 68.78297
457.8651, 68.72472
458.3472, 68.11810
458.8293, 67.26201
459.3114, 66.68880
459.7935, 66.40656
460.2757, 66.22823
460.7578, 65.92912
461.2399, 65.66771
461.7220, 65.70833
462.2041, 66.34308
462.6862, 66.91138
463.1684, 66.92062
463.6505, 66.53593
464.1326, 66.13848
464.6147, 65.73336
465.0968, 65.47294
465.5789, 65.46580
466.0611, 65.73911
466.5432, 66.08624
467.0253, 66.70204
467.5074, 67.24581
467.9895, 67.42740
468.4716, 66.75124
468.9538, 66.33015
469.4359, 66.31500
469.9180, 66.60122
470.4001, 66.89951
470.8822, 67.34926
471.3643, 67.55534
471.8465, 67.26597
472.3286, 66.40820
472.8107, 65.81151
473.2928, 65.47359
473.7749, 65.41542
474.2570, 65.88678
474.7392, 66.88091
475.2213, 67.34575
475.7034, 66.92231
476.1855, 66.00008
476.6676, 65.28141
477.1497, 64.76400
477.6319, 64.45100
478.1140, 64.35477
478.5961, 64.45406
479.0782, 64.78972
479.5603, 65.38359
480.0424, 65.92768
480.5246, 66.30621
481.0067, 66.43961
481.4888, 66.19533
481.9709, 65.02143
482.4530, 64.04659
482.9352, 63.99918
483.4173, 64.64745
483.8994, 65.25906
484.3815, 65.60051
484.8636, 65.83942
485.3457, 66.09560
485.8279, 66.45991
486.3100, 66.53382
486.7921, 65.92635
487.2742, 65.21059
487.7563, 64.89079
488.2384, 65.17479
488.7206, 65.51210
489.2027, 65.89857
489.6848, 66.28586
490.1669, 66.41972
490.6490, 66.14898
491.1311, 66.08486
491.6133, 66.65908
492.0954, 67.85846
492.5775, 68.66434
493.0596, 69.04219
493.5417, 69.15183
494.0238, 69.07100
494.5060, 68.84432
494.9881, 68.65751
495.4702, 68.50127
495.9523, 68.49692
496.4344, 68.96229
496.9165, 69.77417
497.3987, 70.46728
497.8808, 70.82785
498.3629, 70.92453
498.8450, 70.66305
499.3271, 70.00861
499.8092, 69.65663
500.2914, 70.15874
500.7735, 71.04814
501.2556, 71.90293
501.7377, 72.94967
502.2198, 73.53775
502.7019, 73.06667
503.1841, 72.00837
503.6662, 71.65028
504.1483, 72.61073
504.6304, 73.73750
505.1125, 74.75734
505.5946, 75.67527
506.0768, 76.48450
506.5589, 77.29285
507.0410, 77.82385
507.5231, 77.63931
508.0052, 76.52190
508.4873, 76.23768
508.9695, 77.23698
509.4516, 78.75558
509.9337, 79.19942
510.4158, 78.63541
510.8979, 78.33682
511.3800, 79.14169
511.8622, 80.50386
512.3443, 81.16765
512.8264, 81.15429
513.3085, 80.97252
513.7906, 80.72352
514.2728, 80.64184
514.7549, 81.11301
515.2370, 82.37260
515.7191, 83.68961
516.2012, 84.91038
516.6833, 85.82388
517.1655, 86.12878
517.6476, 84.79444
518.1297, 83.76286
518.6118, 83.93977
519.0939, 85.21384
519.5760, 86.15503
520.0582, 86.36484
520.5403, 86.39737
521.0224, 86.45016
521.5045, 86.47354
521.9866, 86.69900
522.4688, 87.31638
522.9509, 87.92478
523.4330, 87.91612
523.9151, 87.11840
524.3972, 86.69914
524.8793, 87.08008
525.3615, 87.85172
525.8436, 87.91102
526.3257, 87.26403
526.8078, 86.42820
527.2899, 85.74898
527.7720, 85.08385
528.2542, 84.03914
528.7363, 82.59162
529.2184, 81.14205
529.7005, 80.05246
530.1826, 79.17784
530.6647, 78.34277
531.1469, 77.58708
531.6290, 76.72665
532.1111, 75.49716
532.5932, 74.10567
533.0753, 72.97890
533.5574, 72.50102
534.0396, 72.04580
534.5217, 71.41318
535.0038, 70.59451
535.4859, 69.63946
535.9680, 68.30354
536.4501, 67.08173
536.9323, 66.27120
537.4144, 65.97923
537.8965, 65.79542
538.3786, 65.74960
538.8607, 65.76113
539.3428, 65.63361
539.8250, 65.33475
540.3071, 65.38483
540.7892, 66.14684
541.2713, 67.18172
541.7534, 67.27341
542.2355, 66.49745
542.7177, 65.65096
543.1998, 65.01444
543.6819, 64.70656
544.1640, 65.11684
544.6461, 66.31303
545.1282, 67.32137
545.6104, 67.04012
546.0925, 66.35520
546.5746, 66.29852
547.0567, 67.82750
547.5388, 69.07704
548.0209, 69.08186
548.5031, 68.37313
548.9852, 68.12247
549.4673, 68.93208
549.9494, 69.77084
550.4315, 70.43875
550.9136, 70.93577
551.3958, 71.14440
551.8779, 70.80682
552.3600, 70.61642
552.8421, 71.15162
553.3242, 72.53455
553.8063, 73.44982
554.2885, 73.77750
554.7706, 73.81482
555.2527, 73.86308
555.7348, 73.94019
556.2169, 74.16139
556.6990, 74.56906
557.1812, 75.12287
557.6633, 75.84124
558.1454, 76.67706
558.6275, 77.45595
559.1096, 77.97865
559.5917, 78.46591
560.0739, 79.07359
560.5560, 79.81575
561.0381, 80.66326
561.5202, 81.84973
562.0023, 82.97811
562.4844, 83.75459
562.9666, 84.10911
563.4487, 84.13231
563.9308, 83.57415
564.4129, 82.80974
564.8950, 82.38393
565.3771, 82.27950
565.8593, 82.59439
566.3414, 83.53976
566.8235, 84.89567
567.3056, 85.76254
567.7877, 86.13560
568.2698, 86.00243
568.7520, 84.96479
569.2341, 83.37151
569.7162, 82.61487
570.1983, 82.77783
570.6804, 83.20786
571.1625, 83.46981
571.6447, 83.55104
572.1268, 83.42055
572.6089, 83.03434
573.0910, 82.51701
573.5731, 81.84061
574.0552, 81.10466
574.5374, 80.46773
575.0195, 79.96716
575.5016, 79.59694
575.9837, 79.51591
576.4658, 79.66981
576.9479, 79.38329
577.4301, 78.10684
577.9122, 77.03387
578.3943, 76.78426
578.8764, 77.59470
579.3585, 77.88148
579.8406, 77.53591
580.3228, 76.90831
580.8049, 76.28535
581.2870, 75.67494
581.7691, 75.20243
582.2512, 74.91603
582.7333, 74.71908
583.2155, 74.45876
583.6975, 74.16637
584.1796, 73.92981
584.6617, 73.92359
585.1439, 73.89534
585.6260, 73.49355
586.1081, 72.81405
586.5902, 72.34356
587.0723, 72.51708
587.5544, 72.80312
588.0366, 72.92175
588.5187, 72.83707
589.0008, 72.60703
589.4829, 72.14572
589.9650, 71.60435
590.4471, 71.07639
590.9293, 70.49905
591.4114, 70.08350
591.8935, 69.85586
592.3756, 69.77812
592.8577, 69.81760
593.3398, 69.98246
593.8220, 70.14668
594.3041, 70.38309
594.7862, 70.50719
595.2683, 69.92828
595.7504, 68.74184
596.2325, 67.61047
596.7147, 66.96916
597.1968, 66.60253
597.6789, 66.35532
598.1610, 66.22073
598.6431, 65.87459
599.1252, 64.66210
599.6074, 63.44401
600.0895, 62.97517
600.5716, 64.00507
601.0537, 64.71384
601.5358, 64.64983
602.0179, 64.18919
602.5001, 63.77401
602.9822, 63.30926
603.4643, 63.12469
603.9464, 63.45626
604.4285, 64.03152
604.9106, 63.82954
605.3928, 62.75500
605.8749, 61.77895
606.3570, 61.48895
606.8391, 61.65974
607.3212, 61.48457
607.8033, 60.98133
608.2855, 60.57308
608.7676, 60.74433
609.2497, 61.13903
609.7318, 61.32222
610.2139, 61.22757
610.6960, 60.92857
611.1782, 60.19004
611.6603, 59.39210
612.1424, 58.93119
612.6245, 59.42260
613.1066, 59.62799
613.5887, 59.21281
614.0709, 58.44534
614.5530, 57.81046
615.0351, 57.25178
615.5172, 56.98072
615.9993, 57.12172
616.4814, 57.59680
616.9636, 58.05689
617.4457, 58.52102
617.9278, 58.75623
618.4099, 58.37176
618.8920, 57.66315
619.3741, 57.59178
619.8563, 58.20254
620.3384, 58.64866
620.8205, 58.00374
621.3026, 56.89543
621.7847, 56.04923
622.2668, 55.57718
622.7490, 55.46310
