##NAMES=Fayalite
##RRUFFID=R100104
##IDEAL CHEMISTRY=Fe^2+^_2_SiO_4_
##LOCALITY=Dannemora, Uppsala Province, Sweden
##OWNER=RRUFF
##SOURCE=American Museum of Natural History
##DESCRIPTION=Dark brown fragment, variety knebelite
##STATUS=The identification of this mineral is confirmed by single-crystal X-ray diffraction and chemical analysis.
##URL=rruff.info/R100104
##MEASURED CHEMISTRY=(Fe^+2^_1.020_Mn^+2^_0.931_Mg_0.052_Ca_0.002_Zn_0.001_)_Î£=2.006_Si_0.997_O_4_
91.53320, 104.4147
92.01532, 106.4516
92.49744, 106.9564
92.97955, 106.8596
93.46167, 105.4313
93.94379, 102.9672
94.42590, 100.0117
94.90802, 97.08406
95.39014, 94.47983
95.87225, 92.20689
96.35437, 90.17992
96.83649, 88.68526
97.31860, 87.35310
97.80072, 85.73602
98.28284, 83.42411
98.76495, 80.54375
99.24707, 78.13864
99.72919, 76.45422
100.2113, 74.98835
100.6934, 73.61560
101.1755, 72.32712
101.6577, 71.16606
102.1398, 70.15752
102.6219, 69.31046
103.1040, 68.56330
103.5861, 67.93416
104.0682, 67.34247
104.5504, 66.68294
105.0325, 65.96214
105.5146, 65.33189
105.9967, 65.05141
106.4788, 65.39124
106.9609, 65.33870
107.4431, 64.48176
107.9252, 63.28959
108.4073, 62.45165
108.8894, 62.26719
109.3715, 62.33381
109.8536, 61.89700
110.3358, 60.84848
110.8179, 59.86487
111.3000, 59.34882
111.7821, 59.25907
112.2642, 59.20501
112.7463, 59.08863
113.2285, 58.90757
113.7106, 58.66399
114.1927, 58.35957
114.6748, 57.98856
115.1569, 57.54652
115.6390, 57.02668
116.1212, 56.43223
116.6033, 55.63642
117.0854, 54.81968
117.5675, 54.18557
118.0496, 53.85405
118.5317, 53.74433
119.0139, 53.47000
119.4960, 52.72484
119.9781, 52.13689
120.4602, 51.95361
120.9423, 52.00325
121.4244, 51.98006
121.9066, 51.63950
122.3887, 50.95261
122.8708, 50.33240
123.3529, 49.80184
123.8350, 49.29625
124.3171, 48.73313
124.7993, 48.13451
125.2814, 47.64950
125.7635, 47.45165
126.2456, 47.62263
126.7277, 47.71017
127.2098, 47.77520
127.6920, 47.72362
128.1741, 47.36592
128.6562, 46.60870
129.1383, 45.82344
129.6204, 45.48710
130.1025, 45.53731
130.5847, 45.76542
131.0668, 46.29952
131.5489, 46.99259
132.0310, 47.28688
132.5131, 46.80190
132.9952, 46.15992
133.4774, 45.96774
133.9595, 46.23110
134.4416, 46.49983
134.9237, 46.29319
135.4058, 45.51430
135.8879, 44.93264
136.3701, 44.86640
136.8522, 44.93547
137.3343, 44.94647
137.8164, 44.84904
138.2985, 44.70131
138.7806, 44.59210
139.2628, 44.49995
139.7449, 44.50059
140.2270, 44.66256
140.7091, 44.87429
141.1912, 45.02087
141.6733, 45.05013
142.1555, 45.01608
142.6376, 45.10466
143.1197, 45.21708
143.6018, 45.57876
144.0839, 46.58206
144.5660, 47.81346
145.0482, 48.58661
145.5303, 48.45276
146.0124, 47.55622
146.4945, 46.99318
146.9766, 46.71788
147.4587, 46.72673
147.9409, 47.25228
148.4230, 48.16156
148.9051, 48.87859
149.3872, 48.98507
149.8693, 48.51381
150.3514, 48.02250
150.8336, 47.41816
151.3157, 46.85853
151.7978, 46.52037
152.2799, 46.43159
152.7620, 46.37453
153.2441, 46.12450
153.7263, 45.79309
154.2084, 45.57863
154.6905, 45.69400
155.1726, 45.95193
155.6547, 45.87975
156.1368, 45.24084
156.6190, 44.70359
157.1011, 44.71162
157.5832, 45.06665
158.0653, 45.37905
158.5474, 45.29060
159.0295, 44.85830
159.5117, 44.85111
159.9938, 45.58722
160.4759, 46.48682
160.9580, 47.39375
161.4401, 48.29119
161.9222, 49.19409
162.4044, 50.14020
162.8865, 51.17548
163.3686, 51.99995
163.8507, 52.76929
164.3328, 53.22775
164.8149, 53.31284
165.2971, 52.98631
165.7792, 52.18060
166.2613, 50.77398
166.7434, 48.53589
167.2255, 46.30746
167.7076, 43.84537
168.1898, 41.53847
168.6719, 39.68733
169.1540, 38.33732
169.6361, 37.32731
170.1182, 36.45738
170.6003, 35.80211
171.0825, 35.10923
171.5646, 34.17104
172.0467, 33.26818
172.5288, 32.81460
173.0109, 32.97291
173.4930, 33.32695
173.9752, 33.09396
174.4573, 32.17813
174.9394, 31.49298
175.4215, 31.50432
175.9036, 31.93460
176.3857, 32.14296
176.8679, 31.87744
177.3500, 31.43393
177.8321, 31.18038
178.3142, 31.10810
178.7963, 31.18635
179.2784, 31.60587
179.7606, 32.28474
180.2427, 32.48707
180.7248, 31.63638
181.2069, 30.54963
181.6890, 29.91097
182.1711, 29.77375
182.6533, 29.93783
183.1354, 30.37237
183.6175, 31.15715
184.0996, 31.57953
184.5817, 31.08557
185.0638, 30.40329
185.5460, 29.92354
186.0281, 29.73262
186.5102, 29.69542
186.9923, 29.65777
187.4744, 29.67188
187.9565, 29.53378
188.4387, 28.99850
188.9208, 28.45338
189.4029, 28.23035
189.8850, 28.41691
190.3671, 28.78430
190.8492, 28.87940
191.3314, 28.40845
191.8135, 28.14036
192.2956, 28.19570
192.7777, 28.41014
193.2598, 28.66934
193.7419, 28.92385
194.2241, 29.15539
194.7062, 29.31912
195.1883, 29.24942
195.6704, 29.30805
196.1525, 29.77818
196.6346, 30.29140
197.1168, 30.33272
197.5989, 29.66029
198.0810, 28.57995
198.5631, 27.98814
199.0452, 28.27492
199.5273, 28.49514
200.0095, 28.46457
200.4916, 28.27775
200.9737, 28.07159
201.4558, 27.89215
201.9379, 27.75825
202.4200, 27.74090
202.9022, 27.93754
203.3843, 28.06141
203.8664, 27.92716
204.3485, 27.62988
204.8306, 27.42151
205.3127, 27.39174
205.7949, 27.54717
206.2770, 27.92321
206.7591, 28.72706
207.2412, 29.30749
207.7233, 29.08415
208.2054, 28.19821
208.6876, 27.56188
209.1697, 27.74792
209.6518, 28.21972
210.1339, 28.09604
210.6160, 27.12607
211.0981, 26.19416
211.5803, 26.14280
212.0624, 26.97412
212.5445, 27.70517
213.0266, 27.89955
213.5087, 27.88137
213.9908, 27.96401
214.4730, 28.21025
214.9551, 28.45200
215.4372, 28.46118
215.9193, 28.18789
216.4014, 27.99411
216.8836, 28.05371
217.3657, 28.19368
217.8478, 28.27301
218.3299, 28.25463
218.8120, 28.28674
219.2941, 28.62845
219.7763, 29.41917
220.2584, 30.05504
220.7405, 30.33063
221.2226, 30.48699
221.7047, 30.70273
222.1868, 31.02233
222.6690, 31.33140
223.1511, 31.43188
223.6332, 31.21964
224.1153, 31.02845
224.5974, 30.72093
225.0795, 30.54379
225.5617, 30.81327
226.0438, 31.57490
226.5259, 32.44490
227.0080, 32.69912
227.4901, 31.75717
227.9722, 31.25729
228.4544, 31.47489
228.9365, 31.95130
229.4186, 32.30871
229.9007, 32.44966
230.3828, 32.57383
230.8649, 33.05601
231.3471, 34.41780
231.8292, 35.28421
232.3113, 35.26115
232.7934, 35.01704
233.2755, 35.16426
233.7576, 35.85039
234.2398, 36.69962
234.7219, 37.06071
235.2040, 36.38464
235.6861, 36.21014
236.1682, 36.99300
236.6503, 38.01904
237.1325, 38.56873
237.6146, 38.46608
238.0967, 38.17035
238.5788, 38.39300
239.0609, 39.50408
239.5430, 40.27960
240.0252, 40.59634
240.5073, 40.59932
240.9894, 40.35516
241.4715, 39.88097
241.9536, 39.33977
242.4357, 38.96359
242.9179, 38.81622
243.4000, 38.54999
243.8821, 38.04934
244.3642, 37.45367
244.8463, 36.94519
245.3284, 36.56458
245.8106, 36.14557
246.2927, 35.40766
246.7748, 34.32727
247.2569, 33.50593
247.7390, 33.22438
248.2211, 33.16259
248.7033, 32.96663
249.1854, 32.58595
249.6675, 32.04989
250.1496, 31.23698
250.6317, 30.20726
251.1138, 29.48085
251.5960, 29.44403
252.0781, 29.64917
252.5602, 29.43693
253.0423, 28.67586
253.5244, 27.92535
254.0065, 27.72145
254.4887, 27.92245
254.9708, 28.19500
255.4529, 28.61689
255.9350, 29.00092
256.4171, 28.95564
256.8992, 28.34358
257.3813, 27.88421
257.8635, 28.44692
258.3456, 29.49445
258.8277, 30.11127
259.3098, 29.84628
259.7919, 29.12245
260.2740, 28.41206
260.7562, 27.63301
261.2383, 27.22302
261.7204, 27.78231
262.2025, 28.78194
262.6846, 29.61699
263.1667, 30.11926
263.6489, 30.37813
264.1310, 30.45878
264.6131, 30.30343
265.0952, 30.22182
265.5773, 30.51328
266.0594, 30.88516
266.5416, 31.03682
267.0237, 30.84599
267.5058, 30.52482
267.9879, 30.29836
268.4700, 30.13434
268.9521, 30.22266
269.4343, 30.98388
269.9164, 31.84420
270.3985, 32.32619
270.8806, 32.29609
271.3627, 32.08129
271.8448, 32.09004
272.3270, 32.37002
272.8091, 32.62438
273.2912, 32.72466
273.7733, 32.81455
274.2554, 33.01377
274.7375, 33.33788
275.2197, 33.65008
275.7018, 33.77900
276.1839, 33.69224
276.6660, 33.62907
277.1481, 33.58847
277.6302, 33.60765
278.1124, 33.81170
278.5945, 34.15953
279.0766, 34.38386
279.5587, 34.10952
280.0408, 33.24802
280.5229, 32.68524
281.0051, 32.62984
281.4872, 32.76113
281.9693, 33.08422
282.4514, 33.51278
282.9335, 33.83926
283.4156, 33.87216
283.8978, 33.60658
284.3799, 33.27988
284.8620, 32.80980
285.3441, 32.35871
285.8262, 31.92142
286.3083, 31.54437
286.7905, 31.32337
287.2726, 31.36469
287.7547, 31.63218
288.2368, 31.77388
288.7189, 31.66281
289.2010, 31.56941
289.6832, 31.63641
290.1653, 31.75548
290.6474, 31.74593
291.1295, 31.48620
291.6116, 31.05196
292.0938, 30.74955
292.5759, 30.62588
293.0580, 30.58721
293.5401, 30.65799
294.0222, 30.77737
294.5043, 30.87761
294.9865, 30.92800
295.4686, 30.95212
295.9507, 31.01491
296.4328, 31.17849
296.9149, 31.26488
297.3970, 31.20001
297.8792, 31.09048
298.3613, 31.02362
298.8434, 31.02679
299.3255, 31.07483
299.8076, 31.12958
300.2897, 31.19614
300.7719, 31.25752
301.2540, 31.26699
301.7361, 31.30405
302.2182, 31.49968
302.7003, 31.83159
303.1824, 32.08624
303.6646, 31.97515
304.1467, 31.37872
304.6288, 30.84476
305.1109, 30.48630
305.5930, 30.08524
306.0751, 29.48658
306.5573, 28.73323
307.0394, 27.98700
307.5215, 27.35857
308.0036, 26.83021
308.4857, 26.65261
308.9678, 27.53780
309.4500, 28.08028
309.9321, 27.60332
310.4142, 26.46846
310.8963, 25.47721
311.3784, 25.21142
311.8605, 25.53707
312.3427, 25.39291
312.8248, 24.12961
313.3069, 23.13604
313.7890, 22.72043
314.2711, 22.69674
314.7532, 22.84081
315.2354, 23.04969
315.7175, 23.29337
316.1996, 23.50703
316.6817, 23.88803
317.1638, 23.88811
317.6459, 23.07133
318.1281, 22.09635
318.6102, 21.61823
319.0923, 21.82361
319.5744, 22.31672
320.0565, 22.42241
320.5386, 21.90828
321.0208, 21.53805
321.5029, 21.54283
321.9850, 21.52781
322.4671, 21.14246
322.9492, 20.40860
323.4313, 19.70939
323.9135, 19.51496
324.3956, 19.97308
324.8777, 20.18584
325.3598, 19.79336
325.8419, 19.48882
326.3240, 19.63145
326.8062, 20.10784
327.2883, 20.55437
327.7704, 20.67870
328.2525, 20.50156
328.7346, 20.40334
329.2167, 20.49408
329.6989, 20.54095
330.1810, 20.51427
330.6631, 20.40352
331.1452, 20.17379
331.6273, 19.79033
332.1094, 19.32947
332.5916, 19.03814
333.0737, 19.02615
333.5558, 19.00431
334.0379, 18.87061
334.5200, 18.73090
335.0021, 18.70614
335.4843, 18.83188
335.9664, 19.00941
336.4485, 19.10138
336.9306, 19.13395
337.4127, 18.99533
337.8948, 18.38879
338.3770, 17.83183
338.8591, 17.65494
339.3412, 17.86965
339.8233, 18.24862
340.3055, 18.65881
340.7876, 19.13589
341.2697, 19.25633
341.7518, 18.54361
342.2339, 17.92915
342.7160, 17.89843
343.1982, 18.26351
343.6803, 18.52186
344.1624, 18.27204
344.6445, 17.65215
345.1266, 17.37270
345.6087, 17.62030
346.0909, 17.92294
346.5730, 18.11558
347.0551, 18.26479
347.5372, 18.44487
348.0193, 18.68328
348.5014, 18.98244
348.9836, 19.42702
349.4657, 20.15414
349.9478, 20.55428
350.4299, 20.11855
350.9120, 19.50896
351.3941, 19.22761
351.8763, 19.36430
352.3584, 19.59376
352.8405, 19.55485
353.3226, 19.23728
353.8047, 19.02630
354.2868, 19.06412
354.7690, 19.12687
355.2511, 19.02604
355.7332, 18.80679
356.2153, 18.67329
356.6974, 18.79447
357.1795, 19.11380
357.6617, 19.44764
358.1438, 19.88047
358.6259, 20.13613
359.1080, 19.86674
359.5901, 19.36237
360.0722, 19.09650
360.5544, 19.30353
361.0365, 19.74489
361.5186, 20.10532
362.0007, 20.37464
362.4828, 20.62878
362.9649, 20.90070
363.4471, 21.17144
363.9292, 21.44700
364.4113, 21.75182
364.8934, 21.95267
365.3755, 21.83157
365.8576, 21.47034
366.3398, 21.33995
366.8219, 21.62319
367.3040, 22.06305
367.7861, 22.47864
368.2682, 22.86134
368.7503, 22.99387
369.2325, 22.52940
369.7146, 21.83582
370.1967, 21.61618
370.6788, 21.99828
371.1609, 22.42357
371.6430, 22.37246
372.1252, 22.01253
372.6073, 21.90906
373.0894, 22.42540
373.5715, 22.99101
374.0536, 23.07764
374.5357, 22.76576
375.0179, 22.54482
375.5000, 22.67318
375.9821, 23.02221
376.4642, 23.29102
376.9463, 23.48525
377.4284, 23.60261
377.9106, 23.52613
378.3927, 23.39624
378.8748, 23.51197
379.3569, 23.97798
379.8390, 24.50524
380.3211, 24.74173
380.8033, 24.65940
381.2854, 24.38697
381.7675, 23.66297
382.2496, 22.94535
382.7317, 22.64998
383.2138, 22.76175
383.6960, 22.94270
384.1781, 22.95594
384.6602, 22.80717
385.1423, 22.59372
385.6244, 22.18884
386.1065, 21.87115
386.5887, 21.72140
387.0708, 21.72289
387.5529, 21.91517
388.0350, 22.33105
388.5171, 22.76789
388.9992, 22.75999
389.4814, 21.55341
389.9635, 21.08749
390.4456, 22.20044
390.9277, 23.48873
391.4098, 23.66093
391.8919, 22.64274
392.3741, 21.39927
392.8562, 20.94432
393.3383, 21.38787
393.8204, 21.78050
394.3025, 22.17296
394.7846, 22.46788
395.2668, 22.60430
395.7489, 22.62184
396.2310, 22.61317
396.7131, 22.64208
397.1952, 22.64526
397.6773, 22.38672
398.1595, 21.66709
398.6416, 21.00442
399.1237, 20.43694
399.6058, 19.96300
400.0879, 19.55617
400.5700, 19.21912
401.0522, 19.01696
401.5343, 19.11072
402.0164, 19.59299
402.4985, 19.81147
402.9806, 19.52540
403.4627, 19.16352
403.9449, 18.81664
404.4270, 18.53763
404.9091, 18.43870
405.3912, 18.69178
405.8733, 19.12417
406.3554, 19.15201
406.8376, 18.60833
407.3197, 18.07458
407.8018, 17.71300
408.2839, 17.50955
408.7660, 17.52229
409.2481, 17.80519
409.7303, 18.08334
410.2124, 18.00816
410.6945, 17.61038
411.1766, 17.40149
411.6587, 17.65849
412.1408, 17.91231
412.6230, 17.64549
413.1051, 16.93366
413.5872, 16.33404
414.0693, 16.21969
414.5514, 16.30926
415.0335, 16.06601
415.5157, 15.41554
415.9978, 14.93369
416.4799, 15.04515
416.9620, 15.61857
417.4441, 16.18782
417.9262, 16.89891
418.4084, 17.38800
418.8905, 17.34388
419.3726, 16.91366
419.8547, 16.45606
420.3368, 16.08030
420.8189, 15.76568
421.3011, 15.47365
421.7832, 15.18051
422.2653, 15.00783
422.7474, 15.04043
423.2295, 15.15096
423.7116, 15.22652
424.1938, 15.26335
424.6759, 15.33049
425.1580, 15.48814
425.6401, 15.72993
426.1222, 15.94278
426.6043, 16.41963
427.0865, 16.53625
427.5686, 15.78253
428.0507, 14.68537
428.5328, 14.00527
429.0149, 14.02758
429.4970, 14.41731
429.9792, 14.58793
430.4613, 14.42056
430.9434, 14.28595
431.4255, 14.14259
431.9076, 14.05992
432.3897, 14.14991
432.8719, 14.35030
433.3540, 14.45879
433.8361, 14.28782
434.3182, 13.89289
434.8003, 13.66949
435.2824, 13.62608
435.7646, 13.76538
436.2467, 14.24609
436.7288, 14.80908
437.2109, 15.21683
437.6930, 15.39700
438.1751, 15.33175
438.6573, 14.84065
439.1394, 13.86534
439.6215, 13.31645
440.1036, 13.57004
440.5857, 14.01206
441.0678, 14.31969
441.5500, 14.48069
442.0321, 14.48641
442.5142, 14.25217
442.9963, 13.89235
443.4784, 13.56784
443.9605, 13.26096
444.4427, 13.13652
444.9248, 13.38057
445.4069, 13.81566
445.8890, 14.15337
446.3711, 14.42042
446.8532, 14.48593
447.3354, 14.01857
447.8175, 13.32620
448.2996, 13.20106
448.7817, 13.89503
449.2638, 14.67225
449.7459, 14.67238
450.2281, 13.83481
450.7102, 13.27876
451.1923, 13.29099
451.6744, 13.37641
452.1565, 13.14009
452.6386, 12.70374
453.1208, 12.47499
453.6029, 12.67408
454.0850, 13.18589
454.5671, 13.69499
455.0492, 14.36015
455.5313, 14.79155
456.0135, 14.85652
456.4956, 14.77363
456.9777, 14.74855
457.4598, 14.78595
457.9419, 14.70954
458.4240, 14.31406
458.9062, 13.59288
459.3883, 13.08899
459.8704, 12.93101
460.3525, 12.86278
460.8346, 12.96728
461.3167, 13.07919
461.7989, 12.91667
462.2810, 12.36436
462.7631, 11.78459
463.2452, 11.83456
463.7273, 12.66398
464.2094, 13.22607
464.6916, 13.15626
465.1737, 13.00071
465.6558, 13.06835
466.1379, 13.32640
466.6200, 13.60517
467.1021, 13.82004
467.5843, 13.99265
468.0664, 14.18352
468.5485, 14.40731
469.0306, 14.53869
469.5127, 14.42916
469.9948, 14.24880
470.4770, 14.32911
470.9591, 14.81196
471.4412, 15.05869
471.9233, 14.46657
472.4054, 13.49110
472.8875, 13.01677
473.3697, 13.21871
473.8518, 13.62366
474.3339, 13.84968
474.8160, 13.88607
475.2981, 13.82715
475.7802, 13.56656
476.2624, 13.32542
476.7445, 13.20407
477.2266, 13.17142
477.7087, 13.17708
478.1908, 13.20181
478.6729, 13.22166
479.1551, 13.18806
479.6372, 13.04822
480.1193, 12.98096
480.6014, 13.10352
481.0835, 13.18382
481.5656, 12.98563
482.0478, 12.62525
482.5299, 12.44306
483.0120, 12.68917
483.4941, 13.23057
483.9762, 13.54316
484.4583, 13.48161
484.9405, 13.48683
485.4226, 13.86310
485.9047, 14.18880
486.3868, 13.99227
486.8689, 13.27291
487.3510, 12.65156
487.8332, 12.75100
488.3153, 13.42104
488.7974, 13.95993
489.2795, 14.37315
489.7616, 14.57602
490.2437, 14.25323
490.7259, 13.74526
491.2080, 13.60728
491.6901, 14.07728
492.1722, 14.65558
492.6543, 15.12530
493.1364, 15.42364
493.6186, 15.25259
494.1007, 14.43441
494.5828, 13.57467
495.0649, 13.44293
495.5470, 14.13269
496.0291, 14.49229
496.5113, 14.18522
496.9934, 13.81922
497.4755, 13.82392
497.9576, 14.05530
498.4397, 14.06477
498.9218, 13.61879
499.4040, 13.01302
499.8861, 12.94166
500.3682, 13.90952
500.8503, 14.48557
501.3324, 14.49973
501.8145, 14.31889
502.2967, 14.03166
502.7788, 13.73954
503.2609, 13.64414
503.7430, 13.92706
504.2251, 14.46506
504.7072, 14.76515
505.1894, 14.73054
505.6715, 14.67996
506.1536, 14.74707
506.6357, 14.79665
507.1178, 14.65364
507.5999, 14.31584
508.0821, 14.08025
508.5642, 14.30448
509.0463, 14.79703
509.5284, 14.92588
510.0105, 14.56220
510.4926, 14.25620
510.9748, 14.45064
511.4569, 14.91678
511.9390, 15.11851
512.4211, 14.98535
512.9032, 14.66041
513.3853, 14.00759
513.8674, 13.26404
514.3495, 12.84207
514.8317, 12.83061
515.3138, 13.11737
515.7959, 13.67696
516.2780, 14.56025
516.7601, 14.88610
517.2422, 14.21832
517.7244, 13.57859
518.2065, 13.34196
518.6886, 13.33727
519.1707, 13.29503
519.6528, 13.11993
520.1349, 12.90707
520.6171, 12.79862
521.0992, 12.80829
521.5813, 12.86745
522.0634, 13.07000
522.5455, 13.22845
523.0276, 13.19047
523.5098, 13.07213
523.9919, 13.12879
524.4740, 13.53564
524.9561, 13.98477
525.4382, 13.92871
525.9203, 13.35490
526.4025, 13.05449
526.8846, 13.42630
527.3667, 13.83837
527.8488, 13.53265
528.3309, 12.64344
528.8130, 12.04945
529.2952, 12.15623
529.7773, 12.55203
530.2594, 12.98817
530.7415, 13.41044
531.2236, 13.58911
531.7057, 13.37203
532.1879, 13.00731
532.6700, 12.99209
533.1521, 13.58701
533.6342, 13.93920
534.1163, 13.97034
534.5984, 13.80808
535.0806, 13.36213
535.5627, 12.78447
536.0448, 12.43345
536.5269, 12.53885
537.0090, 12.99107
537.4911, 13.52079
537.9733, 14.39484
538.4554, 14.75050
538.9375, 13.90765
539.4196, 13.01980
539.9017, 12.85761
540.3839, 13.34720
540.8660, 13.88541
541.3481, 14.13848
541.8302, 14.15073
542.3123, 13.93484
542.7944, 13.44678
543.2766, 13.12760
543.7587, 13.21859
544.2408, 13.51879
544.7229, 13.75631
545.2050, 13.93854
545.6871, 14.01247
546.1693, 13.87321
546.6514, 13.66933
547.1335, 13.49209
547.6156, 13.38091
548.0977, 13.51068
548.5798, 14.03578
549.0620, 14.80315
549.5441, 15.29254
550.0262, 15.39103
550.5083, 15.33466
550.9904, 14.90233
551.4725, 14.48258
551.9547, 14.45796
552.4368, 14.75355
552.9189, 14.96502
553.4010, 14.76967
553.8831, 14.28138
554.3652, 13.96865
554.8474, 13.90714
555.3295, 13.83396
555.8116, 13.59556
556.2937, 13.38330
556.7758, 13.40319
557.2579, 13.63988
557.7401, 13.78661
558.2222, 13.49673
558.7043, 13.06716
559.1864, 13.03389
559.6685, 13.41255
560.1506, 13.95551
560.6328, 14.68346
561.1149, 15.36577
561.5970, 15.41413
562.0791, 14.63512
562.5612, 13.98571
563.0433, 13.72818
563.5255, 13.60407
564.0076, 13.36453
564.4897, 13.03886
564.9718, 12.82991
565.4539, 12.87228
565.9360, 13.10958
566.4182, 13.38439
566.9003, 13.94281
567.3824, 14.05832
567.8645, 13.23679
568.3466, 12.38810
568.8287, 12.10379
569.3109, 12.32734
569.7930, 12.67775
570.2751, 12.98172
570.7572, 13.19860
571.2393, 13.19698
571.7214, 12.95577
572.2036, 12.75511
572.6857, 12.69388
573.1678, 12.70120
573.6499, 12.70254
574.1320, 12.69813
574.6141, 12.67660
575.0963, 12.61902
575.5784, 12.55562
576.0605, 12.46699
576.5426, 12.38897
577.0247, 12.46137
577.5068, 12.76275
577.9890, 13.15118
578.4711, 13.36866
578.9532, 13.40820
579.4353, 13.27593
579.9174, 12.78325
580.3995, 12.32886
580.8817, 12.16083
581.3638, 12.16527
581.8459, 12.08177
582.3280, 11.77556
582.8101, 11.42790
583.2922, 11.38485
583.7744, 11.67755
584.2565, 11.79767
584.7386, 11.53738
585.2207, 11.29621
585.7029, 11.43319
586.1850, 11.80567
586.6671, 12.05200
