##NAMES=Feklichevite
##RRUFFID=R120046
##IDEAL CHEMISTRY=Na_11_Ca_9_(Fe^3+^,Fe^2+^)_2_Zr^4+^_3_Nb^5+^(Si_25_O_73_)(OH,H_2_O,Cl,O)_5_
##LOCALITY=Kovdor Massif, Kola Peninsula, Murmanskaja Oblast', Northern Region, Russia
##OWNER=RRUFF
##SOURCE=Donald Doell
##DESCRIPTION=Massive reddish-brown crystals, associated with orthoclase
##STATUS=The identification of this mineral has been confirmed only by single crystal X-ray diffraction.
##URL=rruff.info/R120046
9.160352e+001, 5.030075e+002
9.208563e+001, 4.922272e+002
9.256775e+001, 4.910562e+002
9.304987e+001, 5.050017e+002
9.353198e+001, 5.212075e+002
9.401410e+001, 5.301127e+002
9.449622e+001, 5.320192e+002
9.497833e+001, 5.295492e+002
9.546045e+001, 5.245819e+002
9.594257e+001, 5.170308e+002
9.642468e+001, 5.109403e+002
9.690680e+001, 5.072184e+002
9.738892e+001, 5.043003e+002
9.787103e+001, 5.021852e+002
9.835315e+001, 4.999672e+002
9.883527e+001, 4.966786e+002
9.931738e+001, 4.926477e+002
9.979950e+001, 4.876242e+002
1.002816e+002, 4.833662e+002
1.007637e+002, 4.797314e+002
1.012458e+002, 4.766167e+002
1.017280e+002, 4.739121e+002
1.022101e+002, 4.715147e+002
1.026922e+002, 4.695969e+002
1.031743e+002, 4.685645e+002
1.036564e+002, 4.682979e+002
1.041385e+002, 4.683228e+002
1.046207e+002, 4.683863e+002
1.051028e+002, 4.685543e+002
1.055849e+002, 4.692061e+002
1.060670e+002, 4.709442e+002
1.065491e+002, 4.725238e+002
1.070313e+002, 4.726642e+002
1.075134e+002, 4.711806e+002
1.079955e+002, 4.689389e+002
1.084776e+002, 4.665401e+002
1.089597e+002, 4.637693e+002
1.094418e+002, 4.617260e+002
1.099240e+002, 4.611813e+002
1.104061e+002, 4.611819e+002
1.108882e+002, 4.610133e+002
1.113703e+002, 4.603766e+002
1.118524e+002, 4.595760e+002
1.123345e+002, 4.594555e+002
1.128167e+002, 4.605732e+002
1.132988e+002, 4.617039e+002
1.137809e+002, 4.626760e+002
1.142630e+002, 4.635394e+002
1.147451e+002, 4.643790e+002
1.152272e+002, 4.652396e+002
1.157094e+002, 4.661245e+002
1.161915e+002, 4.669893e+002
1.166736e+002, 4.681331e+002
1.171557e+002, 4.689752e+002
1.176378e+002, 4.690237e+002
1.181199e+002, 4.684920e+002
1.186021e+002, 4.681319e+002
1.190842e+002, 4.686466e+002
1.195663e+002, 4.701134e+002
1.200484e+002, 4.711266e+002
1.205305e+002, 4.711857e+002
1.210126e+002, 4.710962e+002
1.214948e+002, 4.715591e+002
1.219769e+002, 4.726794e+002
1.224590e+002, 4.741288e+002
1.229411e+002, 4.759844e+002
1.234232e+002, 4.780489e+002
1.239053e+002, 4.793666e+002
1.243875e+002, 4.793015e+002
1.248696e+002, 4.782187e+002
1.253517e+002, 4.770800e+002
1.258338e+002, 4.758528e+002
1.263159e+002, 4.747978e+002
1.267980e+002, 4.738441e+002
1.272802e+002, 4.730815e+002
1.277623e+002, 4.729173e+002
1.282444e+002, 4.742009e+002
1.287265e+002, 4.771918e+002
1.292086e+002, 4.788285e+002
1.296907e+002, 4.775148e+002
1.301729e+002, 4.757166e+002
1.306550e+002, 4.742945e+002
1.311371e+002, 4.734577e+002
1.316192e+002, 4.731130e+002
1.321013e+002, 4.732843e+002
1.325834e+002, 4.747433e+002
1.330656e+002, 4.751167e+002
1.335477e+002, 4.734644e+002
1.340298e+002, 4.714452e+002
1.345119e+002, 4.703680e+002
1.349940e+002, 4.706607e+002
1.354761e+002, 4.717849e+002
1.359583e+002, 4.725277e+002
1.364404e+002, 4.726029e+002
1.369225e+002, 4.726242e+002
1.374046e+002, 4.726389e+002
1.378867e+002, 4.726150e+002
1.383688e+002, 4.724940e+002
1.388510e+002, 4.722379e+002
1.393331e+002, 4.718892e+002
1.398152e+002, 4.716397e+002
1.402973e+002, 4.720424e+002
1.407794e+002, 4.717952e+002
1.412615e+002, 4.698517e+002
1.417437e+002, 4.665857e+002
1.422258e+002, 4.636880e+002
1.427079e+002, 4.622846e+002
1.431900e+002, 4.617274e+002
1.436721e+002, 4.605061e+002
1.441542e+002, 4.581391e+002
1.446364e+002, 4.555971e+002
1.451185e+002, 4.539881e+002
1.456006e+002, 4.534982e+002
1.460827e+002, 4.528101e+002
1.465648e+002, 4.512388e+002
1.470469e+002, 4.490993e+002
1.475291e+002, 4.465745e+002
1.480112e+002, 4.436129e+002
1.484933e+002, 4.404251e+002
1.489754e+002, 4.374673e+002
1.494575e+002, 4.347166e+002
1.499396e+002, 4.322598e+002
1.504218e+002, 4.302831e+002
1.509039e+002, 4.285104e+002
1.513860e+002, 4.265458e+002
1.518681e+002, 4.240811e+002
1.523502e+002, 4.212114e+002
1.528323e+002, 4.189059e+002
1.533145e+002, 4.179124e+002
1.537966e+002, 4.167947e+002
1.542787e+002, 4.151566e+002
1.547608e+002, 4.131592e+002
1.552429e+002, 4.111722e+002
1.557250e+002, 4.094912e+002
1.562072e+002, 4.081552e+002
1.566893e+002, 4.065689e+002
1.571714e+002, 4.042088e+002
1.576535e+002, 4.021085e+002
1.581356e+002, 4.009207e+002
1.586177e+002, 4.004991e+002
1.590999e+002, 4.000818e+002
1.595820e+002, 3.989335e+002
1.600641e+002, 3.968901e+002
1.605462e+002, 3.951585e+002
1.610283e+002, 3.935643e+002
1.615104e+002, 3.923792e+002
1.619926e+002, 3.920193e+002
1.624747e+002, 3.925236e+002
1.629568e+002, 3.931792e+002
1.634389e+002, 3.932047e+002
1.639210e+002, 3.926343e+002
1.644031e+002, 3.920960e+002
1.648853e+002, 3.919553e+002
1.653674e+002, 3.918315e+002
1.658495e+002, 3.909720e+002
1.663316e+002, 3.889696e+002
1.668137e+002, 3.870704e+002
1.672958e+002, 3.866541e+002
1.677780e+002, 3.873869e+002
1.682601e+002, 3.881527e+002
1.687422e+002, 3.882379e+002
1.692243e+002, 3.878789e+002
1.697064e+002, 3.880990e+002
1.701885e+002, 3.894782e+002
1.706707e+002, 3.908570e+002
1.711528e+002, 3.914459e+002
1.716349e+002, 3.913614e+002
1.721170e+002, 3.911440e+002
1.725991e+002, 3.910342e+002
1.730812e+002, 3.910080e+002
1.735634e+002, 3.916140e+002
1.740455e+002, 3.941337e+002
1.745276e+002, 3.963049e+002
1.750097e+002, 3.968564e+002
1.754918e+002, 3.959635e+002
1.759739e+002, 3.948046e+002
1.764561e+002, 3.946786e+002
1.769382e+002, 3.958955e+002
1.774203e+002, 3.971293e+002
1.779024e+002, 3.983417e+002
1.783845e+002, 3.995927e+002
1.788666e+002, 4.010068e+002
1.793488e+002, 4.025417e+002
1.798309e+002, 4.039898e+002
1.803130e+002, 4.050261e+002
1.807951e+002, 4.053980e+002
1.812772e+002, 4.058959e+002
1.817593e+002, 4.063300e+002
1.822415e+002, 4.069844e+002
1.827236e+002, 4.081964e+002
1.832057e+002, 4.100042e+002
1.836878e+002, 4.120110e+002
1.841699e+002, 4.135919e+002
1.846520e+002, 4.143257e+002
1.851342e+002, 4.154897e+002
1.856163e+002, 4.175890e+002
1.860984e+002, 4.199259e+002
1.865805e+002, 4.216678e+002
1.870626e+002, 4.225433e+002
1.875447e+002, 4.230915e+002
1.880269e+002, 4.242669e+002
1.885090e+002, 4.262275e+002
1.889911e+002, 4.280489e+002
1.894732e+002, 4.293888e+002
1.899553e+002, 4.304765e+002
1.904374e+002, 4.317545e+002
1.909196e+002, 4.334595e+002
1.914017e+002, 4.351656e+002
1.918838e+002, 4.361276e+002
1.923659e+002, 4.362755e+002
1.928480e+002, 4.366568e+002
1.933301e+002, 4.379833e+002
1.938123e+002, 4.399861e+002
1.942944e+002, 4.417031e+002
1.947765e+002, 4.429061e+002
1.952586e+002, 4.436732e+002
1.957407e+002, 4.439555e+002
1.962228e+002, 4.437376e+002
1.967050e+002, 4.438520e+002
1.971871e+002, 4.452214e+002
1.976692e+002, 4.477708e+002
1.981513e+002, 4.497496e+002
1.986334e+002, 4.503698e+002
1.991155e+002, 4.506649e+002
1.995977e+002, 4.514257e+002
2.000798e+002, 4.526751e+002
2.005619e+002, 4.538111e+002
2.010440e+002, 4.541910e+002
2.015261e+002, 4.537075e+002
2.020082e+002, 4.532021e+002
2.024904e+002, 4.525744e+002
2.029725e+002, 4.521019e+002
2.034546e+002, 4.520992e+002
2.039367e+002, 4.525290e+002
2.044188e+002, 4.529308e+002
2.049009e+002, 4.526132e+002
2.053831e+002, 4.511689e+002
2.058652e+002, 4.502674e+002
2.063473e+002, 4.505863e+002
2.068294e+002, 4.509524e+002
2.073115e+002, 4.505057e+002
2.077936e+002, 4.492050e+002
2.082758e+002, 4.477872e+002
2.087579e+002, 4.474396e+002
2.092400e+002, 4.492821e+002
2.097221e+002, 4.496633e+002
2.102042e+002, 4.475392e+002
2.106863e+002, 4.449521e+002
2.111685e+002, 4.434066e+002
2.116506e+002, 4.431388e+002
2.121327e+002, 4.432118e+002
2.126148e+002, 4.422569e+002
2.130969e+002, 4.397661e+002
2.135790e+002, 4.371782e+002
2.140612e+002, 4.345073e+002
2.145433e+002, 4.317495e+002
2.150254e+002, 4.286042e+002
2.155075e+002, 4.250970e+002
2.159896e+002, 4.218918e+002
2.164718e+002, 4.200441e+002
2.169539e+002, 4.203947e+002
2.174360e+002, 4.201594e+002
2.179181e+002, 4.190051e+002
2.184002e+002, 4.173878e+002
2.188823e+002, 4.156547e+002
2.193645e+002, 4.138921e+002
2.198466e+002, 4.121905e+002
2.203287e+002, 4.107497e+002
2.208108e+002, 4.096609e+002
2.212929e+002, 4.082656e+002
2.217750e+002, 4.062014e+002
2.222572e+002, 4.038884e+002
2.227393e+002, 4.018163e+002
2.232214e+002, 4.000869e+002
2.237035e+002, 3.986206e+002
2.241856e+002, 3.976068e+002
2.246677e+002, 3.970220e+002
2.251499e+002, 3.958350e+002
2.256320e+002, 3.931081e+002
2.261141e+002, 3.897777e+002
2.265962e+002, 3.876088e+002
2.270783e+002, 3.872389e+002
2.275604e+002, 3.869842e+002
2.280426e+002, 3.846598e+002
2.285247e+002, 3.808055e+002
2.290068e+002, 3.776178e+002
2.294889e+002, 3.763847e+002
2.299710e+002, 3.763904e+002
2.304531e+002, 3.760581e+002
2.309353e+002, 3.751977e+002
2.314174e+002, 3.740675e+002
2.318995e+002, 3.728549e+002
2.323816e+002, 3.715568e+002
2.328637e+002, 3.701455e+002
2.333458e+002, 3.685148e+002
2.338280e+002, 3.667504e+002
2.343101e+002, 3.650670e+002
2.347922e+002, 3.633746e+002
2.352743e+002, 3.619811e+002
2.357564e+002, 3.611120e+002
2.362385e+002, 3.606214e+002
2.367207e+002, 3.602269e+002
2.372028e+002, 3.598571e+002
2.376849e+002, 3.594660e+002
2.381670e+002, 3.588345e+002
2.386491e+002, 3.578488e+002
2.391312e+002, 3.567708e+002
2.396134e+002, 3.556315e+002
2.400955e+002, 3.544948e+002
2.405776e+002, 3.534233e+002
2.410597e+002, 3.523954e+002
2.415418e+002, 3.514814e+002
2.420239e+002, 3.511013e+002
2.425061e+002, 3.518396e+002
2.429882e+002, 3.523151e+002
2.434703e+002, 3.520015e+002
2.439524e+002, 3.512195e+002
2.444345e+002, 3.504017e+002
2.449166e+002, 3.497603e+002
2.453988e+002, 3.493146e+002
2.458809e+002, 3.492119e+002
2.463630e+002, 3.500485e+002
2.468451e+002, 3.504381e+002
2.473272e+002, 3.497995e+002
2.478093e+002, 3.486587e+002
2.482915e+002, 3.477005e+002
2.487736e+002, 3.473027e+002
2.492557e+002, 3.473244e+002
2.497378e+002, 3.471898e+002
2.502199e+002, 3.466420e+002
2.507020e+002, 3.462566e+002
2.511842e+002, 3.461061e+002
2.516663e+002, 3.461557e+002
2.521484e+002, 3.464479e+002
2.526305e+002, 3.470136e+002
2.531126e+002, 3.476722e+002
2.535947e+002, 3.478474e+002
2.540769e+002, 3.466749e+002
2.545590e+002, 3.460594e+002
2.550411e+002, 3.466333e+002
2.555232e+002, 3.476185e+002
2.560053e+002, 3.480501e+002
2.564874e+002, 3.475239e+002
2.569695e+002, 3.465332e+002
2.574517e+002, 3.462714e+002
2.579338e+002, 3.476315e+002
2.584159e+002, 3.487073e+002
2.588980e+002, 3.492406e+002
2.593801e+002, 3.495891e+002
2.598622e+002, 3.501616e+002
2.603444e+002, 3.510948e+002
2.608265e+002, 3.521914e+002
2.613086e+002, 3.530922e+002
2.617907e+002, 3.539247e+002
2.622728e+002, 3.542856e+002
2.627549e+002, 3.535025e+002
2.632371e+002, 3.525679e+002
2.637192e+002, 3.525423e+002
2.642013e+002, 3.536959e+002
2.646834e+002, 3.554413e+002
2.651655e+002, 3.569507e+002
2.656476e+002, 3.581773e+002
2.661298e+002, 3.592025e+002
2.666119e+002, 3.600380e+002
2.670940e+002, 3.606745e+002
2.675761e+002, 3.610148e+002
2.680582e+002, 3.610580e+002
2.685403e+002, 3.610378e+002
2.690225e+002, 3.611647e+002
2.695046e+002, 3.614088e+002
2.699867e+002, 3.621784e+002
2.704688e+002, 3.641988e+002
2.709509e+002, 3.663061e+002
2.714330e+002, 3.673575e+002
2.719152e+002, 3.672554e+002
2.723973e+002, 3.669156e+002
2.728794e+002, 3.671715e+002
2.733615e+002, 3.680904e+002
2.738436e+002, 3.690351e+002
2.743257e+002, 3.699932e+002
2.748079e+002, 3.709791e+002
2.752900e+002, 3.719584e+002
2.757721e+002, 3.729424e+002
2.762542e+002, 3.740606e+002
2.767363e+002, 3.755558e+002
2.772184e+002, 3.772992e+002
2.777006e+002, 3.784715e+002
2.781827e+002, 3.785126e+002
2.786648e+002, 3.784133e+002
2.791469e+002, 3.788746e+002
2.796290e+002, 3.798529e+002
2.801111e+002, 3.809236e+002
2.805933e+002, 3.818681e+002
2.810754e+002, 3.827042e+002
2.815575e+002, 3.835175e+002
2.820396e+002, 3.841070e+002
2.825217e+002, 3.849124e+002
2.830038e+002, 3.865629e+002
2.834860e+002, 3.888276e+002
2.839681e+002, 3.903873e+002
2.844502e+002, 3.902325e+002
2.849323e+002, 3.893614e+002
2.854144e+002, 3.899216e+002
2.858965e+002, 3.924218e+002
2.863787e+002, 3.950348e+002
2.868608e+002, 3.967274e+002
2.873429e+002, 3.976969e+002
2.878250e+002, 3.986640e+002
2.883071e+002, 3.998190e+002
2.887892e+002, 4.011328e+002
2.892714e+002, 4.026495e+002
2.897535e+002, 4.044266e+002
2.902356e+002, 4.059442e+002
2.907177e+002, 4.065591e+002
2.911998e+002, 4.067145e+002
2.916819e+002, 4.077304e+002
2.921641e+002, 4.102041e+002
2.926462e+002, 4.130061e+002
2.931283e+002, 4.148656e+002
2.936104e+002, 4.158917e+002
2.940925e+002, 4.168110e+002
2.945746e+002, 4.177534e+002
2.950568e+002, 4.188034e+002
2.955389e+002, 4.201476e+002
2.960210e+002, 4.218409e+002
2.965031e+002, 4.237292e+002
2.969852e+002, 4.259077e+002
2.974673e+002, 4.282242e+002
2.979495e+002, 4.302162e+002
2.984316e+002, 4.315415e+002
2.989137e+002, 4.325229e+002
2.993958e+002, 4.336636e+002
2.998779e+002, 4.350269e+002
3.003600e+002, 4.362942e+002
3.008422e+002, 4.370439e+002
3.013243e+002, 4.375799e+002
3.018064e+002, 4.384334e+002
3.022885e+002, 4.398640e+002
3.027706e+002, 4.415321e+002
3.032527e+002, 4.432157e+002
3.037349e+002, 4.449550e+002
3.042170e+002, 4.462146e+002
3.046991e+002, 4.464977e+002
3.051812e+002, 4.462388e+002
3.056633e+002, 4.459834e+002
3.061454e+002, 4.457322e+002
3.066276e+002, 4.456490e+002
3.071097e+002, 4.460058e+002
3.075918e+002, 4.467696e+002
3.080739e+002, 4.474055e+002
3.085560e+002, 4.479816e+002
3.090381e+002, 4.480763e+002
3.095203e+002, 4.470285e+002
3.100024e+002, 4.446781e+002
3.104845e+002, 4.426360e+002
3.109666e+002, 4.424225e+002
3.114487e+002, 4.436046e+002
3.119308e+002, 4.440122e+002
3.124130e+002, 4.430079e+002
3.128951e+002, 4.413975e+002
3.133772e+002, 4.398128e+002
3.138593e+002, 4.382685e+002
3.143414e+002, 4.369561e+002
3.148235e+002, 4.360550e+002
3.153057e+002, 4.354492e+002
3.157878e+002, 4.348812e+002
3.162699e+002, 4.344183e+002
3.167520e+002, 4.337821e+002
3.172341e+002, 4.327501e+002
3.177162e+002, 4.314098e+002
3.181984e+002, 4.298802e+002
3.186805e+002, 4.279394e+002
3.191626e+002, 4.259623e+002
3.196447e+002, 4.245907e+002
3.201268e+002, 4.239104e+002
3.206089e+002, 4.234202e+002
3.210911e+002, 4.229992e+002
3.215732e+002, 4.225490e+002
3.220553e+002, 4.218873e+002
3.225374e+002, 4.208404e+002
3.230195e+002, 4.197933e+002
3.235016e+002, 4.192242e+002
3.239838e+002, 4.191342e+002
3.244659e+002, 4.189474e+002
3.249480e+002, 4.182102e+002
3.254301e+002, 4.174501e+002
3.259122e+002, 4.173281e+002
3.263943e+002, 4.179565e+002
3.268765e+002, 4.188079e+002
3.273586e+002, 4.197279e+002
3.278407e+002, 4.206330e+002
3.283228e+002, 4.209198e+002
3.288049e+002, 4.200146e+002
3.292870e+002, 4.190620e+002
3.297692e+002, 4.192430e+002
3.302513e+002, 4.204713e+002
3.307334e+002, 4.219703e+002
3.312155e+002, 4.235386e+002
3.316976e+002, 4.250924e+002
3.321797e+002, 4.263637e+002
3.326619e+002, 4.272050e+002
3.331440e+002, 4.280993e+002
3.336261e+002, 4.294294e+002
3.341082e+002, 4.311056e+002
3.345903e+002, 4.330192e+002
3.350724e+002, 4.354875e+002
3.355546e+002, 4.379880e+002
3.360367e+002, 4.397222e+002
3.365188e+002, 4.406108e+002
3.370009e+002, 4.414888e+002
3.374830e+002, 4.429889e+002
3.379651e+002, 4.447398e+002
3.384473e+002, 4.460239e+002
3.389294e+002, 4.466060e+002
3.394115e+002, 4.469604e+002
3.398936e+002, 4.475678e+002
3.403758e+002, 4.483519e+002
3.408579e+002, 4.487174e+002
3.413400e+002, 4.484312e+002
3.418221e+002, 4.475909e+002
3.423042e+002, 4.463204e+002
3.427863e+002, 4.445133e+002
3.432685e+002, 4.428507e+002
3.437506e+002, 4.419350e+002
3.442327e+002, 4.413998e+002
3.447148e+002, 4.403108e+002
3.451969e+002, 4.383747e+002
3.456790e+002, 4.361083e+002
3.461612e+002, 4.342646e+002
3.466433e+002, 4.327490e+002
3.471254e+002, 4.305836e+002
3.476075e+002, 4.266905e+002
3.480896e+002, 4.224127e+002
3.485717e+002, 4.199062e+002
3.490539e+002, 4.194215e+002
3.495360e+002, 4.184296e+002
3.500181e+002, 4.145420e+002
3.505002e+002, 4.084892e+002
3.509823e+002, 4.038279e+002
3.514644e+002, 4.019399e+002
3.519466e+002, 4.005006e+002
3.524287e+002, 3.978181e+002
3.529108e+002, 3.941564e+002
3.533929e+002, 3.908104e+002
3.538750e+002, 3.886053e+002
3.543571e+002, 3.869175e+002
3.548393e+002, 3.840648e+002
3.553214e+002, 3.793555e+002
3.558035e+002, 3.751989e+002
3.562856e+002, 3.730084e+002
3.567677e+002, 3.718634e+002
3.572498e+002, 3.700779e+002
3.577320e+002, 3.671246e+002
3.582141e+002, 3.636875e+002
3.586962e+002, 3.606097e+002
3.591783e+002, 3.579178e+002
3.596604e+002, 3.554051e+002
3.601425e+002, 3.530170e+002
3.606247e+002, 3.508065e+002
3.611068e+002, 3.487635e+002
3.615889e+002, 3.468958e+002
3.620710e+002, 3.454804e+002
3.625531e+002, 3.449342e+002
3.630352e+002, 3.452100e+002
3.635174e+002, 3.444982e+002
3.639995e+002, 3.418753e+002
3.644816e+002, 3.392728e+002
3.649637e+002, 3.376514e+002
3.654458e+002, 3.367939e+002
3.659279e+002, 3.360537e+002
3.664101e+002, 3.350895e+002
3.668922e+002, 3.340280e+002
3.673743e+002, 3.333120e+002
3.678564e+002, 3.331671e+002
3.683385e+002, 3.330170e+002
3.688206e+002, 3.326196e+002
3.693028e+002, 3.322497e+002
3.697849e+002, 3.323880e+002
3.702670e+002, 3.331328e+002
3.707491e+002, 3.339061e+002
3.712312e+002, 3.338900e+002
3.717133e+002, 3.328012e+002
3.721955e+002, 3.316896e+002
3.726776e+002, 3.302891e+002
3.731597e+002, 3.290893e+002
3.736418e+002, 3.283588e+002
3.741239e+002, 3.281100e+002
3.746060e+002, 3.282841e+002
3.750882e+002, 3.289097e+002
3.755703e+002, 3.299593e+002
3.760524e+002, 3.305026e+002
3.765345e+002, 3.301180e+002
3.770166e+002, 3.297294e+002
3.774987e+002, 3.295245e+002
3.779809e+002, 3.294492e+002
3.784630e+002, 3.294479e+002
3.789451e+002, 3.294971e+002
3.794272e+002, 3.295055e+002
3.799093e+002, 3.292126e+002
3.803914e+002, 3.281186e+002
3.808736e+002, 3.275836e+002
3.813557e+002, 3.281334e+002
3.818378e+002, 3.288593e+002
3.823199e+002, 3.290125e+002
3.828020e+002, 3.285387e+002
3.832841e+002, 3.279787e+002
3.837663e+002, 3.279818e+002
3.842484e+002, 3.286652e+002
3.847305e+002, 3.290832e+002
3.852126e+002, 3.290064e+002
3.856947e+002, 3.288686e+002
3.861768e+002, 3.287282e+002
3.866590e+002, 3.286325e+002
3.871411e+002, 3.286164e+002
3.876232e+002, 3.286737e+002
3.881053e+002, 3.288674e+002
3.885874e+002, 3.294683e+002
3.890695e+002, 3.307481e+002
3.895517e+002, 3.319273e+002
3.900338e+002, 3.329424e+002
3.905159e+002, 3.337378e+002
3.909980e+002, 3.342188e+002
3.914801e+002, 3.343637e+002
3.919622e+002, 3.343198e+002
3.924444e+002, 3.342071e+002
3.929265e+002, 3.340039e+002
3.934086e+002, 3.339644e+002
3.938907e+002, 3.343166e+002
3.943728e+002, 3.346596e+002
3.948549e+002, 3.346847e+002
3.953371e+002, 3.344746e+002
3.958192e+002, 3.343704e+002
3.963013e+002, 3.346873e+002
3.967834e+002, 3.352760e+002
3.972655e+002, 3.356333e+002
3.977477e+002, 3.357085e+002
3.982298e+002, 3.356807e+002
3.987119e+002, 3.357061e+002
3.991940e+002, 3.356667e+002
3.996761e+002, 3.353503e+002
4.001582e+002, 3.346005e+002
4.006404e+002, 3.337879e+002
4.011225e+002, 3.333823e+002
4.016046e+002, 3.333452e+002
4.020867e+002, 3.330644e+002
4.025688e+002, 3.322337e+002
4.030509e+002, 3.312103e+002
4.035331e+002, 3.305350e+002
4.040152e+002, 3.302263e+002
4.044973e+002, 3.295909e+002
4.049794e+002, 3.277974e+002
4.054615e+002, 3.256276e+002
4.059436e+002, 3.246359e+002
4.064258e+002, 3.251313e+002
4.069079e+002, 3.257910e+002
4.073900e+002, 3.255870e+002
4.078721e+002, 3.246154e+002
4.083542e+002, 3.235271e+002
4.088363e+002, 3.221175e+002
4.093185e+002, 3.208280e+002
4.098006e+002, 3.199609e+002
4.102827e+002, 3.194637e+002
4.107648e+002, 3.191738e+002
4.112469e+002, 3.190346e+002
4.117290e+002, 3.190327e+002
4.122112e+002, 3.192208e+002
4.126933e+002, 3.198923e+002
4.131754e+002, 3.200198e+002
4.136575e+002, 3.189756e+002
4.141396e+002, 3.175419e+002
4.146217e+002, 3.164478e+002
4.151039e+002, 3.158446e+002
4.155860e+002, 3.156651e+002
