##NAMES=Felsobanyaite
##RRUFFID=R060565
##IDEAL CHEMISTRY=Al_4_(S^6+^O_4_)(OH)_10_&#183;4H_2_O
##LOCALITY=near Weymouth, Dorset, England
##OWNER=RRUFF
##SOURCE=Michael Scott
##DESCRIPTION=White consolidated powder
##STATUS=The identification of this mineral has been made only by X-ray diffraction.
##URL=rruff.info/R060565
93.78320, 670.2764
94.26532, 672.7152
94.74744, 675.3223
95.22955, 676.4012
95.71167, 677.3559
96.19379, 676.5653
96.67590, 675.1823
97.15802, 673.5660
97.64014, 672.3611
98.12225, 670.8867
98.60437, 667.7701
99.08649, 662.2469
99.56860, 655.8951
100.0507, 651.2056
100.5328, 647.4662
101.0150, 643.4335
101.4971, 637.8041
101.9792, 630.4518
102.4613, 624.4442
102.9434, 621.7775
103.4255, 620.3940
103.9077, 618.9316
104.3898, 616.9323
104.8719, 614.7789
105.3540, 613.3166
105.8361, 613.0292
106.3182, 612.5007
106.8004, 611.4340
107.2825, 609.9492
107.7646, 608.1208
108.2467, 605.9606
108.7288, 603.4667
109.2109, 600.8070
109.6931, 597.3350
110.1752, 594.2795
110.6573, 592.3909
111.1394, 591.2755
111.6215, 589.8295
112.1036, 586.9802
112.5858, 582.3954
113.0679, 578.9536
113.5500, 577.2328
114.0321, 576.1234
114.5142, 575.0650
114.9964, 573.9622
115.4785, 572.5192
115.9606, 570.0732
116.4427, 566.6839
116.9248, 563.8154
117.4069, 561.8802
117.8891, 560.6924
118.3712, 560.0387
118.8533, 560.3781
119.3354, 560.4174
119.8175, 558.4314
120.2996, 554.6339
120.7818, 551.5306
121.2639, 551.6010
121.7460, 554.9966
122.2281, 557.3104
122.7102, 556.9203
123.1923, 555.7108
123.6745, 554.6312
124.1566, 553.8292
124.6387, 552.7910
125.1208, 550.5299
125.6029, 545.8520
126.0850, 542.5356
126.5672, 541.2973
127.0493, 541.0087
127.5314, 540.8825
128.0135, 540.5872
128.4956, 540.1749
128.9777, 539.7825
129.4599, 539.1754
129.9420, 538.8792
130.4241, 539.4861
130.9062, 540.3483
131.3883, 540.4311
131.8705, 539.0802
132.3526, 536.6042
132.8347, 534.7551
133.3168, 533.5022
133.7989, 532.7222
134.2810, 532.6302
134.7632, 533.0948
135.2453, 533.4166
135.7274, 532.9750
136.2095, 532.0657
136.6916, 531.7450
137.1737, 532.5295
137.6559, 533.6418
138.1380, 534.3215
138.6201, 534.5285
139.1022, 534.4822
139.5843, 534.1774
140.0664, 533.7328
140.5486, 533.3256
141.0307, 533.1779
141.5128, 533.0978
141.9949, 532.4023
142.4770, 530.3811
142.9591, 528.8294
143.4413, 528.4108
143.9234, 528.9318
144.4055, 530.0605
144.8876, 531.7116
145.3697, 533.8871
145.8518, 535.7305
146.3340, 537.2238
146.8161, 538.3552
147.2982, 538.9449
147.7803, 539.1138
148.2624, 539.1499
148.7445, 539.3058
149.2267, 539.5323
149.7088, 540.1285
150.1909, 541.3299
150.6730, 542.6205
151.1551, 543.7003
151.6372, 544.5375
152.1194, 545.3148
152.6015, 546.3039
153.0836, 547.7306
153.5657, 548.6384
154.0478, 548.7811
154.5299, 548.5255
155.0121, 548.0934
155.4942, 547.5111
155.9763, 547.0686
156.4584, 547.4675
156.9405, 548.8436
157.4227, 549.6536
157.9048, 549.0029
158.3869, 547.5117
158.8690, 546.4719
159.3511, 546.2235
159.8332, 546.5610
160.3154, 547.4103
160.7975, 548.8126
161.2796, 549.8074
161.7617, 549.9008
162.2438, 549.0965
162.7259, 547.3879
163.2081, 543.7681
163.6902, 540.0228
164.1723, 537.7100
164.6544, 536.9462
165.1365, 536.4220
165.6186, 534.5638
166.1008, 531.0026
166.5829, 527.8167
167.0650, 525.1358
167.5471, 523.0662
168.0292, 522.0045
168.5113, 521.9844
168.9935, 522.3450
169.4756, 521.9204
169.9577, 520.0382
170.4398, 518.6526
170.9219, 518.3041
171.4040, 518.2189
171.8862, 517.7012
172.3683, 516.5037
172.8504, 514.9562
173.3325, 513.8313
173.8146, 513.4960
174.2967, 513.2122
174.7789, 513.1561
175.2610, 513.0764
175.7431, 512.5892
176.2252, 511.4940
176.7073, 510.0649
177.1894, 509.2346
177.6716, 509.6987
178.1537, 509.8374
178.6358, 509.1492
179.1179, 507.9327
179.6000, 506.7484
180.0821, 505.8779
180.5643, 505.2175
181.0464, 504.4244
181.5285, 503.3306
182.0106, 502.3567
182.4927, 501.8397
182.9749, 501.6684
183.4570, 501.3033
183.9391, 500.3317
184.4212, 499.1036
184.9033, 498.4307
185.3854, 498.7187
185.8676, 498.9128
186.3497, 497.9565
186.8318, 495.8130
187.3139, 493.8208
187.7960, 492.7700
188.2781, 492.1093
188.7603, 491.2142
189.2424, 489.8610
189.7245, 488.4708
190.2066, 487.6775
190.6887, 487.6766
191.1708, 487.5532
191.6530, 486.7374
192.1351, 485.7657
192.6172, 485.1490
193.0993, 485.1129
193.5814, 485.3371
194.0635, 485.1761
194.5457, 484.4688
195.0278, 483.6677
195.5099, 482.9957
195.9920, 482.2525
196.4741, 481.2206
196.9562, 479.7966
197.4384, 478.0879
197.9205, 476.3574
198.4026, 474.3015
198.8847, 472.6979
199.3668, 472.0285
199.8489, 471.6996
200.3311, 470.9547
200.8132, 469.3952
201.2953, 467.3350
201.7774, 466.0342
202.2595, 466.7071
202.7416, 466.8190
203.2238, 465.7874
203.7059, 464.1118
204.1880, 462.4245
204.6701, 461.0454
205.1522, 459.9835
205.6344, 459.3220
206.1165, 459.5294
206.5986, 459.5470
207.0807, 459.1967
207.5628, 458.4987
208.0449, 457.4380
208.5271, 455.9491
209.0092, 454.1734
209.4913, 452.7095
209.9734, 451.1910
210.4555, 450.3055
210.9376, 450.8087
211.4198, 452.2188
211.9019, 453.2202
212.3840, 453.1566
212.8661, 452.2007
213.3482, 450.9275
213.8303, 448.9514
214.3125, 447.2870
214.7946, 446.5511
215.2767, 446.6511
215.7588, 447.1673
216.2409, 448.2076
216.7230, 449.3493
217.2052, 449.8676
217.6873, 449.5655
218.1694, 449.0330
218.6515, 448.5247
219.1336, 448.0547
219.6157, 448.0825
220.0979, 449.2536
220.5800, 450.7245
221.0621, 451.4939
221.5442, 451.3231
222.0263, 450.9963
222.5084, 451.3107
222.9906, 452.3249
223.4727, 453.3533
223.9548, 454.3379
224.4369, 455.1483
224.9190, 455.7139
225.4011, 456.0280
225.8833, 456.0016
226.3654, 455.4992
226.8475, 454.4741
227.3296, 453.1941
227.8117, 451.2557
228.2938, 449.3696
228.7760, 448.2209
229.2581, 447.8930
229.7402, 447.5781
230.2223, 445.9934
230.7044, 442.4959
231.1866, 439.7815
231.6687, 438.8206
232.1508, 438.1876
232.6329, 436.9713
233.1150, 435.0200
233.5971, 432.8729
234.0793, 431.3762
234.5614, 431.0584
235.0435, 430.0645
235.5256, 427.3989
236.0077, 424.8354
236.4898, 423.8241
236.9720, 424.4380
237.4541, 425.3571
237.9362, 424.6480
238.4183, 421.1496
238.9004, 418.8759
239.3825, 418.4640
239.8647, 418.5632
240.3468, 418.4720
240.8289, 418.0181
241.3110, 417.3139
241.7931, 416.4909
242.2752, 415.5812
242.7574, 414.4107
243.2395, 412.7300
243.7216, 411.0146
244.2037, 409.3767
244.6858, 407.9259
245.1679, 406.9661
245.6501, 406.8978
246.1322, 408.0144
246.6143, 408.9276
247.0964, 409.4775
247.5785, 409.9714
248.0606, 410.6392
248.5428, 411.4840
249.0249, 412.3559
249.5070, 413.1538
249.9891, 413.8944
250.4712, 414.2075
250.9533, 413.6433
251.4355, 413.0315
251.9176, 412.9162
252.3997, 413.3205
252.8818, 414.0002
253.3639, 414.8654
253.8460, 415.8930
254.3282, 416.4137
254.8103, 415.9718
255.2924, 415.3986
255.7745, 415.3795
256.2566, 415.8701
256.7387, 416.2314
257.2209, 416.0755
257.7030, 415.3467
258.1851, 414.2119
258.6672, 411.9660
259.1493, 409.8860
259.6314, 409.0147
260.1136, 409.2469
260.5957, 409.5670
261.0778, 409.3839
261.5599, 408.8428
262.0420, 408.4776
262.5241, 408.4315
263.0063, 408.3935
263.4884, 408.1768
263.9705, 407.7850
264.4526, 407.2072
264.9347, 406.2202
265.4168, 405.2033
265.8990, 404.8628
266.3811, 405.4606
266.8632, 406.1805
267.3453, 406.5644
267.8275, 406.6120
268.3096, 406.2035
268.7917, 404.7852
269.2738, 403.3732
269.7559, 403.2988
270.2380, 404.7577
270.7202, 406.6036
271.2023, 408.2601
271.6844, 409.7049
272.1665, 410.7757
272.6486, 411.3209
273.1307, 411.5547
273.6129, 411.6590
274.0950, 411.6389
274.5771, 411.7183
275.0592, 412.2167
275.5413, 413.0153
276.0234, 413.3199
276.5056, 412.4943
276.9877, 411.8612
277.4698, 412.5356
277.9519, 414.3105
278.4340, 416.1419
278.9161, 417.6742
279.3983, 418.8150
279.8804, 419.0075
280.3625, 417.4737
280.8446, 416.1577
281.3267, 416.6045
281.8088, 418.1552
282.2910, 419.2401
282.7731, 418.5021
283.2552, 416.6694
283.7373, 416.3539
284.2194, 418.5080
284.7015, 420.3997
285.1837, 420.5483
285.6658, 419.6927
286.1479, 418.9098
286.6300, 418.7230
287.1121, 418.8704
287.5942, 418.7227
288.0764, 418.0937
288.5585, 417.6124
289.0406, 417.6566
289.5227, 417.8950
290.0048, 417.9752
290.4869, 417.7546
290.9691, 417.4001
291.4512, 417.1170
291.9333, 416.7984
292.4154, 416.9189
292.8975, 418.1967
293.3796, 419.6100
293.8618, 420.4754
294.3439, 420.6183
294.8260, 420.0721
295.3081, 418.6409
295.7902, 416.0504
296.2723, 413.8926
296.7545, 412.4599
297.2366, 411.5304
297.7187, 411.2956
298.2008, 411.6480
298.6829, 411.9232
299.1650, 411.1558
299.6472, 409.1297
300.1293, 408.0821
300.6114, 409.4237
301.0935, 410.6494
301.5756, 410.4201
302.0577, 409.0208
302.5399, 407.6494
303.0220, 407.3532
303.5041, 408.0748
303.9862, 408.4810
304.4683, 408.2199
304.9504, 408.0469
305.4326, 408.0780
305.9147, 408.4027
306.3968, 409.2396
306.8789, 410.9114
307.3610, 413.0898
307.8431, 414.2403
308.3253, 413.5859
308.8074, 413.0962
309.2895, 413.5438
309.7716, 414.3662
310.2537, 414.8327
310.7358, 414.5873
311.2180, 414.0039
311.7001, 414.0603
312.1822, 415.4500
312.6643, 415.8860
313.1464, 414.3600
313.6285, 412.1680
314.1107, 410.3456
314.5928, 409.1698
315.0749, 408.1548
315.5570, 406.5269
316.0392, 404.0222
316.5213, 401.8716
317.0034, 400.7919
317.4855, 399.6316
317.9676, 397.3517
318.4497, 394.1065
318.9319, 391.2492
319.4140, 390.3758
319.8961, 391.7279
320.3782, 392.6952
320.8603, 393.5317
321.3424, 393.6598
321.8246, 392.3211
322.3067, 390.0483
322.7888, 388.0839
323.2709, 387.3823
323.7530, 387.7887
324.2351, 388.2148
324.7173, 388.8586
325.1994, 389.2191
325.6815, 389.3427
326.1636, 389.0767
326.6457, 388.0486
327.1278, 385.9108
327.6100, 383.3464
328.0921, 382.1225
328.5742, 382.9409
329.0563, 383.6087
329.5384, 383.3453
330.0205, 382.8710
330.5027, 382.9076
330.9848, 383.6583
331.4669, 384.5317
331.9490, 384.7924
332.4311, 384.4527
332.9132, 383.4424
333.3954, 380.5468
333.8775, 377.8522
334.3596, 376.7301
334.8417, 377.1406
335.3238, 377.9035
335.8059, 377.8682
336.2881, 377.0197
336.7702, 376.5546
337.2523, 376.8574
337.7344, 377.1573
338.2165, 377.2162
338.6986, 377.0049
339.1808, 376.4374
339.6629, 375.1584
340.1450, 373.5595
340.6271, 373.3395
341.1092, 375.5808
341.5913, 377.0866
342.0735, 376.2123
342.5556, 374.1538
343.0377, 372.2763
343.5198, 371.0628
344.0019, 370.2914
344.4840, 369.7194
344.9662, 369.4352
345.4483, 368.9457
345.9304, 367.7877
346.4125, 366.5467
346.8946, 365.7541
347.3767, 365.4825
347.8589, 365.1261
348.3410, 363.8199
348.8231, 361.6016
349.3052, 360.2065
349.7873, 360.1332
350.2694, 360.7121
350.7516, 361.7076
351.2337, 362.9764
351.7158, 363.9677
352.1979, 364.2309
352.6800, 363.9574
353.1621, 363.8503
353.6443, 364.1405
354.1264, 364.0794
354.6085, 362.7071
355.0906, 360.7997
355.5727, 359.6284
356.0548, 359.8137
356.5370, 360.6676
357.0191, 361.3853
357.5012, 361.9695
357.9833, 362.3642
358.4654, 362.5088
358.9475, 362.4542
359.4297, 362.2351
359.9118, 361.8232
360.3939, 361.3961
360.8760, 360.9642
361.3581, 360.5871
361.8402, 360.6068
362.3224, 361.2391
362.8045, 362.0810
363.2866, 362.7232
363.7687, 363.1823
364.2508, 363.6063
364.7329, 363.9575
365.2151, 364.3392
365.6972, 365.0264
366.1793, 366.1162
366.6614, 367.0714
367.1436, 367.4197
367.6257, 367.3009
368.1078, 367.1483
368.5899, 366.7777
369.0720, 366.5920
369.5541, 367.2056
370.0363, 368.4579
370.5184, 369.2032
371.0005, 368.7227
371.4826, 367.5665
371.9647, 366.9891
372.4468, 367.1120
372.9290, 367.4184
373.4111, 367.7467
373.8932, 368.1176
374.3753, 368.5988
374.8574, 369.2244
375.3395, 369.8466
375.8217, 370.2445
376.3038, 370.3826
376.7859, 370.5965
377.2680, 371.3564
377.7501, 371.9014
378.2322, 371.3753
378.7144, 369.8412
379.1965, 368.1652
379.6786, 366.8252
380.1607, 365.9073
380.6428, 366.0655
381.1249, 368.4843
381.6071, 370.5080
382.0892, 370.8161
382.5713, 370.1180
383.0534, 369.8571
383.5355, 370.6862
384.0176, 372.0285
384.4998, 372.6303
384.9819, 371.8058
385.4640, 371.3344
385.9461, 371.4288
386.4282, 371.7836
386.9103, 372.3339
387.3925, 372.9690
387.8746, 373.2926
388.3567, 372.8133
388.8388, 371.3732
389.3209, 370.2745
389.8030, 369.4655
390.2852, 368.9787
390.7673, 369.1130
391.2494, 369.5605
391.7315, 369.6986
392.2136, 369.1349
392.6957, 368.1030
393.1779, 367.5265
393.6600, 367.9234
394.1421, 368.0511
394.6242, 367.8319
395.1063, 367.2953
395.5884, 366.4481
396.0706, 365.2990
396.5527, 363.9067
397.0348, 362.2309
397.5169, 360.0920
397.9990, 358.4198
398.4811, 357.2362
398.9633, 356.5363
399.4454, 356.7658
399.9275, 357.5207
400.4096, 357.7916
400.8917, 356.6518
401.3738, 354.6114
401.8560, 353.9922
402.3381, 355.6345
402.8202, 357.1288
403.3023, 357.9335
403.7844, 358.1657
404.2665, 357.8789
404.7487, 357.0767
405.2308, 355.9224
405.7129, 354.3685
406.1950, 352.3452
406.6771, 351.0558
407.1592, 350.8370
407.6414, 351.3667
408.1235, 352.8220
408.6056, 354.9456
409.0877, 356.4620
409.5698, 355.9464
410.0519, 354.4001
410.5341, 354.5216
411.0162, 356.9069
411.4983, 358.8676
411.9804, 357.8722
412.4625, 355.5790
412.9446, 354.8566
413.4268, 356.8562
413.9089, 359.3234
414.3910, 360.4406
414.8731, 360.4464
415.3553, 360.4509
415.8374, 360.7379
416.3195, 361.2870
416.8016, 362.1590
417.2837, 363.3665
417.7658, 364.5074
418.2480, 365.4984
418.7301, 366.3556
419.2122, 366.9478
419.6943, 367.2942
420.1764, 367.9248
420.6585, 369.2989
421.1407, 371.3720
421.6228, 373.3651
422.1049, 375.9793
422.5870, 377.7935
423.0691, 377.5551
423.5512, 376.2428
424.0334, 375.7500
424.5155, 376.8624
424.9976, 378.6698
425.4797, 379.3893
425.9618, 377.6783
426.4439, 377.6644
426.9261, 380.8100
427.4082, 384.4616
427.8903, 386.7079
428.3724, 387.5683
428.8545, 388.2200
429.3366, 389.6397
429.8188, 391.7993
430.3009, 393.8166
430.7830, 395.6928
431.2651, 397.4271
431.7472, 398.7515
432.2293, 400.0358
432.7115, 401.7562
433.1936, 404.0762
433.6757, 406.6602
434.1578, 408.8814
434.6399, 410.5215
435.1220, 412.5351
435.6042, 415.6826
436.0863, 418.6058
436.5684, 420.5145
437.0505, 421.5746
437.5326, 422.4930
438.0147, 423.6722
438.4969, 425.0929
438.9790, 426.6655
439.4611, 428.3181
439.9432, 430.3055
440.4253, 433.2023
440.9074, 436.2930
441.3896, 438.7635
441.8717, 440.3865
442.3538, 441.7934
442.8359, 443.3622
443.3180, 445.1461
443.8001, 447.5571
444.2823, 451.1758
444.7644, 454.5367
445.2465, 455.8961
445.7286, 455.6828
446.2107, 455.5705
446.6928, 455.6050
447.1750, 456.2217
447.6571, 458.3831
448.1392, 461.8698
448.6213, 464.7069
449.1034, 465.7270
449.5855, 465.4965
450.0677, 465.5711
450.5498, 466.0023
451.0319, 466.5492
451.5140, 467.4536
451.9961, 468.3026
452.4782, 468.6279
452.9604, 468.3332
453.4425, 467.5307
453.9246, 466.3665
454.4067, 464.8811
454.8888, 462.4992
455.3709, 458.4632
455.8531, 454.5405
456.3352, 451.5011
456.8173, 448.9915
457.2994, 446.2633
457.7815, 442.9780
458.2636, 439.5371
458.7458, 436.8596
459.2279, 435.6498
459.7100, 433.7091
460.1921, 430.6483
460.6742, 427.2167
461.1563, 423.6341
461.6385, 420.0362
462.1206, 416.7113
462.6027, 413.9897
463.0848, 411.6956
463.5669, 408.8622
464.0491, 405.2002
464.5312, 401.6087
465.0133, 398.1063
465.4954, 394.9694
465.9775, 392.7306
466.4597, 391.5736
466.9418, 390.2833
467.4239, 387.3891
467.9060, 383.1826
468.3881, 379.6241
468.8702, 377.0956
469.3524, 375.0450
469.8345, 373.2279
470.3166, 371.5437
470.7987, 369.7018
471.2808, 367.3989
471.7629, 365.0939
472.2451, 363.2499
472.7272, 361.8009
473.2093, 360.4110
473.6914, 358.9590
474.1735, 357.4655
474.6556, 355.9169
475.1378, 354.2165
475.6199, 352.7819
476.1020, 351.8794
476.5841, 351.1238
477.0662, 350.1611
477.5483, 348.9838
478.0305, 347.7917
478.5126, 346.7589
478.9947, 345.8424
479.4768, 344.7160
479.9589, 342.4815
480.4410, 341.1298
480.9232, 341.8076
481.4053, 343.0261
481.8874, 343.1384
482.3695, 341.8083
482.8516, 340.0384
483.3337, 338.9386
483.8159, 338.5126
484.2980, 338.7708
484.7801, 340.7190
485.2622, 342.2097
485.7443, 342.0605
486.2264, 341.0799
486.7086, 340.6906
487.1907, 341.6275
487.6728, 342.8632
488.1549, 342.6908
488.6370, 340.9945
489.1191, 339.7983
489.6013, 339.6585
490.0834, 340.0613
490.5655, 340.6226
491.0476, 341.3120
491.5297, 341.9081
492.0118, 342.3887
492.4940, 342.6942
492.9761, 342.7397
493.4582, 342.5272
493.9403, 342.0557
494.4224, 341.1704
494.9045, 340.1645
495.3867, 339.8268
495.8688, 340.3062
496.3509, 340.9155
496.8330, 341.4055
497.3151, 341.9984
497.7972, 343.0844
498.2794, 344.6198
498.7615, 346.0268
499.2436, 346.7761
499.7257, 346.9067
500.2078, 347.2089
500.6899, 347.9604
501.1721, 348.5441
501.6542, 348.7116
502.1363, 348.7361
502.6184, 348.9685
503.1005, 349.4779
503.5826, 349.9828
504.0648, 350.0523
504.5469, 349.6095
505.0290, 349.5324
505.5111, 350.0670
505.9932, 350.6857
506.4753, 351.3695
506.9575, 351.9492
507.4396, 352.1241
507.9217, 351.7195
508.4038, 351.0977
508.8859, 350.6477
509.3680, 350.3669
509.8502, 350.2794
510.3323, 350.5621
510.8144, 350.7606
511.2965, 350.3379
511.7786, 349.4013
512.2607, 348.4709
512.7429, 347.8717
513.2250, 347.1753
513.7071, 345.9390
514.1892, 344.2523
514.6713, 342.4864
515.1534, 340.7779
515.6356, 339.1382
516.1177, 337.6153
516.5998, 336.3824
517.0819, 334.8269
517.5640, 332.1324
518.0461, 329.7694
518.5283, 329.1117
519.0104, 329.7631
519.4925, 330.2607
519.9746, 329.6242
520.4567, 328.1529
520.9388, 326.9435
521.4210, 326.0599
521.9031, 325.3321
522.3852, 325.1217
522.8673, 324.7462
523.3494, 323.4872
523.8315, 321.4711
524.3137, 319.6106
524.7958, 318.6273
525.2779, 318.3560
525.7600, 318.2793
526.2421, 318.4272
526.7242, 318.6577
527.2064, 319.0019
527.6885, 319.3453
528.1706, 319.5435
528.6527, 319.5739
529.1348, 319.5326
529.6169, 319.5248
530.0991, 319.4590
530.5812, 319.0189
531.0633, 318.1811
531.5454, 317.7139
532.0275, 318.4005
532.5096, 319.9471
532.9918, 320.2723
533.4739, 318.0543
533.9560, 316.5111
534.4381, 316.7013
534.9202, 317.6772
535.4023, 318.5139
535.8845, 318.9867
536.3666, 319.2625
536.8487, 319.4817
537.3308, 319.6443
537.8129, 319.8921
538.2951, 320.4837
538.7772, 320.8049
539.2593, 320.2203
539.7415, 319.5624
540.2236, 319.8326
540.7057, 321.2668
541.1878, 323.0172
541.6699, 324.5229
542.1520, 325.6996
542.6342, 325.6994
543.1163, 323.8377
543.5984, 322.3354
544.0805, 323.2773
544.5626, 325.4488
545.0447, 326.5319
545.5269, 325.6978
546.0090, 324.7487
546.4911, 324.7179
546.9732, 325.3045
547.4553, 326.0879
547.9374, 326.9861
548.4196, 327.5538
548.9017, 327.2565
549.3838, 326.0639
549.8659, 325.4447
550.3480, 325.9594
550.8301, 326.2708
551.3123, 325.5241
551.7944, 324.5901
552.2765, 324.7466
552.7586, 326.2350
553.2407, 327.9742
553.7228, 328.5740
554.2050, 327.9479
554.6871, 327.8111
555.1692, 328.7206
555.6513, 329.3214
556.1334, 328.6371
556.6155, 327.5936
557.0977, 327.4550
557.5798, 328.6245
558.0619, 330.1749
558.5440, 331.5076
559.0261, 332.5552
559.5082, 332.9442
559.9904, 332.4720
560.4725, 332.0013
560.9546, 332.1399
561.4367, 332.8581
561.9188, 333.8107
562.4009, 335.7281
562.8831, 336.9545
563.3652, 336.2595
563.8473, 334.7621
564.3294, 333.9333
564.8115, 334.1052
565.2936, 334.8952
565.7758, 335.9745
566.2579, 337.3486
566.7400, 338.6746
567.2221, 340.0896
567.7042, 341.2785
568.1863, 342.0586
568.6685, 342.6566
569.1506, 343.2921
569.6327, 344.0096
570.1148, 344.7145
570.5969, 345.2947
571.0790, 345.7708
571.5612, 346.2036
572.0433, 346.4662
572.5254, 347.0698
573.0075, 348.6292
573.4896, 350.5352
573.9717, 351.7804
574.4539, 352.0079
574.9360, 352.5719
575.4181, 354.5563
575.9002, 357.0563
576.3823, 358.7202
576.8644, 359.4560
577.3466, 360.0995
577.8287, 361.2713
578.3108, 362.8192
578.7929, 363.9908
579.2750, 364.7963
579.7571, 365.1815
580.2393, 364.5476
580.7214, 363.9243
581.2035, 364.1290
581.6856, 365.1681
582.1677, 366.5563
582.6498, 367.9464
583.1320, 369.3835
583.6141, 371.1377
584.0962, 373.4899
584.5783, 375.1902
585.0604, 375.2651
585.5425, 375.0467
586.0247, 375.7419
586.5068, 377.3177
586.9889, 378.8210
587.4710, 379.5357
587.9531, 380.1670
588.4352, 381.7374
588.9174, 384.0773
589.3995, 386.1191
589.8816, 387.3709
590.3637, 388.1769
590.8458, 389.1402
591.3279, 390.3712
591.8101, 391.4352
592.2922, 391.7827
