##NAMES=Felsobanyaite
##RRUFFID=R060239
##IDEAL CHEMISTRY=Al_4_(S^6+^O_4_)(OH)_10_&#183;4H_2_O
##LOCALITY=El Dragon mine, Potosi, Bolivia
##OWNER=RRUFF
##SOURCE=Michael Scott
##DESCRIPTION=White, massive powder associated with light blue chalcomenite.
##STATUS=The identification of this mineral has been confirmed by X-ray diffraction.
##URL=rruff.info/R060239
90.52570, 0.0000000E+00
91.00781, 396.8703
91.48993, 391.6919
91.97205, 389.6335
92.45416, 390.8014
92.93628, 395.0561
93.41840, 403.0831
93.90051, 416.6898
94.38263, 431.1202
94.86475, 436.8464
95.34686, 433.9649
95.82898, 431.7237
96.31110, 435.6160
96.79321, 445.7515
97.27533, 464.1301
97.75745, 492.2300
98.23956, 528.5264
98.72168, 567.1179
99.20380, 608.4359
99.68591, 649.4935
100.1680, 683.0631
100.6501, 704.6346
101.1323, 739.7140
101.6144, 799.0348
102.0965, 885.0073
102.5786, 964.7461
103.0607, 1035.007
103.5428, 1102.489
104.0250, 1177.922
104.5071, 1254.346
104.9892, 1349.390
105.4713, 1469.343
105.9534, 1618.387
106.4355, 1781.937
106.9177, 1954.706
107.3998, 2141.484
107.8819, 2365.129
108.3640, 2658.185
108.8461, 2959.400
109.3282, 3244.469
109.8104, 3467.641
110.2925, 3720.450
110.7746, 4021.935
111.2567, 4363.436
111.7388, 4689.817
112.2209, 4993.681
112.7031, 5277.823
113.1852, 5547.559
113.6673, 5792.171
114.1494, 6030.457
114.6315, 6268.892
115.1136, 6509.999
115.5958, 6744.568
116.0779, 6950.738
116.5600, 7154.758
117.0421, 7385.034
117.5242, 7658.251
118.0063, 7957.625
118.4885, 8280.325
118.9706, 8627.944
119.4527, 8987.775
119.9348, 9354.019
120.4169, 9725.973
120.8990, 10108.54
121.3812, 10512.81
121.8633, 10922.64
122.3454, 11316.93
122.8275, 11692.15
123.3096, 12059.83
123.7917, 12436.46
124.2739, 12816.40
124.7560, 13178.90
125.2381, 13510.15
125.7202, 13816.54
126.2023, 14102.01
126.6844, 14363.38
127.1666, 14613.46
127.6487, 14875.74
128.1308, 15149.79
128.6129, 15408.86
129.0950, 15624.46
129.5771, 15807.12
130.0593, 15995.12
130.5414, 16196.76
131.0235, 16410.34
131.5056, 16614.66
131.9877, 16747.31
132.4698, 16808.06
132.9520, 16880.46
133.4341, 16964.68
133.9162, 17063.96
134.3983, 17182.41
134.8804, 17317.56
135.3625, 17452.53
135.8447, 17586.11
136.3268, 17724.88
136.8089, 17882.36
137.2910, 18061.92
137.7731, 18244.40
138.2552, 18427.03
138.7374, 18610.25
139.2195, 18781.98
139.7016, 18940.96
140.1837, 19091.65
140.6658, 19243.08
141.1479, 19402.86
141.6301, 19548.00
142.1122, 19665.87
142.5943, 19744.67
143.0764, 19829.51
143.5585, 19927.82
144.0406, 20032.37
144.5228, 20120.86
145.0049, 20183.26
145.4870, 20241.22
145.9691, 20306.65
146.4512, 20393.27
146.9333, 20466.53
147.4155, 20517.07
147.8976, 20549.21
148.3797, 20597.57
148.8618, 20674.93
149.3439, 20760.07
149.8260, 20839.21
150.3082, 20908.90
150.7903, 20977.01
151.2724, 21043.93
151.7545, 21109.05
152.2366, 21176.78
152.7188, 21242.99
153.2009, 21313.25
153.6830, 21391.27
154.1651, 21493.90
154.6472, 21587.66
155.1293, 21663.25
155.6115, 21719.87
156.0936, 21766.10
156.5757, 21798.74
157.0578, 21823.78
157.5399, 21847.40
158.0220, 21868.51
158.5042, 21891.57
158.9863, 21918.07
159.4684, 21948.45
159.9505, 21983.27
160.4326, 22029.19
160.9147, 22079.01
161.3969, 22121.78
161.8790, 22154.30
162.3611, 22178.82
162.8432, 22193.82
163.3253, 22194.43
163.8074, 22199.47
164.2896, 22214.57
164.7717, 22239.60
165.2538, 22274.64
165.7359, 22333.85
166.2180, 22394.22
166.7001, 22435.11
167.1823, 22441.96
167.6644, 22451.47
168.1465, 22493.94
168.6286, 22558.68
169.1107, 22615.93
169.5928, 22644.59
170.0750, 22659.42
170.5571, 22675.37
171.0392, 22694.13
171.5213, 22717.55
172.0034, 22752.07
172.4855, 22795.03
172.9677, 22832.99
173.4498, 22847.35
173.9319, 22854.39
174.4140, 22878.64
174.8961, 22935.92
175.3782, 23002.20
175.8604, 23053.92
176.3425, 23092.14
176.8246, 23123.65
177.3067, 23145.11
177.7888, 23164.27
178.2709, 23198.64
178.7531, 23269.75
179.2352, 23346.25
179.7173, 23372.57
180.1994, 23350.76
180.6815, 23326.84
181.1636, 23345.88
181.6458, 23396.45
182.1279, 23444.21
182.6100, 23479.90
183.0921, 23505.28
183.5742, 23518.90
184.0563, 23519.64
184.5385, 23525.91
185.0206, 23563.85
185.5027, 23626.57
185.9848, 23679.21
186.4669, 23704.39
186.9490, 23711.01
187.4312, 23726.74
187.9133, 23751.84
188.3954, 23781.49
188.8775, 23810.29
189.3596, 23838.28
189.8417, 23867.44
190.3239, 23899.06
190.8060, 23932.77
191.2881, 23964.73
191.7702, 23994.47
192.2523, 24023.98
192.7344, 24059.19
193.2166, 24100.16
193.6987, 24133.66
194.1808, 24155.42
194.6629, 24165.61
195.1450, 24162.65
195.6271, 24141.93
196.1093, 24119.83
196.5914, 24123.25
197.0735, 24154.00
197.5556, 24186.10
198.0377, 24212.89
198.5198, 24234.56
199.0020, 24232.84
199.4841, 24199.02
199.9662, 24156.54
200.4483, 24146.21
200.9304, 24172.67
201.4125, 24201.93
201.8947, 24220.69
202.3768, 24228.67
202.8589, 24229.10
203.3410, 24221.43
203.8231, 24207.16
204.3052, 24186.21
204.7874, 24155.50
205.2695, 24131.21
205.7516, 24123.25
206.2337, 24134.82
206.7158, 24140.00
207.1979, 24133.94
207.6801, 24126.06
208.1622, 24141.81
208.6443, 24192.99
209.1264, 24231.94
209.6085, 24227.34
210.0906, 24161.91
210.5728, 24135.15
211.0549, 24161.04
211.5370, 24217.48
212.0191, 24252.34
212.5012, 24257.40
212.9833, 24262.42
213.4655, 24282.97
213.9476, 24325.19
214.4297, 24360.35
214.9118, 24383.93
215.3939, 24402.40
215.8760, 24432.63
216.3581, 24476.43
216.8403, 24527.55
217.3224, 24585.42
217.8045, 24657.38
218.2866, 24712.88
218.7687, 24745.64
219.2508, 24762.81
219.7330, 24782.47
220.2151, 24804.14
220.6972, 24827.56
221.1793, 24851.03
221.6614, 24870.91
222.1435, 24901.30
222.6257, 24951.31
223.1078, 25009.10
223.5899, 25042.31
224.0720, 25043.06
224.5541, 25032.30
225.0362, 25017.57
225.5184, 24993.39
226.0005, 24981.35
226.4826, 24988.59
226.9647, 25007.11
227.4468, 25012.60
227.9289, 24995.32
228.4111, 24981.17
228.8932, 24984.13
229.3753, 25016.06
229.8574, 25037.34
230.3395, 25041.99
230.8216, 25036.98
231.3038, 25041.81
231.7859, 25060.61
232.2680, 25082.78
232.7501, 25103.33
233.2322, 25119.75
233.7143, 25139.40
234.1965, 25162.50
234.6786, 25188.58
235.1607, 25217.87
235.6428, 25255.23
236.1249, 25287.88
236.6070, 25309.19
237.0892, 25312.72
237.5713, 25317.63
238.0534, 25321.66
238.5355, 25327.33
239.0176, 25342.74
239.4997, 25377.90
239.9819, 25408.59
240.4640, 25422.36
240.9461, 25407.14
241.4282, 25405.01
241.9103, 25424.64
242.3924, 25454.81
242.8746, 25467.21
243.3567, 25450.71
243.8388, 25433.87
244.3209, 25428.01
244.8030, 25435.99
245.2851, 25448.72
245.7673, 25467.86
246.2494, 25491.52
246.7315, 25516.56
247.2136, 25548.32
247.6957, 25573.31
248.1778, 25584.54
248.6600, 25575.16
249.1421, 25571.89
249.6242, 25571.66
250.1063, 25578.97
250.5884, 25604.61
251.0705, 25658.99
251.5527, 25713.84
252.0348, 25759.40
252.5169, 25796.00
252.9990, 25821.09
253.4811, 25825.84
253.9632, 25824.77
254.4454, 25846.10
254.9275, 25904.59
255.4096, 25957.07
255.8917, 25986.50
256.3738, 25985.54
256.8560, 25994.83
257.3381, 26017.85
257.8202, 26048.33
258.3023, 26078.79
258.7844, 26112.51
259.2665, 26138.39
259.7487, 26149.08
260.2308, 26140.14
260.7129, 26149.23
261.1950, 26185.44
261.6771, 26229.61
262.1592, 26252.19
262.6414, 26239.99
263.1235, 26239.58
263.6056, 26268.62
264.0877, 26330.23
264.5698, 26375.71
265.0519, 26397.08
265.5341, 26413.07
266.0162, 26449.16
266.4983, 26514.46
266.9804, 26570.64
267.4625, 26604.64
267.9446, 26616.72
268.4268, 26646.90
268.9089, 26706.89
269.3910, 26763.32
269.8731, 26773.67
270.3552, 26721.72
270.8373, 26689.43
271.3195, 26700.36
271.8016, 26749.44
272.2837, 26783.65
272.7658, 26799.18
273.2479, 26808.97
273.7300, 26822.46
274.2122, 26838.30
274.6943, 26867.94
275.1764, 26920.38
275.6585, 26988.57
276.1406, 27031.48
276.6227, 27043.35
277.1049, 27049.77
277.5870, 27073.12
278.0691, 27115.39
278.5512, 27153.65
279.0333, 27184.37
279.5154, 27208.65
279.9976, 27227.22
280.4797, 27238.19
280.9618, 27253.31
281.4439, 27289.56
281.9260, 27347.06
282.4081, 27375.35
282.8903, 27356.57
283.3724, 27317.21
283.8545, 27325.56
284.3366, 27385.32
284.8187, 27453.12
285.3008, 27502.98
285.7830, 27536.21
286.2651, 27560.45
286.7472, 27573.38
287.2293, 27583.75
287.7114, 27609.94
288.1935, 27651.71
288.6757, 27692.90
289.1578, 27725.62
289.6399, 27750.17
290.1220, 27765.63
290.6041, 27770.67
291.0862, 27770.74
291.5684, 27772.19
292.0505, 27775.06
292.5326, 27779.99
293.0147, 27790.10
293.4968, 27802.65
293.9789, 27809.84
294.4611, 27811.40
294.9432, 27808.68
295.4253, 27799.88
295.9074, 27787.10
296.3895, 27778.93
296.8716, 27778.53
297.3538, 27785.44
297.8359, 27802.63
298.3180, 27830.94
298.8001, 27855.55
299.2822, 27859.31
299.7643, 27848.32
300.2465, 27837.91
300.7286, 27827.43
301.2107, 27824.54
301.6928, 27843.89
302.1749, 27884.26
302.6570, 27929.03
303.1392, 27972.84
303.6213, 28010.83
304.1034, 28031.45
304.5855, 28017.80
305.0676, 28002.18
305.5497, 28021.67
306.0319, 28070.75
306.5140, 28121.64
306.9961, 28158.45
307.4782, 28185.22
307.9603, 28205.52
308.4424, 28215.09
308.9246, 28226.74
309.4067, 28255.28
309.8888, 28294.37
310.3709, 28326.97
310.8530, 28334.21
311.3351, 28335.65
311.8173, 28351.12
312.2994, 28390.70
312.7815, 28423.32
313.2636, 28424.59
313.7457, 28406.67
314.2278, 28391.26
314.7100, 28392.30
315.1921, 28395.86
315.6742, 28391.93
316.1563, 28377.81
316.6384, 28368.79
317.1205, 28371.60
317.6027, 28383.60
318.0848, 28401.49
318.5669, 28442.84
319.0490, 28473.12
319.5311, 28472.43
320.0132, 28438.59
320.4954, 28408.66
320.9775, 28388.87
321.4596, 28379.23
321.9417, 28380.23
322.4238, 28396.05
322.9059, 28417.94
323.3881, 28448.18
323.8702, 28485.35
324.3523, 28516.25
324.8344, 28536.88
325.3165, 28552.38
325.7986, 28566.05
326.2808, 28570.04
326.7629, 28582.32
327.2450, 28612.89
327.7271, 28655.12
328.2092, 28682.57
328.6913, 28671.84
329.1735, 28666.77
329.6556, 28685.93
330.1377, 28747.07
330.6198, 28798.68
331.1019, 28843.20
331.5840, 28876.84
332.0662, 28891.27
332.5483, 28868.69
333.0304, 28851.62
333.5125, 28855.19
333.9946, 28883.97
334.4767, 28907.56
334.9589, 28923.54
335.4410, 28936.18
335.9231, 28953.55
336.4052, 28983.56
336.8873, 28996.15
337.3694, 28975.96
337.8515, 28926.42
338.3336, 28905.35
338.8158, 28919.77
339.2979, 28949.03
339.7800, 28977.73
340.2621, 29006.75
340.7442, 29030.95
341.2263, 29049.52
341.7085, 29062.77
342.1906, 29068.13
342.6727, 29064.30
343.1548, 29061.43
343.6369, 29067.94
344.1190, 29082.91
344.6012, 29093.03
345.0833, 29093.59
345.5654, 29094.10
346.0475, 29116.07
346.5296, 29157.67
347.0117, 29195.37
347.4939, 29213.91
347.9760, 29217.82
348.4581, 29218.67
348.9402, 29215.11
349.4223, 29218.39
349.9044, 29248.86
350.3866, 29298.76
350.8687, 29341.61
351.3508, 29357.96
351.8329, 29365.10
352.3150, 29395.96
352.7971, 29449.79
353.2793, 29496.83
353.7614, 29501.81
354.2435, 29487.54
354.7256, 29492.65
355.2077, 29542.09
355.6898, 29597.23
356.1720, 29626.88
356.6541, 29633.68
357.1362, 29629.74
357.6183, 29596.28
358.1004, 29568.82
358.5826, 29585.82
359.0647, 29672.63
359.5468, 29757.19
360.0289, 29803.01
360.5110, 29819.18
360.9931, 29823.09
361.4753, 29799.38
361.9574, 29782.71
362.4395, 29795.19
362.9216, 29843.69
363.4037, 29889.48
363.8858, 29924.38
364.3680, 29949.80
364.8501, 29967.34
365.3322, 29981.43
365.8143, 29983.99
366.2964, 29960.10
366.7785, 29911.41
367.2607, 29895.07
367.7428, 29946.89
368.2249, 30012.75
368.7070, 30060.27
369.1891, 30081.74
369.6712, 30093.76
370.1534, 30086.26
370.6355, 30068.93
371.1176, 30073.00
371.5997, 30108.18
372.0818, 30150.98
372.5639, 30193.29
373.0461, 30236.35
373.5282, 30273.15
374.0103, 30303.92
374.4924, 30327.91
374.9745, 30341.70
375.4566, 30340.74
375.9388, 30344.19
376.4209, 30358.15
376.9030, 30382.66
377.3851, 30411.67
377.8672, 30448.50
378.3493, 30483.22
378.8315, 30505.69
379.3136, 30516.48
379.7957, 30522.92
380.2778, 30523.35
380.7599, 30524.24
381.2420, 30546.47
381.7242, 30589.67
382.2063, 30628.58
382.6884, 30634.25
383.1705, 30619.65
383.6526, 30633.78
384.1347, 30684.68
384.6169, 30747.29
385.0990, 30793.38
385.5811, 30824.72
386.0632, 30845.90
386.5453, 30852.27
387.0274, 30852.71
387.5096, 30857.57
387.9917, 30867.13
388.4738, 30882.36
388.9559, 30911.97
389.4380, 30945.65
389.9201, 30969.67
390.4023, 30975.85
390.8844, 30976.11
391.3665, 30976.14
391.8486, 30976.51
392.3307, 30978.84
392.8128, 30980.37
393.2950, 30986.07
393.7771, 31001.26
394.2592, 31032.17
394.7413, 31056.32
395.2234, 31059.29
395.7055, 31051.64
396.1877, 31050.01
396.6698, 31057.17
397.1519, 31071.47
397.6340, 31099.86
398.1161, 31146.53
398.5982, 31170.27
399.0804, 31147.07
399.5625, 31113.71
400.0446, 31096.59
400.5267, 31102.54
401.0088, 31117.35
401.4909, 31148.44
401.9731, 31189.05
402.4552, 31206.49
402.9373, 31181.07
403.4194, 31165.17
403.9015, 31189.20
404.3836, 31268.71
404.8658, 31324.30
405.3479, 31348.90
405.8300, 31357.51
406.3121, 31369.70
406.7942, 31384.38
407.2763, 31406.88
407.7585, 31440.21
408.2406, 31482.43
408.7227, 31525.75
409.2048, 31570.42
409.6869, 31609.59
410.1690, 31629.76
410.6512, 31636.31
411.1333, 31660.63
411.6154, 31717.40
412.0975, 31778.58
412.5796, 31792.33
413.0617, 31768.48
413.5439, 31755.65
414.0260, 31799.32
414.5081, 31864.43
414.9902, 31896.09
415.4723, 31887.84
415.9544, 31878.11
416.4366, 31901.24
416.9187, 31942.48
417.4008, 31979.46
417.8829, 32003.07
418.3650, 32020.82
418.8471, 32032.64
419.3293, 32040.34
419.8114, 32055.57
420.2935, 32085.71
420.7756, 32123.48
421.2577, 32164.06
421.7398, 32210.47
422.2220, 32253.74
422.7041, 32287.70
423.1862, 32318.37
423.6683, 32356.51
424.1504, 32420.51
424.6325, 32475.76
425.1147, 32510.66
425.5968, 32523.34
426.0789, 32536.37
426.5610, 32541.74
427.0431, 32554.67
427.5252, 32589.66
428.0074, 32659.11
428.4895, 32721.01
428.9716, 32768.14
429.4537, 32804.39
429.9358, 32842.12
430.4179, 32882.13
430.9001, 32919.38
431.3822, 32952.02
431.8643, 32980.11
432.3464, 32997.40
432.8285, 33001.00
433.3106, 33003.37
433.7928, 33023.50
434.2749, 33058.96
434.7570, 33088.68
435.2391, 33102.00
435.7212, 33109.07
436.2033, 33137.10
436.6855, 33183.02
437.1676, 33216.66
437.6497, 33199.64
438.1318, 33161.71
438.6139, 33150.25
439.0960, 33177.15
439.5782, 33215.17
440.0603, 33235.18
440.5424, 33250.96
441.0245, 33287.76
441.5066, 33390.69
441.9887, 33489.68
442.4709, 33540.45
442.9530, 33542.84
443.4351, 33535.38
443.9172, 33518.82
444.3993, 33505.53
444.8814, 33504.64
445.3636, 33521.02
445.8457, 33544.48
446.3278, 33576.91
446.8099, 33615.27
447.2920, 33653.06
447.7741, 33686.46
448.2563, 33724.51
448.7384, 33775.69
449.2205, 33846.60
449.7026, 33881.89
450.1847, 33861.40
450.6668, 33831.04
451.1490, 33836.47
451.6311, 33889.50
452.1132, 33936.11
452.5953, 33974.47
453.0774, 33997.82
453.5595, 33979.43
454.0417, 33914.04
454.5238, 33853.77
455.0059, 33827.18
455.4880, 33829.80
455.9701, 33842.45
456.4522, 33866.15
456.9344, 33887.47
457.4165, 33892.28
457.8986, 33883.10
458.3807, 33866.05
458.8628, 33837.23
459.3449, 33807.91
459.8271, 33793.76
460.3092, 33791.46
460.7913, 33786.27
461.2734, 33770.07
461.7555, 33747.18
462.2376, 33715.63
462.7198, 33670.02
463.2019, 33641.88
463.6840, 33669.07
464.1661, 33714.24
464.6482, 33732.22
465.1303, 33672.01
465.6125, 33623.49
466.0946, 33620.84
466.5767, 33657.88
467.0588, 33675.26
467.5409, 33648.78
468.0230, 33619.51
468.5052, 33605.82
468.9873, 33615.00
469.4694, 33623.10
469.9515, 33632.90
470.4336, 33639.85
470.9157, 33635.80
471.3979, 33617.16
471.8800, 33601.07
472.3621, 33590.99
472.8442, 33587.30
473.3263, 33593.31
473.8084, 33610.34
474.2906, 33626.16
474.7727, 33626.10
475.2548, 33615.13
475.7369, 33621.32
476.2190, 33650.75
476.7011, 33683.33
477.1833, 33688.98
477.6654, 33677.70
478.1475, 33677.29
478.6296, 33719.49
479.1117, 33764.21
479.5938, 33757.38
480.0760, 33708.05
480.5581, 33676.82
481.0402, 33713.73
481.5223, 33773.82
482.0044, 33822.35
482.4865, 33852.18
482.9687, 33872.16
483.4508, 33877.18
483.9329, 33876.38
484.4150, 33882.68
484.8971, 33902.88
485.3792, 33925.53
485.8614, 33950.98
486.3435, 33978.55
486.8256, 33997.70
487.3077, 34000.95
487.7898, 34004.26
488.2719, 34014.74
488.7541, 34029.82
489.2362, 34062.65
489.7183, 34122.68
490.2004, 34187.98
490.6825, 34224.68
491.1646, 34230.43
491.6468, 34230.83
492.1289, 34232.03
492.6110, 34233.88
493.0931, 34230.14
493.5752, 34221.11
494.0573, 34227.81
494.5395, 34282.62
495.0216, 34361.00
495.5037, 34409.16
495.9858, 34415.69
496.4679, 34416.33
496.9500, 34443.13
497.4322, 34486.04
497.9143, 34527.96
498.3964, 34570.81
498.8785, 34603.48
499.3606, 34609.46
499.8427, 34596.15
500.3249, 34597.03
500.8070, 34647.65
501.2891, 34697.01
501.7712, 34712.92
502.2533, 34671.84
502.7354, 34655.71
503.2176, 34685.77
503.6997, 34735.71
504.1818, 34779.63
504.6639, 34814.07
505.1460, 34848.62
505.6281, 34888.66
506.1103, 34928.70
506.5924, 34942.46
507.0745, 34921.48
507.5566, 34902.45
508.0387, 34910.60
508.5208, 34943.51
509.0030, 34949.68
509.4851, 34925.39
509.9672, 34895.45
510.4493, 34888.40
510.9314, 34898.42
511.4135, 34906.63
511.8957, 34912.48
512.3778, 34908.84
512.8599, 34877.70
513.3420, 34829.13
513.8242, 34791.72
514.3063, 34773.73
514.7884, 34777.56
515.2705, 34817.02
515.7526, 34893.04
516.2347, 34952.34
516.7169, 34967.59
517.1990, 34960.75
517.6811, 34947.43
518.1632, 34907.48
518.6453, 34890.96
519.1274, 34922.49
519.6096, 34976.34
520.0917, 35004.86
520.5738, 34993.32
521.0559, 34979.80
521.5380, 34971.35
522.0201, 34968.30
522.5023, 34977.35
522.9844, 35001.81
523.4665, 35029.96
523.9486, 35055.57
524.4307, 35078.75
524.9128, 35094.04
525.3950, 35099.50
525.8771, 35102.11
526.3592, 35105.34
526.8413, 35111.98
527.3234, 35134.43
527.8055, 35193.55
528.2877, 35254.05
528.7698, 35267.45
529.2519, 35243.41
529.7340, 35224.34
530.2161, 35234.75
530.6982, 35258.92
531.1804, 35288.70
531.6625, 35324.74
532.1446, 35354.57
532.6267, 35372.81
533.1088, 35384.04
533.5909, 35392.20
534.0731, 35378.18
534.5552, 35387.25
535.0373, 35437.20
535.5194, 35510.20
536.0015, 35564.28
536.4836, 35596.68
536.9658, 35613.63
537.4479, 35609.95
537.9300, 35587.11
538.4121, 35585.07
538.8942, 35604.85
539.3763, 35639.59
539.8585, 35691.96
540.3406, 35756.98
540.8227, 35805.87
541.3048, 35833.13
541.7869, 35851.07
542.2690, 35874.31
542.7512, 35900.40
543.2333, 35923.30
543.7154, 35940.66
544.1975, 35953.83
544.6796, 35963.29
545.1617, 35969.46
545.6439, 35973.54
546.1260, 35966.30
546.6081, 35964.85
547.0902, 35984.10
547.5723, 36033.98
548.0544, 36068.83
548.5366, 36063.69
549.0187, 36051.86
549.5008, 36063.55
549.9829, 36116.82
550.4650, 36161.85
550.9471, 36197.13
551.4293, 36220.69
551.9114, 36223.72
552.3935, 36200.93
552.8756, 36184.30
553.3577, 36189.24
553.8398, 36210.32
554.3220, 36220.62
554.8041, 36219.79
555.2862, 36219.99
555.7683, 36231.42
556.2504, 36250.48
556.7325, 36268.21
557.2147, 36281.70
557.6968, 36303.26
558.1789, 36351.41
558.6610, 36412.31
559.1431, 36465.05
559.6252, 36503.80
560.1074, 36530.85
560.5895, 36536.00
561.0716, 36527.87
561.5537, 36535.31
562.0358, 36587.52
562.5179, 36633.26
563.0001, 36648.41
563.4822, 36627.96
563.9643, 36631.88
564.4464, 36671.81
564.9285, 36720.12
565.4106, 36759.43
565.8928, 36790.82
566.3749, 36804.22
566.8570, 36792.75
567.3391, 36777.19
567.8212, 36786.82
568.3033, 36820.59
568.7855, 36872.34
569.2676, 36956.90
569.7497, 37041.39
570.2318, 37067.07
570.7139, 37045.56
571.1960, 37029.96
571.6782, 37058.91
572.1603, 37101.38
572.6424, 37129.91
573.1245, 37141.14
573.6066, 37159.38
574.0887, 37205.53
574.5709, 37255.89
575.0530, 37292.07
575.5351, 37296.30
576.0172, 37309.35
576.4993, 37331.52
576.9814, 37363.68
577.4636, 37410.22
577.9457, 37481.60
578.4278, 37538.41
578.9099, 37564.43
579.3920, 37570.16
579.8741, 37598.58
580.3563, 37651.18
580.8384, 37703.32
581.3205, 37735.94
581.8026, 37757.04
582.2847, 37791.13
582.7668, 37839.22
583.2490, 37884.34
583.7311, 37906.14
584.2131, 37918.57
584.6953, 37941.09
585.1774, 37982.74
585.6595, 38023.79
586.1416, 38049.07
586.6237, 38068.57
587.1058, 38097.76
587.5880, 38160.13
588.0701, 38211.01
