##NAMES=Felsobanyaite
##RRUFFID=R060239
##IDEAL CHEMISTRY=Al_4_(S^6+^O_4_)(OH)_10_&#183;4H_2_O
##LOCALITY=El Dragon mine, Potosi, Bolivia
##OWNER=RRUFF
##SOURCE=Michael Scott
##DESCRIPTION=White, massive powder associated with light blue chalcomenite.
##STATUS=The identification of this mineral has been confirmed by X-ray diffraction.
##URL=rruff.info/R060239
93.30109, 0.0000000E+00
93.78320, 1817.079
94.26532, 1813.151
94.74744, 1820.432
95.22955, 1834.434
95.71167, 1852.875
96.19379, 1861.972
96.67590, 1864.346
97.15802, 1864.203
97.64014, 1861.115
98.12225, 1856.072
98.60437, 1851.121
99.08649, 1847.806
99.56860, 1844.967
100.0507, 1840.623
100.5328, 1831.745
101.0150, 1821.302
101.4971, 1811.556
101.9792, 1802.566
102.4613, 1794.127
102.9434, 1785.018
103.4255, 1776.511
103.9077, 1769.664
104.3898, 1764.764
104.8719, 1761.466
105.3540, 1759.351
105.8361, 1759.454
106.3182, 1758.630
106.8004, 1755.829
107.2825, 1751.867
107.7646, 1747.362
108.2467, 1742.512
108.7288, 1737.385
109.2109, 1733.604
109.6931, 1732.212
110.1752, 1730.960
110.6573, 1729.246
111.1394, 1727.113
111.6215, 1724.855
112.1036, 1722.681
112.5858, 1720.528
113.0679, 1718.964
113.5500, 1718.596
114.0321, 1718.316
114.5142, 1716.990
114.9964, 1714.436
115.4785, 1712.057
115.9606, 1712.129
116.4427, 1714.489
116.9248, 1715.510
117.4069, 1712.814
117.8891, 1708.291
118.3712, 1706.152
118.8533, 1708.360
119.3354, 1711.347
119.8175, 1711.376
120.2996, 1708.711
120.7818, 1706.100
121.2639, 1706.121
121.7460, 1708.915
122.2281, 1710.282
122.7102, 1708.007
123.1923, 1704.978
123.6745, 1702.495
124.1566, 1700.811
124.6387, 1699.611
125.1208, 1698.315
125.6029, 1696.325
126.0850, 1695.614
126.5672, 1697.792
127.0493, 1700.270
127.5314, 1700.641
128.0135, 1697.994
128.4956, 1693.573
128.9777, 1690.815
129.4599, 1691.640
129.9420, 1692.178
130.4241, 1692.485
130.9062, 1692.301
131.3883, 1691.052
131.8704, 1688.229
132.3526, 1684.333
132.8347, 1682.178
133.3168, 1682.490
133.7989, 1683.365
134.2810, 1684.209
134.7632, 1685.010
135.2453, 1685.830
135.7274, 1687.014
136.2095, 1688.149
136.6916, 1688.078
137.1737, 1685.938
137.6559, 1683.047
138.1380, 1680.692
138.6201, 1678.943
139.1022, 1677.382
139.5843, 1675.573
140.0664, 1673.765
140.5486, 1672.435
141.0307, 1672.123
141.5128, 1672.374
141.9949, 1671.846
142.4770, 1670.266
142.9591, 1668.205
143.4413, 1665.442
143.9234, 1662.463
144.4055, 1660.177
144.8876, 1659.563
145.3697, 1660.641
145.8518, 1660.485
146.3340, 1657.347
146.8161, 1654.447
147.2982, 1652.732
147.7803, 1652.142
148.2624, 1652.233
148.7445, 1652.783
149.2267, 1654.390
149.7088, 1653.692
150.1909, 1648.977
150.6730, 1643.862
151.1551, 1640.113
151.6372, 1638.063
152.1194, 1637.280
152.6015, 1637.368
153.0836, 1638.956
153.5657, 1639.630
154.0478, 1638.896
154.5299, 1637.483
155.0121, 1635.958
155.4942, 1634.436
155.9763, 1633.111
156.4584, 1632.477
156.9405, 1632.624
157.4226, 1632.436
157.9048, 1631.224
158.3869, 1629.477
158.8690, 1628.293
159.3511, 1628.136
159.8332, 1628.344
160.3153, 1627.930
160.7975, 1626.855
161.2796, 1626.125
161.7617, 1626.911
162.2438, 1629.031
162.7259, 1629.950
163.2081, 1627.844
163.6902, 1625.308
164.1723, 1624.446
164.6544, 1625.444
165.1365, 1626.858
165.6186, 1627.107
166.1008, 1625.944
166.5829, 1624.744
167.0650, 1623.948
167.5471, 1623.070
168.0292, 1621.379
168.5113, 1618.802
168.9935, 1616.503
169.4756, 1616.585
169.9577, 1620.517
170.4398, 1624.181
170.9219, 1627.980
171.4040, 1631.049
171.8862, 1632.380
172.3683, 1631.652
172.8504, 1629.721
173.3325, 1628.616
173.8146, 1629.333
174.2967, 1629.759
174.7789, 1629.486
175.2610, 1629.000
175.7431, 1628.807
176.2252, 1629.124
176.7073, 1629.949
177.1894, 1631.342
177.6716, 1634.136
178.1537, 1636.420
178.6358, 1637.481
179.1179, 1637.801
179.6000, 1638.381
180.0821, 1639.808
180.5643, 1641.682
181.0464, 1642.760
181.5285, 1642.711
182.0106, 1642.535
182.4927, 1642.692
182.9748, 1643.124
183.4570, 1643.529
183.9391, 1643.625
184.4212, 1643.724
184.9033, 1644.409
185.3854, 1645.911
185.8675, 1647.636
186.3497, 1649.044
186.8318, 1650.119
187.3139, 1651.425
187.7960, 1653.690
188.2781, 1656.100
188.7602, 1657.602
189.2424, 1657.703
189.7245, 1657.513
190.2066, 1658.562
190.6887, 1661.183
191.1708, 1663.852
191.6530, 1665.968
192.1351, 1667.904
192.6172, 1670.139
193.0993, 1672.946
193.5814, 1675.667
194.0635, 1676.653
194.5457, 1674.384
195.0278, 1673.453
195.5099, 1676.631
195.9920, 1680.625
196.4741, 1681.998
196.9562, 1679.142
197.4384, 1673.482
197.9205, 1669.069
198.4026, 1666.669
198.8847, 1664.662
199.3668, 1663.518
199.8489, 1662.394
200.3311, 1660.151
200.8132, 1656.175
201.2953, 1651.079
201.7774, 1647.324
202.2595, 1646.412
202.7416, 1645.259
203.2238, 1643.633
203.7059, 1641.562
204.1880, 1638.831
204.6701, 1635.228
205.1522, 1631.264
205.6343, 1629.346
206.1165, 1632.183
206.5986, 1633.724
207.0807, 1631.899
207.5628, 1627.927
208.0449, 1624.006
208.5270, 1621.226
209.0092, 1619.420
209.4913, 1617.995
209.9734, 1617.534
210.4555, 1616.695
210.9376, 1614.540
211.4197, 1611.564
211.9019, 1609.190
212.3840, 1608.301
212.8661, 1608.379
213.3482, 1607.777
213.8303, 1605.610
214.3124, 1604.189
214.7946, 1605.733
215.2767, 1609.599
215.7588, 1612.175
216.2409, 1611.410
216.7230, 1608.629
217.2052, 1606.498
217.6873, 1605.071
218.1694, 1604.270
218.6515, 1604.095
219.1336, 1604.539
219.6157, 1605.508
220.0979, 1607.869
220.5800, 1610.130
221.0621, 1610.583
221.5442, 1608.807
222.0263, 1606.188
222.5084, 1603.802
222.9906, 1601.601
223.4727, 1600.030
223.9548, 1600.360
224.4369, 1600.689
224.9190, 1599.391
225.4011, 1596.096
225.8833, 1592.213
226.3654, 1589.141
226.8475, 1586.830
227.3296, 1585.648
227.8117, 1587.566
228.2938, 1589.433
228.7760, 1589.049
229.2581, 1586.011
229.7402, 1581.848
230.2223, 1578.306
230.7044, 1575.133
231.1865, 1573.442
231.6687, 1575.052
232.1508, 1576.882
232.6329, 1576.835
233.1150, 1574.615
233.5971, 1571.631
234.0792, 1569.939
234.5614, 1570.343
235.0435, 1570.074
235.5256, 1568.379
236.0077, 1566.605
236.4898, 1565.720
236.9719, 1565.824
237.4541, 1566.230
237.9362, 1566.094
238.4183, 1565.614
238.9004, 1563.953
239.3825, 1559.724
239.8646, 1555.564
240.3468, 1553.613
240.8289, 1553.908
241.3110, 1554.564
241.7931, 1553.149
242.2752, 1548.665
242.7573, 1544.872
243.2395, 1541.150
243.7216, 1538.435
244.2037, 1538.094
244.6858, 1539.896
245.1679, 1541.676
245.6501, 1540.888
246.1322, 1536.560
246.6143, 1533.488
247.0964, 1531.719
247.5785, 1530.996
248.0606, 1531.873
248.5428, 1534.055
249.0249, 1535.770
249.5070, 1535.117
249.9891, 1531.588
250.4712, 1529.221
250.9533, 1529.034
251.4355, 1529.150
251.9176, 1527.955
252.3997, 1525.539
252.8818, 1523.634
253.3639, 1523.944
253.8460, 1526.520
254.3282, 1527.839
254.8103, 1526.625
255.2924, 1525.194
255.7745, 1525.401
256.2566, 1527.141
256.7387, 1528.763
257.2209, 1529.139
257.7030, 1528.300
258.1851, 1527.281
258.6672, 1525.409
259.1493, 1523.890
259.6314, 1523.671
260.1136, 1524.662
260.5957, 1526.038
261.0778, 1527.501
261.5599, 1528.937
262.0420, 1530.096
262.5241, 1530.845
263.0063, 1531.462
263.4884, 1532.403
263.9705, 1533.558
264.4526, 1533.894
264.9347, 1532.460
265.4168, 1530.178
265.8990, 1528.868
266.3811, 1528.802
266.8632, 1529.157
267.3453, 1529.381
267.8274, 1529.514
268.3095, 1529.869
268.7917, 1530.743
269.2738, 1531.747
269.7559, 1532.302
270.2380, 1532.318
270.7201, 1532.382
271.2022, 1533.410
271.6844, 1535.119
272.1665, 1535.401
272.6486, 1532.924
273.1307, 1529.649
273.6128, 1527.223
274.0949, 1525.647
274.5771, 1525.213
275.0592, 1526.955
275.5413, 1530.354
276.0234, 1532.171
276.5055, 1530.765
276.9876, 1529.204
277.4698, 1530.207
277.9519, 1533.290
278.4340, 1536.029
278.9161, 1536.859
279.3982, 1536.101
279.8803, 1535.065
280.3625, 1533.271
280.8446, 1532.115
281.3267, 1532.779
281.8088, 1534.641
282.2909, 1536.243
282.7730, 1536.353
283.2552, 1535.612
283.7373, 1536.427
284.2194, 1539.980
284.7015, 1542.833
285.1836, 1542.851
285.6658, 1541.340
286.1479, 1540.243
286.6300, 1540.584
287.1121, 1541.731
287.5942, 1542.243
288.0764, 1541.875
288.5585, 1541.432
289.0406, 1542.017
289.5227, 1542.385
290.0048, 1540.891
290.4869, 1536.655
290.9691, 1531.366
291.4512, 1528.108
291.9333, 1527.710
292.4154, 1526.750
292.8975, 1523.638
293.3796, 1520.057
293.8618, 1517.397
294.3439, 1516.014
294.8260, 1514.955
295.3081, 1512.705
295.7902, 1508.782
296.2723, 1505.981
296.7545, 1505.580
297.2366, 1505.879
297.7187, 1506.331
298.2008, 1506.722
298.6829, 1506.605
299.1650, 1505.084
299.6472, 1501.868
300.1293, 1499.915
300.6114, 1500.861
301.0935, 1501.832
301.5756, 1501.200
302.0577, 1499.360
302.5399, 1497.929
303.0220, 1498.685
303.5041, 1501.461
303.9862, 1502.312
304.4683, 1499.506
304.9504, 1496.679
305.4326, 1495.129
305.9147, 1494.525
306.3968, 1494.113
306.8789, 1493.365
307.3610, 1492.511
307.8431, 1492.594
308.3253, 1494.258
308.8074, 1495.913
309.2895, 1497.307
309.7716, 1498.386
310.2537, 1499.101
310.7358, 1499.445
311.2180, 1499.359
311.7001, 1498.758
312.1822, 1497.711
312.6643, 1495.869
313.1464, 1492.445
313.6285, 1488.703
314.1107, 1485.430
314.5928, 1482.873
315.0749, 1481.187
315.5570, 1481.060
316.0391, 1483.334
316.5212, 1484.037
317.0034, 1481.550
317.4855, 1478.326
317.9676, 1475.322
318.4497, 1472.794
318.9318, 1470.872
319.4139, 1469.892
319.8961, 1469.984
320.3782, 1469.808
320.8603, 1469.990
321.3424, 1469.233
321.8245, 1466.165
322.3066, 1461.681
322.7888, 1457.929
323.2709, 1456.732
323.7530, 1457.680
324.2351, 1457.692
324.7172, 1455.789
325.1993, 1454.311
325.6815, 1454.386
326.1636, 1455.170
326.6457, 1455.505
327.1278, 1454.828
327.6099, 1453.368
328.0920, 1451.567
328.5742, 1449.088
329.0563, 1446.990
329.5384, 1445.065
330.0205, 1443.805
330.5026, 1444.087
330.9847, 1446.142
331.4669, 1448.449
331.9490, 1448.674
332.4311, 1446.261
332.9132, 1444.231
333.3953, 1442.802
333.8774, 1442.062
334.3596, 1442.771
334.8417, 1444.639
335.3238, 1445.938
335.8059, 1444.629
336.2880, 1440.668
336.7701, 1437.595
337.2523, 1436.293
337.7344, 1435.012
338.2165, 1432.561
338.6986, 1429.486
339.1807, 1427.006
339.6628, 1425.629
340.1450, 1425.478
340.6271, 1427.546
341.1092, 1433.949
341.5913, 1438.372
342.0735, 1437.876
342.5556, 1434.493
343.0377, 1430.265
343.5198, 1425.651
344.0019, 1421.388
344.4840, 1419.021
344.9662, 1419.080
345.4483, 1418.639
345.9304, 1415.313
346.4125, 1412.059
346.8946, 1411.683
347.3767, 1414.585
347.8589, 1417.373
348.3410, 1416.203
348.8231, 1411.196
349.3052, 1407.406
349.7873, 1405.682
350.2694, 1405.272
350.7516, 1406.088
351.2337, 1407.798
351.7158, 1409.109
352.1979, 1409.111
352.6800, 1408.109
353.1621, 1407.013
353.6443, 1405.657
354.1264, 1404.628
354.6085, 1404.551
355.0906, 1404.964
355.5727, 1405.118
356.0548, 1404.520
356.5370, 1403.865
357.0191, 1404.381
357.5012, 1406.230
357.9833, 1407.465
358.4654, 1406.867
358.9475, 1405.457
359.4297, 1404.516
359.9118, 1404.265
360.3939, 1403.949
360.8760, 1402.484
361.3581, 1400.279
361.8402, 1399.647
362.3224, 1401.908
362.8045, 1404.641
363.2866, 1404.917
363.7687, 1403.020
364.2508, 1401.771
364.7329, 1403.066
365.2151, 1405.454
365.6972, 1406.332
366.1793, 1405.281
366.6614, 1403.974
367.1435, 1403.795
367.6256, 1404.363
368.1078, 1404.493
368.5899, 1404.143
369.0720, 1403.217
369.5541, 1401.012
370.0362, 1397.830
370.5183, 1395.837
371.0005, 1396.451
371.4826, 1398.543
371.9647, 1399.438
372.4468, 1398.639
372.9289, 1398.049
373.4110, 1399.020
373.8932, 1400.582
374.3753, 1400.836
374.8574, 1399.203
375.3395, 1396.688
375.8216, 1394.357
376.3037, 1392.159
376.7859, 1390.608
377.2680, 1389.916
377.7501, 1389.771
378.2322, 1390.273
378.7143, 1391.258
379.1964, 1391.709
379.6786, 1390.622
380.1607, 1388.241
380.6428, 1387.320
381.1249, 1389.622
381.6070, 1391.234
382.0891, 1389.903
382.5713, 1387.016
383.0534, 1385.478
383.5355, 1386.637
384.0176, 1389.023
384.4997, 1389.406
384.9818, 1385.569
385.4640, 1383.332
385.9461, 1384.318
386.4282, 1386.030
386.9103, 1386.473
387.3924, 1385.308
387.8745, 1383.132
388.3567, 1380.441
388.8388, 1377.043
389.3209, 1374.582
389.8030, 1373.526
390.2851, 1372.749
390.7672, 1371.718
391.2494, 1370.644
391.7315, 1370.172
392.2136, 1370.752
392.6957, 1371.904
393.1778, 1371.693
393.6599, 1368.220
394.1421, 1366.077
394.6242, 1366.869
395.1063, 1368.383
395.5884, 1368.461
396.0706, 1366.642
396.5527, 1364.240
397.0348, 1363.026
397.5169, 1363.350
397.9990, 1363.471
398.4811, 1363.600
398.9633, 1363.309
399.4454, 1362.088
399.9275, 1360.269
400.4096, 1358.630
400.8917, 1357.689
401.3738, 1357.365
401.8560, 1357.394
402.3381, 1358.163
402.8202, 1358.552
403.3023, 1357.621
403.7844, 1356.481
404.2665, 1356.609
404.7487, 1358.548
405.2308, 1360.502
405.7129, 1359.731
406.1950, 1356.014
406.6771, 1353.739
407.1592, 1354.708
407.6414, 1356.335
408.1235, 1356.714
408.6056, 1355.998
409.0877, 1355.285
409.5698, 1355.166
410.0519, 1355.493
410.5341, 1355.988
411.0162, 1356.700
411.4983, 1357.322
411.9804, 1357.397
412.4625, 1357.313
412.9446, 1357.791
413.4268, 1359.255
413.9089, 1360.767
414.3910, 1361.336
414.8731, 1361.210
415.3552, 1361.650
415.8373, 1363.225
416.3195, 1365.258
416.8016, 1366.573
417.2837, 1367.071
417.7658, 1368.288
418.2479, 1371.482
418.7300, 1375.157
419.2122, 1377.437
419.6943, 1378.171
420.1764, 1378.708
420.6585, 1380.106
421.1406, 1382.279
421.6227, 1384.090
422.1049, 1384.737
422.5870, 1385.932
423.0691, 1389.084
423.5512, 1393.127
424.0333, 1395.999
424.5154, 1396.828
424.9976, 1396.648
425.4797, 1397.359
425.9618, 1399.433
426.4439, 1401.564
426.9260, 1404.259
427.4081, 1406.652
427.8903, 1408.042
428.3724, 1408.499
428.8545, 1408.558
429.3366, 1408.583
429.8187, 1408.611
430.3008, 1409.295
430.7830, 1411.720
431.2651, 1413.641
431.7472, 1414.262
432.2293, 1414.359
432.7114, 1415.088
433.1935, 1416.838
433.6757, 1418.597
434.1578, 1418.556
434.6399, 1416.178
435.1220, 1413.857
435.6041, 1411.272
436.0862, 1409.184
436.5684, 1408.480
437.0505, 1408.705
437.5326, 1408.392
438.0147, 1406.369
438.4968, 1403.085
438.9789, 1399.996
439.4611, 1396.859
439.9432, 1394.548
440.4253, 1394.193
440.9074, 1394.498
441.3895, 1394.112
441.8716, 1392.698
442.3538, 1390.981
442.8359, 1389.243
443.3180, 1387.628
443.8001, 1387.274
444.2822, 1389.048
444.7643, 1390.950
445.2465, 1390.767
445.7286, 1388.945
446.2107, 1387.301
446.6928, 1385.771
447.1749, 1385.011
447.6570, 1386.301
448.1392, 1389.382
448.6213, 1391.790
449.1034, 1391.880
449.5855, 1390.729
450.0677, 1391.625
450.5498, 1396.161
451.0319, 1399.034
451.5140, 1397.379
451.9961, 1394.017
452.4782, 1392.699
452.9604, 1394.021
453.4425, 1395.589
453.9246, 1394.904
454.4067, 1391.716
454.8888, 1388.821
455.3709, 1386.304
455.8531, 1383.952
456.3352, 1382.076
456.8173, 1380.242
457.2994, 1377.692
457.7815, 1374.084
458.2636, 1369.790
458.7458, 1365.364
459.2279, 1359.774
459.7100, 1356.335
460.1921, 1357.188
460.6742, 1358.198
461.1563, 1356.702
461.6385, 1352.998
462.1206, 1349.178
462.6027, 1346.946
463.0848, 1345.905
463.5669, 1343.971
464.0490, 1340.847
464.5312, 1337.407
465.0133, 1332.942
465.4954, 1328.827
465.9775, 1326.853
466.4596, 1327.552
466.9417, 1328.540
467.4239, 1327.668
467.9060, 1325.107
468.3881, 1321.788
468.8702, 1317.245
469.3523, 1313.129
469.8344, 1311.406
470.3166, 1311.312
470.7987, 1310.702
471.2808, 1308.361
471.7629, 1305.840
472.2450, 1304.604
472.7271, 1304.476
473.2093, 1304.718
473.6914, 1305.351
474.1735, 1305.612
474.6556, 1303.525
475.1377, 1298.022
475.6198, 1294.143
476.1020, 1293.551
476.5841, 1294.250
477.0662, 1295.039
477.5483, 1295.524
478.0304, 1294.902
478.5125, 1292.329
478.9947, 1288.157
479.4768, 1285.657
479.9589, 1285.687
480.4410, 1286.341
480.9231, 1287.900
481.4052, 1289.693
481.8874, 1291.303
482.3695, 1292.520
482.8516, 1292.886
483.3337, 1291.511
483.8158, 1288.042
484.2979, 1285.864
484.7801, 1285.925
485.2622, 1286.288
485.7443, 1286.626
486.2264, 1286.737
486.7085, 1286.294
487.1906, 1285.079
487.6728, 1283.559
488.1549, 1282.215
488.6370, 1281.018
489.1191, 1280.606
489.6012, 1281.475
490.0833, 1282.812
490.5655, 1284.148
491.0476, 1285.403
491.5297, 1285.983
492.0118, 1285.302
492.4939, 1284.021
492.9760, 1282.877
493.4582, 1281.892
493.9403, 1281.027
494.4224, 1280.117
494.9045, 1279.449
495.3866, 1279.971
495.8687, 1282.444
496.3509, 1284.016
496.8330, 1283.078
497.3151, 1281.452
497.7972, 1281.089
498.2793, 1282.174
498.7614, 1283.845
499.2436, 1285.534
499.7257, 1287.165
500.2078, 1287.470
500.6899, 1285.416
501.1720, 1283.264
501.6541, 1280.924
502.1363, 1278.884
502.6184, 1277.825
503.1005, 1277.838
503.5826, 1278.135
504.0647, 1277.694
504.5468, 1276.422
505.0290, 1275.420
505.5111, 1275.053
505.9932, 1274.515
506.4753, 1273.552
506.9575, 1272.221
507.4396, 1270.637
507.9217, 1268.868
508.4038, 1266.779
508.8859, 1263.462
509.3680, 1259.096
509.8502, 1257.402
510.3323, 1260.662
510.8144, 1264.442
511.2965, 1263.848
511.7786, 1259.669
512.2607, 1255.946
512.7429, 1254.191
513.2250, 1252.884
513.7071, 1250.585
514.1892, 1247.521
514.6713, 1244.765
515.1534, 1242.811
515.6356, 1241.329
516.1177, 1239.688
516.5998, 1237.876
517.0819, 1235.889
517.5640, 1233.252
518.0461, 1230.841
518.5283, 1229.360
519.0104, 1228.674
519.4925, 1228.239
519.9746, 1227.716
520.4567, 1227.110
520.9388, 1226.434
521.4210, 1225.591
521.9031, 1224.843
522.3852, 1224.579
522.8673, 1224.119
523.3494, 1222.627
523.8315, 1220.297
524.3137, 1218.389
524.7958, 1218.309
525.2779, 1219.362
525.7600, 1218.842
526.2421, 1216.186
526.7242, 1214.067
527.2064, 1213.898
527.6885, 1214.824
528.1706, 1215.991
528.6527, 1217.508
529.1348, 1218.344
529.6169, 1217.629
530.0991, 1216.031
530.5812, 1214.427
531.0633, 1212.945
531.5454, 1212.085
532.0275, 1212.494
532.5096, 1213.849
532.9918, 1213.868
533.4739, 1211.631
533.9560, 1209.477
534.4381, 1207.576
534.9202, 1206.157
535.4023, 1205.663
535.8845, 1206.064
536.3666, 1206.702
536.8487, 1206.951
537.3308, 1206.811
537.8129, 1206.368
538.2950, 1204.831
538.7772, 1204.061
539.2593, 1205.232
539.7414, 1206.947
540.2235, 1207.423
540.7056, 1206.252
541.1877, 1205.221
541.6699, 1206.694
542.1520, 1210.172
542.6341, 1212.133
543.1162, 1212.095
543.5983, 1211.098
544.0804, 1209.077
544.5626, 1206.694
545.0447, 1205.226
545.5268, 1205.073
546.0089, 1205.420
546.4910, 1206.079
546.9731, 1206.848
547.4553, 1207.282
547.9374, 1207.288
548.4195, 1207.270
548.9016, 1207.811
549.3837, 1208.956
549.8658, 1208.421
550.3480, 1204.599
550.8301, 1201.324
551.3122, 1199.188
551.7943, 1198.397
552.2764, 1199.750
552.7585, 1203.179
553.2407, 1206.781
553.7228, 1208.128
554.2049, 1207.077
554.6870, 1206.384
555.1691, 1206.265
555.6512, 1206.211
556.1334, 1206.384
556.6155, 1206.372
557.0976, 1205.308
557.5797, 1202.763
558.0618, 1200.714
558.5439, 1201.664
559.0261, 1204.688
559.5082, 1206.238
559.9903, 1205.637
560.4724, 1204.433
560.9545, 1203.751
561.4366, 1203.444
561.9188, 1202.750
562.4009, 1201.712
562.8830, 1200.232
563.3651, 1197.239
563.8472, 1194.201
564.3293, 1193.515
564.8115, 1195.519
565.2936, 1198.226
565.7757, 1199.674
566.2578, 1199.866
566.7399, 1200.107
567.2220, 1200.644
567.7042, 1200.927
568.1863, 1200.627
568.6684, 1200.162
569.1505, 1199.969
569.6326, 1200.130
570.1147, 1200.389
570.5969, 1200.268
571.0790, 1199.936
571.5611, 1200.703
572.0432, 1203.116
572.5253, 1205.072
573.0074, 1205.146
573.4896, 1204.242
573.9717, 1203.643
574.4538, 1203.422
574.9359, 1203.588
575.4180, 1204.527
575.9001, 1205.685
576.3823, 1206.133
576.8644, 1205.843
577.3465, 1205.629
577.8286, 1206.008
578.3107, 1206.983
578.7928, 1208.561
579.2750, 1211.618
579.7571, 1214.136
580.2392, 1216.423
580.7213, 1217.814
581.2034, 1217.017
581.6855, 1214.581
582.1677, 1212.884
582.6498, 1213.954
583.1319, 1216.861
583.6140, 1218.184
584.0961, 1217.262
584.5782, 1217.017
585.0604, 1218.395
585.5425, 1220.698
586.0246, 1223.973
586.5067, 1228.016
586.9889, 1230.685
587.4710, 1229.952
587.9531, 1228.103
588.4352, 1227.448
588.9174, 1228.041
589.3995, 1230.160
589.8816, 1234.381
590.3637, 1238.813
590.8458, 1239.964
