##NAMES=Fenaksite
##RRUFFID=R080135
##IDEAL CHEMISTRY=KNaFe^2+^Si_4_O_10_
##LOCALITY=Yukspor Mountain, Khibiny Massif, Kola Peninsula, Russia
##OWNER=RRUFF
##SOURCE=Michael Scott
##DESCRIPTION=Light yellow, transparent, elongated prismatic to platy crystals, associated with dark gray to colorless delhayelite (R070096), brown lamprophyllite, elongated blue aegerine, and grayish brown lomonosovite 
##STATUS=The identification of this mineral has been confirmed by single-crystal X-ray diffraction.
##URL=rruff.info/R080135
95.22955, 269.1809
95.71167, 265.3597
96.19379, 263.2560
96.67590, 264.1934
97.15802, 264.2921
97.64014, 262.8106
98.12225, 260.2003
98.60437, 257.3186
99.08649, 254.7340
99.56860, 251.7404
100.0507, 247.2358
100.5328, 240.5698
101.0150, 233.6041
101.4971, 227.7170
101.9792, 222.8925
102.4613, 218.3924
102.9434, 213.9061
103.4255, 209.5547
103.9077, 205.3484
104.3898, 201.1993
104.8719, 197.3775
105.3540, 194.5885
105.8361, 193.7535
106.3182, 192.2916
106.8004, 189.3701
107.2825, 185.6523
107.7646, 181.7939
108.2467, 178.1227
108.7288, 174.6720
109.2109, 172.0786
109.6931, 170.8598
110.1752, 169.9221
110.6573, 168.8488
111.1394, 167.7799
111.6215, 167.1837
112.1036, 167.5328
112.5858, 169.0029
113.0679, 170.2096
113.5500, 171.1776
114.0321, 171.8954
114.5142, 172.2697
114.9964, 172.2868
115.4785, 172.1809
115.9606, 172.0422
116.4427, 171.8649
116.9248, 172.3231
117.4069, 174.0339
117.8891, 176.4583
118.3712, 178.5081
118.8533, 179.9120
119.3354, 180.9437
119.8175, 181.6298
120.2996, 182.0313
120.7818, 182.9191
121.2639, 185.2771
121.7460, 189.1861
122.2281, 192.3078
122.7102, 193.5340
123.1923, 194.2642
123.6745, 195.0493
124.1566, 196.0211
124.6387, 197.1594
125.1208, 198.5548
125.6029, 200.6609
126.0850, 201.9932
126.5672, 202.5221
127.0493, 202.3732
127.5314, 201.6973
128.0135, 200.5459
128.4956, 198.8078
128.9777, 196.1043
129.4599, 190.7527
129.9420, 186.2983
130.4241, 183.3851
130.9062, 181.4575
131.3883, 179.7451
131.8704, 177.8579
132.3526, 175.7947
132.8347, 173.5255
133.3168, 170.9238
133.7989, 168.2915
134.2810, 165.8004
134.7632, 163.4070
135.2453, 160.8627
135.7274, 157.8601
136.2095, 154.5898
136.6916, 151.7278
137.1737, 149.4453
137.6559, 147.4909
138.1380, 145.6421
138.6201, 143.9176
139.1022, 142.1953
139.5843, 140.1181
140.0664, 138.0009
140.5486, 136.3869
141.0307, 135.5689
141.5128, 135.3950
141.9949, 135.4974
142.4770, 136.1630
142.9591, 136.6721
143.4413, 136.6182
143.9234, 136.2124
144.4055, 135.8387
144.8876, 135.7692
145.3697, 136.0048
145.8518, 136.3017
146.3340, 136.6293
146.8161, 137.0533
147.2982, 137.7966
147.7803, 138.7069
148.2624, 139.3682
148.7445, 139.2853
149.2267, 138.1142
149.7088, 137.6687
150.1909, 138.1874
150.6730, 139.0524
151.1551, 140.0006
151.6372, 140.9633
152.1194, 141.9492
152.6015, 143.0186
153.0836, 144.3417
153.5657, 145.1424
154.0478, 145.0166
154.5299, 144.5631
155.0121, 144.1718
155.4942, 143.8974
155.9763, 144.1318
156.4584, 145.8923
156.9405, 149.3329
157.4226, 152.2663
157.9048, 154.1807
158.3869, 155.1751
158.8690, 155.1685
159.3511, 153.4797
159.8332, 151.8661
160.3153, 152.5636
160.7975, 155.5869
161.2796, 158.9617
161.7617, 161.8413
162.2438, 164.2027
162.7259, 165.4707
163.2081, 164.5293
163.6902, 163.1932
164.1723, 162.9223
164.6544, 163.8477
165.1365, 164.9963
165.6186, 165.3418
166.1008, 164.7565
166.5829, 163.9216
167.0650, 162.6581
167.5471, 161.3757
168.0292, 160.2733
168.5113, 159.4160
168.9935, 158.8432
169.4756, 158.7626
169.9577, 159.9409
170.4398, 160.0623
170.9219, 158.5302
171.4040, 156.3015
171.8862, 154.1038
172.3683, 152.2180
172.8504, 150.5133
173.3325, 148.6532
173.8146, 146.1024
174.2967, 144.0884
174.7789, 143.1516
175.2610, 142.5980
175.7431, 141.4888
176.2252, 139.3538
176.7073, 136.6807
177.1894, 135.1311
177.6716, 135.8165
178.1537, 136.1219
178.6358, 135.1708
179.1179, 133.5158
179.6000, 132.2689
180.0821, 132.0775
180.5643, 132.5251
181.0464, 132.2564
181.5285, 130.6122
182.0106, 129.3214
182.4927, 129.4458
182.9748, 130.7213
183.4570, 131.9690
183.9391, 132.6550
184.4212, 132.9200
184.9033, 133.1597
185.3854, 133.3773
185.8675, 133.5728
186.3497, 133.7385
186.8318, 133.8736
187.3139, 133.9968
187.7960, 133.8795
188.2781, 133.8812
188.7602, 134.4773
189.2424, 135.9126
189.7245, 137.6250
190.2066, 138.8875
190.6887, 139.6047
191.1708, 140.2134
191.6530, 140.8242
192.1351, 141.4221
192.6172, 142.0918
193.0993, 142.9225
193.5814, 143.5911
194.0635, 143.2096
194.5457, 140.6955
195.0278, 139.3600
195.5099, 140.7831
195.9920, 143.1260
196.4741, 144.5723
196.9562, 144.2919
197.4384, 142.8411
197.9205, 141.7866
198.4026, 141.1469
198.8847, 140.9778
199.3668, 141.4389
199.8489, 142.2780
200.3311, 143.2837
200.8132, 144.3575
201.2953, 145.4368
201.7774, 146.2611
202.2595, 146.6905
202.7416, 146.9965
203.2238, 147.0957
203.7059, 147.1107
204.1880, 147.2210
204.6701, 147.5279
205.1522, 147.9751
205.6343, 148.3081
206.1165, 148.2724
206.5986, 148.4265
207.0807, 148.9381
207.5628, 149.7196
208.0449, 150.7182
208.5270, 152.0083
209.0092, 153.3462
209.4913, 153.6656
209.9734, 152.0462
210.4555, 150.7346
210.9376, 150.7316
211.4197, 151.6877
211.9019, 152.5730
212.3840, 152.7095
212.8661, 152.6079
213.3482, 153.6938
213.8303, 156.7406
214.3124, 159.6362
214.7946, 160.8394
215.2767, 160.6845
215.7588, 160.9891
216.2409, 162.7523
216.7230, 165.3457
217.2052, 167.4341
217.6873, 168.6633
218.1694, 170.0958
218.6515, 172.6942
219.1336, 176.4261
219.6157, 180.1307
220.0979, 183.1684
220.5800, 186.1378
221.0621, 189.8020
221.5442, 194.3965
222.0263, 199.0580
222.5084, 202.7058
222.9906, 205.2123
223.4727, 208.2827
223.9548, 212.8435
224.4369, 217.9548
224.9190, 223.0751
225.4011, 228.1518
225.8833, 232.9752
226.3654, 237.1890
226.8475, 240.5730
227.3296, 244.3319
227.8117, 249.6176
228.2938, 254.7712
228.7760, 258.7974
229.2581, 261.4900
229.7402, 263.0675
230.2223, 263.6646
230.7044, 262.9869
231.1865, 262.2480
231.6687, 262.5060
232.1508, 262.1177
232.6329, 259.8096
233.1150, 255.4357
233.5971, 250.0500
234.0792, 245.1430
234.5614, 241.1665
235.0435, 236.5239
235.5256, 230.9941
236.0077, 225.0371
236.4898, 218.5898
236.9719, 211.8410
237.4541, 205.4152
237.9362, 200.2868
238.4183, 197.2969
238.9004, 193.6428
239.3825, 188.5866
239.8646, 183.5573
240.3468, 179.5908
240.8289, 176.7520
241.3110, 174.3320
241.7931, 171.3236
242.2752, 167.1302
242.7573, 164.2691
243.2395, 163.6667
243.7216, 163.4909
244.2037, 162.4925
244.6858, 160.5795
245.1679, 158.5431
245.6501, 157.2237
246.1322, 156.7195
246.6143, 156.8076
247.0964, 158.0925
247.5785, 159.4511
248.0606, 160.0294
248.5428, 159.8163
249.0249, 159.4949
249.5070, 159.7241
249.9891, 160.6104
250.4712, 161.4576
250.9533, 162.1637
251.4355, 162.9137
251.9176, 163.7767
252.3997, 164.7786
252.8818, 166.0069
253.3639, 167.5260
253.8460, 169.3792
254.3282, 171.4691
254.8103, 174.0417
255.2924, 176.6517
255.7745, 179.0081
256.2566, 181.1006
256.7387, 182.9523
257.2209, 184.3713
257.7030, 185.5533
258.1851, 187.5524
258.6672, 191.2777
259.1493, 195.0724
259.6314, 197.6454
260.1136, 199.1087
260.5957, 200.5952
261.0778, 202.8339
261.5599, 205.5793
262.0420, 207.9712
262.5241, 209.4383
263.0063, 211.2184
263.4884, 214.6042
263.9705, 219.3804
264.4526, 223.6228
264.9347, 226.1393
265.4168, 227.7158
265.8990, 229.9552
266.3811, 233.1776
266.8632, 236.4621
267.3453, 239.1366
267.8274, 241.2616
268.3095, 243.4116
268.7917, 246.0933
269.2738, 248.5616
269.7559, 249.7943
270.2380, 249.5795
270.7201, 249.2116
271.2022, 249.6908
271.6844, 250.8716
272.1665, 251.8825
272.6486, 253.0847
273.1307, 253.2703
273.6128, 251.1847
274.0949, 246.8376
274.5771, 242.2238
275.0592, 239.0654
275.5413, 236.9367
276.0234, 233.1624
276.5055, 225.9409
276.9876, 218.8495
277.4698, 214.8732
277.9519, 213.5213
278.4340, 212.2608
278.9161, 209.4414
279.3982, 205.4145
279.8803, 201.5846
280.3625, 197.6628
280.8446, 194.6311
281.3267, 193.0998
281.8088, 192.7704
282.2909, 192.9972
282.7730, 193.8868
283.2552, 195.0504
283.7373, 194.9203
284.2194, 192.3798
284.7015, 190.6858
285.1836, 192.0305
285.6658, 194.9509
286.1479, 197.3371
286.6300, 198.2667
287.1121, 198.0404
287.5942, 197.2168
288.0764, 195.5871
288.5585, 193.8303
289.0406, 192.2231
289.5227, 190.6241
290.0048, 188.9950
290.4869, 187.3838
290.9691, 185.4549
291.4512, 182.5247
291.9333, 178.3256
292.4154, 173.9850
292.8975, 169.8707
293.3796, 165.7062
293.8618, 161.2280
294.3439, 156.3683
294.8260, 151.4310
295.3081, 146.7320
295.7902, 142.2358
296.2723, 138.1811
296.7545, 134.6736
297.2366, 131.6027
297.7187, 129.1973
298.2008, 127.3674
298.6829, 125.4860
299.1650, 122.7218
299.6472, 118.8998
300.1293, 115.7842
300.6114, 114.0017
301.0935, 112.5400
301.5756, 110.9280
302.0577, 109.2391
302.5399, 107.8074
303.0220, 106.9624
303.5041, 106.6810
303.9862, 106.4308
304.4683, 106.3015
304.9504, 106.0940
305.4326, 105.5733
305.9147, 104.9403
306.3968, 104.6177
306.8789, 105.0003
307.3610, 105.8095
307.8431, 105.7281
308.3253, 103.8407
308.8074, 102.5159
309.2895, 102.8262
309.7716, 103.8368
310.2537, 104.3571
310.7358, 103.8132
311.2180, 102.7779
311.7001, 102.6316
312.1822, 104.0061
312.6643, 104.8562
313.1464, 104.0669
313.6285, 103.0816
314.1107, 103.1625
314.5928, 104.6325
315.0749, 106.7001
315.5570, 108.2993
316.0391, 109.3799
316.5212, 110.1569
317.0034, 110.0726
317.4855, 110.1388
317.9676, 110.9813
318.4497, 112.6067
318.9318, 114.5457
319.4139, 116.3519
319.8961, 117.9995
320.3782, 119.7398
320.8603, 121.5114
321.3424, 123.4481
321.8245, 125.9675
322.3066, 128.7285
322.7888, 130.9232
323.2709, 131.7608
323.7530, 131.4800
324.2351, 131.8842
324.7172, 133.7360
325.1993, 135.2063
325.6815, 135.6860
326.1636, 135.4986
326.6457, 135.0841
327.1278, 134.6334
327.6099, 134.1370
328.0920, 133.6072
328.5742, 133.1791
329.0563, 132.3938
329.5384, 131.4115
330.0205, 129.9373
330.5026, 127.5492
330.9847, 124.1227
331.4669, 120.2604
331.9490, 116.7089
332.4311, 113.4596
332.9132, 110.5655
333.3953, 108.0069
333.8774, 105.8435
334.3596, 104.4155
334.8417, 103.6053
335.3238, 102.7099
335.8059, 100.8540
336.2880, 98.01048
336.7701, 95.90601
337.2523, 95.08680
337.7344, 94.48848
338.2165, 93.66611
338.6986, 92.67081
339.1807, 91.63988
339.6628, 90.55228
340.1450, 89.52089
340.6271, 89.03836
341.1092, 89.45384
341.5913, 89.74819
342.0735, 89.32436
342.5556, 88.64264
343.0377, 88.29720
343.5198, 88.56578
344.0019, 89.08002
344.4840, 89.23194
344.9662, 88.93974
345.4483, 88.65144
345.9304, 88.59336
346.4125, 88.53137
346.8946, 88.20819
347.3767, 87.58620
347.8589, 87.06731
348.3410, 87.15177
348.8231, 87.82001
349.3052, 88.23731
349.7873, 87.97279
350.2694, 87.80254
350.7516, 88.38924
351.2337, 89.56941
351.7158, 90.61853
352.1979, 91.09743
352.6800, 91.11450
353.1621, 90.95490
353.6443, 90.48074
354.1264, 90.15955
354.6085, 90.28981
355.0906, 90.73763
355.5727, 91.39220
356.0548, 92.50319
356.5370, 93.46281
357.0191, 93.18412
357.5012, 91.52586
357.9833, 90.23124
358.4654, 90.24492
358.9475, 90.88793
359.4297, 91.27506
359.9118, 91.22856
360.3939, 91.41998
360.8760, 92.44785
361.3581, 94.17918
361.8402, 96.04422
362.3224, 98.13304
362.8045, 99.94292
363.2866, 100.7317
363.7687, 100.6191
364.2508, 100.7841
364.7329, 101.9940
365.2151, 103.6809
365.6972, 104.9516
366.1793, 105.7371
366.6614, 106.0697
367.1435, 105.4686
367.6256, 104.4140
368.1078, 104.4072
368.5899, 106.6494
369.0720, 109.1721
369.5541, 110.3042
370.0362, 110.2140
370.5183, 109.9463
371.0005, 109.8646
371.4826, 110.0218
371.9647, 110.5576
372.4468, 111.6546
372.9289, 112.6206
373.4110, 113.4012
373.8932, 113.8311
374.3753, 113.3651
374.8574, 111.7433
375.3395, 109.9453
375.8216, 109.2067
376.3037, 109.6073
376.7859, 110.4125
377.2680, 112.0500
377.7501, 113.7335
378.2322, 114.5886
378.7143, 114.6768
379.1964, 114.9512
379.6786, 116.1620
380.1607, 118.2286
380.6428, 120.1203
381.1249, 121.8820
381.6070, 123.4378
382.0891, 124.6230
382.5713, 125.6052
383.0534, 126.7344
383.5355, 128.1835
384.0176, 129.7386
384.4997, 130.9485
384.9818, 131.6292
385.4640, 132.2346
385.9461, 132.9054
386.4282, 133.4211
386.9103, 133.5975
387.3924, 133.4070
387.8745, 132.9444
388.3567, 132.3659
388.8388, 131.7772
389.3209, 130.2424
389.8030, 126.9824
390.2851, 123.7239
390.7672, 121.2217
391.2494, 119.2170
391.7315, 117.0616
392.2136, 114.3601
392.6957, 111.3030
393.1778, 108.6766
393.6599, 106.8272
394.1421, 104.9452
394.6242, 103.0425
395.1063, 101.0185
395.5884, 98.62452
396.0706, 95.86388
396.5527, 93.26455
397.0348, 91.63997
397.5169, 91.35826
397.9990, 90.61456
398.4811, 88.89207
398.9633, 87.17225
399.4454, 85.78774
399.9275, 84.72925
400.4096, 83.83997
400.8917, 82.98911
401.3738, 82.24391
401.8560, 81.99037
402.3381, 82.70348
402.8202, 82.99059
403.3023, 81.88868
403.7844, 80.45858
404.2665, 79.82503
404.7487, 80.34155
405.2308, 81.40200
405.7129, 82.47346
406.1950, 83.59445
406.6771, 84.09869
407.1592, 83.29763
407.6414, 82.42115
408.1235, 82.39143
408.6056, 83.11062
409.0877, 83.93513
409.5698, 84.38344
410.0519, 84.68990
410.5341, 85.44109
411.0162, 86.71150
411.4983, 88.18841
411.9804, 90.00471
412.4625, 91.81884
412.9446, 93.00909
413.4268, 93.36215
413.9089, 93.26610
414.3910, 92.76212
414.8731, 91.98170
415.3552, 91.59456
415.8373, 91.89804
416.3195, 92.54588
416.8016, 93.11308
417.2837, 93.62643
417.7658, 93.91550
418.2479, 93.71915
418.7300, 93.38890
419.2122, 93.40975
419.6943, 93.81268
420.1764, 94.12411
420.6585, 93.90587
421.1406, 93.22918
421.6227, 92.93780
422.1049, 93.34117
422.5870, 93.74541
423.0691, 93.99480
423.5512, 94.03780
424.0333, 93.63383
424.5154, 92.65643
424.9976, 91.63313
425.4797, 91.60749
425.9618, 93.46614
426.4439, 94.55446
426.9260, 94.77068
427.4081, 94.33890
427.8903, 92.93153
428.3724, 90.87569
428.8545, 89.28638
429.3366, 89.12719
429.8187, 90.33311
430.3008, 91.43130
430.7830, 92.57754
431.2651, 93.42609
431.7472, 93.70499
432.2293, 93.73659
432.7114, 93.75743
433.1935, 93.87434
433.6757, 94.35943
434.1578, 95.81620
434.6399, 98.62885
435.1220, 101.0306
435.6041, 102.7080
436.0862, 104.0751
436.5684, 105.2321
437.0505, 106.2243
437.5326, 107.1520
438.0147, 108.1977
438.4968, 109.1925
438.9789, 109.3668
439.4611, 108.2365
439.9432, 107.5141
440.4253, 108.3739
440.9074, 109.7967
441.3895, 110.8267
441.8716, 111.2964
442.3538, 111.2244
442.8359, 110.6447
443.3180, 109.5431
443.8001, 107.7559
444.2822, 104.9619
444.7643, 101.9894
445.2465, 99.77894
445.7286, 98.12835
446.2107, 96.20878
446.6928, 93.31761
447.1749, 90.37135
447.6570, 88.50171
448.1392, 87.61267
448.6213, 86.55038
449.1034, 84.56611
449.5855, 82.14445
450.0677, 80.64596
450.5498, 80.16168
451.0319, 80.16890
451.5140, 81.18074
451.9961, 82.32424
452.4782, 82.16066
452.9604, 80.53780
453.4425, 79.07943
453.9246, 79.56529
454.4067, 82.25502
454.8888, 84.16647
455.3709, 85.09801
455.8531, 85.61922
456.3352, 85.59639
456.8173, 85.37224
457.2994, 85.48766
457.7815, 86.19434
458.2636, 87.26715
458.7458, 88.26643
459.2279, 89.26649
459.7100, 90.02334
460.1921, 90.59610
460.6742, 90.90768
461.1563, 90.89507
461.6385, 90.57228
462.1206, 90.00175
462.6027, 89.22308
463.0848, 88.23756
463.5669, 87.03324
464.0490, 85.54655
464.5312, 83.97674
465.0133, 82.39174
465.4954, 80.76967
465.9775, 78.99686
466.4596, 77.01308
466.9417, 75.20638
467.4239, 74.06573
467.9060, 73.48094
468.3881, 72.66780
468.8702, 71.41928
469.3523, 70.10390
469.8344, 69.01401
470.3166, 68.10308
470.7987, 67.28250
471.2808, 66.45101
471.7629, 65.76239
472.2450, 65.49318
472.7271, 65.54735
473.2093, 65.35358
473.6914, 64.54302
474.1735, 63.59849
474.6556, 63.56178
475.1377, 64.70686
475.6198, 65.66434
476.1020, 66.18433
476.5841, 66.46752
477.0662, 66.59096
477.5483, 66.61711
478.0304, 66.74441
478.5125, 67.13944
478.9947, 67.76518
479.4768, 68.28212
479.9589, 68.55550
480.4410, 68.88982
480.9231, 69.58226
481.4052, 70.21975
481.8874, 70.20108
482.3695, 69.46443
482.8516, 68.68257
483.3337, 68.63240
483.8158, 69.34557
484.2979, 70.54900
484.7801, 72.86517
485.2622, 74.97253
485.7443, 76.56614
486.2264, 77.61541
486.7085, 77.92679
487.1906, 77.23021
487.6728, 76.45940
488.1549, 77.07358
488.6370, 79.15222
489.1191, 81.44353
489.6012, 84.19914
490.0833, 86.46538
490.5655, 87.29079
491.0476, 86.85175
491.5297, 86.34393
492.0118, 86.08928
492.4939, 86.11375
492.9760, 86.64986
493.4582, 87.65788
493.9403, 88.34348
494.4224, 88.18434
494.9045, 87.55026
495.3866, 87.40260
495.8687, 87.89601
496.3509, 88.37894
496.8330, 88.43729
497.3151, 88.56218
497.7972, 89.48573
498.2793, 91.17140
498.7614, 92.71038
499.2436, 93.22153
499.7257, 92.80183
500.2078, 93.28722
500.6899, 95.63206
501.1720, 97.73210
501.6541, 99.19123
502.1363, 100.2696
502.6184, 101.0757
503.1005, 101.7211
503.5826, 102.6618
504.0647, 104.7191
504.5468, 108.1074
505.0290, 110.4002
505.5111, 110.5530
505.9932, 110.8976
506.4753, 112.5666
506.9575, 114.9512
507.4396, 117.1580
507.9217, 118.9514
508.4038, 120.1597
508.8859, 120.5692
509.3680, 120.1833
509.8502, 118.9865
510.3323, 116.6091
510.8144, 113.9947
511.2965, 112.1882
511.7786, 111.0310
512.2607, 109.5840
512.7429, 107.0810
513.2250, 104.6240
513.7071, 103.3413
514.1892, 102.9914
514.6713, 102.5099
515.1534, 101.4606
515.6356, 99.90663
516.1177, 97.87443
516.5998, 94.66851
517.0819, 92.57069
517.5640, 92.29328
518.0461, 92.60650
518.5283, 93.02734
519.0104, 93.30980
519.4925, 93.10426
519.9746, 92.18040
520.4567, 90.59895
520.9388, 88.49079
521.4210, 85.22325
521.9031, 82.63217
522.3852, 81.40099
522.8673, 80.46449
523.3494, 79.12444
523.8315, 77.32943
524.3137, 75.37440
524.7958, 73.44958
525.2779, 71.55704
525.7600, 69.65469
526.2421, 67.63075
526.7242, 66.03845
527.2064, 65.44869
527.6885, 65.26556
528.1706, 64.72169
528.6527, 63.71418
529.1348, 62.64067
529.6169, 61.58557
530.0991, 60.63322
530.5812, 60.03042
531.0633, 59.79759
531.5454, 59.40670
532.0275, 58.33385
532.5096, 56.76681
532.9918, 56.05070
533.4739, 56.75552
533.9560, 57.43369
534.4381, 57.99504
534.9202, 58.27514
535.4023, 57.97377
535.8845, 57.10762
536.3666, 56.09398
536.8487, 55.33438
537.3308, 54.82650
537.8129, 54.49889
538.2950, 54.55762
538.7772, 54.52828
539.2593, 54.03262
539.7414, 53.53606
540.2235, 53.59339
540.7056, 54.33676
541.1877, 55.31503
541.6699, 56.28032
542.1520, 57.15897
542.6341, 57.27858
543.1162, 56.20467
543.5983, 55.32531
544.0804, 56.02262
544.5626, 57.44030
545.0447, 57.92852
545.5268, 56.89526
546.0089, 55.62714
546.4910, 54.46758
546.9731, 53.67803
547.4553, 54.13641
547.9374, 56.04346
548.4195, 57.74393
548.9016, 57.44593
549.3837, 55.07914
549.8658, 54.08430
550.3480, 55.63260
550.8301, 56.89521
551.3122, 57.03917
551.7943, 56.49230
552.2764, 55.65070
552.7585, 54.69368
553.2407, 53.88081
553.7228, 53.58755
554.2049, 53.85016
554.6870, 53.91703
555.1691, 53.25748
555.6512, 53.18812
556.1334, 54.65055
556.6155, 56.71182
557.0976, 58.18253
557.5797, 58.72260
558.0618, 58.85482
558.5439, 58.95597
559.0261, 59.02778
559.5082, 59.02873
559.9903, 58.90302
560.4724, 58.95799
560.9545, 59.69857
561.4366, 60.84127
561.9188, 61.04589
562.4009, 59.12690
562.8830, 57.74340
563.3651, 58.25612
563.8472, 59.73791
564.3293, 61.07093
564.8115, 61.95941
565.2936, 62.35909
565.7757, 62.08078
566.2578, 61.11831
566.7399, 61.23642
567.2220, 64.02742
567.7042, 65.99215
568.1863, 65.82137
568.6684, 64.95123
569.1505, 64.88510
569.6326, 65.91981
570.1147, 67.21609
570.5969, 67.77328
571.0790, 67.79949
571.5611, 68.69711
572.0432, 70.73193
572.5253, 72.92744
573.0074, 74.73961
573.4896, 76.43233
573.9717, 78.43431
574.4538, 80.82934
574.9359, 83.31137
575.4180, 85.32591
575.9001, 87.52958
576.3823, 91.05597
576.8644, 95.94516
577.3465, 101.0023
577.8286, 105.3052
578.3107, 109.1464
578.7928, 113.9704
579.2750, 121.0042
579.7571, 127.4450
580.2392, 132.3291
580.7213, 137.1390
581.2034, 143.3653
581.6855, 150.7826
582.1677, 157.8817
582.6498, 163.2493
583.1319, 167.6714
583.6140, 173.8265
584.0961, 182.0605
584.5782, 190.9364
585.0604, 200.5515
585.5425, 210.3472
586.0246, 219.6396
586.5067, 228.5331
586.9889, 238.0138
587.4710, 248.3149
587.9531, 259.5627
588.4352, 272.1197
588.9174, 285.8255
