##NAMES=Ferberite
##RRUFFID=R050632
##IDEAL CHEMISTRY=Fe^2+^W^6+^O_4_
##LOCALITY=Chance mine, Boulder, Colorado, USA
##OWNER=RRUFF
##SOURCE=University of Arizona Mineral Museum
##DESCRIPTION=Dark brown rectangular prismatic crystals
##STATUS=The identification of this mineral has been confirmed by X-ray diffraction and chemical analysis
##URL=rruff.info/R050632
##MEASURED CHEMISTRY=Fe^2+^_1.00_WO_4_
92.02539, 489.1508
92.50751, 509.7334
92.98962, 523.0116
93.47174, 516.0806
93.95386, 499.7418
94.43597, 479.6022
94.91809, 457.8489
95.40021, 435.6880
95.88232, 415.5787
96.36444, 399.5381
96.84656, 382.7961
97.32867, 362.8057
97.81078, 341.5968
98.29290, 322.5197
98.77502, 308.0296
99.25713, 297.8457
99.73925, 289.2084
100.2214, 284.2751
100.7035, 278.6769
101.1856, 269.4624
101.6677, 256.8950
102.1498, 244.1046
102.6320, 234.8887
103.1141, 230.5996
103.5962, 227.0795
104.0783, 223.9860
104.5604, 221.7061
105.0425, 220.8415
105.5247, 221.6575
106.0068, 223.5230
106.4889, 225.7221
106.9710, 228.6074
107.4531, 230.3377
107.9352, 229.2350
108.4173, 225.8625
108.8995, 223.2811
109.3816, 222.3216
109.8637, 222.9694
110.3458, 225.1306
110.8279, 228.9451
111.3100, 233.7694
111.7922, 238.9034
112.2743, 244.2891
112.7564, 250.1303
113.2385, 257.3520
113.7206, 264.6436
114.2027, 270.7974
114.6849, 275.1884
115.1670, 278.2556
115.6491, 281.4512
116.1312, 285.1208
116.6133, 288.5393
117.0954, 291.3548
117.5776, 293.8808
118.0597, 296.3870
118.5418, 298.9255
119.0239, 301.4716
119.5060, 306.7246
119.9881, 315.7209
120.4703, 325.8058
120.9524, 336.1725
121.4345, 346.6857
121.9166, 357.5484
122.3987, 369.0883
122.8808, 381.4526
123.3630, 392.5479
123.8451, 400.9889
124.3272, 408.8862
124.8093, 418.2187
125.2914, 429.4070
125.7735, 441.5060
126.2557, 454.2047
126.7378, 467.2868
127.2199, 478.9820
127.7020, 487.7488
128.1841, 494.4280
128.6662, 501.6133
129.1483, 510.2106
129.6305, 518.8148
130.1126, 527.4974
130.5947, 535.9742
131.0768, 541.8828
131.5589, 545.0504
132.0410, 546.3890
132.5232, 537.4064
133.0053, 512.8648
133.4874, 480.0379
133.9695, 438.7172
134.4516, 389.9367
134.9337, 339.7859
135.4159, 297.0504
135.8980, 263.3235
136.3801, 234.9375
136.8622, 211.1403
137.3443, 191.6976
137.8264, 177.2696
138.3086, 167.9392
138.7907, 162.2899
139.2728, 156.6824
139.7549, 150.8577
140.2370, 145.3524
140.7191, 139.7532
141.2013, 134.5524
141.6834, 130.5923
142.1655, 128.4419
142.6476, 127.7083
143.1297, 126.6592
143.6118, 124.8451
144.0939, 123.2477
144.5761, 122.4717
145.0582, 122.3488
145.5403, 122.0655
146.0224, 120.9990
146.5045, 119.4577
146.9866, 118.3874
147.4688, 117.9910
147.9509, 117.9433
148.4330, 118.0980
148.9151, 118.5319
149.3972, 118.6817
149.8793, 117.6783
150.3615, 116.2770
150.8436, 115.4938
151.3257, 116.1377
151.8078, 117.4055
152.2899, 117.3160
152.7720, 114.9874
153.2542, 112.8121
153.7363, 111.7485
154.2184, 111.4419
154.7005, 111.4244
155.1826, 111.6010
155.6647, 111.8743
156.1469, 111.1768
156.6290, 107.7878
157.1111, 105.0973
157.5932, 104.4112
158.0753, 105.1671
158.5574, 106.0752
159.0396, 106.0144
159.5217, 104.8280
160.0038, 104.1145
160.4859, 104.2697
160.9680, 104.4699
161.4501, 104.2541
161.9323, 103.6953
162.4144, 103.2610
162.8965, 103.4785
163.3786, 104.5964
163.8607, 105.2922
164.3428, 105.2406
164.8250, 105.0304
165.3071, 105.1570
165.7892, 105.6817
166.2713, 106.1879
166.7534, 106.0539
167.2355, 105.1299
167.7177, 104.7408
168.1998, 105.4014
168.6819, 106.5421
169.1640, 107.4756
169.6461, 108.0731
170.1282, 108.4143
170.6104, 108.4950
171.0925, 108.3492
171.5746, 108.2180
172.0567, 108.0464
172.5388, 107.9441
173.0209, 108.2724
173.5031, 109.2564
173.9852, 110.4943
174.4673, 111.6750
174.9494, 112.7925
175.4315, 113.8065
175.9136, 114.7018
176.3958, 115.4789
176.8779, 116.1155
177.3600, 117.0814
177.8421, 117.4263
178.3242, 116.1432
178.8063, 113.3873
179.2885, 110.6513
179.7706, 109.6223
180.2527, 110.7466
180.7348, 111.6524
181.2169, 112.1821
181.6990, 112.4603
182.1812, 112.5643
182.6633, 112.4928
183.1454, 112.1569
183.6275, 111.2984
184.1096, 109.2418
184.5917, 108.1574
185.0738, 108.2904
185.5560, 109.0267
186.0381, 110.1454
186.5202, 111.5141
187.0023, 112.8800
187.4844, 113.7923
187.9665, 113.8278
188.4487, 114.0549
188.9308, 114.2099
189.4129, 114.6667
189.8950, 115.9984
190.3771, 118.3700
190.8592, 121.1187
191.3414, 122.9010
191.8235, 122.9915
192.3056, 123.4792
192.7877, 124.8202
193.2698, 126.6075
193.7519, 128.2736
194.2341, 129.5927
194.7162, 130.8227
195.1983, 132.6439
195.6804, 135.3359
196.1625, 137.5759
196.6446, 138.5030
197.1268, 138.6878
197.6089, 139.5428
198.0910, 141.8031
198.5731, 144.5113
199.0552, 146.0248
199.5373, 146.1452
200.0195, 146.3919
200.5016, 147.7003
200.9837, 149.8946
201.4658, 152.0246
201.9479, 153.6463
202.4300, 155.2995
202.9122, 157.7659
203.3943, 161.1875
203.8764, 164.2401
204.3585, 165.7416
204.8406, 165.7055
205.3227, 165.4603
205.8048, 165.0159
206.2870, 164.6992
206.7691, 164.8847
207.2512, 165.6010
207.7333, 166.2863
208.2154, 166.4578
208.6975, 166.1463
209.1797, 165.1235
209.6618, 163.3003
210.1439, 160.7471
210.6260, 157.1498
211.1081, 152.5573
211.5902, 147.7140
212.0724, 143.6127
212.5545, 140.5568
213.0366, 137.4093
213.5187, 134.2288
214.0008, 130.8573
214.4829, 126.9512
214.9651, 122.5563
215.4472, 118.2023
215.9293, 114.6818
216.4114, 112.2647
216.8935, 110.2171
217.3756, 108.6809
217.8578, 107.3237
218.3399, 105.8624
218.8220, 104.2628
219.3041, 102.7278
219.7862, 101.6080
220.2683, 101.2691
220.7505, 100.6459
221.2326, 99.42789
221.7147, 98.14745
222.1968, 97.39402
222.6789, 97.24428
223.1610, 97.07189
223.6432, 95.86990
224.1253, 92.58381
224.6074, 90.50642
225.0895, 90.63316
225.5716, 91.39491
226.0537, 91.14198
226.5358, 89.52645
227.0180, 87.82233
227.5001, 88.00052
227.9822, 91.00439
228.4643, 92.87569
228.9464, 92.47103
229.4285, 91.24023
229.9107, 90.76254
230.3928, 91.40401
230.8749, 92.38872
231.3570, 92.76331
231.8391, 92.50471
232.3212, 92.01009
232.8034, 91.06627
233.2855, 90.02152
233.7676, 89.23975
234.2497, 88.75842
234.7318, 88.70741
235.2139, 89.68811
235.6961, 91.53970
236.1782, 92.62978
236.6603, 92.05466
237.1424, 90.61977
237.6245, 89.46940
238.1066, 88.71145
238.5888, 88.33593
239.0709, 88.50751
239.5530, 89.08357
240.0351, 89.68609
240.5172, 90.04038
240.9993, 90.36794
241.4815, 91.26449
241.9636, 93.10197
242.4457, 94.61964
242.9278, 94.42041
243.4099, 93.21975
243.8920, 92.49956
244.3742, 93.20724
244.8563, 94.76820
245.3384, 95.91650
245.8205, 96.63724
246.3026, 96.94275
246.7847, 96.65491
247.2668, 96.02417
247.7490, 95.39378
248.2311, 94.69750
248.7132, 94.20974
249.1953, 94.79552
249.6774, 97.15756
250.1595, 99.15778
250.6417, 99.60600
251.1238, 99.28708
251.6059, 99.16099
252.0880, 99.65102
252.5701, 100.6118
253.0522, 101.8012
253.5344, 103.6005
254.0165, 104.8242
254.4986, 104.6179
254.9807, 103.9336
255.4628, 103.8978
255.9449, 105.0759
256.4271, 106.8679
256.9092, 107.7345
257.3913, 106.7074
257.8734, 106.6394
258.3555, 108.8115
258.8376, 111.6821
259.3198, 113.8314
259.8019, 114.6958
260.2840, 114.7402
260.7661, 114.8934
261.2482, 115.1551
261.7303, 115.5440
262.2125, 116.0831
262.6946, 116.7119
263.1767, 117.3348
263.6588, 117.9350
264.1409, 118.6330
264.6230, 119.7290
265.1052, 121.7414
265.5873, 123.1020
266.0694, 123.6280
266.5515, 123.6759
267.0336, 123.4344
267.5157, 122.9765
267.9979, 122.3377
268.4800, 121.5443
268.9621, 120.4709
269.4442, 119.5242
269.9263, 118.9418
270.4084, 118.2901
270.8906, 117.1581
271.3727, 115.5669
271.8548, 113.9697
272.3369, 112.9341
272.8190, 112.6587
273.3011, 112.3340
273.7833, 112.7322
274.2654, 112.4791
274.7475, 110.1319
275.2296, 106.0826
275.7117, 102.2783
276.1938, 100.7271
276.6760, 101.8608
277.1581, 102.6700
277.6402, 103.3313
278.1223, 103.6009
278.6044, 103.0901
279.0865, 102.0189
279.5686, 101.0783
280.0508, 100.8677
280.5329, 101.4109
281.0150, 101.5243
281.4971, 100.6875
281.9792, 100.0361
282.4613, 100.0511
282.9435, 100.5943
283.4256, 101.3551
283.9077, 102.1960
284.3898, 103.0467
284.8719, 103.2038
285.3540, 101.7473
285.8362, 100.7373
286.3183, 101.0477
286.8004, 102.1456
287.2825, 103.0055
287.7646, 103.0682
288.2467, 102.6347
288.7289, 102.7778
289.2110, 104.5262
289.6931, 105.5474
290.1752, 104.6045
290.6573, 102.9467
291.1394, 102.4847
291.6216, 104.0012
292.1037, 106.5458
292.5858, 108.2171
293.0679, 108.8034
293.5500, 108.9043
294.0321, 108.1053
294.5143, 107.0493
294.9964, 106.3517
295.4785, 106.1796
295.9606, 106.5814
296.4427, 107.7723
296.9248, 110.2747
297.4070, 111.9188
297.8891, 111.7426
298.3712, 111.2081
298.8533, 111.8418
299.3354, 113.7967
299.8175, 115.8034
300.2997, 116.5336
300.7818, 115.7241
301.2639, 115.1414
301.7460, 114.8105
302.2281, 114.6822
302.7102, 114.6484
303.1924, 114.7439
303.6745, 115.1560
304.1566, 115.9724
304.6387, 117.2569
305.1208, 119.3232
305.6029, 123.5466
306.0851, 127.1693
306.5672, 128.1587
307.0493, 127.2494
307.5314, 126.9433
308.0135, 128.7885
308.4956, 132.2075
308.9778, 134.6029
309.4599, 134.9064
309.9420, 135.6973
310.4241, 138.0073
310.9062, 141.3584
311.3883, 144.8830
311.8705, 148.2576
312.3526, 151.4898
312.8347, 154.5214
313.3168, 157.2968
313.7989, 160.0702
314.2810, 163.0314
314.7632, 165.9667
315.2453, 168.4701
315.7274, 170.3954
316.2095, 172.3111
316.6916, 174.9890
317.1737, 178.5281
317.6559, 182.5345
318.1380, 188.0119
318.6201, 193.3342
319.1022, 196.6477
319.5843, 197.8225
320.0664, 198.6162
320.5485, 200.7515
321.0306, 204.3576
321.5128, 207.1232
321.9949, 207.9766
322.4770, 208.9263
322.9591, 211.7005
323.4412, 215.9426
323.9233, 219.7361
324.4055, 221.7276
324.8876, 222.1603
325.3697, 222.8581
325.8518, 224.7500
326.3339, 225.8830
326.8160, 225.2814
327.2982, 223.3921
327.7803, 221.1168
328.2624, 218.8106
328.7445, 216.5078
329.2266, 214.3255
329.7087, 212.5883
330.1909, 210.3904
330.6730, 207.3199
331.1551, 203.7875
331.6372, 200.2508
332.1193, 196.8391
332.6014, 193.6047
333.0836, 190.6377
333.5657, 188.0821
334.0478, 185.3819
334.5299, 182.3190
335.0120, 179.2536
335.4941, 176.4853
335.9763, 174.0557
336.4584, 171.7558
336.9405, 169.4131
337.4226, 167.0113
337.9047, 164.7005
338.3868, 162.0066
338.8690, 159.8007
339.3511, 158.9369
339.8332, 159.0099
340.3153, 158.7138
340.7974, 157.1136
341.2795, 154.5372
341.7617, 153.1573
342.2438, 154.2151
342.7259, 154.8214
343.2080, 154.1346
343.6901, 152.6443
344.1722, 151.0648
344.6544, 149.6943
345.1365, 148.4151
345.6186, 146.9838
346.1007, 145.1521
346.5828, 143.5521
347.0649, 142.2363
347.5471, 141.1367
348.0292, 140.3540
348.5113, 139.8438
348.9934, 139.1761
349.4755, 137.7276
349.9576, 135.0181
350.4398, 133.6092
350.9219, 134.9845
351.4040, 136.1114
351.8861, 135.1862
352.3682, 132.5415
352.8503, 129.5085
353.3325, 127.0003
353.8146, 125.0444
354.2967, 124.1025
354.7788, 125.6384
355.2609, 126.5133
355.7430, 125.7317
356.2252, 123.9775
356.7073, 122.2040
357.1894, 120.8625
357.6715, 119.8059
358.1536, 118.6069
358.6357, 116.6043
359.1179, 115.5424
359.5999, 116.5814
360.0821, 117.8150
360.5642, 117.5533
361.0463, 115.5420
361.5284, 112.8668
362.0105, 110.7786
362.4926, 109.2522
362.9748, 108.4615
363.4569, 109.0810
363.9390, 109.7559
364.4211, 109.9461
364.9032, 109.6906
365.3853, 109.2927
365.8675, 109.0270
366.3496, 108.8250
366.8317, 107.9783
367.3138, 105.4983
367.7959, 103.6421
368.2780, 103.1879
368.7602, 103.5020
369.2423, 103.8945
369.7244, 104.0829
370.2065, 104.0053
370.6886, 103.4448
371.1707, 102.0965
371.6529, 101.0415
372.1350, 100.4109
372.6171, 100.1094
373.0992, 100.2963
373.5813, 100.8942
374.0634, 101.3548
374.5456, 100.9676
375.0277, 99.67874
375.5098, 98.73176
375.9919, 98.20841
376.4740, 98.02125
376.9561, 98.04562
377.4383, 98.34741
377.9204, 99.13112
378.4025, 100.7775
378.8846, 102.8408
379.3667, 103.9320
379.8488, 103.5652
380.3310, 103.4883
380.8131, 104.7595
381.2952, 106.5173
381.7773, 107.8665
382.2594, 108.5196
382.7415, 109.0218
383.2237, 109.9541
383.7058, 111.3154
384.1879, 112.7839
384.6700, 114.4385
385.1521, 116.0094
385.6342, 117.2188
386.1164, 118.0852
386.5985, 118.9855
387.0806, 120.1218
387.5627, 121.4322
388.0448, 122.6979
388.5269, 123.7882
389.0091, 125.2087
389.4912, 127.7470
389.9733, 130.9035
390.4554, 133.5725
390.9375, 135.4322
391.4196, 136.8166
391.9018, 137.8796
392.3839, 138.6620
392.8660, 139.4718
393.3481, 140.3669
393.8302, 141.4522
394.3123, 143.0303
394.7945, 145.3926
395.2766, 147.2886
395.7587, 147.9369
396.2408, 147.8690
396.7229, 148.0407
397.2050, 148.6996
397.6872, 149.2648
398.1693, 148.9618
398.6514, 147.6835
399.1335, 146.9342
399.6156, 147.9931
400.0977, 148.6150
400.5798, 146.9684
401.0620, 143.3240
401.5441, 139.1349
402.0262, 135.1917
402.5083, 131.5000
402.9904, 128.2038
403.4725, 125.9025
403.9547, 123.1927
404.4368, 119.4277
404.9189, 115.2508
405.4010, 111.3916
405.8831, 108.1063
406.3652, 105.3760
406.8474, 103.2582
407.3295, 102.1593
407.8116, 100.5172
408.2937, 97.68916
408.7758, 94.95830
409.2579, 93.05922
409.7401, 91.91439
410.2222, 90.98460
410.7043, 89.81324
411.1864, 88.51956
411.6685, 88.14161
412.1506, 90.49729
412.6328, 91.49723
413.1149, 89.17834
413.5970, 85.83393
414.0791, 84.22558
414.5612, 85.24258
415.0433, 87.19705
415.5255, 87.29153
416.0076, 84.75072
416.4897, 83.03318
416.9718, 82.86992
417.4539, 83.14613
417.9360, 83.70794
418.4182, 84.32663
418.9003, 84.46394
419.3824, 83.49709
419.8645, 81.76364
420.3466, 80.80934
420.8287, 80.95071
421.3109, 81.23593
421.7930, 81.36163
422.2751, 81.38127
422.7572, 81.39265
423.2393, 81.46261
423.7214, 81.34123
424.2036, 80.49943
424.6857, 78.98770
425.1678, 78.16453
425.6499, 78.79984
426.1320, 79.62675
426.6141, 79.19861
427.0963, 77.71655
427.5784, 76.78738
428.0605, 77.61691
428.5426, 79.19312
429.0247, 79.92825
429.5068, 79.71164
429.9890, 79.25974
430.4711, 78.93157
430.9532, 78.72488
431.4353, 78.58234
431.9174, 78.45245
432.3995, 78.46292
432.8817, 78.76601
433.3638, 79.24654
433.8459, 79.70425
434.3280, 80.09270
434.8101, 80.31798
435.2922, 80.13402
435.7744, 79.29141
436.2565, 79.15691
436.7386, 80.48183
437.2207, 81.96415
437.7028, 82.72530
438.1849, 82.78775
438.6671, 82.56479
439.1492, 82.31560
439.6313, 82.03211
440.1134, 81.67135
440.5955, 80.84960
441.0776, 80.43155
441.5598, 81.06756
442.0418, 81.87268
442.5240, 81.70485
443.0061, 80.37681
443.4882, 78.92567
443.9703, 78.82748
444.4524, 80.52475
444.9345, 81.49519
445.4167, 80.88404
445.8988, 80.38042
446.3809, 80.92699
446.8630, 81.99184
447.3451, 82.39254
447.8272, 81.31126
448.3094, 79.51010
448.7915, 79.08739
449.2736, 80.70797
449.7557, 81.80312
450.2378, 81.06435
450.7199, 80.02782
451.2021, 79.96725
451.6842, 80.95900
452.1663, 81.77877
452.6484, 80.92883
453.1305, 78.97059
453.6126, 78.66724
454.0948, 80.86225
454.5769, 83.09290
455.0590, 83.42727
455.5411, 82.67783
456.0232, 82.20496
456.5053, 82.46908
456.9875, 82.86803
457.4696, 82.89921
457.9517, 82.62548
458.4338, 82.24425
458.9159, 81.66769
459.3980, 81.31540
459.8802, 82.15066
460.3623, 84.35471
460.8444, 85.73824
461.3265, 85.34598
461.8086, 84.35159
462.2907, 83.63438
462.7729, 83.29954
463.2550, 83.36690
463.7371, 83.95323
464.2192, 84.89241
464.7013, 85.22686
465.1834, 84.58423
465.6656, 83.85896
466.1477, 82.88386
466.6298, 82.02908
467.1119, 81.70660
467.5940, 82.00008
468.0761, 82.69678
468.5583, 83.57314
469.0404, 84.66825
469.5225, 85.73913
470.0046, 87.32644
470.4867, 88.31571
470.9688, 87.84499
471.4510, 86.64714
471.9331, 86.00953
472.4152, 86.60346
472.8973, 87.63587
473.3794, 87.31409
473.8615, 85.05278
474.3437, 83.95092
474.8258, 85.92326
475.3079, 88.15163
475.7900, 88.73647
476.2721, 87.84239
476.7542, 86.97477
477.2364, 87.49889
477.7185, 88.60289
478.2006, 87.97755
478.6827, 85.17786
479.1648, 83.33676
479.6469, 84.62798
480.1291, 87.68965
480.6112, 90.07616
481.0933, 91.69962
481.5754, 92.60854
482.0575, 92.25109
482.5396, 91.32368
483.0217, 91.22422
483.5038, 92.25609
483.9860, 93.54754
484.4681, 94.28311
484.9502, 94.43042
485.4323, 94.68417
485.9144, 94.87334
486.3965, 95.33789
486.8787, 96.41904
487.3608, 97.84428
487.8429, 99.15335
488.3250, 100.1655
488.8071, 100.9349
489.2892, 101.5804
489.7714, 102.2959
490.2535, 102.3772
490.7356, 100.6834
491.2177, 99.51751
491.6998, 100.4782
492.1819, 102.9572
492.6641, 105.2755
493.1462, 106.3235
493.6283, 106.5954
494.1104, 107.6329
494.5925, 109.8640
495.0746, 111.6894
495.5568, 112.1478
496.0389, 112.4672
496.5210, 113.6801
497.0031, 115.7794
497.4852, 117.7135
497.9673, 118.5305
498.4495, 118.6252
498.9316, 119.0608
499.4137, 119.8997
499.8958, 120.9671
500.3779, 122.3178
500.8600, 123.7961
501.3422, 125.0838
501.8243, 126.1551
502.3064, 127.0650
502.7885, 127.6826
503.2706, 128.2038
503.7527, 129.1406
504.2349, 130.6110
504.7170, 131.9139
505.1991, 132.3170
505.6812, 131.7619
506.1633, 131.3104
506.6454, 130.7002
507.1276, 130.4666
507.6097, 131.1826
508.0918, 132.2952
508.5739, 132.8103
509.0560, 132.3878
509.5381, 131.7859
510.0203, 132.4103
510.5024, 135.0564
510.9845, 136.1978
511.4666, 134.5724
511.9487, 132.6841
512.4308, 131.1607
512.9130, 130.1308
513.3951, 129.7253
513.8772, 130.0934
514.3593, 130.8694
514.8414, 131.4693
515.3235, 131.9144
515.8057, 131.9684
516.2878, 130.9191
516.7699, 130.1435
517.2520, 131.2587
517.7341, 133.9296
518.2162, 135.7343
518.6984, 134.7561
519.1805, 132.8768
519.6626, 132.5337
520.1447, 133.6880
520.6268, 135.2805
521.1089, 137.0831
521.5911, 138.7028
522.0732, 139.0298
522.5553, 137.6242
523.0374, 136.4969
523.5195, 135.9553
524.0016, 135.8467
524.4838, 136.1767
524.9659, 136.8551
525.4480, 137.6301
525.9301, 138.3423
526.4122, 138.9639
526.8943, 139.3432
527.3765, 139.0791
527.8586, 139.1528
528.3407, 140.4214
528.8228, 141.5103
529.3049, 140.9772
529.7870, 138.8925
530.2692, 136.7696
530.7513, 136.0608
531.2334, 136.4756
531.7155, 136.1823
532.1976, 134.7815
532.6797, 133.6089
533.1619, 133.6127
533.6440, 133.9447
534.1261, 133.7121
534.6082, 132.7338
535.0903, 131.6111
535.5724, 130.8309
536.0546, 130.1644
536.5367, 128.9527
537.0188, 127.0615
537.5009, 125.4266
537.9830, 124.9826
538.4651, 125.3782
538.9473, 124.6769
539.4294, 121.6499
539.9115, 119.1718
540.3936, 118.5669
540.8757, 118.6939
541.3578, 118.2041
541.8400, 116.8158
542.3221, 114.9207
542.8042, 112.8055
543.2863, 110.4530
543.7684, 108.9618
544.2505, 108.9507
544.7326, 109.1228
545.2147, 109.8280
545.6968, 110.2987
546.1790, 109.3691
546.6611, 106.8559
547.1432, 104.3192
547.6253, 103.9003
548.1074, 105.3239
548.5895, 105.2780
549.0717, 103.0849
549.5538, 100.6092
550.0359, 98.67369
550.5180, 97.24338
551.0001, 96.40810
551.4822, 96.43216
551.9644, 96.45037
552.4465, 95.92349
552.9286, 95.00298
553.4107, 93.85747
553.8928, 92.50769
554.3749, 91.44274
554.8571, 91.21548
555.3392, 91.78941
555.8213, 91.79782
556.3034, 91.16780
556.7855, 90.15768
557.2676, 88.48991
557.7498, 86.63720
558.2319, 85.10745
558.7140, 84.03681
559.1961, 83.36826
559.6782, 83.13505
560.1603, 83.34827
560.6425, 83.11614
561.1246, 81.81474
561.6067, 81.00511
562.0888, 81.80115
562.5709, 82.97301
563.0530, 82.97025
563.5352, 81.38935
564.0173, 79.60645
564.4994, 78.77920
564.9815, 78.69236
565.4636, 78.76664
565.9457, 79.03922
566.4279, 78.94996
566.9100, 77.83302
567.3921, 76.10148
567.8742, 75.21730
568.3563, 75.54491
568.8384, 76.09946
569.3206, 76.82594
569.8027, 77.45774
570.2848, 77.61764
570.7669, 77.28368
571.2490, 76.75801
571.7311, 76.29215
572.2133, 75.87798
572.6954, 75.44176
573.1775, 74.81901
573.6596, 74.40998
574.1417, 74.31783
574.6238, 74.41206
575.1060, 74.74653
575.5881, 75.22935
576.0702, 75.41711
576.5523, 74.73962
577.0344, 73.48927
577.5165, 72.78085
577.9987, 72.70673
578.4808, 72.76479
578.9629, 72.66158
579.4450, 72.65022
579.9271, 73.19399
580.4092, 74.42685
580.8914, 75.30218
581.3735, 75.57518
581.8556, 75.19778
582.3377, 73.66732
582.8198, 71.25094
583.3019, 69.31133
583.7841, 68.62348
584.2662, 68.97247
584.7483, 69.79659
585.2304, 71.78455
585.7125, 73.10418
586.1946, 73.54239
586.6768, 73.55279
587.1589, 73.10635
587.6410, 72.47329
588.1231, 72.23476
588.6052, 72.77937
