##NAMES=Ferberite
##RRUFFID=R050090
##IDEAL CHEMISTRY=Fe^2+^W^6+^O_4_
##LOCALITY=Yaogangxian mine, Cheng Zhu City, South Hunan, China
##OWNER=RRUFF
##SOURCE=Rock Currier
##DESCRIPTION=Dark gray tabular crystal
##STATUS=The identification of this mineral has been confirmed by X-ray diffraction and chemical analysis
##URL=rruff.info/R050090
##MEASURED CHEMISTRY=(Fe^2+^_0.56_Mn_0.44_)W_1.00_O_4_
106.0836, 48.10418
106.5657, 53.54263
107.0478, 58.28645
107.5299, 61.55997
108.0120, 60.59517
108.4941, 53.73636
108.9763, 49.48227
109.4584, 52.56832
109.9405, 60.68210
110.4226, 67.33279
110.9047, 69.24482
111.3868, 69.95268
111.8690, 75.15595
112.3511, 85.36676
112.8332, 97.83160
113.3153, 110.9691
113.7974, 124.8602
114.2795, 140.0676
114.7617, 157.0945
115.2438, 175.5297
115.7259, 195.1224
116.2080, 216.1928
116.6901, 237.2668
117.1722, 256.9199
117.6544, 275.2133
118.1365, 292.2390
118.6186, 307.2665
119.1007, 321.2862
119.5828, 334.7729
120.0649, 347.5219
120.5471, 360.5661
121.0292, 375.4110
121.5113, 392.2007
121.9934, 410.4897
122.4755, 428.3785
122.9576, 448.3369
123.4398, 472.5879
123.9219, 501.9594
124.4040, 536.5693
124.8861, 576.3468
125.3682, 622.0495
125.8503, 673.2136
126.3325, 724.4084
126.8146, 781.5324
127.2967, 851.8382
127.7788, 938.6929
128.2609, 1040.999
128.7430, 1151.435
129.2252, 1273.415
129.7073, 1400.508
130.1894, 1554.124
130.6715, 1707.345
131.1536, 1825.528
131.6357, 1888.562
132.1179, 1897.879
132.6000, 1863.754
133.0821, 1742.371
133.5642, 1619.417
134.0463, 1511.774
134.5284, 1413.813
135.0106, 1310.764
135.4927, 1191.376
135.9748, 1057.437
136.4569, 949.9149
136.9390, 877.6761
137.4211, 819.8502
137.9033, 772.5186
138.3854, 734.8661
138.8675, 706.5726
139.3496, 688.0185
139.8317, 679.3217
140.3138, 673.9901
140.7960, 671.0376
141.2781, 671.4139
141.7602, 673.8286
142.2423, 679.4504
142.7244, 692.2154
143.2065, 716.0347
143.6887, 751.3112
144.1708, 786.5500
144.6529, 820.8787
145.1350, 855.7495
145.6171, 890.9792
146.0992, 927.0128
146.5814, 966.4365
147.0635, 1012.867
147.5456, 1066.133
148.0277, 1112.205
148.5098, 1149.780
148.9919, 1181.327
149.4741, 1212.138
149.9562, 1241.905
150.4383, 1259.227
150.9204, 1253.196
151.4025, 1223.767
151.8846, 1187.822
152.3668, 1140.066
152.8489, 1089.894
153.3310, 1043.607
153.8131, 1001.630
154.2952, 966.9849
154.7773, 945.0945
155.2595, 933.4590
155.7416, 921.4883
156.2237, 904.8907
156.7058, 888.4976
157.1879, 877.3980
157.6700, 871.8561
158.1522, 871.4503
158.6343, 879.5065
159.1164, 892.8796
159.5985, 904.0674
160.0806, 909.8411
160.5627, 912.8574
161.0449, 916.5583
161.5270, 920.9634
162.0091, 926.2110
162.4912, 934.0688
162.9733, 942.8281
163.4554, 949.1472
163.9376, 949.0264
164.4197, 946.4999
164.9018, 948.7584
165.3839, 956.3212
165.8660, 967.3433
166.3481, 983.0275
166.8303, 1001.046
167.3124, 1017.498
167.7945, 1030.674
168.2766, 1041.391
168.7587, 1052.694
169.2408, 1067.701
169.7230, 1075.817
170.2051, 1068.006
170.6872, 1050.844
171.1693, 1034.207
171.6514, 1023.260
172.1335, 1015.451
172.6157, 1003.430
173.0978, 983.4238
173.5799, 966.9818
174.0620, 959.7609
174.5441, 958.6371
175.0262, 959.6734
175.5084, 961.4109
175.9905, 963.7744
176.4726, 967.0262
176.9547, 972.8753
177.4368, 976.2488
177.9189, 974.6868
178.4010, 970.0323
178.8832, 964.0620
179.3653, 956.2131
179.8474, 948.8613
180.3295, 950.0585
180.8116, 966.3666
181.2937, 979.6744
181.7759, 981.0136
182.2580, 977.5035
182.7401, 978.1342
183.2222, 987.7881
183.7043, 1003.487
184.1864, 1016.707
184.6686, 1025.724
185.1507, 1035.048
185.6328, 1044.955
186.1149, 1056.018
186.5970, 1068.769
187.0791, 1083.358
187.5613, 1100.048
188.0434, 1120.029
188.5255, 1143.969
189.0076, 1170.241
189.4897, 1199.422
189.9718, 1229.712
190.4540, 1259.646
190.9361, 1288.357
191.4182, 1316.252
191.9003, 1343.277
192.3824, 1364.221
192.8645, 1394.663
193.3467, 1441.807
193.8288, 1495.865
194.3109, 1547.451
194.7930, 1592.812
195.2751, 1635.346
195.7572, 1682.270
196.2394, 1737.562
196.7215, 1790.512
197.2036, 1838.574
197.6857, 1884.836
198.1678, 1930.185
198.6499, 1975.281
199.1321, 2023.001
199.6142, 2079.626
200.0963, 2151.291
200.5784, 2220.073
201.0605, 2279.377
201.5426, 2338.882
202.0248, 2402.585
202.5069, 2472.748
202.9890, 2552.869
203.4711, 2653.394
203.9532, 2794.959
204.4353, 2908.775
204.9175, 2979.460
205.3996, 3034.981
205.8817, 3095.440
206.3638, 3164.219
206.8459, 3229.406
207.3280, 3276.710
207.8102, 3307.502
208.2923, 3313.405
208.7744, 3295.930
209.2565, 3256.453
209.7386, 3194.908
210.2207, 3111.645
210.7029, 3006.418
211.1850, 2873.848
211.6671, 2703.007
212.1492, 2547.821
212.6313, 2417.706
213.1134, 2294.700
213.5956, 2169.743
214.0777, 2043.808
214.5598, 1923.702
215.0419, 1815.646
215.5240, 1719.934
216.0061, 1637.097
216.4883, 1573.704
216.9704, 1516.469
217.4525, 1461.547
217.9346, 1408.539
218.4167, 1357.608
218.8988, 1308.041
219.3810, 1259.610
219.8631, 1221.025
220.3452, 1199.113
220.8273, 1181.068
221.3094, 1166.017
221.7915, 1152.263
222.2737, 1137.246
222.7558, 1119.014
223.2379, 1097.881
223.7200, 1078.735
224.2021, 1058.058
224.6842, 1043.817
225.1664, 1041.166
225.6485, 1045.219
226.1306, 1049.098
226.6127, 1048.927
227.0948, 1045.417
227.5770, 1041.583
228.0591, 1038.258
228.5412, 1033.275
229.0233, 1023.283
229.5054, 1012.650
229.9875, 1007.346
230.4697, 1010.263
230.9518, 1017.187
231.4339, 1016.815
231.9160, 1000.681
232.3981, 992.0944
232.8802, 999.4294
233.3624, 1011.452
233.8445, 1018.620
234.3266, 1017.752
234.8087, 1012.089
235.2908, 1006.365
235.7729, 998.6078
236.2551, 995.7513
236.7372, 1002.540
237.2193, 1010.854
237.7014, 1013.810
238.1835, 1010.776
238.6656, 1008.181
239.1478, 1015.896
239.6299, 1038.725
240.1120, 1053.973
240.5941, 1051.861
241.0762, 1049.367
241.5583, 1056.769
242.0405, 1072.971
242.5226, 1088.235
243.0047, 1091.455
243.4868, 1081.107
243.9689, 1077.035
244.4510, 1080.129
244.9332, 1089.526
245.4153, 1108.178
245.8974, 1133.309
246.3795, 1158.110
246.8616, 1176.805
247.3437, 1190.635
247.8259, 1210.073
248.3080, 1240.411
248.7901, 1269.568
249.2722, 1289.552
249.7543, 1306.361
250.2364, 1330.080
250.7186, 1367.697
251.2007, 1414.225
251.6828, 1454.965
252.1649, 1486.475
252.6470, 1519.439
253.1291, 1556.689
253.6113, 1597.104
254.0934, 1640.485
254.5755, 1687.437
255.0576, 1734.633
255.5397, 1775.012
256.0219, 1804.875
256.5040, 1841.704
256.9861, 1897.526
257.4682, 1958.235
257.9503, 2012.552
258.4324, 2057.762
258.9146, 2105.074
259.3967, 2171.141
259.8788, 2257.361
260.3609, 2331.849
260.8430, 2380.859
261.3251, 2423.270
261.8073, 2473.948
262.2894, 2532.837
262.7715, 2590.126
263.2536, 2640.063
263.7357, 2682.985
264.2178, 2721.568
264.7000, 2761.008
265.1821, 2787.324
265.6642, 2789.672
266.1463, 2772.071
266.6284, 2746.367
267.1105, 2720.651
267.5927, 2690.160
268.0748, 2643.875
268.5569, 2579.727
269.0390, 2506.037
269.5211, 2421.551
270.0032, 2332.211
270.4854, 2247.450
270.9675, 2169.617
271.4496, 2097.464
271.9317, 2031.199
272.4138, 1970.865
272.8959, 1910.459
273.3781, 1844.806
273.8602, 1778.490
274.3423, 1719.293
274.8244, 1666.420
275.3065, 1622.687
275.7886, 1596.066
276.2708, 1582.021
276.7529, 1560.504
277.2350, 1521.534
277.7171, 1475.858
278.1992, 1439.935
278.6813, 1413.010
279.1635, 1395.045
279.6456, 1392.054
280.1277, 1396.784
280.6098, 1396.742
281.0919, 1388.929
281.5740, 1377.726
282.0562, 1367.277
282.5383, 1357.486
283.0204, 1350.395
283.5025, 1345.047
283.9846, 1343.277
284.4667, 1349.874
284.9489, 1364.145
285.4310, 1375.409
285.9131, 1373.488
286.3952, 1358.703
286.8773, 1352.121
287.3594, 1360.684
287.8416, 1369.903
288.3237, 1370.178
288.8058, 1365.135
289.2879, 1365.776
289.7700, 1379.020
290.2521, 1401.163
290.7343, 1416.342
291.2164, 1416.881
291.6985, 1420.458
292.1806, 1434.694
292.6627, 1451.626
293.1448, 1459.631
293.6270, 1454.817
294.1091, 1445.052
294.5912, 1444.133
295.0733, 1455.465
295.5554, 1470.367
296.0375, 1492.080
296.5197, 1514.649
297.0018, 1534.424
297.4839, 1550.736
297.9660, 1563.863
298.4481, 1573.416
298.9302, 1578.233
299.4124, 1587.874
299.8945, 1605.316
300.3766, 1624.423
300.8587, 1643.689
301.3408, 1663.067
301.8229, 1683.239
302.3050, 1705.121
302.7871, 1727.700
303.2693, 1744.452
303.7514, 1741.727
304.2335, 1754.377
304.7156, 1797.609
305.1977, 1854.499
305.6798, 1905.943
306.1620, 1944.649
306.6441, 1980.439
307.1262, 2031.408
307.6083, 2102.638
308.0904, 2169.346
308.5725, 2216.836
309.0547, 2265.691
309.5368, 2327.606
310.0189, 2403.886
310.5010, 2487.961
310.9831, 2574.908
311.4652, 2664.960
311.9474, 2758.766
312.4295, 2854.227
312.9116, 2956.766
313.3937, 3069.618
313.8758, 3191.451
314.3579, 3317.974
314.8401, 3449.150
315.3222, 3583.112
315.8043, 3715.613
316.2864, 3845.487
316.7685, 3979.626
317.2506, 4119.387
317.7328, 4265.854
318.2149, 4419.902
318.6970, 4579.693
319.1791, 4748.978
319.6612, 4937.128
320.1433, 5138.348
320.6255, 5328.571
321.1076, 5494.671
321.5897, 5652.016
322.0718, 5830.479
322.5539, 6032.714
323.0360, 6228.578
323.5182, 6413.889
324.0003, 6587.049
324.4824, 6749.337
324.9645, 6901.524
325.4466, 7033.885
325.9287, 7139.748
326.4109, 7216.521
326.8930, 7255.028
327.3751, 7245.353
327.8572, 7208.654
328.3393, 7162.699
328.8214, 7100.484
329.3036, 6998.493
329.7857, 6840.599
330.2678, 6635.507
330.7499, 6427.570
331.2320, 6219.347
331.7141, 6003.716
332.1963, 5769.766
332.6784, 5531.979
333.1605, 5302.622
333.6426, 5086.799
334.1247, 4886.389
334.6068, 4704.460
335.0890, 4548.613
335.5711, 4393.278
336.0532, 4239.374
336.5353, 4085.428
337.0174, 3924.135
337.4995, 3761.609
337.9817, 3613.596
338.4638, 3494.621
338.9459, 3402.245
339.4280, 3315.150
339.9101, 3238.061
340.3922, 3160.254
340.8744, 3073.856
341.3565, 2986.297
341.8386, 2907.275
342.3207, 2840.391
342.8028, 2781.812
343.2849, 2728.125
343.7671, 2680.482
344.2492, 2628.363
344.7313, 2560.046
345.2134, 2493.813
345.6955, 2446.323
346.1776, 2417.809
346.6598, 2390.468
347.1419, 2351.164
347.6240, 2304.527
348.1061, 2263.143
348.5882, 2228.768
349.0703, 2197.834
349.5525, 2169.176
350.0346, 2141.896
350.5167, 2113.396
350.9988, 2078.284
351.4809, 2045.563
351.9630, 2024.913
352.4452, 2014.132
352.9273, 2001.480
353.4094, 1981.040
353.8915, 1955.791
354.3736, 1933.343
354.8557, 1914.249
355.3379, 1896.163
355.8200, 1879.040
356.3021, 1862.476
356.7842, 1847.304
357.2663, 1833.340
357.7484, 1817.263
358.2306, 1794.356
358.7127, 1761.888
359.1948, 1738.101
359.6769, 1731.976
360.1590, 1724.380
360.6411, 1703.486
361.1233, 1674.506
361.6054, 1650.364
362.0875, 1639.079
362.5696, 1636.417
363.0517, 1626.409
363.5338, 1602.139
364.0160, 1581.531
364.4981, 1565.493
364.9802, 1554.239
365.4623, 1550.640
365.9444, 1554.228
366.4265, 1557.072
366.9087, 1547.960
367.3908, 1525.683
367.8729, 1510.906
368.3550, 1509.882
368.8371, 1510.101
369.3192, 1505.212
369.8014, 1496.532
370.2835, 1487.261
370.7656, 1477.296
371.2477, 1468.895
371.7298, 1467.223
372.2119, 1473.044
372.6941, 1478.251
373.1762, 1479.345
373.6583, 1477.853
374.1404, 1475.649
374.6225, 1471.863
375.1046, 1470.695
375.5868, 1475.738
376.0689, 1484.710
376.5510, 1492.584
377.0331, 1498.061
377.5152, 1504.649
377.9973, 1516.325
378.4795, 1533.705
378.9616, 1550.579
379.4437, 1565.025
379.9258, 1580.568
380.4079, 1597.703
380.8900, 1617.478
381.3722, 1641.783
381.8543, 1671.546
382.3364, 1706.771
382.8185, 1748.286
383.3006, 1800.816
383.7827, 1853.609
384.2649, 1904.886
384.7470, 1957.179
385.2291, 2012.561
385.7112, 2071.377
386.1933, 2133.390
386.6754, 2198.934
387.1576, 2267.941
387.6397, 2336.809
388.1218, 2406.790
388.6039, 2475.628
389.0860, 2539.751
389.5681, 2602.854
390.0503, 2668.838
390.5324, 2738.938
391.0145, 2816.081
391.4966, 2907.137
391.9787, 3012.734
392.4608, 3123.400
392.9430, 3239.874
393.4251, 3357.297
393.9072, 3470.037
394.3893, 3578.483
394.8714, 3685.895
395.3535, 3803.792
395.8357, 3918.248
396.3178, 4004.036
396.7999, 4057.864
397.2820, 4101.327
397.7641, 4159.400
398.2462, 4217.973
398.7284, 4216.513
399.2105, 4131.894
399.6926, 4015.397
400.1747, 3879.792
400.6568, 3727.046
401.1389, 3555.812
401.6211, 3364.535
402.1032, 3165.307
402.5853, 2972.739
403.0674, 2786.297
403.5495, 2612.074
404.0316, 2446.622
404.5138, 2292.987
404.9959, 2150.276
405.4780, 2020.066
405.9601, 1907.823
406.4422, 1817.809
406.9243, 1746.126
407.4065, 1680.675
407.8886, 1621.335
408.3707, 1569.067
408.8528, 1526.207
409.3349, 1488.108
409.8170, 1450.727
410.2992, 1413.603
410.7813, 1380.048
411.2634, 1354.196
411.7455, 1334.742
412.2276, 1316.207
412.7097, 1298.985
413.1919, 1281.057
413.6740, 1258.392
414.1561, 1234.197
414.6382, 1216.053
415.1203, 1208.642
415.6024, 1203.489
416.0846, 1193.078
416.5667, 1179.676
417.0488, 1171.314
417.5309, 1171.620
418.0130, 1174.732
418.4951, 1171.952
418.9773, 1161.640
419.4594, 1150.432
419.9415, 1139.437
420.4236, 1126.912
420.9057, 1107.507
421.3878, 1084.838
421.8700, 1070.323
422.3521, 1072.080
422.8342, 1085.975
423.3163, 1094.271
423.7984, 1095.723
424.2805, 1092.977
424.7627, 1080.472
425.2448, 1068.196
425.7269, 1066.651
426.2090, 1076.010
426.6911, 1085.182
427.1732, 1081.897
427.6554, 1067.458
428.1375, 1057.802
428.6196, 1053.792
429.1017, 1053.042
429.5838, 1057.986
430.0659, 1064.339
430.5481, 1064.263
431.0302, 1051.789
431.5123, 1041.494
431.9944, 1050.071
432.4765, 1071.653
432.9586, 1084.979
433.4408, 1084.036
433.9229, 1075.277
434.4050, 1063.603
434.8871, 1048.174
435.3692, 1041.553
435.8513, 1050.631
436.3335, 1063.170
436.8156, 1075.560
437.2977, 1085.276
437.7798, 1086.029
438.2619, 1073.877
438.7440, 1055.523
439.2262, 1048.448
439.7083, 1061.203
440.1904, 1070.297
440.6725, 1073.988
441.1546, 1075.434
441.6367, 1075.803
442.1189, 1075.707
442.6010, 1076.078
443.0831, 1077.724
443.5652, 1080.342
444.0473, 1083.312
444.5294, 1087.773
445.0116, 1089.353
445.4937, 1082.070
445.9758, 1073.292
446.4579, 1070.680
446.9400, 1075.723
447.4221, 1082.566
447.9043, 1088.887
448.3864, 1094.237
448.8685, 1097.129
449.3506, 1097.218
449.8327, 1097.261
450.3148, 1100.244
450.7970, 1105.390
451.2791, 1105.631
451.7612, 1096.529
452.2433, 1088.096
452.7254, 1081.950
453.2076, 1079.051
453.6897, 1082.115
454.1718, 1091.470
454.6539, 1102.232
455.1360, 1107.858
455.6181, 1107.194
456.1003, 1107.904
456.5824, 1115.262
457.0645, 1118.466
457.5466, 1110.639
458.0287, 1097.291
458.5108, 1087.078
458.9930, 1083.636
459.4751, 1084.586
459.9572, 1088.346
460.4393, 1095.006
460.9214, 1096.796
461.4035, 1089.020
461.8857, 1080.332
462.3678, 1079.698
462.8499, 1085.464
463.3320, 1088.940
463.8141, 1084.977
464.2962, 1079.942
464.7784, 1079.574
465.2605, 1083.145
465.7426, 1087.796
466.2247, 1092.628
466.7068, 1096.666
467.1889, 1097.831
467.6711, 1094.288
468.1532, 1091.596
468.6353, 1090.892
469.1174, 1090.038
469.5995, 1088.024
470.0816, 1084.704
470.5638, 1079.132
471.0459, 1069.719
471.5280, 1060.263
472.0101, 1064.307
472.4922, 1090.242
472.9743, 1106.667
473.4565, 1095.774
473.9386, 1081.068
474.4207, 1079.179
474.9028, 1089.719
475.3849, 1098.513
475.8670, 1094.028
476.3492, 1083.991
476.8313, 1082.929
477.3134, 1091.251
477.7955, 1098.312
478.2776, 1099.108
478.7597, 1095.035
479.2419, 1088.361
479.7240, 1075.790
480.2061, 1069.042
480.6882, 1073.772
481.1703, 1082.979
481.6524, 1091.963
482.1346, 1099.428
482.6167, 1103.580
483.0988, 1102.402
483.5809, 1097.584
484.0630, 1099.023
484.5451, 1113.247
485.0273, 1122.966
485.5094, 1125.447
485.9915, 1123.290
486.4736, 1115.797
486.9557, 1104.285
487.4378, 1096.015
487.9200, 1098.686
488.4021, 1108.858
488.8842, 1116.394
489.3663, 1121.084
489.8484, 1123.651
490.3305, 1122.935
490.8127, 1121.062
491.2948, 1122.239
491.7769, 1126.839
492.2590, 1133.292
492.7411, 1142.265
493.2232, 1152.109
493.7054, 1161.589
494.1875, 1170.228
494.6696, 1177.245
495.1517, 1182.262
495.6338, 1184.971
496.1159, 1183.156
496.5981, 1168.245
497.0802, 1161.115
497.5623, 1169.075
498.0444, 1181.580
498.5265, 1189.518
499.0086, 1192.230
499.4908, 1195.694
499.9729, 1206.439
500.4550, 1221.834
500.9371, 1230.885
501.4192, 1231.929
501.9013, 1233.615
502.3835, 1239.316
502.8656, 1248.207
503.3477, 1259.739
503.8298, 1275.458
504.3119, 1287.000
504.7940, 1285.886
505.2762, 1281.977
505.7583, 1288.578
506.2404, 1305.255
506.7225, 1320.266
507.2046, 1325.278
507.6867, 1323.176
508.1689, 1326.618
508.6510, 1341.861
509.1331, 1353.605
509.6152, 1359.426
510.0973, 1362.893
510.5794, 1365.385
511.0616, 1367.775
511.5437, 1372.137
512.0258, 1382.323
512.5079, 1394.039
512.9901, 1392.020
513.4722, 1372.561
513.9543, 1362.547
514.4364, 1376.558
514.9185, 1400.266
515.4006, 1414.816
515.8828, 1419.647
516.3649, 1423.596
516.8470, 1428.822
517.3291, 1434.731
517.8112, 1440.701
518.2933, 1446.841
518.7755, 1453.739
519.2576, 1461.632
519.7397, 1470.695
520.2218, 1481.276
520.7039, 1493.076
521.1860, 1507.201
521.6682, 1527.452
522.1503, 1546.182
522.6324, 1557.149
523.1145, 1563.243
523.5966, 1572.075
524.0787, 1588.136
524.5609, 1607.931
525.0430, 1625.357
525.5251, 1640.443
526.0072, 1658.576
526.4893, 1682.506
526.9714, 1707.485
527.4536, 1726.317
527.9357, 1740.155
528.4178, 1760.273
528.8999, 1797.179
529.3820, 1831.998
529.8641, 1849.564
530.3463, 1857.799
530.8284, 1872.919
531.3105, 1900.424
531.7926, 1932.114
532.2747, 1955.804
532.7568, 1969.024
533.2390, 1990.461
533.7211, 2033.931
534.2032, 2069.761
534.6853, 2081.371
535.1674, 2083.034
535.6495, 2096.261
536.1317, 2128.453
536.6138, 2161.115
537.0959, 2175.789
537.5780, 2177.025
538.0601, 2177.188
538.5422, 2176.659
539.0244, 2183.935
539.5065, 2210.618
539.9886, 2249.706
540.4707, 2266.126
540.9528, 2243.390
541.4349, 2223.520
541.9171, 2216.855
542.3992, 2215.611
542.8813, 2213.708
543.3634, 2209.716
543.8455, 2204.040
544.3276, 2197.547
544.8098, 2189.100
545.2919, 2172.454
545.7740, 2143.627
546.2561, 2117.629
546.7382, 2102.417
547.2203, 2088.401
547.7025, 2067.748
548.1846, 2040.671
548.6666, 2012.967
549.1487, 1989.880
549.6309, 1965.700
550.1130, 1931.623
550.5951, 1890.153
551.0772, 1853.543
551.5593, 1826.737
552.0414, 1804.799
552.5236, 1779.496
553.0057, 1748.875
553.4878, 1721.248
553.9699, 1696.721
554.4520, 1674.466
554.9341, 1655.629
555.4163, 1638.372
555.8984, 1619.108
556.3805, 1596.306
556.8626, 1575.042
557.3447, 1565.418
557.8268, 1564.891
558.3090, 1550.353
558.7911, 1515.195
559.2732, 1480.285
559.7553, 1459.833
560.2374, 1450.251
560.7195, 1438.946
561.2017, 1424.819
561.6838, 1410.655
562.1659, 1397.054
562.6480, 1384.017
563.1301, 1371.214
563.6122, 1358.811
564.0944, 1347.398
564.5765, 1337.180
565.0586, 1328.448
565.5407, 1322.761
566.0228, 1322.354
566.5049, 1319.343
566.9871, 1309.262
567.4692, 1298.622
567.9513, 1292.798
568.4334, 1290.518
568.9155, 1285.158
569.3976, 1269.177
569.8798, 1253.131
570.3619, 1249.713
570.8440, 1255.446
571.3261, 1259.131
571.8082, 1257.473
572.2903, 1251.391
572.7725, 1241.029
573.2546, 1225.309
573.7367, 1215.311
574.2188, 1214.907
574.7009, 1215.174
575.1830, 1214.585
575.6652, 1213.158
576.1473, 1210.354
576.6294, 1206.328
577.1115, 1203.445
577.5936, 1205.202
578.0757, 1209.798
578.5579, 1210.677
579.0400, 1207.328
579.5221, 1203.981
580.0042, 1202.490
580.4863, 1202.182
580.9684, 1201.897
581.4506, 1201.678
581.9327, 1201.312
582.4148, 1199.950
582.8969, 1199.179
583.3790, 1200.194
583.8611, 1202.622
584.3433, 1205.944
584.8254, 1209.926
585.3075, 1213.357
585.7896, 1213.588
586.2717, 1210.140
586.7538, 1209.453
587.2360, 1213.862
587.7181, 1217.703
588.2002, 1215.652
588.6823, 1211.472
589.1644, 1212.059
589.6465, 1220.831
590.1287, 1227.728
590.6108, 1224.840
591.0929, 1219.026
591.5750, 1220.528
592.0571, 1228.884
592.5392, 1234.793
593.0214, 1231.496
593.5035, 1223.109
593.9856, 1223.395
594.4677, 1239.096
594.9498, 1247.420
595.4319, 1238.044
595.9141, 1228.509
596.3962, 1227.399
596.8783, 1233.130
597.3604, 1240.941
597.8425, 1250.177
598.3246, 1258.752
598.8068, 1263.779
599.2889, 1266.783
599.7710, 1272.934
600.2531, 1283.269
600.7352, 1291.324
601.2173, 1291.315
601.6995, 1284.170
602.1816, 1277.405
602.6637, 1269.145
