##NAMES=Ferberite
##RRUFFID=R040044
##IDEAL CHEMISTRY=Fe^2+^W^6+^O_4_
##LOCALITY=Chocote, Bolivia
##OWNER=RRUFF
##SOURCE=University of Arizona Mineral Museum
##DESCRIPTION=Black tabular single crystal
##STATUS=The identification of this mineral has been confirmed by X-ray diffraction and chemical analysis
##URL=rruff.info/R040044
##MEASURED CHEMISTRY=(Fe_0.82_Mn_0.08_Mg_0.07_Pb_0.03_)_Î£=1_W_1.00_O_4_
82.95880, 0.0000000E+00
83.44092, 0.0000000E+00
83.92303, 0.0000000E+00
84.40515, 0.0000000E+00
84.88727, 0.0000000E+00
85.36938, 0.0000000E+00
85.85150, 0.0000000E+00
86.33362, 0.0000000E+00
86.81573, 0.0000000E+00
87.29785, 67.94790
87.77997, 69.37632
88.26208, 70.63480
88.74420, 71.72147
89.22632, 72.60653
89.70844, 73.28194
90.19055, 73.76604
90.67267, 74.03498
91.15479, 73.57642
91.63690, 71.39420
92.11902, 69.47823
92.60114, 68.54871
93.08325, 68.36191
93.56537, 68.15046
94.04749, 67.14529
94.52960, 65.06359
95.01172, 64.72874
95.49384, 68.37593
95.97595, 71.60373
96.45807, 71.49002
96.94019, 68.09543
97.42230, 63.97987
97.90442, 61.87621
98.38654, 62.65774
98.86865, 62.74761
99.35077, 61.38810
99.83289, 59.73647
100.3150, 58.81226
100.7971, 58.84841
101.2792, 59.56312
101.7614, 61.05291
102.2435, 63.91436
102.7256, 64.79251
103.2077, 60.46536
103.6898, 54.10804
104.1719, 51.94047
104.6541, 57.16105
105.1362, 64.38251
105.6183, 64.17824
106.1004, 54.95543
106.5825, 47.16522
107.0646, 47.06961
107.5468, 53.01837
108.0289, 58.12586
108.5110, 60.13585
108.9931, 59.89643
109.4752, 58.90165
109.9573, 56.83758
110.4395, 54.91322
110.9216, 54.32703
111.4037, 55.12109
111.8858, 55.74006
112.3679, 55.22231
112.8500, 54.37259
113.3322, 53.91983
113.8143, 53.92032
114.2964, 54.53944
114.7785, 56.37241
115.2606, 60.00138
115.7427, 62.82917
116.2248, 63.37522
116.7070, 62.81281
117.1891, 62.12654
117.6712, 61.50553
118.1533, 61.22318
118.6354, 62.03076
119.1175, 64.50297
119.5997, 67.07533
120.0818, 69.25742
120.5639, 71.18215
121.0460, 72.80430
121.5281, 73.62766
122.0102, 74.24474
122.4924, 78.05430
122.9745, 87.82436
123.4566, 97.71223
123.9387, 105.3745
124.4208, 111.9727
124.9029, 119.6121
125.3851, 129.7827
125.8672, 142.5002
126.3493, 156.4093
126.8314, 170.1411
127.3135, 186.5529
127.7956, 206.5182
128.2778, 229.9629
128.7599, 256.8703
129.2420, 287.4436
129.7241, 322.1197
130.2062, 356.9437
130.6884, 393.3950
131.1705, 428.8339
131.6526, 463.0370
132.1347, 495.3936
132.6168, 525.3484
133.0989, 553.2322
133.5811, 583.0668
134.0632, 593.9680
134.5453, 582.9770
135.0274, 559.4563
135.5095, 524.9188
135.9916, 481.5495
136.4738, 434.8876
136.9559, 391.2646
137.4380, 348.9019
137.9201, 317.0494
138.4022, 299.9949
138.8843, 289.8839
139.3665, 281.3431
139.8486, 273.0316
140.3307, 265.7054
140.8128, 260.5798
141.2949, 258.6263
141.7770, 257.2142
142.2592, 255.6683
142.7413, 254.9322
143.2234, 256.1336
143.7055, 259.6167
144.1876, 264.5662
144.6697, 269.7588
145.1518, 275.0807
145.6340, 280.8883
146.1161, 287.9302
146.5982, 295.2970
147.0803, 301.4750
147.5624, 305.8306
148.0445, 309.5908
148.5267, 315.7289
149.0088, 326.0290
149.4909, 333.5266
149.9730, 333.1267
150.4551, 329.0567
150.9372, 330.3167
151.4194, 341.4741
151.9015, 356.4179
152.3836, 362.8496
152.8657, 359.2062
153.3478, 354.1029
153.8299, 350.9460
154.3121, 348.8680
154.7942, 345.5089
155.2763, 339.8584
155.7584, 332.6187
156.2405, 324.7679
156.7226, 315.0939
157.2048, 307.7447
157.6869, 306.1048
158.1690, 308.9668
158.6511, 311.1651
159.1332, 309.9295
159.6153, 307.7866
160.0975, 309.4114
160.5796, 316.4596
161.0617, 323.1682
161.5438, 324.6999
162.0259, 321.8753
162.5080, 320.9111
162.9902, 325.3824
163.4723, 332.2191
163.9544, 336.4915
164.4365, 337.3590
164.9186, 337.2397
165.4007, 337.4455
165.8829, 338.0105
166.3650, 339.7258
166.8471, 343.9106
167.3292, 348.8026
167.8113, 352.1649
168.2934, 353.5481
168.7756, 354.0113
169.2577, 354.2330
169.7398, 354.2104
170.2219, 354.4413
170.7040, 356.1062
171.1861, 357.5110
171.6683, 356.3418
172.1504, 351.3411
172.6325, 346.1700
173.1146, 344.8732
173.5967, 347.7509
174.0788, 350.7597
174.5610, 352.4436
175.0431, 353.5413
175.5252, 354.9623
176.0073, 357.1852
176.4894, 358.8486
176.9715, 358.3268
177.4537, 355.4288
177.9358, 351.7413
178.4179, 345.9801
178.9000, 340.6338
179.3821, 338.2574
179.8642, 339.8425
180.3464, 343.0036
180.8285, 344.6178
181.3106, 344.2229
181.7927, 345.0567
182.2748, 351.0893
182.7569, 357.4891
183.2391, 359.5009
183.7212, 355.1592
184.2033, 349.6103
184.6854, 349.7597
185.1675, 356.7430
185.6496, 363.4413
186.1318, 368.8860
186.6139, 372.3338
187.0960, 372.0806
187.5781, 367.0996
188.0602, 361.4678
188.5423, 361.1754
189.0245, 367.7181
189.5066, 372.4473
189.9887, 369.5884
190.4708, 365.5838
190.9529, 365.3607
191.4350, 370.3676
191.9172, 377.6175
192.3993, 383.3098
192.8814, 386.9249
193.3635, 391.4375
193.8456, 399.4941
194.3277, 407.7666
194.8099, 413.7257
195.2920, 416.6994
195.7741, 418.3833
196.2562, 420.0474
196.7383, 421.1234
197.2204, 425.1451
197.7026, 435.3511
198.1847, 447.5644
198.6668, 459.2213
199.1489, 469.8283
199.6310, 480.4658
200.1131, 492.6229
200.5953, 506.4696
201.0774, 520.5495
201.5595, 535.7421
202.0416, 550.2559
202.5237, 562.2448
203.0058, 571.4654
203.4880, 580.0861
203.9701, 590.1242
204.4522, 601.5529
204.9343, 614.7807
205.4164, 633.2123
205.8985, 651.1725
206.3807, 663.9853
206.8628, 671.3077
207.3449, 678.5258
207.8270, 693.3933
208.3091, 717.2173
208.7912, 733.8734
209.2734, 735.9890
209.7555, 733.4349
210.2376, 733.1830
210.7197, 735.3490
211.2018, 733.3101
211.6839, 717.6213
212.1661, 687.6855
212.6482, 664.5532
213.1303, 656.4516
213.6124, 651.3099
214.0945, 643.3997
214.5766, 632.2196
215.0588, 617.8889
215.5409, 598.9356
216.0230, 575.6284
216.5051, 555.1240
216.9872, 539.5093
217.4693, 525.6406
217.9515, 511.7584
218.4336, 497.8619
218.9157, 484.2421
219.3978, 470.5322
219.8799, 456.9582
220.3620, 445.7224
220.8442, 437.9959
221.3263, 431.4079
221.8084, 423.9320
222.2905, 416.1079
222.7726, 409.8684
223.2547, 406.9292
223.7369, 406.7129
224.2190, 406.6453
224.7011, 407.7372
225.1832, 407.1444
225.6653, 401.5583
226.1474, 393.1079
226.6296, 386.9489
227.1117, 387.8149
227.5938, 392.8945
228.0759, 393.2268
228.5580, 385.6960
229.0401, 380.0000
229.5223, 383.1397
230.0044, 391.6333
230.4865, 399.6746
230.9686, 406.5889
231.4507, 410.7642
231.9328, 407.4149
232.4150, 393.5823
232.8971, 381.3044
233.3792, 378.1301
233.8613, 380.3776
234.3434, 383.7940
234.8255, 387.9660
235.3077, 391.8611
235.7898, 393.4536
236.2719, 392.2022
236.7540, 392.0705
237.2361, 397.0082
237.7182, 403.5494
238.2004, 407.0419
238.6825, 405.7187
239.1646, 402.5348
239.6467, 399.6335
240.1288, 396.9860
240.6109, 396.3879
241.0931, 399.9500
241.5752, 405.2932
242.0573, 409.2108
242.5394, 411.7043
243.0215, 412.2992
243.5036, 409.8701
243.9858, 404.8119
244.4679, 399.5538
244.9500, 393.6050
245.4321, 389.3285
245.9142, 390.9226
246.3963, 400.3894
246.8785, 407.4338
247.3606, 403.9883
247.8427, 393.5091
248.3248, 386.1086
248.8069, 384.6159
249.2890, 387.0739
249.7712, 391.6694
250.2533, 398.5684
250.7354, 404.6393
251.2175, 408.9962
251.6996, 411.6966
252.1817, 411.9839
252.6639, 409.0332
253.1460, 406.5130
253.6281, 410.2931
254.1102, 420.4957
254.5923, 426.9177
255.0744, 422.8882
255.5566, 416.5350
256.0387, 418.1766
256.5208, 429.2040
257.0029, 441.8939
257.4850, 449.1591
257.9671, 450.5870
258.4492, 453.4067
258.9314, 458.6316
259.4135, 464.7087
259.8956, 469.7001
260.3777, 473.9659
260.8598, 480.5356
261.3419, 492.2459
261.8241, 508.7416
262.3062, 523.4806
262.7883, 535.8033
263.2704, 547.1434
263.7525, 556.8112
264.2346, 565.9020
264.7168, 577.5413
265.1989, 593.7701
265.6810, 613.6876
266.1631, 632.3422
266.6452, 646.1552
267.1273, 663.1706
267.6095, 685.6379
268.0916, 712.3387
268.5737, 742.5464
269.0558, 776.1144
269.5379, 810.7413
270.0201, 840.1964
270.5022, 859.8649
270.9843, 879.6747
271.4664, 900.6987
271.9485, 921.3684
272.4306, 940.8016
272.9128, 958.4918
273.3949, 973.6093
273.8770, 984.6843
274.3591, 990.9059
274.8412, 994.3457
275.3233, 998.8380
275.8055, 998.1764
276.2876, 987.3408
276.7697, 966.5492
277.2518, 940.2643
277.7339, 912.1266
278.2160, 881.3290
278.6982, 854.0397
279.1803, 832.0648
279.6624, 811.8389
280.1445, 793.2671
280.6266, 775.4380
281.1087, 756.5021
281.5909, 734.7895
282.0730, 710.6249
282.5551, 687.8382
283.0372, 665.2305
283.5193, 645.5865
284.0014, 631.0230
284.4836, 619.4102
284.9657, 607.5634
285.4478, 593.7065
285.9299, 579.3112
286.4120, 568.7405
286.8941, 563.8380
287.3763, 558.5241
287.8584, 550.8566
288.3405, 542.2427
288.8226, 533.3682
289.3047, 524.2760
289.7868, 516.5554
290.2690, 513.3224
290.7511, 515.2643
291.2332, 514.8168
291.7153, 507.1435
292.1974, 498.8979
292.6795, 496.3398
293.1617, 499.8295
293.6438, 502.2654
294.1259, 495.6031
294.6080, 482.4456
295.0901, 476.5442
295.5722, 482.7100
296.0544, 491.7979
296.5365, 495.9115
297.0186, 495.9743
297.5007, 496.3707
297.9828, 499.9552
298.4649, 504.5143
298.9471, 506.4231
299.4292, 505.2655
299.9113, 502.7802
300.3934, 499.6940
300.8755, 496.2229
301.3576, 493.2240
301.8398, 490.6888
302.3219, 488.7535
302.8040, 486.2125
303.2861, 483.7571
303.7682, 485.9898
304.2503, 497.2676
304.7325, 513.6060
305.2146, 521.7112
305.6967, 517.5148
306.1788, 512.3240
306.6609, 506.8691
307.1430, 503.2964
307.6252, 506.7092
308.1073, 519.3500
308.5894, 535.5376
309.0715, 545.1301
309.5536, 543.7223
310.0357, 544.2314
310.5179, 548.4171
311.0000, 553.7567
311.4821, 557.4615
311.9642, 559.4895
312.4463, 562.7626
312.9284, 570.9903
313.4106, 585.8880
313.8927, 595.7120
314.3748, 594.3149
314.8569, 594.7031
315.3390, 603.8530
315.8211, 619.4556
316.3033, 634.7383
316.7854, 644.8686
317.2675, 651.0359
317.7496, 661.1079
318.2317, 675.7327
318.7138, 694.0203
319.1960, 717.8321
319.6781, 744.1033
320.1602, 768.7706
320.6423, 790.0938
321.1244, 811.2519
321.6065, 838.0515
322.0887, 871.6774
322.5708, 906.8714
323.0529, 943.3636
323.5350, 980.8018
324.0171, 1019.234
324.4992, 1058.556
324.9814, 1097.884
325.4635, 1135.872
325.9456, 1173.004
326.4277, 1212.028
326.9098, 1256.146
327.3919, 1297.674
327.8741, 1332.007
328.3562, 1360.019
328.8383, 1384.084
329.3204, 1404.876
329.8025, 1422.480
330.2846, 1438.216
330.7668, 1452.607
331.2489, 1460.393
331.7310, 1458.602
332.2131, 1447.173
332.6952, 1427.449
333.1773, 1397.296
333.6595, 1361.810
334.1416, 1322.097
334.6237, 1279.379
335.1058, 1238.394
335.5879, 1201.360
336.0700, 1166.053
336.5522, 1127.443
337.0343, 1082.572
337.5164, 1042.915
337.9985, 1013.628
338.4806, 988.8986
338.9627, 962.4752
339.4449, 933.3184
339.9270, 903.9965
340.4091, 877.3071
340.8912, 853.7910
341.3733, 829.7888
341.8554, 801.7153
342.3376, 776.6347
342.8197, 758.8454
343.3018, 746.7329
343.7839, 736.0349
344.2660, 724.1175
344.7481, 711.4332
345.2303, 700.1790
345.7124, 691.1140
346.1945, 682.6648
346.6766, 675.5373
347.1587, 668.3597
347.6408, 659.1413
348.1230, 647.3451
348.6051, 635.5016
349.0872, 627.1793
349.5693, 622.7651
350.0514, 619.8200
350.5335, 620.3901
351.0157, 620.4575
351.4978, 617.3909
351.9799, 611.6266
352.4620, 605.7938
352.9441, 601.3017
353.4262, 598.1031
353.9084, 596.9037
354.3905, 599.2960
354.8726, 599.4231
355.3547, 589.7254
355.8368, 575.9134
356.3189, 567.7320
356.8011, 570.9899
357.2832, 575.7789
357.7653, 572.3931
358.2474, 562.1616
358.7295, 553.2155
359.2116, 548.5795
359.6938, 546.8731
360.1759, 545.7154
360.6580, 545.1927
361.1401, 544.7772
361.6222, 544.5692
362.1043, 544.2916
362.5865, 543.3885
363.0686, 541.8112
363.5507, 540.4448
364.0328, 540.3306
364.5149, 541.7313
364.9970, 542.0375
365.4792, 539.9453
365.9613, 538.2185
366.4434, 537.6429
366.9255, 538.3854
367.4076, 541.3561
367.8897, 547.4249
368.3719, 554.4586
368.8540, 554.7623
369.3361, 540.5784
369.8182, 532.2240
370.3003, 535.1103
370.7824, 541.8751
371.2646, 546.8936
371.7467, 548.8885
372.2288, 549.7719
372.7109, 552.3391
373.1930, 556.8395
373.6751, 557.6976
374.1573, 552.4207
374.6394, 546.0139
375.1215, 539.2010
375.6036, 533.3282
376.0857, 531.7784
376.5678, 538.9835
377.0500, 549.4923
377.5321, 553.8574
378.0142, 551.6290
378.4963, 548.8620
378.9784, 548.2753
379.4605, 548.7844
379.9427, 548.1633
380.4248, 545.7081
380.9069, 543.8661
381.3890, 542.4906
381.8711, 542.7678
382.3532, 548.6072
382.8354, 561.4925
383.3175, 574.1012
383.7996, 577.5696
384.2817, 569.4076
384.7638, 564.2450
385.2459, 561.7910
385.7281, 562.5079
386.2102, 568.4604
386.6923, 577.9888
387.1744, 586.4438
387.6565, 590.6799
388.1386, 592.4114
388.6208, 598.9172
389.1029, 614.0511
389.5850, 628.7407
390.0671, 642.1384
390.5492, 654.7073
391.0313, 665.2321
391.5135, 674.1336
391.9956, 686.1329
392.4777, 708.0087
392.9598, 740.6830
393.4419, 771.4842
393.9240, 797.4564
394.4062, 824.8240
394.8883, 857.8755
395.3704, 894.3219
395.8525, 928.9199
396.3346, 959.0449
396.8167, 986.4521
397.2989, 1011.998
397.7810, 1035.504
398.2631, 1063.064
398.7452, 1099.883
399.2273, 1139.880
399.7094, 1174.320
400.1916, 1204.172
400.6737, 1225.460
401.1558, 1235.521
401.6379, 1236.692
402.1200, 1232.648
402.6021, 1223.988
403.0843, 1208.308
403.5664, 1183.423
404.0485, 1148.889
404.5306, 1106.711
405.0127, 1052.232
405.4948, 996.0746
405.9770, 938.6698
406.4591, 883.2931
406.9412, 835.2173
407.4233, 797.0547
407.9054, 765.8691
408.3875, 736.3171
408.8697, 708.8296
409.3518, 682.0781
409.8339, 653.7764
410.3160, 627.7456
410.7981, 607.4777
411.2802, 592.3513
411.7624, 578.5856
412.2445, 562.9250
412.7266, 546.2750
413.2087, 531.5782
413.6908, 518.0120
414.1729, 508.6326
414.6551, 508.5986
415.1372, 512.6342
415.6193, 514.4028
416.1014, 513.3401
416.5835, 508.6512
417.0656, 495.8119
417.5478, 478.6451
418.0299, 469.1734
418.5120, 471.3356
418.9941, 478.1645
419.4762, 482.1564
419.9583, 483.1796
420.4405, 480.9131
420.9226, 471.3896
421.4047, 462.0157
421.8868, 457.4987
422.3689, 457.1410
422.8510, 458.4805
423.3332, 460.3177
423.8153, 462.0209
424.2974, 461.3524
424.7795, 456.7680
425.2616, 452.1520
425.7437, 445.3933
426.2259, 440.3612
426.7080, 441.9362
427.1901, 449.5559
427.6722, 456.2208
428.1543, 454.0883
428.6364, 444.3404
429.1186, 438.6584
429.6007, 437.6729
430.0828, 439.6860
430.5649, 448.2786
431.0470, 458.0267
431.5291, 459.8483
432.0113, 447.8993
432.4934, 435.1814
432.9755, 433.6747
433.4576, 440.6173
433.9397, 445.9914
434.4218, 446.9824
434.9040, 446.1087
435.3861, 446.3166
435.8682, 447.7520
436.3503, 449.3804
436.8324, 453.5779
437.3145, 455.8532
437.7967, 450.3605
438.2788, 440.2042
438.7609, 434.8779
439.2430, 440.2126
439.7251, 451.9541
440.2072, 456.5827
440.6894, 447.6169
441.1715, 442.4730
441.6536, 444.6048
442.1357, 448.7246
442.6178, 450.8634
443.0999, 450.8924
443.5821, 451.5124
444.0642, 456.3411
444.5463, 463.9141
445.0284, 465.5793
445.5105, 458.5726
445.9926, 452.7747
446.4748, 455.8123
446.9569, 462.0851
447.4390, 463.7279
447.9211, 457.8910
448.4032, 451.8686
448.8853, 449.9149
449.3675, 451.2057
449.8496, 454.6016
450.3317, 460.0574
450.8138, 465.4182
451.2959, 468.6335
451.7780, 469.5759
452.2602, 468.4806
452.7423, 463.4631
453.2244, 458.5383
453.7065, 454.7640
454.1886, 452.4056
454.6707, 451.9728
455.1528, 453.6996
455.6349, 456.5829
456.1171, 458.6324
456.5992, 459.1866
457.0813, 460.8935
457.5634, 465.3854
458.0455, 469.7871
458.5276, 473.4982
459.0098, 476.0273
459.4919, 476.1438
459.9740, 471.6563
460.4561, 465.5934
460.9382, 464.3572
461.4203, 468.2633
461.9025, 469.7868
462.3846, 463.8633
462.8667, 456.1520
463.3488, 456.0126
463.8309, 464.4193
464.3130, 474.0596
464.7952, 487.1235
465.2773, 497.8331
465.7594, 497.9718
466.2415, 488.4554
466.7236, 478.6828
467.2057, 475.5388
467.6879, 477.6952
468.1700, 477.0260
468.6521, 467.8575
469.1342, 463.2365
469.6163, 467.3371
470.0984, 474.4083
470.5806, 480.2971
471.0627, 483.8500
471.5448, 485.1490
472.0269, 483.0038
472.5090, 478.0132
472.9911, 476.0551
473.4733, 477.9453
473.9554, 481.0737
474.4375, 486.7749
474.9196, 492.0781
475.4017, 491.7988
475.8839, 482.6237
476.3660, 474.0182
476.8481, 472.6672
477.3302, 476.0132
477.8123, 479.7835
478.2944, 483.1923
478.7766, 483.8403
479.2587, 478.1634
479.7408, 465.4909
480.2229, 459.8662
480.7050, 465.1879
481.1871, 471.9752
481.6693, 478.6415
482.1514, 484.4101
482.6335, 488.6385
483.1156, 491.0608
483.5977, 491.6054
484.0798, 489.2113
484.5620, 483.1024
485.0441, 480.2008
485.5262, 482.7896
486.0083, 486.0716
486.4904, 487.9137
486.9725, 488.5372
487.4547, 488.1783
487.9368, 485.7516
488.4189, 484.2191
488.9010, 488.3048
489.3831, 496.1943
489.8652, 500.2430
490.3474, 497.9681
490.8295, 492.4627
491.3116, 486.5800
491.7937, 479.7410
492.2758, 476.9664
492.7579, 482.3669
493.2401, 487.6640
493.7222, 487.9731
494.2043, 485.3653
494.6864, 484.3216
495.1685, 486.8514
495.6506, 490.9175
496.1328, 492.6634
496.6149, 491.2798
497.0970, 490.8613
497.5791, 492.0346
498.0612, 493.9023
498.5433, 496.3998
499.0255, 499.2208
499.5076, 501.6517
499.9897, 503.5737
500.4718, 504.7693
500.9539, 504.5209
501.4360, 503.1238
501.9182, 502.3189
502.4003, 502.6877
502.8824, 503.7887
503.3645, 505.2330
503.8466, 507.2457
504.3287, 508.3557
504.8109, 508.5424
505.2930, 507.8051
505.7751, 504.1398
506.2572, 499.8171
506.7393, 500.1649
507.2214, 507.8771
507.7036, 518.0959
508.1857, 520.4988
508.6678, 512.1586
509.1499, 507.6888
509.6320, 510.5728
510.1141, 515.3412
510.5963, 520.2274
511.0784, 524.6807
511.5605, 527.4473
512.0426, 527.0846
512.5247, 525.9659
513.0068, 526.5259
513.4890, 528.5883
513.9711, 531.9544
514.4532, 537.2341
514.9353, 541.3443
515.4174, 539.4056
515.8995, 529.1793
516.3817, 523.5697
516.8638, 524.0627
517.3459, 527.5848
517.8280, 535.4730
518.3101, 544.7624
518.7922, 549.8361
519.2744, 548.3210
519.7565, 544.5941
520.2386, 546.1713
520.7207, 553.9982
521.2028, 560.4127
521.6849, 563.8746
522.1671, 567.0709
522.6492, 572.1360
523.1313, 578.0991
523.6134, 582.6166
524.0955, 584.2653
524.5776, 585.3601
525.0598, 588.8109
525.5419, 593.1998
526.0240, 593.5179
526.5061, 588.1462
526.9882, 582.9836
527.4703, 584.9832
527.9525, 595.1486
528.4346, 602.9333
528.9167, 608.1835
529.3988, 611.5745
529.8809, 612.0822
530.3630, 611.3539
530.8452, 611.2211
531.3273, 612.2903
531.8094, 614.3685
532.2915, 618.3605
532.7736, 623.9571
533.2557, 625.3643
533.7379, 620.4978
534.2200, 615.6308
534.7021, 613.4672
535.1842, 614.1168
535.6663, 618.2905
536.1484, 627.7983
536.6306, 637.3282
537.1127, 645.7573
537.5948, 652.1268
538.0769, 654.1829
538.5590, 651.9750
539.0411, 648.5870
539.5233, 646.3377
540.0054, 645.2911
540.4875, 646.0147
540.9696, 649.2302
541.4517, 653.2750
541.9338, 660.6730
542.4160, 666.8290
542.8981, 666.4484
543.3802, 659.7713
543.8623, 653.9663
544.3444, 656.7151
544.8265, 663.2694
545.3087, 662.1533
545.7908, 653.0189
546.2729, 644.5596
546.7550, 641.0745
547.2371, 640.0115
547.7192, 635.7771
548.2014, 626.1021
548.6835, 620.5636
549.1656, 623.9352
549.6477, 628.6341
550.1298, 630.2297
550.6119, 628.6259
551.0941, 624.5811
551.5762, 618.3237
552.0583, 611.2868
552.5404, 606.9105
553.0225, 605.9427
553.5046, 603.6806
553.9868, 597.8899
554.4689, 592.6661
554.9510, 591.3802
555.4331, 592.8286
555.9152, 593.1794
556.3973, 590.2485
556.8795, 587.1186
557.3616, 586.0889
557.8437, 586.6299
558.3258, 588.5450
558.8079, 591.7895
559.2900, 592.6824
559.7722, 586.3373
560.2543, 571.9902
560.7364, 562.8344
561.2185, 563.6019
561.7006, 564.2408
562.1827, 562.6768
562.6649, 560.0886
563.1470, 557.6392
563.6291, 555.6165
564.1112, 554.1428
564.5933, 553.6570
565.0754, 553.7691
565.5576, 553.1710
566.0397, 551.7231
566.5218, 550.7296
567.0039, 551.2950
567.4860, 552.4529
567.9681, 551.7222
568.4503, 548.6314
568.9324, 545.1959
569.4145, 539.9882
569.8966, 535.9473
570.3787, 537.0194
570.8608, 541.2473
571.3430, 542.4994
571.8251, 536.8345
572.3072, 528.3652
572.7893, 526.6172
573.2714, 532.9682
573.7535, 536.2617
574.2357, 531.9347
574.7178, 528.0458
575.1999, 532.0442
575.6820, 541.4568
576.1641, 548.5854
576.6462, 551.1191
577.1284, 551.5668
577.6105, 551.1115
578.0926, 549.6761
