##NAMES=Fergusonite-(Y)-beta
##RRUFFID=R080103
##IDEAL CHEMISTRY=Y^3+^Nb^5+^O_4_
##LOCALITY=Arendal, Aust-Agder, Norway
##OWNER=RRUFF
##SOURCE=James Shigley
##DESCRIPTION=Olive green fragment from metamict sample R070600, after heating at T = 1000 C for 20 hours
##STATUS=The identification of this mineral has been confirmed by X-ray diffraction.
##URL=rruff.info/R080103
93.30109, 0.0000000E+00
93.78320, 9719.564
94.26532, 9684.830
94.74744, 9721.667
95.22955, 9806.228
95.71167, 9923.938
96.19379, 9998.910
96.67590, 10047.73
97.15802, 10080.53
97.64014, 10094.44
98.12225, 10094.29
98.60437, 10089.26
99.08649, 10084.75
99.56860, 10080.77
100.0507, 10074.87
100.5328, 10049.74
101.0150, 10022.15
101.4971, 10005.05
101.9792, 9998.967
102.4613, 10000.42
102.9434, 10005.81
103.4255, 10017.28
103.9077, 10037.71
104.3898, 10068.01
104.8719, 10106.70
105.3540, 10151.30
105.8361, 10202.65
106.3182, 10258.30
106.8004, 10316.83
107.2825, 10378.37
107.7646, 10441.96
108.2467, 10506.41
108.7288, 10571.85
109.2109, 10643.53
109.6931, 10724.28
110.1752, 10808.28
110.6573, 10893.91
111.1394, 10981.31
111.6215, 11071.83
112.1036, 11166.22
112.5858, 11265.61
113.0679, 11364.67
113.5500, 11463.25
114.0321, 11561.02
114.5142, 11656.92
114.9964, 11750.76
115.4785, 11844.86
115.9606, 11941.62
116.4427, 12040.68
116.9248, 12140.19
117.4069, 12239.66
117.8891, 12339.02
118.3712, 12439.68
118.8533, 12542.47
119.3354, 12644.81
119.8175, 12742.77
120.2996, 12837.18
120.7818, 12933.84
121.2639, 13038.32
121.7460, 13150.88
122.2281, 13262.63
122.7102, 13371.09
123.1923, 13478.81
123.6745, 13586.39
124.1566, 13694.18
124.6387, 13801.47
125.1208, 13907.53
125.6029, 14009.86
126.0850, 14116.41
126.5672, 14229.45
127.0493, 14345.20
127.5314, 14459.88
128.0135, 14572.65
128.4956, 14683.93
128.9777, 14797.72
129.4599, 14918.25
129.9420, 15035.71
130.4241, 15149.45
130.9062, 15260.09
131.3883, 15368.35
131.8704, 15474.93
132.3526, 15580.11
132.8347, 15686.50
133.3168, 15798.44
133.7989, 15907.65
134.2810, 16011.02
134.7632, 16109.09
135.2453, 16204.28
135.7274, 16297.83
136.2095, 16390.08
136.6916, 16482.04
137.1737, 16574.00
137.6559, 16665.86
138.1380, 16757.71
138.6201, 16849.32
139.1022, 16942.65
139.5843, 17040.73
140.0664, 17141.93
140.5486, 17242.93
141.0307, 17341.02
141.5128, 17438.44
141.9949, 17540.39
142.4770, 17648.53
142.9591, 17760.13
143.4413, 17875.78
143.9234, 17992.98
144.4055, 18108.13
144.8876, 18217.51
145.3697, 18320.88
145.8518, 18425.59
146.3340, 18535.88
146.8161, 18643.43
147.2982, 18746.74
147.7803, 18845.16
148.2624, 18937.98
148.7445, 19024.96
149.2267, 19104.76
149.7088, 19180.58
150.1909, 19259.94
150.6730, 19330.70
151.1551, 19384.47
151.6372, 19420.95
152.1194, 19446.98
152.6015, 19471.45
153.0836, 19496.14
153.5657, 19510.73
154.0478, 19516.48
154.5299, 19511.64
155.0121, 19492.69
155.4942, 19458.36
155.9763, 19414.66
156.4584, 19370.66
156.9405, 19328.07
157.4226, 19275.96
157.9048, 19207.57
158.3869, 19127.65
158.8690, 19046.64
159.3511, 18967.56
159.8332, 18886.43
160.3153, 18799.52
160.7975, 18707.23
161.2796, 18608.97
161.7617, 18503.90
162.2438, 18391.59
162.7259, 18275.24
163.2081, 18150.28
163.6902, 18025.06
164.1723, 17907.62
164.6544, 17797.69
165.1365, 17690.22
165.6186, 17577.79
166.1008, 17459.05
166.5829, 17343.95
167.0650, 17236.13
167.5471, 17131.37
168.0292, 17027.35
168.5113, 16923.64
168.9935, 16823.21
169.4756, 16731.75
169.9577, 16654.03
170.4398, 16576.30
170.9219, 16494.14
171.4040, 16413.42
171.8862, 16339.13
172.3683, 16273.04
172.8504, 16213.37
173.3325, 16155.32
173.8146, 16099.75
174.2967, 16045.67
174.7789, 15989.41
175.2610, 15935.62
175.7431, 15890.32
176.2252, 15855.87
176.7073, 15830.53
177.1894, 15809.23
177.6716, 15793.11
178.1537, 15778.87
178.6358, 15765.24
179.1179, 15753.04
179.6000, 15743.29
180.0821, 15736.05
180.5643, 15732.56
181.0464, 15735.95
181.5285, 15746.36
182.0106, 15761.81
182.4927, 15782.13
182.9748, 15807.00
183.4570, 15834.66
183.9391, 15862.68
184.4212, 15894.89
184.9033, 15936.75
185.3854, 15991.65
185.8675, 16050.77
186.3497, 16106.12
186.8318, 16157.50
187.3139, 16212.61
187.7960, 16275.05
188.2781, 16343.64
188.7602, 16417.87
189.2424, 16499.40
189.7245, 16583.17
190.2066, 16661.57
190.6887, 16732.52
191.1708, 16806.31
191.6530, 16885.79
192.1351, 16969.93
192.6172, 17059.46
193.0993, 17154.90
193.5814, 17253.18
194.0635, 17346.07
194.5457, 17427.29
195.0278, 17515.88
195.5099, 17622.55
195.9920, 17734.10
196.4741, 17836.64
196.9562, 17923.62
197.4384, 18000.97
197.9205, 18086.91
198.4026, 18189.27
198.8847, 18289.75
199.3668, 18386.62
199.8489, 18480.25
200.3311, 18570.99
200.8132, 18659.01
201.2953, 18744.81
201.7774, 18829.21
202.2595, 18915.98
202.7416, 18997.18
203.2238, 19070.73
203.7059, 19138.80
204.1880, 19205.59
204.6701, 19273.12
205.1522, 19340.32
205.6343, 19401.74
206.1165, 19464.58
206.5986, 19515.25
207.0807, 19545.79
207.5628, 19562.37
208.0449, 19577.01
208.5270, 19596.68
209.0092, 19617.82
209.4913, 19625.04
209.9734, 19613.71
210.4555, 19597.74
210.9376, 19583.46
211.4197, 19568.68
211.9019, 19547.33
212.3840, 19517.20
212.8661, 19477.31
213.3482, 19426.98
213.8303, 19362.13
214.3124, 19294.94
214.7946, 19232.63
215.2767, 19174.20
215.7588, 19116.26
216.2409, 19059.25
216.7230, 18999.87
217.2052, 18932.88
217.6873, 18857.64
218.1694, 18776.83
218.6515, 18688.94
219.1336, 18594.11
219.6157, 18505.45
220.0979, 18432.39
220.5800, 18364.91
221.0621, 18291.17
221.5442, 18208.65
222.0263, 18125.16
222.5084, 18049.20
222.9906, 17981.18
223.4727, 17912.26
223.9548, 17838.38
224.4369, 17763.62
224.9190, 17690.55
225.4011, 17619.09
225.8833, 17550.70
226.3654, 17487.23
226.8475, 17430.02
227.3296, 17372.36
227.8117, 17313.51
228.2938, 17253.35
228.7760, 17191.95
229.2581, 17129.07
229.7402, 17065.84
230.2223, 17003.17
230.7044, 16940.04
231.1865, 16880.37
231.6687, 16830.29
232.1508, 16779.79
232.6329, 16724.03
233.1150, 16661.38
233.5971, 16592.21
234.0792, 16516.02
234.5614, 16430.11
235.0435, 16343.75
235.5256, 16259.45
236.0077, 16173.24
236.4898, 16083.59
236.9719, 15990.21
237.4541, 15892.29
237.9362, 15788.33
238.4183, 15676.79
238.9004, 15563.77
239.3825, 15448.27
239.8646, 15332.92
240.3468, 15219.22
240.8289, 15107.30
241.3110, 14998.56
241.7931, 14893.00
242.2752, 14790.85
242.7573, 14693.93
243.2395, 14603.91
243.7216, 14517.03
244.2037, 14429.41
244.6858, 14341.53
245.1679, 14258.06
245.6501, 14184.56
246.1322, 14123.73
246.6143, 14064.16
247.0964, 14004.78
247.5785, 13947.09
248.0606, 13890.21
248.5428, 13835.10
249.0249, 13785.84
249.5070, 13747.68
249.9891, 13722.75
250.4712, 13693.78
250.9533, 13655.92
251.4355, 13618.10
251.9176, 13585.40
252.3997, 13558.31
252.8818, 13535.78
253.3639, 13517.80
253.8460, 13504.61
254.3282, 13490.97
254.8103, 13475.47
255.2924, 13460.66
255.7745, 13447.17
256.2566, 13435.42
256.7387, 13428.06
257.2209, 13427.57
257.7030, 13433.74
258.1851, 13440.91
258.6672, 13450.78
259.1493, 13460.18
259.6314, 13466.35
260.1136, 13469.56
260.5957, 13472.38
261.0778, 13474.95
261.5599, 13478.90
262.0420, 13487.99
262.5241, 13505.69
263.0063, 13524.40
263.4884, 13540.10
263.9705, 13552.71
264.4526, 13560.88
264.9347, 13560.35
265.4168, 13557.37
265.8990, 13563.93
266.3811, 13584.29
266.8632, 13605.53
267.3453, 13618.02
267.8274, 13622.76
268.3095, 13627.20
268.7917, 13632.94
269.2738, 13640.79
269.7559, 13650.71
270.2380, 13662.50
270.7201, 13677.82
271.2022, 13701.84
271.6844, 13732.51
272.1665, 13755.04
272.6486, 13761.36
273.1307, 13762.55
273.6128, 13769.69
274.0949, 13782.86
274.5771, 13797.86
275.0592, 13812.33
275.5413, 13826.45
276.0234, 13840.92
276.5055, 13855.21
276.9876, 13870.89
277.4698, 13890.31
277.9519, 13912.47
278.4340, 13932.73
278.9161, 13946.74
279.3982, 13956.07
279.8803, 13968.11
280.3625, 13983.41
280.8446, 14001.35
281.3267, 14023.46
281.8088, 14047.57
282.2909, 14068.54
282.7730, 14080.24
283.2552, 14086.70
283.7373, 14102.91
284.2194, 14135.84
284.7015, 14165.21
285.1836, 14178.84
285.6658, 14183.93
286.1479, 14191.32
286.6300, 14206.76
287.1121, 14226.53
287.5942, 14241.98
288.0764, 14251.53
288.5585, 14260.41
289.0406, 14270.55
289.5227, 14281.14
290.0048, 14291.61
290.4869, 14302.16
290.9691, 14311.68
291.4512, 14316.57
291.9333, 14313.33
292.4154, 14317.17
292.8975, 14339.21
293.3796, 14365.71
293.8618, 14385.72
294.3439, 14396.49
294.8260, 14404.69
295.3081, 14418.95
295.7902, 14440.30
296.2723, 14462.67
296.7545, 14485.89
297.2366, 14509.22
297.7187, 14531.11
298.2008, 14551.82
298.6829, 14574.21
299.1650, 14600.62
299.6472, 14631.05
300.1293, 14665.17
300.6114, 14705.68
301.0935, 14747.39
301.5756, 14787.21
302.0577, 14825.80
302.5399, 14866.47
303.0220, 14911.99
303.5041, 14962.10
303.9862, 15012.96
304.4683, 15064.06
304.9504, 15117.05
305.4326, 15169.61
305.9147, 15224.72
306.3968, 15288.32
306.8789, 15365.74
307.3610, 15453.60
307.8431, 15534.88
308.3253, 15602.48
308.8074, 15675.06
309.2895, 15754.74
309.7716, 15842.72
310.2537, 15940.37
310.7358, 16049.25
311.2180, 16165.72
311.7001, 16280.70
312.1822, 16393.64
312.6643, 16508.28
313.1464, 16624.96
313.6285, 16743.80
314.1107, 16865.26
314.5928, 16989.41
315.0749, 17117.07
315.5570, 17248.46
316.0391, 17382.98
316.5212, 17523.02
317.0034, 17670.62
317.4855, 17823.29
317.9676, 17981.81
318.4497, 18145.06
318.9318, 18308.33
319.4139, 18464.56
319.8961, 18611.77
320.3782, 18769.48
320.8603, 18950.55
321.3424, 19130.12
321.8245, 19299.38
322.3066, 19459.54
322.7888, 19617.32
323.2709, 19777.38
323.7530, 19938.61
324.2351, 20087.76
324.7172, 20224.57
325.1993, 20348.29
325.6815, 20459.11
326.1636, 20558.94
326.6457, 20652.57
327.1278, 20742.75
327.6099, 20825.37
328.0920, 20889.97
328.5742, 20931.13
329.0563, 20964.82
329.5384, 20998.88
330.0205, 21026.07
330.5026, 21038.72
330.9847, 21034.74
331.4669, 21020.45
331.9490, 21003.63
332.4311, 20984.05
332.9132, 20963.27
333.3953, 20938.25
333.8774, 20914.59
334.3596, 20896.59
334.8417, 20883.99
335.3238, 20872.57
335.8059, 20859.80
336.2880, 20845.76
336.7701, 20827.38
337.2523, 20807.02
337.7344, 20778.65
338.2165, 20738.68
338.6986, 20689.13
339.1807, 20634.38
339.6628, 20577.16
340.1450, 20516.71
340.6271, 20449.59
341.1092, 20373.73
341.5913, 20294.97
342.0735, 20213.30
342.5556, 20131.08
343.0377, 20050.01
343.5198, 19969.81
344.0019, 19893.69
344.4840, 19828.04
344.9662, 19773.74
345.4483, 19723.98
345.9304, 19675.34
346.4125, 19631.64
346.8946, 19596.17
347.3767, 19569.19
347.8589, 19549.95
348.3410, 19537.49
348.8231, 19531.81
349.3052, 19534.86
349.7873, 19550.13
350.2694, 19571.35
350.7516, 19596.74
351.2337, 19624.66
351.7158, 19648.56
352.1979, 19660.58
352.6800, 19665.34
353.1621, 19679.25
353.6443, 19706.79
354.1264, 19733.74
354.6085, 19748.67
355.0906, 19758.20
355.5727, 19772.78
356.0548, 19797.44
356.5370, 19826.87
357.0191, 19854.65
357.5012, 19880.65
357.9833, 19905.75
358.4654, 19931.47
358.9475, 19955.62
359.4297, 19974.71
359.9118, 19987.56
360.3939, 20000.03
360.8760, 20017.09
361.3581, 20037.70
361.8402, 20056.88
362.3224, 20073.17
362.8045, 20087.86
363.2866, 20102.27
363.7687, 20116.29
364.2508, 20129.49
364.7329, 20143.11
365.2151, 20155.33
365.6972, 20161.39
366.1793, 20159.59
366.6614, 20159.66
367.1435, 20172.15
367.6256, 20192.56
368.1078, 20206.72
368.5899, 20211.64
369.0720, 20210.86
369.5541, 20203.36
370.0362, 20190.81
370.5183, 20186.11
371.0005, 20201.06
371.4826, 20222.16
371.9647, 20217.50
372.4468, 20177.18
372.9289, 20139.70
373.4110, 20126.20
373.8932, 20124.43
374.3753, 20111.72
374.8574, 20081.55
375.3395, 20043.37
375.8216, 20009.18
376.3037, 19979.76
376.7859, 19946.15
377.2680, 19904.77
377.7501, 19860.53
378.2322, 19819.42
378.7143, 19780.77
379.1964, 19736.86
379.6786, 19681.11
380.1607, 19614.31
380.6428, 19546.35
381.1249, 19476.29
381.6070, 19406.90
382.0891, 19340.70
382.5713, 19275.41
383.0534, 19206.67
383.5355, 19132.09
384.0176, 19054.35
384.4997, 18978.55
384.9818, 18909.24
385.4640, 18834.04
385.9461, 18748.59
386.4282, 18659.97
386.9103, 18575.90
387.3924, 18497.13
387.8745, 18416.69
388.3567, 18327.43
388.8388, 18227.43
389.3209, 18132.93
389.8030, 18047.45
390.2851, 17962.29
390.7672, 17872.79
391.2494, 17781.09
391.7315, 17692.06
392.2136, 17608.86
392.6957, 17529.63
393.1778, 17448.62
393.6599, 17363.91
394.1421, 17279.91
394.6242, 17193.63
395.1063, 17109.57
395.5884, 17035.06
396.0706, 16970.47
396.5527, 16907.65
397.0348, 16833.76
397.5169, 16744.78
397.9990, 16662.22
398.4811, 16592.37
398.9633, 16524.04
399.4454, 16451.12
399.9275, 16375.88
400.4096, 16303.96
400.8917, 16240.22
401.3738, 16182.82
401.8560, 16124.02
402.3381, 16064.33
402.8202, 16002.43
403.3023, 15933.77
403.7844, 15864.79
404.2665, 15802.75
404.7487, 15750.12
405.2308, 15701.13
405.7129, 15649.44
406.1950, 15594.66
406.6771, 15539.73
407.1592, 15482.96
407.6414, 15429.13
408.1235, 15382.43
408.6056, 15341.96
409.0877, 15302.54
409.5698, 15259.75
410.0519, 15216.25
410.5341, 15179.21
411.0162, 15150.63
411.4983, 15121.61
411.9804, 15086.54
412.4625, 15047.43
412.9446, 15007.65
413.4268, 14967.12
413.9089, 14926.91
414.3910, 14887.89
414.8731, 14850.06
415.3552, 14813.43
415.8373, 14778.05
416.3195, 14743.87
416.8016, 14712.48
417.2837, 14684.69
417.7658, 14651.12
418.2479, 14606.07
418.7300, 14555.74
419.2122, 14506.25
419.6943, 14458.36
420.1764, 14411.07
420.6585, 14362.90
421.1406, 14314.51
421.6227, 14273.14
422.1049, 14243.98
422.5870, 14214.88
423.0691, 14180.89
423.5512, 14143.66
424.0333, 14106.03
424.5154, 14069.32
424.9976, 14032.78
425.4797, 13995.17
425.9618, 13954.38
426.4439, 13917.32
426.9260, 13884.84
427.4081, 13855.29
427.8903, 13826.28
428.3724, 13798.64
428.8545, 13776.29
429.3366, 13762.55
429.8187, 13757.21
430.3008, 13754.87
430.7830, 13754.85
431.2651, 13759.28
431.7472, 13770.48
432.2293, 13785.67
432.7114, 13801.99
433.1935, 13818.27
433.6757, 13834.01
434.1578, 13846.96
434.6399, 13854.10
435.1220, 13868.53
435.6041, 13896.41
436.0862, 13927.19
436.5684, 13957.68
437.0505, 13986.81
437.5326, 14013.50
438.0147, 14036.78
438.4968, 14056.88
438.9789, 14074.64
439.4611, 14089.86
439.9432, 14103.10
440.4253, 14111.56
440.9074, 14119.73
441.3895, 14133.01
441.8716, 14153.28
442.3538, 14175.11
442.8359, 14193.54
443.3180, 14209.34
443.8001, 14226.67
444.2822, 14248.62
444.7643, 14268.34
445.2465, 14276.92
445.7286, 14276.89
446.2107, 14278.39
446.6928, 14285.33
447.1749, 14294.29
447.6570, 14303.84
448.1392, 14313.25
448.6213, 14317.67
449.1034, 14314.79
449.5855, 14304.80
450.0677, 14287.35
450.5498, 14259.63
451.0319, 14232.02
451.5140, 14212.06
451.9961, 14191.34
452.4782, 14158.13
452.9604, 14110.69
453.4425, 14058.58
453.9246, 14012.55
454.4067, 13974.38
454.8888, 13922.51
455.3709, 13850.33
455.8531, 13774.78
456.3352, 13699.26
456.8173, 13625.27
457.2994, 13554.71
457.7815, 13488.79
458.2636, 13424.10
458.7458, 13352.29
459.2279, 13267.15
459.7100, 13187.76
460.1921, 13118.06
460.6742, 13050.54
461.1563, 12981.54
461.6385, 12910.52
462.1206, 12838.66
462.6027, 12766.20
463.0848, 12693.61
463.5669, 12623.69
464.0490, 12557.89
464.5312, 12492.42
465.0133, 12425.99
465.4954, 12359.39
465.9775, 12293.25
466.4596, 12227.32
466.9417, 12161.33
467.4239, 12092.89
467.9060, 12023.04
468.3881, 11958.45
468.8702, 11901.34
469.3523, 11846.87
469.8344, 11790.89
470.3166, 11734.29
470.7987, 11680.56
471.2808, 11631.61
471.7629, 11585.22
472.2450, 11539.85
472.7271, 11495.66
473.2093, 11453.20
473.6914, 11412.72
474.1735, 11374.22
474.6556, 11338.08
475.1377, 11305.46
475.6198, 11271.00
476.1020, 11227.83
476.5841, 11186.49
477.0662, 11157.02
477.5483, 11139.41
478.0304, 11126.33
478.5125, 11112.67
478.9947, 11098.45
479.4768, 11084.98
479.9589, 11073.03
480.4410, 11060.51
480.9231, 11045.14
481.4052, 11030.02
481.8874, 11018.84
482.3695, 11012.21
482.8516, 11007.45
483.3337, 11001.28
483.8158, 10993.40
484.2979, 10986.68
484.7801, 10982.45
485.2622, 10977.93
485.7443, 10971.21
486.2264, 10963.83
486.7085, 10958.25
487.1906, 10955.57
487.6728, 10954.91
488.1549, 10956.41
488.6370, 10960.45
489.1191, 10959.79
489.6012, 10949.14
490.0833, 10937.40
490.5655, 10933.39
491.0476, 10935.97
491.5297, 10937.40
492.0118, 10934.44
492.4939, 10928.78
492.9760, 10921.94
493.4582, 10914.05
493.9403, 10906.37
494.4224, 10898.86
494.9045, 10892.59
495.3866, 10890.52
495.8687, 10893.21
496.3509, 10897.55
496.8330, 10901.93
497.3151, 10908.03
497.7972, 10918.58
498.2793, 10933.29
498.7614, 10948.17
499.2436, 10959.40
499.7257, 10967.29
500.2078, 10978.94
500.6899, 10996.70
501.1720, 11015.33
501.6541, 11035.07
502.1363, 11054.75
502.6184, 11072.28
503.1005, 11087.58
503.5826, 11104.25
504.0647, 11128.15
504.5468, 11160.57
505.0290, 11187.40
505.5111, 11205.27
505.9932, 11221.76
506.4753, 11240.02
506.9575, 11258.94
507.4396, 11276.44
507.9217, 11291.45
508.4038, 11305.81
508.8859, 11322.21
509.3680, 11340.46
509.8502, 11356.47
510.3323, 11368.07
510.8144, 11379.26
511.2965, 11393.65
511.7786, 11410.87
512.2607, 11430.45
512.7429, 11455.53
513.2250, 11480.26
513.7071, 11499.34
514.1892, 11513.60
514.6713, 11526.58
515.1534, 11539.28
515.6356, 11553.61
516.1177, 11573.74
516.5998, 11603.92
517.0819, 11631.16
517.5640, 11653.90
518.0461, 11674.72
518.5283, 11694.77
519.0104, 11714.52
519.4925, 11733.74
519.9746, 11751.91
520.4567, 11770.55
520.9388, 11796.29
521.4210, 11836.28
521.9031, 11869.66
522.3852, 11888.13
522.8673, 11904.38
523.3494, 11927.33
523.8315, 11957.12
524.3137, 11988.38
524.7958, 12017.28
525.2779, 12044.11
525.7600, 12068.59
526.2421, 12089.37
526.7242, 12112.68
527.2064, 12144.15
527.6885, 12178.11
528.1706, 12207.67
528.6527, 12231.91
529.1348, 12254.04
529.6169, 12273.94
530.0991, 12293.59
530.5812, 12317.25
531.0633, 12345.37
531.5454, 12372.98
532.0275, 12396.34
532.5096, 12416.09
532.9918, 12436.04
533.4739, 12458.03
533.9560, 12477.76
534.4381, 12491.90
534.9202, 12504.63
535.4023, 12521.40
535.8845, 12542.62
536.3666, 12563.81
536.8487, 12579.98
537.3308, 12591.16
537.8129, 12604.74
538.2950, 12624.17
538.7772, 12641.42
539.2593, 12653.50
539.7414, 12663.18
540.2235, 12673.00
540.7056, 12683.66
541.1877, 12695.47
541.6699, 12708.63
542.1520, 12723.14
542.6341, 12739.97
543.1162, 12760.58
543.5983, 12780.02
544.0804, 12793.40
544.5626, 12803.65
545.0447, 12816.15
545.5268, 12831.86
546.0089, 12849.38
546.4910, 12869.33
546.9731, 12890.30
547.4553, 12908.47
547.9374, 12923.18
548.4195, 12938.84
548.9016, 12959.84
549.3837, 12986.36
549.8658, 13013.81
550.3480, 13041.68
550.8301, 13071.06
551.3122, 13101.90
551.7943, 13134.50
552.2764, 13170.27
552.7585, 13209.04
553.2407, 13247.56
553.7228, 13281.46
554.2049, 13310.47
554.6870, 13339.58
555.1691, 13369.71
555.6512, 13398.44
556.1334, 13422.34
556.6155, 13445.36
557.0976, 13472.89
557.5797, 13506.51
558.0618, 13543.17
558.5439, 13582.68
559.0261, 13623.20
559.5082, 13658.41
559.9903, 13687.09
560.4724, 13711.09
560.9545, 13728.77
561.4366, 13742.49
561.9188, 13764.01
562.4009, 13800.48
562.8830, 13835.78
563.3651, 13863.39
563.8472, 13886.65
564.3293, 13910.29
564.8115, 13935.28
565.2936, 13959.53
565.7757, 13980.55
566.2578, 13998.44
566.7399, 14018.79
567.2220, 14045.47
567.7042, 14070.07
568.1863, 14090.00
568.6684, 14107.73
569.1505, 14125.80
569.6326, 14144.59
570.1147, 14162.53
570.5969, 14179.81
571.0790, 14195.43
571.5611, 14201.03
572.0432, 14192.31
572.5253, 14185.66
573.0074, 14193.65
573.4896, 14206.86
573.9717, 14211.14
574.4538, 14203.83
574.9359, 14193.25
575.4180, 14181.33
575.9001, 14169.43
576.3823, 14161.34
576.8644, 14156.71
577.3465, 14148.26
577.8286, 14130.39
578.3107, 14104.83
578.7928, 14080.05
579.2750, 14057.90
579.7571, 14033.98
580.2392, 14008.34
580.7213, 13980.75
581.2034, 13950.87
581.6855, 13918.80
582.1677, 13884.43
582.6498, 13847.67
583.1319, 13808.75
583.6140, 13768.96
584.0961, 13727.73
584.5782, 13686.84
585.0604, 13644.00
585.5425, 13603.86
586.0246, 13572.40
586.5067, 13548.80
586.9889, 13523.05
587.4710, 13489.67
587.9531, 13452.75
588.4352, 13416.21
588.9174, 13380.39
589.3995, 13345.79
589.8816, 13312.92
590.3637, 13280.95
