##NAMES=Ferro-holmquistite
##RRUFFID=R070005
##IDEAL CHEMISTRY=[box]Li_2_(Fe^2+^_3_Al_2_)Si_8_O_22_(OH)_2_
##LOCALITY=Mount Marrion, South Australia, Australia
##OWNER=RRUFF
##SOURCE=Michael Scott
##DESCRIPTION=Dark blue fractured prismatic crystals
##STATUS=The identification of this mineral is confirmed by single-crystal X-ray diffraction and chemical analysis.
##URL=rruff.info/R070005
##MEASURED CHEMISTRY=(Li_1.93_Na_0.03_Mn_0.02_[box]_0.02_)_Σ=2_((Fe^2+^_1.52_Mg_1.48_)_Σ=3_(Al_1.91_Fe^3+^_0.09_)_Σ=2_)_Σ=5_Si_8.00_O_22_(OH)_2_; Li estimated by difference Li=2-(Na+K+Ca+Mn) and charge balance; OH by charge balance
154.0939, 10912.62
154.5760, 10895.53
155.0581, 10879.20
155.5403, 10886.39
156.0224, 10929.38
156.5045, 10988.05
156.9866, 11041.70
157.4687, 11083.47
157.9508, 11125.38
158.4330, 11192.50
158.9151, 11310.92
159.3972, 11423.76
159.8793, 11515.13
160.3614, 11608.12
160.8435, 11729.15
161.3257, 11887.97
161.8078, 12067.37
162.2899, 12232.98
162.7720, 12363.73
163.2541, 12507.36
163.7362, 12669.74
164.2184, 12843.63
164.7005, 13023.49
165.1826, 13208.27
165.6647, 13393.31
166.1468, 13570.39
166.6289, 13736.62
167.1111, 13900.24
167.5932, 14058.37
168.0753, 14215.47
168.5574, 14377.76
169.0395, 14549.28
169.5216, 14723.88
170.0038, 14890.69
170.4859, 15051.27
170.9680, 15202.13
171.4501, 15326.08
171.9322, 15445.62
172.4143, 15600.26
172.8965, 15807.49
173.3786, 16030.78
173.8607, 16198.05
174.3428, 16286.89
174.8249, 16394.40
175.3070, 16550.03
175.7892, 16734.21
176.2713, 16919.09
176.7534, 17096.70
177.2355, 17269.48
177.7176, 17434.10
178.1997, 17586.16
178.6819, 17752.23
179.1640, 17934.91
179.6461, 18136.40
180.1282, 18363.68
180.6103, 18621.10
181.0924, 18894.36
181.5745, 19164.78
182.0567, 19432.36
182.5388, 19698.32
183.0209, 19960.76
183.5030, 20221.40
183.9851, 20480.12
184.4672, 20732.46
184.9494, 20992.22
185.4315, 21288.75
185.9136, 21620.58
186.3957, 21943.42
186.8778, 22250.25
187.3599, 22538.85
187.8421, 22809.22
188.3242, 23062.43
188.8063, 23293.83
189.2884, 23506.56
189.7705, 23703.61
190.2526, 23838.07
190.7348, 23904.31
191.2169, 23897.40
191.6990, 23800.87
192.1811, 23603.24
192.6632, 23344.76
193.1453, 23050.00
193.6275, 22724.08
194.1096, 22379.58
194.5917, 22006.20
195.0738, 21620.38
195.5559, 21246.04
196.0380, 20881.38
196.5202, 20536.76
197.0023, 20221.49
197.4844, 19931.43
197.9665, 19669.43
198.4486, 19441.04
198.9307, 19237.26
199.4129, 19043.34
199.8950, 18855.70
200.3771, 18685.85
200.8592, 18550.33
201.3413, 18439.04
201.8234, 18335.20
202.3056, 18237.27
202.7877, 18143.35
203.2698, 18049.31
203.7519, 17954.58
204.2340, 17863.93
204.7161, 17774.23
205.1983, 17692.00
205.6804, 17632.88
206.1625, 17614.02
206.6446, 17611.08
207.1267, 17599.37
207.6088, 17580.37
208.0910, 17541.56
208.5731, 17454.92
209.0552, 17348.72
209.5373, 17265.58
210.0194, 17218.84
210.5015, 17193.71
210.9837, 17181.08
211.4658, 17182.41
211.9479, 17176.38
212.4300, 17145.20
212.9121, 17103.72
213.3942, 17074.14
213.8764, 17065.68
214.3585, 17057.54
214.8406, 17022.92
215.3227, 16961.40
215.8048, 16914.77
216.2869, 16900.21
216.7691, 16910.03
217.2512, 16936.72
217.7333, 16985.55
218.2154, 17032.23
218.6975, 17055.69
219.1796, 17057.40
219.6618, 17055.04
220.1439, 17048.98
220.6260, 17045.77
221.1081, 17053.36
221.5902, 17073.16
222.0723, 17094.20
222.5545, 17111.35
223.0366, 17124.20
223.5187, 17129.74
224.0008, 17124.54
224.4829, 17114.69
224.9650, 17105.43
225.4472, 17096.70
225.9293, 17091.48
226.4114, 17091.79
226.8935, 17096.96
227.3756, 17107.72
227.8577, 17131.41
228.3399, 17146.89
228.8220, 17123.23
229.3041, 17069.14
229.7862, 17034.02
230.2683, 17050.69
230.7504, 17099.27
231.2325, 17139.16
231.7147, 17166.60
232.1968, 17186.25
232.6789, 17197.30
233.1610, 17202.96
233.6431, 17212.11
234.1252, 17226.97
234.6074, 17247.19
235.0895, 17274.55
235.5716, 17310.90
236.0537, 17344.86
236.5358, 17367.90
237.0179, 17383.08
237.5001, 17396.08
237.9822, 17404.94
238.4643, 17414.38
238.9464, 17432.69
239.4285, 17460.26
239.9106, 17480.37
240.3928, 17477.47
240.8749, 17463.09
241.3570, 17460.63
241.8391, 17472.42
242.3212, 17495.42
242.8033, 17540.66
243.2855, 17602.56
243.7676, 17636.23
244.2497, 17609.59
244.7318, 17554.88
245.2139, 17534.71
245.6960, 17560.89
246.1782, 17588.27
246.6603, 17588.99
247.1424, 17571.38
247.6245, 17563.13
248.1066, 17577.57
248.5887, 17595.98
249.0709, 17584.83
249.5530, 17539.60
250.0351, 17506.94
250.5172, 17511.32
250.9993, 17537.42
251.4814, 17561.97
251.9636, 17582.04
252.4457, 17591.54
252.9278, 17576.51
253.4099, 17537.30
253.8920, 17506.71
254.3741, 17490.36
254.8563, 17485.77
255.3384, 17495.34
255.8205, 17519.39
256.3026, 17541.39
256.7847, 17546.12
257.2668, 17533.23
257.7490, 17521.96
258.2311, 17514.63
258.7132, 17507.54
259.1953, 17495.20
259.6774, 17479.10
260.1595, 17470.90
260.6417, 17483.21
261.1238, 17508.99
261.6059, 17505.83
262.0880, 17442.40
262.5701, 17386.13
263.0522, 17373.19
263.5344, 17389.03
264.0165, 17398.52
264.4986, 17383.83
264.9807, 17353.96
265.4628, 17335.74
265.9449, 17337.70
266.4271, 17336.66
266.9092, 17320.79
267.3913, 17302.02
267.8734, 17299.86
268.3555, 17320.92
268.8376, 17349.30
269.3198, 17359.93
269.8019, 17348.13
270.2840, 17323.11
270.7661, 17265.32
271.2482, 17206.49
271.7303, 17176.96
272.2125, 17179.24
272.6946, 17189.75
273.1767, 17181.92
273.6588, 17149.44
274.1409, 17130.86
274.6230, 17129.02
275.1052, 17136.19
275.5873, 17154.30
276.0694, 17179.01
276.5515, 17200.55
277.0336, 17211.98
277.5157, 17213.38
277.9979, 17207.04
278.4800, 17176.53
278.9621, 17156.62
279.4442, 17158.10
279.9263, 17174.51
280.4084, 17197.71
280.8906, 17224.06
281.3727, 17250.16
281.8548, 17265.27
282.3369, 17261.75
282.8190, 17257.44
283.3011, 17239.77
283.7833, 17229.59
284.2654, 17257.79
284.7475, 17329.07
285.2296, 17404.15
285.7117, 17412.79
286.1938, 17314.30
286.6760, 17262.65
287.1581, 17296.23
287.6402, 17347.26
288.1223, 17386.90
288.6044, 17410.14
289.0865, 17421.29
289.5687, 17420.28
290.0508, 17406.56
290.5329, 17402.96
291.0150, 17417.33
291.4971, 17433.95
291.9792, 17444.49
292.4614, 17452.88
292.9435, 17468.47
293.4256, 17500.75
293.9077, 17541.08
294.3898, 17561.90
294.8719, 17557.17
295.3541, 17546.02
295.8362, 17536.10
296.3183, 17523.70
296.8004, 17501.25
297.2825, 17462.82
297.7646, 17427.13
298.2468, 17423.64
298.7289, 17455.86
299.2110, 17476.78
299.6931, 17462.79
300.1752, 17440.89
300.6573, 17435.88
301.1395, 17449.58
301.6216, 17466.62
302.1037, 17473.95
302.5858, 17475.61
303.0679, 17490.18
303.5500, 17528.24
304.0321, 17563.47
304.5143, 17565.93
304.9964, 17543.26
305.4785, 17525.67
305.9606, 17529.68
306.4427, 17540.69
306.9248, 17538.95
307.4070, 17523.15
307.8891, 17505.46
308.3712, 17496.30
308.8533, 17491.02
309.3354, 17473.02
309.8175, 17423.38
310.2997, 17380.09
310.7818, 17373.51
311.2639, 17392.50
311.7460, 17399.21
312.2281, 17373.89
312.7102, 17334.74
313.1924, 17328.67
313.6745, 17378.75
314.1566, 17402.60
314.6387, 17363.21
315.1208, 17297.88
315.6029, 17244.40
316.0851, 17212.20
316.5672, 17204.58
317.0493, 17231.04
317.5314, 17307.44
318.0135, 17346.18
318.4956, 17319.27
318.9778, 17282.53
319.4599, 17264.65
319.9420, 17264.99
320.4241, 17270.47
320.9062, 17272.07
321.3883, 17270.28
321.8705, 17269.92
322.3526, 17262.30
322.8347, 17266.46
323.3168, 17297.66
323.7989, 17338.03
324.2810, 17365.24
324.7632, 17370.20
325.2453, 17362.14
325.7274, 17357.04
326.2095, 17349.17
326.6916, 17358.07
327.1737, 17401.68
327.6559, 17447.38
328.1380, 17472.16
328.6201, 17475.79
329.1022, 17476.21
329.5843, 17492.07
330.0664, 17523.56
330.5486, 17545.33
331.0307, 17542.20
331.5128, 17548.79
331.9949, 17591.88
332.4770, 17652.59
332.9591, 17695.35
333.4413, 17699.33
333.9234, 17679.86
334.4055, 17661.12
334.8876, 17638.66
335.3697, 17636.90
335.8518, 17685.02
336.3340, 17748.91
336.8161, 17796.75
337.2982, 17824.40
337.7803, 17835.84
338.2624, 17819.54
338.7445, 17785.48
339.2267, 17782.61
339.7088, 17833.10
340.1909, 17894.21
340.6730, 17915.35
341.1551, 17901.85
341.6372, 17891.88
342.1194, 17900.49
342.6015, 17914.93
343.0836, 17923.23
343.5657, 17924.39
344.0478, 17916.55
344.5299, 17894.99
345.0121, 17863.27
345.4942, 17842.78
345.9763, 17834.68
346.4584, 17835.30
346.9405, 17850.36
347.4226, 17872.17
347.9048, 17888.01
348.3869, 17893.18
348.8690, 17888.60
349.3511, 17874.70
349.8332, 17837.75
350.3153, 17818.52
350.7975, 17838.25
351.2796, 17859.17
351.7617, 17851.67
352.2438, 17816.29
352.7259, 17772.99
353.2080, 17737.37
353.6902, 17709.53
354.1723, 17699.14
354.6544, 17735.18
355.1365, 17758.66
355.6186, 17751.15
356.1007, 17725.48
356.5829, 17700.24
357.0650, 17684.20
357.5471, 17670.71
358.0292, 17643.05
358.5113, 17591.69
358.9934, 17556.95
359.4756, 17568.04
359.9577, 17581.69
360.4398, 17566.95
360.9219, 17523.88
361.4040, 17481.22
361.8861, 17464.07
362.3683, 17467.14
362.8504, 17465.62
363.3325, 17459.80
363.8146, 17446.22
364.2967, 17410.03
364.7788, 17365.71
365.2610, 17342.53
365.7431, 17357.55
366.2252, 17386.27
366.7073, 17403.54
367.1894, 17411.69
367.6715, 17432.02
368.1537, 17479.97
368.6358, 17535.55
369.1179, 17558.17
369.6000, 17540.58
370.0821, 17526.99
370.5642, 17523.18
371.0464, 17532.78
371.5285, 17567.13
372.0106, 17625.90
372.4927, 17685.54
372.9748, 17724.22
373.4569, 17740.60
373.9391, 17756.04
374.4212, 17773.84
374.9033, 17787.36
375.3854, 17784.35
375.8675, 17777.13
376.3496, 17786.11
376.8318, 17820.95
377.3139, 17877.01
377.7960, 17947.51
378.2781, 18058.93
378.7602, 18134.67
379.2423, 18139.70
379.7245, 18139.18
380.2066, 18182.18
380.6887, 18266.92
381.1708, 18352.60
381.6529, 18398.99
382.1350, 18410.65
382.6172, 18448.82
383.0993, 18538.83
383.5814, 18613.50
384.0635, 18639.17
384.5456, 18637.55
385.0277, 18639.01
385.5099, 18655.81
385.9920, 18671.43
386.4741, 18669.86
386.9562, 18651.04
387.4383, 18609.00
387.9204, 18527.74
388.4026, 18440.83
388.8847, 18391.93
389.3668, 18379.42
389.8489, 18360.88
390.3310, 18331.54
390.8131, 18283.58
391.2953, 18192.49
391.7774, 18060.14
392.2595, 17945.81
392.7416, 17893.39
393.2237, 17892.08
393.7058, 17875.79
394.1880, 17829.61
394.6701, 17788.87
395.1522, 17770.74
395.6343, 17760.47
396.1164, 17735.88
396.5985, 17690.86
397.0807, 17638.94
397.5628, 17597.86
398.0449, 17566.95
398.5270, 17550.28
399.0091, 17567.47
399.4912, 17577.92
399.9734, 17559.41
400.4555, 17520.32
400.9376, 17480.72
401.4197, 17452.21
401.9018, 17431.76
402.3839, 17407.52
402.8660, 17369.32
403.3481, 17354.51
403.8303, 17405.25
404.3124, 17461.22
404.7945, 17472.32
405.2766, 17433.35
405.7587, 17386.50
406.2408, 17363.79
406.7230, 17358.70
407.2051, 17345.60
407.6872, 17317.82
408.1693, 17297.21
408.6514, 17307.01
409.1335, 17336.06
409.6157, 17353.79
410.0978, 17349.17
410.5799, 17340.25
411.0620, 17332.52
411.5441, 17329.24
412.0262, 17344.82
412.5084, 17387.77
412.9905, 17432.81
413.4726, 17437.21
413.9547, 17373.99
414.4368, 17344.39
414.9189, 17378.69
415.4011, 17420.88
415.8832, 17430.74
416.3653, 17415.52
416.8474, 17408.51
417.3295, 17432.72
417.8116, 17480.18
418.2938, 17515.03
418.7759, 17530.93
419.2580, 17543.72
419.7401, 17559.45
420.2222, 17570.88
420.7043, 17574.63
421.1865, 17568.97
421.6686, 17549.23
422.1507, 17508.85
422.6328, 17449.02
423.1149, 17377.67
423.5970, 17280.99
424.0792, 17200.03
424.5613, 17180.56
425.0434, 17187.88
425.5255, 17162.38
426.0076, 17074.57
426.4897, 16976.72
426.9719, 16911.99
427.4540, 16873.54
427.9361, 16833.83
428.4182, 16783.14
428.9003, 16734.31
429.3824, 16707.04
429.8646, 16706.01
430.3467, 16694.87
430.8288, 16650.21
431.3109, 16613.04
431.7930, 16625.42
432.2751, 16670.09
432.7573, 16692.90
433.2394, 16661.66
433.7215, 16594.12
434.2036, 16544.71
434.6857, 16520.59
435.1678, 16504.55
435.6500, 16490.89
436.1321, 16487.43
436.6142, 16507.63
437.0963, 16546.79
437.5784, 16581.15
438.0605, 16592.81
438.5427, 16583.18
439.0248, 16554.02
439.5069, 16486.74
439.9890, 16442.62
440.4711, 16474.49
440.9532, 16532.19
441.4354, 16561.72
441.9175, 16551.48
442.3996, 16524.90
442.8817, 16491.14
443.3638, 16454.14
443.8459, 16421.23
444.3281, 16392.58
444.8102, 16377.22
445.2923, 16385.95
445.7744, 16419.21
446.2565, 16452.00
446.7386, 16497.80
447.2208, 16528.63
447.7029, 16515.15
448.1850, 16482.02
448.6671, 16475.35
449.1492, 16511.77
449.6313, 16565.04
450.1135, 16592.95
450.5956, 16587.91
451.0777, 16580.65
451.5598, 16568.69
452.0419, 16557.02
452.5240, 16549.09
453.0062, 16542.96
453.4883, 16535.32
453.9704, 16525.56
454.4525, 16510.52
454.9346, 16479.18
455.4167, 16427.49
455.8989, 16389.62
456.3810, 16381.82
456.8631, 16383.64
457.3452, 16372.32
457.8273, 16348.96
458.3094, 16335.28
458.7916, 16351.33
459.2737, 16374.59
459.7558, 16374.58
460.2379, 16352.82
460.7200, 16335.68
461.2021, 16339.11
461.6843, 16354.34
462.1664, 16355.98
462.6485, 16332.43
463.1306, 16315.51
463.6127, 16316.91
464.0948, 16319.71
464.5770, 16306.10
465.0591, 16278.00
465.5412, 16251.95
466.0233, 16240.15
466.5054, 16242.51
466.9875, 16262.66
467.4697, 16328.65
467.9518, 16362.00
468.4339, 16323.10
468.9160, 16261.13
469.3981, 16218.03
469.8802, 16201.12
470.3624, 16192.20
470.8445, 16177.12
471.3266, 16158.62
471.8087, 16146.46
472.2908, 16142.39
472.7729, 16138.79
473.2551, 16132.67
473.7372, 16122.76
474.2193, 16106.36
474.7014, 16076.42
475.1835, 16051.02
475.6656, 16040.30
476.1478, 16036.73
476.6299, 16028.96
477.1120, 16015.17
477.5941, 16003.40
478.0762, 16004.06
478.5583, 16017.98
479.0405, 16011.89
479.5226, 15958.26
480.0047, 15915.83
480.4868, 15894.52
480.9689, 15890.90
481.4510, 15906.14
481.9332, 15939.28
482.4153, 15972.09
482.8974, 15979.37
483.3795, 15963.49
483.8616, 15964.84
484.3438, 15994.76
484.8259, 16023.85
485.3080, 16035.54
485.7901, 16032.97
486.2722, 16018.46
486.7543, 15984.18
487.2365, 15951.91
487.7186, 15936.23
488.2007, 15931.99
488.6828, 15924.00
489.1649, 15908.41
489.6470, 15907.63
490.1292, 15951.99
490.6113, 16048.75
491.0934, 16097.75
491.5755, 16072.18
492.0576, 16037.32
492.5397, 15995.63
493.0219, 15961.98
493.5040, 15959.67
493.9861, 15994.29
494.4682, 16038.41
494.9503, 16053.09
495.4324, 16036.54
495.9146, 16039.45
496.3967, 16085.27
496.8788, 16115.14
497.3609, 16085.11
497.8430, 16022.48
498.3251, 15971.04
498.8073, 15941.75
499.2894, 15924.11
499.7715, 15919.97
500.2536, 15920.98
500.7357, 15901.80
501.2178, 15855.61
501.6999, 15809.53
502.1820, 15790.35
502.6642, 15798.84
503.1463, 15806.86
503.6284, 15825.92
504.1105, 15831.11
504.5926, 15795.80
505.0747, 15751.32
505.5569, 15746.07
506.0390, 15789.05
506.5211, 15831.51
507.0032, 15803.60
507.4853, 15703.18
507.9674, 15652.88
508.4496, 15682.03
508.9317, 15713.67
509.4138, 15711.46
509.8959, 15691.96
510.3780, 15675.64
510.8601, 15665.83
511.3423, 15662.18
511.8244, 15672.25
512.3065, 15686.77
512.7886, 15681.37
513.2708, 15651.99
513.7529, 15624.08
514.2350, 15617.90
514.7171, 15631.97
515.1992, 15650.38
515.6813, 15694.35
516.1635, 15715.38
516.6456, 15685.42
517.1277, 15639.48
517.6098, 15610.95
518.0919, 15605.67
518.5740, 15611.74
519.0562, 15621.41
519.5383, 15633.03
520.0204, 15630.15
520.5025, 15599.92
520.9846, 15585.77
521.4667, 15624.89
521.9489, 15677.04
522.4310, 15699.92
522.9131, 15686.93
523.3952, 15674.92
523.8773, 15683.04
524.3594, 15702.87
524.8416, 15729.33
525.3237, 15759.57
525.8058, 15773.99
526.2879, 15759.19
526.7700, 15723.39
527.2521, 15692.31
527.7343, 15637.77
528.2164, 15631.34
528.6985, 15729.37
529.1806, 15828.08
529.6627, 15852.68
530.1448, 15812.17
530.6270, 15757.67
531.1091, 15716.58
531.5912, 15690.44
532.0733, 15688.12
532.5554, 15714.33
533.0375, 15728.96
533.5197, 15710.02
534.0018, 15690.12
534.4839, 15709.24
534.9660, 15761.70
535.4481, 15795.42
535.9302, 15788.64
536.4124, 15765.33
536.8945, 15733.97
537.3766, 15701.11
537.8587, 15683.55
538.3408, 15687.95
538.8229, 15702.25
539.3051, 15709.19
539.7872, 15707.60
540.2693, 15703.24
540.7514, 15697.18
541.2335, 15687.14
541.7156, 15661.56
542.1978, 15635.13
542.6799, 15630.98
543.1620, 15657.79
543.6441, 15694.72
544.1262, 15724.39
544.6083, 15746.33
545.0905, 15758.04
545.5726, 15759.23
546.0547, 15748.61
546.5368, 15713.58
547.0189, 15666.93
547.5010, 15661.34
547.9832, 15737.14
548.4653, 15792.49
548.9474, 15779.00
549.4295, 15744.37
549.9116, 15743.46
550.3937, 15777.46
550.8758, 15806.78
551.3579, 15797.99
551.8400, 15760.88
552.3221, 15740.44
552.8043, 15744.54
553.2864, 15747.01
553.7685, 15751.62
554.2506, 15745.22
554.7327, 15706.53
555.2148, 15641.19
555.6970, 15594.37
556.1791, 15598.76
556.6612, 15623.88
557.1433, 15643.63
557.6254, 15655.46
558.1075, 15648.16
558.5897, 15616.23
559.0718, 15569.26
559.5539, 15518.61
560.0360, 15458.29
560.5181, 15418.71
561.0002, 15409.06
561.4824, 15406.79
561.9645, 15411.56
562.4466, 15415.59
562.9287, 15408.75
563.4108, 15387.69
563.8929, 15357.89
564.3751, 15320.85
564.8572, 15278.98
565.3393, 15248.34
565.8214, 15231.39
566.3035, 15221.34
566.7856, 15215.01
567.2678, 15212.88
567.7499, 15217.28
568.2320, 15238.68
568.7141, 15243.62
569.1962, 15213.36
569.6783, 15168.81
570.1605, 15120.04
570.6426, 15074.46
571.1247, 15048.81
571.6068, 15055.32
572.0889, 15084.70
572.5710, 15115.53
573.0532, 15158.62
573.5353, 15168.71
574.0174, 15096.87
574.4995, 15032.40
574.9816, 15048.95
575.4637, 15118.79
575.9459, 15148.15
576.4280, 15077.67
576.9101, 14991.50
577.3922, 14959.93
577.8743, 14968.24
578.3564, 14980.67
578.8386, 14988.54
579.3207, 14998.41
579.8028, 15019.43
580.2849, 15051.12
580.7670, 15061.26
581.2491, 15021.91
581.7313, 14994.93
582.2134, 15005.63
582.6955, 15021.04
583.1776, 15004.78
583.6597, 14957.16
584.1418, 14915.28
584.6240, 14915.54
585.1061, 14935.84
585.5882, 14924.27
586.0703, 14881.27
586.5524, 14847.31
587.0345, 14833.89
587.5167, 14842.72
587.9988, 14885.97
588.4809, 14978.14
588.9630, 15025.24
589.4451, 14997.96
589.9272, 14953.99
590.4094, 14908.12
590.8915, 14867.15
591.3736, 14839.68
591.8557, 14827.83
592.3378, 14823.74
592.8199, 14817.20
593.3021, 14809.01
593.7842, 14811.00
594.2663, 14825.06
594.7484, 14844.70
595.2305, 14877.54
595.7126, 14908.08
596.1948, 14907.51
596.6769, 14865.95
597.1590, 14836.39
597.6411, 14835.65
598.1232, 14851.53
598.6053, 14885.20
599.0875, 14926.52
599.5696, 14948.07
600.0517, 14936.11
600.5338, 14911.80
601.0159, 14915.39
601.4980, 14953.68
601.9802, 14985.06
602.4623, 15015.05
602.9444, 15028.45
603.4265, 15003.44
603.9086, 14962.94
604.3907, 14945.67
604.8729, 14964.28
605.3550, 14986.18
605.8371, 14990.45
606.3192, 14988.43
606.8013, 15001.52
607.2834, 15027.49
607.7656, 15037.56
608.2477, 15010.86
608.7298, 14967.35
609.2119, 14965.52
609.6940, 15036.53
610.1761, 15077.24
610.6583, 15059.54
611.1404, 15034.14
611.6225, 15029.57
612.1046, 15033.01
612.5867, 15013.40
613.0688, 14953.20
613.5510, 14889.20
614.0331, 14855.48
614.5152, 14840.66
614.9973, 14821.03
615.4794, 14793.08
615.9615, 14757.15
616.4437, 14710.85
616.9258, 14659.89
617.4079, 14628.77
617.8900, 14629.86
618.3721, 14631.31
618.8542, 14641.18
619.3364, 14642.83
619.8185, 14618.64
620.3006, 14578.38
620.7827, 14546.16
621.2648, 14533.50
621.7469, 14531.76
622.2291, 14540.85
622.7112, 14553.53
623.1933, 14539.96
623.6754, 14493.45
624.1575, 14438.69
624.6396, 14389.89
625.1218, 14350.01
625.6039, 14336.30
626.0860, 14386.52
626.5681, 14411.45
627.0502, 14386.10
627.5323, 14351.84
628.0145, 14337.58
628.4966, 14340.25
628.9787, 14340.55
629.4608, 14324.68
629.9429, 14311.80
630.4250, 14338.65
630.9072, 14395.19
631.3893, 14425.01
631.8714, 14416.02
632.3535, 14390.73
632.8356, 14362.20
633.3177, 14332.60
633.7999, 14316.59
634.2820, 14332.53
634.7641, 14335.97
635.2462, 14306.07
635.7283, 14276.29
636.2104, 14279.01
636.6926, 14304.90
637.1747, 14315.19
637.6568, 14282.06
638.1389, 14243.50
638.6210, 14267.13
639.1031, 14341.64
639.5853, 14385.59
640.0674, 14382.19
640.5495, 14362.76
641.0316, 14348.41
641.5137, 14338.63
641.9958, 14330.62
642.4780, 14319.14
642.9601, 14316.61
643.4422, 14332.87
643.9243, 14351.17
644.4064, 14358.53
644.8885, 14356.88
