##NAMES=Ferroericssonite
##RRUFFID=R070406
##IDEAL CHEMISTRY=BaFe^2+^_2_Fe^3+^(Si_2_O_7_)O(OH)
##LOCALITY=Big Creek, Fresno County, California, USA
##OWNER=RRUFF
##SOURCE=Michael Scott
##DESCRIPTION=Dark reddish brown platy crystals, associated with dark brown titantaramellite, prismatic pale-green ferro-actinolite, quartz, and devitoite, R120091.
##STATUS=The identification of this mineral has been confirmed by single-crystal X-ray diffraction.
##URL=rruff.info/R070406
157.6603, 1490.507
158.1424, 1491.357
158.6245, 1503.585
159.1066, 1523.398
159.5887, 1542.121
160.0709, 1553.908
160.5530, 1564.719
161.0351, 1584.995
161.5172, 1617.597
161.9993, 1649.413
162.4814, 1674.977
162.9636, 1693.163
163.4457, 1699.365
163.9278, 1683.128
164.4099, 1656.219
164.8920, 1640.745
165.3741, 1639.918
165.8563, 1641.724
166.3384, 1637.349
166.8205, 1630.439
167.3026, 1627.282
167.7847, 1629.503
168.2668, 1637.372
168.7490, 1654.370
169.2311, 1687.613
169.7132, 1713.577
170.1953, 1716.610
170.6774, 1705.495
171.1595, 1692.422
171.6417, 1678.918
172.1238, 1668.685
172.6059, 1673.418
173.0880, 1701.754
173.5701, 1727.886
174.0522, 1739.255
174.5344, 1741.777
175.0165, 1743.158
175.4986, 1746.372
175.9807, 1751.362
176.4628, 1758.615
176.9449, 1770.467
177.4271, 1780.148
177.9092, 1781.318
178.3913, 1779.912
178.8734, 1784.633
179.3555, 1801.475
179.8376, 1825.654
180.3197, 1842.698
180.8019, 1848.136
181.2840, 1854.093
181.7661, 1862.302
182.2482, 1873.742
182.7303, 1890.497
183.2124, 1914.740
183.6946, 1943.082
184.1767, 1965.228
184.6588, 1976.074
185.1409, 1989.350
185.6230, 2008.550
186.1051, 2031.678
186.5873, 2057.880
187.0694, 2087.753
187.5515, 2117.625
188.0336, 2136.918
188.5157, 2135.805
188.9978, 2140.876
189.4800, 2164.097
189.9621, 2192.756
190.4442, 2213.817
190.9263, 2221.170
191.4084, 2219.107
191.8905, 2217.919
192.3727, 2219.260
192.8548, 2218.352
193.3369, 2209.565
193.8190, 2200.715
194.3011, 2201.500
194.7832, 2215.960
195.2654, 2235.664
195.7475, 2241.208
196.2296, 2221.877
196.7117, 2208.273
197.1938, 2205.813
197.6759, 2208.901
198.1581, 2213.692
198.6402, 2218.753
199.1223, 2223.377
199.6044, 2226.528
200.0865, 2229.248
200.5686, 2227.943
201.0508, 2217.750
201.5329, 2206.960
202.0150, 2203.368
202.4971, 2208.673
202.9792, 2216.824
203.4613, 2217.241
203.9435, 2204.003
204.4256, 2196.451
204.9077, 2202.282
205.3898, 2208.518
205.8719, 2207.540
206.3540, 2197.359
206.8362, 2179.489
207.3183, 2153.624
207.8004, 2112.918
208.2825, 2082.610
208.7646, 2067.736
209.2467, 2057.993
209.7289, 2049.533
210.2110, 2040.923
210.6931, 2030.864
211.1752, 2016.837
211.6573, 1996.264
212.1395, 1981.698
212.6216, 1979.934
213.1037, 1978.027
213.5858, 1967.703
214.0679, 1950.316
214.5500, 1934.255
215.0322, 1929.760
215.5143, 1940.460
215.9964, 1938.263
216.4785, 1905.884
216.9606, 1876.780
217.4427, 1864.921
217.9249, 1867.819
218.4070, 1875.009
218.8891, 1878.346
219.3712, 1877.770
219.8533, 1875.456
220.3354, 1869.040
220.8176, 1863.100
221.2997, 1860.123
221.7818, 1858.571
222.2639, 1854.724
222.7460, 1845.192
223.2281, 1831.002
223.7103, 1824.047
224.1924, 1830.136
224.6745, 1837.837
225.1566, 1848.944
225.6387, 1859.382
226.1208, 1862.547
226.6030, 1853.800
227.0851, 1836.808
227.5672, 1827.131
228.0493, 1830.272
228.5314, 1833.878
229.0135, 1834.005
229.4957, 1834.060
229.9778, 1838.901
230.4599, 1850.888
230.9420, 1866.455
231.4241, 1876.595
231.9062, 1877.286
232.3884, 1879.169
232.8705, 1883.803
233.3526, 1889.903
233.8347, 1897.952
234.3168, 1907.809
234.7989, 1915.797
235.2811, 1914.117
235.7632, 1896.029
236.2453, 1884.350
236.7274, 1883.830
237.2095, 1887.404
237.6916, 1892.210
238.1738, 1896.951
238.6559, 1899.411
239.1380, 1896.559
239.6201, 1887.378
240.1022, 1876.441
240.5843, 1860.188
241.0665, 1845.256
241.5486, 1836.636
242.0307, 1833.327
242.5128, 1829.318
242.9949, 1817.764
243.4770, 1797.709
243.9592, 1781.383
244.4413, 1772.141
244.9234, 1763.583
245.4055, 1752.362
245.8876, 1739.722
246.3697, 1729.423
246.8519, 1725.220
247.3340, 1726.084
247.8161, 1723.016
248.2982, 1714.697
248.7803, 1703.713
249.2624, 1686.926
249.7446, 1668.959
250.2267, 1657.935
250.7088, 1659.918
251.1909, 1669.676
251.6730, 1671.917
252.1551, 1663.864
252.6373, 1653.591
253.1194, 1638.475
253.6015, 1624.822
254.0836, 1621.695
254.5657, 1634.264
255.0478, 1651.167
255.5300, 1652.721
256.0121, 1634.373
256.4942, 1617.901
256.9763, 1609.834
257.4584, 1605.890
257.9406, 1604.424
258.4227, 1605.253
258.9048, 1605.176
259.3869, 1597.768
259.8690, 1582.318
260.3511, 1576.697
260.8333, 1592.422
261.3154, 1612.194
261.7975, 1625.375
262.2796, 1631.269
262.7617, 1631.049
263.2438, 1622.622
263.7260, 1607.618
264.2081, 1595.703
264.6902, 1588.469
265.1723, 1583.698
265.6544, 1582.132
266.1365, 1582.083
266.6187, 1577.585
267.1008, 1561.814
267.5829, 1540.412
268.0650, 1525.237
268.5471, 1517.266
269.0292, 1513.262
269.5114, 1515.406
269.9935, 1519.742
270.4756, 1518.700
270.9577, 1504.501
271.4398, 1488.909
271.9219, 1488.944
272.4041, 1505.230
272.8862, 1514.733
273.3683, 1500.103
273.8504, 1474.118
274.3325, 1462.480
274.8146, 1473.441
275.2968, 1485.876
275.7789, 1481.872
276.2610, 1466.259
276.7431, 1460.337
277.2252, 1475.295
277.7073, 1498.352
278.1895, 1506.658
278.6716, 1496.982
279.1537, 1490.958
279.6358, 1501.759
280.1179, 1520.055
280.6000, 1529.575
281.0822, 1526.387
281.5643, 1516.424
282.0464, 1502.983
282.5285, 1484.855
283.0106, 1479.659
283.4927, 1502.772
283.9749, 1531.213
284.4570, 1542.387
284.9391, 1535.363
285.4212, 1526.183
285.9033, 1528.132
286.3854, 1541.062
286.8676, 1549.204
287.3497, 1547.723
287.8318, 1546.610
288.3139, 1552.748
288.7960, 1563.415
289.2781, 1570.382
289.7603, 1568.489
290.2424, 1560.472
290.7245, 1557.932
291.2066, 1567.529
291.6887, 1573.993
292.1708, 1571.449
292.6530, 1565.810
293.1351, 1565.531
293.6172, 1573.458
294.0993, 1584.200
294.5814, 1587.955
295.0635, 1579.100
295.5457, 1573.646
296.0278, 1569.973
296.5099, 1570.552
296.9920, 1580.149
297.4741, 1597.471
297.9562, 1614.236
298.4384, 1621.340
298.9205, 1616.902
299.4026, 1615.902
299.8847, 1624.125
300.3668, 1629.919
300.8489, 1624.311
301.3311, 1613.163
301.8131, 1609.969
302.2953, 1625.151
302.7774, 1653.765
303.2595, 1670.383
303.7416, 1669.422
304.2237, 1663.547
304.7058, 1654.378
305.1880, 1642.736
305.6701, 1627.073
306.1522, 1606.481
306.6343, 1588.349
307.1164, 1587.624
307.5985, 1610.618
308.0807, 1627.471
308.5628, 1633.189
309.0449, 1630.657
309.5270, 1616.089
310.0091, 1590.978
310.4912, 1568.991
310.9734, 1566.235
311.4555, 1580.285
311.9376, 1583.324
312.4197, 1566.401
312.9018, 1548.305
313.3839, 1542.232
313.8661, 1544.351
314.3482, 1544.767
314.8303, 1537.172
315.3124, 1525.961
315.7945, 1519.468
316.2766, 1518.582
316.7588, 1517.130
317.2409, 1509.919
317.7230, 1500.750
318.2051, 1496.562
318.6872, 1501.496
319.1693, 1505.683
319.6515, 1500.424
320.1336, 1487.663
320.6157, 1475.380
321.0978, 1465.076
321.5799, 1458.410
322.0620, 1460.222
322.5442, 1472.365
323.0263, 1479.913
323.5084, 1472.968
323.9905, 1461.511
324.4726, 1461.433
324.9547, 1475.308
325.4369, 1487.354
325.9190, 1480.711
326.4011, 1452.978
326.8832, 1434.790
327.3653, 1431.595
327.8474, 1432.419
328.3296, 1432.887
328.8117, 1432.390
329.2938, 1430.144
329.7759, 1425.308
330.2580, 1419.006
330.7401, 1416.512
331.2223, 1421.141
331.7044, 1425.493
332.1865, 1429.297
332.6686, 1432.245
333.1507, 1434.247
333.6328, 1435.208
334.1150, 1434.639
334.5971, 1430.867
335.0792, 1419.873
335.5613, 1417.001
336.0434, 1433.809
336.5255, 1447.605
337.0077, 1442.791
337.4898, 1423.471
337.9719, 1405.637
338.4540, 1402.712
338.9361, 1412.766
339.4182, 1418.106
339.9004, 1414.019
340.3825, 1412.129
340.8646, 1417.230
341.3467, 1425.713
341.8288, 1433.062
342.3109, 1437.566
342.7931, 1440.592
343.2752, 1444.071
343.7573, 1448.080
344.2394, 1452.027
344.7215, 1455.829
345.2036, 1459.476
345.6858, 1461.440
346.1679, 1461.905
346.6500, 1466.481
347.1321, 1482.041
347.6142, 1504.348
348.0963, 1521.605
348.5785, 1531.963
349.0606, 1539.466
349.5427, 1545.341
350.0248, 1550.659
350.5069, 1558.901
350.9890, 1573.377
351.4712, 1588.910
351.9533, 1601.318
352.4354, 1611.042
352.9175, 1620.954
353.3996, 1633.273
353.8817, 1645.611
354.3639, 1650.670
354.8460, 1644.599
355.3281, 1641.001
355.8102, 1646.385
356.2923, 1654.244
356.7744, 1657.166
357.2566, 1653.531
357.7387, 1645.040
358.2208, 1632.206
358.7029, 1612.289
359.1850, 1604.322
359.6671, 1620.634
360.1493, 1634.848
360.6314, 1629.461
361.1135, 1612.898
361.5956, 1606.030
362.0777, 1622.241
362.5598, 1653.419
363.0420, 1669.406
363.5241, 1658.363
364.0062, 1650.573
364.4883, 1650.259
364.9704, 1653.883
365.4525, 1658.331
365.9347, 1662.989
366.4168, 1669.656
366.8989, 1683.289
367.3810, 1705.043
367.8631, 1715.073
368.3452, 1701.577
368.8274, 1689.353
369.3095, 1692.439
369.7916, 1706.375
370.2737, 1719.943
370.7558, 1726.557
371.2379, 1730.911
371.7201, 1742.111
372.2022, 1761.059
372.6843, 1777.993
373.1664, 1788.422
373.6485, 1794.452
374.1306, 1799.067
374.6128, 1801.471
375.0949, 1805.615
375.5770, 1813.456
376.0591, 1824.467
376.5412, 1836.958
377.0233, 1850.293
377.5055, 1867.783
377.9876, 1895.546
378.4697, 1935.005
378.9518, 1962.907
379.4339, 1968.787
379.9160, 1972.115
380.3982, 1983.710
380.8803, 2002.277
381.3624, 2023.228
381.8445, 2044.659
382.3266, 2064.747
382.8087, 2078.124
383.2909, 2076.095
383.7730, 2078.409
384.2551, 2084.612
384.7372, 2095.775
385.2193, 2114.445
385.7014, 2140.031
386.1836, 2167.989
386.6657, 2194.146
387.1478, 2218.442
387.6299, 2240.126
388.1120, 2258.270
388.5941, 2274.776
389.0763, 2291.100
389.5584, 2306.061
390.0405, 2317.464
390.5226, 2324.218
391.0047, 2327.876
391.4868, 2332.020
391.9690, 2337.315
392.4511, 2336.583
392.9332, 2327.059
393.4153, 2310.997
393.8974, 2291.181
394.3795, 2267.593
394.8617, 2240.012
395.3438, 2208.243
395.8259, 2172.499
396.3080, 2131.407
396.7901, 2084.612
397.2722, 2037.803
397.7544, 1992.926
398.2365, 1951.750
398.7186, 1919.780
399.2007, 1907.032
399.6828, 1892.392
400.1649, 1863.688
400.6471, 1828.705
401.1292, 1801.091
401.6113, 1785.226
402.0934, 1774.395
402.5755, 1758.604
403.0576, 1736.419
403.5398, 1713.430
404.0219, 1687.433
404.5040, 1662.555
404.9861, 1639.325
405.4682, 1618.885
405.9503, 1604.501
406.4325, 1599.238
406.9146, 1599.225
407.3967, 1590.165
407.8788, 1566.818
408.3609, 1545.105
408.8430, 1522.718
409.3252, 1506.369
409.8073, 1504.959
410.2894, 1518.724
410.7715, 1533.340
411.2536, 1536.461
411.7357, 1529.808
412.2179, 1520.858
412.7000, 1507.904
413.1821, 1497.997
413.6642, 1500.558
414.1463, 1509.395
414.6284, 1511.811
415.1106, 1500.818
415.5927, 1488.473
416.0748, 1483.365
416.5569, 1484.065
417.0390, 1486.899
417.5211, 1491.168
418.0033, 1495.029
418.4854, 1495.086
418.9675, 1489.034
419.4496, 1487.337
419.9317, 1497.816
420.4138, 1506.618
420.8960, 1501.919
421.3781, 1486.705
421.8602, 1472.367
422.3423, 1466.215
422.8244, 1466.631
423.3065, 1466.445
423.7887, 1462.815
424.2708, 1463.275
424.7529, 1473.326
425.2350, 1484.222
425.7171, 1489.229
426.1992, 1487.261
426.6814, 1480.996
427.1635, 1471.449
427.6456, 1458.982
428.1277, 1448.982
428.6098, 1442.283
429.0919, 1436.505
429.5741, 1429.309
430.0562, 1422.452
430.5383, 1418.908
431.0204, 1420.006
431.5025, 1423.172
431.9846, 1428.443
432.4668, 1434.386
432.9489, 1434.278
433.4310, 1424.616
433.9131, 1414.642
434.3952, 1416.257
434.8773, 1430.860
435.3595, 1442.982
435.8416, 1456.033
436.3237, 1462.555
436.8058, 1453.473
437.2879, 1434.046
437.7701, 1416.730
438.2522, 1407.729
438.7343, 1405.941
439.2164, 1408.950
439.6985, 1419.722
440.1806, 1430.184
440.6628, 1440.355
441.1449, 1450.120
441.6270, 1459.630
442.1091, 1468.721
442.5912, 1476.779
443.0733, 1482.499
443.5555, 1487.105
444.0376, 1495.723
444.5197, 1509.631
445.0018, 1523.971
445.4839, 1535.204
445.9660, 1547.035
446.4482, 1563.278
446.9303, 1584.515
447.4124, 1608.724
447.8945, 1633.480
448.3766, 1660.612
448.8587, 1696.679
449.3409, 1743.591
449.8230, 1786.353
450.3051, 1810.229
450.7872, 1818.254
451.2693, 1840.930
451.7514, 1888.832
452.2336, 1937.799
452.7157, 1976.111
453.1978, 2012.031
453.6799, 2058.171
454.1620, 2117.776
454.6441, 2182.371
455.1263, 2239.675
455.6084, 2285.880
456.0905, 2345.952
456.5726, 2428.214
457.0547, 2516.124
457.5368, 2607.395
458.0190, 2700.500
458.5011, 2793.170
458.9832, 2884.192
459.4653, 2976.397
459.9474, 3076.482
460.4295, 3184.241
460.9117, 3290.007
461.3938, 3400.016
461.8759, 3495.843
462.3580, 3561.023
462.8401, 3598.835
463.3222, 3622.988
463.8044, 3644.731
464.2865, 3648.633
464.7686, 3618.452
465.2507, 3557.688
465.7328, 3479.140
466.2149, 3387.168
466.6971, 3284.704
467.1792, 3178.930
467.6613, 3070.159
468.1434, 2956.012
468.6255, 2821.955
469.1076, 2694.972
469.5898, 2595.706
470.0719, 2519.288
470.5540, 2448.737
471.0361, 2372.235
471.5182, 2295.993
472.0003, 2238.325
472.4825, 2206.460
472.9646, 2174.494
473.4467, 2137.887
473.9288, 2098.945
474.4109, 2058.364
474.8930, 2016.502
475.3752, 1974.523
475.8573, 1928.700
476.3394, 1884.982
476.8215, 1856.436
477.3036, 1843.526
477.7857, 1828.812
478.2679, 1802.771
478.7500, 1770.159
479.2321, 1742.473
479.7142, 1722.202
480.1963, 1700.287
480.6784, 1672.705
481.1606, 1644.304
481.6427, 1618.935
482.1248, 1597.083
482.6069, 1578.079
483.0890, 1561.324
483.5711, 1546.895
484.0533, 1535.319
484.5354, 1531.275
485.0175, 1522.147
485.4996, 1500.659
485.9817, 1477.879
486.4638, 1463.917
486.9460, 1459.052
487.4281, 1454.702
487.9102, 1442.261
488.3923, 1425.250
488.8744, 1415.775
489.3565, 1415.524
489.8387, 1413.567
490.3208, 1404.023
490.8029, 1389.375
491.2850, 1374.531
491.7671, 1357.643
492.2492, 1345.701
492.7314, 1345.101
493.2135, 1348.534
493.6956, 1347.165
494.1777, 1340.612
494.6598, 1335.004
495.1419, 1335.764
495.6241, 1340.967
496.1062, 1337.804
496.5883, 1316.398
497.0704, 1300.418
497.5525, 1293.648
498.0346, 1291.866
498.5168, 1293.911
498.9989, 1298.271
499.4810, 1300.072
499.9631, 1293.681
500.4452, 1281.570
500.9273, 1273.177
501.4095, 1268.980
501.8916, 1266.602
502.3737, 1266.400
502.8558, 1266.606
503.3379, 1263.902
503.8200, 1257.049
504.3022, 1252.357
504.7843, 1255.330
505.2664, 1259.917
505.7485, 1259.772
506.2306, 1254.250
506.7127, 1243.081
507.1949, 1224.192
507.6770, 1202.075
508.1591, 1197.051
508.6412, 1230.935
509.1233, 1249.978
509.6054, 1238.986
510.0876, 1222.404
510.5697, 1218.942
511.0518, 1228.160
511.5339, 1237.273
512.0161, 1236.988
512.4982, 1230.089
512.9803, 1223.387
513.4624, 1216.634
513.9445, 1211.974
514.4266, 1211.121
514.9088, 1211.969
515.3909, 1212.589
515.8730, 1213.268
516.3551, 1210.437
516.8372, 1198.977
517.3193, 1186.523
517.8015, 1180.021
518.2836, 1179.095
518.7657, 1180.909
519.2478, 1184.436
519.7299, 1187.667
520.2120, 1185.371
520.6942, 1172.216
521.1763, 1163.728
521.6584, 1160.998
522.1405, 1161.301
522.6226, 1165.155
523.1047, 1170.813
523.5869, 1174.575
524.0690, 1174.325
524.5511, 1171.668
525.0332, 1168.507
525.5153, 1164.855
525.9974, 1162.941
526.4796, 1163.997
526.9617, 1165.793
527.4438, 1164.448
527.9259, 1160.649
528.4080, 1162.169
528.8901, 1175.962
529.3723, 1189.579
529.8544, 1196.880
530.3365, 1198.479
530.8186, 1194.445
531.3007, 1185.018
531.7828, 1174.810
532.2650, 1170.450
532.7471, 1173.019
533.2292, 1174.621
533.7113, 1174.625
534.1934, 1174.340
534.6755, 1175.895
535.1577, 1176.743
535.6398, 1172.115
536.1219, 1159.959
536.6040, 1148.704
537.0861, 1147.087
537.5682, 1152.710
538.0504, 1158.406
538.5325, 1163.489
539.0146, 1167.319
539.4967, 1169.026
539.9788, 1169.076
540.4609, 1169.836
540.9431, 1174.073
541.4252, 1175.196
541.9073, 1171.108
542.3894, 1163.829
542.8715, 1152.414
543.3536, 1138.780
543.8358, 1130.567
544.3179, 1135.482
544.8000, 1149.120
545.2821, 1150.095
545.7642, 1130.752
546.2463, 1119.837
546.7285, 1133.744
547.2106, 1152.083
547.6927, 1157.842
548.1748, 1151.579
548.6569, 1147.835
549.1390, 1156.474
549.6211, 1168.274
550.1032, 1172.865
550.5853, 1171.420
551.0674, 1169.453
551.5496, 1168.942
552.0317, 1170.103
552.5138, 1173.713
552.9959, 1181.680
553.4780, 1185.553
553.9601, 1182.140
554.4423, 1178.684
554.9244, 1175.698
555.4065, 1175.325
555.8886, 1181.489
556.3707, 1195.813
556.8528, 1212.379
557.3350, 1224.669
557.8171, 1232.938
558.2992, 1237.854
558.7813, 1237.113
559.2634, 1240.812
559.7455, 1259.570
560.2277, 1287.471
560.7098, 1304.943
561.1919, 1305.557
561.6740, 1306.857
562.1561, 1315.671
562.6382, 1327.043
563.1204, 1334.560
563.6025, 1338.623
564.0846, 1344.784
564.5667, 1356.807
565.0488, 1374.844
565.5309, 1402.235
566.0131, 1448.836
566.4952, 1479.794
566.9773, 1474.644
567.4594, 1463.437
567.9415, 1464.339
568.4236, 1476.118
568.9058, 1488.443
569.3879, 1496.798
569.8700, 1504.021
570.3521, 1517.349
570.8342, 1532.573
571.3163, 1533.157
571.7985, 1513.120
572.2806, 1486.565
572.7627, 1471.305
573.2448, 1469.480
573.7269, 1458.028
574.2090, 1426.724
574.6912, 1398.335
575.1733, 1378.777
575.6554, 1364.962
576.1375, 1355.146
576.6196, 1348.129
577.1017, 1338.610
577.5839, 1318.524
578.0660, 1292.108
578.5481, 1273.468
579.0302, 1263.095
579.5123, 1258.927
579.9944, 1263.824
580.4766, 1271.131
580.9587, 1266.597
581.4408, 1247.416
581.9229, 1230.797
582.4050, 1219.047
582.8871, 1210.695
583.3693, 1205.514
583.8514, 1202.900
584.3335, 1202.811
584.8156, 1205.295
585.2977, 1206.891
585.7798, 1199.677
586.2620, 1182.146
586.7441, 1174.863
587.2262, 1185.348
587.7083, 1195.281
588.1904, 1192.307
588.6725, 1182.437
589.1547, 1174.892
589.6368, 1170.614
590.1189, 1169.375
590.6010, 1173.581
591.0831, 1179.399
591.5652, 1182.083
592.0474, 1181.313
592.5295, 1178.491
593.0116, 1174.173
593.4937, 1169.528
593.9758, 1168.420
594.4579, 1172.803
594.9401, 1176.090
595.4222, 1178.963
595.9043, 1179.421
596.3864, 1173.675
596.8685, 1164.728
597.3506, 1160.295
597.8328, 1164.889
598.3149, 1171.630
598.7970, 1174.450
599.2791, 1174.563
599.7612, 1174.516
600.2433, 1174.795
600.7255, 1177.098
601.2076, 1183.500
601.6897, 1193.175
602.1718, 1199.329
602.6539, 1198.177
603.1360, 1198.594
603.6182, 1203.604
604.1003, 1208.532
604.5824, 1208.726
605.0645, 1205.221
605.5466, 1203.164
606.0287, 1204.971
606.5109, 1210.541
606.9930, 1222.395
607.4751, 1239.249
607.9572, 1249.913
608.4393, 1250.627
608.9214, 1248.560
609.4036, 1250.929
609.8857, 1257.764
610.3678, 1262.684
610.8499, 1266.343
611.3320, 1267.466
611.8141, 1259.999
612.2963, 1253.462
612.7784, 1258.680
613.2605, 1275.724
613.7426, 1295.613
614.2247, 1311.764
614.7068, 1325.797
615.1890, 1344.173
615.6711, 1367.511
616.1532, 1379.543
616.6353, 1370.781
617.1174, 1357.556
617.5995, 1358.276
618.0817, 1373.304
618.5638, 1388.821
619.0459, 1404.442
619.5280, 1420.285
620.0101, 1442.815
620.4922, 1462.391
620.9744, 1461.116
621.4565, 1439.454
621.9386, 1422.374
622.4207, 1434.538
622.9028, 1468.297
623.3849, 1493.018
623.8671, 1506.823
624.3492, 1523.304
624.8313, 1550.897
625.3134, 1577.947
625.7955, 1585.531
626.2776, 1575.012
626.7598, 1576.147
627.2419, 1602.343
627.7240, 1630.980
628.2061, 1653.485
628.6882, 1669.974
629.1703, 1679.293
629.6525, 1682.174
630.1346, 1684.302
630.6167, 1691.858
631.0988, 1703.332
631.5809, 1709.567
632.0630, 1708.828
632.5452, 1709.661
633.0273, 1714.534
633.5094, 1722.246
633.9915, 1732.914
634.4736, 1746.246
634.9557, 1755.940
635.4379, 1757.604
635.9200, 1758.528
636.4021, 1763.134
636.8842, 1769.551
637.3663, 1772.670
637.8484, 1772.321
638.3306, 1776.611
638.8127, 1794.643
639.2948, 1824.156
639.7769, 1849.679
640.2590, 1868.121
640.7411, 1894.735
641.2233, 1943.877
641.7054, 1993.054
642.1875, 2014.843
642.6696, 2011.953
643.1517, 2017.821
643.6339, 2044.900
644.1160, 2076.473
644.5981, 2101.600
645.0802, 2126.008
645.5623, 2160.419
646.0444, 2205.952
646.5266, 2251.934
647.0087, 2286.708
647.4908, 2314.333
647.9729, 2354.821
648.4550, 2410.018
648.9371, 2469.939
649.4193, 2533.733
649.9014, 2599.522
650.3835, 2666.370
650.8656, 2734.073
651.3477, 2803.207
651.8298, 2869.040
652.3120, 2942.101
