##NAMES=Ferri-pedrizite
##RRUFFID=R070344
##IDEAL CHEMISTRY=NaLi_2_[Fe^3+^_2_Mg_2_Li]Si_8_O_22_(OH)_2_
##LOCALITY=east Pedriza Massif, Sierra de Guadarrama, Spain
##OWNER=RRUFF
##SOURCE=Michael Scott
##DESCRIPTION=Black bladed crystals
##STATUS=The identification of this mineral is confirmed by single-crystal X-ray diffraction and chemical analysis.
##URL=rruff.info/R070344
##MEASURED CHEMISTRY=(Na_0.78_[box]_0.10_Ca_0.06_K_0.06_)_Σ=1_Li_2.00_[Fe^3+^_2.52_Mg_0.99_Fe^2+^_0.20_Al_0.16_Mn_0.07_Ti_0.03_Cr_0.03_Li_1.00_]Si_8.00_O_22_((OH)_1.27_F_0.73_)_Σ=2_; H_2_O from stoichiometry after deducting F; Li_2_O by difference
180.0352, 13828.71
180.5173, 13833.54
180.9994, 13839.33
181.4815, 13866.86
181.9637, 13915.59
182.4458, 13961.22
182.9279, 13978.89
183.4100, 13975.19
183.8921, 13974.19
184.3742, 13975.39
184.8564, 13986.93
185.3385, 14037.07
185.8206, 14129.21
186.3027, 14224.07
186.7848, 14281.43
187.2669, 14304.76
187.7491, 14322.64
188.2312, 14342.54
188.7133, 14364.53
189.1954, 14391.45
189.6775, 14424.56
190.1596, 14456.25
190.6418, 14474.05
191.1239, 14478.32
191.6060, 14487.29
192.0881, 14509.20
192.5702, 14542.94
193.0524, 14580.52
193.5345, 14623.45
194.0166, 14666.09
194.4987, 14699.03
194.9808, 14721.97
195.4629, 14739.93
195.9451, 14751.13
196.4272, 14755.99
196.9093, 14771.50
197.3914, 14799.91
197.8735, 14836.30
198.3556, 14875.28
198.8378, 14918.60
199.3199, 14952.71
199.8020, 14966.56
200.2841, 14958.49
200.7662, 14952.62
201.2483, 14949.37
201.7305, 14949.94
202.2126, 14956.91
202.6947, 14970.07
203.1768, 14990.35
203.6589, 15022.89
204.1410, 15070.90
204.6232, 15106.14
205.1053, 15124.72
205.5874, 15129.55
206.0695, 15127.32
206.5516, 15113.71
207.0337, 15104.38
207.5159, 15114.40
207.9980, 15150.25
208.4801, 15171.70
208.9622, 15165.57
209.4443, 15141.44
209.9264, 15151.53
210.4086, 15210.90
210.8907, 15274.44
211.3728, 15304.70
211.8549, 15291.99
212.3370, 15279.29
212.8191, 15270.39
213.3013, 15266.02
213.7834, 15272.49
214.2655, 15292.59
214.7476, 15319.15
215.2297, 15347.62
215.7118, 15381.87
216.1940, 15407.50
216.6761, 15419.03
217.1582, 15417.41
217.6403, 15422.82
218.1224, 15437.56
218.6045, 15456.17
219.0867, 15474.24
219.5688, 15492.89
220.0509, 15507.68
220.5330, 15515.45
221.0151, 15516.01
221.4972, 15524.08
221.9794, 15544.06
222.4615, 15566.72
222.9436, 15580.43
223.4257, 15575.77
223.9078, 15582.55
224.3899, 15612.99
224.8721, 15670.88
225.3542, 15705.66
225.8363, 15704.26
226.3184, 15692.43
226.8005, 15702.32
227.2827, 15746.28
227.7648, 15788.57
228.2469, 15821.89
228.7290, 15846.43
229.2111, 15858.57
229.6932, 15849.90
230.1754, 15835.53
230.6575, 15834.84
231.1396, 15850.06
231.6217, 15875.63
232.1038, 15914.92
232.5859, 15974.14
233.0681, 16011.59
233.5502, 16014.22
234.0323, 16004.36
234.5144, 16016.83
234.9965, 16069.65
235.4786, 16114.14
235.9608, 16133.55
236.4429, 16121.30
236.9250, 16113.63
237.4071, 16111.33
237.8892, 16113.23
238.3713, 16117.90
238.8535, 16127.30
239.3356, 16135.95
239.8177, 16137.90
240.2998, 16124.17
240.7819, 16141.65
241.2640, 16211.23
241.7462, 16300.13
242.2283, 16350.53
242.7104, 16342.45
243.1925, 16328.58
243.6746, 16325.23
244.1567, 16334.22
244.6389, 16348.67
245.1210, 16373.29
245.6031, 16400.53
246.0852, 16415.63
246.5673, 16410.61
247.0494, 16407.04
247.5316, 16413.29
248.0137, 16433.17
248.4958, 16450.38
248.9779, 16465.94
249.4600, 16478.16
249.9421, 16479.99
250.4243, 16455.84
250.9064, 16449.43
251.3885, 16484.60
251.8706, 16585.00
252.3527, 16647.22
252.8348, 16661.13
253.3170, 16643.32
253.7991, 16619.59
254.2812, 16575.99
254.7633, 16553.78
255.2454, 16574.96
255.7275, 16656.29
256.2097, 16718.39
256.6918, 16757.91
257.1739, 16779.86
257.6560, 16792.00
258.1381, 16790.03
258.6202, 16786.96
259.1024, 16783.65
259.5845, 16773.76
260.0666, 16794.14
260.5487, 16862.81
261.0308, 16948.01
261.5129, 16991.08
261.9951, 16977.45
262.4772, 16955.45
262.9593, 16941.38
263.4414, 16934.47
263.9235, 16939.96
264.4056, 16962.47
264.8878, 16993.19
265.3699, 17015.86
265.8520, 17026.47
266.3341, 17041.11
266.8162, 17071.26
267.2983, 17122.60
267.7805, 17148.37
268.2626, 17138.78
268.7447, 17114.21
269.2268, 17111.64
269.7089, 17137.35
270.1910, 17162.55
270.6732, 17175.89
271.1553, 17176.07
271.6374, 17175.55
272.1195, 17172.89
272.6016, 17171.66
273.0837, 17175.88
273.5659, 17184.40
274.0480, 17204.41
274.5301, 17250.93
275.0122, 17326.09
275.4943, 17348.45
275.9764, 17300.63
276.4586, 17232.75
276.9407, 17228.29
277.4228, 17295.64
277.9049, 17353.44
278.3870, 17357.21
278.8691, 17311.00
279.3513, 17315.90
279.8334, 17384.72
280.3155, 17471.72
280.7976, 17514.93
281.2798, 17512.52
281.7619, 17499.93
282.2440, 17481.86
282.7261, 17461.67
283.2082, 17469.46
283.6903, 17510.08
284.1725, 17560.85
284.6546, 17596.15
285.1367, 17615.99
285.6188, 17627.78
286.1009, 17630.23
286.5830, 17626.32
287.0652, 17625.27
287.5473, 17625.42
288.0294, 17638.30
288.5115, 17692.39
288.9936, 17780.62
289.4757, 17841.61
289.9579, 17837.50
290.4400, 17796.02
290.9221, 17802.28
291.4042, 17860.02
291.8863, 17919.00
292.3684, 17917.38
292.8506, 17869.65
293.3327, 17839.32
293.8148, 17854.97
294.2969, 17895.19
294.7790, 17918.71
295.2611, 17925.59
295.7433, 17928.26
296.2254, 17940.20
296.7075, 17957.01
297.1896, 17965.39
297.6717, 17956.84
298.1538, 17942.22
298.6360, 17931.23
299.1181, 17924.93
299.6002, 17936.93
300.0823, 17998.07
300.5644, 18082.76
301.0465, 18141.74
301.5287, 18152.71
302.0108, 18144.58
302.4929, 18147.55
302.9750, 18159.86
303.4571, 18171.19
303.9392, 18167.21
304.4214, 18160.29
304.9035, 18169.60
305.3856, 18209.70
305.8677, 18250.71
306.3498, 18259.46
306.8319, 18244.63
307.3141, 18237.15
307.7962, 18264.18
308.2783, 18303.23
308.7604, 18332.63
309.2425, 18345.61
309.7246, 18352.33
310.2068, 18357.78
310.6889, 18361.85
311.1710, 18364.45
311.6531, 18353.92
312.1352, 18348.95
312.6173, 18367.84
313.0995, 18423.26
313.5816, 18473.26
314.0637, 18492.88
314.5458, 18493.91
315.0279, 18498.77
315.5100, 18528.80
315.9922, 18555.32
316.4743, 18558.16
316.9564, 18526.81
317.4385, 18505.73
317.9206, 18512.91
318.4027, 18538.37
318.8849, 18568.12
319.3670, 18610.08
319.8491, 18645.45
320.3312, 18661.36
320.8133, 18651.24
321.2954, 18656.92
321.7776, 18701.21
322.2597, 18759.60
322.7418, 18805.96
323.2239, 18807.94
323.7060, 18857.54
324.1881, 18891.25
324.6703, 18909.92
325.1524, 18868.54
325.6345, 18904.71
326.1166, 18909.80
326.5987, 18913.61
327.0808, 18960.70
327.5630, 18928.05
328.0451, 18974.45
328.5272, 18989.30
329.0093, 19018.59
329.4914, 19016.60
329.9735, 19024.28
330.4557, 19063.24
330.9378, 19084.87
331.4199, 19022.86
331.9020, 19041.84
332.3841, 19086.80
332.8662, 19115.34
333.3484, 19112.60
333.8305, 19115.52
334.3126, 19152.97
334.7947, 19250.76
335.2768, 19297.57
335.7589, 19266.41
336.2411, 19193.05
336.7232, 19171.32
337.2053, 19217.10
337.6874, 19268.68
338.1695, 19295.93
338.6516, 19295.15
339.1338, 19300.84
339.6159, 19315.47
340.0980, 19333.60
340.5801, 19343.86
341.0622, 19345.07
341.5443, 19350.65
342.0265, 19368.33
342.5086, 19396.50
342.9907, 19420.24
343.4728, 19437.90
343.9549, 19456.94
344.4370, 19489.39
344.9192, 19533.46
345.4013, 19574.11
345.8834, 19607.64
346.3655, 19633.04
346.8476, 19638.20
347.3297, 19622.07
347.8119, 19613.92
348.2940, 19664.05
348.7761, 19747.47
349.2582, 19784.73
349.7403, 19728.57
350.2225, 19642.41
350.7046, 19618.01
351.1867, 19649.53
351.6688, 19693.55
352.1509, 19724.39
352.6331, 19746.29
353.1152, 19766.44
353.5973, 19789.17
354.0794, 19805.34
354.5615, 19796.94
355.0436, 19773.13
355.5258, 19761.80
356.0079, 19792.71
356.4900, 19834.78
356.9721, 19856.28
357.4542, 19842.82
357.9363, 19841.02
358.4185, 19893.24
358.9006, 19973.09
359.3827, 20034.93
359.8648, 20057.40
360.3469, 20060.09
360.8290, 20043.28
361.3112, 20001.53
361.7933, 19982.05
362.2754, 20021.21
362.7575, 20082.13
363.2396, 20124.95
363.7217, 20119.54
364.2039, 20115.72
364.6860, 20128.96
365.1681, 20159.86
365.6502, 20185.12
366.1323, 20199.04
366.6144, 20208.55
367.0966, 20218.43
367.5787, 20228.59
368.0608, 20239.25
368.5429, 20249.10
369.0250, 20259.10
369.5071, 20274.94
369.9893, 20307.91
370.4714, 20333.57
370.9535, 20333.53
371.4356, 20272.15
371.9177, 20272.06
372.3998, 20369.61
372.8820, 20511.80
373.3641, 20574.56
373.8462, 20531.96
374.3283, 20476.87
374.8104, 20439.88
375.2925, 20419.96
375.7747, 20433.00
376.2568, 20489.57
376.7389, 20558.35
377.2210, 20599.30
377.7031, 20611.75
378.1852, 20604.72
378.6674, 20571.36
379.1495, 20521.27
379.6316, 20490.20
380.1137, 20477.70
380.5958, 20490.69
381.0779, 20558.32
381.5601, 20665.92
382.0422, 20732.76
382.5243, 20728.76
383.0064, 20693.04
383.4885, 20686.71
383.9706, 20707.56
384.4528, 20739.62
384.9349, 20794.94
385.4170, 20848.75
385.8991, 20851.13
386.3812, 20778.99
386.8633, 20706.27
387.3455, 20707.77
387.8276, 20761.61
388.3097, 20818.10
388.7918, 20855.26
389.2739, 20882.61
389.7560, 20907.76
390.2382, 20931.52
390.7203, 20950.10
391.2024, 20951.94
391.6845, 20950.61
392.1666, 20961.82
392.6487, 21006.41
393.1309, 21049.88
393.6130, 21080.25
394.0951, 21097.70
394.5772, 21105.67
395.0593, 21094.46
395.5414, 21080.76
396.0236, 21075.06
396.5057, 21068.60
396.9878, 21082.38
397.4699, 21146.63
397.9520, 21236.32
398.4341, 21271.39
398.9163, 21189.32
399.3984, 21117.50
399.8805, 21107.39
400.3626, 21190.01
400.8447, 21240.44
401.3268, 21240.58
401.8090, 21221.83
402.2911, 21230.87
402.7732, 21279.91
403.2553, 21324.54
403.7374, 21351.95
404.2195, 21363.15
404.7017, 21379.84
405.1838, 21408.09
405.6659, 21425.43
406.1480, 21396.96
406.6301, 21321.29
407.1122, 21285.12
407.5944, 21314.50
408.0765, 21381.53
408.5586, 21421.16
409.0407, 21433.97
409.5228, 21438.65
410.0049, 21439.82
410.4871, 21442.13
410.9692, 21463.21
411.4513, 21509.35
411.9334, 21556.35
412.4155, 21571.22
412.8976, 21564.06
413.3798, 21563.44
413.8619, 21595.54
414.3440, 21633.24
414.8261, 21641.74
415.3082, 21620.62
415.7903, 21607.31
416.2725, 21640.60
416.7546, 21689.82
417.2367, 21720.32
417.7188, 21697.22
418.2009, 21678.91
418.6830, 21701.53
419.1652, 21753.59
419.6473, 21792.04
420.1294, 21794.04
420.6115, 21785.19
421.0937, 21778.01
421.5758, 21771.34
422.0579, 21772.80
422.5400, 21779.99
423.0221, 21796.54
423.5042, 21829.25
423.9864, 21910.09
424.4685, 21970.65
424.9506, 21986.77
425.4327, 21952.77
425.9148, 21948.18
426.3969, 21997.28
426.8791, 22048.10
427.3612, 22048.01
427.8433, 21972.04
428.3254, 21924.74
428.8075, 21926.39
429.2896, 21964.52
429.7718, 22000.21
430.2539, 22034.78
430.7360, 22060.70
431.2181, 22064.13
431.7002, 22048.05
432.1823, 22061.81
432.6645, 22114.82
433.1466, 22174.65
433.6287, 22192.73
434.1108, 22176.09
434.5929, 22159.16
435.0750, 22151.14
435.5572, 22153.92
436.0393, 22176.99
436.5214, 22219.33
437.0035, 22259.40
437.4856, 22271.62
437.9677, 22273.35
438.4499, 22291.09
438.9320, 22343.74
439.4141, 22393.16
439.8962, 22406.64
440.3783, 22395.09
440.8604, 22387.10
441.3426, 22388.78
441.8247, 22402.55
442.3068, 22436.70
442.7889, 22499.98
443.2710, 22545.22
443.7531, 22548.73
444.2353, 22532.04
444.7174, 22519.04
445.1995, 22518.01
445.6816, 22515.52
446.1637, 22500.42
446.6458, 22476.20
447.1280, 22481.11
447.6101, 22525.20
448.0922, 22587.64
448.5743, 22662.93
449.0564, 22773.15
449.5385, 22833.29
450.0207, 22817.99
450.5028, 22772.79
450.9849, 22793.51
451.4670, 22896.12
451.9491, 22982.07
452.4312, 23003.21
452.9134, 22970.35
453.3955, 22970.04
453.8776, 23004.36
454.3597, 23055.52
454.8418, 23117.52
455.3239, 23184.67
455.8061, 23228.46
456.2882, 23235.10
456.7703, 23227.97
457.2524, 23232.62
457.7345, 23250.16
458.2166, 23285.81
458.6988, 23365.99
459.1809, 23454.04
459.6630, 23504.02
460.1451, 23507.07
460.6272, 23507.35
461.1093, 23532.12
461.5915, 23570.55
462.0736, 23608.84
462.5557, 23652.29
463.0378, 23685.19
463.5199, 23696.10
464.0020, 23687.97
464.4842, 23683.35
464.9663, 23699.53
465.4484, 23711.02
465.9305, 23703.44
466.4126, 23660.91
466.8947, 23626.28
467.3769, 23603.05
467.8590, 23586.26
468.3411, 23565.53
468.8232, 23530.74
469.3053, 23513.68
469.7874, 23530.57
470.2696, 23578.37
470.7517, 23598.15
471.2338, 23584.36
471.7159, 23559.74
472.1980, 23539.62
472.6801, 23524.11
473.1623, 23518.50
473.6444, 23521.54
474.1265, 23538.38
474.6086, 23594.87
475.0907, 23682.30
475.5728, 23744.41
476.0550, 23729.01
476.5371, 23677.04
477.0192, 23653.52
477.5013, 23660.62
477.9834, 23681.00
478.4655, 23712.91
478.9477, 23746.53
479.4298, 23768.31
479.9119, 23768.24
480.3940, 23763.38
480.8761, 23758.22
481.3582, 23754.67
481.8404, 23758.32
482.3225, 23772.19
482.8046, 23792.73
483.2867, 23822.79
483.7688, 23871.03
484.2509, 23899.36
484.7331, 23884.09
485.2152, 23857.98
485.6973, 23851.78
486.1794, 23877.95
486.6615, 23903.24
487.1436, 23925.33
487.6258, 23943.22
488.1079, 23946.91
488.5900, 23925.81
489.0721, 23919.96
489.5542, 23966.00
490.0363, 24064.92
490.5185, 24113.21
491.0006, 24098.46
491.4827, 24064.22
491.9648, 24067.58
492.4470, 24102.40
492.9291, 24136.59
493.4112, 24164.45
493.8933, 24180.61
494.3754, 24166.06
494.8575, 24126.03
495.3397, 24094.45
495.8218, 24092.20
496.3039, 24110.49
496.7860, 24141.51
497.2681, 24186.61
497.7502, 24235.58
498.2324, 24297.79
498.7145, 24356.72
499.1966, 24391.09
499.6787, 24359.48
500.1608, 24337.22
500.6429, 24358.10
501.1251, 24418.55
501.6072, 24454.64
502.0893, 24437.40
502.5714, 24417.04
503.0535, 24416.58
503.5356, 24441.22
504.0178, 24475.17
504.4999, 24526.96
504.9820, 24579.92
505.4641, 24607.21
505.9462, 24604.42
506.4283, 24597.72
506.9105, 24590.13
507.3926, 24585.33
507.8747, 24603.88
508.3568, 24647.30
508.8389, 24687.14
509.3210, 24693.21
509.8032, 24679.82
510.2853, 24690.13
510.7674, 24733.88
511.2495, 24782.68
511.7316, 24807.57
512.2137, 24816.07
512.6959, 24823.20
513.1780, 24838.92
513.6601, 24852.45
514.1422, 24848.02
514.6243, 24830.38
515.1064, 24832.02
515.5886, 24887.62
516.0707, 24951.14
516.5528, 24993.73
517.0349, 25003.65
517.5170, 25010.43
517.9991, 25014.58
518.4813, 25017.85
518.9634, 25020.43
519.4455, 25007.70
519.9276, 25021.54
520.4097, 25085.91
520.8918, 25187.08
521.3740, 25235.71
521.8561, 25219.37
522.3382, 25191.65
522.8203, 25185.35
523.3024, 25199.51
523.7845, 25215.51
524.2667, 25231.06
524.7488, 25254.00
525.2309, 25305.47
525.7130, 25375.32
526.1951, 25427.00
526.6772, 25442.63
527.1594, 25439.64
527.6415, 25430.07
528.1236, 25416.87
528.6057, 25412.80
529.0878, 25418.67
529.5699, 25440.86
530.0521, 25494.25
530.5342, 25594.36
531.0163, 25665.07
531.4984, 25646.76
531.9805, 25602.48
532.4626, 25599.28
532.9448, 25701.28
533.4269, 25778.36
533.9090, 25808.23
534.3911, 25801.79
534.8732, 25797.13
535.3553, 25784.45
535.8375, 25792.59
536.3196, 25843.86
536.8017, 25942.54
537.2838, 26004.53
537.7659, 26024.76
538.2480, 26026.81
538.7302, 26031.35
539.2123, 26038.78
539.6944, 26054.14
540.1765, 26085.01
540.6586, 26112.38
541.1407, 26098.27
541.6229, 26055.05
542.1050, 26027.03
542.5871, 26052.42
543.0692, 26094.17
543.5513, 26115.63
544.0334, 26114.96
544.5156, 26123.86
544.9977, 26171.87
545.4798, 26227.10
545.9619, 26263.71
546.4440, 26267.07
546.9261, 26266.27
547.4083, 26256.60
547.8904, 26246.96
548.3725, 26254.73
548.8546, 26296.30
549.3367, 26328.15
549.8188, 26336.81
550.3010, 26324.62
550.7831, 26319.64
551.2652, 26324.11
551.7473, 26328.35
552.2294, 26320.29
552.7115, 26302.54
553.1937, 26304.77
553.6758, 26332.43
554.1579, 26367.17
554.6400, 26384.75
555.1221, 26390.87
555.6042, 26402.23
556.0864, 26434.90
556.5685, 26465.37
557.0506, 26462.54
557.5327, 26435.77
558.0148, 26419.82
558.4969, 26442.06
558.9791, 26472.54
559.4612, 26493.72
559.9433, 26502.76
560.4254, 26507.43
560.9075, 26487.81
561.3896, 26476.77
561.8718, 26504.99
562.3539, 26616.80
562.8360, 26691.03
563.3181, 26705.23
563.8002, 26682.41
564.2823, 26676.96
564.7645, 26691.39
565.2466, 26712.65
565.7287, 26739.73
566.2108, 26769.66
566.6929, 26782.08
567.1750, 26775.91
567.6572, 26774.91
568.1393, 26812.73
568.6214, 26867.74
569.1035, 26890.07
569.5856, 26864.42
570.0677, 26837.67
570.5499, 26848.32
571.0320, 26883.56
571.5141, 26923.11
571.9962, 26967.90
572.4783, 27007.23
572.9604, 27036.73
573.4426, 27056.73
573.9247, 27069.97
574.4068, 27074.28
574.8889, 27073.71
575.3710, 27064.95
575.8531, 27041.28
576.3353, 27049.99
576.8174, 27113.06
577.2995, 27175.80
577.7816, 27175.16
578.2637, 27102.54
578.7458, 27060.08
579.2280, 27066.53
579.7101, 27102.10
580.1922, 27136.44
580.6743, 27169.88
581.1564, 27204.25
581.6385, 27250.53
582.1207, 27292.90
582.6028, 27306.74
583.0849, 27294.47
583.5670, 27275.88
584.0491, 27241.20
584.5313, 27218.59
585.0134, 27236.02
585.4955, 27312.68
585.9776, 27379.55
586.4597, 27424.01
586.9418, 27447.19
587.4240, 27449.07
587.9061, 27417.52
588.3882, 27384.23
588.8703, 27347.78
589.3524, 27313.06
589.8345, 27292.93
590.3167, 27286.35
590.7988, 27299.53
591.2809, 27345.52
591.7630, 27414.86
592.2451, 27456.41
592.7272, 27469.64
593.2094, 27467.53
593.6915, 27453.94
594.1736, 27434.08
594.6557, 27415.59
595.1378, 27397.97
595.6199, 27390.81
596.1021, 27412.79
596.5842, 27446.88
597.0663, 27468.88
597.5485, 27455.36
598.0306, 27444.40
598.5127, 27446.04
598.9948, 27459.72
599.4769, 27482.80
599.9590, 27528.49
600.4412, 27567.27
600.9233, 27586.24
601.4054, 27583.57
601.8875, 27593.59
602.3696, 27621.50
602.8517, 27649.17
603.3339, 27653.60
603.8160, 27637.93
604.2981, 27649.34
604.7802, 27699.56
605.2623, 27754.39
605.7444, 27764.89
606.2266, 27743.86
606.7087, 27724.85
607.1908, 27715.52
607.6729, 27717.64
608.1550, 27738.44
608.6371, 27772.80
609.1193, 27804.82
609.6014, 27820.39
610.0835, 27838.62
610.5656, 27874.51
611.0477, 27934.20
611.5298, 27968.07
612.0120, 27958.09
612.4941, 27938.36
612.9762, 27931.07
613.4583, 27939.59
613.9404, 27948.14
614.4225, 27955.33
614.9047, 27963.75
615.3868, 27974.68
615.8689, 27988.82
616.3510, 28017.69
616.8331, 28078.82
617.3152, 28137.81
617.7974, 28125.13
618.2795, 28059.29
618.7616, 28011.61
619.2437, 28029.22
619.7258, 28074.11
620.2079, 28127.53
620.6901, 28187.55
621.1722, 28231.52
621.6543, 28232.27
622.1364, 28228.00
622.6185, 28246.74
623.1006, 28316.04
623.5828, 28349.01
624.0649, 28327.69
624.5470, 28286.50
625.0291, 28263.67
625.5112, 28259.46
625.9933, 28274.21
626.4755, 28312.62
626.9576, 28363.47
627.4397, 28411.99
627.9218, 28455.78
628.4039, 28476.36
628.8860, 28434.18
629.3682, 28379.49
629.8503, 28396.47
630.3324, 28474.58
630.8145, 28533.16
631.2966, 28486.16
631.7787, 28429.42
632.2609, 28440.45
632.7430, 28552.91
633.2251, 28638.78
633.7072, 28654.94
634.1893, 28644.94
634.6714, 28643.54
635.1536, 28651.20
635.6357, 28667.93
636.1178, 28698.30
636.5999, 28732.72
637.0820, 28751.20
637.5641, 28752.88
638.0463, 28757.15
638.5284, 28769.82
639.0105, 28789.41
639.4926, 28813.20
639.9747, 28841.52
640.4568, 28875.29
640.9390, 28931.38
641.4211, 28983.03
641.9032, 28998.49
642.3853, 28975.60
642.8674, 28959.08
643.3495, 28967.63
643.8317, 28988.23
644.3138, 29013.68
644.7959, 29055.06
645.2780, 29076.54
645.7601, 29065.04
646.2422, 29045.11
646.7244, 29048.78
647.2065, 29082.63
647.6886, 29105.50
648.1707, 29108.71
648.6528, 29099.24
649.1349, 29081.41
649.6171, 29058.94
650.0992, 29057.36
650.5813, 29114.12
651.0634, 29182.40
651.5455, 29190.51
652.0276, 29151.51
652.5098, 29135.17
652.9919, 29205.75
653.4740, 29289.60
653.9561, 29337.70
654.4382, 29337.79
654.9203, 29348.04
655.4025, 29381.77
655.8846, 29422.81
656.3667, 29463.02
656.8488, 29509.17
657.3309, 29532.13
657.8130, 29525.87
658.2952, 29505.74
658.7773, 29486.51
659.2594, 29469.37
659.7415, 29472.77
660.2236, 29509.29
660.7057, 29555.58
661.1879, 29575.49
661.6700, 29577.21
662.1521, 29583.34
662.6342, 29620.59
663.1163, 29652.12
663.5984, 29644.36
664.0806, 29603.46
664.5627, 29582.85
665.0448, 29623.38
665.5269, 29661.50
666.0090, 29662.54
666.4911, 29616.07
666.9733, 29616.00
667.4554, 29683.43
667.9375, 29755.42
668.4196, 29768.63
668.9017, 29726.03
669.3839, 29725.02
669.8660, 29780.00
670.3481, 29849.56
670.8302, 29897.57
