##NAMES=Ferro-ferri-fluoro-leakeite
##RRUFFID=R070468
##IDEAL CHEMISTRY=NaNa_2_(Fe^2+^_2_Fe^3+^_2_Li)Si_8_O_22_F_2_
##LOCALITY=Questa, Taos County, New Mexico, USA
##OWNER=RRUFF
##SOURCE=Michael Scott
##DESCRIPTION=Unconsolidated dark blue to black grains, co-type sample
##STATUS=The identification of this mineral has been confirmed only by single crystal X-ray diffraction.
##URL=rruff.info/R070468
110.4226, 103.5436
110.9047, 109.1674
111.3868, 118.2094
111.8690, 126.9501
112.3511, 135.0174
112.8332, 143.7532
113.3153, 154.3743
113.7974, 166.6859
114.2795, 178.6278
114.7617, 188.7868
115.2438, 198.6574
115.7259, 210.1437
116.2080, 223.6575
116.6901, 238.0058
117.1722, 251.6844
117.6544, 264.5378
118.1365, 278.4411
118.6186, 294.3678
119.1007, 311.6288
119.5828, 330.5057
120.0649, 351.6585
120.5471, 372.6060
121.0292, 389.9836
121.5113, 403.9536
121.9934, 413.4757
122.4755, 413.0027
122.9576, 410.5601
123.4398, 413.3432
123.9219, 424.0957
124.4040, 441.9817
124.8861, 465.0698
125.3682, 494.7842
125.8503, 528.4131
126.3325, 564.2242
126.8146, 603.1451
127.2967, 646.8918
127.7788, 696.2457
128.2609, 750.5465
128.7430, 804.5164
129.2252, 844.4773
129.7073, 902.8682
130.1894, 985.3212
130.6715, 1088.725
131.1536, 1213.775
131.6357, 1364.759
132.1179, 1533.947
132.6000, 1660.227
133.0821, 1704.110
133.5642, 1742.560
134.0463, 1791.076
134.5284, 1843.748
135.0106, 1890.990
135.4927, 1928.137
135.9748, 1954.153
136.4569, 1939.514
136.9390, 1844.254
137.4211, 1753.504
137.9033, 1689.425
138.3854, 1650.214
138.8675, 1625.163
139.3496, 1606.483
139.8317, 1594.198
140.3138, 1600.088
140.7960, 1634.542
141.2781, 1672.678
141.7602, 1701.190
142.2423, 1722.768
142.7244, 1749.082
143.2065, 1788.968
143.6887, 1843.125
144.1708, 1904.775
144.6529, 1970.687
145.1350, 2045.369
145.6171, 2134.923
146.0992, 2237.699
146.5814, 2343.455
147.0635, 2444.671
147.5456, 2540.993
148.0277, 2637.148
148.5098, 2735.234
148.9919, 2831.536
149.4741, 2927.716
149.9562, 3023.565
150.4383, 3107.265
150.9204, 3166.455
151.4025, 3202.084
151.8846, 3239.442
152.3668, 3297.342
152.8489, 3346.886
153.3310, 3362.696
153.8131, 3342.697
154.2952, 3295.973
154.7773, 3213.815
155.2595, 3106.281
155.7416, 3018.065
156.2237, 2958.598
156.7058, 2920.615
157.1879, 2899.111
157.6700, 2895.235
158.1522, 2898.665
158.6343, 2901.177
159.1164, 2904.971
159.5985, 2916.854
160.0806, 2934.009
160.5627, 2961.875
161.0449, 3013.079
161.5270, 3093.344
162.0091, 3175.604
162.4912, 3244.749
162.9733, 3302.004
163.4554, 3347.392
163.9376, 3368.917
164.4197, 3381.473
164.9018, 3414.182
165.3839, 3473.448
165.8660, 3534.819
166.3481, 3586.213
166.8303, 3629.165
167.3124, 3664.842
167.7945, 3691.802
168.2766, 3712.523
168.7587, 3732.903
169.2408, 3754.552
169.7230, 3772.093
170.2051, 3779.997
170.6872, 3782.728
171.1693, 3787.559
171.6514, 3800.824
172.1335, 3817.069
172.6157, 3821.619
173.0978, 3809.651
173.5799, 3795.168
174.0620, 3781.890
174.5441, 3770.755
175.0262, 3763.763
175.5084, 3762.801
175.9905, 3765.981
176.4726, 3767.262
176.9547, 3762.739
177.4368, 3764.029
177.9189, 3782.751
178.4010, 3807.401
178.8832, 3821.406
179.3653, 3814.250
179.8474, 3793.627
180.3295, 3782.352
180.8116, 3784.460
181.2937, 3789.479
181.7759, 3793.890
182.2580, 3798.714
182.7401, 3805.078
183.2222, 3813.409
183.7043, 3823.818
184.1864, 3837.485
184.6686, 3858.640
185.1507, 3875.214
185.6328, 3881.537
186.1149, 3883.160
186.5970, 3886.387
187.0791, 3894.198
187.5613, 3905.103
188.0434, 3914.629
188.5255, 3918.071
189.0076, 3928.851
189.4897, 3959.652
189.9718, 3993.923
190.4540, 4012.177
190.9361, 4004.473
191.4182, 3983.513
191.9003, 3980.650
192.3824, 4006.179
192.8645, 4032.664
193.3467, 4062.926
193.8288, 4088.417
194.3109, 4095.651
194.7930, 4078.832
195.2751, 4055.097
195.7572, 4064.899
196.2394, 4136.738
196.7215, 4188.906
197.2036, 4203.641
197.6857, 4201.831
198.1678, 4199.075
198.6499, 4200.989
199.1321, 4206.866
199.6142, 4217.159
200.0963, 4240.398
200.5784, 4250.005
201.0605, 4230.491
201.5426, 4207.150
202.0248, 4202.173
202.5069, 4220.789
202.9890, 4248.092
203.4711, 4259.009
203.9532, 4243.019
204.4353, 4234.084
204.9175, 4243.879
205.3996, 4253.270
205.8817, 4247.269
206.3638, 4223.859
206.8459, 4194.058
207.3280, 4173.677
207.8102, 4169.516
208.2923, 4157.652
208.7744, 4129.187
209.2565, 4100.652
209.7386, 4081.995
210.2207, 4074.152
210.7029, 4071.126
211.1850, 4065.121
211.6671, 4052.840
212.1492, 4050.251
212.6313, 4068.573
213.1134, 4086.343
213.5956, 4093.554
214.0777, 4089.950
214.5598, 4080.167
215.0419, 4066.268
215.5240, 4045.459
216.0061, 4040.061
216.4883, 4070.759
216.9704, 4097.479
217.4525, 4101.608
217.9346, 4087.667
218.4167, 4072.205
218.8988, 4069.179
219.3810, 4078.981
219.8631, 4087.109
220.3452, 4097.235
220.8273, 4101.809
221.3094, 4093.680
221.7915, 4078.326
222.2737, 4066.960
222.7558, 4068.495
223.2379, 4081.135
223.7200, 4085.302
224.2021, 4069.561
224.6842, 4057.413
225.1664, 4055.880
225.6485, 4060.553
226.1306, 4065.750
226.6127, 4068.901
227.0948, 4068.497
227.5770, 4057.009
228.0591, 4016.042
228.5412, 3989.241
229.0233, 3998.399
229.5054, 4019.496
229.9875, 4022.811
230.4697, 3994.431
230.9518, 3948.595
231.4339, 3920.123
231.9160, 3916.387
232.3981, 3919.329
232.8802, 3930.976
233.3624, 3944.746
233.8445, 3955.092
234.3266, 3960.155
234.8087, 3962.037
235.2908, 3965.201
235.7729, 3973.612
236.2551, 3973.370
236.7372, 3955.602
237.2193, 3935.281
237.7014, 3923.655
238.1835, 3922.244
238.6656, 3922.732
239.1478, 3911.630
239.6299, 3881.449
240.1120, 3867.865
240.5941, 3895.087
241.0762, 3920.355
241.5583, 3917.799
242.0405, 3890.140
242.5226, 3861.620
243.0047, 3857.754
243.4868, 3881.252
243.9689, 3896.943
244.4510, 3902.773
244.9332, 3901.844
245.4153, 3890.613
245.8974, 3872.986
246.3795, 3857.912
246.8616, 3851.724
247.3437, 3853.770
247.8259, 3859.775
248.3080, 3881.833
248.7901, 3890.581
249.2722, 3863.130
249.7543, 3819.080
250.2364, 3791.388
250.7186, 3801.263
251.2007, 3834.808
251.6828, 3850.989
252.1649, 3840.955
252.6470, 3831.226
253.1291, 3832.884
253.6113, 3838.248
254.0934, 3838.732
254.5755, 3830.748
255.0576, 3818.731
255.5397, 3809.148
256.0219, 3802.095
256.5040, 3797.283
256.9861, 3798.308
257.4682, 3799.463
257.9503, 3795.771
258.4324, 3786.060
258.9146, 3775.092
259.3967, 3767.855
259.8788, 3764.496
260.3609, 3761.191
260.8430, 3756.122
261.3251, 3751.970
261.8073, 3750.832
262.2894, 3752.664
262.7715, 3755.429
263.2536, 3760.428
263.7357, 3766.201
264.2178, 3763.178
264.7000, 3745.704
265.1821, 3726.330
265.6642, 3713.172
266.1463, 3705.404
266.6284, 3700.979
267.1105, 3701.177
267.5927, 3703.654
268.0748, 3703.988
268.5569, 3702.480
269.0390, 3697.534
269.5211, 3684.619
270.0032, 3667.757
270.4854, 3653.538
270.9675, 3642.379
271.4496, 3635.605
271.9317, 3635.999
272.4138, 3643.742
272.8959, 3653.347
273.3781, 3666.031
273.8602, 3676.671
274.3423, 3675.580
274.8244, 3656.113
275.3065, 3636.131
275.7886, 3630.302
276.2708, 3634.882
276.7529, 3632.803
277.2350, 3614.073
277.7171, 3591.560
278.1992, 3588.527
278.6813, 3608.513
279.1635, 3626.432
279.6456, 3630.438
280.1277, 3627.154
280.6098, 3628.912
281.0919, 3639.149
281.5740, 3650.066
282.0562, 3650.853
282.5383, 3640.317
283.0204, 3634.931
283.5025, 3641.947
283.9846, 3651.457
284.4667, 3654.460
284.9489, 3650.362
285.4310, 3643.336
285.9131, 3635.444
286.3952, 3627.085
286.8773, 3625.481
287.3594, 3639.604
287.8416, 3651.170
288.3237, 3646.913
288.8058, 3632.441
289.2879, 3624.694
289.7700, 3634.521
290.2521, 3655.726
290.7343, 3661.756
291.2164, 3632.659
291.6985, 3614.070
292.1806, 3618.644
292.6627, 3635.363
293.1448, 3652.289
293.6270, 3665.053
294.1091, 3673.269
294.5912, 3675.864
295.0733, 3668.687
295.5554, 3663.453
296.0375, 3658.261
296.5197, 3656.200
297.0018, 3660.728
297.4839, 3671.447
297.9660, 3684.535
298.4481, 3697.038
298.9302, 3710.039
299.4124, 3714.555
299.8945, 3699.878
300.3766, 3687.667
300.8587, 3686.893
301.3408, 3694.446
301.8229, 3702.707
302.3050, 3706.748
302.7871, 3707.370
303.2693, 3708.588
303.7514, 3710.186
304.2335, 3712.829
304.7156, 3720.528
305.1977, 3727.577
305.6798, 3724.331
306.1620, 3706.673
306.6441, 3688.636
307.1262, 3698.656
307.6083, 3748.741
308.0904, 3781.857
308.5725, 3769.922
309.0547, 3750.177
309.5368, 3744.021
310.0189, 3753.344
310.5010, 3766.615
310.9831, 3775.708
311.4652, 3780.650
311.9474, 3780.224
312.4295, 3768.191
312.9116, 3759.901
313.3937, 3772.367
313.8758, 3796.372
314.3579, 3807.107
314.8401, 3782.981
315.3222, 3743.342
315.8043, 3724.918
316.2864, 3731.664
316.7685, 3736.408
317.2506, 3720.990
317.7328, 3695.473
318.2149, 3676.480
318.6970, 3667.346
319.1791, 3662.682
319.6612, 3665.134
320.1433, 3670.876
320.6255, 3659.941
321.1076, 3619.551
321.5897, 3569.182
322.0718, 3540.769
322.5539, 3536.470
323.0360, 3533.348
323.5182, 3524.128
324.0003, 3512.806
324.4824, 3504.130
324.9645, 3498.874
325.4466, 3496.902
325.9287, 3500.166
326.4109, 3509.492
326.8930, 3506.858
327.3751, 3476.146
327.8572, 3448.655
328.3393, 3446.100
328.8214, 3462.255
329.3036, 3477.025
329.7857, 3478.946
330.2678, 3469.978
330.7499, 3458.914
331.2320, 3436.443
331.7141, 3423.427
332.1963, 3426.546
332.6784, 3438.082
333.1605, 3451.347
333.6426, 3463.825
334.1247, 3474.449
334.6068, 3482.025
335.0890, 3487.614
335.5711, 3486.698
336.0532, 3469.571
336.5353, 3455.254
337.0174, 3455.049
337.4995, 3466.972
337.9817, 3482.273
338.4638, 3495.484
338.9459, 3506.065
339.4280, 3507.911
339.9101, 3489.920
340.3922, 3479.903
340.8744, 3488.815
341.3565, 3508.283
341.8386, 3528.806
342.3207, 3547.481
342.8028, 3563.170
343.2849, 3573.126
343.7671, 3576.477
344.2492, 3580.454
344.7313, 3588.157
345.2134, 3595.948
345.6955, 3602.179
346.1776, 3606.598
346.6598, 3606.495
347.1419, 3593.704
347.6240, 3575.160
348.1061, 3571.887
348.5882, 3589.350
349.0703, 3611.585
349.5525, 3628.322
350.0346, 3640.084
350.5167, 3647.452
350.9988, 3645.272
351.4809, 3642.911
351.9630, 3649.670
352.4452, 3663.823
352.9273, 3675.892
353.4094, 3680.745
353.8915, 3681.540
354.3736, 3686.704
354.8557, 3697.314
355.3379, 3708.771
355.8200, 3725.533
356.3021, 3740.146
356.7842, 3739.181
357.2663, 3721.007
357.7484, 3702.914
358.2306, 3705.724
358.7127, 3735.430
359.1948, 3752.657
359.6769, 3743.134
360.1590, 3737.115
360.6411, 3752.860
361.1233, 3782.586
361.6054, 3808.048
362.0875, 3818.470
362.5696, 3817.180
363.0517, 3815.798
363.5338, 3809.978
364.0160, 3811.651
364.4981, 3826.697
364.9802, 3846.056
365.4623, 3863.990
365.9444, 3878.526
366.4265, 3888.189
366.9087, 3887.108
367.3908, 3873.874
367.8729, 3874.834
368.3550, 3906.617
368.8371, 3933.970
369.3192, 3935.865
369.8014, 3919.995
370.2835, 3904.928
370.7656, 3897.791
371.2477, 3897.672
371.7298, 3905.236
372.2119, 3921.409
372.6941, 3936.351
373.1762, 3946.905
373.6583, 3952.934
374.1404, 3953.876
374.6225, 3947.855
375.1046, 3943.416
375.5868, 3945.868
376.0689, 3952.895
376.5510, 3962.372
377.0331, 3974.922
377.5152, 3981.473
377.9973, 3970.360
378.4795, 3939.261
378.9616, 3914.879
379.4437, 3898.538
379.9258, 3888.130
380.4079, 3885.038
380.8900, 3887.195
381.3722, 3889.418
381.8543, 3888.767
382.3364, 3886.723
382.8185, 3887.917
383.3006, 3900.908
383.7827, 3905.520
384.2649, 3893.268
384.7470, 3877.847
385.2291, 3870.893
385.7112, 3873.855
386.1933, 3880.143
386.6754, 3883.868
387.1576, 3885.169
387.6397, 3880.746
388.1218, 3864.114
388.6039, 3849.050
389.0860, 3847.021
389.5681, 3847.859
390.0503, 3832.174
390.5324, 3786.650
391.0145, 3735.683
391.4966, 3720.423
391.9787, 3744.475
392.4608, 3771.437
392.9430, 3800.244
393.4251, 3820.192
393.9072, 3817.959
394.3893, 3793.821
394.8714, 3771.789
395.3535, 3767.177
395.8357, 3770.946
396.3178, 3766.322
396.7999, 3751.312
397.2820, 3739.070
397.7641, 3741.850
398.2462, 3755.189
398.7284, 3755.521
399.2105, 3727.636
399.6926, 3704.069
400.1747, 3700.840
400.6568, 3709.416
401.1389, 3716.840
401.6211, 3718.893
402.1032, 3715.968
402.5853, 3708.493
403.0674, 3695.742
403.5495, 3680.168
404.0316, 3656.237
404.5138, 3634.834
404.9959, 3623.035
405.4780, 3618.472
405.9601, 3615.479
406.4422, 3611.261
406.9243, 3604.170
407.4065, 3585.490
407.8886, 3540.421
408.3707, 3514.902
408.8528, 3540.781
409.3349, 3572.823
409.8170, 3572.133
410.2992, 3534.027
410.7813, 3488.594
411.2634, 3460.443
411.7455, 3446.860
412.2276, 3436.034
412.7097, 3429.266
413.1919, 3420.428
413.6740, 3404.108
414.1561, 3382.729
414.6382, 3360.779
415.1203, 3337.333
415.6024, 3315.511
416.0846, 3299.938
416.5667, 3288.119
417.0488, 3271.180
417.5309, 3245.081
418.0130, 3216.849
418.4951, 3197.607
418.9773, 3191.258
419.4594, 3180.909
419.9415, 3163.891
420.4236, 3144.535
420.9057, 3122.578
421.3878, 3100.404
421.8700, 3085.355
422.3521, 3083.398
422.8342, 3089.338
423.3163, 3079.621
423.7984, 3033.769
424.2805, 3004.529
424.7627, 3011.997
425.2448, 3026.794
425.7269, 3026.044
426.2090, 3006.152
426.6911, 2977.077
427.1732, 2941.517
427.6554, 2901.218
428.1375, 2883.173
428.6196, 2899.189
429.1017, 2914.904
429.5838, 2912.675
430.0659, 2898.907
430.5481, 2881.221
431.0302, 2858.763
431.5123, 2838.456
431.9944, 2825.878
432.4765, 2820.189
432.9586, 2819.919
433.4408, 2826.313
433.9229, 2832.371
434.4050, 2827.910
434.8871, 2811.303
435.3692, 2802.610
435.8513, 2814.965
436.3335, 2824.668
436.8156, 2813.321
437.2977, 2787.255
437.7798, 2763.118
438.2619, 2749.204
438.7440, 2743.985
439.2262, 2744.485
439.7083, 2758.325
440.1904, 2764.050
440.6725, 2754.735
441.1546, 2743.608
441.6367, 2740.480
442.1189, 2744.105
442.6010, 2745.765
443.0831, 2737.274
443.5652, 2722.361
444.0473, 2716.149
444.5294, 2721.356
445.0116, 2727.704
445.4937, 2735.586
445.9758, 2740.370
446.4579, 2735.400
446.9400, 2718.623
447.4221, 2702.121
447.9043, 2693.937
448.3864, 2691.131
448.8685, 2685.874
449.3506, 2676.541
449.8327, 2673.952
450.3148, 2691.918
450.7970, 2726.187
451.2791, 2736.104
451.7612, 2696.925
452.2433, 2664.145
452.7254, 2661.819
453.2076, 2674.733
453.6897, 2681.278
454.1718, 2675.315
454.6539, 2665.804
455.1360, 2665.274
455.6181, 2676.785
456.1003, 2679.925
456.5824, 2657.742
457.0645, 2644.569
457.5466, 2659.265
458.0287, 2687.929
458.5108, 2707.847
458.9930, 2708.988
459.4751, 2700.419
459.9572, 2693.064
460.4393, 2686.913
460.9214, 2684.569
461.4035, 2686.925
461.8857, 2692.862
462.3678, 2704.528
462.8499, 2720.090
463.3320, 2729.110
463.8141, 2720.258
464.2962, 2710.395
464.7784, 2718.590
465.2605, 2739.988
465.7426, 2753.134
466.2247, 2747.327
466.7068, 2733.406
467.1889, 2732.790
467.6711, 2754.692
468.1532, 2771.017
468.6353, 2778.972
469.1174, 2783.932
469.5995, 2790.005
470.0816, 2796.048
470.5638, 2797.346
471.0459, 2790.237
471.5280, 2778.299
472.0101, 2771.653
472.4922, 2770.960
472.9743, 2773.923
473.4565, 2783.552
473.9386, 2794.287
474.4207, 2804.650
474.9028, 2813.670
475.3849, 2816.744
475.8670, 2805.183
476.3492, 2788.398
476.8313, 2784.253
477.3134, 2793.263
477.7955, 2801.387
478.2776, 2801.260
478.7597, 2796.123
479.2419, 2793.576
479.7240, 2793.526
480.2061, 2795.662
480.6882, 2805.462
481.1703, 2813.713
481.6524, 2809.392
482.1346, 2793.838
482.6167, 2777.905
483.0988, 2769.121
483.5809, 2767.298
484.0630, 2772.187
484.5451, 2793.317
485.0273, 2805.182
485.5094, 2798.052
485.9915, 2785.760
486.4736, 2777.987
486.9557, 2776.295
487.4378, 2778.639
487.9200, 2785.089
488.4021, 2794.265
488.8842, 2802.102
489.3663, 2808.518
489.8484, 2814.228
490.3305, 2822.524
490.8127, 2828.429
491.2948, 2820.687
491.7769, 2791.810
492.2590, 2771.028
492.7411, 2771.387
493.2232, 2783.319
493.7054, 2799.828
494.1875, 2818.255
494.6696, 2832.446
495.1517, 2837.432
495.6338, 2834.300
496.1159, 2829.939
496.5981, 2819.040
497.0802, 2814.752
497.5623, 2824.336
498.0444, 2836.584
498.5265, 2843.261
499.0086, 2842.961
499.4908, 2837.603
499.9729, 2824.286
500.4550, 2807.323
500.9371, 2804.666
501.4192, 2819.049
501.9013, 2836.482
502.3835, 2852.986
502.8656, 2867.886
503.3477, 2880.804
503.8298, 2892.230
504.3119, 2899.291
504.7940, 2899.927
505.2762, 2896.155
505.7583, 2886.675
506.2404, 2873.365
506.7225, 2866.203
507.2046, 2872.037
507.6867, 2889.016
508.1689, 2909.378
508.6510, 2944.509
509.1331, 2965.826
509.6152, 2965.368
510.0973, 2956.324
510.5794, 2944.806
511.0616, 2933.367
511.5437, 2925.581
512.0258, 2924.583
512.5079, 2928.713
512.9901, 2935.471
513.4722, 2946.361
513.9543, 2949.970
514.4364, 2938.356
514.9185, 2920.750
515.4006, 2908.063
515.8828, 2900.139
516.3649, 2897.926
516.8470, 2906.344
517.3291, 2917.148
517.8112, 2923.888
518.2933, 2926.144
518.7755, 2923.036
519.2576, 2913.042
519.7397, 2902.213
520.2218, 2905.770
520.7039, 2934.636
521.1860, 2957.249
521.6682, 2968.843
522.1503, 2979.359
522.6324, 2994.965
523.1145, 3013.990
523.5966, 3031.205
524.0787, 3044.331
524.5609, 3053.494
525.0430, 3056.389
525.5251, 3053.091
526.0072, 3056.118
526.4893, 3070.792
526.9714, 3088.857
527.4536, 3100.246
527.9357, 3106.068
528.4178, 3116.673
528.8999, 3136.461
529.3820, 3158.524
529.8641, 3180.874
530.3463, 3202.196
530.8284, 3219.400
531.3105, 3231.621
531.7926, 3241.784
532.2747, 3252.927
532.7568, 3263.855
533.2390, 3283.682
533.7211, 3321.854
534.2032, 3358.464
534.6853, 3391.682
535.1674, 3418.149
535.6495, 3432.048
536.1317, 3430.833
536.6138, 3425.920
537.0959, 3426.769
537.5780, 3432.420
538.0601, 3440.465
538.5422, 3450.904
539.0244, 3461.145
539.5065, 3468.520
539.9886, 3474.186
540.4707, 3483.746
540.9528, 3506.321
541.4349, 3520.064
541.9171, 3513.095
542.3992, 3500.175
542.8813, 3499.565
543.3634, 3509.701
543.8455, 3511.076
544.3276, 3486.345
544.8098, 3442.093
545.2919, 3407.454
545.7740, 3385.763
546.2561, 3364.638
546.7382, 3340.667
547.2203, 3316.527
547.7025, 3292.779
548.1846, 3269.969
548.6666, 3251.949
549.1487, 3246.943
549.6309, 3243.134
550.1130, 3224.282
550.5951, 3194.071
551.0772, 3170.909
551.5593, 3162.904
552.0414, 3160.102
552.5236, 3145.779
553.0057, 3114.609
553.4878, 3089.734
553.9699, 3074.108
554.4520, 3060.531
554.9341, 3048.789
555.4163, 3036.349
555.8984, 3017.966
556.3805, 2991.382
556.8626, 2965.932
557.3447, 2955.725
557.8268, 2958.390
558.3090, 2952.174
558.7911, 2930.549
559.2732, 2915.051
559.7553, 2927.156
560.2374, 2955.360
560.7195, 2961.929
561.2017, 2931.099
561.6838, 2905.826
562.1659, 2903.707
562.6480, 2911.222
563.1301, 2914.192
563.6122, 2911.535
564.0944, 2910.993
564.5765, 2919.659
565.0586, 2932.240
565.5407, 2925.120
566.0228, 2885.246
566.5049, 2858.710
566.9871, 2863.837
567.4692, 2876.601
567.9513, 2886.104
568.4334, 2890.825
568.9155, 2888.146
569.3976, 2870.264
569.8798, 2850.499
570.3619, 2843.607
570.8440, 2846.320
571.3261, 2847.875
571.8082, 2845.014
572.2903, 2839.909
572.7725, 2835.370
573.2546, 2831.773
573.7367, 2824.895
574.2188, 2808.182
574.7009, 2796.077
575.1830, 2797.261
575.6652, 2802.270
576.1473, 2801.230
576.6294, 2791.729
577.1115, 2776.492
577.5936, 2753.692
578.0757, 2727.164
578.5579, 2674.421
579.0400, 2700.779
579.5221, 2709.749
580.0042, 2702.265
580.4863, 2629.053
580.9684, 2640.719
581.4506, 2618.364
581.9327, 2594.620
582.4148, 2618.230
582.8969, 2554.578
583.3790, 2577.437
583.8611, 2565.763
584.3433, 2569.890
584.8254, 2539.798
585.3075, 2520.275
585.7896, 2534.987
586.2717, 2530.743
586.7538, 2496.710
587.2360, 2501.842
587.7181, 2436.997
588.2002, 2433.560
588.6823, 2398.147
589.1644, 2373.155
589.6465, 2373.359
590.1287, 2379.232
590.6108, 2387.397
591.0929, 2392.678
591.5750, 2385.333
592.0571, 2366.910
592.5392, 2350.596
593.0214, 2345.738
593.5035, 2347.498
593.9856, 2340.179
594.4677, 2318.725
594.9498, 2300.313
595.4319, 2287.693
595.9141, 2277.362
596.3962, 2267.503
596.8783, 2258.644
597.3604, 2252.356
597.8425, 2249.303
598.3246, 2248.896
598.8068, 2253.111
599.2889, 2259.351
599.7710, 2260.479
600.2531, 2255.110
600.7352, 2247.609
601.2173, 2242.203
601.6995, 2237.930
602.1816, 2226.779
602.6637, 2196.360
603.1458, 2176.185
603.6279, 2170.785
604.1100, 2174.370
604.5922, 2187.874
605.0743, 2207.235
605.5564, 2220.229
606.0385, 2217.653
606.5206, 2208.012
607.0027, 2205.902
