##NAMES=Ferro-gedrite
##RRUFFID=R070531
##IDEAL CHEMISTRY=[box]Fe^2+^_2_(Fe^2+^_3_Al_2_)(Si_6_Al_2_)O_22_(OH)_2_
##LOCALITY=Ludvika, Dalarna District, Kopparberg, Sweden
##OWNER=RRUFF
##SOURCE=James Shigley
##DESCRIPTION=Flattened black prismatic crystals in semi-sheaflike aggregates, associated with quartz
##STATUS=The identification of this mineral is confirmed by single-crystal X-ray diffraction and chemical analysis.
##URL=rruff.info/R070531
##MEASURED CHEMISTRY=(Na_0.56_[box]_0.44_)_Σ=1_(Fe^2+^_1.94_Mn_0.05_Ca_0.01_)_Σ=2_(Fe^2+^_1.92_Mg_1.53_Al_1.52_Fe^3+^_0.02_Ti_0.01_)_Σ=5_(Si_5.88_Al_2.12_)_Σ=8_O_22_(OH)_2_; = light phase, and the dark phase is quartz
146.9519, 1947.789
147.4340, 1993.430
147.9162, 2046.580
148.3983, 2107.661
148.8804, 2172.653
149.3625, 2250.173
149.8446, 2329.928
150.3267, 2392.446
150.8089, 2428.944
151.2910, 2448.355
151.7731, 2467.628
152.2552, 2486.929
152.7373, 2505.862
153.2194, 2529.731
153.7016, 2553.772
154.1837, 2565.682
154.6658, 2560.829
155.1479, 2540.902
155.6300, 2508.448
156.1121, 2458.308
156.5943, 2411.245
157.0764, 2375.795
157.5585, 2351.556
158.0406, 2337.805
158.5227, 2337.083
159.0048, 2344.842
159.4870, 2350.742
159.9691, 2343.623
160.4512, 2332.685
160.9333, 2324.729
161.4154, 2319.053
161.8975, 2309.755
162.3797, 2289.156
162.8618, 2269.613
163.3439, 2268.872
163.8260, 2292.941
164.3081, 2316.656
164.7902, 2318.968
165.2724, 2301.775
165.7545, 2287.949
166.2366, 2289.228
166.7187, 2294.360
167.2008, 2288.613
167.6829, 2267.614
168.1651, 2249.570
168.6472, 2254.554
169.1293, 2282.399
169.6114, 2303.724
170.0935, 2305.024
170.5756, 2298.335
171.0578, 2294.693
171.5399, 2295.607
172.0220, 2298.127
172.5041, 2300.656
172.9862, 2303.408
173.4683, 2302.251
173.9505, 2292.136
174.4326, 2279.650
174.9147, 2269.680
175.3968, 2263.002
175.8789, 2258.636
176.3610, 2254.920
176.8432, 2251.386
177.3253, 2252.187
177.8074, 2270.368
178.2895, 2285.927
178.7716, 2279.794
179.2537, 2246.902
179.7359, 2209.826
180.2180, 2197.469
180.7001, 2214.626
181.1822, 2223.048
181.6643, 2201.435
182.1465, 2174.466
182.6286, 2157.733
183.1107, 2154.284
183.5928, 2157.571
184.0749, 2163.635
184.5570, 2174.892
185.0392, 2175.101
185.5213, 2149.285
186.0034, 2117.935
186.4855, 2091.593
186.9676, 2072.516
187.4497, 2059.336
187.9319, 2050.650
188.4140, 2046.258
188.8961, 2047.021
189.3782, 2057.405
189.8603, 2070.332
190.3424, 2082.932
190.8246, 2094.472
191.3067, 2103.995
191.7888, 2110.403
192.2709, 2113.525
192.7530, 2114.545
193.2351, 2110.017
193.7173, 2105.935
194.1994, 2105.557
194.6815, 2109.346
195.1636, 2115.604
195.6457, 2124.042
196.1278, 2135.920
196.6100, 2142.691
197.0921, 2136.885
197.5742, 2130.335
198.0563, 2128.091
198.5384, 2130.979
199.0205, 2137.883
199.5027, 2149.825
199.9848, 2168.401
200.4669, 2181.189
200.9490, 2176.343
201.4311, 2173.712
201.9132, 2185.727
202.3954, 2211.104
202.8775, 2236.754
203.3596, 2247.135
203.8417, 2239.665
204.3238, 2240.727
204.8059, 2259.591
205.2881, 2280.936
205.7702, 2300.411
206.2523, 2316.872
206.7344, 2329.170
207.2165, 2335.495
207.6986, 2335.522
208.1808, 2334.232
208.6629, 2327.681
209.1450, 2323.587
209.6271, 2326.588
210.1092, 2335.203
210.5913, 2344.268
211.0735, 2349.397
211.5556, 2350.650
212.0377, 2353.367
212.5198, 2360.648
213.0019, 2365.968
213.4840, 2367.057
213.9662, 2364.256
214.4483, 2358.650
214.9304, 2350.444
215.4125, 2339.934
215.8946, 2329.366
216.3767, 2317.082
216.8589, 2307.072
217.3410, 2303.823
217.8231, 2303.577
218.3052, 2298.991
218.7873, 2283.734
219.2694, 2260.870
219.7516, 2246.826
220.2337, 2256.197
220.7158, 2251.328
221.1979, 2211.641
221.6800, 2153.119
222.1621, 2098.848
222.6443, 2060.192
223.1264, 2034.352
223.6085, 2014.203
224.0906, 2004.745
224.5727, 1991.280
225.0548, 1964.097
225.5370, 1932.413
226.0191, 1907.532
226.5012, 1894.644
226.9833, 1889.239
227.4654, 1882.451
227.9475, 1874.408
228.4297, 1864.445
228.9118, 1852.518
229.3939, 1838.662
229.8760, 1822.102
230.3581, 1802.083
230.8402, 1781.531
231.3224, 1765.055
231.8045, 1753.472
232.2866, 1742.728
232.7687, 1729.995
233.2508, 1718.651
233.7329, 1712.819
234.2151, 1713.804
234.6972, 1715.040
235.1793, 1707.857
235.6614, 1691.142
236.1435, 1675.966
236.6256, 1663.492
237.1078, 1654.641
237.5899, 1651.938
238.0720, 1655.510
238.5541, 1658.804
239.0362, 1655.871
239.5183, 1646.836
240.0005, 1636.293
240.4826, 1622.041
240.9647, 1609.522
241.4468, 1602.635
241.9289, 1601.198
242.4111, 1602.239
242.8932, 1606.691
243.3753, 1613.025
243.8574, 1611.711
244.3395, 1597.614
244.8216, 1581.747
245.3038, 1570.208
245.7859, 1563.037
246.2680, 1560.906
246.7501, 1568.781
247.2322, 1581.734
247.7143, 1586.175
248.1965, 1578.780
248.6786, 1569.336
249.1607, 1563.481
249.6428, 1560.609
250.1249, 1560.110
250.6070, 1564.763
251.0892, 1570.464
251.5713, 1569.261
252.0534, 1559.500
252.5355, 1551.971
253.0176, 1557.164
253.4997, 1568.463
253.9819, 1573.305
254.4640, 1564.299
254.9461, 1553.136
255.4282, 1552.461
255.9103, 1561.989
256.3924, 1570.686
256.8745, 1573.234
257.3567, 1571.247
257.8388, 1568.292
258.3209, 1562.084
258.8030, 1559.004
259.2851, 1567.929
259.7672, 1585.061
260.2494, 1593.251
260.7315, 1583.443
261.2136, 1564.729
261.6957, 1552.920
262.1778, 1547.930
262.6599, 1548.057
263.1421, 1556.213
263.6242, 1568.599
264.1063, 1577.240
264.5884, 1579.526
265.0705, 1579.359
265.5526, 1583.148
266.0348, 1592.093
266.5169, 1596.827
266.9990, 1592.073
267.4811, 1583.886
267.9632, 1579.579
268.4453, 1580.412
268.9275, 1582.335
269.4096, 1580.706
269.8917, 1574.491
270.3738, 1572.798
270.8559, 1580.478
271.3380, 1589.020
271.8202, 1591.068
272.3023, 1587.315
272.7844, 1584.906
273.2665, 1590.095
273.7487, 1602.617
274.2308, 1609.098
274.7129, 1605.077
275.1950, 1600.707
275.6771, 1599.163
276.1592, 1600.381
276.6414, 1604.798
277.1235, 1613.421
277.6056, 1623.853
278.0877, 1625.353
278.5698, 1604.386
279.0519, 1590.983
279.5341, 1596.843
280.0162, 1609.669
280.4983, 1611.916
280.9804, 1596.896
281.4625, 1576.009
281.9446, 1572.966
282.4268, 1609.230
282.9089, 1629.742
283.3910, 1626.404
283.8731, 1614.047
284.3552, 1600.384
284.8373, 1588.531
285.3195, 1582.199
285.8016, 1587.768
286.2837, 1611.065
286.7658, 1624.319
287.2479, 1621.957
287.7300, 1615.318
288.2122, 1606.455
288.6943, 1597.240
289.1764, 1591.024
289.6585, 1591.431
290.1406, 1598.019
290.6227, 1601.288
291.1049, 1603.021
291.5870, 1598.582
292.0691, 1579.572
292.5512, 1555.114
293.0333, 1539.971
293.5154, 1543.322
293.9976, 1558.266
294.4797, 1566.705
294.9618, 1565.351
295.4439, 1564.998
295.9260, 1570.862
296.4081, 1578.079
296.8903, 1582.045
297.3724, 1581.295
297.8545, 1578.305
298.3366, 1575.661
298.8187, 1573.360
299.3008, 1571.483
299.7830, 1570.191
300.2651, 1569.263
300.7472, 1568.254
301.2293, 1567.170
301.7114, 1566.999
302.1935, 1570.358
302.6757, 1575.552
303.1578, 1574.920
303.6399, 1564.406
304.1220, 1554.349
304.6041, 1557.532
305.0862, 1569.823
305.5684, 1574.834
306.0505, 1556.855
306.5326, 1533.924
307.0147, 1533.597
307.4968, 1558.049
307.9789, 1580.262
308.4611, 1581.863
308.9432, 1566.782
309.4253, 1554.407
309.9074, 1545.008
310.3895, 1538.489
310.8716, 1535.280
311.3538, 1535.009
311.8359, 1536.379
312.3180, 1538.615
312.8001, 1542.512
313.2822, 1551.025
313.7643, 1569.080
314.2465, 1581.455
314.7286, 1584.159
315.2107, 1580.018
315.6928, 1570.417
316.1749, 1555.981
316.6570, 1541.230
317.1392, 1531.718
317.6213, 1527.934
318.1034, 1529.301
318.5855, 1541.479
319.0676, 1553.665
319.5497, 1557.346
320.0319, 1554.194
320.5140, 1553.242
320.9961, 1562.923
321.4782, 1582.498
321.9603, 1589.460
322.4424, 1565.169
322.9246, 1548.370
323.4067, 1552.904
323.8888, 1568.203
324.3709, 1578.005
324.8530, 1574.352
325.3351, 1563.575
325.8173, 1560.690
326.2994, 1568.932
326.7815, 1578.602
327.2636, 1598.716
327.7457, 1612.901
328.2278, 1603.492
328.7100, 1569.506
329.1921, 1533.192
329.6742, 1518.467
330.1563, 1525.938
330.6384, 1539.553
331.1205, 1569.400
331.6027, 1592.118
332.0848, 1589.876
332.5669, 1569.456
333.0490, 1552.323
333.5311, 1552.800
334.0132, 1563.957
334.4954, 1569.948
334.9775, 1569.826
335.4596, 1568.110
335.9417, 1567.276
336.4238, 1566.339
336.9059, 1563.373
337.3881, 1556.334
337.8702, 1549.990
338.3523, 1548.692
338.8344, 1551.624
339.3165, 1554.963
339.7986, 1557.663
340.2808, 1559.697
340.7629, 1560.217
341.2450, 1558.204
341.7271, 1559.297
342.2092, 1570.342
342.6913, 1582.886
343.1735, 1584.897
343.6556, 1574.679
344.1377, 1561.803
344.6198, 1554.885
345.1019, 1554.477
345.5840, 1557.559
346.0662, 1567.814
346.5483, 1577.663
347.0304, 1584.703
347.5125, 1588.461
347.9946, 1588.185
348.4767, 1583.163
348.9589, 1574.652
349.4410, 1567.279
349.9231, 1559.842
350.4052, 1555.414
350.8873, 1556.037
351.3694, 1558.668
351.8516, 1561.241
352.3337, 1562.971
352.8158, 1563.108
353.2979, 1559.660
353.7800, 1550.764
354.2621, 1546.057
354.7443, 1548.172
355.2264, 1552.480
355.7085, 1559.496
356.1906, 1567.499
356.6727, 1572.531
357.1548, 1571.575
357.6370, 1566.005
358.1191, 1559.712
358.6012, 1552.173
359.0833, 1545.319
359.5654, 1534.213
360.0475, 1526.568
360.5297, 1535.121
361.0118, 1568.658
361.4939, 1600.174
361.9760, 1600.230
362.4581, 1574.370
362.9402, 1556.700
363.4224, 1558.121
363.9045, 1567.200
364.3866, 1568.955
364.8687, 1563.354
365.3508, 1561.689
365.8329, 1572.974
366.3151, 1586.413
366.7972, 1587.529
367.2793, 1575.946
367.7614, 1564.981
368.2435, 1564.934
368.7256, 1574.806
369.2078, 1580.916
369.6899, 1579.377
370.1720, 1579.099
370.6541, 1583.339
371.1362, 1590.654
371.6183, 1599.359
372.1005, 1608.798
372.5826, 1617.462
373.0647, 1621.896
373.5468, 1616.305
374.0289, 1618.088
374.5110, 1633.627
374.9932, 1650.285
375.4753, 1658.864
375.9574, 1660.427
376.4395, 1663.339
376.9216, 1676.577
377.4037, 1698.395
377.8859, 1707.053
378.3680, 1689.555
378.8501, 1678.753
379.3322, 1691.067
379.8143, 1713.369
380.2964, 1728.428
380.7786, 1729.517
381.2607, 1725.309
381.7428, 1725.572
382.2249, 1730.303
382.7070, 1739.164
383.1891, 1758.167
383.6713, 1774.167
384.1534, 1770.915
384.6355, 1749.208
385.1176, 1732.506
385.5997, 1730.948
386.0818, 1739.680
386.5640, 1755.254
387.0461, 1777.427
387.5282, 1795.851
388.0103, 1803.266
388.4924, 1800.340
388.9745, 1794.213
389.4567, 1779.749
389.9388, 1768.075
390.4209, 1762.715
390.9030, 1762.846
391.3851, 1768.341
391.8672, 1779.121
392.3494, 1791.711
392.8315, 1800.715
393.3136, 1805.887
393.7957, 1807.526
394.2778, 1803.194
394.7599, 1798.070
395.2421, 1792.748
395.7242, 1788.967
396.2063, 1791.310
396.6884, 1805.201
397.1706, 1826.264
397.6527, 1831.880
398.1348, 1812.512
398.6169, 1794.886
399.0990, 1784.744
399.5811, 1780.026
400.0633, 1779.695
400.5454, 1783.644
401.0275, 1789.062
401.5096, 1793.089
401.9917, 1795.993
402.4738, 1801.071
402.9560, 1812.441
403.4381, 1819.484
403.9202, 1807.866
404.4023, 1782.866
404.8844, 1764.957
405.3665, 1761.143
405.8487, 1765.025
406.3308, 1772.305
406.8129, 1782.463
407.2950, 1794.980
407.7771, 1811.702
408.2592, 1827.485
408.7414, 1827.389
409.2235, 1801.308
409.7056, 1779.058
410.1877, 1762.596
410.6698, 1752.422
411.1519, 1751.817
411.6341, 1759.674
412.1162, 1768.337
412.5983, 1769.909
413.0804, 1764.096
413.5625, 1763.383
414.0446, 1781.427
414.5268, 1789.475
415.0089, 1773.241
415.4910, 1746.245
415.9731, 1726.082
416.4552, 1719.664
416.9373, 1720.906
417.4195, 1723.155
417.9016, 1727.268
418.3837, 1723.612
418.8658, 1704.410
419.3479, 1683.385
419.8300, 1670.107
420.3122, 1663.857
420.7943, 1660.052
421.2764, 1660.675
421.7585, 1660.636
422.2406, 1650.749
422.7227, 1631.091
423.2049, 1612.943
423.6870, 1603.129
424.1691, 1598.196
424.6512, 1587.721
425.1333, 1565.456
425.6154, 1550.256
426.0976, 1555.182
426.5797, 1565.681
427.0618, 1562.658
427.5439, 1543.675
428.0260, 1522.507
428.5081, 1513.578
428.9903, 1518.006
429.4724, 1517.180
429.9545, 1510.638
430.4366, 1499.301
430.9187, 1475.894
431.4008, 1450.169
431.8830, 1436.543
432.3651, 1440.926
432.8472, 1453.725
433.3293, 1461.435
433.8114, 1464.076
434.2935, 1460.908
434.7757, 1446.199
435.2578, 1431.405
435.7399, 1425.079
436.2220, 1425.361
436.7041, 1424.600
437.1862, 1417.302
437.6684, 1408.118
438.1505, 1404.301
438.6326, 1405.610
439.1147, 1406.293
439.5968, 1404.057
440.0789, 1399.284
440.5611, 1391.828
441.0432, 1378.915
441.5253, 1370.906
442.0074, 1375.696
442.4895, 1382.971
442.9716, 1380.065
443.4538, 1367.109
443.9359, 1355.884
444.4180, 1357.016
444.9001, 1369.569
445.3822, 1376.185
445.8643, 1373.654
446.3465, 1368.435
446.8286, 1355.435
447.3107, 1343.222
447.7928, 1343.812
448.2749, 1359.755
448.7570, 1376.730
449.2392, 1376.680
449.7213, 1359.834
450.2034, 1345.083
450.6855, 1332.055
451.1676, 1323.844
451.6497, 1325.341
452.1319, 1332.522
452.6140, 1336.800
453.0961, 1333.845
453.5782, 1329.650
454.0603, 1330.824
454.5424, 1335.447
455.0246, 1335.024
455.5067, 1325.396
455.9888, 1314.747
456.4709, 1315.915
456.9530, 1334.528
457.4352, 1344.548
457.9173, 1339.383
458.3994, 1331.228
458.8815, 1327.167
459.3636, 1326.326
459.8457, 1325.045
460.3279, 1321.257
460.8100, 1315.528
461.2921, 1308.681
461.7742, 1297.865
462.2563, 1292.566
462.7384, 1299.146
463.2206, 1307.052
463.7027, 1309.625
464.1848, 1307.023
464.6669, 1303.571
465.1490, 1302.346
465.6311, 1302.271
466.1133, 1300.550
466.5954, 1296.990
467.0775, 1293.454
467.5596, 1291.188
468.0417, 1289.238
468.5238, 1285.457
469.0060, 1278.729
469.4881, 1273.575
469.9702, 1271.439
470.4523, 1271.754
470.9344, 1275.638
471.4165, 1282.385
471.8987, 1286.752
472.3808, 1283.994
472.8629, 1274.913
473.3450, 1268.175
473.8271, 1262.822
474.3092, 1261.356
474.7914, 1268.397
475.2735, 1277.029
475.7556, 1280.666
476.2377, 1277.864
476.7198, 1271.599
477.2019, 1263.084
477.6841, 1252.776
478.1662, 1247.610
478.6483, 1249.666
479.1304, 1252.741
479.6125, 1251.759
480.0946, 1250.042
480.5768, 1253.421
481.0589, 1265.411
481.5410, 1277.059
482.0231, 1282.495
482.5052, 1283.423
482.9873, 1282.019
483.4695, 1278.615
483.9516, 1277.534
484.4337, 1284.401
484.9158, 1300.106
485.3979, 1307.521
485.8800, 1302.564
486.3622, 1295.553
486.8443, 1285.463
487.3264, 1276.808
487.8085, 1277.272
488.2906, 1288.799
488.7727, 1302.430
489.2549, 1304.040
489.7370, 1291.639
490.2191, 1289.231
490.7012, 1305.089
491.1833, 1320.391
491.6654, 1324.720
492.1476, 1322.182
492.6297, 1320.424
493.1118, 1321.953
493.5939, 1324.189
494.0760, 1322.698
494.5581, 1319.905
495.0403, 1326.088
495.5224, 1345.409
496.0045, 1363.902
496.4866, 1363.761
496.9687, 1341.717
497.4508, 1335.380
497.9330, 1361.326
498.4151, 1383.868
498.8972, 1386.198
499.3793, 1376.555
499.8614, 1366.810
500.3435, 1361.635
500.8257, 1361.580
501.3078, 1370.367
501.7899, 1391.141
502.2720, 1399.976
502.7541, 1385.675
503.2362, 1372.547
503.7184, 1373.538
504.2005, 1383.508
504.6826, 1392.698
505.1647, 1398.058
505.6468, 1401.791
506.1289, 1405.631
506.6111, 1409.492
507.0932, 1413.489
507.5753, 1417.848
508.0574, 1421.115
508.5395, 1421.550
509.0216, 1418.890
509.5038, 1416.557
509.9859, 1415.600
510.4680, 1413.826
510.9501, 1406.776
511.4322, 1399.704
511.9143, 1401.530
512.3965, 1414.775
512.8786, 1431.463
513.3607, 1441.109
513.8428, 1443.156
514.3250, 1443.193
514.8071, 1437.670
515.2892, 1435.378
515.7713, 1441.687
516.2534, 1453.247
516.7355, 1465.677
517.2177, 1479.825
517.6998, 1489.590
518.1819, 1486.415
518.6640, 1475.617
519.1461, 1470.689
519.6282, 1474.505
520.1104, 1479.810
520.5925, 1478.908
521.0746, 1471.924
521.5567, 1474.502
522.0388, 1503.182
522.5209, 1519.881
523.0031, 1501.781
523.4852, 1473.903
523.9673, 1467.174
524.4494, 1486.999
524.9315, 1511.512
525.4136, 1516.547
525.8958, 1503.956
526.3779, 1499.872
526.8600, 1507.110
527.3421, 1516.557
527.8242, 1526.541
528.3063, 1535.284
528.7885, 1540.321
529.2706, 1541.226
529.7527, 1539.241
530.2348, 1531.905
530.7169, 1523.447
531.1990, 1519.667
531.6812, 1521.156
532.1633, 1526.493
532.6454, 1535.259
533.1275, 1546.499
533.6096, 1555.453
534.0917, 1564.357
534.5739, 1567.354
535.0560, 1561.019
535.5381, 1551.216
536.0202, 1539.732
536.5023, 1528.477
536.9844, 1522.719
537.4666, 1530.562
537.9487, 1543.328
538.4308, 1537.581
538.9129, 1511.180
539.3950, 1486.817
539.8771, 1470.030
540.3593, 1461.174
540.8414, 1462.931
541.3235, 1476.059
541.8056, 1486.778
542.2877, 1492.343
542.7698, 1494.599
543.2520, 1495.784
543.7341, 1494.742
544.2162, 1486.655
544.6983, 1468.996
545.1804, 1448.667
545.6625, 1439.977
546.1447, 1448.784
546.6268, 1450.219
547.1089, 1433.707
547.5910, 1420.146
548.0731, 1422.112
548.5552, 1432.819
549.0374, 1438.168
549.5195, 1431.787
550.0016, 1422.094
550.4837, 1417.790
550.9658, 1416.817
551.4479, 1411.193
551.9301, 1398.628
552.4122, 1387.227
552.8943, 1385.137
553.3764, 1392.050
553.8585, 1394.125
554.3406, 1389.538
554.8228, 1383.216
555.3049, 1375.415
555.7870, 1366.867
556.2691, 1357.770
556.7512, 1348.480
557.2333, 1340.122
557.7155, 1332.726
558.1976, 1327.183
558.6797, 1330.734
559.1618, 1348.251
559.6439, 1356.284
560.1260, 1337.322
560.6082, 1309.951
561.0903, 1301.831
561.5724, 1316.524
562.0545, 1326.074
562.5366, 1319.768
563.0187, 1306.207
563.5009, 1287.671
563.9830, 1268.135
564.4651, 1259.278
564.9472, 1267.598
565.4293, 1284.005
565.9114, 1288.537
566.3936, 1274.649
566.8757, 1267.378
567.3578, 1278.700
567.8399, 1285.281
568.3220, 1271.417
568.8041, 1246.613
569.2863, 1231.258
569.7684, 1235.465
570.2505, 1242.922
570.7326, 1236.843
571.2147, 1221.821
571.6968, 1210.628
572.1790, 1205.701
572.6611, 1204.653
573.1432, 1206.221
573.6253, 1210.083
574.1074, 1212.320
574.5895, 1213.398
575.0717, 1212.336
575.5538, 1207.316
576.0359, 1201.244
576.5180, 1197.481
577.0001, 1195.728
577.4822, 1192.080
577.9644, 1182.255
578.4465, 1169.338
578.9286, 1162.310
579.4107, 1161.810
579.8928, 1159.533
580.3749, 1150.538
580.8571, 1141.403
581.3392, 1142.863
581.8213, 1155.079
582.3034, 1163.366
582.7855, 1165.924
583.2676, 1163.900
583.7498, 1154.892
584.2319, 1142.533
584.7140, 1133.003
585.1961, 1128.474
585.6782, 1126.461
586.1603, 1124.177
586.6425, 1121.652
587.1246, 1117.758
587.6067, 1111.542
588.0888, 1105.635
588.5709, 1099.926
589.0530, 1095.743
589.5352, 1096.014
590.0173, 1102.388
590.4994, 1106.411
590.9815, 1100.481
591.4636, 1092.285
591.9457, 1093.018
592.4279, 1101.333
592.9100, 1106.045
593.3921, 1100.360
593.8742, 1089.431
594.3563, 1086.183
594.8384, 1095.736
595.3206, 1100.554
595.8027, 1096.461
596.2848, 1091.026
596.7669, 1084.418
597.2490, 1079.280
597.7311, 1082.034
598.2133, 1098.541
598.6954, 1113.213
599.1775, 1108.318
599.6596, 1091.464
600.1417, 1081.012
600.6238, 1079.958
601.1060, 1085.280
601.5881, 1096.314
602.0702, 1111.196
602.5523, 1118.310
603.0344, 1111.735
603.5165, 1105.289
603.9987, 1098.573
604.4808, 1093.138
604.9629, 1090.374
605.4450, 1089.990
605.9271, 1090.423
606.4092, 1089.834
606.8914, 1091.054
607.3735, 1100.488
607.8556, 1116.695
608.3377, 1128.969
608.8198, 1134.480
609.3019, 1136.368
609.7841, 1137.677
610.2662, 1138.384
610.7483, 1135.952
611.2304, 1125.212
611.7125, 1118.221
612.1946, 1117.942
612.6768, 1122.572
613.1589, 1133.229
613.6410, 1147.979
614.1231, 1158.662
614.6052, 1156.930
615.0873, 1148.081
615.5695, 1145.235
616.0516, 1148.498
616.5337, 1155.213
617.0158, 1165.630
617.4979, 1177.307
617.9800, 1187.509
618.4622, 1196.237
618.9443, 1203.327
619.4264, 1205.694
619.9085, 1209.850
620.3906, 1220.552
620.8727, 1233.617
621.3549, 1243.650
621.8370, 1249.391
622.3191, 1252.881
622.8012, 1255.259
623.2833, 1257.102
623.7654, 1261.457
624.2476, 1268.827
624.7297, 1275.578
625.2118, 1278.777
625.6939, 1282.380
626.1760, 1294.712
626.6581, 1316.814
627.1403, 1329.543
627.6224, 1322.407
628.1045, 1313.297
628.5866, 1307.786
629.0687, 1308.305
629.5508, 1321.654
630.0330, 1348.383
630.5151, 1373.789
630.9972, 1379.908
631.4793, 1369.085
631.9614, 1359.732
632.4435, 1350.132
632.9257, 1348.668
633.4078, 1362.857
633.8899, 1383.653
634.3720, 1398.544
634.8541, 1407.417
635.3362, 1413.295
635.8184, 1416.595
636.3005, 1417.207
636.7826, 1411.700
