##NAMES=Ferroselite
##RRUFFID=R070461
##IDEAL CHEMISTRY=FeSe_2_
##LOCALITY=Virgin No. 3 mine, Paradox Valley, Uravan District,  Montrose County, Colorado, USA
##OWNER=RRUFF
##SOURCE=Michael Scott
##DESCRIPTION=Yellowish silver metallic prismatic crystals. Used in the Lavina et al (2018) study
##STATUS=The identification of this mineral is confirmed by single-crystal X-ray diffraction and chemical analysis.
##URL=rruff.info/R070461
##MEASURED CHEMISTRY=Fe_1.00_Se_2.00_
155.6296, 6985.069
156.1117, 6994.653
156.5939, 7021.330
157.0760, 7067.999
157.5581, 7121.146
158.0402, 7153.754
158.5223, 7136.497
159.0044, 7170.119
159.4866, 7297.087
159.9687, 7445.924
160.4508, 7565.675
160.9329, 7621.719
161.4150, 7622.375
161.8971, 7617.875
162.3793, 7601.376
162.8614, 7594.059
163.3435, 7605.025
163.8256, 7618.770
164.3077, 7624.833
164.7898, 7620.647
165.2720, 7609.765
165.7541, 7598.311
166.2362, 7592.433
166.7183, 7576.355
167.2004, 7543.647
167.6825, 7507.738
168.1647, 7480.935
168.6468, 7466.232
169.1289, 7455.307
169.6110, 7433.913
170.0931, 7396.838
170.5752, 7358.175
171.0574, 7308.310
171.5395, 7262.574
172.0216, 7238.153
172.5037, 7238.078
172.9858, 7246.709
173.4679, 7237.141
173.9501, 7182.067
174.4322, 7155.417
174.9143, 7168.642
175.3964, 7200.937
175.8785, 7234.583
176.3606, 7264.402
176.8428, 7297.756
177.3249, 7347.337
177.8070, 7431.461
178.2891, 7497.028
178.7712, 7542.624
179.2533, 7570.884
179.7355, 7584.472
180.2176, 7583.992
180.6997, 7568.354
181.1818, 7535.553
181.6639, 7478.194
182.1460, 7414.951
182.6282, 7339.818
183.1103, 7262.271
183.5924, 7190.604
184.0745, 7126.917
184.5566, 7067.895
185.0387, 7008.833
185.5209, 6943.841
186.0030, 6896.593
186.4851, 6879.028
186.9672, 6872.939
187.4493, 6861.751
187.9314, 6842.141
188.4136, 6821.784
188.8957, 6810.816
189.3778, 6812.976
189.8599, 6812.288
190.3420, 6806.526
190.8241, 6798.728
191.3063, 6790.363
191.7884, 6781.862
192.2705, 6775.909
192.7526, 6776.919
193.2347, 6787.762
193.7168, 6790.465
194.1990, 6776.560
194.6811, 6759.315
195.1632, 6751.979
195.6453, 6755.978
196.1274, 6760.905
196.6095, 6756.958
197.0917, 6742.777
197.5738, 6725.039
198.0559, 6698.325
198.5380, 6671.877
199.0201, 6651.228
199.5022, 6637.422
199.9844, 6632.679
200.4665, 6640.016
200.9486, 6661.063
201.4307, 6684.844
201.9128, 6726.663
202.3949, 6760.353
202.8771, 6756.594
203.3592, 6717.296
203.8413, 6682.526
204.3234, 6686.580
204.8055, 6728.698
205.2876, 6754.765
205.7698, 6757.107
206.2519, 6750.017
206.7340, 6740.391
207.2161, 6729.062
207.6982, 6718.585
208.1803, 6710.572
208.6625, 6704.911
209.1446, 6699.940
209.6267, 6681.831
210.1088, 6676.102
210.5909, 6710.576
211.0730, 6776.281
211.5552, 6828.420
212.0373, 6835.650
212.5194, 6809.032
213.0015, 6802.780
213.4836, 6827.926
213.9657, 6860.351
214.4479, 6891.641
214.9300, 6921.470
215.4121, 6948.460
215.8942, 6972.388
216.3763, 6992.458
216.8584, 7007.484
217.3406, 7023.741
217.8227, 7027.802
218.3048, 7007.489
218.7869, 6970.550
219.2690, 6935.393
219.7511, 6908.836
220.2333, 6889.411
220.7154, 6874.110
221.1975, 6863.383
221.6796, 6854.473
222.1617, 6851.235
222.6438, 6848.713
223.1260, 6835.526
223.6081, 6805.935
224.0902, 6769.906
224.5723, 6746.906
225.0544, 6741.037
225.5365, 6731.113
226.0187, 6713.374
226.5008, 6688.451
226.9829, 6651.935
227.4650, 6600.729
227.9471, 6553.085
228.4292, 6539.282
228.9114, 6566.917
229.3935, 6587.807
229.8756, 6588.898
230.3577, 6583.253
230.8398, 6586.449
231.3219, 6601.379
231.8041, 6617.718
232.2862, 6622.993
232.7683, 6614.515
233.2504, 6612.897
233.7325, 6625.007
234.2146, 6640.277
234.6968, 6651.629
235.1789, 6657.887
235.6610, 6658.377
236.1431, 6651.786
236.6252, 6637.410
237.1073, 6621.794
237.5895, 6600.799
238.0716, 6582.139
238.5537, 6571.387
239.0358, 6567.869
239.5179, 6565.667
240.0000, 6558.555
240.4822, 6548.750
240.9643, 6559.249
241.4464, 6616.131
241.9285, 6663.722
242.4106, 6676.234
242.8927, 6660.930
243.3749, 6635.151
243.8570, 6605.355
244.3391, 6575.996
244.8212, 6568.999
245.3033, 6608.539
245.7854, 6637.765
246.2676, 6644.109
246.7497, 6631.800
247.2318, 6602.095
247.7139, 6553.394
248.1960, 6500.320
248.6781, 6478.449
249.1603, 6510.557
249.6424, 6540.664
250.1245, 6570.152
250.6066, 6593.109
251.0887, 6601.027
251.5708, 6591.711
252.0530, 6573.200
252.5351, 6557.021
253.0172, 6539.005
253.4993, 6534.165
253.9814, 6550.522
254.4635, 6573.928
254.9457, 6597.742
255.4278, 6619.073
255.9099, 6632.546
256.3920, 6630.675
256.8741, 6607.884
257.3562, 6594.309
257.8383, 6594.286
258.3205, 6597.897
258.8026, 6603.668
259.2847, 6609.174
259.7668, 6609.303
260.2489, 6599.059
260.7310, 6578.241
261.2132, 6560.899
261.6953, 6534.470
262.1774, 6524.589
262.6595, 6557.140
263.1416, 6609.821
263.6237, 6641.573
264.1059, 6626.536
264.5880, 6575.013
265.0701, 6536.392
265.5522, 6510.212
266.0343, 6499.782
266.5164, 6519.325
266.9986, 6548.961
267.4807, 6565.416
267.9628, 6559.272
268.4449, 6541.223
268.9270, 6534.313
269.4091, 6545.254
269.8913, 6554.967
270.3734, 6564.925
270.8555, 6571.311
271.3376, 6569.467
271.8197, 6559.106
272.3018, 6545.915
272.7840, 6535.089
273.2661, 6523.886
273.7482, 6525.490
274.2303, 6556.692
274.7124, 6587.152
275.1945, 6604.304
275.6767, 6607.615
276.1588, 6601.542
276.6409, 6585.106
277.1230, 6558.887
277.6051, 6547.512
278.0872, 6560.633
278.5694, 6578.217
279.0515, 6595.792
279.5336, 6611.581
280.0157, 6623.024
280.4978, 6628.868
280.9799, 6629.315
281.4621, 6623.482
281.9442, 6607.666
282.4263, 6594.064
282.9084, 6588.280
283.3905, 6586.775
283.8727, 6586.100
284.3548, 6585.311
284.8369, 6584.609
285.3190, 6585.225
285.8011, 6587.689
286.2832, 6586.667
286.7654, 6578.047
287.2475, 6566.693
287.7296, 6554.647
288.2117, 6541.354
288.6938, 6535.596
289.1759, 6552.667
289.6581, 6586.587
290.1402, 6601.027
290.6223, 6580.363
291.1044, 6551.462
291.5865, 6541.542
292.0686, 6548.262
292.5508, 6554.245
293.0329, 6552.073
293.5150, 6544.717
293.9971, 6534.682
294.4792, 6520.712
294.9613, 6512.844
295.4435, 6525.122
295.9256, 6551.550
296.4077, 6566.875
296.8898, 6557.744
297.3719, 6543.990
297.8540, 6543.518
298.3362, 6554.626
298.8183, 6563.038
299.3004, 6560.251
299.7825, 6549.462
300.2646, 6541.541
300.7467, 6533.086
301.2289, 6531.647
301.7110, 6549.118
302.1931, 6574.346
302.6752, 6583.247
303.1573, 6565.626
303.6394, 6538.130
304.1216, 6532.026
304.6037, 6563.781
305.0858, 6577.605
305.5679, 6555.408
306.0500, 6522.381
306.5321, 6497.646
307.0143, 6485.527
307.4964, 6487.132
307.9785, 6506.061
308.4606, 6547.546
308.9427, 6573.637
309.4248, 6583.846
309.9070, 6582.587
310.3891, 6565.923
310.8712, 6539.152
311.3533, 6512.550
311.8354, 6492.187
312.3175, 6478.489
312.7997, 6474.888
313.2818, 6499.785
313.7639, 6512.873
314.2460, 6497.337
314.7281, 6472.465
315.2102, 6460.688
315.6924, 6470.210
316.1745, 6490.653
316.6566, 6502.911
317.1387, 6500.701
317.6208, 6506.151
318.1029, 6529.991
318.5851, 6554.250
319.0672, 6570.570
319.5493, 6577.139
320.0314, 6574.063
320.5135, 6553.992
320.9956, 6517.194
321.4778, 6503.966
321.9599, 6531.652
322.4420, 6561.885
322.9241, 6579.019
323.4062, 6585.489
323.8883, 6586.193
324.3705, 6580.558
324.8526, 6573.067
325.3347, 6575.162
325.8168, 6590.456
326.2989, 6599.864
326.7810, 6590.619
327.2632, 6573.051
327.7453, 6556.872
328.2274, 6542.338
328.7095, 6533.454
329.1916, 6539.215
329.6737, 6555.729
330.1559, 6560.429
330.6380, 6542.292
331.1201, 6518.890
331.6022, 6512.933
332.0843, 6523.773
332.5664, 6534.178
333.0486, 6536.991
333.5307, 6537.296
334.0128, 6545.600
334.4949, 6562.931
334.9770, 6571.557
335.4591, 6553.462
335.9413, 6510.378
336.4234, 6480.287
336.9055, 6465.212
337.3876, 6460.259
337.8697, 6467.978
338.3518, 6484.083
338.8340, 6499.370
339.3161, 6509.672
339.7982, 6515.331
340.2803, 6517.228
340.7624, 6504.531
341.2445, 6502.897
341.7267, 6524.959
342.2088, 6551.674
342.6909, 6564.793
343.1730, 6561.146
343.6551, 6551.392
344.1372, 6548.506
344.6194, 6555.212
345.1015, 6554.607
345.5836, 6535.828
346.0657, 6520.873
346.5478, 6517.228
347.0299, 6524.081
347.5121, 6539.597
347.9942, 6564.690
348.4763, 6594.416
348.9584, 6609.506
349.4405, 6604.405
349.9226, 6594.440
350.4048, 6577.569
350.8869, 6561.310
351.3690, 6554.195
351.8511, 6558.598
352.3332, 6565.793
352.8153, 6566.852
353.2975, 6561.791
353.7796, 6552.507
354.2617, 6532.412
354.7438, 6516.635
355.2259, 6519.161
355.7080, 6536.314
356.1902, 6550.729
356.6723, 6551.588
357.1544, 6545.458
357.6365, 6543.849
358.1186, 6547.547
358.6007, 6551.324
359.0829, 6552.370
359.5650, 6550.988
360.0471, 6548.710
360.5292, 6546.563
361.0113, 6542.088
361.4934, 6527.812
361.9756, 6510.244
362.4577, 6509.352
362.9398, 6534.835
363.4219, 6565.009
363.9040, 6562.667
364.3861, 6509.299
364.8683, 6480.437
365.3504, 6500.671
365.8325, 6531.636
366.3146, 6544.000
366.7967, 6537.173
367.2788, 6525.589
367.7610, 6519.858
368.2431, 6519.965
368.7252, 6525.692
369.2073, 6547.538
369.6894, 6562.965
370.1715, 6566.343
370.6537, 6561.386
371.1358, 6551.055
371.6179, 6536.689
372.1000, 6522.398
372.5821, 6515.720
373.0642, 6518.748
373.5464, 6522.999
374.0285, 6532.390
374.5106, 6539.201
374.9927, 6538.897
375.4748, 6532.033
375.9569, 6522.172
376.4391, 6509.313
376.9212, 6495.487
377.4033, 6490.818
377.8854, 6501.244
378.3675, 6505.527
378.8496, 6478.731
379.3318, 6443.785
379.8139, 6432.697
380.2960, 6460.664
380.7781, 6493.697
381.2602, 6500.271
381.7423, 6486.610
382.2245, 6481.267
382.7066, 6494.429
383.1887, 6513.609
383.6708, 6523.473
384.1529, 6524.613
384.6350, 6518.692
385.1172, 6495.611
385.5993, 6472.604
386.0814, 6466.963
386.5635, 6477.884
387.0456, 6492.021
387.5277, 6500.085
388.0099, 6503.632
388.4920, 6513.871
388.9741, 6545.335
389.4562, 6564.968
389.9383, 6559.106
390.4204, 6542.080
390.9026, 6529.035
391.3847, 6524.793
391.8668, 6526.334
392.3489, 6531.007
392.8310, 6541.731
393.3131, 6544.276
393.7953, 6527.971
394.2774, 6513.611
394.7595, 6510.556
395.2416, 6515.904
395.7237, 6521.496
396.2058, 6521.817
396.6880, 6520.438
397.1701, 6528.997
397.6522, 6553.052
398.1343, 6566.867
398.6164, 6551.458
399.0985, 6527.931
399.5807, 6515.523
400.0628, 6516.973
400.5449, 6521.030
401.0270, 6519.046
401.5091, 6514.242
401.9912, 6515.396
402.4734, 6524.351
402.9555, 6536.399
403.4376, 6551.688
403.9197, 6567.901
404.4018, 6569.299
404.8839, 6538.745
405.3661, 6508.693
405.8482, 6498.309
406.3303, 6502.247
406.8124, 6508.030
407.2945, 6510.718
407.7766, 6510.350
408.2588, 6506.622
408.7409, 6494.618
409.2230, 6488.887
409.7051, 6491.006
410.1872, 6497.791
410.6693, 6510.950
411.1515, 6527.645
411.6336, 6540.462
412.1157, 6543.964
412.5978, 6538.508
413.0799, 6524.329
413.5620, 6485.523
414.0442, 6465.286
414.5263, 6486.963
415.0084, 6522.369
415.4905, 6544.576
415.9726, 6546.701
416.4547, 6538.456
416.9369, 6526.423
417.4190, 6511.246
417.9011, 6498.963
418.3832, 6491.715
418.8653, 6484.808
419.3474, 6468.918
419.8296, 6449.344
420.3117, 6443.505
420.7938, 6473.223
421.2759, 6503.780
421.7580, 6499.058
422.2401, 6468.123
422.7223, 6452.066
423.2044, 6472.375
423.6865, 6505.466
424.1686, 6501.984
424.6507, 6432.349
425.1328, 6396.575
425.6150, 6431.077
426.0971, 6478.960
426.5792, 6498.145
427.0613, 6487.573
427.5434, 6465.728
428.0255, 6444.017
428.5077, 6424.889
428.9898, 6428.157
429.4719, 6482.598
429.9540, 6517.040
430.4361, 6504.938
430.9182, 6477.513
431.4004, 6465.844
431.8825, 6476.433
432.3646, 6490.266
432.8467, 6484.382
433.3288, 6460.854
433.8109, 6448.859
434.2931, 6456.365
434.7752, 6464.228
435.2573, 6454.271
435.7394, 6436.151
436.2215, 6430.746
436.7036, 6452.284
437.1858, 6476.763
437.6679, 6481.112
438.1500, 6471.271
438.6321, 6470.794
439.1142, 6489.661
439.5963, 6512.594
440.0785, 6516.467
440.5606, 6494.695
441.0427, 6477.975
441.5248, 6467.762
442.0069, 6462.274
442.4890, 6463.192
442.9712, 6468.009
443.4533, 6470.742
443.9354, 6467.718
444.4175, 6460.379
444.8996, 6452.151
445.3817, 6434.781
445.8639, 6432.671
446.3460, 6470.113
446.8281, 6504.949
447.3102, 6499.580
447.7923, 6457.189
448.2744, 6416.774
448.7566, 6412.409
449.2387, 6434.680
449.7208, 6448.635
450.2029, 6453.979
450.6850, 6451.677
451.1671, 6435.159
451.6493, 6414.086
452.1314, 6403.497
452.6135, 6407.487
453.0956, 6413.536
453.5777, 6418.193
454.0598, 6419.588
454.5420, 6410.788
455.0241, 6390.522
455.5062, 6373.658
455.9883, 6375.013
456.4704, 6395.042
456.9525, 6409.932
457.4347, 6417.384
457.9168, 6423.130
458.3989, 6426.414
458.8810, 6429.838
459.3631, 6439.766
459.8452, 6457.434
460.3274, 6472.381
460.8095, 6466.664
461.2916, 6434.201
461.7737, 6410.838
462.2558, 6394.771
462.7379, 6390.994
463.2200, 6412.946
463.7021, 6446.778
464.1843, 6464.993
464.6664, 6452.835
465.1485, 6428.354
465.6306, 6371.512
466.1127, 6420.205
466.5948, 6446.640
467.0770, 6452.014
467.5591, 6373.053
468.0412, 6403.149
468.5233, 6389.634
469.0054, 6374.396
469.4875, 6420.034
469.9697, 6353.685
470.4518, 6398.493
470.9339, 6399.024
471.4160, 6419.917
471.8981, 6396.931
472.3802, 6387.585
472.8624, 6422.268
473.3445, 6432.677
473.8266, 6404.900
474.3087, 6427.488
474.7908, 6360.278
475.2729, 6371.993
475.7551, 6417.799
476.2372, 6392.569
476.7193, 6416.296
477.2014, 6421.471
477.6835, 6342.092
478.1656, 6409.945
478.6478, 6414.221
479.1299, 6353.216
479.6120, 6416.229
480.0941, 6364.368
480.5762, 6353.601
481.0583, 6373.777
481.5405, 6361.833
482.0226, 6400.704
482.5047, 6390.753
482.9868, 6376.503
483.4689, 6381.381
483.9510, 6332.312
484.4332, 6383.519
484.9153, 6366.342
485.3974, 6383.258
485.8795, 6390.974
486.3616, 6399.785
486.8438, 6404.551
487.3259, 6412.512
487.8080, 6421.944
488.2901, 6422.699
488.7722, 6404.009
489.2543, 6372.292
489.7365, 6355.712
490.2186, 6359.250
490.7007, 6364.681
491.1828, 6372.476
491.6649, 6375.751
492.1470, 6365.413
492.6292, 6296.902
493.1113, 6345.356
493.5934, 6371.561
494.0755, 6376.713
494.5576, 6297.757
495.0397, 6327.409
495.5219, 6313.535
496.0040, 6297.877
496.4861, 6342.816
496.9682, 6276.093
497.4503, 6320.071
497.9324, 6319.858
498.4146, 6339.870
498.8967, 6316.088
499.3788, 6305.833
499.8609, 6339.386
500.3430, 6348.682
500.8251, 6319.859
501.3073, 6341.156
501.7894, 6272.903
502.2715, 6283.232
502.7536, 6327.466
503.2357, 6300.845
503.7178, 6273.950
504.2000, 6283.582
504.6821, 6319.310
505.1642, 6348.835
505.6463, 6349.404
506.1284, 6333.770
506.6105, 6319.962
507.0927, 6309.225
507.5748, 6305.273
508.0569, 6313.146
508.5390, 6326.399
509.0211, 6325.706
509.5032, 6299.970
509.9854, 6281.286
510.4675, 6278.402
510.9496, 6279.104
511.4317, 6271.384
511.9138, 6257.381
512.3959, 6250.167
512.8781, 6260.973
513.3602, 6281.826
513.8423, 6280.479
514.3244, 6243.259
514.8065, 6222.855
515.2886, 6255.123
515.7708, 6290.635
516.2529, 6286.713
516.7350, 6246.156
517.2171, 6216.087
517.6992, 6233.272
518.1813, 6265.392
518.6635, 6266.589
519.1456, 6240.266
519.6277, 6219.771
520.1098, 6221.314
520.5919, 6234.092
521.0740, 6237.382
521.5562, 6225.895
522.0383, 6215.963
522.5204, 6200.520
523.0025, 6193.019
523.4846, 6209.772
523.9667, 6240.515
524.4489, 6260.350
524.9310, 6255.090
525.4131, 6237.135
525.8952, 6232.757
526.3773, 6245.338
526.8594, 6249.215
527.3416, 6230.569
527.8237, 6214.018
528.3058, 6221.648
528.7879, 6246.685
529.2700, 6264.683
529.7521, 6262.889
530.2343, 6256.459
530.7164, 6258.598
531.1985, 6265.783
531.6806, 6267.711
532.1627, 6260.944
532.6448, 6251.902
533.1270, 6249.266
533.6091, 6255.168
534.0912, 6254.124
534.5733, 6236.808
535.0554, 6223.709
535.5375, 6225.463
536.0197, 6233.315
536.5018, 6232.099
536.9839, 6217.344
537.4660, 6206.738
537.9481, 6228.934
538.4302, 6278.098
538.9124, 6301.529
539.3945, 6289.800
539.8766, 6269.511
540.3587, 6254.408
540.8408, 6242.828
541.3229, 6230.141
541.8051, 6215.042
542.2872, 6201.257
542.7693, 6189.961
543.2514, 6180.943
543.7335, 6171.588
544.2156, 6163.038
544.6978, 6164.269
545.1799, 6184.723
545.6620, 6218.623
546.1441, 6232.387
546.6262, 6213.813
547.1083, 6196.458
547.5905, 6182.598
548.0726, 6173.497
548.5547, 6171.681
549.0368, 6176.222
549.5189, 6181.764
550.0010, 6185.617
550.4832, 6188.214
550.9653, 6190.254
551.4474, 6191.685
551.9295, 6191.750
552.4116, 6189.176
552.8937, 6187.348
553.3759, 6193.289
553.8580, 6212.771
554.3401, 6217.509
554.8222, 6193.823
555.3043, 6168.854
555.7864, 6153.428
556.2686, 6147.266
556.7507, 6150.229
557.2328, 6162.207
557.7149, 6175.412
558.1970, 6175.624
558.6791, 6162.000
559.1613, 6161.096
559.6434, 6182.891
560.1255, 6202.528
560.6076, 6202.909
561.0897, 6191.546
561.5718, 6180.212
562.0540, 6169.862
562.5361, 6161.211
563.0182, 6156.756
563.5003, 6153.323
563.9824, 6141.937
564.4645, 6123.833
564.9467, 6116.879
565.4288, 6137.550
565.9109, 6178.620
566.3930, 6201.285
566.8751, 6198.830
567.3572, 6188.565
567.8394, 6165.363
568.3215, 6141.517
568.8036, 6123.793
569.2857, 6113.186
569.7678, 6109.775
570.2499, 6118.354
570.7321, 6130.062
571.2142, 6128.482
571.6963, 6116.113
572.1784, 6114.110
572.6605, 6131.616
573.1426, 6154.247
573.6248, 6165.087
574.1069, 6162.938
574.5890, 6153.972
575.0711, 6129.483
575.5532, 6108.337
576.0353, 6093.598
576.5175, 6088.068
576.9996, 6097.644
577.4817, 6122.968
577.9638, 6153.364
578.4459, 6183.797
578.9280, 6211.829
579.4102, 6210.728
579.8923, 6170.822
580.3744, 6132.792
580.8565, 6111.189
581.3386, 6106.233
581.8207, 6121.251
582.3029, 6166.256
582.7850, 6191.027
583.2671, 6167.892
583.7492, 6128.826
584.2313, 6093.421
584.7134, 6067.061
585.1956, 6060.853
585.6777, 6081.550
586.1598, 6113.769
586.6419, 6124.553
587.1240, 6107.608
587.6061, 6094.511
588.0883, 6083.937
588.5704, 6081.269
589.0525, 6095.461
589.5346, 6117.657
590.0167, 6130.969
590.4988, 6130.427
590.9810, 6121.835
591.4631, 6099.055
591.9452, 6074.231
592.4273, 6074.155
592.9094, 6100.843
593.3915, 6127.136
593.8737, 6131.995
594.3558, 6119.771
594.8379, 6112.458
595.3200, 6117.579
595.8021, 6114.800
596.2842, 6089.270
596.7664, 6067.442
597.2485, 6071.281
597.7306, 6095.021
598.2127, 6114.557
598.6948, 6114.625
599.1769, 6109.171
599.6591, 6119.886
600.1412, 6142.014
600.6233, 6151.153
601.1054, 6140.168
601.5875, 6121.640
602.0696, 6106.259
602.5518, 6094.137
603.0339, 6089.166
603.5160, 6098.912
603.9981, 6105.584
604.4802, 6104.439
604.9623, 6099.527
605.4445, 6094.515
605.9266, 6089.950
606.4087, 6084.395
606.8908, 6076.868
607.3729, 6030.772
607.8550, 6081.103
608.3372, 6109.185
608.8193, 6116.214
609.3014, 6039.134
609.7835, 6070.663
610.2656, 6058.667
610.7477, 6044.886
611.2299, 6091.701
611.7120, 6026.855
612.1941, 6072.710
612.6762, 6074.375
613.1583, 6096.264
613.6404, 6074.359
614.1226, 6065.980
614.6047, 6101.411
615.0868, 6112.584
615.5689, 6085.638
616.0510, 6108.812
616.5331, 6042.437
617.0153, 6054.643
617.4974, 6100.754
617.9795, 6076.009
618.4616, 6064.308
618.9437, 6073.258
619.4258, 6074.370
619.9080, 6057.304
620.3901, 6040.567
620.8722, 6038.533
621.3543, 6044.046
621.8364, 6042.139
622.3185, 6028.448
622.8007, 6013.567
623.2828, 6011.283
623.7649, 6020.876
624.2470, 6026.697
624.7291, 6028.464
625.2112, 6027.332
625.6934, 6023.634
626.1755, 6017.272
626.6576, 6005.058
627.1397, 5984.546
627.6218, 5977.557
628.1039, 6004.238
628.5861, 6033.680
629.0682, 6042.100
629.5503, 6034.843
630.0324, 6026.190
630.5145, 6021.640
630.9966, 6018.076
631.4788, 6008.590
631.9609, 5992.601
632.4430, 5994.382
632.9251, 6026.308
633.4072, 6049.644
633.8893, 6041.406
634.3715, 6018.441
634.8536, 6000.479
635.3357, 5988.620
635.8178, 5980.661
636.2999, 5977.542
636.7820, 5976.595
637.2642, 5974.861
637.7463, 5973.459
638.2284, 5975.965
638.7105, 5983.729
639.1926, 5993.676
639.6747, 6003.343
640.1569, 6013.276
640.6390, 6010.128
641.1211, 5984.334
641.6032, 5964.202
642.0853, 5967.894
642.5674, 5980.730
643.0496, 5983.974
643.5317, 5974.935
644.0138, 5969.382
644.4959, 5980.697
644.9780, 5990.868
645.4601, 5978.661
645.9423, 5953.428
646.4244, 5940.314
646.9065, 5948.979
647.3886, 5966.444
647.8707, 5973.638
648.3528, 5969.936
648.8350, 5980.102
649.3171, 6016.378
649.7992, 6039.697
650.2813, 6023.425
