##NAMES=Ferrierite-Mg
##RRUFFID=R060982
##IDEAL CHEMISTRY=[Mg_2_(K,Na)_2_Ca_0.5_](Si_29_Al_7_)O_72_&#183;18H_2_O
##LOCALITY=Monte Lake, British Columbia, Canada
##OWNER=RRUFF
##SOURCE=Bob Jenkins
##DESCRIPTION=Orange lath shaped crystals in radial aggregates associated with white calcite
##STATUS=The identification of this mineral is confirmed by single-crystal X-ray diffraction and chemical analysis.
##URL=rruff.info/R060982
##MEASURED CHEMISTRY=(Mg_1.70_K_0.83_Fe_0.49_Na_0.36_Ca_0.21_)_Σ=3.49_(Si_30.01_Al_5.99_)_Σ=36_O_72_·20.71H_2_O; = dark phase. Light phase is calcite: (Ca_0.96_Mn_0.02_Mg_0.01_Fe_0.01_)CO_3_
129.2419, 1994.159
129.7240, 2149.161
130.2061, 2294.610
130.6883, 2434.141
131.1704, 2574.940
131.6525, 2727.973
132.1346, 2879.671
132.6167, 3012.040
133.0988, 3122.929
133.5810, 3221.293
134.0631, 3313.334
134.5452, 3398.252
135.0273, 3470.394
135.5094, 3527.224
135.9915, 3569.965
136.4737, 3604.278
136.9558, 3637.365
137.4379, 3644.240
137.9200, 3603.470
138.4021, 3527.501
138.8842, 3440.597
139.3664, 3342.806
139.8485, 3241.450
140.3306, 3167.736
140.8127, 3128.560
141.2948, 3111.114
141.7769, 3101.184
142.2591, 3102.630
142.7412, 3125.567
143.2233, 3182.852
143.7054, 3272.110
144.1875, 3360.940
144.6696, 3442.718
145.1517, 3532.128
145.6339, 3637.070
146.1160, 3754.796
146.5981, 3876.804
147.0802, 3996.858
147.5623, 4114.649
148.0444, 4234.294
148.5266, 4368.117
149.0087, 4491.139
149.4908, 4592.702
149.9729, 4674.412
150.4550, 4743.926
150.9371, 4812.342
151.4193, 4883.070
151.9014, 4925.850
152.3835, 4938.351
152.8656, 4923.695
153.3477, 4874.300
153.8298, 4794.559
154.3120, 4699.334
154.7941, 4600.645
155.2762, 4494.174
155.7583, 4401.707
156.2404, 4325.934
156.7225, 4259.940
157.2047, 4204.043
157.6868, 4156.228
158.1689, 4110.683
158.6510, 4058.128
159.1331, 3987.822
159.6152, 3947.528
160.0974, 3950.523
160.5795, 3967.136
161.0616, 3987.271
161.5437, 4006.762
162.0258, 4021.939
162.5079, 4029.141
162.9901, 4030.359
163.4722, 4015.075
163.9543, 3975.727
164.4364, 3929.031
164.9185, 3883.490
165.4007, 3841.011
165.8828, 3800.973
166.3649, 3762.237
166.8470, 3724.808
167.3291, 3689.718
167.8112, 3657.356
168.2933, 3626.880
168.7755, 3598.548
169.2576, 3572.131
169.7397, 3546.271
170.2218, 3518.468
170.7039, 3485.037
171.1860, 3461.163
171.6682, 3456.743
172.1503, 3454.406
172.6324, 3441.662
173.1145, 3416.473
173.5966, 3384.506
174.0787, 3352.486
174.5609, 3320.288
175.0430, 3288.511
175.5251, 3257.225
176.0072, 3226.315
176.4893, 3195.439
176.9714, 3164.677
177.4536, 3133.900
177.9357, 3102.396
178.4178, 3067.550
178.8999, 3040.839
179.3820, 3031.613
179.8641, 3024.584
180.3463, 3002.541
180.8284, 2963.659
181.3105, 2926.548
181.7926, 2914.941
182.2747, 2941.551
182.7568, 2955.833
183.2390, 2950.319
183.7211, 2936.985
184.2032, 2923.913
184.6853, 2912.896
185.1674, 2905.564
185.6495, 2905.796
186.1317, 2918.590
186.6138, 2916.864
187.0959, 2886.888
187.5780, 2850.270
188.0601, 2824.928
188.5422, 2813.736
189.0244, 2809.869
189.5065, 2807.969
189.9886, 2809.405
190.4707, 2803.273
190.9528, 2780.213
191.4349, 2755.059
191.9170, 2741.100
192.3992, 2739.947
192.8813, 2744.784
193.3634, 2750.954
193.8455, 2759.203
194.3276, 2758.189
194.8097, 2734.679
195.2919, 2710.044
195.7740, 2705.604
196.2561, 2722.759
196.7382, 2742.537
197.2203, 2747.202
197.7024, 2734.705
198.1846, 2725.697
198.6667, 2722.772
199.1488, 2721.872
199.6309, 2719.969
200.1130, 2716.799
200.5951, 2713.084
201.0773, 2707.920
201.5594, 2701.749
202.0415, 2703.937
202.5236, 2727.099
203.0057, 2749.452
203.4878, 2751.844
203.9700, 2734.761
204.4521, 2715.857
204.9342, 2708.346
205.4163, 2712.312
205.8984, 2714.856
206.3805, 2716.288
206.8627, 2716.051
207.3448, 2714.294
207.8269, 2710.805
208.3090, 2703.896
208.7911, 2691.086
209.2732, 2673.449
209.7554, 2660.101
210.2375, 2659.204
210.7196, 2655.202
211.2017, 2632.680
211.6838, 2596.070
212.1659, 2568.343
212.6480, 2566.337
213.1302, 2584.730
213.6123, 2592.048
214.0944, 2578.749
214.5765, 2564.844
215.0586, 2561.966
215.5407, 2567.155
216.0229, 2569.400
216.5050, 2561.742
216.9871, 2547.570
217.4692, 2539.961
217.9513, 2540.175
218.4334, 2544.336
218.9156, 2557.548
219.3977, 2574.229
219.8798, 2577.899
220.3619, 2557.729
220.8440, 2524.114
221.3261, 2508.012
221.8083, 2515.520
222.2904, 2526.563
222.7725, 2535.833
223.2546, 2544.229
223.7367, 2554.579
224.2188, 2569.066
224.7010, 2583.431
225.1831, 2586.464
225.6652, 2573.192
226.1473, 2561.605
226.6294, 2563.750
227.1115, 2567.941
227.5937, 2553.574
228.0758, 2512.727
228.5579, 2460.393
229.0400, 2422.350
229.5221, 2400.983
230.0042, 2385.877
230.4864, 2379.076
230.9685, 2376.476
231.4506, 2374.263
231.9327, 2371.509
232.4148, 2367.058
232.8969, 2357.728
233.3791, 2338.186
233.8612, 2332.447
234.3433, 2359.649
234.8254, 2390.374
235.3075, 2395.272
235.7896, 2370.661
236.2717, 2337.473
236.7539, 2317.377
237.2360, 2313.783
237.7181, 2310.828
238.2002, 2308.662
238.6823, 2307.013
239.1644, 2305.681
239.6466, 2304.674
240.1287, 2304.475
240.6108, 2306.117
241.0929, 2310.022
241.5750, 2308.454
242.0571, 2293.967
242.5393, 2281.730
243.0214, 2279.939
243.5035, 2287.205
243.9856, 2297.962
244.4677, 2308.885
244.9498, 2319.826
245.4320, 2327.193
245.9141, 2334.661
246.3962, 2335.494
246.8783, 2325.187
247.3604, 2306.795
247.8425, 2284.546
248.3247, 2259.628
248.8068, 2234.817
249.2889, 2223.036
249.7710, 2244.200
250.2531, 2255.156
250.7352, 2240.592
251.2174, 2215.319
251.6995, 2199.616
252.1816, 2202.346
252.6637, 2216.215
253.1458, 2223.047
253.6279, 2213.430
254.1101, 2209.174
254.5922, 2217.076
255.0743, 2227.089
255.5564, 2230.128
256.0385, 2223.622
256.5206, 2211.031
257.0027, 2197.284
257.4849, 2179.510
257.9670, 2166.809
258.4491, 2156.770
258.9312, 2152.552
259.4133, 2161.616
259.8954, 2181.823
260.3776, 2199.131
260.8597, 2195.089
261.3418, 2161.904
261.8239, 2143.169
262.3060, 2150.930
262.7881, 2161.795
263.2703, 2167.835
263.7524, 2168.423
264.2345, 2165.281
264.7166, 2158.322
265.1987, 2147.694
265.6808, 2144.874
266.1630, 2163.009
266.6451, 2174.892
267.1272, 2168.703
267.6093, 2151.337
268.0914, 2134.943
268.5735, 2126.284
269.0557, 2124.471
269.5378, 2116.986
270.0199, 2130.239
270.5020, 2137.448
270.9841, 2138.940
271.4662, 2117.584
271.9484, 2125.730
272.4305, 2122.053
272.9126, 2117.892
273.3947, 2130.190
273.8768, 2112.158
274.3589, 2128.105
274.8411, 2126.543
275.3232, 2122.775
275.8053, 2121.178
276.2874, 2122.694
276.7695, 2126.397
277.2516, 2132.581
277.7338, 2141.442
278.2159, 2147.326
278.6980, 2146.305
279.1801, 2144.580
279.6622, 2145.855
280.1443, 2150.363
280.6265, 2158.319
281.1086, 2174.707
281.5907, 2195.865
282.0728, 2203.573
282.5549, 2187.917
283.0370, 2173.686
283.5192, 2182.941
284.0013, 2209.936
284.4834, 2236.681
284.9655, 2260.568
285.4476, 2278.473
285.9297, 2281.502
286.4119, 2266.633
286.8940, 2253.848
287.3761, 2255.098
287.8582, 2268.850
288.3403, 2291.190
288.8224, 2330.368
289.3046, 2370.337
289.7867, 2394.862
290.2688, 2406.273
290.7509, 2422.237
291.2330, 2453.731
291.7151, 2493.708
292.1972, 2524.659
292.6794, 2548.122
293.1615, 2561.349
293.6436, 2557.591
294.1257, 2543.291
294.6078, 2531.035
295.0899, 2524.749
295.5721, 2522.848
296.0542, 2523.610
296.5363, 2528.969
297.0184, 2530.934
297.5005, 2528.651
297.9826, 2522.397
298.4648, 2509.600
298.9469, 2490.700
299.4290, 2473.984
299.9111, 2469.792
300.3932, 2482.384
300.8753, 2482.905
301.3575, 2466.016
301.8396, 2443.360
302.3217, 2415.649
302.8038, 2386.800
303.2859, 2366.334
303.7680, 2362.105
304.2502, 2372.321
304.7323, 2376.378
305.2144, 2374.151
305.6965, 2365.801
306.1786, 2344.604
306.6607, 2319.241
307.1429, 2301.161
307.6250, 2295.833
308.1071, 2299.163
308.5892, 2302.062
309.0713, 2306.729
309.5534, 2306.619
310.0356, 2297.549
310.5177, 2286.734
310.9998, 2278.705
311.4819, 2274.743
311.9640, 2274.522
312.4461, 2278.307
312.9283, 2286.759
313.4104, 2295.680
313.8925, 2311.062
314.3746, 2321.094
314.8567, 2318.286
315.3388, 2305.173
315.8210, 2290.050
316.3031, 2274.992
316.7852, 2262.389
317.2673, 2265.836
317.7494, 2296.844
318.2315, 2321.509
318.7137, 2316.650
319.1958, 2297.870
319.6779, 2287.845
320.1600, 2297.868
320.6421, 2313.787
321.1242, 2314.143
321.6064, 2297.721
322.0885, 2288.764
322.5706, 2299.358
323.0527, 2320.333
323.5348, 2340.160
324.0169, 2359.653
324.4991, 2373.181
324.9812, 2372.106
325.4633, 2362.444
325.9454, 2360.292
326.4275, 2369.862
326.9096, 2386.148
327.3918, 2407.175
327.8739, 2433.255
328.3560, 2449.477
328.8381, 2443.974
329.3202, 2433.131
329.8023, 2433.624
330.2845, 2445.950
330.7666, 2459.751
331.2487, 2467.945
331.7308, 2470.561
332.2129, 2470.787
332.6950, 2469.198
333.1772, 2465.094
333.6593, 2457.758
334.1414, 2447.784
334.6235, 2434.908
335.1056, 2418.577
335.5877, 2402.277
336.0698, 2394.656
336.5519, 2405.398
337.0341, 2411.965
337.5162, 2413.651
337.9983, 2411.613
338.4804, 2404.827
338.9625, 2394.130
339.4446, 2384.140
339.9268, 2380.696
340.4089, 2385.279
340.8910, 2387.923
341.3731, 2389.453
341.8552, 2388.061
342.3373, 2380.262
342.8195, 2368.919
343.3016, 2360.548
343.7837, 2360.319
344.2658, 2364.897
344.7479, 2361.864
345.2300, 2346.465
345.7122, 2333.712
346.1943, 2333.322
346.6764, 2335.485
347.1585, 2328.654
347.6406, 2308.409
348.1227, 2287.875
348.6049, 2281.601
349.0870, 2289.096
349.5691, 2299.107
350.0512, 2314.213
350.5333, 2324.698
351.0154, 2319.082
351.4976, 2298.547
351.9797, 2279.824
352.4618, 2269.672
352.9439, 2265.846
353.4260, 2266.006
353.9081, 2270.186
354.3903, 2275.221
354.8724, 2281.074
355.3545, 2285.920
355.8366, 2281.492
356.3187, 2259.146
356.8008, 2235.970
357.2830, 2217.663
357.7651, 2205.314
358.2472, 2203.388
358.7293, 2215.401
359.2114, 2232.895
359.6935, 2237.162
360.1757, 2219.797
360.6578, 2202.069
361.1399, 2180.905
361.6220, 2162.031
362.1041, 2152.176
362.5862, 2151.108
363.0684, 2151.132
363.5505, 2142.998
364.0326, 2124.696
364.5147, 2119.608
364.9968, 2143.754
365.4789, 2164.761
365.9611, 2173.256
366.4432, 2172.053
366.9253, 2166.087
367.4074, 2157.334
367.8895, 2147.489
368.3716, 2140.006
368.8538, 2133.793
369.3359, 2133.033
369.8180, 2148.604
370.3001, 2163.492
370.7822, 2161.944
371.2643, 2142.231
371.7465, 2122.489
372.2286, 2118.608
372.7107, 2128.097
373.1928, 2137.558
373.6749, 2144.620
374.1570, 2153.748
374.6392, 2173.858
375.1213, 2199.646
375.6034, 2215.165
376.0855, 2208.107
376.5676, 2194.698
377.0497, 2190.063
377.5319, 2193.373
378.0140, 2198.770
378.4961, 2204.869
378.9782, 2209.853
379.4603, 2207.246
379.9424, 2188.825
380.4246, 2180.051
380.9066, 2194.539
381.3888, 2217.890
381.8709, 2233.684
382.3530, 2238.533
382.8351, 2238.739
383.3172, 2240.700
383.7993, 2244.264
384.2815, 2250.937
384.7636, 2267.226
385.2457, 2279.562
385.7278, 2278.203
386.2099, 2269.600
386.6920, 2265.966
387.1742, 2274.102
387.6563, 2291.036
388.1384, 2309.678
388.6205, 2332.712
389.1026, 2351.014
389.5847, 2358.621
390.0669, 2364.289
390.5490, 2374.806
391.0311, 2390.838
391.5132, 2407.436
391.9953, 2422.184
392.4774, 2434.416
392.9596, 2437.895
393.4417, 2425.685
393.9238, 2418.240
394.4059, 2433.285
394.8880, 2462.887
395.3701, 2491.492
395.8523, 2513.889
396.3344, 2535.290
396.8165, 2560.857
397.2986, 2589.798
397.7807, 2617.884
398.2628, 2643.900
398.7450, 2667.472
399.2271, 2687.152
399.7092, 2701.715
400.1913, 2717.078
400.6734, 2731.652
401.1555, 2748.917
401.6377, 2772.093
402.1198, 2801.271
402.6019, 2835.210
403.0840, 2872.645
403.5661, 2913.719
404.0482, 2957.653
404.5304, 3008.875
405.0125, 3058.312
405.4946, 3102.984
405.9767, 3145.328
406.4588, 3187.999
406.9409, 3232.036
407.4231, 3276.800
407.9052, 3324.351
408.3873, 3377.997
408.8694, 3416.651
409.3515, 3418.364
409.8336, 3423.457
410.3158, 3463.169
410.7979, 3527.435
411.2800, 3577.905
411.7621, 3583.243
412.2442, 3565.857
412.7263, 3571.694
413.2085, 3604.161
413.6906, 3627.942
414.1727, 3625.786
414.6548, 3603.632
415.1369, 3573.393
415.6190, 3524.162
416.1012, 3493.772
416.5833, 3517.436
417.0654, 3563.564
417.5475, 3581.416
418.0296, 3560.845
418.5117, 3526.441
418.9939, 3501.980
419.4760, 3488.297
419.9581, 3477.285
420.4402, 3467.607
420.9223, 3461.553
421.4044, 3462.032
421.8866, 3466.373
422.3687, 3470.098
422.8508, 3471.167
423.3329, 3470.942
423.8150, 3472.004
424.2971, 3474.111
424.7793, 3478.201
425.2614, 3486.550
425.7435, 3495.061
426.2256, 3502.187
426.7077, 3507.542
427.1898, 3510.841
427.6719, 3512.176
428.1541, 3511.221
428.6362, 3506.022
429.1183, 3495.400
429.6004, 3485.943
430.0825, 3480.457
430.5646, 3478.308
431.0468, 3479.475
431.5289, 3487.171
432.0110, 3489.405
432.4931, 3473.301
432.9752, 3449.456
433.4573, 3437.970
433.9395, 3443.018
434.4216, 3452.504
434.9037, 3454.629
435.3858, 3448.667
435.8679, 3444.546
436.3500, 3446.894
436.8322, 3445.928
437.3143, 3431.669
437.7964, 3413.108
438.2785, 3406.889
438.7606, 3420.060
439.2427, 3440.900
439.7249, 3446.404
440.2070, 3428.699
440.6891, 3418.978
441.1712, 3431.382
441.6533, 3441.070
442.1354, 3429.568
442.6176, 3403.796
443.0997, 3387.917
443.5818, 3403.302
444.0639, 3432.184
444.5460, 3435.571
445.0281, 3410.450
445.5103, 3386.633
445.9924, 3379.213
446.4745, 3377.127
446.9566, 3360.233
447.4387, 3323.042
447.9208, 3295.094
448.4030, 3299.697
448.8851, 3313.646
449.3672, 3303.260
449.8493, 3266.237
450.3314, 3229.594
450.8135, 3216.925
451.2957, 3225.225
451.7778, 3212.072
452.2599, 3154.697
452.7420, 3105.102
453.2241, 3076.530
453.7062, 3058.969
454.1884, 3044.403
454.6705, 3029.367
455.1526, 3008.272
455.6347, 2968.964
456.1168, 2908.063
456.5989, 2867.562
457.0811, 2863.849
457.5632, 2859.252
458.0453, 2834.780
458.5274, 2798.231
459.0095, 2763.479
459.4916, 2735.775
459.9738, 2710.022
460.4559, 2680.134
460.9380, 2647.061
461.4201, 2617.785
461.9022, 2595.341
462.3843, 2574.204
462.8665, 2547.389
463.3486, 2514.584
463.8307, 2481.281
464.3128, 2439.857
464.7949, 2405.259
465.2770, 2393.411
465.7592, 2396.973
466.2413, 2395.693
466.7234, 2378.924
467.2055, 2353.431
467.6876, 2335.996
468.1697, 2334.799
468.6519, 2325.443
469.1340, 2298.757
469.6161, 2271.697
470.0982, 2255.725
470.5803, 2248.922
471.0624, 2240.716
471.5445, 2223.434
472.0266, 2200.554
472.5088, 2179.313
472.9909, 2159.128
473.4730, 2144.338
473.9551, 2140.922
474.4372, 2140.571
474.9193, 2130.176
475.4015, 2107.316
475.8836, 2088.626
476.3657, 2085.232
476.8478, 2086.742
477.3299, 2082.525
477.8120, 2071.152
478.2942, 2050.490
478.7763, 2015.557
479.2584, 1972.405
479.7405, 1954.827
480.2226, 1993.712
480.7047, 2019.845
481.1869, 2021.760
481.6690, 2012.653
482.1511, 2000.728
482.6332, 1989.130
483.1153, 1981.721
483.5974, 1985.215
484.0796, 1997.163
484.5617, 1995.341
485.0438, 1970.606
485.5259, 1952.370
486.0080, 1963.345
486.4901, 1984.130
486.9723, 1990.940
487.4544, 1976.768
487.9365, 1963.774
488.4186, 1971.644
488.9007, 1988.357
489.3828, 1987.806
489.8650, 1965.979
490.3471, 1944.984
490.8292, 1944.049
491.3113, 1961.576
491.7934, 1969.888
492.2755, 1962.998
492.7577, 1955.712
493.2398, 1953.658
493.7219, 1951.586
494.2040, 1941.167
494.6861, 1921.642
495.1682, 1902.861
495.6504, 1897.124
496.1325, 1904.417
496.6146, 1906.015
497.0967, 1899.750
497.5788, 1891.222
498.0609, 1881.318
498.5431, 1871.237
499.0252, 1862.915
499.5073, 1857.154
499.9894, 1851.713
500.4715, 1845.065
500.9536, 1837.524
501.4358, 1830.109
501.9179, 1823.111
502.4000, 1814.776
502.8821, 1803.410
503.3642, 1789.175
503.8463, 1774.585
504.3285, 1758.137
504.8106, 1743.239
505.2927, 1726.132
505.7748, 1713.285
506.2569, 1716.709
506.7390, 1737.311
507.2212, 1758.768
507.7033, 1761.264
508.1854, 1744.675
508.6675, 1733.654
509.1496, 1732.130
509.6317, 1729.707
510.1139, 1719.703
510.5960, 1707.173
511.0781, 1698.319
511.5602, 1694.351
512.0423, 1694.455
512.5244, 1703.215
513.0065, 1714.665
513.4886, 1713.940
513.9708, 1698.426
514.4529, 1681.425
514.9350, 1673.815
515.4171, 1674.830
515.8992, 1674.826
516.3813, 1675.390
516.8635, 1673.090
517.3456, 1661.140
517.8277, 1649.419
518.3098, 1650.452
518.7919, 1665.120
519.2740, 1681.473
519.7562, 1688.320
520.2383, 1686.238
520.7204, 1680.214
521.2025, 1666.994
521.6846, 1657.265
522.1667, 1658.345
522.6489, 1664.336
523.1310, 1669.991
523.6131, 1675.420
524.0952, 1676.725
524.5773, 1667.408
525.0594, 1654.635
525.5416, 1650.445
526.0237, 1655.311
526.5058, 1659.469
526.9879, 1655.322
527.4700, 1645.806
527.9521, 1644.843
528.4343, 1667.461
528.9164, 1678.474
529.3985, 1664.717
529.8806, 1647.540
530.3627, 1647.093
530.8448, 1661.310
531.3270, 1670.463
531.8091, 1656.165
532.2912, 1628.736
532.7733, 1619.449
533.2554, 1631.544
533.7375, 1641.932
534.2197, 1640.942
534.7018, 1636.047
535.1839, 1636.325
535.6660, 1641.668
536.1481, 1651.729
536.6302, 1672.502
537.1124, 1693.125
537.5945, 1701.395
538.0766, 1700.721
538.5587, 1704.537
539.0408, 1719.943
539.5229, 1740.972
540.0051, 1753.728
540.4872, 1753.657
540.9693, 1756.313
541.4514, 1768.871
541.9335, 1777.557
542.4156, 1771.150
542.8978, 1756.186
543.3799, 1748.033
543.8620, 1754.892
544.3441, 1768.262
544.8262, 1780.606
545.3083, 1791.194
545.7905, 1794.154
546.2726, 1786.271
546.7547, 1777.255
547.2368, 1777.793
547.7189, 1788.516
548.2010, 1794.077
548.6832, 1785.250
549.1653, 1781.858
549.6474, 1799.370
550.1295, 1823.030
550.6116, 1830.616
551.0938, 1817.338
551.5759, 1799.733
552.0580, 1796.803
552.5401, 1808.106
553.0222, 1819.528
553.5043, 1834.775
553.9865, 1842.766
554.4686, 1830.481
554.9507, 1811.464
555.4328, 1802.373
555.9149, 1807.011
556.3970, 1811.924
556.8792, 1810.589
557.3613, 1805.686
557.8434, 1800.960
558.3255, 1796.497
558.8076, 1788.938
559.2897, 1775.075
559.7719, 1758.753
560.2540, 1753.714
560.7361, 1771.567
561.2182, 1780.614
561.7003, 1778.355
562.1824, 1768.994
562.6646, 1750.701
563.1467, 1727.173
563.6288, 1707.745
564.1109, 1698.253
564.5930, 1694.408
565.0751, 1691.972
565.5573, 1690.436
566.0394, 1683.661
566.5215, 1668.615
567.0036, 1651.623
567.4857, 1639.273
567.9678, 1631.978
568.4500, 1626.583
568.9321, 1621.296
569.4142, 1619.914
569.8963, 1627.805
570.3784, 1638.939
570.8605, 1645.028
571.3427, 1643.873
571.8248, 1639.427
572.3069, 1635.943
572.7890, 1633.296
573.2711, 1628.956
573.7532, 1622.177
574.2354, 1615.614
574.7175, 1610.633
575.1996, 1606.480
575.6817, 1601.356
576.1638, 1594.061
576.6459, 1591.213
577.1281, 1605.581
577.6102, 1618.859
578.0923, 1603.009
578.5744, 1565.080
579.0565, 1541.490
579.5386, 1553.857
580.0208, 1586.942
580.5029, 1604.509
580.9850, 1602.513
581.4671, 1595.119
581.9492, 1571.863
582.4313, 1553.740
582.9134, 1555.115
583.3955, 1568.421
583.8776, 1575.226
584.3597, 1566.244
584.8419, 1554.544
585.3240, 1552.994
585.8061, 1558.173
586.2882, 1560.452
586.7703, 1557.861
587.2524, 1553.477
587.7346, 1549.199
588.2167, 1545.328
588.6988, 1546.425
589.1809, 1562.428
589.6630, 1570.565
590.1451, 1562.835
590.6273, 1550.126
591.1094, 1539.905
591.5915, 1533.799
592.0736, 1532.053
592.5557, 1537.922
593.0378, 1546.012
593.5200, 1542.480
594.0021, 1527.475
594.4842, 1519.790
594.9663, 1527.098
595.4484, 1540.973
595.9305, 1551.946
596.4127, 1560.049
596.8948, 1563.526
597.3769, 1557.775
597.8590, 1552.384
598.3411, 1551.210
598.8232, 1553.054
599.3054, 1555.964
599.7875, 1559.357
600.2696, 1563.845
600.7517, 1571.042
601.2338, 1580.434
601.7159, 1586.811
602.1981, 1589.494
602.6802, 1591.470
603.1623, 1592.995
603.6444, 1595.327
604.1265, 1600.808
604.6086, 1610.243
605.0908, 1618.980
605.5729, 1625.891
606.0550, 1631.712
606.5371, 1637.132
607.0192, 1641.913
607.5013, 1645.563
607.9835, 1647.836
608.4656, 1648.490
608.9477, 1645.552
609.4298, 1637.806
609.9119, 1637.355
610.3940, 1647.863
610.8762, 1660.427
611.3583, 1671.940
611.8404, 1681.729
612.3225, 1688.860
612.8046, 1694.015
613.2867, 1694.247
613.7689, 1685.831
614.2510, 1673.177
614.7331, 1661.951
615.2152, 1651.943
615.6973, 1638.572
616.1794, 1618.356
616.6616, 1595.360
617.1437, 1580.625
617.6258, 1577.531
618.1079, 1571.612
618.5900, 1557.964
619.0721, 1545.353
619.5543, 1539.708
620.0364, 1538.578
