##NAMES=Ferro-actinolite
##RRUFFID=R060189
##IDEAL CHEMISTRY=[box]Ca_2_Mg_2.5-0_Fe^2+^_2.5-5_Si_8_O_22_(OH)_2_
##LOCALITY=Merry Widow mine, Vancouver Island, British Columbia, Canada
##OWNER=RRUFF
##SOURCE=Lloyd Twaites
##DESCRIPTION=Parallel aggregate of green fibers
##STATUS=The identification of this mineral has been confirmed by X-ray diffraction and chemical analysis
##URL=rruff.info/R060189
##MEASURED CHEMISTRY=[box](Ca_1.94_Na_0.06_)_Σ=2_(Fe^2+^_2.55_Mg_2.15_Fe^3+^_0.20_Al_0.05_Mn_0.05_)_Σ=5_(Si_0.98_Al_0.02_)_8_O_22_(OH)_2_
91.88672, 120.6874
92.36884, 123.5884
92.85095, 125.4875
93.33307, 124.1772
93.81519, 121.4376
94.29730, 118.9409
94.77942, 117.5330
95.26154, 116.9099
95.74365, 114.9312
96.22577, 109.7365
96.70789, 105.5326
97.19000, 103.8703
97.67212, 103.9547
98.15424, 103.8506
98.63635, 102.2184
99.11847, 98.88749
99.60059, 95.92838
100.0827, 93.32821
100.5648, 91.03799
101.0469, 88.93045
101.5291, 86.94469
102.0112, 85.32240
102.4933, 84.32598
102.9754, 83.81288
103.4575, 83.68085
103.9396, 84.21286
104.4218, 85.12690
104.9039, 85.50756
105.3860, 84.97478
105.8681, 84.27692
106.3502, 84.00491
106.8323, 84.01099
107.3145, 83.74345
107.7966, 82.43653
108.2787, 79.70229
108.7608, 77.92428
109.2429, 77.73981
109.7250, 78.04658
110.2072, 78.52049
110.6893, 79.01369
111.1714, 79.38817
111.6535, 79.37901
112.1356, 78.46198
112.6177, 77.94241
113.0998, 78.09840
113.5820, 78.49670
114.0641, 78.75874
114.5462, 78.72803
115.0283, 78.44291
115.5104, 77.99145
115.9925, 77.48328
116.4747, 76.71395
116.9568, 75.46409
117.4389, 73.89200
117.9210, 72.35932
118.4031, 70.99862
118.8852, 69.89254
119.3674, 69.11832
119.8495, 68.78503
120.3316, 68.66096
120.8137, 68.65953
121.2958, 68.80525
121.7779, 68.81348
122.2601, 68.40820
122.7422, 67.77760
123.2243, 67.10540
123.7064, 66.43208
124.1885, 65.76685
124.6706, 65.06802
125.1528, 64.12155
125.6349, 63.54525
126.1170, 63.72163
126.5991, 64.34002
127.0812, 64.91566
127.5633, 65.10281
128.0455, 64.90843
128.5276, 64.82027
129.0097, 65.25971
129.4918, 65.42034
129.9739, 64.75222
130.4561, 63.51482
130.9382, 62.47277
131.4203, 62.46792
131.9024, 63.93590
132.3845, 64.56107
132.8666, 63.72080
133.3487, 62.68913
133.8309, 62.30268
134.3130, 62.67381
134.7951, 63.27303
135.2772, 63.37196
135.7593, 62.69051
136.2414, 62.41264
136.7236, 62.99902
137.2057, 63.89441
137.6878, 64.32505
138.1699, 63.98416
138.6520, 63.46567
139.1341, 63.84383
139.6163, 65.17841
140.0984, 66.24650
140.5805, 66.34343
141.0626, 65.69123
141.5447, 65.13859
142.0268, 64.88849
142.5090, 64.88985
142.9911, 65.06777
143.4732, 65.42698
143.9553, 65.87517
144.4374, 66.42377
144.9195, 67.12800
145.4017, 67.52596
145.8838, 67.43106
146.3659, 67.01704
146.8480, 66.25964
147.3301, 65.15266
147.8122, 63.92893
148.2944, 62.98558
148.7765, 62.42001
149.2586, 61.98704
149.7407, 61.89354
150.2228, 61.77889
150.7049, 61.27175
151.1871, 60.20340
151.6692, 58.75482
152.1513, 57.48880
152.6334, 56.00674
153.1155, 55.22290
153.5976, 55.80774
154.0798, 57.03170
154.5619, 57.87276
155.0440, 57.73305
155.5261, 56.76731
156.0082, 56.05940
156.4903, 55.71147
156.9725, 55.44920
157.4546, 55.18982
157.9367, 54.94619
158.4188, 54.75900
158.9009, 54.64572
159.3830, 54.62564
159.8652, 54.72837
160.3473, 55.20483
160.8294, 55.60232
161.3115, 55.45049
161.7936, 54.75330
162.2757, 54.21723
162.7579, 54.39698
163.2400, 55.10965
163.7221, 55.91687
164.2042, 57.02527
164.6863, 58.05782
165.1684, 58.37640
165.6506, 57.74498
166.1327, 57.13761
166.6148, 57.20161
167.0969, 57.65724
167.5790, 58.11390
168.0611, 58.33857
168.5433, 58.44210
169.0254, 58.84874
169.5075, 59.98246
169.9896, 60.77552
170.4717, 60.62875
170.9538, 59.90675
171.4360, 59.25482
171.9181, 59.15805
172.4002, 59.57513
172.8823, 59.68792
173.3644, 59.34135
173.8465, 58.79441
174.3287, 57.98311
174.8108, 57.00798
175.2929, 56.07273
175.7750, 55.36980
176.2571, 54.94775
176.7392, 54.27273
177.2214, 53.11776
177.7035, 51.94603
178.1856, 50.81904
178.6677, 49.81401
179.1498, 49.07399
179.6319, 48.77862
180.1141, 49.04504
180.5962, 49.15671
181.0783, 49.10255
181.5604, 48.92971
182.0425, 48.65895
182.5246, 48.29634
183.0068, 47.83745
183.4889, 47.24434
183.9710, 46.47267
184.4531, 45.87385
184.9352, 45.24535
185.4173, 45.35545
185.8995, 45.39316
186.3816, 45.36238
186.8637, 45.05799
187.3458, 45.10692
187.8279, 45.01426
188.3100, 44.91578
188.7922, 45.01444
189.2743, 44.74984
189.7564, 44.84538
190.2385, 44.79716
190.7206, 44.81473
191.2027, 44.68983
191.6849, 44.60892
192.1670, 44.67055
192.6491, 44.65326
193.1312, 44.51196
193.6133, 44.53372
194.0954, 44.26414
194.5776, 44.25020
195.0597, 44.34658
195.5418, 44.21244
196.0239, 44.23680
196.5060, 44.20080
196.9881, 43.89046
197.4703, 44.05721
197.9524, 44.21432
198.4345, 44.41460
198.9166, 44.54638
199.3987, 44.40453
199.8808, 44.61602
200.3630, 44.68592
200.8451, 44.75000
201.3272, 45.01122
201.8093, 44.90917
202.2914, 45.16726
202.7735, 45.28159
203.2557, 45.46174
203.7378, 45.49939
204.2199, 45.58104
204.7020, 47.04659
205.1841, 48.07506
205.6662, 48.49931
206.1484, 48.69942
206.6305, 48.70138
207.1126, 48.59457
207.5947, 48.58200
208.0768, 48.90565
208.5589, 49.70033
209.0411, 50.25188
209.5232, 50.43556
210.0053, 50.52989
210.4874, 50.70421
210.9695, 50.96279
211.4516, 51.17593
211.9338, 51.17194
212.4159, 50.84562
212.8980, 50.82131
213.3801, 51.01826
213.8622, 51.14284
214.3443, 51.19892
214.8265, 50.98137
215.3086, 51.11716
215.7907, 51.11135
216.2728, 50.94075
216.7549, 50.83699
217.2370, 50.80485
217.7191, 50.71421
218.2013, 50.35380
218.6834, 49.69476
219.1655, 49.10729
219.6476, 49.05402
220.1297, 49.47934
220.6118, 49.70143
221.0940, 49.53875
221.5761, 49.16706
222.0582, 48.75984
222.5403, 48.32394
223.0224, 47.90575
223.5045, 47.55085
223.9867, 47.24763
224.4688, 46.97750
224.9509, 46.75878
225.4330, 46.56443
225.9151, 46.36555
226.3972, 46.17896
226.8794, 45.93131
227.3615, 45.50548
227.8436, 44.98625
228.3257, 44.52845
228.8078, 43.51374
229.2899, 43.97436
229.7721, 44.10920
230.2542, 43.93589
230.7363, 42.53123
231.2184, 42.71659
231.7005, 42.26474
232.1826, 41.17879
232.6648, 41.95640
233.1469, 42.40828
233.6290, 42.55196
234.1111, 41.46428
234.5932, 41.96664
235.0753, 41.83178
235.5575, 41.67080
236.0396, 42.39695
236.5217, 41.48837
237.0038, 41.62764
237.4859, 42.37872
237.9680, 42.80409
238.4502, 42.92125
238.9323, 41.80706
239.4144, 42.28290
239.8965, 42.12153
240.3786, 41.93403
240.8607, 42.63366
241.3429, 41.69857
241.8250, 42.38413
242.3071, 42.42276
242.7892, 42.75747
243.2713, 42.92249
243.7534, 43.30667
244.2356, 43.12336
244.7177, 42.58111
245.1998, 42.30988
245.6819, 42.66539
246.1640, 42.79967
246.6461, 42.40442
247.1283, 41.85152
247.6104, 41.62939
248.0925, 41.93961
248.5746, 42.44047
249.0567, 42.24470
249.5388, 40.38564
250.0210, 39.07653
250.5031, 38.72904
250.9852, 38.79879
251.4673, 38.75967
251.9494, 38.41624
252.4315, 37.90864
252.9137, 37.53117
253.3958, 37.40537
253.8779, 37.25620
254.3600, 36.88520
254.8421, 36.58557
255.3242, 36.80530
255.8064, 37.65009
256.2885, 38.59433
256.7706, 38.73130
257.2527, 37.28886
257.7348, 36.38002
258.2169, 36.37492
258.6991, 36.70749
259.1812, 36.95187
259.6633, 36.98756
260.1454, 36.75116
260.6275, 35.43448
261.1096, 36.15125
261.5918, 36.54230
262.0739, 36.62514
262.5560, 35.47664
263.0381, 35.91816
263.5202, 35.72247
264.0023, 35.50066
264.4845, 36.16596
264.9666, 36.24984
265.4487, 36.45670
265.9308, 36.46316
266.4129, 36.27510
266.8951, 35.72738
267.3772, 34.83981
267.8593, 34.13777
268.3414, 34.20884
268.8235, 35.07790
269.3056, 35.58309
269.7878, 35.42121
270.2699, 35.07506
270.7520, 34.88849
271.2341, 34.88160
271.7162, 34.98954
272.1983, 35.23991
272.6805, 35.57448
273.1626, 35.67236
273.6447, 35.27886
274.1268, 34.84142
274.6089, 34.78203
275.0910, 35.05761
275.5732, 35.15588
276.0553, 34.66657
276.5374, 33.80538
277.0195, 33.28969
277.5016, 33.25026
277.9837, 33.40490
278.4659, 33.59959
278.9480, 33.83532
279.4301, 34.14990
279.9122, 34.66066
280.3943, 35.17311
280.8764, 35.32389
281.3586, 35.00158
281.8407, 34.60162
282.3228, 34.29121
282.8049, 34.08485
283.2870, 34.08348
283.7691, 34.42902
284.2513, 34.87238
284.7334, 35.04923
285.2155, 34.92966
285.6976, 34.80460
286.1797, 34.92983
286.6618, 35.19458
287.1440, 35.18517
287.6261, 34.69337
288.1082, 34.08510
288.5903, 33.71468
289.0724, 33.56321
289.5545, 33.55359
290.0367, 33.75582
290.5188, 34.07263
291.0009, 34.24489
291.4830, 34.21355
291.9651, 34.09505
292.4472, 33.90149
292.9294, 33.68214
293.4115, 33.61285
293.8936, 33.90439
294.3757, 34.35980
294.8578, 34.55947
295.3399, 34.40546
295.8221, 34.26826
296.3042, 34.57513
296.7863, 35.04905
297.2684, 35.19260
297.7505, 34.65111
298.2326, 33.86250
298.7148, 33.50838
299.1969, 33.66992
299.6790, 33.81566
300.1611, 33.61971
300.6432, 33.27552
301.1253, 32.99582
301.6075, 32.82830
302.0896, 32.72795
302.5717, 32.66505
303.0538, 32.64239
303.5359, 32.60431
304.0180, 32.48190
304.5002, 32.37133
304.9823, 32.40336
305.4644, 32.61209
305.9465, 32.78201
306.4286, 32.66547
306.9107, 32.28751
307.3929, 32.05259
307.8750, 32.19899
308.3571, 31.61502
308.8392, 32.35546
309.3213, 32.77018
309.8034, 32.87669
310.2856, 31.75186
310.7677, 32.21705
311.2498, 31.40146
311.7319, 32.16046
312.2140, 32.59374
312.6961, 32.71881
313.1783, 31.61253
313.6604, 32.09628
314.1425, 31.94282
314.6246, 31.76323
315.1067, 32.47076
315.5888, 31.54358
316.0710, 32.23705
316.5531, 32.28359
317.0352, 32.62621
317.5173, 32.50233
317.9994, 32.37514
318.4815, 32.10970
318.9637, 32.10873
319.4458, 32.41341
319.9279, 32.75573
320.4100, 33.14998
320.8921, 33.45573
321.3742, 33.46535
321.8564, 33.07734
322.3385, 32.64030
322.8206, 32.53296
323.3027, 32.75496
323.7848, 32.94744
324.2669, 32.92353
324.7491, 32.92155
325.2312, 33.19526
325.7133, 33.75380
326.1954, 34.31025
326.6775, 34.73750
327.1596, 35.01503
327.6418, 34.99158
328.1239, 34.46272
328.6060, 33.90346
329.0881, 33.71772
329.5702, 33.82134
330.0523, 33.91496
330.5345, 33.81174
331.0166, 33.60644
331.4987, 33.54962
331.9808, 33.71925
332.4629, 33.82371
332.9450, 33.48746
333.4272, 32.98528
333.9093, 32.78548
334.3914, 33.14812
334.8735, 33.73938
335.3556, 34.20661
335.8377, 34.56021
336.3199, 34.70228
336.8020, 34.51183
337.2841, 34.11102
337.7662, 33.58608
338.2483, 32.83431
338.7304, 32.31350
339.2125, 32.65025
339.6946, 33.67990
340.1768, 34.16826
340.6589, 33.48703
341.1410, 32.50672
341.6231, 32.32640
342.1052, 32.93805
342.5873, 33.42560
343.0695, 33.05028
343.5516, 32.25393
344.0337, 32.20620
344.5158, 33.30600
344.9979, 34.44967
345.4800, 34.41372
345.9622, 33.56652
346.4443, 32.93238
346.9264, 32.83397
347.4085, 33.05773
347.8906, 33.44429
348.3727, 34.00085
348.8549, 34.45700
349.3370, 34.65725
349.8191, 34.62556
350.3012, 34.44651
350.7833, 33.92114
351.2654, 33.53075
351.7476, 33.79831
352.2297, 34.55019
352.7118, 34.93725
353.1939, 34.48858
353.6760, 33.71274
354.1581, 33.56431
354.6403, 34.16650
355.1224, 34.65813
355.6045, 34.70952
356.0866, 34.45125
356.5687, 34.03170
357.0508, 33.45045
357.5330, 32.92484
358.0151, 32.73487
358.4972, 32.87956
358.9793, 33.04518
359.4614, 33.20210
359.9435, 33.36109
360.4257, 33.58955
360.9078, 33.86879
361.3899, 34.00237
361.8720, 33.80494
362.3541, 33.33815
362.8362, 33.03744
363.3184, 33.03638
363.8005, 33.04673
364.2826, 32.93974
364.7647, 32.75263
365.2468, 32.56637
365.7289, 32.41082
366.2111, 32.28698
366.6932, 32.20815
367.1753, 32.23438
367.6574, 32.17424
368.1395, 31.83921
368.6216, 31.48433
369.1038, 31.42151
369.5859, 31.70415
370.0680, 32.12354
370.5501, 32.46635
371.0322, 32.73784
371.5143, 32.84733
371.9965, 32.58671
372.4786, 32.36272
372.9607, 32.48458
373.4428, 32.86052
373.9249, 33.13308
374.4070, 33.02391
374.8892, 32.62303
375.3713, 32.61664
375.8534, 33.56604
376.3355, 34.22300
376.8176, 34.25779
377.2997, 33.92197
377.7819, 33.49741
378.2640, 33.09742
378.7461, 32.74745
379.2282, 32.49389
379.7103, 32.36694
380.1924, 32.29413
380.6746, 32.26287
381.1567, 32.28770
381.6388, 32.43578
382.1209, 32.67331
382.6030, 32.85482
383.0851, 32.82820
383.5673, 32.57992
384.0494, 32.39492
384.5315, 32.41733
385.0136, 32.35536
385.4957, 32.05973
385.9778, 31.64366
386.4600, 31.28960
386.9421, 31.09824
387.4242, 31.01760
387.9063, 30.90594
388.3884, 30.73944
388.8705, 30.58899
389.3527, 30.44965
389.8348, 30.33663
390.3169, 30.22795
390.7990, 30.13296
391.2811, 30.14067
391.7632, 30.46221
392.2454, 31.16859
392.7275, 31.48887
393.2096, 31.15927
393.6917, 30.65078
394.1738, 30.02838
394.6559, 29.39523
395.1381, 28.97478
395.6202, 28.91610
396.1023, 29.14676
396.5844, 29.58930
397.0665, 30.48694
397.5486, 30.91219
398.0308, 29.95779
398.5129, 28.57175
398.9950, 27.70551
399.4771, 27.63250
399.9592, 27.81689
400.4413, 27.70936
400.9235, 27.33973
401.4056, 27.16244
401.8877, 27.39060
402.3698, 27.69655
402.8519, 27.75979
403.3340, 27.60770
403.8162, 27.45373
404.2983, 27.45218
404.7804, 27.48708
405.2625, 27.32897
405.7446, 26.94024
406.2267, 26.54848
406.7089, 26.28659
407.1910, 26.14340
407.6731, 26.07984
408.1552, 26.20209
408.6373, 26.26628
409.1194, 26.01703
409.6016, 25.56891
410.0837, 25.28572
410.5658, 25.31158
411.0479, 25.52962
411.5300, 25.77601
412.0121, 26.07202
412.4943, 26.30249
412.9764, 26.52596
413.4585, 26.62891
413.9406, 26.34755
414.4227, 25.71186
414.9048, 25.25647
415.3870, 25.51635
415.8691, 26.46826
416.3512, 26.82206
416.8333, 26.11596
417.3154, 25.42778
417.7975, 25.20422
418.2797, 25.24232
418.7618, 24.65182
419.2439, 25.39963
419.7260, 25.82172
420.2081, 25.93560
420.6902, 24.81814
421.1724, 25.29070
421.6545, 25.12605
422.1366, 24.93528
422.6187, 25.63163
423.1008, 25.04868
423.5829, 24.81918
424.0651, 24.94960
424.5472, 25.43370
425.0293, 25.74966
425.5114, 25.76694
425.9935, 25.75163
426.4756, 25.77663
426.9578, 25.79678
427.4399, 25.71648
427.9220, 25.49206
428.4041, 25.25844
428.8862, 25.27255
429.3683, 25.61057
429.8505, 25.90995
430.3326, 26.30192
430.8147, 26.49260
431.2968, 26.14626
431.7789, 25.37408
432.2610, 24.71107
432.7432, 24.60368
433.2253, 24.92248
433.7074, 25.16674
434.1895, 25.32751
434.6716, 25.43478
435.1537, 25.46906
435.6359, 25.47054
436.1180, 25.48973
436.6001, 25.54383
437.0822, 25.60086
437.5643, 25.66830
438.0464, 25.72894
438.5286, 25.65520
439.0107, 25.36310
439.4928, 25.01159
439.9749, 24.81176
440.4570, 24.74851
440.9391, 24.61652
441.4213, 24.28666
441.9034, 23.90292
442.3855, 23.57936
442.8676, 23.33029
443.3497, 23.26014
443.8318, 23.50990
444.3140, 23.95850
444.7961, 24.07782
445.2782, 23.55296
445.7603, 23.19116
446.2424, 23.35044
446.7245, 23.75480
447.2067, 24.03001
447.6888, 24.07631
448.1709, 24.03192
448.6530, 24.07647
449.1351, 24.25482
449.6172, 24.30698
450.0994, 24.13699
450.5815, 23.95529
451.0636, 23.85938
451.5457, 23.82721
452.0278, 23.78304
452.5099, 23.67902
452.9921, 23.56196
453.4742, 23.58745
453.9563, 23.89012
454.4384, 24.09547
454.9205, 24.17966
455.4026, 24.16413
455.8848, 23.98702
456.3669, 23.68980
456.8490, 23.46692
457.3311, 23.54584
457.8132, 23.90044
458.2953, 24.12840
458.7775, 24.19584
459.2596, 24.18111
459.7417, 24.08307
460.2238, 23.94545
460.7059, 23.82670
461.1880, 23.74624
461.6702, 23.68375
462.1523, 23.63292
462.6344, 23.59096
463.1165, 23.47434
463.5986, 23.16443
464.0807, 22.91737
464.5629, 23.02775
465.0450, 23.44770
465.5271, 23.86196
466.0092, 24.26338
466.4913, 24.54666
466.9734, 24.53681
467.4556, 24.24512
467.9377, 23.91303
468.4198, 23.67057
468.9019, 23.05044
469.3840, 23.20604
469.8661, 23.28927
470.3483, 23.30399
470.8304, 23.04509
471.3125, 23.13952
471.7946, 23.09236
472.2767, 23.03938
472.7589, 23.40778
473.2410, 23.68560
473.7231, 24.28520
474.2052, 24.52183
474.6873, 24.16822
475.1694, 23.76045
475.6516, 23.37485
476.1337, 23.06159
476.6158, 22.90548
477.0979, 22.93655
477.5800, 23.04139
478.0621, 22.99918
478.5443, 22.70895
479.0264, 22.57453
479.5085, 22.74385
479.9906, 22.94666
480.4727, 23.04086
480.9548, 23.06600
481.4370, 23.15595
481.9191, 23.42156
482.4012, 23.76998
482.8833, 23.99239
483.3654, 24.08930
483.8475, 24.04753
484.3297, 23.67375
484.8118, 23.28559
485.2939, 23.23220
485.7760, 23.54824
486.2581, 23.81622
486.7402, 23.69283
487.2224, 23.36747
487.7045, 23.26407
488.1866, 23.44826
488.6687, 23.64371
489.1508, 23.65875
489.6329, 23.52595
490.1151, 23.41998
490.5972, 23.34743
491.0793, 23.29295
491.5614, 23.13916
492.0435, 23.02743
492.5256, 23.32058
493.0078, 24.11409
493.4899, 24.88044
493.9720, 24.92859
494.4541, 24.05693
494.9362, 23.62635
495.4183, 23.92926
495.9005, 24.29614
496.3826, 24.46337
496.8647, 24.49516
497.3468, 24.53798
497.8289, 24.65948
498.3110, 24.82472
498.7932, 24.95218
499.2753, 24.99652
499.7574, 25.12649
500.2395, 25.50554
500.7216, 25.83447
501.2037, 25.86487
501.6859, 25.70318
502.1680, 25.71193
502.6501, 26.24726
503.1322, 26.96532
503.6143, 26.96216
504.0964, 26.07319
504.5785, 25.30189
505.0606, 24.94527
505.5428, 24.91302
506.0249, 25.20178
506.5070, 25.83174
506.9891, 26.30185
507.4712, 26.23421
507.9533, 25.90208
508.4355, 25.69854
508.9176, 25.65782
509.3997, 25.78682
509.8818, 26.14089
510.3639, 26.04961
510.8460, 26.85761
511.3282, 27.30732
511.8103, 27.41799
512.2924, 26.17418
512.7745, 26.67941
513.2567, 26.48370
513.7388, 26.25925
514.2209, 27.01064
514.7030, 25.96384
515.1851, 26.69975
515.6672, 26.72404
516.1494, 27.07402
516.6315, 26.71874
517.1136, 26.58130
517.5957, 26.79716
518.0778, 26.84068
518.5599, 26.62359
519.0421, 26.37784
519.5242, 26.44602
520.0063, 26.85657
520.4884, 27.08945
520.9705, 27.03455
521.4526, 26.91723
521.9348, 26.79668
522.4169, 26.71088
522.8990, 26.74207
523.3811, 26.95425
523.8632, 27.21222
524.3453, 27.46171
524.8275, 27.66651
525.3096, 27.54553
525.7917, 26.90662
526.2738, 26.24567
526.7559, 26.25719
527.2380, 26.91232
527.7202, 27.17923
528.2023, 26.59268
528.6844, 25.92475
529.1665, 25.66179
529.6486, 25.69779
530.1307, 25.73365
530.6129, 25.64004
531.0950, 25.51328
531.5771, 25.54113
532.0592, 25.84586
532.5413, 25.99069
533.0234, 25.89514
533.5056, 25.74040
533.9877, 25.62405
534.4698, 25.51884
534.9519, 25.31441
535.4340, 24.92923
535.9161, 24.51699
536.3983, 24.45133
536.8804, 24.82512
537.3625, 25.13150
537.8446, 25.23639
538.3267, 25.29077
538.8088, 25.44265
539.2910, 25.64809
539.7731, 25.71096
540.2552, 25.30948
540.7373, 24.86196
541.2194, 25.09512
541.7015, 25.94570
542.1837, 26.52649
542.6658, 26.43108
543.1479, 25.97698
543.6300, 25.68702
544.1121, 25.58329
544.5942, 25.46619
545.0764, 25.31787
545.5585, 25.13659
546.0406, 24.83794
546.5227, 24.49241
547.0048, 24.35496
547.4869, 24.59025
547.9691, 25.01074
548.4512, 25.08051
548.9333, 24.46973
549.4154, 24.11600
549.8975, 24.20215
550.3796, 24.37186
550.8618, 24.47450
551.3439, 24.47763
551.8260, 24.34144
552.3081, 23.96943
552.7902, 23.55042
553.2723, 23.61127
553.7545, 24.27074
554.2366, 24.70900
554.7187, 24.49895
555.2008, 24.16891
555.6829, 24.32781
556.1650, 24.92752
556.6472, 25.27885
557.1293, 25.00509
557.6114, 24.42692
558.0935, 23.72443
558.5756, 22.97698
559.0577, 22.60255
559.5399, 22.84896
560.0220, 23.44191
560.5041, 23.85064
560.9862, 24.03635
561.4683, 24.10484
561.9504, 23.98993
562.4326, 23.81612
562.9147, 23.63964
563.3968, 23.47045
563.8789, 23.29611
564.3610, 23.10396
564.8431, 22.94326
565.3253, 22.97993
565.8074, 23.35836
566.2895, 23.48001
566.7716, 22.95978
567.2537, 22.44165
567.7358, 22.27667
568.2180, 22.39470
568.7001, 22.55542
569.1822, 22.70246
569.6643, 22.76702
570.1464, 22.55770
570.6285, 22.11428
571.1107, 21.92852
571.5928, 22.27368
572.0749, 22.66950
572.5570, 22.41134
573.0391, 21.48121
573.5212, 20.84800
574.0034, 20.70694
574.4855, 20.78760
574.9676, 21.05164
575.4497, 21.39771
575.9318, 21.64547
576.4139, 21.72420
576.8961, 21.69195
577.3782, 21.62605
577.8603, 21.50148
578.3424, 21.44383
578.8245, 21.58209
579.3066, 21.65136
579.7888, 21.44333
580.2709, 21.14622
580.7530, 21.14779
581.2351, 21.63026
581.7172, 22.01816
582.1993, 21.06904
582.6815, 21.16245
583.1636, 21.18349
583.6457, 21.13603
584.1278, 20.81494
584.6099, 21.28537
585.0920, 20.95552
