##NAMES=Ferrosilite
##RRUFFID=R070387
##IDEAL CHEMISTRY=Fe^2+^_2_Si_2_O_6_
##LOCALITY=Central Gneissic Complex (Khtada Lake), British Columbia, Canada
##OWNER=RRUFF
##SOURCE=Jibamitra Ganguly
##DESCRIPTION=Translucent greenish-yellow grains with vitreous luster, known as Hollister enstatite
##STATUS=The identification of this mineral is confirmed by single-crystal X-ray diffraction and chemical analysis.
##URL=rruff.info/R070387
##MEASURED CHEMISTRY=(Fe_0.48_Mg_0.47_Al_0.02_Ca_0.02_[box]_0.01_)_Î£=1_Si_1.00_O_3_ ; = light phase. There are trace amounts of Mn and Ti. The dark phase = quartz
198.5383, 4346.801
199.0204, 4391.241
199.5026, 4396.604
199.9847, 4358.575
200.4668, 4334.210
200.9489, 4337.104
201.4310, 4342.748
201.9131, 4344.560
202.3953, 4342.493
202.8774, 4338.807
203.3595, 4334.868
203.8416, 4330.628
204.3237, 4327.983
204.8058, 4321.007
205.2880, 4321.966
205.7701, 4339.429
206.2522, 4367.938
206.7343, 4395.477
207.2164, 4411.493
207.6985, 4417.173
208.1807, 4434.417
208.6628, 4485.567
209.1449, 4523.888
209.6270, 4530.910
210.1091, 4516.819
210.5912, 4498.935
211.0734, 4486.622
211.5555, 4480.677
212.0376, 4487.592
212.5197, 4527.238
213.0018, 4555.301
213.4839, 4547.888
213.9661, 4525.696
214.4482, 4520.946
214.9303, 4554.167
215.4124, 4612.947
215.8945, 4645.159
216.3766, 4628.457
216.8587, 4615.845
217.3409, 4619.952
217.8230, 4632.962
218.3051, 4646.478
218.7872, 4656.867
219.2693, 4663.927
219.7514, 4666.000
220.2336, 4656.263
220.7157, 4653.833
221.1978, 4674.979
221.6799, 4697.708
222.1620, 4697.730
222.6441, 4665.914
223.1263, 4618.338
223.6084, 4587.759
224.0905, 4584.269
224.5726, 4576.128
225.0547, 4550.938
225.5368, 4525.157
226.0190, 4515.996
226.5011, 4527.060
226.9832, 4540.626
227.4653, 4527.248
227.9474, 4474.676
228.4296, 4431.218
228.9117, 4408.911
229.3938, 4390.929
229.8759, 4366.810
230.3580, 4335.220
230.8401, 4302.666
231.3223, 4276.918
231.8044, 4259.607
232.2865, 4241.903
232.7686, 4217.731
233.2507, 4197.789
233.7328, 4190.832
234.2150, 4194.750
234.6971, 4197.832
235.1792, 4187.450
235.6613, 4162.170
236.1434, 4141.680
236.6255, 4127.198
237.1077, 4116.700
237.5898, 4108.682
238.0719, 4103.790
238.5540, 4104.492
239.0361, 4117.904
239.5182, 4141.108
240.0004, 4141.646
240.4825, 4098.054
240.9646, 4058.855
241.4467, 4041.998
241.9288, 4041.901
242.4109, 4049.422
242.8931, 4063.261
243.3752, 4078.746
243.8573, 4078.193
244.3394, 4052.085
244.8215, 4027.387
245.3036, 4006.963
245.7858, 3995.199
246.2679, 4000.575
246.7500, 4030.408
247.2321, 4070.660
247.7142, 4093.120
248.1963, 4091.014
248.6785, 4091.370
249.1606, 4110.717
249.6427, 4132.593
250.1248, 4140.678
250.6069, 4128.864
251.0890, 4111.666
251.5712, 4108.050
252.0533, 4120.025
252.5354, 4130.187
253.0175, 4141.126
253.4996, 4143.084
253.9817, 4121.019
254.4639, 4072.699
254.9460, 4029.808
255.4281, 4029.723
255.9102, 4069.006
256.3923, 4084.753
256.8745, 4048.111
257.3566, 4005.061
257.8387, 3994.712
258.3208, 4014.391
258.8029, 4035.492
259.2850, 4044.909
259.7672, 4042.632
260.2493, 4025.927
260.7314, 3987.447
261.2135, 3948.235
261.6956, 3923.342
262.1777, 3910.299
262.6599, 3903.045
263.1420, 3903.520
263.6241, 3907.040
264.1062, 3905.583
264.5883, 3898.314
265.0704, 3889.188
265.5526, 3883.595
266.0347, 3877.751
266.5168, 3862.429
266.9989, 3820.593
267.4810, 3781.374
267.9631, 3781.011
268.4453, 3818.038
268.9274, 3847.609
269.4095, 3841.459
269.8916, 3815.407
270.3737, 3808.027
270.8558, 3826.270
271.3380, 3851.772
271.8201, 3880.288
272.3022, 3908.788
272.7843, 3924.807
273.2664, 3920.152
273.7485, 3906.437
274.2307, 3906.138
274.7128, 3922.634
275.1949, 3936.575
275.6770, 3938.731
276.1591, 3935.311
276.6412, 3936.690
277.1234, 3945.763
277.6055, 3956.885
278.0876, 3962.629
278.5697, 3961.850
279.0518, 3962.636
279.5339, 3962.870
280.0161, 3966.759
280.4982, 3983.351
280.9803, 4011.585
281.4624, 4033.819
281.9445, 4032.907
282.4266, 4007.124
282.9088, 3989.799
283.3909, 3986.851
283.8730, 3985.830
284.3551, 3982.342
284.8372, 3975.830
285.3193, 3964.262
285.8015, 3944.854
286.2836, 3920.942
286.7657, 3913.660
287.2478, 3942.308
287.7299, 3963.383
288.2120, 3967.171
288.6942, 3959.077
289.1763, 3942.801
289.6584, 3919.858
290.1405, 3898.357
290.6226, 3896.435
291.1047, 3937.101
291.5869, 3963.307
292.0690, 3966.792
292.5511, 3962.062
293.0332, 3958.947
293.5153, 3959.916
293.9974, 3963.082
294.4796, 3966.156
294.9617, 3968.839
295.4438, 3972.647
295.9259, 3969.893
296.4080, 3975.080
296.8901, 4006.020
297.3723, 4052.356
297.8544, 4083.569
298.3365, 4069.927
298.8186, 4017.714
299.3007, 4003.862
299.7828, 4060.047
300.2650, 4115.587
300.7471, 4152.360
301.2292, 4176.106
301.7113, 4192.979
302.1934, 4203.904
302.6755, 4215.647
303.1577, 4245.189
303.6398, 4300.506
304.1219, 4350.409
304.6040, 4383.257
305.0861, 4409.565
305.5682, 4434.530
306.0504, 4459.033
306.5325, 4489.336
307.0146, 4538.941
307.4967, 4607.236
307.9788, 4654.744
308.4609, 4653.175
308.9431, 4653.833
309.4252, 4696.697
309.9073, 4778.124
310.3894, 4868.672
310.8715, 4956.593
311.3536, 5041.974
311.8358, 5125.167
312.3179, 5208.187
312.8000, 5283.432
313.2821, 5336.620
313.7642, 5377.836
314.2463, 5430.955
314.7285, 5504.413
315.2106, 5589.245
315.6927, 5680.557
316.1748, 5777.366
316.6569, 5874.963
317.1390, 5975.074
317.6212, 6070.988
318.1033, 6144.062
318.5854, 6176.377
319.0675, 6220.907
319.5496, 6304.219
320.0317, 6412.353
320.5139, 6523.231
320.9960, 6630.688
321.4781, 6732.207
321.9602, 6820.825
322.4423, 6888.106
322.9244, 6970.056
323.4066, 7082.817
323.8887, 7200.156
324.3708, 7305.219
324.8529, 7395.160
325.3350, 7469.264
325.8171, 7524.690
326.2993, 7560.790
326.7814, 7601.650
327.2635, 7662.399
327.7456, 7711.171
328.2277, 7739.227
328.7098, 7747.812
329.1920, 7739.173
329.6741, 7714.254
330.1562, 7674.952
330.6383, 7627.294
331.1204, 7579.331
331.6025, 7507.710
332.0847, 7392.414
332.5668, 7267.649
333.0489, 7163.183
333.5310, 7084.114
334.0131, 7007.246
334.4952, 6905.587
334.9774, 6776.772
335.4595, 6639.387
335.9416, 6472.681
336.4237, 6317.571
336.9058, 6196.868
337.3879, 6102.409
337.8701, 6010.832
338.3522, 5905.345
338.8343, 5792.748
339.3164, 5693.408
339.7985, 5609.468
340.2806, 5533.146
340.7627, 5470.587
341.2448, 5409.732
341.7270, 5333.568
342.2091, 5230.911
342.6912, 5131.667
343.1733, 5069.810
343.6554, 5041.188
344.1375, 5011.101
344.6197, 4972.353
345.1018, 4924.906
345.5839, 4863.932
346.0660, 4788.728
346.5481, 4723.670
347.0302, 4682.195
347.5124, 4653.993
347.9945, 4623.187
348.4766, 4587.722
348.9587, 4559.253
349.4408, 4552.480
349.9229, 4565.318
350.4051, 4554.550
350.8872, 4491.755
351.3693, 4434.614
351.8514, 4420.313
352.3335, 4433.648
352.8156, 4437.416
353.2978, 4413.785
353.7799, 4370.245
354.2620, 4325.560
354.7441, 4260.397
355.2262, 4221.193
355.7083, 4231.450
356.1905, 4253.253
356.6726, 4252.051
357.1547, 4223.881
357.6368, 4189.604
358.1189, 4171.305
358.6010, 4170.241
359.0832, 4176.155
359.5653, 4204.849
360.0474, 4224.650
360.5295, 4218.172
361.0116, 4196.331
361.4937, 4179.614
361.9759, 4179.598
362.4580, 4190.868
362.9401, 4201.692
363.4222, 4215.209
363.9043, 4219.494
364.3864, 4194.148
364.8686, 4168.930
365.3507, 4171.835
365.8328, 4207.686
366.3149, 4246.438
366.7970, 4259.238
367.2791, 4251.215
367.7613, 4252.783
368.2434, 4271.055
368.7255, 4293.217
369.2076, 4311.875
369.6897, 4326.548
370.1718, 4334.091
370.6540, 4327.506
371.1361, 4317.531
371.6182, 4314.731
372.1003, 4318.817
372.5824, 4325.332
373.0645, 4331.850
373.5467, 4339.534
374.0288, 4352.938
374.5109, 4380.958
374.9930, 4398.198
375.4751, 4385.654
375.9572, 4364.074
376.4394, 4362.310
376.9215, 4386.344
377.4036, 4418.358
377.8857, 4438.393
378.3678, 4445.296
378.8499, 4444.626
379.3321, 4429.873
379.8142, 4415.376
380.2963, 4406.691
380.7784, 4403.121
381.2605, 4403.496
381.7426, 4407.803
382.2248, 4412.884
382.7069, 4408.475
383.1890, 4391.983
383.6711, 4370.370
384.1532, 4336.900
384.6353, 4304.575
385.1175, 4289.373
385.5996, 4291.487
386.0817, 4287.894
386.5638, 4248.557
387.0459, 4177.316
387.5280, 4126.885
388.0102, 4110.057
388.4923, 4097.779
388.9744, 4071.116
389.4565, 4035.601
389.9386, 4003.044
390.4207, 3978.533
390.9029, 3956.885
391.3850, 3931.733
391.8671, 3903.649
392.3492, 3878.499
392.8313, 3858.041
393.3134, 3842.585
393.7956, 3833.863
394.2777, 3833.049
394.7598, 3832.407
395.2419, 3834.796
395.7240, 3833.832
396.2061, 3818.380
396.6883, 3788.824
397.1704, 3760.765
397.6525, 3748.338
398.1346, 3751.642
398.6167, 3753.558
399.0988, 3756.889
399.5810, 3755.996
400.0631, 3743.485
400.5452, 3727.695
401.0273, 3722.455
401.5094, 3732.981
401.9915, 3748.019
402.4737, 3744.821
402.9558, 3710.577
403.4379, 3695.882
403.9200, 3721.815
404.4021, 3751.524
404.8842, 3769.612
405.3664, 3775.930
405.8485, 3776.203
406.3306, 3771.467
406.8127, 3764.411
407.2948, 3763.376
407.7769, 3769.940
408.2591, 3776.433
408.7412, 3776.388
409.2233, 3776.028
409.7054, 3782.769
410.1875, 3797.544
410.6696, 3818.950
411.1518, 3854.271
411.6339, 3894.843
412.1160, 3919.187
412.5981, 3921.854
413.0802, 3916.185
413.5623, 3913.782
414.0445, 3915.003
414.5266, 3918.700
415.0087, 3930.879
415.4908, 3939.698
415.9729, 3936.003
416.4550, 3924.408
416.9372, 3914.628
417.4193, 3911.051
417.9014, 3912.978
418.3835, 3919.683
418.8656, 3939.383
419.3477, 3948.823
419.8299, 3947.474
420.3120, 3937.657
420.7941, 3920.074
421.2762, 3895.260
421.7583, 3863.305
422.2404, 3821.022
422.7226, 3772.421
423.2047, 3738.111
423.6868, 3726.753
424.1689, 3711.191
424.6510, 3673.645
425.1331, 3630.731
425.6153, 3600.273
426.0974, 3586.873
426.5795, 3578.409
427.0616, 3564.829
427.5437, 3548.333
428.0258, 3537.986
428.5080, 3537.349
428.9901, 3535.035
429.4722, 3517.570
429.9543, 3486.624
430.4364, 3464.208
430.9185, 3451.972
431.4007, 3448.165
431.8828, 3458.744
432.3649, 3476.637
432.8470, 3485.275
433.3291, 3477.322
433.8112, 3460.216
434.2934, 3448.209
434.7755, 3442.196
435.2576, 3440.123
435.7397, 3447.621
436.2218, 3453.730
436.7039, 3449.540
437.1861, 3437.904
437.6682, 3429.246
438.1503, 3432.161
438.6324, 3441.917
439.1145, 3439.768
439.5966, 3418.757
440.0788, 3403.575
440.5609, 3406.091
441.0430, 3414.830
441.5251, 3422.250
442.0072, 3427.281
442.4893, 3428.730
442.9715, 3422.548
443.4536, 3412.568
443.9357, 3408.724
444.4178, 3412.584
444.8999, 3418.063
445.3820, 3421.215
445.8642, 3422.302
446.3463, 3423.394
446.8284, 3420.174
447.3105, 3421.758
447.7926, 3434.839
448.2747, 3453.864
448.7569, 3473.353
449.2390, 3491.116
449.7211, 3500.797
450.2032, 3492.349
450.6853, 3460.330
451.1674, 3438.157
451.6496, 3439.944
452.1317, 3436.061
452.6138, 3406.035
453.0959, 3365.596
453.5780, 3343.486
454.0602, 3354.220
454.5423, 3378.401
455.0244, 3383.223
455.5065, 3366.223
455.9886, 3348.970
456.4707, 3332.153
456.9529, 3319.541
457.4350, 3316.341
457.9171, 3320.483
458.3992, 3320.720
458.8813, 3309.717
459.3634, 3294.430
459.8456, 3281.925
460.3277, 3272.181
460.8098, 3263.436
461.2919, 3253.718
461.7740, 3246.496
462.2561, 3251.016
462.7383, 3276.044
463.2204, 3292.073
463.7025, 3294.041
464.1846, 3287.903
464.6667, 3273.968
465.1488, 3255.427
465.6310, 3241.335
466.1131, 3239.196
466.5952, 3245.709
467.0773, 3244.503
467.5594, 3232.887
468.0415, 3218.244
468.5237, 3195.256
469.0058, 3174.689
469.4879, 3167.659
469.9700, 3174.514
470.4521, 3182.057
470.9342, 3178.470
471.4164, 3167.601
471.8985, 3161.681
472.3806, 3161.765
472.8627, 3163.438
473.3448, 3163.818
473.8269, 3164.225
474.3091, 3167.630
474.7912, 3174.284
475.2733, 3183.420
475.7554, 3199.045
476.2375, 3215.103
476.7196, 3221.824
477.2018, 3218.101
477.6839, 3212.207
478.1660, 3212.078
478.6481, 3217.711
479.1302, 3220.216
479.6123, 3222.718
480.0945, 3218.004
480.5766, 3198.574
481.0587, 3174.253
481.5408, 3155.271
482.0229, 3144.416
482.5050, 3138.050
482.9872, 3131.663
483.4693, 3125.562
483.9514, 3125.562
484.4335, 3135.094
484.9156, 3144.445
485.3977, 3148.665
485.8799, 3148.487
486.3620, 3143.376
486.8441, 3127.307
487.3262, 3116.756
487.8083, 3127.101
488.2904, 3149.601
488.7726, 3167.009
489.2547, 3175.278
489.7368, 3176.953
490.2189, 3172.861
490.7010, 3161.766
491.1831, 3161.784
491.6653, 3191.659
492.1474, 3209.620
492.6295, 3192.769
493.1116, 3161.002
493.5937, 3137.772
494.0758, 3131.498
494.5580, 3139.288
495.0401, 3166.466
495.5222, 3215.392
496.0043, 3230.466
496.4864, 3181.620
496.9685, 3142.193
497.4507, 3166.717
497.9328, 3225.386
498.4149, 3263.578
498.8970, 3261.319
499.3791, 3249.403
499.8612, 3251.615
500.3434, 3261.948
500.8255, 3264.164
501.3076, 3254.048
501.7897, 3241.202
502.2718, 3234.550
502.7539, 3234.101
503.2361, 3241.427
503.7182, 3259.822
504.2003, 3280.916
504.6824, 3307.010
505.1645, 3332.179
505.6466, 3347.388
506.1288, 3350.357
506.6109, 3350.060
507.0930, 3358.313
507.5751, 3375.606
508.0572, 3391.291
508.5393, 3406.014
509.0215, 3417.745
509.5036, 3421.922
509.9857, 3423.661
510.4678, 3432.064
510.9499, 3452.058
511.4320, 3471.517
511.9142, 3482.170
512.3963, 3486.043
512.8784, 3487.365
513.3605, 3486.967
513.8427, 3483.844
514.3248, 3474.727
514.8069, 3459.891
515.2890, 3462.142
515.7711, 3501.197
516.2532, 3530.940
516.7354, 3539.318
517.2175, 3534.334
517.6996, 3519.026
518.1817, 3497.118
518.6638, 3482.831
519.1459, 3496.574
519.6281, 3535.086
520.1102, 3555.934
520.5923, 3549.402
521.0744, 3546.095
521.5565, 3567.855
522.0386, 3597.756
522.5208, 3614.911
523.0029, 3615.027
523.4850, 3610.210
523.9671, 3602.635
524.4492, 3595.723
524.9313, 3592.190
525.4135, 3593.154
525.8956, 3606.750
526.3777, 3641.957
526.8598, 3692.347
527.3419, 3724.154
527.8240, 3715.860
528.3062, 3716.678
528.7883, 3741.783
529.2704, 3767.474
529.7525, 3775.481
530.2346, 3765.093
530.7167, 3746.636
531.1989, 3725.582
531.6810, 3703.263
532.1631, 3684.156
532.6452, 3669.057
533.1273, 3651.391
533.6094, 3625.848
534.0916, 3599.496
534.5737, 3581.623
535.0558, 3572.418
535.5379, 3565.538
536.0200, 3562.475
536.5021, 3558.481
536.9843, 3547.625
537.4664, 3532.098
537.9485, 3519.669
538.4306, 3514.506
538.9127, 3512.380
539.3948, 3505.363
539.8770, 3495.279
540.3591, 3475.670
540.8412, 3433.575
541.3233, 3394.676
541.8054, 3366.332
542.2875, 3350.032
542.7697, 3350.032
543.2518, 3373.946
543.7339, 3399.653
544.2160, 3398.746
544.6981, 3375.502
545.1802, 3352.903
545.6624, 3335.975
546.1445, 3319.315
546.6266, 3296.569
547.1087, 3268.109
547.5908, 3246.659
548.0729, 3231.538
548.5551, 3223.733
549.0372, 3233.269
549.5193, 3245.661
550.0014, 3236.393
550.4835, 3203.517
550.9656, 3176.177
551.4478, 3190.417
551.9299, 3241.533
552.4120, 3263.199
552.8941, 3242.546
553.3762, 3219.605
553.8583, 3202.978
554.3405, 3195.352
554.8226, 3206.032
555.3047, 3238.413
555.7868, 3259.811
556.2689, 3243.260
556.7510, 3213.309
557.2332, 3200.205
557.7153, 3204.352
558.1974, 3215.594
558.6795, 3230.632
559.1616, 3242.824
559.6437, 3233.738
560.1259, 3177.525
560.6080, 3149.074
561.0901, 3168.819
561.5722, 3192.901
562.0543, 3198.008
562.5364, 3188.732
563.0186, 3180.509
563.5007, 3181.860
563.9828, 3183.612
564.4649, 3170.110
564.9470, 3143.532
565.4291, 3122.319
565.9113, 3108.986
566.3934, 3104.885
566.8755, 3116.786
567.3576, 3142.464
567.8397, 3150.840
568.3218, 3126.928
568.8040, 3103.631
569.2861, 3089.020
569.7682, 3082.367
570.2503, 3087.104
570.7324, 3101.192
571.2145, 3111.220
571.6967, 3102.990
572.1788, 3079.810
572.6609, 3063.330
573.1430, 3052.897
573.6251, 3051.136
574.1072, 3070.958
574.5894, 3091.555
575.0715, 3088.343
575.5536, 3060.179
576.0357, 3039.051
576.5178, 3045.739
576.9999, 3058.383
577.4821, 3056.690
577.9642, 3042.477
578.4463, 3023.828
578.9284, 3003.808
579.4105, 2984.371
579.8926, 2967.510
580.3748, 2949.746
580.8569, 2947.769
581.3390, 2987.025
581.8211, 3015.553
582.3032, 3009.597
582.7853, 2985.195
583.2675, 2965.258
583.7496, 2956.370
584.2317, 2952.667
584.7138, 2954.168
585.1959, 2956.321
585.6780, 2942.398
586.1602, 2910.430
586.6422, 2889.489
587.1243, 2903.343
587.6064, 2938.516
588.0886, 2948.638
588.5707, 2907.736
589.0528, 2879.667
589.5349, 2872.116
590.0170, 2872.234
590.4991, 2875.051
590.9813, 2877.896
591.4634, 2876.572
591.9455, 2867.879
592.4276, 2856.773
592.9097, 2851.540
593.3918, 2852.017
593.8740, 2853.868
594.3561, 2857.560
594.8382, 2859.575
595.3203, 2857.903
595.8024, 2851.926
596.2845, 2839.702
596.7667, 2804.382
597.2488, 2783.244
597.7309, 2800.986
598.2130, 2831.156
598.6951, 2844.769
599.1772, 2838.352
599.6594, 2824.192
600.1415, 2809.934
600.6236, 2798.116
601.1057, 2801.885
601.5878, 2827.565
602.0699, 2841.632
602.5521, 2831.520
603.0342, 2810.465
603.5163, 2785.591
603.9984, 2758.749
604.4805, 2746.546
604.9626, 2766.451
605.4448, 2788.755
605.9269, 2794.783
606.4090, 2789.965
606.8911, 2784.716
607.3732, 2781.872
607.8553, 2777.036
608.3375, 2762.851
608.8196, 2740.433
609.3017, 2739.204
609.7838, 2775.899
610.2659, 2801.980
610.7480, 2791.620
611.2302, 2771.631
611.7123, 2766.706
612.1944, 2778.191
612.6765, 2786.416
613.1586, 2781.212
613.6407, 2770.189
614.1229, 2757.522
614.6050, 2745.394
615.0871, 2740.038
615.5692, 2743.945
616.0513, 2751.314
616.5334, 2752.607
617.0156, 2745.345
617.4977, 2753.079
617.9798, 2801.478
618.4619, 2830.315
618.9440, 2799.657
619.4261, 2754.193
619.9083, 2748.997
620.3904, 2793.444
620.8725, 2835.724
621.3546, 2840.080
621.8367, 2826.588
622.3188, 2821.416
622.8010, 2824.681
623.2831, 2828.365
623.7652, 2828.497
624.2473, 2830.273
624.7294, 2844.269
625.2115, 2877.102
625.6937, 2895.508
626.1758, 2889.788
626.6579, 2880.009
627.1400, 2867.551
627.6221, 2856.340
628.1042, 2849.429
628.5864, 2847.379
629.0685, 2855.435
629.5506, 2887.568
630.0327, 2928.256
630.5148, 2946.532
630.9969, 2943.371
631.4791, 2943.793
631.9612, 2960.538
632.4433, 2984.862
632.9254, 2998.589
633.4075, 2992.192
633.8896, 3004.583
634.3718, 3048.183
634.8539, 3096.008
635.3360, 3144.868
635.8181, 3189.440
636.3002, 3220.285
636.7823, 3234.313
637.2645, 3249.073
637.7466, 3282.044
638.2287, 3324.437
638.7108, 3355.008
639.1929, 3374.138
639.6750, 3403.346
640.1572, 3455.542
640.6393, 3518.641
641.1214, 3568.261
641.6035, 3596.550
642.0856, 3634.399
642.5677, 3681.411
643.0499, 3737.940
643.5320, 3808.804
644.0141, 3887.577
644.4962, 3964.409
644.9783, 4036.843
645.4604, 4111.138
645.9426, 4194.341
646.4247, 4281.928
646.9068, 4368.247
647.3889, 4451.828
647.8710, 4520.617
648.3531, 4564.745
648.8353, 4601.733
649.3174, 4665.518
649.7995, 4766.074
650.2816, 4860.000
650.7637, 4965.196
651.2458, 5043.207
651.7280, 5056.289
652.2101, 5044.795
652.6922, 5071.343
653.1743, 5152.002
653.6564, 5216.027
654.1385, 5197.185
654.6207, 5136.145
655.1028, 5095.988
655.5849, 5078.054
656.0670, 5067.913
656.5491, 5060.342
657.0313, 5051.283
657.5134, 5032.317
657.9955, 4997.680
658.4776, 4979.339
658.9597, 4976.875
659.4418, 4992.469
659.9240, 5040.508
660.4061, 5099.603
660.8882, 5141.434
661.3703, 5161.147
661.8524, 5188.965
662.3345, 5244.269
662.8167, 5316.509
663.2988, 5394.872
663.7809, 5477.688
664.2630, 5561.720
664.7451, 5645.276
665.2272, 5730.854
665.7094, 5823.489
666.1915, 5925.133
666.6736, 6007.575
667.1557, 6056.222
667.6378, 6107.768
668.1199, 6182.464
668.6021, 6257.860
669.0842, 6319.803
669.5663, 6365.353
670.0484, 6375.327
670.5305, 6325.155
671.0126, 6249.830
671.4948, 6184.690
671.9769, 6118.200
672.4590, 6017.403
672.9411, 5874.427
673.4232, 5716.030
673.9053, 5571.569
674.3875, 5439.057
674.8696, 5291.719
675.3517, 5118.539
675.8338, 4958.209
676.3159, 4830.959
676.7980, 4711.293
677.2802, 4573.649
677.7623, 4420.734
678.2444, 4279.071
678.7265, 4159.119
679.2086, 4047.252
679.6907, 3932.266
680.1729, 3822.684
680.6550, 3731.855
681.1371, 3660.692
681.6192, 3600.398
682.1013, 3546.717
682.5834, 3494.963
683.0656, 3426.996
683.5477, 3338.598
684.0298, 3267.923
684.5119, 3225.898
684.9940, 3196.470
685.4761, 3171.023
685.9583, 3147.873
686.4404, 3118.368
686.9225, 3073.281
687.4046, 3034.127
687.8867, 3009.658
688.3688, 2989.867
688.8510, 2966.091
689.3331, 2938.900
689.8152, 2912.541
690.2973, 2888.658
