##NAMES=Ferro-edenite
##RRUFFID=R060044
##IDEAL CHEMISTRY=NaCa_2_Fe^2+^_5_(Si_7_Al)O_22_(OH)_2_
##LOCALITY=Barkevik, Norway
##OWNER=RRUFF
##SOURCE=University of Arizona Mineral Museum
##DESCRIPTION=Black cleavage fragment
##STATUS=The identification of this mineral has been confirmed by X-ray diffraction and chemical analysis
##URL=rruff.info/R060044
##MEASURED CHEMISTRY=(Na_0.68_K_0.32_)(Ca_1.50_Na_0.50_)_Σ=2_(Fe^2+^_3.50_Mg_0.75_Fe^3+^_0.25_Ti_0.25_Mn_0.20_Al_0.05_)_Σ=5_(Si_6.64_Al_1.36_)_Σ=8_O_22_(OH)_2_
181.7152, 54.24508
182.1974, 54.30042
182.6795, 54.27500
183.1616, 54.06938
183.6437, 53.78844
184.1258, 53.61115
184.6079, 53.64502
185.0900, 53.86071
185.5722, 54.07367
186.0543, 54.43030
186.5364, 54.63900
187.0185, 54.44763
187.5006, 53.98487
187.9827, 53.66637
188.4649, 53.79776
188.9470, 54.26555
189.4291, 54.49493
189.9112, 54.30952
190.3933, 54.05725
190.8754, 53.95259
191.3576, 53.98737
191.8397, 54.05309
192.3218, 54.05851
192.8039, 54.06343
193.2860, 54.19828
193.7681, 54.56336
194.2503, 54.98852
194.7324, 55.30355
195.2145, 55.50200
195.6966, 55.64299
196.1787, 55.76925
196.6608, 55.85363
197.1430, 55.84512
197.6251, 55.69878
198.1072, 55.48167
198.5893, 55.26693
199.0714, 54.98769
199.5535, 54.89661
200.0357, 55.27712
200.5178, 55.83142
200.9999, 56.19889
201.4820, 56.17417
201.9641, 55.92128
202.4462, 55.90451
202.9284, 56.24644
203.4105, 56.63973
203.8926, 57.07440
204.3747, 57.47899
204.8568, 57.76051
205.3389, 57.85887
205.8211, 57.80704
206.3032, 57.74425
206.7853, 57.58058
207.2674, 57.52635
207.7495, 57.68962
208.2316, 57.96818
208.7138, 58.21447
209.1959, 58.33434
209.6780, 58.35494
210.1601, 58.46980
210.6422, 58.91530
211.1243, 59.20643
211.6065, 59.12827
212.0886, 58.85114
212.5707, 58.66131
213.0528, 58.74781
213.5349, 59.07727
214.0170, 59.32838
214.4992, 59.53422
214.9813, 59.63668
215.4634, 59.53645
215.9455, 59.31704
216.4276, 59.15110
216.9097, 59.15614
217.3919, 59.30906
217.8740, 59.39061
218.3561, 59.38939
218.8382, 59.34788
219.3203, 59.22430
219.8024, 59.06233
220.2845, 58.99663
220.7667, 59.13935
221.2488, 59.43496
221.7309, 59.56895
222.2130, 59.45220
222.6951, 59.28280
223.1772, 59.15251
223.6594, 59.05236
224.1415, 58.93586
224.6236, 58.77186
225.1057, 58.57186
225.5878, 58.38252
226.0699, 58.20008
226.5521, 58.03068
227.0342, 57.90393
227.5163, 57.81113
227.9984, 57.65458
228.4805, 57.31384
228.9626, 56.91323
229.4448, 56.69527
229.9269, 56.75590
230.4090, 56.87794
230.8911, 56.88289
231.3732, 56.77018
231.8553, 56.63906
232.3375, 56.57885
232.8196, 56.49327
233.3017, 56.22588
233.7838, 55.67554
234.2659, 55.14503
234.7480, 55.04890
235.2302, 55.45025
235.7123, 55.67358
236.1944, 55.28632
236.6765, 54.70557
237.1586, 54.25538
237.6407, 54.00151
238.1229, 53.86981
238.6050, 53.79264
239.0871, 53.78007
239.5692, 53.77016
240.0513, 53.82353
240.5334, 53.82673
241.0156, 53.66307
241.4977, 53.30654
241.9798, 52.89840
242.4619, 52.62998
242.9440, 52.53694
243.4261, 52.44493
243.9083, 52.37594
244.3904, 52.26508
244.8725, 52.03635
245.3546, 51.68440
245.8367, 51.31297
246.3188, 51.06169
246.8010, 50.95371
247.2831, 50.90013
247.7652, 51.01820
248.2473, 51.09575
248.7294, 50.97793
249.2115, 50.65373
249.6937, 50.24829
250.1758, 49.89173
250.6579, 49.51985
251.1400, 49.38565
251.6221, 49.73162
252.1042, 50.09687
252.5864, 50.20512
253.0685, 50.03801
253.5506, 49.76766
254.0327, 49.60446
254.5148, 49.60773
254.9969, 49.52884
255.4790, 49.34477
255.9612, 49.11375
256.4433, 48.82582
256.9254, 48.50645
257.4075, 48.22562
257.8896, 48.06352
258.3718, 48.04286
258.8539, 48.04894
259.3360, 48.07970
259.8181, 48.13221
260.3002, 47.96083
260.7823, 48.27184
261.2645, 48.44250
261.7466, 48.48038
262.2287, 47.98775
262.7108, 48.18016
263.1929, 48.09805
263.6750, 48.00467
264.1572, 48.29350
264.6393, 47.87803
265.1214, 48.16079
265.6035, 48.16484
266.0856, 48.29645
266.5677, 48.15182
267.0499, 48.09252
267.5320, 48.30954
268.0141, 48.37355
268.4962, 48.19713
268.9783, 48.33685
269.4604, 47.91173
269.9426, 47.98226
270.4247, 48.26664
270.9068, 48.10411
271.3889, 48.24888
271.8710, 48.27661
272.3531, 47.77246
272.8352, 48.19330
273.3174, 48.21411
273.7995, 47.82418
274.2816, 48.04201
274.7637, 47.89162
275.2458, 47.76926
275.7279, 47.80890
276.2101, 47.93433
276.6922, 47.97942
277.1743, 47.85950
277.6564, 47.63073
278.1385, 47.44219
278.6206, 47.28320
279.1028, 47.16972
279.5849, 47.09240
280.0670, 47.06599
280.5491, 47.14317
281.0312, 47.36530
281.5133, 47.63185
281.9955, 47.75316
282.4776, 47.74688
282.9597, 47.60964
283.4418, 47.19061
283.9239, 46.67510
284.4060, 46.37620
284.8882, 46.39272
285.3703, 46.54274
285.8524, 46.55610
286.3345, 46.41027
286.8166, 46.38159
287.2987, 46.73864
287.7809, 47.16071
288.2630, 47.15240
288.7451, 46.59310
289.2272, 45.94880
289.7093, 45.75403
290.1914, 45.97855
290.6736, 46.13326
291.1557, 46.13929
291.6378, 46.04538
292.1199, 45.83867
292.6020, 45.51157
293.0841, 45.28659
293.5663, 45.44512
294.0484, 45.88855
294.5305, 46.08781
295.0126, 45.71914
295.4947, 45.27196
295.9768, 45.24083
296.4590, 45.61761
296.9411, 45.95044
297.4232, 45.94288
297.9053, 45.67362
298.3874, 45.44051
298.8695, 45.25948
299.3517, 45.10750
299.8338, 44.97670
300.3159, 44.86501
300.7980, 44.76130
301.2801, 44.66294
301.7622, 44.56898
302.2444, 44.48014
302.7265, 44.40547
303.2086, 44.31504
303.6907, 44.13439
304.1728, 43.91007
304.6549, 43.83659
305.1371, 44.03699
305.6192, 44.32892
306.1013, 44.44797
306.5834, 44.38998
307.0655, 44.27053
307.5476, 44.10378
308.0298, 43.91312
308.5119, 43.75479
308.9940, 43.64651
309.4761, 43.55701
309.9582, 43.44959
310.4403, 43.32658
310.9225, 43.21375
311.4046, 43.09896
311.8867, 43.00510
312.3688, 43.00647
312.8509, 43.13818
313.3330, 43.21128
313.8152, 42.94489
314.2973, 42.46523
314.7794, 42.20289
315.2615, 42.44321
315.7436, 42.82175
316.2257, 42.94076
316.7079, 42.78658
317.1900, 42.55372
317.6721, 42.31090
318.1542, 42.08648
318.6363, 41.94522
319.1184, 41.96248
319.6006, 41.97803
320.0827, 41.81982
320.5648, 41.51927
321.0469, 41.32610
321.5290, 41.40317
322.0111, 41.60180
322.4933, 41.62208
322.9754, 41.39253
323.4575, 41.20498
323.9396, 41.29599
324.4217, 41.56274
324.9038, 41.66312
325.3860, 41.44370
325.8681, 41.13725
326.3502, 41.11317
326.8323, 41.37532
327.3144, 41.50784
327.7965, 41.25751
328.2787, 40.81183
328.7608, 40.47125
329.2429, 40.28054
329.7250, 39.95347
330.2071, 40.25079
330.6892, 40.40778
331.1714, 40.43198
331.6535, 39.92567
332.1356, 40.10440
332.6177, 40.00860
333.0998, 39.90154
333.5819, 40.17669
334.0641, 39.74754
334.5462, 40.01662
335.0283, 40.00699
335.5104, 40.12492
335.9925, 39.96662
336.4746, 39.89363
336.9568, 40.09697
337.4389, 40.14730
337.9210, 39.95721
338.4031, 40.08324
338.8852, 39.64444
339.3673, 39.70129
339.8495, 39.85159
340.3316, 39.93255
340.8137, 39.97370
341.2958, 39.93921
341.7779, 39.80611
342.2600, 39.63886
342.7421, 39.52159
343.2242, 39.44980
343.7064, 39.43111
344.1885, 39.51761
344.6706, 39.63288
345.1527, 39.69894
345.6348, 39.70436
346.1169, 39.65992
346.5991, 39.56635
347.0812, 39.41939
347.5633, 39.27845
348.0454, 39.07404
348.5275, 38.93171
349.0096, 39.02742
349.4918, 39.29761
349.9739, 39.42800
350.4560, 39.19062
350.9381, 38.67820
351.4202, 38.36073
351.9023, 38.41258
352.3845, 38.42472
352.8666, 38.13941
353.3487, 37.74706
353.8308, 37.65592
354.3129, 38.05550
354.7950, 38.64516
355.2772, 38.81488
355.7593, 38.30248
356.2414, 37.94708
356.7235, 37.90067
357.2056, 38.00167
357.6877, 38.13924
358.1699, 38.27822
358.6520, 38.34828
359.1341, 38.25348
359.6162, 37.94269
360.0983, 37.74945
360.5804, 37.75265
361.0626, 37.78822
361.5447, 37.76760
362.0268, 37.69893
362.5089, 37.63011
362.9910, 37.58923
363.4731, 37.57965
363.9553, 37.63744
364.4374, 37.85862
364.9195, 38.03067
365.4016, 38.17704
365.8837, 38.22833
366.3658, 38.01987
366.8480, 37.48481
367.3301, 36.84364
367.8122, 36.58249
368.2943, 37.02718
368.7764, 37.37041
369.2585, 37.58587
369.7407, 37.72697
370.2228, 37.86244
370.7049, 37.98518
371.1870, 37.99490
371.6691, 37.74322
372.1512, 37.14972
372.6334, 36.79448
373.1155, 36.87708
373.5976, 36.98748
374.0797, 36.99126
374.5618, 36.90525
375.0439, 36.79932
375.5261, 36.72037
376.0082, 36.65580
376.4903, 36.54301
376.9724, 36.38811
377.4545, 36.16619
377.9366, 35.76532
378.4188, 35.35170
378.9009, 35.10364
379.3830, 35.07961
379.8651, 35.18383
380.3472, 35.27847
380.8293, 35.37276
381.3115, 35.42798
381.7936, 35.42187
382.2757, 35.39139
382.7578, 35.34876
383.2399, 35.29757
383.7220, 35.24341
384.2042, 35.21740
384.6863, 35.20980
385.1684, 35.05397
385.6505, 34.55339
386.1326, 34.18815
386.6147, 34.25691
387.0969, 34.54813
387.5790, 34.71312
388.0611, 34.57207
388.5432, 34.28361
389.0253, 34.16167
389.5074, 34.26443
389.9896, 34.27252
390.4717, 33.97242
390.9538, 33.59307
391.4359, 33.29651
391.9180, 33.10402
392.4001, 33.02530
392.8823, 33.14816
393.3644, 33.42589
393.8465, 33.55820
394.3286, 33.44652
394.8107, 33.26315
395.2928, 33.08433
395.7750, 32.93628
396.2571, 32.93935
396.7392, 33.38308
397.2213, 33.89374
397.7034, 33.81492
398.1855, 33.08537
398.6677, 32.46842
399.1498, 32.47834
399.6319, 32.88390
400.1140, 33.11861
400.5961, 33.10439
401.0782, 33.01341
401.5604, 32.92919
402.0425, 32.84571
402.5246, 32.74439
403.0067, 32.61880
403.4888, 32.47421
403.9709, 32.29351
404.4531, 32.05655
404.9352, 31.92414
405.4173, 32.01271
405.8994, 32.16591
406.3815, 32.21120
406.8636, 32.14248
407.3458, 32.09544
407.8279, 32.20057
408.3100, 32.43943
408.7921, 32.50906
409.2742, 32.23156
409.7563, 32.00461
410.2385, 32.00412
410.7206, 32.14964
411.2027, 32.30674
411.6848, 32.42072
412.1669, 32.48830
412.6490, 32.50010
413.1311, 32.41896
413.6133, 32.34036
414.0954, 32.26575
414.5775, 32.19265
415.0596, 32.08671
415.5417, 31.96654
416.0238, 31.92272
416.5060, 32.06141
416.9881, 32.39034
417.4702, 32.57624
417.9523, 32.44290
418.4344, 32.35370
418.9165, 32.45689
419.3987, 32.63859
419.8808, 32.72029
420.3629, 32.61798
420.8450, 32.41985
421.3271, 32.31689
421.8092, 32.35637
422.2914, 32.37340
422.7735, 32.30573
423.2556, 32.24488
423.7377, 32.24805
424.2198, 32.31764
424.7019, 32.42075
425.1841, 32.57598
425.6662, 32.76554
426.1483, 32.76673
426.6304, 32.43808
427.1125, 32.15091
427.5946, 32.12156
428.0768, 32.22382
428.5589, 32.26574
429.0410, 32.15910
429.5231, 32.01637
430.0052, 32.01917
430.4873, 32.17324
430.9695, 32.21197
431.4516, 31.98877
431.9337, 31.67945
432.4158, 31.46736
432.8979, 31.35238
433.3800, 31.30584
433.8622, 31.40170
434.3443, 31.53241
434.8264, 31.46053
435.3085, 31.13771
435.7906, 30.84397
436.2727, 30.84272
436.7549, 31.05145
437.2370, 31.06687
437.7191, 30.66282
438.2012, 30.28012
438.6833, 30.14771
439.1654, 30.21575
439.6476, 30.40726
440.1297, 30.72240
440.6118, 31.01752
441.0939, 31.02315
441.5760, 30.59341
442.0581, 30.27143
442.5403, 30.14618
443.0224, 30.09017
443.5045, 29.99552
443.9866, 29.86814
444.4687, 29.80267
444.9508, 29.89072
445.4330, 30.10618
445.9151, 30.15633
446.3972, 29.86029
446.8793, 29.61118
447.3614, 29.42036
447.8435, 29.32736
448.3257, 29.43659
448.8078, 29.75862
449.2899, 30.09590
449.7720, 30.11877
450.2541, 29.68561
450.7362, 29.43090
451.2184, 29.51569
451.7005, 29.63350
452.1826, 29.69122
452.6647, 29.68330
453.1468, 29.61956
453.6289, 29.48656
454.1111, 29.32427
454.5932, 29.24420
455.0753, 29.26159
455.5574, 29.31344
456.0395, 29.43455
456.5216, 29.54942
457.0038, 29.59939
457.4859, 29.57634
457.9680, 29.49590
458.4501, 29.32751
458.9322, 29.10491
459.4143, 28.96063
459.8965, 28.92116
460.3786, 28.92692
460.8607, 28.93760
461.3428, 28.95820
461.8249, 29.00796
462.3070, 29.16162
462.7892, 29.27573
463.2713, 29.20361
463.7534, 28.99010
464.2355, 28.79375
464.7176, 28.66247
465.1997, 28.60463
465.6819, 28.66990
466.1640, 28.92556
466.6461, 29.03848
467.1282, 28.81308
467.6103, 28.54450
468.0924, 28.48378
468.5746, 28.62814
469.0567, 28.83530
469.5388, 29.01107
470.0209, 29.15304
470.5030, 29.24667
470.9851, 29.28266
471.4673, 29.27787
471.9494, 29.20214
472.4315, 29.10311
472.9136, 29.02229
473.3957, 28.97234
473.8778, 28.94785
474.3600, 28.94671
474.8421, 28.97317
475.3242, 28.99034
475.8063, 28.94840
476.2884, 28.95281
476.7705, 29.09201
477.2527, 29.28944
477.7348, 29.41678
478.2169, 29.41131
478.6990, 29.32805
479.1811, 29.23557
479.6632, 29.12467
480.1454, 29.08216
480.6275, 29.15947
481.1096, 29.28564
481.5917, 29.40437
482.0738, 29.51532
482.5559, 29.62975
483.0380, 29.79533
483.5201, 29.95131
484.0023, 29.99710
484.4844, 29.92784
484.9665, 29.77320
485.4486, 29.45877
485.9307, 29.12272
486.4128, 29.13345
486.8950, 29.66273
487.3771, 30.14927
487.8592, 30.44357
488.3413, 30.56442
488.8234, 30.44992
489.3055, 30.10960
489.7877, 29.83548
490.2698, 29.95057
490.7519, 30.48728
491.2340, 30.77701
491.7161, 30.70111
492.1982, 30.56415
492.6804, 30.37784
493.1625, 30.21582
493.6446, 30.19817
494.1267, 30.36384
494.6088, 30.59738
495.0909, 30.69473
495.5731, 30.58580
496.0552, 30.56407
496.5373, 30.70980
497.0194, 30.86971
497.5015, 30.97932
497.9836, 31.05508
498.4658, 31.15174
498.9479, 31.31605
499.4300, 31.48484
499.9121, 31.50860
500.3942, 31.35622
500.8763, 31.24637
501.3585, 31.21207
501.8406, 31.27524
502.3227, 31.52206
502.8048, 31.93994
503.2869, 32.22010
503.7690, 32.10611
504.2512, 31.81170
504.7333, 31.63825
505.2154, 31.60177
505.6975, 31.68705
506.1796, 31.94823
506.6617, 32.29083
507.1439, 32.40238
507.6260, 32.13583
508.1081, 31.94939
508.5902, 32.03388
509.0723, 32.22697
509.5544, 32.33538
510.0366, 32.33176
510.5187, 32.32475
511.0008, 32.42084
511.4829, 32.61956
511.9650, 32.76793
512.4471, 32.82448
512.9293, 32.87999
513.4114, 32.92799
513.8935, 32.99479
514.3756, 33.12880
514.8577, 33.33686
515.3398, 33.54693
515.8220, 33.65269
516.3041, 33.64085
516.7862, 33.66580
517.2683, 33.72307
517.7504, 33.82908
518.2325, 34.07252
518.7147, 34.34662
519.1968, 34.45225
519.6789, 34.27876
520.1610, 34.02392
520.6431, 33.90290
521.1252, 33.90239
521.6074, 33.91053
522.0895, 33.89049
522.5716, 33.89296
523.0537, 34.00371
523.5358, 34.20514
524.0179, 34.35919
524.5001, 34.46131
524.9822, 34.49363
525.4643, 34.38448
525.9464, 34.18958
526.4285, 34.07875
526.9106, 34.13076
527.3928, 34.26266
527.8749, 34.31421
528.3570, 34.20568
528.8391, 34.20739
529.3212, 34.47693
529.8033, 34.70391
530.2855, 34.69411
530.7676, 34.49601
531.2497, 34.25158
531.7318, 34.03755
532.2139, 33.86057
532.6960, 33.73964
533.1782, 33.68143
533.6603, 33.66060
534.1424, 33.79112
534.6245, 33.86340
535.1066, 33.69444
535.5887, 33.33102
536.0709, 33.01078
536.5530, 32.88420
537.0351, 32.88409
537.5172, 32.89991
537.9993, 32.93269
538.4814, 32.96468
538.9636, 33.01568
539.4457, 33.03472
539.9278, 32.91874
540.4099, 32.64096
540.8920, 32.40905
541.3741, 32.27050
541.8563, 32.20957
542.3384, 32.26463
542.8205, 32.40305
543.3026, 32.46905
543.7847, 32.35801
544.2668, 32.11442
544.7490, 31.90094
545.2311, 31.72203
545.7132, 31.57083
546.1953, 31.44407
546.6774, 31.34651
547.1595, 31.30401
547.6417, 31.29999
548.1238, 31.27316
548.6059, 31.16849
549.0880, 31.01121
549.5701, 30.90255
550.0522, 30.85991
550.5344, 30.82264
551.0165, 30.80406
551.4986, 30.76289
551.9807, 30.64875
552.4628, 30.46180
552.9449, 30.28492
553.4271, 30.16832
553.9092, 30.09257
554.3913, 30.04163
554.8734, 30.01510
555.3555, 29.93229
555.8376, 29.70009
556.3198, 29.42319
556.8019, 29.41544
557.2840, 29.85917
557.7661, 30.07549
558.2482, 29.73826
558.7303, 29.25747
559.2125, 28.98125
559.6946, 28.92727
560.1767, 28.94991
560.6588, 28.95202
561.1409, 28.93859
561.6230, 28.92879
562.1052, 28.90053
562.5873, 28.91610
563.0694, 29.11785
563.5515, 29.25381
564.0336, 29.08347
564.5157, 28.64955
564.9979, 28.22209
565.4800, 27.97087
565.9621, 27.86890
566.4442, 27.88662
566.9263, 28.05118
567.4084, 28.14634
567.8906, 28.05142
568.3727, 27.88099
568.8548, 27.79911
569.3369, 27.81317
569.8190, 27.79141
570.3011, 27.56425
570.7833, 27.36703
571.2654, 27.55723
571.7475, 28.04754
572.2296, 28.35916
572.7117, 28.23159
573.1938, 27.80029
573.6760, 27.37850
574.1581, 26.87839
574.6402, 26.56715
575.1223, 26.55627
575.6044, 26.61917
576.0865, 26.66175
576.5687, 26.66311
577.0508, 26.60589
577.5329, 26.47122
578.0150, 26.30812
578.4971, 26.24716
578.9792, 26.32272
579.4614, 26.30120
579.9435, 26.05766
580.4256, 25.79503
580.9077, 25.65582
581.3898, 25.62377
581.8719, 25.62797
582.3541, 25.65451
582.8362, 25.69702
583.3183, 25.79481
583.8004, 25.91239
584.2825, 25.87817
584.7646, 25.60962
585.2468, 25.31466
585.7289, 25.28672
586.2110, 25.60450
586.6931, 25.72311
587.1752, 25.45103
587.6573, 25.20103
588.1394, 25.15817
588.6215, 25.24087
589.1036, 25.32837
589.5858, 25.37400
590.0679, 25.37304
590.5500, 25.28532
591.0321, 25.08993
591.5142, 25.03613
591.9963, 25.19699
592.4785, 25.39548
592.9606, 25.61625
593.4427, 25.80345
593.9248, 25.85441
594.4069, 25.71916
594.8890, 25.57887
595.3712, 25.61915
595.8533, 25.74499
596.3354, 25.70028
596.8175, 25.44327
597.2996, 25.20122
597.7817, 25.13343
598.2639, 25.21807
598.7460, 25.34392
599.2281, 25.46885
599.7102, 25.68480
600.1923, 26.20401
600.6744, 26.68367
601.1566, 26.73850
601.6387, 26.40700
602.1208, 26.04339
602.6029, 25.90471
603.0850, 25.96148
603.5671, 26.13578
604.0493, 26.53332
604.5314, 26.76469
605.0135, 26.56790
605.4956, 26.31148
605.9777, 26.22726
606.4598, 26.31403
606.9420, 26.46878
607.4241, 26.74499
607.9062, 26.99491
608.3883, 26.96540
608.8704, 26.71732
609.3525, 26.60376
609.8347, 26.76917
610.3168, 27.04507
610.7989, 27.20940
611.2810, 27.24542
611.7631, 27.23305
612.2452, 27.05595
612.7274, 26.95819
613.2095, 27.12992
613.6916, 27.41865
614.1737, 27.59478
614.6558, 27.58052
615.1379, 27.46094
615.6201, 27.28577
616.1022, 27.04777
616.5843, 27.06215
617.0664, 27.49446
617.5485, 27.88331
618.0306, 27.95378
618.5128, 27.88675
618.9949, 27.90273
619.4770, 28.04700
619.9591, 28.19565
620.4412, 28.27123
620.9233, 28.31104
621.4055, 28.36295
621.8876, 28.43323
622.3697, 28.52789
622.8518, 28.65287
623.3339, 28.80115
623.8160, 28.95329
624.2982, 29.13296
624.7803, 29.27577
625.2624, 29.32795
625.7445, 29.39311
626.2266, 29.55487
626.7087, 29.78106
627.1909, 29.98618
627.6730, 30.12496
628.1551, 30.21973
628.6372, 30.29398
629.1193, 30.34644
629.6014, 30.42565
630.0836, 30.52985
630.5657, 30.67662
631.0478, 30.92875
631.5299, 31.23464
632.0120, 31.46173
632.4941, 31.56403
632.9763, 31.62284
633.4584, 31.62330
633.9405, 31.62811
634.4226, 31.76078
634.9047, 32.02660
635.3868, 32.28160
635.8690, 32.39618
636.3511, 32.39773
636.8332, 32.47603
637.3153, 32.64915
637.7974, 32.87445
638.2795, 33.12812
638.7617, 33.43871
639.2438, 33.89850
639.7259, 34.45207
640.2080, 34.87837
640.6901, 35.00341
641.1722, 34.99092
641.6544, 35.05053
642.1365, 35.18665
642.6186, 35.46988
643.1007, 35.95757
643.5828, 36.49332
644.0649, 36.91980
644.5471, 37.23040
645.0292, 37.47954
645.5113, 37.54885
645.9934, 37.69482
646.4755, 38.11060
646.9576, 38.60721
647.4398, 38.90677
647.9219, 38.97736
648.4040, 39.03820
648.8861, 39.30385
649.3682, 39.74184
649.8503, 40.15888
650.3325, 40.55974
650.8146, 40.91818
651.2967, 41.20275
651.7788, 41.45481
652.2609, 41.72405
652.7430, 42.00667
653.2252, 42.24251
653.7073, 42.38540
654.1894, 42.49152
654.6715, 42.62952
655.1536, 42.77348
655.6357, 42.84738
656.1179, 42.82521
656.6000, 42.72550
657.0821, 42.55988
657.5642, 42.31516
658.0463, 42.12943
658.5284, 41.92482
659.0106, 41.88054
659.4927, 42.29459
659.9748, 42.73317
660.4569, 42.63321
660.9390, 41.96404
661.4211, 41.37732
661.9033, 41.56455
662.3854, 42.12683
662.8675, 42.13346
663.3496, 41.58319
663.8317, 41.07875
664.3138, 40.89172
664.7960, 40.77858
665.2781, 40.34521
665.7602, 39.49901
666.2423, 38.86749
666.7244, 38.64824
667.2065, 38.44734
667.6887, 38.02344
668.1708, 37.53095
668.6529, 37.25901
669.1350, 37.26177
669.6171, 37.24623
670.0992, 36.85379
670.5814, 36.13923
671.0635, 35.59068
671.5456, 35.22578
672.0277, 34.97455
672.5098, 34.95375
672.9919, 34.92250
673.4741, 34.50787
673.9562, 33.69009
674.4383, 33.10559
674.9204, 33.16248
675.4025, 33.30678
