##NAMES=Ferroericssonite
##RRUFFID=R070406
##IDEAL CHEMISTRY=BaFe^2+^_2_Fe^3+^(Si_2_O_7_)O(OH)
##LOCALITY=Big Creek, Fresno County, California, USA
##OWNER=RRUFF
##SOURCE=Michael Scott
##DESCRIPTION=Dark reddish brown platy crystals, associated with dark brown titantaramellite, prismatic pale-green ferro-actinolite, quartz, and devitoite, R120091.
##STATUS=The identification of this mineral has been confirmed by single-crystal X-ray diffraction.
##URL=rruff.info/R070406
148.6976, 870.0856
149.1797, 872.6267
149.6618, 874.9033
150.1439, 881.4408
150.6261, 898.7054
151.1082, 914.3525
151.5903, 923.9033
152.0724, 921.5225
152.5545, 925.9365
153.0366, 944.2614
153.5188, 970.0577
154.0009, 990.5801
154.4830, 1001.925
154.9651, 1009.397
155.4472, 1015.646
155.9293, 1023.276
156.4115, 1026.326
156.8936, 1019.022
157.3757, 1005.036
157.8578, 996.9666
158.3399, 1003.141
158.8221, 1013.703
159.3042, 1022.282
159.7863, 1026.531
160.2684, 1029.389
160.7505, 1029.749
161.2326, 1028.342
161.7148, 1030.855
162.1969, 1045.045
162.6790, 1062.298
163.1611, 1074.130
163.6432, 1075.322
164.1253, 1072.480
164.6075, 1065.917
165.0896, 1055.532
165.5717, 1051.094
166.0538, 1062.688
166.5359, 1082.893
167.0180, 1101.067
167.5002, 1112.657
167.9823, 1120.813
168.4644, 1127.153
168.9465, 1131.488
169.4286, 1136.147
169.9107, 1142.294
170.3929, 1149.969
170.8750, 1159.427
171.3571, 1173.029
171.8392, 1187.409
172.3213, 1198.394
172.8034, 1204.498
173.2856, 1210.013
173.7677, 1219.549
174.2498, 1232.065
174.7319, 1243.809
175.2140, 1251.005
175.6961, 1256.354
176.1783, 1264.040
176.6604, 1275.090
177.1425, 1288.031
177.6246, 1302.209
178.1067, 1317.171
178.5888, 1330.934
179.0710, 1339.502
179.5531, 1345.605
180.0352, 1355.316
180.5173, 1370.707
180.9994, 1389.645
181.4815, 1409.885
181.9637, 1431.490
182.4458, 1450.853
182.9279, 1462.578
183.4100, 1468.964
183.8921, 1479.258
184.3742, 1499.036
184.8564, 1523.157
185.3385, 1538.459
185.8206, 1544.618
186.3027, 1547.464
186.7848, 1550.731
187.2669, 1554.905
187.7491, 1563.545
188.2312, 1576.755
188.7133, 1595.242
189.1954, 1628.071
189.6775, 1679.258
190.1596, 1725.735
190.6418, 1732.931
191.1239, 1701.778
191.6060, 1673.322
192.0881, 1666.310
192.5702, 1678.151
193.0524, 1685.325
193.5345, 1686.240
194.0166, 1686.560
194.4987, 1697.409
194.9808, 1719.714
195.4629, 1738.600
195.9451, 1744.721
196.4272, 1738.471
196.9093, 1736.182
197.3914, 1738.950
197.8735, 1744.761
198.3556, 1749.977
198.8378, 1754.445
199.3199, 1759.158
199.8020, 1765.549
200.2841, 1773.905
200.7662, 1778.706
201.2483, 1779.145
201.7305, 1776.306
202.2126, 1772.132
202.6947, 1766.009
203.1768, 1760.849
203.6589, 1759.394
204.1410, 1762.590
204.6232, 1762.709
205.1053, 1758.389
205.5874, 1750.854
206.0695, 1743.729
206.5516, 1736.610
207.0337, 1730.962
207.5159, 1729.840
207.9980, 1735.938
208.4801, 1733.487
208.9622, 1718.619
209.4443, 1693.768
209.9264, 1669.408
210.4086, 1643.171
210.8907, 1622.129
211.3728, 1613.860
211.8549, 1622.852
212.3370, 1629.565
212.8191, 1633.375
213.3013, 1633.278
213.7834, 1618.055
214.2655, 1579.139
214.7476, 1538.760
215.2297, 1518.056
215.7118, 1524.507
216.1940, 1529.218
216.6761, 1525.967
217.1582, 1515.289
217.6403, 1510.506
218.1224, 1516.061
218.6045, 1521.658
219.0867, 1516.273
219.5688, 1494.658
220.0509, 1474.406
220.5330, 1458.992
221.0151, 1448.231
221.4972, 1441.863
221.9794, 1442.531
222.4615, 1444.582
222.9436, 1441.032
223.4257, 1427.089
223.9078, 1417.523
224.3899, 1417.040
224.8721, 1426.557
225.3542, 1433.058
225.8363, 1436.228
226.3184, 1436.747
226.8005, 1435.066
227.2827, 1429.732
227.7648, 1425.031
228.2469, 1422.494
228.7290, 1422.677
229.2111, 1420.612
229.6932, 1414.972
230.1754, 1408.188
230.6575, 1403.233
231.1396, 1400.139
231.6217, 1398.976
232.1038, 1400.514
232.5859, 1405.765
233.0681, 1408.159
233.5502, 1406.607
234.0323, 1402.990
234.5144, 1399.730
234.9965, 1396.054
235.4786, 1394.157
235.9608, 1395.497
236.4429, 1401.458
236.9250, 1403.998
237.4071, 1401.597
237.8892, 1396.689
238.3713, 1393.085
238.8535, 1391.327
239.3356, 1390.020
239.8177, 1389.366
240.2998, 1390.575
240.7819, 1387.337
241.2640, 1376.912
241.7462, 1363.584
242.2283, 1355.002
242.7104, 1354.235
243.1925, 1353.146
243.6746, 1348.619
244.1567, 1338.895
244.6389, 1331.649
245.1210, 1327.196
245.6031, 1325.025
246.0852, 1324.396
246.5673, 1325.653
247.0494, 1327.883
247.5316, 1331.022
248.0137, 1335.622
248.4958, 1339.145
248.9779, 1340.764
249.4600, 1341.756
249.9421, 1345.174
250.4243, 1354.427
250.9064, 1360.080
251.3885, 1358.614
251.8706, 1348.952
252.3527, 1334.313
252.8348, 1309.197
253.3170, 1282.519
253.7991, 1272.729
254.2812, 1287.205
254.7633, 1304.618
255.2454, 1317.167
255.7275, 1323.227
256.2097, 1330.563
256.6918, 1341.562
257.1739, 1352.123
257.6560, 1353.614
258.1381, 1341.501
258.6202, 1329.646
259.1024, 1323.422
259.5845, 1324.288
260.0666, 1324.604
260.5487, 1322.792
261.0308, 1321.642
261.5129, 1327.588
261.9951, 1344.419
262.4772, 1359.183
262.9593, 1366.844
263.4414, 1366.777
263.9235, 1362.148
264.4056, 1350.701
264.8878, 1336.735
265.3699, 1328.142
265.8520, 1326.830
266.3341, 1325.251
266.8162, 1320.546
267.2983, 1312.481
267.7805, 1302.328
268.2626, 1288.298
268.7447, 1274.281
269.2268, 1268.646
269.7089, 1274.452
270.1910, 1277.642
270.6732, 1271.024
271.1553, 1253.060
271.6374, 1240.432
272.1195, 1233.273
272.6016, 1231.248
273.0837, 1235.275
273.5659, 1246.569
274.0480, 1257.820
274.5301, 1267.903
275.0122, 1276.969
275.4943, 1276.345
275.9764, 1262.513
276.4586, 1245.608
276.9407, 1242.172
277.4228, 1253.746
277.9049, 1265.625
278.3870, 1272.313
278.8691, 1273.982
279.3513, 1274.369
279.8334, 1273.225
280.3155, 1271.439
280.7976, 1269.215
281.2798, 1266.420
281.7619, 1266.730
282.2440, 1272.957
282.7261, 1284.117
283.2082, 1292.458
283.6903, 1297.526
284.1725, 1301.450
284.6546, 1307.077
285.1367, 1314.276
285.6188, 1320.943
286.1009, 1327.416
286.5830, 1332.854
287.0652, 1331.696
287.5473, 1322.788
288.0294, 1314.242
288.5115, 1317.892
288.9936, 1331.963
289.4757, 1341.532
289.9579, 1339.613
290.4400, 1330.164
290.9221, 1323.000
291.4042, 1318.046
291.8863, 1316.345
292.3684, 1322.141
292.8506, 1333.162
293.3327, 1339.283
293.8148, 1333.643
294.2969, 1323.294
294.7790, 1322.565
295.2611, 1331.492
295.7433, 1343.345
296.2254, 1355.116
296.7075, 1365.614
297.1896, 1371.169
297.6717, 1370.377
298.1538, 1364.616
298.6360, 1352.745
299.1181, 1335.436
299.6002, 1321.922
300.0823, 1322.690
300.5644, 1331.776
301.0465, 1337.596
301.5287, 1335.168
302.0108, 1330.697
302.4929, 1332.436
302.9750, 1339.185
303.4571, 1343.972
303.9392, 1341.573
304.4214, 1334.576
304.9035, 1325.809
305.3856, 1314.237
305.8677, 1304.141
306.3498, 1300.735
306.8319, 1302.520
307.3141, 1304.154
307.7962, 1303.448
308.2783, 1300.618
308.7604, 1294.665
309.2425, 1282.445
309.7246, 1273.852
310.2068, 1280.784
310.6889, 1296.983
311.1710, 1306.295
311.6531, 1291.727
312.1352, 1272.909
312.6173, 1266.213
313.0995, 1279.412
313.5816, 1289.838
314.0637, 1281.929
314.5458, 1264.178
315.0279, 1252.528
315.5100, 1261.909
315.9922, 1272.349
316.4743, 1270.429
316.9564, 1249.766
317.4385, 1236.865
317.9206, 1249.148
318.4027, 1272.459
318.8849, 1287.018
319.3670, 1282.508
319.8491, 1272.755
320.3312, 1260.712
320.8133, 1245.342
321.2954, 1235.467
321.7776, 1238.546
322.2597, 1245.659
322.7418, 1247.300
323.2239, 1232.261
323.7060, 1221.450
324.1881, 1221.436
324.6703, 1233.381
325.1524, 1243.566
325.6345, 1252.183
326.1166, 1257.980
326.5987, 1259.996
327.0808, 1254.839
327.5630, 1249.852
328.0451, 1244.523
328.5272, 1239.080
329.0093, 1238.779
329.4914, 1247.176
329.9735, 1257.465
330.4557, 1265.449
330.9378, 1271.535
331.4199, 1274.533
331.9020, 1273.758
332.3841, 1269.746
332.8662, 1264.702
333.3484, 1257.185
333.8305, 1250.894
334.3126, 1247.504
334.7947, 1246.683
335.2768, 1250.581
335.7589, 1262.169
336.2411, 1276.943
336.7232, 1282.568
337.2053, 1275.785
337.6874, 1269.247
338.1695, 1269.187
338.6516, 1276.313
339.1338, 1284.455
339.6159, 1294.672
340.0980, 1303.930
340.5801, 1304.525
341.0622, 1295.088
341.5443, 1289.962
342.0265, 1299.654
342.5086, 1321.391
342.9907, 1327.231
343.4728, 1314.234
343.9549, 1296.672
344.4370, 1292.845
344.9192, 1301.484
345.4013, 1310.555
345.8834, 1315.723
346.3655, 1318.267
346.8476, 1319.810
347.3297, 1320.178
347.8119, 1323.876
348.2940, 1338.972
348.7761, 1361.355
349.2582, 1378.012
349.7403, 1382.876
350.2225, 1383.208
350.7046, 1389.645
351.1867, 1401.557
351.6688, 1413.648
352.1509, 1422.687
352.6331, 1429.345
353.1152, 1434.587
353.5973, 1438.572
354.0794, 1441.298
354.5615, 1446.154
355.0436, 1450.477
355.5258, 1446.165
356.0079, 1415.979
356.4900, 1382.299
356.9721, 1367.280
357.4542, 1380.043
357.9363, 1392.059
358.4185, 1384.986
358.9006, 1366.590
359.3827, 1350.307
359.8648, 1336.426
360.3469, 1329.927
360.8290, 1337.297
361.3112, 1361.778
361.7933, 1379.991
362.2754, 1380.802
362.7575, 1373.063
363.2396, 1366.367
363.7217, 1358.622
364.2039, 1356.458
364.6860, 1365.572
365.1681, 1386.143
365.6502, 1399.140
366.1323, 1394.252
366.6144, 1386.164
367.0966, 1385.021
367.5787, 1399.315
368.0608, 1410.464
368.5429, 1413.957
369.0250, 1412.359
369.5071, 1419.153
369.9893, 1441.624
370.4714, 1463.954
370.9535, 1477.729
371.4356, 1476.454
371.9177, 1481.777
372.3998, 1498.244
372.8820, 1519.315
373.3641, 1528.584
373.8462, 1520.366
374.3283, 1515.138
374.8104, 1523.144
375.2925, 1546.211
375.7747, 1560.455
376.2568, 1562.962
376.7389, 1562.658
377.2210, 1571.645
377.7031, 1590.391
378.1852, 1611.833
378.6674, 1635.397
379.1495, 1659.871
379.6316, 1680.895
380.1137, 1698.132
380.5958, 1713.372
381.0779, 1728.622
381.5601, 1743.467
382.0422, 1754.046
382.5243, 1757.337
383.0064, 1759.109
383.4885, 1769.798
383.9706, 1788.579
384.4528, 1808.590
384.9349, 1828.233
385.4170, 1845.422
385.8991, 1855.859
386.3812, 1857.071
386.8633, 1857.815
387.3455, 1870.472
387.8276, 1889.125
388.3097, 1900.383
388.7918, 1891.746
389.2739, 1876.514
389.7560, 1863.166
390.2382, 1851.961
390.7203, 1847.503
391.2024, 1861.804
391.6845, 1880.983
392.1666, 1889.182
392.6487, 1881.194
393.1309, 1860.986
393.6130, 1823.013
394.0951, 1769.451
394.5772, 1725.058
395.0593, 1699.198
395.5414, 1682.477
396.0236, 1669.339
396.5057, 1667.692
396.9878, 1659.230
397.4699, 1638.655
397.9520, 1609.569
398.4341, 1583.481
398.9163, 1560.922
399.3984, 1540.849
399.8805, 1523.025
400.3626, 1507.781
400.8447, 1493.639
401.3268, 1479.369
401.8090, 1467.129
402.2911, 1461.132
402.7732, 1465.588
403.2553, 1465.210
403.7374, 1454.186
404.2195, 1433.317
404.7017, 1418.059
405.1838, 1410.177
405.6659, 1402.994
406.1480, 1387.898
406.6301, 1364.580
407.1122, 1349.748
407.5944, 1348.363
408.0765, 1355.152
408.5586, 1358.100
409.0407, 1357.283
409.5228, 1355.575
410.0049, 1355.876
410.4871, 1356.793
410.9692, 1353.379
411.4513, 1344.087
411.9334, 1334.652
412.4155, 1331.429
412.8976, 1333.299
413.3798, 1337.034
413.8619, 1344.446
414.3440, 1351.100
414.8261, 1350.950
415.3082, 1343.924
415.7903, 1337.608
416.2725, 1337.867
416.7546, 1341.206
417.2367, 1343.633
417.7188, 1341.772
418.2009, 1341.050
418.6830, 1346.473
419.1652, 1355.787
419.6473, 1360.515
420.1294, 1351.668
420.6115, 1342.074
421.0937, 1339.345
421.5758, 1349.284
422.0579, 1355.821
422.5400, 1355.310
423.0221, 1350.511
423.5042, 1345.856
423.9864, 1339.209
424.4685, 1335.347
424.9506, 1335.931
425.4327, 1341.316
425.9148, 1346.888
426.3969, 1354.519
426.8791, 1360.212
427.3612, 1359.026
427.8433, 1346.997
428.3254, 1341.198
428.8075, 1346.728
429.2896, 1359.060
429.7718, 1360.860
430.2539, 1349.806
430.7360, 1340.546
431.2181, 1344.118
431.7002, 1359.369
432.1823, 1369.125
432.6645, 1371.948
433.1466, 1371.242
433.6287, 1371.627
434.1108, 1372.639
434.5929, 1371.780
435.0750, 1364.711
435.5572, 1356.570
436.0393, 1358.476
436.5214, 1369.946
437.0035, 1380.737
437.4856, 1378.622
437.9677, 1372.007
438.4499, 1373.353
438.9320, 1389.953
439.4141, 1408.192
439.8962, 1419.099
440.3783, 1424.105
440.8604, 1427.225
441.3426, 1424.680
441.8247, 1424.886
442.3068, 1433.811
442.7889, 1453.968
443.2710, 1473.798
443.7531, 1491.541
444.2353, 1506.830
444.7174, 1519.567
445.1995, 1522.073
445.6816, 1530.210
446.1637, 1547.822
446.6458, 1574.051
447.1280, 1602.146
447.6101, 1632.016
448.0922, 1663.992
448.5743, 1697.559
449.0564, 1731.760
449.5385, 1771.793
450.0207, 1820.380
450.5028, 1872.319
450.9849, 1914.885
451.4670, 1944.253
451.9491, 1981.788
452.4312, 2038.220
452.9134, 2110.919
453.3955, 2181.153
453.8776, 2248.345
454.3597, 2315.409
454.8418, 2381.344
455.3239, 2448.365
455.8061, 2523.404
456.2882, 2610.797
456.7703, 2704.128
457.2524, 2797.458
457.7345, 2889.656
458.2166, 2978.375
458.6988, 3060.587
459.1809, 3138.546
459.6630, 3211.410
460.1451, 3278.759
460.6272, 3349.305
461.1093, 3441.915
461.5915, 3536.607
462.0736, 3606.543
462.5557, 3635.296
463.0378, 3645.417
463.5199, 3648.648
464.0020, 3642.628
464.4842, 3608.299
464.9663, 3532.601
465.4484, 3434.275
465.9305, 3321.503
466.4126, 3181.405
466.8947, 3047.937
467.3769, 2922.441
467.8590, 2803.479
468.3411, 2685.767
468.8232, 2563.722
469.3053, 2455.370
469.7874, 2365.739
470.2696, 2294.254
470.7517, 2231.795
471.2338, 2180.301
471.7159, 2132.334
472.1980, 2080.233
472.6801, 2024.101
473.1623, 1978.122
473.6444, 1946.152
474.1265, 1920.763
474.6086, 1888.077
475.0907, 1849.583
475.5728, 1814.910
476.0550, 1789.080
476.5371, 1770.259
477.0192, 1758.433
477.5013, 1753.656
477.9834, 1746.733
478.4655, 1732.242
478.9477, 1710.736
479.4298, 1682.265
479.9119, 1634.885
480.3940, 1595.221
480.8761, 1584.150
481.3582, 1592.860
481.8404, 1596.236
482.3225, 1577.980
482.8046, 1559.237
483.2867, 1550.627
483.7688, 1556.887
484.2509, 1559.946
484.7331, 1554.556
485.2152, 1547.229
485.6973, 1544.450
486.1794, 1552.378
486.6615, 1554.051
487.1436, 1545.078
487.6258, 1527.955
488.1079, 1514.267
488.5900, 1504.526
489.0721, 1497.061
489.5542, 1491.490
490.0363, 1487.804
490.5185, 1483.476
491.0006, 1477.944
491.4827, 1473.560
491.9648, 1475.359
492.4470, 1481.920
492.9291, 1485.424
493.4112, 1482.837
493.8933, 1476.011
494.3754, 1465.214
494.8575, 1451.404
495.3397, 1441.249
495.8218, 1442.180
496.3039, 1447.462
496.7860, 1449.819
497.2681, 1447.811
497.7502, 1444.422
498.2324, 1439.942
498.7145, 1435.397
499.1966, 1432.098
499.6787, 1429.394
500.1608, 1429.090
500.6429, 1435.063
501.1251, 1446.416
501.6072, 1449.271
502.0893, 1433.082
502.5714, 1416.730
503.0535, 1409.102
503.5356, 1413.437
504.0178, 1419.023
504.4999, 1426.707
504.9820, 1434.822
505.4641, 1441.088
505.9462, 1445.438
506.4283, 1448.166
506.9105, 1448.983
507.3926, 1448.295
507.8747, 1447.195
508.3568, 1445.600
508.8389, 1445.158
509.3210, 1447.276
509.8032, 1451.487
510.2853, 1456.895
510.7674, 1463.716
511.2495, 1470.306
511.7316, 1473.756
512.2137, 1475.806
512.6959, 1479.920
513.1780, 1498.982
513.6601, 1511.140
514.1422, 1494.628
514.6243, 1454.193
515.1064, 1422.753
515.5886, 1419.851
516.0707, 1425.229
516.5528, 1426.290
517.0349, 1416.944
517.5170, 1412.683
517.9991, 1420.851
518.4813, 1432.621
518.9634, 1436.705
519.4455, 1429.391
519.9276, 1420.362
520.4097, 1409.043
520.8918, 1397.120
521.3740, 1397.517
521.8561, 1415.058
522.3382, 1428.948
522.8203, 1421.616
523.3024, 1394.783
523.7845, 1376.570
524.2667, 1368.491
524.7488, 1369.037
525.2309, 1382.218
525.7130, 1403.547
526.1951, 1417.231
526.6772, 1417.013
527.1594, 1407.413
527.6415, 1385.246
528.1236, 1355.352
528.6057, 1338.675
529.0878, 1362.432
529.5699, 1394.186
530.0521, 1407.508
530.5342, 1394.556
531.0163, 1384.116
531.4984, 1386.794
531.9805, 1395.973
532.4626, 1404.601
532.9448, 1414.125
533.4269, 1420.200
533.9090, 1422.535
534.3911, 1421.090
534.8732, 1413.762
535.3553, 1392.220
535.8375, 1380.640
536.3196, 1395.819
536.8017, 1440.324
537.2838, 1458.171
537.7659, 1444.349
538.2480, 1420.889
538.7302, 1409.843
539.2123, 1409.987
539.6944, 1414.505
540.1765, 1424.123
540.6586, 1433.411
541.1407, 1433.750
541.6229, 1427.036
542.1050, 1420.143
542.5871, 1416.000
543.0692, 1413.821
543.5513, 1412.403
544.0334, 1411.730
544.5156, 1414.399
544.9977, 1423.734
545.4798, 1435.707
545.9619, 1447.020
546.4440, 1455.630
546.9261, 1465.691
547.4083, 1484.127
547.8904, 1503.066
548.3725, 1507.426
548.8546, 1486.939
549.3367, 1468.484
549.8188, 1456.710
550.3010, 1451.940
550.7831, 1460.534
551.2652, 1486.302
551.7473, 1512.807
552.2294, 1528.992
552.7115, 1535.408
553.1937, 1534.392
553.6758, 1524.308
554.1579, 1514.374
554.6400, 1518.206
555.1221, 1531.715
555.6042, 1542.849
556.0864, 1543.536
556.5685, 1543.968
557.0506, 1556.398
557.5327, 1577.596
558.0148, 1595.363
558.4969, 1599.789
558.9791, 1601.972
559.4612, 1608.486
559.9433, 1620.522
560.4254, 1634.092
560.9075, 1651.012
561.3896, 1667.683
561.8718, 1681.391
562.3539, 1693.180
562.8360, 1699.502
563.3181, 1695.759
563.8002, 1688.390
564.2823, 1695.214
564.7645, 1719.932
565.2466, 1741.855
565.7287, 1751.168
566.2108, 1750.781
566.6929, 1756.097
567.1750, 1767.425
567.6572, 1776.440
568.1393, 1773.803
568.6214, 1764.108
569.1035, 1756.865
569.5856, 1754.123
570.0677, 1751.353
570.5499, 1744.336
571.0320, 1734.851
571.5141, 1725.680
571.9962, 1720.978
572.4783, 1713.665
572.9604, 1699.206
573.4426, 1679.114
573.9247, 1660.881
574.4068, 1646.266
574.8889, 1633.425
575.3710, 1621.928
575.8531, 1612.117
576.3353, 1602.512
576.8174, 1592.923
577.2995, 1583.957
577.7816, 1576.431
578.2637, 1570.579
578.7458, 1563.285
579.2280, 1552.674
579.7101, 1543.038
580.1922, 1544.997
580.6743, 1556.265
581.1564, 1563.935
581.6385, 1558.109
582.1207, 1547.412
582.6028, 1543.628
583.0849, 1545.978
583.5670, 1548.080
584.0491, 1548.112
584.5313, 1545.156
585.0134, 1537.260
585.4955, 1521.530
585.9776, 1509.540
586.4597, 1506.949
586.9418, 1508.547
587.4240, 1508.398
587.9061, 1503.549
588.3882, 1501.321
588.8703, 1503.833
589.3524, 1509.103
589.8345, 1511.339
590.3167, 1510.184
590.7988, 1507.252
591.2809, 1502.274
591.7630, 1495.983
592.2451, 1492.647
592.7272, 1492.337
593.2094, 1493.200
593.6915, 1493.303
594.1736, 1493.561
594.6557, 1497.438
595.1378, 1507.364
595.6199, 1512.522
596.1021, 1498.154
596.5842, 1475.608
597.0663, 1461.015
597.5485, 1466.224
598.0306, 1473.612
598.5127, 1477.560
598.9948, 1479.066
599.4769, 1482.989
599.9590, 1495.434
600.4412, 1503.270
600.9233, 1499.719
601.4054, 1483.425
601.8875, 1477.790
602.3696, 1485.473
602.8517, 1497.434
603.3339, 1507.867
603.8160, 1516.599
604.2981, 1519.219
604.7802, 1514.703
605.2623, 1505.790
605.7444, 1492.268
606.2266, 1476.885
606.7087, 1467.684
607.1908, 1470.471
607.6729, 1477.301
608.1550, 1481.884
608.6371, 1485.258
609.1193, 1490.956
609.6014, 1504.884
610.0835, 1517.579
610.5656, 1524.444
611.0477, 1524.840
611.5298, 1521.863
612.0120, 1512.002
612.4941, 1502.522
612.9762, 1498.903
613.4583, 1503.466
613.9404, 1505.150
614.4225, 1502.482
614.9047, 1498.668
615.3868, 1498.682
615.8689, 1502.225
616.3510, 1505.240
616.8331, 1506.155
617.3152, 1506.439
617.7974, 1506.240
618.2795, 1506.813
618.7616, 1512.915
619.2437, 1536.375
619.7258, 1559.464
620.2079, 1567.243
620.6901, 1558.996
621.1722, 1550.583
621.6543, 1547.871
622.1364, 1546.507
622.6185, 1542.978
623.1006, 1531.881
623.5828, 1530.851
624.0649, 1546.581
624.5470, 1566.237
625.0291, 1573.072
625.5112, 1564.073
625.9933, 1558.542
626.4755, 1560.549
626.9576, 1567.110
627.4397, 1574.364
627.9218, 1581.666
628.4039, 1584.100
628.8860, 1572.655
629.3682, 1558.384
629.8503, 1558.043
630.3324, 1570.074
630.8145, 1582.534
631.2966, 1587.027
631.7787, 1590.334
632.2609, 1596.764
632.7430, 1606.689
633.2251, 1620.571
633.7072, 1645.862
634.1893, 1670.447
634.6714, 1683.623
635.1536, 1677.775
635.6357, 1677.499
636.1178, 1685.773
636.5999, 1699.090
637.0820, 1711.113
637.5641, 1721.691
638.0463, 1733.655
638.5284, 1748.999
639.0105, 1765.460
639.4926, 1778.433
639.9747, 1788.471
640.4568, 1798.396
640.9390, 1806.366
641.4211, 1817.498
641.9032, 1839.355
642.3853, 1872.328
642.8674, 1901.657
643.3495, 1919.714
