##NAMES=Ferrowyllieite
##RRUFFID=R060178
##IDEAL CHEMISTRY=NaNaFe^2+^(Fe^2+^Al)(PO_4_)_3_
##LOCALITY=Victory mine, Custer County, South Dakota, USA
##OWNER=RRUFF
##SOURCE=Marcus Origlieri
##DESCRIPTION=Dark gray massive associated with muscovite
##STATUS=The identification of this mineral has been confirmed by X-ray diffraction and chemical analysis
##URL=rruff.info/R060178
##MEASURED CHEMISTRY=(Na_1.30_[box]_0.35_Mn^2+^_0.27_Ca_0.08_)_2_(Fe^2+^_1.78_Mg_0.22_)_Σ=2_(Al_0.75_Fe^3+^_0.25_)_Σ=1_(P_1.00_O_4_)_3_
92.02539, 110.1557
92.50751, 111.6259
92.98962, 113.1191
93.47174, 112.8894
93.95386, 112.0121
94.43597, 110.6857
94.91809, 109.3038
95.40021, 107.7472
95.88232, 105.0016
96.36444, 99.83595
96.84656, 95.23058
97.32867, 92.32019
97.81078, 90.50745
98.29290, 88.74966
98.77502, 86.12452
99.25713, 82.35205
99.73925, 79.16425
100.2214, 76.80659
100.7035, 74.64314
101.1856, 72.30632
101.6677, 69.79448
102.1498, 67.42699
102.6320, 65.59368
103.1141, 64.44475
103.5962, 63.55792
104.0783, 63.03092
104.5604, 62.70654
105.0425, 62.45943
105.5247, 62.27342
106.0068, 62.05801
106.4889, 61.70379
106.9710, 61.29689
107.4531, 60.53320
107.9352, 59.02962
108.4173, 56.93396
108.8995, 55.04684
109.3816, 53.63530
109.8637, 52.59953
110.3458, 51.84446
110.8279, 51.39920
111.3100, 51.07668
111.7922, 50.63810
112.2743, 50.02678
112.7564, 49.48967
113.2385, 49.14110
113.7206, 48.87028
114.2027, 48.57806
114.6849, 48.21633
115.1670, 47.81945
115.6491, 47.51369
116.1312, 47.30651
116.6133, 47.19822
117.0954, 47.32836
117.5776, 47.53748
118.0597, 47.57268
118.5418, 47.23637
119.0239, 46.51911
119.5060, 46.03001
119.9881, 45.78081
120.4703, 45.68865
120.9524, 45.84661
121.4345, 46.18519
121.9166, 46.45182
122.3987, 46.40343
122.8808, 45.97503
123.3630, 45.53098
123.8451, 45.10219
124.3272, 44.64098
124.8093, 43.99018
125.2914, 43.06392
125.7735, 42.30471
126.2557, 42.52066
126.7378, 43.49006
127.2199, 44.19042
127.7020, 44.10426
128.1841, 43.42574
128.6662, 42.74627
129.1483, 42.06704
129.6305, 41.53435
130.1126, 41.31383
130.5947, 41.37049
131.0768, 41.39819
131.5589, 41.06417
132.0410, 40.30288
132.5232, 39.71928
133.0053, 39.40789
133.4874, 39.28638
133.9695, 39.46215
134.4516, 39.90919
134.9337, 40.34395
135.4159, 40.28878
135.8980, 39.34359
136.3801, 38.64864
136.8622, 38.28110
137.3443, 38.12853
137.8264, 38.16917
138.3086, 38.38279
138.7907, 38.66254
139.2728, 38.70867
139.7549, 38.34503
140.2370, 37.93461
140.7191, 37.38592
141.2013, 36.82333
141.6834, 36.44709
142.1655, 36.38184
142.6476, 36.55420
143.1297, 36.63593
143.6118, 36.70695
144.0939, 36.63553
144.5761, 36.20562
145.0582, 35.51594
145.5403, 35.04961
146.0224, 35.24807
146.5045, 35.84109
146.9866, 35.99080
147.4688, 35.33784
147.9509, 34.50160
148.4330, 34.06128
148.9151, 34.05332
149.3972, 34.21350
149.8793, 34.58451
150.3615, 34.99017
150.8436, 35.18198
151.3257, 34.98119
151.8078, 34.55512
152.2899, 34.30401
152.7720, 34.35191
153.2542, 34.35369
153.7363, 34.17388
154.2184, 33.86519
154.7005, 33.49287
155.1826, 33.06920
155.6647, 32.60904
156.1469, 32.28135
156.6290, 32.29280
157.1111, 32.24139
157.5932, 31.94046
158.0753, 31.48529
158.5574, 31.08591
159.0396, 30.92202
159.5217, 31.01629
160.0038, 31.15026
160.4859, 31.40812
160.9680, 31.62618
161.4501, 31.74729
161.9323, 31.76391
162.4144, 31.68046
162.8965, 31.48341
163.3786, 31.11585
163.8607, 30.90098
164.3428, 31.00617
164.8250, 31.13631
165.3071, 31.04261
165.7892, 30.69455
166.2713, 30.29241
166.7534, 30.06717
167.2355, 30.03766
167.7177, 30.07929
168.1998, 30.30987
168.6819, 30.56023
169.1640, 30.59546
169.6461, 30.34649
170.1282, 29.95987
170.6104, 29.55733
171.0925, 29.14088
171.5746, 28.81290
172.0567, 28.57488
172.5388, 28.45249
173.0209, 28.57757
173.5031, 29.18026
173.9852, 29.73978
174.4673, 29.76046
174.9494, 29.29076
175.4315, 28.78290
175.9136, 28.59684
176.3958, 28.71841
176.8779, 28.72288
177.3600, 28.28093
177.8421, 27.94675
178.3242, 28.21867
178.8063, 29.03945
179.2885, 29.78008
179.7706, 29.65554
180.2527, 28.37977
180.7348, 27.48656
181.2169, 27.36192
181.6990, 27.42521
182.1812, 27.40715
182.6633, 27.25539
183.1454, 27.06486
183.6275, 26.97139
184.1096, 27.02736
184.5917, 27.07575
185.0738, 27.10283
185.5560, 27.13107
186.0381, 27.22327
186.5202, 27.37749
187.0023, 27.48193
187.4844, 27.32726
187.9665, 26.51589
188.4487, 26.09413
188.9308, 26.33019
189.4129, 26.80619
189.8950, 27.15034
190.3771, 27.23791
190.8592, 27.17771
191.3414, 27.18067
191.8235, 27.34366
192.3056, 27.38460
192.7877, 27.15705
193.2698, 26.82299
193.7519, 26.60707
194.2341, 26.59799
194.7162, 26.70082
195.1983, 26.71957
195.6804, 26.62913
196.1625, 26.56502
196.6446, 26.58443
197.1268, 26.65983
197.6089, 26.72903
198.0910, 26.76996
198.5731, 26.79835
199.0552, 26.82679
199.5373, 26.84375
200.0195, 26.90923
200.5016, 27.13867
200.9837, 27.47915
201.4658, 27.65571
201.9479, 27.56304
202.4300, 27.27664
202.9122, 26.82827
203.3943, 26.18715
203.8764, 25.69287
204.3585, 25.71641
204.8406, 26.25378
205.3227, 26.67377
205.8048, 26.73186
206.2870, 26.68230
206.7691, 26.70887
207.2512, 26.83146
207.7333, 26.95273
208.2154, 26.99323
208.6975, 26.96199
209.1797, 26.79380
209.6618, 26.20080
210.1439, 25.65300
210.6260, 25.44444
211.1081, 25.61395
211.5902, 25.96116
212.0724, 26.26785
212.5545, 26.57266
213.0366, 26.70184
213.5187, 26.55997
214.0008, 26.31753
214.4829, 25.99322
214.9651, 25.62696
215.4472, 25.34991
215.9293, 25.40924
216.4114, 26.13990
216.8935, 26.49917
217.3756, 26.28367
217.8578, 25.90884
218.3399, 25.60883
218.8220, 25.45675
219.3041, 25.43119
219.7862, 25.50692
220.2683, 25.73452
220.7505, 25.97828
221.2326, 26.29892
221.7147, 26.59822
222.1968, 26.80624
222.6789, 26.90496
223.1610, 26.91089
223.6432, 26.83734
224.1253, 26.58932
224.6074, 26.46871
225.0895, 26.58990
225.5716, 26.77305
226.0537, 26.85052
226.5358, 26.78433
227.0180, 26.66071
227.5001, 26.60974
227.9822, 26.68733
228.4643, 26.64705
228.9464, 26.28938
229.4285, 25.89187
229.9107, 25.75727
230.3928, 25.95456
230.8749, 26.35290
231.3570, 26.88849
231.8391, 27.60861
232.3212, 27.99096
232.8034, 27.34234
233.2855, 27.80961
233.7676, 28.07453
234.2497, 28.14797
234.7318, 27.45644
235.2139, 27.75271
235.6961, 27.65311
236.1782, 27.53728
236.6603, 27.97258
237.1424, 27.39231
237.6245, 27.81887
238.1066, 27.84352
238.5888, 28.05212
239.0709, 27.86240
239.5530, 27.79571
240.0351, 27.89246
240.5172, 28.34868
240.9993, 28.60254
241.4815, 28.66493
241.9636, 27.96235
242.4457, 28.24757
242.9278, 28.13692
243.4099, 28.01004
243.8920, 28.91418
244.3742, 28.67148
244.8563, 27.86063
245.3384, 27.31628
245.8205, 27.12574
246.3026, 27.01494
246.7847, 26.88872
247.2668, 26.72695
247.7490, 26.47443
248.2311, 26.01699
248.7132, 25.49716
249.1953, 25.31989
249.6774, 25.72420
250.1595, 25.98173
250.6417, 25.69956
251.1238, 25.13465
251.6059, 24.61213
252.0880, 24.29724
252.5701, 24.09126
253.0522, 23.73541
253.5344, 23.16661
254.0165, 22.56760
254.4986, 21.77527
254.9807, 20.69488
255.4628, 21.12572
255.9449, 21.35421
256.4271, 21.39121
256.9092, 20.66325
257.3913, 20.92309
257.8734, 20.78707
258.3555, 20.63481
258.8376, 21.03368
259.3198, 20.41698
259.8019, 20.80711
260.2840, 20.79533
260.7661, 20.96750
261.2482, 20.74135
261.7303, 20.63824
262.2125, 20.93355
262.6946, 21.00825
263.1767, 20.73625
263.6588, 20.92011
264.1409, 20.28950
264.6230, 20.37360
265.1052, 20.76605
265.5873, 20.51408
266.0694, 20.70522
266.5515, 20.72760
267.0336, 19.98304
267.5157, 20.57227
267.9979, 20.58467
268.4800, 20.00480
268.9621, 20.54833
269.4442, 20.05012
269.9263, 19.92374
270.4084, 20.07720
270.8906, 19.93893
271.3727, 20.26060
271.8548, 20.06152
272.3369, 20.07192
272.8190, 20.03888
273.3011, 19.92082
273.7833, 19.50525
274.2654, 19.19436
274.7475, 19.29269
275.2296, 19.75684
275.7117, 20.29763
276.1938, 20.64623
276.6760, 20.80372
277.1581, 20.73080
277.6402, 20.20163
278.1223, 19.70550
278.6044, 19.41815
279.0865, 19.35877
279.5686, 19.53299
280.0508, 19.99440
280.5329, 20.75676
281.0150, 21.09351
281.4971, 20.73688
281.9792, 20.32125
282.4613, 20.02052
282.9435, 19.84574
283.4256, 19.78251
283.9077, 19.83148
284.3898, 19.97889
284.8719, 20.09985
285.3540, 20.23082
285.8362, 20.30116
286.3183, 20.24166
286.8004, 20.11317
287.2825, 20.05314
287.7646, 20.14942
288.2467, 20.31037
288.7289, 20.20221
289.2110, 19.38616
289.6931, 18.86068
290.1752, 18.97559
290.6573, 19.42286
291.1394, 19.82090
291.6216, 20.03187
292.1037, 20.03950
292.5858, 19.75993
293.0679, 18.85772
293.5500, 18.32255
294.0321, 18.52055
294.5143, 19.01704
294.9964, 19.30076
295.4785, 19.23593
295.9606, 19.09361
296.4427, 19.30084
296.9248, 20.09924
297.4070, 20.47777
297.8891, 20.16192
298.3712, 19.55556
298.8533, 18.92181
299.3354, 18.32716
299.8175, 17.86506
300.2997, 17.63139
300.7818, 17.66217
301.2639, 17.84241
301.7460, 18.39185
302.2281, 18.91480
302.7102, 19.12104
303.1924, 19.01886
303.6745, 18.82956
304.1566, 18.72292
304.6387, 18.68707
305.1208, 18.53019
305.6029, 18.07242
306.0851, 17.67725
306.5672, 17.55175
307.0493, 17.64693
307.5314, 17.79613
308.0135, 17.91405
308.4956, 18.00784
308.9778, 18.10814
309.4599, 18.25771
309.9420, 18.36198
310.4241, 18.36651
310.9062, 18.30652
311.3883, 18.26548
311.8705, 18.29030
312.3526, 18.31114
312.8347, 18.13047
313.3168, 17.57619
313.7989, 17.24826
314.2810, 17.44978
314.7632, 17.87982
315.2453, 18.16074
315.7274, 18.19054
316.2095, 18.04038
316.6916, 17.74546
317.1737, 17.21872
317.6559, 16.95747
318.1380, 17.26942
318.6201, 17.70466
319.1022, 17.83191
319.5843, 17.60205
320.0664, 17.24309
320.5485, 16.90821
321.0306, 16.60517
321.5128, 16.60573
321.9949, 17.19456
322.4770, 17.83729
322.9591, 18.27492
323.4412, 18.47827
323.9233, 18.39701
324.4055, 17.91454
324.8876, 17.12681
325.3697, 16.74131
325.8518, 17.12721
326.3339, 17.44747
326.8160, 17.30820
327.2982, 16.87453
327.7803, 16.49128
328.2624, 16.30436
328.7445, 16.29628
329.2266, 16.44591
329.7087, 16.84198
330.1909, 17.21020
330.6730, 17.64193
331.1551, 17.96782
331.6372, 17.89574
332.1193, 17.33591
332.6014, 16.58262
333.0836, 16.02457
333.5657, 15.66554
334.0478, 15.56730
334.5299, 15.92576
335.0120, 16.42013
335.4941, 16.83680
335.9763, 17.13088
336.4584, 17.29649
336.9405, 17.30499
337.4226, 17.13737
337.9047, 17.03959
338.3868, 17.05677
338.8690, 17.09147
339.3511, 17.13565
339.8332, 17.16153
340.3153, 17.08414
340.7974, 16.82924
341.2795, 16.44213
341.7617, 16.22391
342.2438, 16.26093
342.7259, 16.33668
343.2080, 16.42631
343.6901, 16.51959
344.1722, 16.58014
344.6544, 16.58976
345.1365, 16.61831
345.6186, 16.82128
346.1007, 17.54537
346.5828, 17.89647
347.0649, 17.58329
347.5471, 17.05968
348.0292, 16.70134
348.5113, 16.58802
348.9934, 16.59337
349.4755, 16.57747
349.9576, 16.54225
350.4398, 16.46994
350.9219, 16.37520
351.4040, 16.23755
351.8861, 15.99496
352.3682, 15.69123
352.8503, 15.43928
353.3325, 15.32177
353.8146, 15.33652
354.2967, 15.45998
354.7788, 15.97071
355.2609, 16.27205
355.7430, 16.06327
356.2252, 15.61388
356.7073, 15.29626
357.1894, 15.28788
357.6715, 15.50468
358.1536, 15.74178
358.6357, 16.03697
359.1179, 16.29304
359.5999, 16.62949
360.0821, 16.85427
360.5642, 16.73869
361.0463, 16.27449
361.5284, 15.71872
362.0105, 15.40363
362.4926, 15.41743
362.9748, 15.33130
363.4569, 14.92531
363.9390, 14.62990
364.4211, 14.74532
364.9032, 15.14739
365.3853, 15.47640
365.8675, 15.44341
366.3496, 15.09319
366.8317, 14.84759
367.3138, 14.64849
367.7959, 14.65278
368.2780, 15.11281
368.7602, 15.70746
369.2423, 16.00168
369.7244, 15.79593
370.2065, 15.36423
370.6886, 15.29972
371.1707, 15.85941
371.6529, 16.12931
372.1350, 15.67822
372.6171, 15.13283
373.0992, 14.93357
373.5813, 15.12301
374.0634, 15.39324
374.5456, 15.38765
375.0277, 15.08547
375.5098, 14.96848
375.9919, 15.19881
376.4740, 15.46026
376.9561, 15.64030
377.4383, 15.73777
377.9204, 15.75705
378.4025, 15.67340
378.8846, 15.52910
379.3667, 15.46005
379.8488, 15.52119
380.3310, 15.51347
380.8131, 15.32988
381.2952, 15.05044
381.7773, 14.72458
382.2594, 14.34651
382.7415, 14.00866
383.2237, 13.78704
383.7058, 13.68109
384.1879, 13.77214
384.6700, 14.29832
385.1521, 14.79871
385.6342, 14.78876
386.1164, 14.30562
386.5985, 13.89930
387.0806, 13.92499
387.5627, 14.24274
388.0448, 14.57202
388.5269, 14.94273
389.0091, 15.14481
389.4912, 14.82705
389.9733, 14.22348
390.4554, 13.86521
390.9375, 14.10863
391.4196, 14.40661
391.9018, 14.13234
392.3839, 13.36282
392.8660, 12.83767
393.3481, 12.96555
393.8302, 13.44914
394.3123, 13.67649
394.7945, 13.56444
395.2766, 13.49447
395.7587, 13.69021
396.2408, 14.00642
396.7229, 14.19917
397.2050, 14.21409
397.6872, 14.11408
398.1693, 13.90049
398.6514, 13.55341
399.1335, 13.49299
399.6156, 14.11793
400.0977, 14.72845
400.5798, 14.69067
401.0620, 14.13147
401.5441, 13.72069
402.0262, 13.90510
402.5083, 14.54094
402.9904, 14.89841
403.4725, 14.82958
403.9547, 14.71303
404.4368, 14.61983
404.9189, 14.51718
405.4010, 14.34260
405.8831, 14.08161
406.3652, 13.80490
406.8474, 13.60818
407.3295, 13.47684
407.8116, 13.49356
408.2937, 13.85449
408.7758, 14.17283
409.2579, 14.18537
409.7401, 13.94912
410.2222, 13.69846
410.7043, 13.60255
411.1864, 13.64643
411.6685, 13.69421
412.1506, 13.79314
412.6328, 13.83379
413.1149, 13.69235
413.5970, 13.53352
414.0791, 13.59307
414.5612, 13.93959
415.0433, 14.33843
415.5255, 14.39254
416.0076, 13.97704
416.4897, 13.64824
416.9718, 13.34689
417.4539, 13.22347
417.9360, 13.50874
418.4182, 14.07730
418.9003, 14.51398
419.3824, 14.45481
419.8645, 14.03155
420.3466, 13.85037
420.8287, 14.02368
421.3109, 14.20982
421.7930, 14.31541
422.2751, 14.34085
422.7572, 14.25724
423.2393, 14.03748
423.7214, 13.80036
424.2036, 13.66438
424.6857, 13.62836
425.1678, 13.65362
425.6499, 13.74912
426.1320, 13.88537
426.6141, 14.07477
427.0963, 14.30128
427.5784, 14.42951
428.0605, 14.39004
428.5426, 14.22318
429.0247, 13.90927
429.5068, 13.42668
429.9890, 13.12613
430.4711, 13.34561
430.9532, 13.89274
431.4353, 14.12106
431.9174, 13.86183
432.3995, 13.53148
432.8817, 13.24713
433.3638, 13.05064
433.8459, 13.08679
434.3280, 13.42863
434.8101, 13.83128
435.2922, 13.93138
435.7744, 13.62109
436.2565, 13.43887
436.7386, 13.53942
437.2207, 13.66371
437.7028, 13.58269
438.1849, 13.34124
438.6671, 13.17892
439.1492, 13.27391
439.6313, 13.56357
440.1134, 13.67704
440.5955, 13.51601
441.0776, 13.29520
441.5598, 12.92486
442.0418, 12.56264
442.5240, 12.36144
443.0061, 12.36394
443.4882, 12.52963
443.9703, 12.85529
444.4524, 13.43683
444.9345, 13.72976
445.4167, 13.42345
445.8988, 13.13118
446.3809, 13.07965
446.8630, 13.20339
447.3451, 13.34015
447.8272, 13.39187
448.3094, 13.41535
448.7915, 13.60786
449.2736, 14.11859
449.7557, 14.36803
450.2378, 13.87173
450.7199, 13.29093
451.2021, 13.13951
451.6842, 13.45820
452.1663, 13.84179
452.6484, 13.93971
453.1305, 13.82676
453.6126, 13.85120
454.0948, 14.09486
454.5769, 14.33024
455.0590, 14.40088
455.5411, 14.35730
456.0232, 14.27315
456.5053, 14.17170
456.9875, 14.02458
457.4696, 13.76835
457.9517, 13.43303
458.4338, 13.15792
458.9159, 13.00169
459.3980, 12.89880
459.8802, 12.69940
460.3623, 12.36178
460.8444, 12.27571
461.3265, 12.78659
461.8086, 13.39023
462.2907, 13.59368
462.7729, 13.41321
463.2550, 13.18956
463.7371, 13.14591
464.2192, 13.25548
464.7013, 13.36489
465.1834, 13.37984
465.6656, 13.51345
466.1477, 13.98865
466.6298, 14.50256
467.1119, 14.70658
467.5940, 14.53244
468.0761, 14.17559
468.5583, 13.84072
469.0404, 13.49966
469.5225, 13.35149
470.0046, 13.69730
470.4867, 13.92464
470.9688, 13.73880
471.4510, 13.33129
471.9331, 13.01423
472.4152, 12.93370
472.8973, 13.02223
473.3794, 13.17201
473.8615, 13.39873
474.3437, 13.62123
474.8258, 13.93380
475.3079, 14.14064
475.7900, 13.97896
476.2721, 13.53650
476.7542, 13.28695
477.2364, 13.79254
477.7185, 14.64006
478.2006, 14.80408
478.6827, 14.17048
479.1648, 13.51116
479.6469, 13.20261
480.1291, 13.12936
480.6112, 13.07632
481.0933, 13.04421
481.5754, 13.00631
482.0575, 12.88625
482.5396, 12.76576
483.0217, 12.86053
483.5038, 13.22570
483.9860, 13.54662
484.4681, 13.48447
484.9502, 13.02049
485.4323, 12.75013
485.9144, 12.82507
486.3965, 12.91963
486.8787, 12.85925
487.3608, 12.72814
487.8429, 12.72702
488.3250, 12.93574
488.8071, 13.17875
489.2892, 13.10671
489.7714, 12.42170
490.2535, 12.16530
490.7356, 12.78079
491.2177, 13.33968
491.6998, 13.24348
492.1819, 12.69208
492.6641, 12.26688
493.1462, 12.35501
493.6283, 12.77302
494.1104, 12.97455
494.5925, 12.87148
495.0746, 12.79018
495.5568, 12.75618
496.0389, 12.80692
496.5210, 13.06533
497.0031, 13.50225
497.4852, 13.80554
497.9673, 13.66079
498.4495, 13.22078
498.9316, 12.90087
499.4137, 12.72592
499.8958, 12.61430
500.3779, 12.47721
500.8600, 12.39345
501.3422, 12.55224
501.8243, 13.14453
502.3064, 13.58273
502.7885, 13.42992
503.2706, 12.96366
503.7527, 12.69645
504.2349, 12.74123
504.7170, 12.86122
505.1991, 12.80578
505.6812, 12.55881
506.1633, 12.51484
506.6454, 13.00850
507.1276, 13.31247
507.6097, 12.93746
508.0918, 12.26349
508.5739, 11.91321
509.0560, 12.11101
509.5381, 12.55734
510.0203, 12.77858
510.5024, 12.70909
510.9845, 12.63976
511.4666, 12.56069
511.9487, 12.49180
512.4308, 12.42627
512.9130, 12.37839
513.3951, 12.38585
513.8772, 12.48290
514.3593, 12.59875
514.8414, 12.58004
515.3235, 12.40114
515.8057, 12.28469
516.2878, 12.31452
516.7699, 12.39141
517.2520, 12.46666
517.7341, 12.52733
518.2162, 12.49384
518.6984, 12.23724
519.1805, 11.92242
519.6626, 11.78773
520.1447, 11.82250
520.6268, 11.81603
521.1089, 11.63365
521.5911, 11.39035
522.0732, 11.37768
522.5553, 11.67621
523.0374, 11.92015
523.5195, 12.08566
524.0016, 12.14615
524.4838, 12.03137
524.9659, 11.77092
525.4480, 11.49203
525.9301, 11.28380
526.4122, 11.13872
526.8943, 11.00865
527.3765, 10.76857
527.8586, 10.73995
528.3407, 11.20770
528.8228, 11.70647
529.3049, 11.77124
529.7870, 11.41327
530.2692, 11.08723
530.7513, 11.27747
531.2334, 11.85427
531.7155, 11.97780
532.1976, 11.39060
532.6797, 10.95090
533.1619, 11.24241
533.6440, 11.75766
534.1261, 11.98221
534.6082, 11.81783
535.0903, 11.55027
535.5724, 11.30103
536.0546, 11.09371
536.5367, 11.00191
537.0188, 11.04277
537.5009, 11.08056
537.9830, 10.98883
538.4651, 10.81084
538.9473, 10.78324
539.4294, 10.99690
539.9115, 11.23107
540.3936, 11.54675
540.8757, 11.79290
541.3578, 11.67260
541.8400, 11.18233
542.3221, 10.74465
542.8042, 10.82901
543.2863, 11.44753
543.7684, 11.83356
544.2505, 11.75762
544.7326, 11.71259
545.2147, 11.80779
545.6968, 11.97160
546.1790, 12.16518
546.6611, 12.36617
547.1432, 12.46533
547.6253, 12.23646
548.1074, 11.72754
548.5895, 11.53347
549.0717, 11.78901
549.5538, 12.11885
550.0359, 12.40241
550.5180, 12.59035
551.0001, 12.55492
551.4822, 12.16575
551.9644, 11.82050
552.4465, 11.83634
552.9286, 12.05958
553.4107, 12.13782
553.8928, 11.99858
554.3749, 11.91424
554.8571, 12.18902
555.3392, 12.80351
555.8213, 13.01514
556.3034, 12.47932
556.7855, 12.02413
557.2676, 11.88661
557.7498, 11.93176
558.2319, 12.02429
558.7140, 12.11815
559.1961, 12.19096
559.6782, 12.18896
560.1603, 12.10866
560.6425, 12.26458
561.1246, 13.06787
561.6067, 13.48403
562.0888, 12.80813
562.5709, 11.81563
563.0530, 11.46509
563.5352, 12.00456
564.0173, 12.64458
564.4994, 12.61212
564.9815, 12.13472
565.4636, 11.99514
565.9457, 12.31821
566.4279, 12.72077
566.9100, 13.03747
567.3921, 13.21062
567.8742, 13.07904
568.3563, 12.32442
568.8384, 11.79617
569.3206, 11.98243
569.8027, 12.45115
570.2848, 12.68587
570.7669, 12.61050
571.2490, 12.42004
571.7311, 12.26219
572.2133, 12.14588
572.6954, 12.18328
573.1775, 12.63446
573.6596, 12.87715
574.1417, 12.64275
574.6238, 12.30468
575.1060, 12.20145
575.5881, 12.36041
576.0702, 12.56356
576.5523, 12.63917
577.0344, 12.61343
577.5165, 12.55587
577.9987, 12.43645
578.4808, 12.42813
578.9629, 12.73718
579.4450, 13.10625
579.9271, 13.13579
580.4092, 12.76098
580.8914, 12.46871
581.3735, 12.49130
581.8556, 12.65848
582.3377, 12.78992
582.8198, 12.87951
583.3019, 13.01552
583.7841, 13.27065
584.2662, 13.55084
584.7483, 13.59343
585.2304, 13.20643
585.7125, 12.88799
