##NAMES=Ferrilotharmeyerite
##RRUFFID=R060209
##IDEAL CHEMISTRY=CaZn^2+^Fe^3+^(As^5+^O_4_)_2_(OH)&#183;H_2_O
##LOCALITY=Tsumeb mine, Tsumeb, Otavi District, Oshikoto, Namibia
##OWNER=RRUFF
##SOURCE=William W. Pinch
##DESCRIPTION=Yellowish-green rectangular prisms
##STATUS=The identification of this mineral has been confirmed by single-crystal X-ray diffraction.
##URL=rruff.info/R060209
92.07813, 11.31268
92.56024, 11.24468
93.04236, 11.29316
93.52448, 11.42935
94.00659, 11.54684
94.48871, 11.57283
94.97083, 11.53405
95.45294, 11.49981
95.93506, 11.47621
96.41718, 11.46310
96.89929, 11.49344
97.38141, 11.56854
97.86353, 11.57804
98.34564, 11.31836
98.82776, 10.81734
99.30988, 10.65122
99.79199, 11.03835
100.2741, 11.78414
100.7562, 12.14569
101.2383, 12.05966
101.7205, 11.76420
102.2026, 11.41982
102.6847, 10.98499
103.1668, 10.67112
103.6489, 10.52316
104.1310, 10.54352
104.6132, 10.68616
105.0953, 11.03303
105.5774, 11.42371
106.0595, 11.63914
106.5416, 11.53027
107.0237, 11.48004
107.5059, 11.62777
107.9880, 12.10594
108.4701, 12.35977
108.9522, 12.18194
109.4343, 11.82000
109.9164, 11.72192
110.3986, 12.33731
110.8807, 12.84020
111.3628, 12.95191
111.8449, 12.24697
112.3270, 11.83337
112.8091, 11.86318
113.2913, 12.24400
113.7734, 12.70945
114.2555, 13.33110
114.7376, 13.95894
115.2197, 14.51121
115.7018, 15.03196
116.1840, 15.41669
116.6661, 15.36506
117.1482, 15.02765
117.6303, 15.18577
118.1124, 16.47059
118.5945, 18.23234
119.0767, 19.89831
119.5588, 21.03891
120.0409, 22.26293
120.5230, 23.89198
121.0051, 25.90880
121.4872, 28.11277
121.9694, 30.19400
122.4515, 32.40685
122.9336, 35.11620
123.4157, 38.67844
123.8978, 42.65836
124.3799, 46.62968
124.8621, 50.56014
125.3442, 54.69077
125.8263, 59.33364
126.3084, 64.35101
126.7905, 69.42771
127.2726, 73.85496
127.7548, 78.33076
128.2369, 84.46729
128.7190, 92.83936
129.2011, 101.0764
129.6832, 105.7620
130.1653, 107.3339
130.6474, 108.6796
131.1296, 111.3964
131.6117, 115.2261
132.0938, 119.2433
132.5759, 123.1591
133.0580, 127.5638
133.5401, 133.6967
134.0223, 141.6105
134.5044, 150.1161
134.9865, 158.2348
135.4686, 166.0776
135.9507, 174.8096
136.4328, 184.8569
136.9150, 195.9337
137.3971, 206.8607
137.8792, 217.6288
138.3613, 228.5086
138.8434, 239.8979
139.3255, 251.8804
139.8077, 263.5392
140.2898, 274.9909
140.7719, 286.0552
141.2540, 295.9395
141.7361, 304.2633
142.2182, 311.8566
142.7004, 319.5659
143.1825, 327.6198
143.6646, 335.0723
144.1467, 341.4196
144.6288, 346.6645
145.1109, 352.0192
145.5931, 357.0711
146.0752, 362.5952
146.5573, 369.7061
147.0394, 379.2378
147.5215, 389.1052
148.0036, 398.5102
148.4858, 407.2542
148.9679, 416.9329
149.4500, 428.4418
149.9321, 440.6249
150.4142, 451.5133
150.8963, 459.6094
151.3785, 467.9863
151.8606, 477.4831
152.3427, 489.0322
152.8248, 499.8876
153.3069, 509.2173
153.7890, 517.9418
154.2712, 526.0842
154.7533, 533.4420
155.2354, 539.8435
155.7175, 544.2565
156.1996, 545.4875
156.6817, 546.7566
157.1639, 547.6559
157.6460, 548.8619
158.1281, 551.8583
158.6102, 557.4116
159.0923, 564.4147
159.5744, 572.4072
160.0566, 581.5079
160.5387, 591.0702
161.0208, 600.8969
161.5029, 611.0035
161.9850, 621.4276
162.4671, 632.8495
162.9493, 644.2258
163.4314, 654.8556
163.9135, 664.4218
164.3956, 673.4794
164.8777, 683.0631
165.3598, 692.6974
165.8420, 700.3377
166.3241, 705.5902
166.8062, 708.1984
167.2883, 707.9032
167.7704, 704.0872
168.2525, 697.9377
168.7346, 690.4805
169.2168, 681.5239
169.6989, 669.7604
170.1810, 653.8043
170.6631, 634.8177
171.1452, 614.0469
171.6273, 590.8561
172.1095, 567.1693
172.5916, 544.0179
173.0737, 521.4294
173.5558, 499.8151
174.0379, 479.3661
174.5201, 460.1637
175.0022, 441.9684
175.4843, 424.4692
175.9664, 407.9278
176.4485, 393.1756
176.9306, 380.0445
177.4128, 368.0565
177.8949, 356.8885
178.3770, 346.5990
178.8591, 337.0666
179.3412, 328.2906
179.8233, 320.2243
180.3055, 312.8776
180.7876, 306.2043
181.2697, 299.8984
181.7518, 293.3237
182.2339, 286.7628
182.7160, 280.9017
183.1982, 276.1742
183.6803, 272.3723
184.1624, 269.1148
184.6445, 266.4182
185.1266, 264.2565
185.6087, 263.1564
186.0909, 262.8184
186.5730, 261.6990
187.0551, 258.2992
187.5372, 253.5050
188.0193, 250.3519
188.5014, 249.0840
188.9836, 248.5836
189.4657, 247.5580
189.9478, 246.0369
190.4299, 244.2627
190.9120, 241.9511
191.3941, 239.3461
191.8763, 237.9349
192.3584, 237.9664
192.8405, 238.5403
193.3226, 238.4072
193.8047, 237.5652
194.2868, 236.5586
194.7690, 235.4866
195.2511, 234.3843
195.7332, 233.6296
196.2153, 233.2171
196.6974, 233.1845
197.1795, 233.8065
197.6617, 235.1545
198.1438, 236.3047
198.6259, 236.6404
199.1080, 236.1656
199.5901, 236.1993
200.0722, 236.8869
200.5544, 237.9042
201.0365, 238.6042
201.5186, 238.9216
202.0007, 239.3462
202.4828, 240.1773
202.9649, 241.4533
203.4471, 242.5169
203.9292, 243.2534
204.4113, 243.9073
204.8934, 245.0127
205.3755, 246.6430
205.8576, 248.3670
206.3398, 249.9361
206.8219, 251.2878
207.3040, 252.9149
207.7861, 254.8481
208.2682, 257.0146
208.7503, 259.2701
209.2325, 261.5980
209.7146, 264.0028
210.1967, 266.5811
210.6788, 269.4654
211.1609, 271.8057
211.6430, 273.2856
212.1252, 274.4611
212.6073, 276.6490
213.0894, 280.1655
213.5715, 283.8375
214.0536, 287.1732
214.5357, 290.1577
215.0179, 292.8940
215.5000, 295.3705
215.9821, 297.6288
216.4642, 299.6686
216.9463, 301.2127
217.4284, 303.0923
217.9105, 305.8813
218.3927, 310.0918
218.8748, 313.3871
219.3569, 315.5386
219.8390, 316.8959
220.3211, 318.1790
220.8032, 319.1676
221.2854, 320.5103
221.7675, 322.7121
222.2496, 326.3850
222.7317, 328.8546
223.2138, 329.5406
223.6959, 329.3046
224.1781, 330.1278
224.6602, 332.5899
225.1423, 335.0866
225.6244, 336.9461
226.1065, 338.0888
226.5886, 338.8996
227.0708, 339.2961
227.5529, 339.4069
228.0350, 339.5466
228.5171, 339.9568
228.9992, 339.9946
229.4813, 339.3829
229.9635, 337.9660
230.4456, 336.3865
230.9277, 334.5680
231.4098, 332.6473
231.8919, 330.8873
232.3740, 329.5045
232.8562, 327.9585
233.3383, 326.0601
233.8204, 323.7654
234.3025, 321.2290
234.7846, 318.2365
235.2667, 315.1155
235.7489, 312.5734
236.2310, 311.0310
236.7131, 309.3928
237.1952, 307.2064
237.6773, 304.2876
238.1594, 301.6208
238.6416, 299.2478
239.1237, 297.1026
239.6058, 295.0749
240.0879, 293.0645
240.5700, 291.2975
241.0521, 289.8366
241.5343, 288.7074
242.0164, 287.8326
242.4985, 287.2934
242.9806, 286.9468
243.4627, 286.6361
243.9448, 286.5829
244.4270, 286.1621
244.9091, 285.0477
245.3912, 282.9989
245.8733, 281.5455
246.3554, 280.9987
246.8375, 280.7790
247.3197, 280.0824
247.8018, 278.5314
248.2839, 277.1897
248.7660, 276.4469
249.2481, 276.4374
249.7302, 275.9021
250.2124, 274.4645
250.6945, 272.8534
251.1766, 272.0205
251.6587, 272.7297
252.1408, 272.6986
252.6229, 271.0531
253.1051, 267.5946
253.5872, 265.6066
254.0693, 266.0863
254.5514, 266.8938
255.0335, 265.6519
255.5156, 261.2962
255.9978, 257.2515
256.4799, 254.2112
256.9620, 252.1553
257.4441, 250.1681
257.9262, 248.3587
258.4083, 246.4723
258.8904, 244.2755
259.3726, 241.6004
259.8547, 238.9845
260.3368, 236.5394
260.8189, 234.2358
261.3010, 231.9685
261.7831, 229.6753
262.2653, 227.5207
262.7474, 225.7016
263.2295, 224.3225
263.7116, 222.9373
264.1937, 221.4741
264.6758, 219.9584
265.1580, 218.3910
265.6401, 216.6425
266.1222, 215.1105
266.6043, 214.1948
267.0864, 214.1703
267.5685, 213.7201
268.0507, 212.5587
268.5328, 210.9134
269.0149, 209.6173
269.4970, 208.7034
269.9791, 208.0307
270.4612, 207.5840
270.9434, 207.4668
271.4255, 207.0621
271.9076, 206.2174
272.3897, 205.1312
272.8718, 204.3293
273.3539, 203.8756
273.8361, 203.4872
274.3182, 203.0200
274.8003, 202.4637
275.2824, 201.8803
275.7645, 201.2183
276.2466, 200.5938
276.7288, 200.3661
277.2109, 200.6719
277.6930, 200.7008
278.1751, 199.8597
278.6572, 198.0721
279.1393, 196.9989
279.6215, 196.7761
280.1036, 197.0113
280.5857, 197.1725
281.0678, 197.2655
281.5499, 197.2626
282.0320, 197.2117
282.5142, 197.0958
282.9963, 196.5140
283.4784, 195.3194
283.9605, 194.1114
284.4426, 193.7522
284.9247, 194.2586
285.4069, 194.7175
285.8890, 194.7909
286.3711, 194.5661
286.8532, 194.4719
287.3353, 194.5170
287.8174, 194.6388
288.2996, 194.7518
288.7817, 194.8656
289.2638, 195.0972
289.7459, 195.5184
290.2280, 196.0593
290.7101, 196.5201
291.1923, 196.8969
291.6744, 197.2996
292.1565, 197.8963
292.6386, 198.6313
293.1207, 199.1731
293.6028, 199.3047
294.0850, 199.3781
294.5671, 200.2645
295.0492, 201.9082
295.5313, 203.4188
296.0134, 203.8462
296.4955, 203.5979
296.9777, 203.9114
297.4598, 205.0956
297.9419, 206.6346
298.4240, 207.7931
298.9061, 208.6268
299.3882, 209.4530
299.8704, 210.5240
300.3525, 211.7080
300.8346, 212.7111
301.3167, 213.4388
301.7988, 214.2476
302.2809, 215.6745
302.7631, 217.5309
303.2452, 219.2980
303.7273, 220.4790
304.2094, 221.4984
304.6915, 222.9684
305.1736, 224.9661
305.6558, 227.0259
306.1379, 228.7982
306.6200, 230.3406
307.1021, 231.7557
307.5842, 232.8557
308.0663, 233.9939
308.5485, 235.6433
309.0306, 237.7777
309.5127, 239.8375
309.9948, 241.1641
310.4769, 242.2636
310.9590, 243.7831
311.4412, 246.2161
311.9233, 248.8785
312.4054, 251.4665
312.8875, 253.9573
313.3696, 256.1133
313.8517, 257.2760
314.3339, 258.2923
314.8160, 259.9642
315.2981, 262.9020
315.7802, 265.8582
316.2623, 268.2265
316.7444, 270.1319
317.2266, 271.9429
317.7087, 273.5983
318.1908, 275.3369
318.6729, 277.3750
319.1550, 279.8950
319.6371, 282.3075
320.1193, 284.3077
320.6014, 286.0768
321.0835, 287.9412
321.5656, 289.8974
322.0477, 292.0217
322.5298, 294.3765
323.0120, 296.9859
323.4941, 299.6926
323.9762, 302.6900
324.4583, 305.6786
324.9404, 308.3358
325.4225, 309.8756
325.9047, 311.8373
326.3868, 314.8481
326.8689, 318.9875
327.3510, 322.5328
327.8331, 324.9159
328.3152, 326.9464
328.7974, 329.1806
329.2795, 331.3720
329.7616, 334.1042
330.2437, 337.6822
330.7258, 341.9115
331.2079, 345.8092
331.6901, 349.1154
332.1722, 352.3436
332.6543, 355.7243
333.1364, 359.0607
333.6185, 362.8763
334.1006, 367.3979
334.5828, 372.3178
335.0649, 376.7535
335.5470, 380.4228
336.0291, 384.1632
336.5112, 388.2795
336.9933, 392.8841
337.4755, 397.4118
337.9576, 401.8355
338.4397, 406.1595
338.9218, 410.3580
339.4039, 414.2518
339.8860, 418.5685
340.3681, 423.6150
340.8503, 429.3564
341.3324, 434.6901
341.8145, 439.6630
342.2966, 444.2691
342.7787, 448.4906
343.2608, 452.2614
343.7430, 456.2961
344.2251, 460.6519
344.7072, 465.3866
345.1893, 470.8555
345.6714, 477.2066
346.1535, 483.0345
346.6357, 486.8936
347.1178, 489.1667
347.5999, 492.2850
348.0820, 496.7648
348.5641, 501.6485
349.0462, 505.3950
349.5284, 508.1332
350.0105, 510.9761
350.4926, 514.7734
350.9747, 519.0558
351.4568, 522.8443
351.9389, 526.0873
352.4211, 528.8389
352.9032, 531.0239
353.3853, 532.7216
353.8674, 534.1220
354.3495, 535.3444
354.8316, 536.2871
355.3138, 536.8637
355.7959, 537.0733
356.2780, 536.8716
356.7601, 536.1586
357.2422, 535.0418
357.7243, 533.6339
358.2065, 531.9070
358.6886, 530.0170
359.1707, 527.8792
359.6528, 525.6287
360.1349, 523.6755
360.6170, 522.6865
361.0992, 521.7596
361.5813, 520.2268
362.0634, 517.8942
362.5455, 515.3024
363.0276, 512.4030
363.5097, 509.4284
363.9919, 506.7263
364.4740, 504.7614
364.9561, 502.7535
365.4382, 500.4078
365.9203, 497.6793
366.4024, 494.8220
366.8846, 491.8579
367.3667, 488.7812
367.8488, 485.5884
368.3309, 482.4384
368.8130, 478.9994
369.2951, 475.0204
369.7773, 470.5960
370.2594, 466.5036
370.7415, 463.4114
371.2236, 460.0185
371.7057, 455.6383
372.1878, 449.4433
372.6700, 443.8447
373.1521, 439.1139
373.6342, 434.9033
374.1163, 430.6137
374.5984, 426.3658
375.0805, 421.8626
375.5627, 416.9301
376.0448, 411.5064
376.5269, 406.0742
377.0090, 400.4805
377.4911, 395.0539
377.9732, 390.1037
378.4554, 385.7127
378.9375, 381.4482
379.4196, 377.2430
379.9017, 373.0726
380.3838, 368.6748
380.8659, 364.0788
381.3481, 359.3348
381.8302, 354.4067
382.3123, 349.3526
382.7944, 344.6274
383.2765, 340.2843
383.7586, 336.1752
384.2408, 331.8959
384.7229, 327.5476
385.2050, 323.4916
385.6871, 320.1895
386.1692, 317.3006
386.6513, 313.9228
387.1335, 310.0355
387.6156, 306.2961
388.0977, 303.3851
388.5798, 301.0829
389.0619, 298.9515
389.5440, 296.8748
390.0262, 294.8991
390.5083, 293.0977
390.9904, 291.4208
391.4725, 289.7243
391.9546, 288.0166
392.4367, 286.2011
392.9189, 284.0978
393.4010, 281.4947
393.8831, 279.0923
394.3652, 277.3314
394.8473, 276.0049
395.3294, 274.7628
395.8116, 273.4930
396.2937, 272.3014
396.7758, 271.1849
397.2579, 270.1266
397.7400, 269.3430
398.2221, 268.9115
398.7043, 268.7615
399.1864, 268.8383
399.6685, 269.6808
400.1506, 270.1127
400.6327, 269.8406
401.1148, 269.0129
401.5970, 268.3229
402.0791, 267.7843
402.5612, 267.3745
403.0433, 267.0545
403.5254, 266.7108
404.0075, 266.8345
404.4897, 267.6937
404.9718, 268.7967
405.4539, 269.3188
405.9360, 269.0293
406.4181, 268.9052
406.9002, 269.2506
407.3824, 270.0200
407.8645, 270.8247
408.3466, 271.6773
408.8287, 272.5122
409.3108, 273.2755
409.7929, 273.9622
410.2751, 274.5572
410.7572, 274.9880
411.2393, 275.4425
411.7214, 276.3843
412.2035, 277.7560
412.6856, 279.0146
413.1678, 279.7543
413.6499, 280.1743
414.1320, 280.6687
414.6141, 281.2558
415.0962, 282.0026
415.5783, 283.1246
416.0605, 284.4449
416.5426, 285.6656
417.0247, 286.9627
417.5068, 287.8657
417.9889, 287.6964
418.4710, 286.6686
418.9532, 285.7582
419.4353, 285.6065
419.9174, 285.7280
420.3995, 285.7455
420.8816, 285.5610
421.3637, 285.3342
421.8459, 285.3007
422.3280, 285.2208
422.8101, 284.7282
423.2922, 282.9517
423.7743, 281.4878
424.2564, 281.1872
424.7386, 282.1993
425.2207, 282.3371
425.7028, 280.7003
426.1849, 278.6006
426.6670, 276.8799
427.1491, 275.6894
427.6313, 274.6703
428.1134, 273.9571
428.5955, 273.3895
429.0776, 272.4893
429.5597, 271.0388
430.0418, 269.6729
430.5240, 268.6137
431.0061, 267.8736
431.4882, 267.3878
431.9703, 267.2969
432.4524, 267.1534
432.9345, 266.2929
433.4167, 264.6900
433.8988, 263.3823
434.3809, 262.6407
434.8630, 262.3420
435.3451, 262.2587
435.8272, 262.3868
436.3094, 262.6276
436.7915, 263.0860
437.2736, 263.5967
437.7557, 263.6751
438.2378, 263.2235
438.7199, 262.6975
439.2020, 262.3817
439.6841, 262.3392
440.1663, 262.6989
440.6484, 264.1522
441.1305, 265.5672
441.6126, 265.7390
442.0947, 264.8775
442.5768, 264.2577
443.0590, 264.8093
443.5411, 265.7142
444.0232, 266.3204
444.5053, 266.3600
444.9874, 266.4096
445.4695, 266.4302
445.9517, 266.6171
446.4338, 267.2886
446.9159, 269.3646
447.3980, 271.0826
447.8801, 271.7038
448.3622, 271.1289
448.8444, 271.1148
449.3265, 272.0316
449.8086, 273.1913
450.2907, 274.1470
450.7728, 274.7929
451.2549, 275.4937
451.7371, 276.2536
452.2192, 277.0860
452.7013, 278.0639
453.1834, 279.2549
453.6655, 280.3119
454.1476, 281.0029
454.6298, 281.3769
455.1119, 282.0624
455.5940, 283.0912
456.0761, 284.2238
456.5582, 285.1356
457.0403, 285.9018
457.5225, 286.9760
458.0046, 288.5375
458.4867, 290.2298
458.9688, 291.2437
459.4509, 291.8115
459.9330, 292.8537
460.4152, 295.5335
460.8973, 298.6658
461.3794, 300.5781
461.8615, 301.1816
462.3436, 301.9666
462.8257, 304.1969
463.3079, 307.0503
463.7900, 309.6038
464.2721, 311.5154
464.7542, 313.2130
465.2363, 314.7767
465.7184, 316.2520
466.2006, 317.7656
466.6827, 319.1618
467.1648, 320.7693
467.6469, 322.7941
468.1290, 325.4164
468.6111, 327.7754
469.0933, 329.6740
469.5754, 331.4438
470.0575, 333.3824
470.5396, 335.4277
471.0217, 337.7778
471.5038, 340.5811
471.9860, 343.6924
472.4681, 346.6266
472.9502, 349.3079
473.4323, 352.0776
473.9144, 355.1613
474.3965, 358.5507
474.8787, 361.5961
475.3608, 364.2390
475.8429, 366.7564
476.3250, 369.3618
476.8071, 372.0571
477.2892, 374.9056
477.7714, 377.9963
478.2535, 381.0832
478.7356, 383.7919
479.2177, 386.1743
479.6998, 388.3904
480.1819, 390.2779
480.6641, 392.2288
481.1462, 394.7820
481.6283, 398.0402
482.1104, 401.1029
482.5925, 403.4244
483.0746, 405.3010
483.5568, 407.0450
484.0389, 408.6929
484.5210, 410.2604
485.0031, 411.5837
485.4852, 412.7993
485.9673, 414.3741
486.4495, 416.5939
486.9316, 418.9574
487.4137, 421.3350
487.8958, 423.7628
488.3779, 425.9879
488.8600, 427.7640
489.3422, 429.5963
489.8243, 432.1197
490.3064, 435.6964
490.7885, 438.4980
491.2706, 439.9492
491.7527, 440.7604
492.2349, 442.8132
492.7170, 446.1631
493.1991, 449.9113
493.6812, 453.9283
494.1633, 457.9951
494.6454, 461.0497
495.1276, 463.0177
495.6097, 465.0194
496.0918, 468.1590
496.5739, 472.0834
497.0560, 475.9456
497.5381, 479.6703
498.0203, 483.1845
498.5024, 486.4770
498.9845, 489.5340
499.4666, 492.4094
499.9487, 494.9029
500.4308, 497.3727
500.9130, 500.1248
501.3951, 503.1551
501.8772, 505.9325
502.3593, 508.3140
502.8414, 510.3414
503.3235, 512.0482
503.8057, 512.9903
504.2878, 514.2664
504.7699, 516.6344
505.2520, 519.0851
505.7341, 519.9406
506.2162, 518.9564
506.6984, 516.7995
507.1805, 513.3099
507.6626, 508.6612
508.1447, 504.5557
508.6268, 501.0727
509.1089, 497.8188
509.5911, 494.9801
510.0732, 492.3987
510.5553, 488.1226
511.0374, 481.8167
511.5195, 474.5351
512.0016, 467.7596
512.4838, 461.1341
512.9659, 453.6025
513.4480, 443.9883
513.9301, 433.8788
514.4122, 425.1508
514.8943, 417.5311
515.3765, 409.8566
515.8586, 401.4267
516.3407, 392.6796
516.8228, 384.0488
517.3049, 375.5705
517.7870, 366.9659
518.2692, 358.0429
518.7513, 349.0712
519.2334, 340.3462
519.7155, 331.8837
520.1976, 323.6771
520.6797, 315.7355
521.1619, 308.0744
521.6440, 300.8276
522.1261, 294.2259
522.6082, 287.7608
523.0903, 281.2086
523.5724, 274.5607
524.0546, 268.4064
524.5367, 262.8839
525.0188, 257.5603
525.5009, 251.8537
525.9830, 245.8181
526.4651, 240.4519
526.9473, 235.9559
527.4294, 231.8696
527.9115, 227.5992
528.3936, 223.2348
528.8757, 218.9884
529.3578, 215.1958
529.8400, 211.4676
530.3221, 207.2287
530.8042, 202.6213
531.2863, 198.3145
531.7684, 194.9553
532.2505, 191.9053
532.7327, 188.6706
533.2148, 185.0320
533.6969, 181.7266
534.1790, 179.2319
534.6611, 177.0774
535.1432, 174.7825
535.6254, 172.1944
536.1075, 169.5589
536.5896, 166.9276
537.0717, 164.2704
537.5538, 161.5789
538.0359, 158.7302
538.5181, 156.0868
539.0002, 153.7874
539.4823, 151.8384
539.9644, 150.0305
540.4465, 148.3745
540.9286, 146.8043
541.4108, 145.1836
541.8929, 143.5663
542.3750, 142.3093
542.8571, 141.5539
543.3392, 140.9313
543.8214, 140.3342
544.3035, 139.5316
544.7856, 137.9494
545.2677, 134.4330
545.7498, 130.7619
546.2319, 128.0354
546.7141, 126.2621
547.1962, 125.3838
547.6783, 127.0276
548.1604, 128.2948
548.6425, 127.1539
549.1246, 122.0324
549.6068, 118.6779
550.0889, 119.0928
550.5710, 120.5511
551.0531, 120.5635
551.5352, 118.4768
552.0173, 116.3110
552.4995, 114.2664
552.9816, 112.3159
553.4637, 110.3318
553.9458, 108.2542
554.4279, 106.5729
554.9100, 105.6577
555.3922, 105.2962
555.8743, 104.6531
556.3564, 103.7340
556.8385, 102.7156
557.3206, 101.6464
557.8027, 100.6030
558.2849, 99.69618
558.7670, 98.94618
559.2491, 98.31521
559.7312, 97.94553
560.2133, 97.63425
560.6954, 97.10380
561.1776, 95.94987
561.6597, 94.89333
562.1418, 94.27862
562.6239, 93.97533
563.1060, 93.52018
563.5881, 92.78128
564.0703, 91.93938
564.5524, 90.97449
565.0345, 89.86543
565.5166, 89.02489
565.9987, 88.51897
566.4808, 88.16856
566.9630, 87.88854
567.4451, 87.69813
567.9272, 87.30156
568.4093, 86.62385
568.8914, 85.86761
569.3735, 85.31348
569.8557, 84.93336
570.3378, 84.57639
570.8199, 84.26530
571.3020, 83.87536
571.7841, 83.06945
572.2662, 81.99979
572.7484, 81.23135
573.2305, 81.43632
573.7126, 81.76888
574.1947, 81.59559
574.6768, 80.84221
575.1589, 80.08456
575.6411, 79.36636
576.1232, 78.80801
576.6053, 78.52268
577.0874, 78.82712
577.5695, 78.89316
578.0516, 78.65025
578.5338, 78.21467
579.0159, 77.70899
579.4980, 77.08374
579.9801, 76.60715
580.4622, 76.39929
580.9443, 76.34309
581.4265, 76.05795
581.9086, 75.54483
582.3907, 75.03245
582.8728, 74.60828
583.3549, 74.28503
583.8370, 74.13447
584.3192, 74.15221
584.8013, 74.11726
585.2834, 73.73537
585.7655, 73.27074
586.2476, 73.05576
586.7297, 73.26907
587.2118, 73.40987
587.6939, 73.25497
588.1760, 72.91098
588.6581, 72.51382
589.1403, 72.03398
