##NAMES=Ferrostrunzite
##RRUFFID=R100079
##IDEAL CHEMISTRY=Fe^2+^Fe^3+^_2_(P^5+^O_4_)_2_(OH)_2_&#183;6H_2_O
##LOCALITY=Hornerstown, Monmouth County, New Jersey, USA
##OWNER=RRUFF
##SOURCE=Jeff Weissman
##DESCRIPTION=Radial sprays of colorless acicular crystals
##STATUS=The identification of this mineral has been confirmed only by single crystal X-ray diffraction.
##URL=rruff.info/R100079
91.53320, 253.3958
92.01532, 250.0759
92.49744, 248.2509
92.97955, 252.6246
93.46167, 258.5601
93.94379, 260.9154
94.42590, 260.6343
94.90802, 259.3410
95.39014, 258.2848
95.87225, 257.6947
96.35437, 256.5448
96.83649, 254.4724
97.31860, 251.9722
97.80072, 249.4453
98.28284, 246.7380
98.76495, 243.7220
99.24707, 241.0305
99.72919, 238.4794
100.2113, 236.5728
100.6934, 235.9474
101.1755, 236.0273
101.6577, 235.6881
102.1398, 233.7884
102.6219, 229.7914
103.1040, 227.0811
103.5861, 225.9881
104.0682, 225.4481
104.5504, 225.0755
105.0325, 224.7279
105.5146, 224.2236
105.9967, 223.1776
106.4788, 221.0095
106.9609, 219.8240
107.4431, 220.7414
107.9252, 222.4281
108.4073, 223.0024
108.8894, 221.7074
109.3715, 219.3797
109.8536, 217.3585
110.3358, 215.4960
110.8179, 214.1865
111.3000, 213.9635
111.7821, 214.7033
112.2642, 215.2022
112.7463, 214.9468
113.2285, 214.2375
113.7106, 213.2534
114.1927, 211.8915
114.6748, 210.6254
115.1569, 210.2746
115.6390, 211.3245
116.1212, 212.0292
116.6033, 211.6686
117.0854, 210.8360
117.5675, 210.0824
118.0496, 209.6743
118.5317, 209.5488
119.0139, 209.4194
119.4960, 209.4066
119.9781, 209.2436
120.4602, 208.6729
120.9423, 207.9200
121.4244, 207.3874
121.9066, 207.4124
122.3887, 208.0506
122.8708, 208.4636
123.3529, 208.4453
123.8350, 208.4407
124.3171, 208.8482
124.7993, 209.5906
125.2814, 210.0760
125.7635, 209.5841
126.2456, 207.7995
126.7277, 206.7341
127.2098, 206.8634
127.6920, 207.5246
128.1741, 208.0954
128.6562, 208.4718
129.1383, 208.6600
129.6204, 208.5143
130.1025, 208.0702
130.5847, 207.8108
131.0668, 208.1504
131.5489, 208.8773
132.0310, 209.2317
132.5131, 208.8920
132.9952, 208.2829
133.4774, 207.6313
133.9595, 206.9565
134.4416, 206.6335
134.9237, 207.3501
135.4058, 209.3895
135.8879, 210.5152
136.3701, 209.1409
136.8522, 207.4586
137.3343, 206.7954
137.8164, 207.4640
138.2985, 208.7222
138.7806, 209.2833
139.2628, 208.6500
139.7449, 208.1915
140.2270, 208.0974
140.7091, 208.1794
141.1912, 208.2639
141.6733, 208.2719
142.1555, 208.2525
142.6376, 208.3770
143.1197, 208.4611
143.6018, 208.9131
144.0839, 210.0395
144.5660, 211.5364
145.0482, 213.0302
145.5303, 214.3705
146.0124, 215.4585
146.4945, 215.5683
146.9766, 213.8040
147.4587, 212.1708
147.9409, 211.5074
148.4230, 211.7221
148.9051, 212.3354
149.3872, 213.2284
149.8693, 214.2536
150.3514, 214.7560
150.8336, 214.1309
151.3157, 213.3437
151.7978, 213.3621
152.2799, 214.3053
152.7620, 215.3403
153.2441, 215.7739
153.7263, 215.8664
154.2084, 216.0405
154.6905, 216.5753
155.1726, 217.2635
155.6547, 217.5937
156.1368, 217.3316
156.6190, 217.1306
157.1011, 217.4618
157.5832, 218.1029
158.0653, 218.6119
158.5474, 218.5298
159.0295, 217.9396
159.5117, 217.9760
159.9938, 219.3858
160.4759, 220.7271
160.9580, 221.3912
161.4401, 221.5272
161.9222, 221.6075
162.4044, 222.0782
162.8865, 223.0357
163.3686, 223.8325
163.8507, 224.3727
164.3328, 224.8529
164.8149, 225.3242
165.2971, 225.8099
165.7792, 226.3333
166.2613, 226.9660
166.7434, 227.9004
167.2255, 228.3054
167.7076, 227.8044
168.1898, 227.1166
168.6719, 226.7736
169.1540, 226.8718
169.6361, 227.1053
170.1182, 227.0180
170.6003, 226.3655
171.0825, 226.0336
171.5646, 226.4675
172.0467, 227.0864
172.5288, 227.2082
173.0109, 226.6201
173.4930, 225.6295
173.9752, 224.4806
174.4573, 222.9670
174.9394, 222.2669
175.4215, 223.5655
175.9036, 225.9183
176.3857, 227.1770
176.8679, 226.5857
177.3500, 224.8559
177.8321, 222.7308
178.3142, 220.0817
178.7963, 218.0797
179.2784, 217.7695
179.7606, 218.9417
180.2427, 219.9325
180.7248, 220.3201
181.2069, 220.3232
181.6890, 220.0427
182.1711, 219.4699
182.6533, 218.9745
183.1354, 219.0504
183.6175, 219.8109
184.0996, 220.2470
184.5817, 219.5566
185.0638, 218.8184
185.5460, 218.7791
186.0281, 219.5808
186.5102, 220.6265
186.9923, 221.0640
187.4744, 220.6695
187.9565, 220.2337
188.4387, 219.7444
188.9208, 219.3204
189.4029, 219.0073
189.8850, 218.8272
190.3671, 218.8449
190.8492, 219.2392
191.3314, 220.4950
191.8135, 221.3164
192.2956, 221.4855
192.7777, 221.3135
193.2598, 220.9426
193.7419, 220.4476
194.2241, 220.0184
194.7062, 220.1147
195.1883, 221.7619
195.6704, 222.7530
196.1525, 222.5826
196.6346, 221.8778
197.1168, 221.2921
197.5989, 221.0984
198.0810, 221.2800
198.5631, 221.8380
199.0452, 223.6133
199.5273, 224.6507
200.0095, 224.1387
200.4916, 222.7532
200.9737, 221.5874
201.4558, 221.1302
201.9379, 221.1708
202.4200, 221.0714
202.9022, 220.5378
203.3843, 220.3636
203.8664, 221.2696
204.3485, 222.8174
204.8306, 223.7267
205.3127, 223.2753
205.7949, 222.0300
206.2770, 221.3007
206.7591, 221.2446
207.2412, 221.2944
207.7233, 220.9743
208.2054, 220.3911
208.6876, 220.2827
209.1697, 221.3204
209.6518, 222.7088
210.1339, 223.1783
210.6160, 222.3878
211.0981, 221.5223
211.5803, 221.7122
212.0624, 222.9607
212.5445, 223.9423
213.0266, 224.0742
213.5087, 223.7652
213.9908, 223.3036
214.4730, 222.6870
214.9551, 222.1632
215.4372, 222.0000
215.9193, 222.2160
216.4014, 222.6786
216.8836, 223.7676
217.3657, 224.8631
217.8478, 225.5835
218.3299, 225.8349
218.8120, 225.6893
219.2941, 225.0459
219.7763, 223.5592
220.2584, 222.7409
220.7405, 223.3896
221.2226, 224.4243
221.7047, 225.1486
222.1868, 225.3699
222.6690, 225.3136
223.1511, 225.2851
223.6332, 225.1736
224.1153, 225.3719
224.5974, 226.1965
225.0795, 227.1143
225.5617, 227.7345
226.0438, 227.9509
226.5259, 227.9386
227.0080, 228.0153
227.4901, 228.3618
227.9722, 228.4495
228.4544, 228.1044
228.9365, 227.6332
229.4186, 227.2987
229.9007, 227.1660
230.3828, 227.0834
230.8649, 226.7728
231.3471, 225.9231
231.8292, 225.3499
232.3113, 225.5702
232.7934, 225.7481
233.2755, 224.9339
233.7576, 222.9482
234.2398, 220.6857
234.7219, 219.6960
235.2040, 221.2323
235.6861, 221.8276
236.1682, 220.7865
236.6503, 219.2046
237.1325, 218.0643
237.6146, 217.6273
238.0967, 217.5054
238.5788, 217.1314
239.0609, 216.3786
239.5430, 215.6440
240.0252, 214.9312
240.5073, 214.2487
240.9894, 213.6027
241.4715, 212.9919
241.9536, 212.4402
242.4357, 212.0049
242.9179, 211.7409
243.4000, 211.3488
243.8821, 210.5164
244.3642, 209.6758
244.8463, 209.3149
245.3284, 209.5367
245.8106, 210.1016
246.2927, 210.8816
246.7748, 211.9036
247.2569, 212.5444
247.7390, 212.4879
248.2211, 212.1000
248.7033, 211.7534
249.1854, 211.4864
249.6675, 211.3862
250.1496, 211.6491
250.6317, 212.2159
251.1138, 212.6781
251.5960, 212.8313
252.0781, 212.8863
252.5602, 213.1820
253.0423, 213.7984
253.5244, 214.3572
254.0065, 214.3913
254.4887, 214.0824
254.9708, 213.9269
255.4529, 214.4595
255.9350, 215.0497
256.4171, 214.5900
256.8992, 212.7978
257.3813, 211.1111
257.8635, 210.5829
258.3456, 210.8618
258.8277, 211.5306
259.3098, 212.9248
259.7919, 214.3760
260.2740, 214.7549
260.7562, 213.8139
261.2383, 212.8659
261.7204, 212.8251
262.2025, 213.1835
262.6846, 213.3201
263.1667, 212.9518
263.6489, 212.4146
264.1310, 212.2957
264.6131, 212.7628
265.0952, 212.9136
265.5773, 211.7118
266.0594, 210.2412
266.5416, 209.6535
267.0237, 210.4583
267.5058, 211.6972
267.9879, 212.0462
268.4700, 211.3275
268.9521, 210.5422
269.4343, 209.8386
269.9164, 209.3065
270.3985, 209.1414
270.8806, 209.4242
271.3627, 209.7391
271.8448, 209.4646
272.3270, 208.4360
272.8091, 207.6697
273.2912, 207.4089
273.7733, 207.4987
274.2554, 208.0879
274.7375, 209.1636
275.2197, 210.1080
275.7018, 210.0894
276.1839, 208.9201
276.6660, 208.0070
277.1481, 207.6040
277.6302, 207.4834
278.1124, 207.7481
278.5945, 208.3137
279.0766, 208.7577
279.5587, 208.4806
280.0408, 207.3396
280.5229, 206.7749
281.0051, 207.3868
281.4872, 208.1649
281.9693, 209.0436
282.4514, 209.8024
282.9335, 209.9135
283.4156, 208.6323
283.8978, 205.9120
284.3799, 203.9967
284.8620, 203.1061
285.3441, 202.9151
285.8262, 203.7698
286.3083, 205.2426
286.7905, 206.4733
287.2726, 206.7620
287.7547, 206.2355
288.2368, 206.1384
288.7189, 207.0582
289.2010, 207.7117
289.6832, 207.6986
290.1653, 207.2178
290.6474, 206.5271
291.1295, 205.7253
291.6116, 204.9104
292.0938, 204.5184
292.5759, 204.9508
293.0580, 205.2519
293.5401, 205.0700
294.0222, 204.7320
294.5043, 204.6590
294.9865, 205.0500
295.4686, 205.6551
295.9507, 205.8715
296.4328, 205.5865
296.9149, 205.0685
297.3970, 204.1273
297.8792, 203.1313
298.3613, 202.3641
298.8434, 201.9174
299.3255, 201.7575
299.8076, 201.8586
300.2897, 202.3358
300.7719, 202.8257
301.2540, 203.6168
301.7361, 204.1974
302.2182, 203.9867
302.7003, 203.0291
303.1824, 202.1026
303.6646, 202.3070
304.1467, 204.1924
304.6288, 205.1919
305.1109, 204.5086
305.5930, 203.6974
306.0751, 203.6089
306.5573, 204.1177
307.0394, 204.4818
307.5215, 203.9448
308.0036, 202.4086
308.4857, 201.3665
308.9678, 201.1407
309.4500, 201.1163
309.9321, 201.3038
310.4142, 201.5587
310.8963, 201.6568
311.3784, 201.4480
311.8605, 200.9498
312.3427, 200.2983
312.8248, 199.0628
313.3069, 198.1879
313.7890, 198.0479
314.2711, 198.2980
314.7532, 198.5471
315.2354, 198.6134
315.7175, 198.4612
316.1996, 197.9508
316.6817, 196.7172
317.1638, 195.6966
317.6459, 194.8952
318.1281, 194.3740
318.6102, 194.3674
319.0923, 194.8997
319.5744, 195.4970
320.0565, 195.2866
320.5386, 193.7233
321.0208, 192.6114
321.5029, 192.2564
321.9850, 192.1209
322.4671, 191.9758
322.9492, 191.7362
323.4313, 191.3173
323.9135, 190.4648
324.3956, 188.9146
324.8777, 188.3080
325.3598, 189.8644
325.8419, 191.2331
326.3240, 191.3403
326.8062, 190.4488
327.2883, 189.5014
327.7704, 189.2507
328.2525, 189.6463
328.7346, 189.7686
329.2167, 189.4588
329.6989, 189.0273
330.1810, 188.5357
330.6631, 187.9790
331.1452, 187.3002
331.6273, 186.4408
332.1094, 185.5316
332.5916, 184.9847
333.0737, 184.9234
333.5558, 185.0526
334.0379, 185.5289
334.5200, 186.0329
335.0021, 186.2629
335.4843, 186.1236
335.9664, 185.7364
336.4485, 185.2330
336.9306, 184.4823
337.4127, 184.0085
337.8948, 183.9721
338.3770, 184.1246
338.8591, 184.3734
339.3412, 184.6867
339.8233, 185.0266
340.3055, 185.4407
340.7876, 185.9720
341.2697, 186.1181
341.7518, 185.5349
342.2339, 184.8747
342.7160, 184.3116
343.1982, 183.8710
343.6803, 183.5549
344.1624, 183.3588
344.6445, 183.2895
345.1266, 183.4159
345.6087, 183.9483
346.0909, 184.3288
346.5730, 184.2868
347.0551, 184.0446
347.5372, 183.8943
348.0193, 183.9712
348.5014, 184.1303
348.9836, 184.0414
349.4657, 183.5542
349.9478, 183.3294
350.4299, 183.7475
350.9120, 184.3667
351.3941, 184.9564
351.8763, 185.4627
352.3584, 185.7776
352.8405, 185.7780
353.3226, 185.4600
353.8047, 184.9283
354.2868, 183.9297
354.7690, 182.9961
355.2511, 182.2986
355.7332, 181.8996
356.2153, 182.0031
356.6974, 183.0842
357.1795, 184.8306
357.6617, 186.0193
358.1438, 186.5308
358.6259, 186.6736
359.1080, 186.4478
359.5901, 186.0254
360.0722, 185.7080
360.5544, 185.7657
361.0365, 185.7860
361.5186, 184.9339
362.0007, 183.0380
362.4828, 181.6675
362.9649, 181.7275
363.4471, 182.5266
363.9292, 183.3775
364.4113, 184.2799
364.8934, 184.9288
365.3755, 184.9688
365.8576, 184.5013
366.3398, 184.0940
366.8219, 183.9123
367.3040, 183.7701
367.7861, 183.3363
368.2682, 182.6556
368.7503, 182.3322
369.2325, 182.8689
369.7146, 183.8400
370.1967, 184.6319
370.6788, 185.2412
371.1609, 185.3578
371.6430, 184.4436
372.1252, 182.8039
372.6073, 181.4902
373.0894, 180.7747
373.5715, 180.3239
374.0536, 179.9217
374.5357, 179.5715
375.0179, 179.3049
375.5000, 179.1942
375.9821, 179.1272
376.4642, 178.8181
376.9463, 178.1538
377.4284, 177.5479
377.9106, 177.2262
378.3927, 177.0485
378.8748, 176.8018
379.3569, 176.4383
379.8390, 175.9313
380.3211, 175.2106
380.8033, 174.2353
381.2854, 173.2760
381.7675, 172.0212
382.2496, 171.0297
382.7317, 170.9284
383.2138, 171.6446
383.6960, 172.4204
384.1781, 172.6776
384.6602, 172.4597
385.1423, 172.4592
385.6244, 172.8692
386.1065, 173.2346
386.5887, 173.3838
387.0708, 173.3900
387.5529, 173.3613
388.0350, 173.3398
388.5171, 173.3647
388.9992, 173.5464
389.4814, 174.5242
389.9635, 174.6078
390.4456, 172.8126
390.9277, 170.7889
391.4098, 170.0199
391.8919, 170.6105
392.3741, 171.5091
392.8562, 171.6128
393.3383, 170.8002
393.8204, 170.1190
394.3025, 169.3205
394.7846, 168.8965
395.2668, 169.3234
395.7489, 170.2171
396.2310, 170.8626
396.7131, 170.8261
397.1952, 170.3116
397.6773, 170.0365
398.1595, 170.1815
398.6416, 170.2730
399.1237, 170.2336
399.6058, 170.1311
400.0879, 169.9697
400.5700, 169.7710
401.0522, 169.6582
401.5343, 169.8363
402.0164, 170.3759
402.4985, 170.7862
402.9806, 171.2434
403.4627, 171.3535
403.9449, 170.6181
404.4270, 169.3713
404.9091, 168.4746
405.3912, 168.6293
405.8733, 169.4351
406.3554, 169.5154
406.8376, 168.4201
407.3197, 167.7305
407.8018, 168.7359
408.2839, 170.1575
408.7660, 170.5400
409.2481, 169.3897
409.7303, 168.0281
410.2124, 168.0432
410.6945, 169.3118
411.1766, 169.8266
411.6587, 168.7635
412.1408, 167.3266
412.6230, 166.6553
413.1051, 166.6627
413.5872, 166.7427
414.0693, 166.6397
414.5514, 166.4534
415.0335, 166.3607
415.5157, 166.3820
415.9978, 166.3712
416.4799, 166.1754
416.9620, 165.8868
417.4441, 165.7897
417.9262, 166.0336
418.4084, 166.2842
418.8905, 166.3833
419.3726, 166.3438
419.8547, 166.1439
420.3368, 165.7297
420.8189, 165.3115
421.3011, 165.2865
421.7832, 165.7908
422.2653, 166.0883
422.7474, 165.7783
423.2295, 165.4490
423.7116, 165.6943
424.1938, 166.4972
424.6759, 167.3755
425.1580, 167.9887
425.6401, 168.3368
426.1222, 168.4265
426.6043, 168.1654
427.0865, 167.7962
427.5686, 167.1660
428.0507, 166.5274
428.5328, 166.2402
429.0149, 166.4386
429.4970, 166.9463
429.9792, 167.4883
430.4613, 168.2160
430.9434, 168.6308
431.4255, 168.4458
431.9076, 168.2568
432.3897, 168.5659
432.8719, 169.2165
433.3540, 169.5719
433.8361, 169.0142
434.3182, 167.7516
434.8003, 167.3592
435.2824, 168.6230
435.7646, 169.5674
436.2467, 169.3703
436.7288, 168.8026
437.2109, 168.7710
437.6930, 169.5658
438.1751, 170.5150
438.6573, 170.6201
439.1394, 169.7859
439.6215, 169.4949
440.1036, 170.5323
440.5857, 171.4974
441.0678, 171.2859
441.5500, 170.1834
442.0321, 169.3121
442.5142, 169.3206
442.9963, 169.8820
443.4784, 170.5583
443.9605, 171.4158
444.4427, 171.8288
444.9248, 171.0501
445.4069, 169.8473
445.8890, 169.6485
446.3711, 170.9100
446.8532, 172.0576
447.3354, 171.8943
447.8175, 171.0274
448.2996, 170.9265
448.7817, 172.0168
449.2638, 173.2454
449.7459, 173.3717
450.2281, 172.3095
450.7102, 171.7232
451.1923, 172.1360
451.6744, 172.6289
452.1565, 172.5690
452.6386, 172.0928
453.1208, 171.6594
453.6029, 171.4893
454.0850, 171.5691
454.5671, 171.8675
455.0492, 172.7673
455.5313, 173.3594
456.0135, 173.4963
456.4956, 173.4160
456.9777, 173.1992
457.4598, 172.9257
457.9419, 172.8094
458.4240, 173.1104
458.9062, 173.8395
459.3883, 174.1984
459.8704, 173.7057
460.3525, 173.3762
460.8346, 173.4234
461.3167, 173.7589
461.7989, 174.4026
462.2810, 175.3758
462.7631, 176.2129
463.2452, 176.0370
463.7273, 174.6216
464.2094, 173.5274
464.6916, 172.9555
465.1737, 172.7768
465.6558, 173.0595
466.1379, 173.6907
466.6200, 174.3052
467.1021, 174.6254
467.5843, 174.8351
468.0664, 175.4290
468.5485, 176.5093
469.0306, 177.2332
469.5127, 177.0618
469.9948, 176.3866
470.4770, 175.7849
470.9591, 175.2179
471.4412, 174.9487
471.9233, 175.4108
472.4054, 176.1878
472.8875, 176.4375
473.3697, 175.9866
473.8518, 175.4218
474.3339, 175.3204
474.8160, 175.6710
475.2981, 175.6492
475.7802, 174.7861
476.2624, 174.0529
476.7445, 174.0817
477.2266, 174.5159
477.7087, 174.6191
478.1908, 174.0939
478.6729, 173.3008
479.1551, 172.8932
479.6372, 173.0422
480.1193, 173.1933
480.6014, 173.6798
481.0835, 173.8732
481.5656, 173.1324
482.0478, 171.7731
482.5299, 170.6673
483.0120, 170.4114
483.4941, 170.7978
483.9762, 171.1131
484.4583, 171.5446
484.9405, 171.5005
485.4226, 170.2509
485.9047, 168.9380
486.3868, 168.5947
486.8689, 169.2891
487.3510, 170.1021
487.8332, 170.2398
488.3153, 169.8294
488.7974, 169.5151
489.2795, 169.3907
489.7616, 169.1848
490.2437, 168.5474
490.7259, 167.7621
491.2080, 167.2814
491.6901, 167.2829
492.1722, 167.4127
492.6543, 167.3859
493.1364, 167.2832
493.6186, 167.4194
494.1007, 167.9465
494.5828, 168.4113
495.0649, 168.2104
495.5470, 167.2582
496.0291, 166.6127
496.5113, 166.6048
496.9934, 166.6331
497.4755, 166.2646
497.9576, 165.6498
498.4397, 165.2381
498.9218, 165.2622
499.4040, 165.4602
499.8861, 165.2099
500.3682, 163.9360
500.8503, 163.2945
501.3324, 163.9823
501.8145, 164.6306
502.2967, 164.0617
502.7788, 162.6337
503.2609, 161.7419
503.7430, 162.5086
504.2251, 164.3740
504.7072, 165.0786
505.1894, 164.0807
505.6715, 163.1610
506.1536, 162.6322
506.6357, 162.4490
507.1178, 162.7822
507.5999, 163.6019
508.0821, 164.2662
508.5642, 164.2230
509.0463, 163.6623
509.5284, 163.0633
510.0105, 162.3918
510.4926, 161.9729
510.9748, 162.2003
511.4569, 162.7808
511.9390, 163.0074
512.4211, 162.6891
512.9032, 162.2948
513.3853, 161.9945
513.8674, 161.7863
514.3495, 161.6676
514.8317, 161.6363
515.3138, 161.7158
515.7959, 161.9697
516.2780, 162.4241
516.7601, 162.6224
517.2422, 162.5204
517.7244, 162.2573
518.2065, 161.6109
518.6886, 160.9222
519.1707, 160.7311
519.6528, 161.2111
520.1349, 161.9799
520.6171, 162.5014
521.0992, 162.7888
521.5813, 162.7787
522.0634, 162.2026
522.5455, 161.5824
523.0276, 161.0256
523.5098, 160.5722
523.9919, 160.3040
524.4740, 160.3026
524.9561, 160.3641
525.4382, 160.0858
525.9203, 159.4577
526.4025, 159.2030
526.8846, 159.7474
527.3667, 160.3723
527.8488, 160.2232
528.3309, 159.4467
528.8130, 159.0142
529.2952, 159.5522
529.7773, 160.2905
530.2594, 160.4153
530.7415, 160.0662
531.2236, 159.9994
531.7057, 160.6130
532.1879, 161.4981
532.6700, 161.8600
533.1521, 161.4375
533.6342, 161.0544
534.1163, 160.7260
534.5984, 160.4412
535.0806, 160.2653
535.5627, 160.1318
536.0448, 159.8043
536.5269, 159.0967
537.0090, 158.2703
537.4911, 158.2038
537.9733, 159.4014
538.4554, 160.2470
538.9375, 160.2078
539.4196, 160.0610
539.9017, 160.2953
540.3839, 160.8830
540.8660, 161.5164
541.3481, 162.2157
541.8302, 162.7096
542.3123, 162.1612
542.7944, 160.4202
543.2766, 158.9835
543.7587, 158.5220
544.2408, 158.6169
544.7229, 158.6616
545.2050, 158.6552
545.6871, 158.6209
546.1693, 158.5163
546.6514, 158.4190
547.1335, 158.4281
547.6156, 158.5364
548.0977, 158.6776
548.5798, 158.8362
549.0620, 158.9571
549.5441, 158.8556
550.0262, 158.1050
550.5083, 157.7043
550.9904, 158.1673
551.4725, 158.5928
551.9547, 158.0503
552.4368, 156.7470
552.9189, 155.7170
553.4010, 155.7760
553.8831, 156.6583
554.3652, 157.3572
554.8474, 157.9503
555.3295, 158.1565
555.8116, 157.3474
556.2937, 156.5091
556.7758, 156.4947
557.2579, 157.2910
557.7401, 157.9998
558.2222, 157.9699
558.7043, 157.5645
559.1864, 157.4070
559.6685, 157.5156
560.1506, 157.6933
560.6328, 157.8945
561.1149, 158.0576
561.5970, 158.0337
562.0791, 157.7974
562.5612, 157.5024
563.0433, 157.1321
563.5255, 156.7465
564.0076, 156.3245
564.4897, 155.9180
564.9718, 155.7081
565.4539, 155.8329
565.9360, 156.1655
566.4182, 156.2833
566.9003, 156.1637
567.3824, 155.8609
567.8645, 155.2475
568.3466, 154.5891
568.8287, 153.9374
569.3109, 153.3752
569.7930, 153.1354
570.2751, 153.4951
570.7572, 154.1252
571.2393, 154.2808
571.7214, 153.9190
572.2036, 153.6078
572.6857, 153.5532
573.1678, 153.5954
573.6499, 153.5573
574.1320, 153.4415
574.6141, 153.2812
575.0963, 153.0072
575.5784, 152.7541
576.0605, 152.5180
576.5426, 152.3875
577.0247, 152.7691
577.5068, 153.9159
577.9890, 155.2210
578.4711, 155.5020
578.9532, 154.2174
579.4353, 153.2646
579.9174, 152.7546
580.3995, 152.4189
580.8817, 152.1571
581.3638, 151.9698
581.8459, 151.9318
582.3280, 152.0985
582.8101, 152.2643
583.2922, 152.1111
583.7744, 151.6315
584.2565, 150.8799
584.7386, 149.5492
585.2207, 148.3851
585.7029, 148.0387
586.1850, 148.2495
586.6671, 148.3545
587.1492, 148.0013
587.6313, 147.7582
588.1135, 148.3506
588.5956, 149.3371
