##NAMES=Ferrierite-Mg
##RRUFFID=R070118
##IDEAL CHEMISTRY=[Mg_2_(K,Na)_2_Ca_0.5_](Si_29_Al_7_)O_72_&#183;18H_2_O
##LOCALITY=Monastir, near Cagliari, Sardinia, Italy
##OWNER=RRUFF
##SOURCE=Michael Scott
##DESCRIPTION=Pale tan colored fibrous radiating crystals associated with hematite
##STATUS=The identification of this mineral is confirmed by single-crystal X-ray diffraction and chemical analysis.
##URL=rruff.info/R070118
##MEASURED CHEMISTRY=(Ca_0.15_Na_0.01_)(K_0.93_Na_0.07_)_Σ=1_(Mg_1.80_K_0.20_)_Σ=2_Ca_0.50_(Si_29.89_Al_6.11_)_Σ=36_O_72_·20.71H_2_O ; H_2_O estimated by difference
172.3590, 21358.38
172.8412, 21413.75
173.3233, 21434.83
173.8054, 21440.07
174.2875, 21459.36
174.7696, 21510.67
175.2517, 21577.51
175.7339, 21644.29
176.2160, 21711.66
176.6981, 21770.97
177.1802, 21811.14
177.6623, 21837.62
178.1444, 21863.55
178.6266, 21886.82
179.1087, 21915.24
179.5908, 21967.61
180.0729, 22046.57
180.5550, 22129.16
181.0371, 22191.82
181.5193, 22236.73
182.0014, 22270.35
182.4835, 22283.41
182.9656, 22287.80
183.4477, 22317.46
183.9298, 22377.89
184.4120, 22451.68
184.8941, 22517.28
185.3762, 22575.76
185.8583, 22631.05
186.3404, 22687.29
186.8225, 22742.77
187.3047, 22791.32
187.7868, 22829.84
188.2689, 22865.18
188.7510, 22910.09
189.2331, 22964.29
189.7152, 23020.72
190.1974, 23077.43
190.6795, 23133.25
191.1616, 23180.01
191.6437, 23215.00
192.1258, 23241.43
192.6080, 23263.89
193.0901, 23281.99
193.5722, 23303.11
194.0543, 23330.52
194.5364, 23364.20
195.0185, 23413.96
195.5007, 23491.79
195.9828, 23582.79
196.4649, 23624.53
196.9470, 23608.54
197.4291, 23585.62
197.9112, 23608.52
198.3934, 23681.57
198.8755, 23734.56
199.3576, 23742.95
199.8397, 23717.53
200.3218, 23724.51
200.8039, 23768.88
201.2861, 23831.72
201.7682, 23896.46
202.2503, 23963.52
202.7324, 24030.60
203.2145, 24102.53
203.6966, 24177.72
204.1788, 24220.70
204.6609, 24220.47
205.1430, 24208.50
205.6251, 24225.24
206.1072, 24278.35
206.5893, 24328.30
207.0715, 24360.86
207.5536, 24374.71
208.0357, 24402.80
208.5178, 24454.55
208.9999, 24507.68
209.4820, 24526.69
209.9642, 24498.91
210.4463, 24475.72
210.9284, 24472.92
211.4105, 24491.38
211.8926, 24526.06
212.3747, 24584.76
212.8569, 24652.06
213.3390, 24704.76
213.8211, 24741.65
214.3032, 24765.59
214.7853, 24772.80
215.2674, 24755.68
215.7496, 24755.79
216.2317, 24777.67
216.7138, 24813.96
217.1959, 24849.34
217.6780, 24880.72
218.1601, 24918.18
218.6423, 24969.66
219.1244, 25047.96
219.6065, 25101.55
220.0886, 25124.14
220.5707, 25125.06
221.0528, 25127.06
221.5350, 25131.90
222.0171, 25134.72
222.4992, 25129.14
222.9813, 25100.46
223.4634, 25104.48
223.9455, 25157.58
224.4277, 25240.86
224.9098, 25294.25
225.3919, 25306.00
225.8740, 25308.08
226.3561, 25314.56
226.8382, 25322.45
227.3204, 25342.99
227.8025, 25384.96
228.2846, 25439.09
228.7667, 25471.20
229.2488, 25465.10
229.7310, 25459.34
230.2131, 25474.75
230.6952, 25518.55
231.1773, 25569.85
231.6594, 25642.44
232.1415, 25723.33
232.6237, 25751.42
233.1058, 25695.95
233.5879, 25628.41
234.0700, 25586.89
234.5521, 25566.52
235.0342, 25585.79
235.5164, 25671.00
235.9985, 25803.15
236.4806, 25869.61
236.9627, 25827.12
237.4448, 25773.89
237.9269, 25772.79
238.4091, 25855.16
238.8912, 25927.45
239.3733, 25983.52
239.8554, 26023.41
240.3375, 26044.40
240.8196, 26029.86
241.3018, 26016.71
241.7839, 26031.29
242.2660, 26091.21
242.7481, 26143.62
243.2302, 26188.54
243.7123, 26223.53
244.1945, 26223.29
244.6766, 26151.09
245.1587, 26088.38
245.6408, 26098.18
246.1229, 26227.44
246.6050, 26330.48
247.0872, 26385.94
247.5693, 26398.73
248.0514, 26410.31
248.5335, 26416.78
249.0156, 26426.83
249.4977, 26448.33
249.9799, 26489.04
250.4620, 26523.39
250.9441, 26545.51
251.4262, 26557.24
251.9083, 26576.02
252.3904, 26604.19
252.8726, 26636.17
253.3547, 26668.76
253.8368, 26706.03
254.3189, 26734.46
254.8010, 26748.74
255.2831, 26751.04
255.7653, 26763.46
256.2474, 26791.05
256.7295, 26821.53
257.2116, 26845.22
257.6937, 26860.09
258.1758, 26873.27
258.6580, 26885.29
259.1401, 26896.27
259.6222, 26903.85
260.1043, 26898.94
260.5864, 26904.70
261.0685, 26944.09
261.5507, 27032.63
262.0328, 27109.04
262.5149, 27164.83
262.9970, 27201.78
263.4791, 27231.03
263.9612, 27252.63
264.4434, 27266.90
264.9255, 27269.27
265.4076, 27250.66
265.8897, 27213.29
266.3718, 27278.72
266.8539, 27323.27
267.3361, 27348.07
267.8182, 27293.94
268.3003, 27341.72
268.7824, 27348.67
269.2645, 27353.93
269.7466, 27416.07
270.2288, 27373.42
270.7109, 27434.65
271.1930, 27454.41
271.6751, 27493.15
272.1572, 27500.72
272.6393, 27552.07
273.1215, 27622.70
273.6036, 27668.59
274.0857, 27678.78
274.5678, 27661.67
275.0499, 27642.82
275.5320, 27617.32
276.0142, 27606.54
276.4963, 27638.22
276.9784, 27719.12
277.4605, 27766.16
277.9426, 27757.94
278.4247, 27716.86
278.9069, 27706.31
279.3890, 27728.11
279.8711, 27772.60
280.3532, 27843.16
280.8354, 27940.45
281.3175, 28022.65
281.7996, 28085.54
282.2817, 28128.42
282.7638, 28137.18
283.2459, 28107.26
283.7281, 28087.26
284.2102, 28127.77
284.6923, 28222.24
285.1744, 28266.85
285.6565, 28235.01
286.1386, 28169.18
286.6208, 28156.00
287.1029, 28196.64
287.5850, 28250.33
288.0671, 28293.23
288.5492, 28327.35
289.0313, 28367.71
289.5135, 28420.84
289.9956, 28470.91
290.4777, 28480.54
290.9598, 28453.40
291.4419, 28437.18
291.9240, 28475.90
292.4062, 28551.36
292.8883, 28589.83
293.3704, 28574.25
293.8525, 28552.17
294.3346, 28602.26
294.8167, 28713.00
295.2989, 28817.20
295.7810, 28877.82
296.2631, 28904.40
296.7452, 28916.65
297.2273, 28913.69
297.7094, 28906.39
298.1916, 28906.70
298.6737, 28913.19
299.1558, 28920.78
299.6379, 28917.96
300.1200, 28917.14
300.6021, 28942.76
301.0843, 28999.05
301.5664, 29062.40
302.0485, 29110.89
302.5306, 29148.95
303.0127, 29185.92
303.4948, 29240.57
303.9770, 29289.95
304.4591, 29296.91
304.9412, 29256.30
305.4233, 29222.47
305.9054, 29246.21
306.3875, 29305.85
306.8697, 29365.21
307.3518, 29422.27
307.8339, 29463.66
308.3160, 29462.57
308.7981, 29418.89
309.2802, 29391.34
309.7624, 29442.19
310.2445, 29526.46
310.7266, 29586.87
311.2087, 29575.74
311.6908, 29556.31
312.1729, 29569.14
312.6551, 29612.44
313.1372, 29658.56
313.6193, 29706.82
314.1014, 29744.61
314.5835, 29759.68
315.0656, 29716.55
315.5478, 29680.24
316.0299, 29684.72
316.5120, 29723.86
316.9941, 29759.62
317.4762, 29764.89
317.9583, 29768.20
318.4405, 29790.51
318.9226, 29857.83
319.4047, 29918.74
319.8868, 29954.58
320.3689, 29971.47
320.8510, 29992.00
321.3332, 30023.54
321.8153, 30058.94
322.2974, 30095.50
322.7795, 30140.80
323.2616, 30175.11
323.7437, 30184.20
324.2259, 30179.44
324.7080, 30190.32
325.1901, 30239.44
325.6722, 30289.03
326.1543, 30324.57
326.6364, 30342.31
327.1186, 30352.71
327.6007, 30336.97
328.0828, 30317.19
328.5649, 30333.78
329.0470, 30426.93
329.5291, 30513.28
330.0113, 30568.03
330.4934, 30584.05
330.9755, 30594.45
331.4576, 30588.96
331.9397, 30583.96
332.4218, 30604.71
332.9040, 30675.79
333.3861, 30730.27
333.8682, 30746.74
334.3503, 30721.71
334.8324, 30706.23
335.3145, 30694.49
335.7967, 30699.59
336.2788, 30747.25
336.7609, 30864.31
337.2430, 30936.13
337.7251, 30924.13
338.2072, 30840.60
338.6894, 30785.85
339.1715, 30760.27
339.6536, 30761.13
340.1357, 30795.36
340.6178, 30867.67
341.0999, 30925.94
341.5821, 30958.34
342.0642, 30973.56
342.5463, 31001.47
343.0284, 31043.66
343.5105, 31083.11
343.9926, 31109.72
344.4748, 31123.34
344.9569, 31119.08
345.4390, 31089.59
345.9211, 31053.99
346.4032, 31048.98
346.8853, 31072.45
347.3675, 31100.04
347.8496, 31112.83
348.3317, 31118.44
348.8138, 31139.57
349.2959, 31180.35
349.7780, 31227.87
350.2602, 31277.43
350.7423, 31324.14
351.2244, 31352.17
351.7065, 31337.21
352.1887, 31305.46
352.6708, 31293.64
353.1529, 31303.79
353.6350, 31323.59
354.1171, 31346.96
354.5992, 31372.56
355.0814, 31397.73
355.5635, 31410.85
356.0456, 31430.54
356.5277, 31485.49
357.0098, 31571.98
357.4919, 31636.48
357.9741, 31635.88
358.4562, 31603.67
358.9383, 31572.60
359.4204, 31549.78
359.9025, 31533.26
360.3846, 31516.62
360.8668, 31503.66
361.3489, 31510.13
361.8310, 31559.39
362.3131, 31618.71
362.7952, 31668.10
363.2773, 31701.08
363.7595, 31727.88
364.2416, 31748.50
364.7237, 31764.49
365.2058, 31779.43
365.6879, 31776.73
366.1700, 31787.68
366.6522, 31830.64
367.1343, 31931.39
367.6164, 31999.09
368.0985, 32014.41
368.5806, 32000.77
369.0627, 31986.89
369.5449, 31942.59
370.0270, 31937.02
370.5091, 32008.13
370.9912, 32170.21
371.4733, 32243.93
371.9554, 32177.83
372.4376, 32075.97
372.9197, 32035.56
373.4018, 32081.09
373.8839, 32126.90
374.3660, 32158.68
374.8481, 32179.76
375.3303, 32213.92
375.8124, 32268.51
376.2945, 32317.23
376.7766, 32330.24
377.2587, 32300.58
377.7408, 32317.62
378.2230, 32402.89
378.7051, 32522.94
379.1872, 32613.17
379.6693, 32672.43
380.1514, 32710.75
380.6335, 32728.79
381.1157, 32728.81
381.5978, 32717.82
382.0799, 32692.92
382.5620, 32670.62
383.0441, 32671.53
383.5262, 32693.20
384.0084, 32724.76
384.4905, 32766.02
384.9726, 32813.18
385.4547, 32867.76
385.9368, 32930.25
386.4189, 32972.32
386.9011, 32945.65
387.3832, 32887.40
387.8653, 32858.59
388.3474, 32880.30
388.8295, 32936.05
389.3116, 33044.84
389.7938, 33187.84
390.2759, 33283.23
390.7580, 33249.69
391.2401, 33170.62
391.7222, 33113.49
392.2043, 33092.28
392.6865, 33092.75
393.1686, 33117.23
393.6507, 33158.73
394.1328, 33203.51
394.6149, 33252.43
395.0970, 33299.48
395.5792, 33338.16
396.0613, 33362.29
396.5434, 33402.86
397.0255, 33489.20
397.5076, 33584.87
397.9897, 33651.28
398.4719, 33658.73
398.9540, 33666.13
399.4361, 33684.89
399.9182, 33714.73
400.4003, 33732.55
400.8824, 33720.15
401.3646, 33714.16
401.8467, 33744.04
402.3288, 33834.63
402.8109, 33898.41
403.2930, 33919.03
403.7751, 33912.25
404.2573, 33922.52
404.7394, 33950.19
405.2215, 33994.09
405.7036, 34064.09
406.1857, 34162.96
406.6678, 34226.35
407.1500, 34247.11
407.6321, 34247.57
408.1142, 34247.82
408.5963, 34248.76
409.0784, 34281.26
409.5605, 34375.87
410.0427, 34506.70
410.5248, 34598.19
411.0069, 34650.39
411.4890, 34683.55
411.9711, 34700.43
412.4532, 34711.86
412.9354, 34749.86
413.4175, 34844.21
413.8996, 34933.61
414.3817, 34924.21
414.8638, 34841.63
415.3459, 34784.36
415.8281, 34838.14
416.3102, 34931.39
416.7923, 34995.00
417.2744, 35012.11
417.7565, 35022.02
418.2386, 35017.87
418.7208, 35025.80
419.2029, 35085.65
419.6850, 35298.97
420.1671, 35489.30
420.6492, 35563.06
421.1313, 35510.60
421.6135, 35481.21
422.0956, 35521.08
422.5777, 35588.86
423.0598, 35654.33
423.5420, 35747.91
424.0241, 35797.78
424.5062, 35751.02
424.9883, 35646.72
425.4704, 35643.79
425.9525, 35834.19
426.4347, 36012.89
426.9168, 36084.61
427.3989, 36004.94
427.8810, 35961.53
428.3631, 35966.49
428.8452, 35995.13
429.3274, 36005.99
429.8095, 35989.73
430.2916, 35998.15
430.7737, 36061.54
431.2558, 36165.68
431.7379, 36209.37
432.2201, 36182.21
432.7022, 36149.77
433.1843, 36183.35
433.6664, 36269.84
434.1485, 36328.60
434.6306, 36338.00
435.1128, 36323.51
435.5949, 36318.27
436.0770, 36322.65
436.5591, 36338.93
437.0412, 36373.55
437.5233, 36418.80
438.0055, 36470.41
438.4876, 36530.84
438.9697, 36574.21
439.4518, 36559.16
439.9339, 36517.92
440.4160, 36498.32
440.8982, 36539.90
441.3803, 36589.89
441.8624, 36616.02
442.3445, 36621.71
442.8266, 36638.91
443.3087, 36704.79
443.7909, 36770.03
444.2730, 36800.48
444.7551, 36769.05
445.2372, 36737.05
445.7193, 36700.93
446.2014, 36670.16
446.6836, 36666.91
447.1657, 36724.51
447.6478, 36771.53
448.1299, 36785.52
448.6120, 36760.99
449.0941, 36742.21
449.5763, 36735.39
450.0584, 36727.03
450.5405, 36695.79
451.0226, 36625.56
451.5047, 36598.18
451.9868, 36638.70
452.4690, 36725.61
452.9511, 36792.93
453.4332, 36841.57
453.9153, 36862.32
454.3974, 36834.73
454.8795, 36768.66
455.3617, 36719.87
455.8438, 36692.36
456.3259, 36678.92
456.8080, 36671.90
457.2901, 36671.63
457.7722, 36678.85
458.2544, 36706.68
458.7365, 36734.55
459.2186, 36730.96
459.7007, 36699.26
460.1828, 36670.87
460.6649, 36674.98
461.1471, 36688.58
461.6292, 36685.64
462.1113, 36645.13
462.5934, 36617.48
463.0755, 36650.60
463.5576, 36711.00
464.0398, 36731.96
464.5219, 36642.50
465.0040, 36557.35
465.4861, 36526.73
465.9682, 36565.16
466.4503, 36583.71
466.9325, 36544.55
467.4146, 36504.33
467.8967, 36510.79
468.3788, 36610.86
468.8609, 36673.13
469.3430, 36670.96
469.8252, 36623.97
470.3073, 36602.30
470.7894, 36613.95
471.2715, 36628.82
471.7536, 36627.23
472.2357, 36607.64
472.7179, 36617.97
473.2000, 36666.02
473.6821, 36719.13
474.1642, 36735.41
474.6463, 36718.55
475.1284, 36693.82
475.6106, 36659.62
476.0927, 36630.04
476.5748, 36639.70
477.0569, 36683.17
477.5390, 36722.07
478.0211, 36725.77
478.5033, 36711.58
478.9854, 36699.62
479.4675, 36692.35
479.9496, 36690.38
480.4317, 36691.43
480.9138, 36698.63
481.3960, 36716.72
481.8781, 36769.27
482.3602, 36812.71
482.8423, 36808.38
483.3244, 36760.80
483.8065, 36764.71
484.2887, 36919.80
484.7708, 37074.78
485.2529, 37137.13
485.7350, 37029.67
486.2171, 36954.58
486.6992, 36916.76
487.1814, 36909.36
487.6635, 36922.68
488.1456, 36966.20
488.6277, 37009.23
489.1098, 37042.62
489.5919, 37067.13
490.0741, 37091.67
490.5562, 37117.93
491.0383, 37138.14
491.5204, 37143.82
492.0026, 37136.11
492.4847, 37120.76
492.9668, 37091.68
493.4489, 37071.18
493.9310, 37104.33
494.4131, 37178.71
494.8953, 37245.42
495.3774, 37272.67
495.8595, 37281.31
496.3416, 37291.81
496.8237, 37305.11
497.3058, 37324.05
497.7880, 37361.79
498.2701, 37400.88
498.7522, 37423.41
499.2343, 37409.88
499.7164, 37400.05
500.1985, 37403.95
500.6807, 37421.27
501.1628, 37450.79
501.6449, 37526.36
502.1270, 37581.89
502.6091, 37578.62
503.0912, 37497.97
503.5734, 37489.45
504.0555, 37614.39
504.5376, 37747.69
505.0197, 37771.17
505.5018, 37631.37
505.9839, 37567.53
506.4661, 37631.56
506.9482, 37765.71
507.4303, 37821.16
507.9124, 37792.41
508.3945, 37753.60
508.8766, 37731.85
509.3588, 37728.66
509.8409, 37755.62
510.3230, 37813.66
510.8051, 37882.07
511.2872, 37960.08
511.7693, 38031.91
512.2515, 38060.02
512.7336, 38011.25
513.2157, 37957.19
513.6978, 37956.70
514.1799, 37997.06
514.6620, 38046.43
515.1442, 38117.68
515.6263, 38172.30
516.1084, 38180.05
516.5905, 38133.45
517.0726, 38095.94
517.5547, 38075.89
518.0369, 38073.82
518.5190, 38091.32
519.0011, 38144.77
519.4832, 38193.50
519.9653, 38237.65
520.4474, 38275.31
520.9296, 38298.01
521.4117, 38295.14
521.8938, 38305.72
522.3759, 38348.28
522.8580, 38421.41
523.3401, 38492.90
523.8223, 38566.13
524.3044, 38623.91
524.7865, 38644.30
525.2686, 38633.90
525.7507, 38623.30
526.2328, 38618.29
526.7150, 38614.78
527.1971, 38594.23
527.6792, 38568.53
528.1613, 38573.46
528.6434, 38669.14
529.1255, 38771.99
529.6077, 38804.79
530.0898, 38767.57
530.5719, 38737.49
531.0540, 38760.54
531.5361, 38798.07
532.0182, 38819.17
532.5004, 38790.95
532.9825, 38789.96
533.4646, 38860.56
533.9467, 38957.68
534.4288, 38997.80
534.9109, 38923.48
535.3931, 38881.59
535.8752, 38918.04
536.3573, 39025.75
536.8394, 39108.66
537.3215, 39170.60
537.8036, 39198.67
538.2858, 39160.90
538.7679, 39062.00
539.2500, 39021.79
539.7321, 39057.47
540.2142, 39128.16
540.6964, 39191.23
541.1785, 39245.46
541.6606, 39287.56
542.1427, 39312.37
542.6248, 39326.98
543.1069, 39335.96
543.5891, 39340.52
544.0712, 39346.60
544.5533, 39354.30
545.0354, 39366.89
545.5175, 39386.56
545.9996, 39413.42
546.4818, 39447.69
546.9639, 39501.38
547.4460, 39557.44
547.9281, 39596.09
548.4102, 39585.86
548.8923, 39600.02
549.3745, 39663.99
549.8566, 39757.07
550.3387, 39800.98
550.8208, 39777.58
551.3029, 39749.49
551.7850, 39742.16
552.2672, 39755.13
552.7493, 39784.18
553.2314, 39834.09
553.7135, 39875.01
554.1956, 39867.84
554.6777, 39824.74
555.1599, 39788.52
555.6420, 39764.89
556.1241, 39759.35
556.6062, 39787.21
557.0883, 39838.89
557.5704, 39890.77
558.0526, 39942.86
558.5347, 39982.24
559.0168, 39996.98
559.4989, 39987.36
559.9810, 39972.79
560.4631, 39941.97
560.9453, 39920.33
561.4274, 39926.43
561.9095, 39994.72
562.3916, 40031.56
562.8737, 40015.33
563.3558, 39979.86
563.8380, 39971.60
564.3201, 40000.21
564.8022, 40029.77
565.2843, 40054.68
565.7664, 40074.47
566.2485, 40080.81
566.7307, 40071.85
567.2128, 40074.98
567.6949, 40126.65
568.1770, 40203.34
568.6591, 40223.63
569.1412, 40179.76
569.6234, 40136.56
570.1055, 40166.14
570.5876, 40230.16
571.0697, 40269.00
571.5518, 40249.70
572.0339, 40227.85
572.5161, 40236.65
572.9982, 40264.96
573.4803, 40288.96
573.9624, 40286.14
574.4445, 40293.02
574.9266, 40336.51
575.4088, 40418.69
575.8909, 40451.30
576.3730, 40400.18
576.8551, 40341.09
577.3372, 40320.61
577.8193, 40348.30
578.3015, 40373.33
578.7836, 40394.55
579.2657, 40412.71
579.7478, 40420.17
580.2299, 40419.94
580.7120, 40450.86
581.1942, 40546.40
581.6763, 40654.44
582.1584, 40683.31
582.6405, 40645.96
583.1226, 40599.63
583.6047, 40567.35
584.0869, 40548.13
584.5690, 40543.52
585.0511, 40554.01
585.5332, 40568.86
586.0153, 40579.78
586.4974, 40595.49
586.9796, 40623.09
587.4617, 40680.57
587.9438, 40726.07
588.4259, 40751.95
588.9080, 40767.88
589.3901, 40793.82
589.8723, 40842.94
590.3544, 40865.87
590.8365, 40836.86
591.3186, 40773.51
591.8007, 40765.66
592.2828, 40817.91
592.7650, 40868.75
593.2471, 40858.11
593.7292, 40815.68
594.2113, 40840.03
594.6934, 40942.34
595.1755, 41038.03
595.6577, 41042.07
596.1398, 40998.96
596.6219, 40967.31
597.1040, 40954.86
597.5862, 40970.61
598.0683, 41040.26
598.5504, 41138.68
599.0325, 41217.39
599.5146, 41259.43
599.9968, 41285.89
600.4789, 41297.53
600.9610, 41295.48
601.4431, 41298.00
601.9252, 41307.43
602.4073, 41317.42
602.8895, 41324.13
603.3716, 41327.21
603.8537, 41329.13
604.3358, 41326.97
604.8179, 41335.18
605.3000, 41385.77
605.7822, 41464.34
606.2643, 41508.41
606.7464, 41487.75
607.2285, 41459.96
607.7106, 41495.33
608.1927, 41571.43
608.6749, 41636.39
609.1570, 41652.13
609.6391, 41662.51
610.1212, 41687.27
610.6033, 41726.89
611.0854, 41778.02
611.5676, 41892.91
612.0497, 41972.58
612.5318, 41952.24
613.0139, 41775.52
613.4960, 41710.39
613.9781, 41805.78
614.4603, 41942.30
614.9424, 41985.19
615.4245, 41927.32
615.9066, 41901.05
616.3887, 41935.20
616.8708, 41997.54
617.3530, 42035.46
617.8351, 42053.16
618.3172, 42069.41
618.7993, 42091.50
619.2814, 42117.48
619.7635, 42145.48
620.2457, 42175.62
620.7278, 42208.70
621.2099, 42259.53
621.6920, 42302.46
622.1741, 42311.31
622.6563, 42263.50
623.1384, 42263.82
623.6205, 42384.72
624.1026, 42510.79
624.5847, 42540.49
625.0668, 42417.99
625.5490, 42358.32
626.0311, 42395.45
626.5132, 42480.20
626.9953, 42517.98
627.4774, 42510.19
627.9595, 42535.31
628.4417, 42650.53
628.9238, 42789.98
629.4059, 42815.46
629.8880, 42746.89
630.3701, 42681.43
630.8522, 42675.74
631.3344, 42699.94
631.8165, 42733.43
632.2986, 42774.81
632.7807, 42816.00
633.2628, 42856.05
633.7449, 42893.25
634.2271, 42924.89
634.7092, 42940.44
635.1913, 42971.11
635.6734, 43029.62
636.1555, 43092.80
636.6376, 43129.89
637.1198, 43137.20
637.6019, 43135.44
638.0840, 43123.95
638.5661, 43111.71
639.0482, 43119.34
639.5303, 43145.48
640.0125, 43180.46
640.4946, 43235.48
640.9767, 43287.00
641.4588, 43297.71
641.9409, 43271.52
642.4230, 43249.43
642.9052, 43245.53
643.3873, 43260.27
643.8694, 43300.60
644.3515, 43380.90
644.8336, 43439.70
645.3157, 43451.19
645.7979, 43448.59
646.2800, 43458.75
646.7621, 43488.86
647.2442, 43512.21
647.7263, 43524.67
648.2084, 43531.62
648.6906, 43538.52
649.1727, 43545.64
649.6548, 43567.77
650.1369, 43618.23
650.6190, 43678.04
651.1011, 43717.07
651.5833, 43737.43
652.0654, 43749.45
652.5475, 43743.75
653.0296, 43743.40
653.5117, 43782.82
653.9938, 43863.19
654.4760, 43899.87
654.9581, 43822.83
655.4402, 43725.75
655.9223, 43664.22
656.4044, 43641.76
656.8865, 43650.39
657.3687, 43704.62
657.8508, 43771.66
658.3329, 43816.02
658.8150, 43836.74
659.2971, 43848.07
659.7792, 43850.91
660.2614, 43848.37
660.7435, 43843.91
661.2256, 43838.09
661.7077, 43832.55
662.1898, 43808.57
662.6719, 43801.72
663.1541, 43868.22
663.6362, 43985.16
664.1183, 44065.95
