##NAMES=Ferrilotharmeyerite
##RRUFFID=R060209
##IDEAL CHEMISTRY=CaZn^2+^Fe^3+^(As^5+^O_4_)_2_(OH)&#183;H_2_O
##LOCALITY=Tsumeb mine, Tsumeb, Otavi District, Oshikoto, Namibia
##OWNER=RRUFF
##SOURCE=William W. Pinch
##DESCRIPTION=Yellowish-green rectangular prisms
##STATUS=The identification of this mineral has been confirmed by single-crystal X-ray diffraction.
##URL=rruff.info/R060209
91.82715, 124.9715
92.30927, 124.4115
92.79138, 124.6184
93.27350, 124.4905
93.75562, 123.8783
94.23773, 123.0724
94.71985, 122.2664
95.20197, 121.2459
95.68408, 119.9266
96.16620, 118.4817
96.64832, 117.1832
97.13043, 116.1283
97.61255, 115.0990
98.09467, 113.6468
98.57678, 111.3559
99.05890, 109.5437
99.54102, 109.2703
100.0231, 109.6212
100.5052, 109.7089
100.9874, 109.0622
101.4695, 107.8301
101.9516, 106.8338
102.4337, 106.1203
102.9158, 105.5848
103.3979, 105.2968
103.8801, 105.1649
104.3622, 105.0228
104.8443, 104.7172
105.3264, 104.2040
105.8085, 104.0349
106.2906, 104.4213
106.7728, 104.8691
107.2549, 105.1464
107.7370, 105.2181
108.2191, 105.1050
108.7012, 104.7056
109.1833, 103.9788
109.6655, 103.6567
110.1476, 104.2215
110.6297, 105.1484
111.1118, 105.5558
111.5939, 105.0521
112.0760, 104.4492
112.5582, 104.6989
113.0403, 105.7190
113.5224, 106.7794
114.0045, 107.3359
114.4866, 107.4236
114.9687, 107.7470
115.4509, 108.8112
115.9330, 109.8854
116.4151, 110.4476
116.8972, 110.4338
117.3793, 110.2805
117.8614, 110.6000
118.3436, 111.6334
118.8257, 112.5621
119.3078, 112.9854
119.7899, 113.4434
120.2720, 114.4879
120.7541, 116.3262
121.2363, 118.5784
121.7184, 120.1713
122.2005, 120.3605
122.6826, 120.6081
123.1647, 120.9131
123.6468, 121.3483
124.1290, 121.9979
124.6111, 122.9215
125.0932, 124.1042
125.5753, 125.4268
126.0574, 127.0357
126.5395, 128.6076
127.0217, 130.0494
127.5038, 131.3550
127.9859, 132.4821
128.4680, 133.2989
128.9501, 133.9013
129.4323, 134.8140
129.9144, 136.3863
130.3965, 138.1124
130.8786, 139.4484
131.3607, 140.3181
131.8428, 141.0740
132.3250, 141.8653
132.8071, 142.7332
133.2892, 143.7810
133.7713, 145.1647
134.2534, 146.7774
134.7355, 148.2705
135.2176, 149.5915
135.6998, 150.8460
136.1819, 152.0850
136.6640, 153.3066
137.1461, 154.4934
137.6282, 155.6517
138.1103, 156.7878
138.5925, 157.8188
139.0746, 158.7070
139.5567, 159.5165
140.0388, 160.2747
140.5209, 160.9776
141.0030, 161.6085
141.4852, 162.1424
141.9673, 162.5549
142.4494, 162.9230
142.9315, 163.1525
143.4136, 163.4084
143.8957, 163.8482
144.3779, 164.4935
144.8600, 165.1965
145.3421, 165.7182
145.8242, 165.9688
146.3063, 166.1842
146.7884, 166.4570
147.2706, 166.6737
147.7527, 166.6603
148.2348, 166.3315
148.7169, 165.8416
149.1990, 165.4769
149.6811, 165.2003
150.1633, 165.0673
150.6454, 165.2395
151.1275, 165.6015
151.6096, 165.7760
152.0917, 165.5740
152.5738, 165.1440
153.0560, 164.6866
153.5381, 164.1224
154.0202, 163.7825
154.5023, 164.1010
154.9844, 165.1130
155.4665, 165.9385
155.9487, 165.9516
156.4308, 165.7793
156.9129, 165.9674
157.3950, 166.6939
157.8771, 167.5715
158.3592, 168.0255
158.8414, 167.9357
159.3235, 167.6914
159.8056, 167.1592
160.2877, 166.6434
160.7698, 166.5073
161.2519, 166.9386
161.7341, 167.6411
162.2162, 167.7492
162.6983, 167.0163
163.1804, 165.9226
163.6625, 164.4776
164.1446, 162.7604
164.6268, 160.8406
165.1089, 158.7382
165.5910, 156.4888
166.0731, 154.2614
166.5552, 152.4658
167.0373, 150.2485
167.5195, 147.1406
168.0016, 143.4737
168.4837, 139.8625
168.9658, 136.7122
169.4479, 133.9825
169.9300, 131.3385
170.4122, 128.4740
170.8943, 125.9535
171.3764, 124.4065
171.8585, 123.5934
172.3406, 122.3888
172.8227, 119.8012
173.3049, 116.0183
173.7870, 113.0041
174.2691, 111.1775
174.7512, 109.8017
175.2333, 108.3126
175.7154, 106.6807
176.1976, 105.1303
176.6797, 103.8671
177.1618, 102.8147
177.6439, 101.8355
178.1260, 100.8832
178.6081, 99.99218
179.0903, 99.22888
179.5724, 98.63691
180.0545, 98.05396
180.5366, 97.38024
181.0187, 96.64845
181.5008, 95.90249
181.9830, 95.08714
182.4651, 94.28143
182.9472, 93.73870
183.4293, 93.56225
183.9114, 93.52234
184.3935, 93.59332
184.8757, 93.70287
185.3578, 93.72433
185.8399, 93.55113
186.3220, 93.20531
186.8041, 92.92829
187.2862, 92.79371
187.7684, 92.65481
188.2505, 92.35832
188.7326, 92.02113
189.2147, 91.89314
189.6968, 92.22298
190.1789, 93.04005
190.6611, 93.52245
191.1432, 93.23006
191.6253, 93.03088
192.1074, 93.29073
192.5895, 93.90108
193.0716, 94.51987
193.5538, 94.83658
194.0359, 94.80293
194.5180, 94.87336
195.0001, 95.01912
195.4822, 95.26350
195.9643, 95.67851
196.4465, 96.22548
196.9286, 96.75085
197.4107, 97.07601
197.8928, 97.15034
198.3749, 97.56654
198.8570, 98.68221
199.3392, 99.83302
199.8213, 100.5474
200.3034, 100.8070
200.7855, 100.9464
201.2676, 101.2617
201.7497, 101.7680
202.2319, 102.2520
202.7140, 102.8128
203.1961, 103.2877
203.6782, 103.3652
204.1603, 102.9854
204.6424, 102.7926
205.1246, 103.5832
205.6067, 105.1385
206.0888, 106.4325
206.5709, 107.1080
207.0530, 107.4743
207.5351, 107.9603
208.0173, 108.6331
208.4994, 109.2847
208.9815, 109.6931
209.4636, 109.9559
209.9457, 110.2702
210.4278, 110.8265
210.9100, 111.4702
211.3921, 111.7906
211.8742, 111.5742
212.3563, 111.4808
212.8384, 112.0838
213.3205, 113.0618
213.8027, 113.8251
214.2848, 113.9597
214.7669, 113.6522
215.2490, 113.6014
215.7311, 114.0382
216.2132, 114.3721
216.6953, 114.3144
217.1775, 114.0032
217.6596, 113.6820
218.1417, 113.5179
218.6238, 113.4655
219.1059, 113.2506
219.5880, 112.7693
220.0702, 112.2368
220.5523, 111.6737
221.0344, 111.1141
221.5165, 110.6331
221.9986, 110.3288
222.4807, 110.1472
222.9629, 109.5624
223.4450, 107.8438
223.9271, 106.4923
224.4092, 106.1141
224.8913, 106.2872
225.3734, 106.2837
225.8556, 105.6035
226.3377, 104.3158
226.8198, 103.1498
227.3019, 102.0047
227.7840, 101.1043
228.2661, 100.7177
228.7483, 100.5996
229.2304, 100.3235
229.7125, 99.59653
230.1946, 98.47121
230.6767, 97.54227
231.1588, 96.98624
231.6410, 96.41563
232.1231, 95.66086
232.6052, 94.82289
233.0873, 94.15316
233.5694, 93.84647
234.0515, 93.79826
234.5337, 93.21449
235.0158, 91.51842
235.4979, 90.02537
235.9800, 89.23894
236.4621, 88.95082
236.9442, 88.68871
237.4264, 88.20009
237.9085, 87.53531
238.3906, 86.92391
238.8727, 86.36341
239.3548, 85.84791
239.8369, 85.44690
240.3191, 85.09789
240.8012, 84.62231
241.2833, 83.88618
241.7654, 83.01807
242.2475, 82.39921
242.7296, 82.15475
243.2118, 81.91035
243.6939, 81.40531
244.1760, 80.75751
244.6581, 80.36911
245.1402, 80.51699
245.6223, 80.88145
246.1045, 80.83949
246.5866, 80.35603
247.0687, 79.64504
247.5508, 78.69129
248.0329, 77.56971
248.5150, 76.52898
248.9972, 75.63396
249.4793, 74.88175
249.9614, 74.20858
250.4435, 73.58248
250.9256, 73.17111
251.4077, 73.28113
251.8899, 73.75117
252.3720, 73.83156
252.8541, 73.14610
253.3362, 72.22959
253.8183, 71.66589
254.3004, 71.44860
254.7826, 71.32765
255.2647, 71.20689
255.7468, 71.07273
256.2289, 70.85599
256.7110, 70.54203
257.1931, 70.13531
257.6753, 69.56696
258.1574, 68.87922
258.6395, 68.34184
259.1216, 68.24224
259.6037, 68.48582
260.0858, 68.53464
260.5680, 68.26417
261.0501, 67.88471
261.5322, 67.42479
262.0143, 66.95418
262.4964, 66.68021
262.9785, 66.88980
263.4607, 67.46908
263.9428, 67.73791
264.4249, 67.55711
264.9070, 67.23616
265.3891, 66.85949
265.8712, 66.47446
266.3534, 66.17088
266.8355, 65.99284
267.3176, 65.93825
267.7997, 66.01955
268.2818, 66.36292
268.7639, 66.65041
269.2461, 66.76614
269.7282, 66.76203
270.2103, 66.69810
270.6924, 66.58048
271.1745, 66.45295
271.6566, 66.48577
272.1388, 66.84329
272.6209, 67.07803
273.1030, 67.00017
273.5851, 66.78207
274.0672, 66.61856
274.5493, 66.59786
275.0315, 66.66905
275.5136, 66.70771
275.9957, 66.69388
276.4778, 66.68381
276.9599, 66.72799
277.4420, 66.76064
277.9242, 66.68217
278.4063, 66.45967
278.8884, 66.22212
279.3705, 66.23656
279.8526, 66.67732
280.3347, 67.00137
280.8169, 67.04082
281.2990, 67.03645
281.7811, 67.16764
282.2632, 67.47643
282.7453, 67.87681
283.2274, 68.28355
283.7096, 68.81399
284.1917, 69.03624
284.6738, 68.69585
285.1559, 68.27914
285.6380, 68.06755
286.1201, 68.09171
286.6023, 68.20105
287.0844, 68.19998
287.5665, 68.00137
288.0486, 68.05035
288.5307, 68.55915
289.0128, 69.10206
289.4950, 69.45330
289.9771, 69.64787
290.4592, 69.87599
290.9413, 70.31851
291.4234, 70.99191
291.9055, 71.64748
292.3877, 72.46245
292.8698, 73.08672
293.3519, 73.32134
293.8340, 73.27071
294.3161, 73.15706
294.7982, 73.13232
295.2804, 73.19051
295.7625, 73.25368
296.2446, 73.15012
296.7267, 73.24458
297.2088, 73.72995
297.6909, 74.43465
298.1731, 75.12926
298.6552, 75.69120
299.1373, 76.11998
299.6194, 76.40195
300.1015, 76.21342
300.5836, 76.27542
301.0658, 76.79454
301.5479, 77.52702
302.0300, 78.25851
302.5121, 78.89645
302.9942, 79.41093
303.4763, 79.72781
303.9585, 79.55543
304.4406, 79.62769
304.9227, 80.07725
305.4048, 80.67426
305.8869, 81.30376
306.3690, 81.90964
306.8512, 82.41030
307.3333, 82.67265
307.8154, 82.56035
308.2975, 82.56430
308.7796, 82.58359
309.2617, 82.77399
309.7439, 83.32252
310.2260, 84.17653
310.7081, 85.07055
311.1902, 85.72639
311.6723, 86.10117
312.1544, 86.59048
312.6366, 87.36015
313.1187, 88.06787
313.6008, 88.51127
314.0829, 88.77625
314.5650, 89.09373
315.0471, 89.63741
315.5293, 90.38616
316.0114, 91.06051
316.4935, 91.58731
316.9756, 92.12568
317.4577, 92.76343
317.9398, 93.41969
318.4220, 93.96088
318.9041, 94.31563
319.3862, 94.54171
319.8683, 94.82767
320.3504, 95.29121
320.8326, 95.66029
321.3147, 95.82396
321.7968, 95.93544
322.2789, 96.12622
322.7610, 96.44277
323.2431, 96.87971
323.7253, 97.43000
324.2074, 98.14625
324.6895, 98.88738
325.1716, 99.72197
325.6537, 100.5331
326.1358, 101.1892
326.6180, 101.7086
327.1001, 102.2826
327.5822, 103.1693
328.0643, 104.5160
328.5464, 105.4050
329.0285, 105.3800
329.5107, 105.3993
329.9928, 105.9250
330.4749, 106.8461
330.9570, 107.7785
331.4391, 108.4264
331.9212, 108.8171
332.4034, 109.3536
332.8855, 110.2444
333.3676, 111.0659
333.8497, 111.6949
334.3318, 112.2146
334.8139, 112.7556
335.2961, 113.3812
335.7782, 114.0449
336.2603, 114.5977
336.7424, 115.0489
337.2245, 115.3574
337.7066, 115.2555
338.1888, 115.1724
338.6708, 115.5463
339.1530, 116.4730
339.6351, 117.6346
340.1172, 118.5728
340.5993, 119.2427
341.0814, 119.7831
341.5635, 120.2767
342.0457, 120.5916
342.5278, 120.5299
343.0099, 120.1740
343.4920, 119.8427
343.9741, 119.8451
344.4562, 120.2007
344.9384, 120.5226
345.4205, 120.9359
345.9026, 121.1807
346.3847, 121.0608
346.8668, 120.5657
347.3489, 120.9185
347.8311, 121.1423
348.3132, 121.2419
348.7953, 120.9553
349.2774, 121.0834
349.7595, 120.9940
350.2416, 120.8605
350.7238, 120.9421
351.2059, 120.5231
351.6880, 120.5275
352.1701, 120.3116
352.6522, 120.1430
353.1343, 119.7558
353.6165, 119.3882
354.0986, 119.1659
354.5807, 118.3845
355.0628, 117.3191
355.5449, 115.8983
356.0270, 114.5532
356.5092, 113.8331
356.9913, 113.7795
357.4734, 113.2448
357.9555, 111.7004
358.4376, 110.2503
358.9197, 109.4727
359.4019, 109.1220
359.8840, 108.6711
360.3661, 107.7822
360.8482, 106.6051
361.3303, 105.5814
361.8124, 104.7671
362.2946, 103.9983
362.7767, 103.2442
363.2588, 102.4897
363.7409, 101.7252
364.2230, 100.9480
364.7051, 100.1375
365.1873, 99.21349
365.6694, 98.14125
366.1515, 97.24796
366.6336, 96.77676
367.1157, 96.37685
367.5978, 95.82237
368.0800, 95.09727
368.5621, 94.25475
369.0442, 93.26916
369.5263, 92.18052
370.0084, 91.17960
370.4905, 90.25834
370.9727, 89.47565
371.4548, 88.96371
371.9369, 88.61095
372.4190, 88.15585
372.9011, 87.43913
373.3832, 86.60941
373.8654, 85.90862
374.3475, 85.36108
374.8296, 84.75244
375.3117, 83.88768
375.7938, 82.94821
376.2759, 82.23107
376.7581, 81.85807
377.2402, 81.45439
377.7223, 80.59534
378.2044, 79.42858
378.6865, 78.65697
379.1686, 78.62574
379.6508, 78.79530
380.1329, 78.41978
380.6150, 77.52153
381.0971, 76.73272
381.5792, 76.33408
382.0613, 76.12585
382.5435, 75.85950
383.0256, 75.50777
383.5077, 75.04843
383.9898, 74.33443
384.4719, 73.46444
384.9540, 73.02542
385.4362, 73.48439
385.9183, 73.97314
386.4004, 73.86660
386.8825, 73.32595
387.3646, 72.94311
387.8467, 73.03823
388.3289, 73.39491
388.8110, 73.44846
389.2931, 73.10870
389.7752, 72.73612
390.2573, 72.34454
390.7394, 71.98466
391.2216, 71.70792
391.7037, 71.52744
392.1858, 71.45892
392.6679, 71.56538
393.1500, 71.93270
393.6321, 71.96784
394.1143, 71.19432
394.5964, 70.54728
395.0785, 70.68839
395.5606, 71.42944
396.0427, 72.11575
396.5248, 72.31200
397.0070, 72.13540
397.4891, 72.22868
397.9712, 73.00356
398.4533, 73.55211
398.9354, 73.62293
399.4175, 73.49074
399.8997, 73.40030
400.3818, 73.44448
400.8639, 73.66135
401.3460, 74.16665
401.8281, 75.21785
402.3102, 75.82259
402.7924, 75.58598
403.2745, 75.32442
403.7566, 75.53683
404.2387, 76.10591
404.7208, 76.56026
405.2029, 76.50079
405.6851, 76.02199
406.1672, 75.86559
406.6493, 76.04523
407.1314, 76.51092
407.6135, 76.85676
408.0956, 77.08922
408.5778, 76.86867
409.0599, 77.23309
409.5420, 77.36306
410.0241, 77.48343
410.5062, 77.93018
410.9883, 77.77550
411.4705, 78.21710
411.9526, 77.81521
412.4347, 78.09715
412.9168, 78.25925
413.3989, 78.30795
413.8810, 77.90363
414.3632, 78.08430
414.8453, 78.03053
415.3274, 77.96716
415.8095, 77.82473
416.2916, 77.82590
416.7737, 77.70722
417.2559, 77.47511
417.7380, 76.79000
418.2201, 76.68990
418.7022, 76.35535
419.1843, 76.01120
419.6664, 75.99342
420.1486, 75.37417
420.6307, 75.35121
421.1128, 75.09025
421.5949, 74.19819
422.0770, 73.44363
422.5591, 72.77136
423.0413, 72.23800
423.5234, 72.01072
424.0055, 72.11068
424.4876, 72.14624
424.9697, 71.78899
425.4518, 71.10164
425.9340, 70.56693
426.4161, 70.22796
426.8982, 69.98939
427.3803, 69.97440
427.8624, 70.01680
428.3445, 69.73772
428.8267, 68.97897
429.3088, 67.95682
429.7909, 67.00674
430.2730, 66.00826
430.7551, 65.42425
431.2372, 65.56911
431.7194, 65.89841
432.2015, 66.12104
432.6836, 66.16656
433.1657, 65.97095
433.6478, 65.44072
434.1299, 64.61993
434.6121, 64.08997
435.0942, 64.06194
435.5763, 64.09191
436.0584, 64.24537
436.5405, 64.36455
437.0226, 64.21050
437.5048, 63.71846
437.9869, 63.14453
438.4690, 62.93118
438.9511, 63.25351
439.4332, 63.36672
439.9153, 62.93763
440.3975, 62.58455
440.8796, 62.69537
441.3617, 63.13000
441.8438, 63.47680
442.3259, 63.47060
442.8080, 63.17511
443.2902, 62.75314
443.7723, 62.09108
444.2544, 61.58661
444.7365, 61.42002
445.2186, 61.44840
445.7007, 61.62337
446.1829, 61.94868
446.6650, 62.20401
447.1471, 62.10265
447.6292, 61.72698
448.1113, 61.57324
448.5934, 61.82678
449.0756, 62.08833
449.5577, 61.92212
450.0398, 61.47468
450.5219, 61.18345
451.0040, 61.29486
451.4861, 61.51772
451.9683, 61.59431
452.4504, 61.53438
452.9325, 61.38042
453.4146, 61.08949
453.8967, 60.79226
454.3788, 60.81026
454.8610, 61.21514
455.3431, 61.61782
455.8252, 62.01791
456.3073, 62.32500
456.7894, 62.39337
457.2715, 62.22436
457.7537, 61.99645
458.2358, 61.83185
458.7179, 61.73085
459.2000, 61.91681
459.6821, 62.79419
460.1642, 63.44579
460.6464, 63.46401
461.1285, 63.15271
461.6106, 62.89386
462.0927, 62.83938
462.5748, 62.98438
463.0569, 63.36215
463.5391, 64.12650
464.0212, 64.69725
464.5033, 64.97002
464.9854, 65.15912
465.4675, 65.34036
465.9496, 65.52174
466.4318, 65.69838
466.9139, 65.87811
467.3960, 66.03731
467.8781, 66.06725
468.3602, 65.86154
468.8423, 65.80719
469.3245, 66.12934
469.8066, 66.57761
470.2887, 66.98656
470.7708, 67.32904
471.2529, 67.60899
471.7350, 67.79076
472.2172, 67.90731
472.6993, 68.07735
473.1814, 68.31071
473.6635, 68.59972
474.1456, 69.02568
474.6277, 69.49758
475.1099, 69.78682
475.5920, 69.70115
476.0741, 69.62389
476.5562, 69.77605
477.0383, 70.14519
477.5204, 70.77360
478.0026, 71.73137
478.4847, 72.71549
478.9668, 73.24395
479.4489, 73.18400
479.9310, 73.33006
480.4131, 73.92857
480.8953, 74.57215
481.3774, 74.97150
481.8595, 75.16709
482.3416, 75.34837
482.8237, 75.62745
483.3058, 75.97656
483.7880, 76.30683
484.2701, 76.73352
484.7522, 76.96015
485.2343, 76.59196
485.7164, 76.30284
486.1985, 76.77924
486.6807, 77.96572
487.1628, 79.13266
487.6449, 79.58263
488.1270, 79.38013
488.6091, 79.45879
489.0912, 79.92046
489.5734, 80.51896
490.0555, 81.36504
490.5376, 82.20213
491.0197, 82.67718
491.5018, 82.67609
491.9839, 82.59547
492.4661, 82.89832
492.9482, 83.52987
493.4303, 83.97000
493.9124, 84.06746
494.3945, 84.11761
494.8766, 84.38912
495.3588, 84.80347
495.8409, 85.15250
496.3230, 85.38599
496.8051, 85.53715
497.2872, 85.67451
497.7693, 85.76221
498.2515, 85.61717
498.7336, 85.11796
499.2157, 84.51386
499.6978, 84.22897
500.1799, 84.39388
500.6620, 84.37516
501.1442, 84.07988
501.6263, 83.63605
502.1084, 83.05371
502.5905, 82.39359
503.0726, 81.81588
503.5547, 81.43543
504.0368, 81.15145
504.5190, 80.61913
505.0011, 79.82990
505.4832, 78.76939
505.9653, 76.98254
506.4474, 75.28638
506.9295, 74.38957
507.4117, 74.23655
507.8938, 74.19754
508.3759, 73.79724
508.8580, 73.06253
509.3401, 72.13365
509.8222, 70.88109
510.3044, 69.71299
510.7865, 68.89013
511.2686, 68.16132
511.7507, 67.28040
512.2328, 66.19592
512.7150, 65.05356
513.1971, 63.90759
513.6792, 62.78732
514.1613, 61.78358
514.6434, 60.92655
515.1255, 60.08750
515.6077, 59.17190
516.0898, 58.19282
516.5719, 57.22602
517.0540, 56.30724
517.5361, 55.36497
518.0182, 54.27674
518.5004, 53.16713
518.9825, 52.27163
519.4646, 51.64852
519.9467, 51.14514
520.4288, 50.58504
520.9109, 49.95976
521.3931, 49.32631
521.8752, 48.66164
522.3573, 48.00704
522.8394, 47.39966
523.3215, 46.80635
523.8036, 46.14484
524.2858, 45.39012
524.7679, 44.66014
525.2500, 44.19884
525.7321, 44.08571
526.2142, 43.84787
526.6964, 43.51683
527.1785, 42.98224
527.6606, 41.98079
528.1427, 40.75839
528.6248, 39.86205
529.1069, 39.61977
529.5891, 39.63599
530.0712, 39.36614
530.5533, 38.83282
531.0354, 38.45694
531.5175, 38.45567
531.9996, 38.49499
532.4818, 38.14354
532.9639, 37.43811
533.4460, 36.67968
533.9281, 35.74514
534.4102, 34.93339
534.8923, 34.54939
535.3745, 34.49785
535.8566, 34.44722
536.3387, 34.24878
536.8208, 33.94199
537.3029, 33.60057
537.7850, 33.14276
538.2672, 32.82405
538.7493, 32.83689
539.2314, 32.80551
539.7135, 32.40562
540.1956, 31.77592
540.6777, 31.32247
541.1599, 31.31132
541.6420, 31.54025
542.1241, 31.46999
542.6062, 30.98182
543.0883, 30.57561
543.5704, 30.45429
544.0526, 30.35072
544.5347, 30.07922
545.0168, 29.66388
545.4989, 29.27051
545.9810, 28.98570
546.4631, 28.77178
546.9453, 28.53369
547.4274, 28.27563
547.9095, 28.20910
548.3916, 28.50745
548.8737, 28.93517
549.3558, 29.07479
549.8380, 28.91949
550.3201, 28.66228
550.8022, 28.19464
551.2843, 27.75010
551.7664, 27.59369
552.2485, 27.65009
552.7307, 27.60035
553.2128, 27.24953
553.6949, 26.72828
554.1770, 26.41328
554.6591, 26.50784
555.1412, 26.44547
555.6234, 26.00855
556.1055, 25.60998
556.5876, 25.56732
557.0697, 25.79220
557.5518, 25.95811
558.0339, 25.84996
558.5161, 25.57892
558.9982, 25.37977
559.4803, 25.24965
559.9624, 25.22628
560.4445, 25.44604
560.9266, 25.65340
561.4088, 25.61266
561.8909, 25.33539
562.3730, 24.97566
562.8551, 24.47132
563.3372, 23.99472
563.8193, 23.75541
564.3015, 23.72440
564.7836, 23.74732
565.2657, 23.77246
565.7478, 23.76658
566.2299, 23.65381
566.7120, 23.33480
567.1942, 23.16104
567.6763, 23.18994
568.1584, 23.30985
568.6405, 23.57079
569.1226, 23.86203
569.6047, 23.91790
570.0869, 23.58351
570.5690, 23.12110
571.0511, 23.17041
571.5332, 23.98138
572.0153, 24.33120
572.4974, 23.72509
572.9796, 22.99684
573.4617, 22.47497
573.9438, 22.18147
574.4259, 22.15437
574.9080, 22.55238
575.3901, 23.00926
575.8723, 23.03183
576.3544, 22.70734
576.8365, 22.56975
577.3186, 22.82876
577.8007, 23.11724
578.2828, 22.96151
578.7650, 22.32926
579.2471, 21.95872
579.7292, 22.02236
580.2113, 22.19066
580.6934, 22.43003
581.1755, 22.63341
581.6577, 22.60424
582.1398, 22.28812
582.6219, 21.87413
583.1040, 21.61065
583.5861, 21.50950
584.0682, 21.47004
584.5504, 21.61056
585.0325, 21.66737
585.5145, 21.53476
585.9966, 21.28788
586.4788, 20.98460
586.9609, 20.63202
587.4430, 20.37045
587.9251, 20.39209
588.4072, 20.62296
588.8893, 20.78545
