##NAMES=Ferro-ferri-fluoro-leakeite
##RRUFFID=R070468
##IDEAL CHEMISTRY=NaNa_2_(Fe^2+^_2_Fe^3+^_2_Li)Si_8_O_22_F_2_
##LOCALITY=Questa, Taos County, New Mexico, USA
##OWNER=RRUFF
##SOURCE=Michael Scott
##DESCRIPTION=Unconsolidated dark blue to black grains, co-type sample
##STATUS=The identification of this mineral has been confirmed only by single crystal X-ray diffraction.
##URL=rruff.info/R070468
144.1374, 470.2752
144.6195, 493.8740
145.1016, 515.7355
145.5838, 530.8580
146.0659, 536.3900
146.5480, 541.6156
147.0301, 549.4568
147.5122, 557.3881
147.9943, 554.8820
148.4765, 532.1450
148.9586, 508.1029
149.4407, 492.6241
149.9228, 491.6352
150.4049, 491.6911
150.8870, 491.4937
151.3692, 491.0608
151.8513, 493.1483
152.3334, 499.0623
152.8155, 506.7566
153.2976, 514.8235
153.7797, 525.1924
154.2619, 533.8709
154.7440, 540.4589
155.2261, 544.9583
155.7082, 546.8638
156.1903, 540.1842
156.6724, 532.5709
157.1546, 533.2579
157.6367, 552.9482
158.1188, 573.4407
158.6009, 588.2449
159.0830, 595.2653
159.5651, 601.2154
160.0473, 604.3398
160.5294, 607.6259
161.0115, 616.7574
161.4936, 639.0590
161.9757, 663.9301
162.4578, 685.9904
162.9400, 705.1597
163.4221, 719.8531
163.9042, 726.2117
164.3863, 726.6083
164.8684, 729.0039
165.3505, 739.3695
165.8327, 752.0064
166.3148, 762.3297
166.7969, 769.2580
167.2790, 773.3647
167.7611, 772.3355
168.2433, 767.0658
168.7254, 765.2494
169.2075, 775.8686
169.6896, 791.0978
170.1717, 801.7037
170.6538, 798.7311
171.1360, 793.4458
171.6181, 796.6781
172.1002, 808.9597
172.5823, 818.2875
173.0644, 811.5325
173.5465, 796.0240
174.0287, 784.7932
174.5108, 789.2142
174.9929, 798.4163
175.4750, 799.8802
175.9571, 791.8818
176.4392, 781.3723
176.9214, 774.8782
177.4035, 771.2372
177.8856, 767.1170
178.3677, 757.6049
178.8498, 747.2454
179.3319, 744.1429
179.8141, 751.1718
180.2962, 760.6894
180.7783, 762.7391
181.2604, 758.5652
181.7425, 754.9496
182.2246, 757.5350
182.7068, 763.9399
183.1889, 768.4368
183.6710, 769.2413
184.1531, 768.7076
184.6352, 769.2684
185.1173, 771.0604
185.5995, 776.4771
186.0816, 793.6260
186.5637, 817.5362
187.0458, 828.7913
187.5279, 816.4883
188.0100, 792.5444
188.4922, 786.4429
188.9743, 799.1383
189.4564, 814.7815
189.9385, 816.3243
190.4206, 805.7793
190.9027, 798.7679
191.3849, 801.4946
191.8670, 811.2831
192.3491, 816.9803
192.8312, 817.6195
193.3133, 819.2117
193.7954, 832.3436
194.2776, 856.6609
194.7597, 874.4139
195.2418, 874.7369
195.7239, 860.5851
196.2060, 856.8264
196.6881, 865.5931
197.1703, 879.5124
197.6524, 887.5368
198.1345, 889.1325
198.6166, 891.4087
199.0987, 898.1874
199.5808, 909.4744
200.0630, 919.2899
200.5451, 927.8600
201.0272, 934.4310
201.5093, 937.0255
201.9914, 934.9652
202.4735, 932.2836
202.9557, 930.7438
203.4378, 930.3591
203.9199, 931.6573
204.4020, 936.2974
204.8841, 941.2352
205.3662, 938.0524
205.8484, 925.0434
206.3305, 909.6169
206.8126, 894.8446
207.2947, 880.1426
207.7768, 870.1912
208.2589, 866.8878
208.7411, 868.0941
209.2232, 865.7839
209.7053, 858.3685
210.1874, 851.2014
210.6695, 848.0757
211.1517, 849.8740
211.6338, 851.8954
212.1159, 853.2713
212.5980, 854.3512
213.0801, 857.8864
213.5622, 865.5663
214.0444, 872.4572
214.5265, 873.9981
215.0086, 868.4808
215.4907, 862.9925
215.9728, 857.8475
216.4549, 853.2866
216.9371, 853.5297
217.4192, 861.7146
217.9013, 870.0703
218.3834, 870.1483
218.8655, 857.9914
219.3476, 848.3011
219.8298, 844.0251
220.3119, 845.2191
220.7940, 849.1270
221.2761, 857.8203
221.7582, 866.8480
222.2403, 871.6651
222.7225, 871.9551
223.2046, 868.3717
223.6867, 859.5116
224.1688, 844.3987
224.6509, 834.1661
225.1330, 828.5533
225.6152, 827.9518
226.0973, 834.3054
226.5794, 852.6510
227.0615, 867.4254
227.5436, 873.7604
228.0257, 870.3558
228.5079, 866.6575
228.9900, 863.3851
229.4721, 859.2277
229.9542, 851.4998
230.4363, 836.5869
230.9184, 824.7218
231.4006, 819.1314
231.8827, 820.8849
232.3648, 824.8430
232.8469, 831.9882
233.3290, 840.8041
233.8111, 849.2321
234.2933, 859.2363
234.7754, 865.5546
235.2575, 865.9394
235.7396, 858.6981
236.2217, 850.4351
236.7038, 837.9645
237.1860, 825.8762
237.6681, 824.3875
238.1502, 841.1260
238.6323, 856.3984
239.1144, 862.1370
239.5965, 852.7858
240.0787, 849.2261
240.5608, 855.1718
241.0429, 865.5467
241.5250, 868.2178
242.0071, 857.4200
242.4892, 847.6537
242.9714, 846.1030
243.4535, 859.6724
243.9356, 864.7122
244.4177, 857.0258
244.8998, 841.8623
245.3819, 833.3665
245.8641, 835.3744
246.3462, 838.4084
246.8283, 837.6663
247.3104, 829.7477
247.7925, 826.4979
248.2746, 830.5583
248.7568, 838.8309
249.2389, 842.1446
249.7210, 837.5493
250.2031, 832.4622
250.6852, 831.4199
251.1674, 839.4008
251.6495, 838.5826
252.1316, 822.6929
252.6137, 798.6733
253.0958, 789.7992
253.5779, 803.7648
254.0601, 820.9872
254.5422, 831.3874
255.0243, 833.0596
255.5064, 832.4303
255.9885, 827.7783
256.4706, 821.3190
256.9528, 821.6036
257.4349, 834.1494
257.9170, 844.3192
258.3991, 842.9167
258.8812, 823.9116
259.3633, 810.1383
259.8455, 803.4411
260.3276, 802.6112
260.8097, 804.4845
261.2918, 811.8622
261.7739, 816.8497
262.2560, 813.7258
262.7382, 798.1580
263.2203, 787.6555
263.7024, 784.4258
264.1845, 786.6028
264.6666, 788.0958
265.1487, 789.5215
265.6309, 788.9545
266.1130, 784.4671
266.5951, 774.2495
267.0772, 766.6768
267.5593, 763.3387
268.0414, 762.6351
268.5236, 758.6873
269.0057, 749.7733
269.4878, 741.6891
269.9699, 737.8085
270.4520, 738.6056
270.9341, 742.5468
271.4163, 752.3743
271.8984, 763.8793
272.3805, 762.3030
272.8626, 743.7521
273.3447, 723.5311
273.8268, 710.5983
274.3090, 705.5701
274.7911, 703.7106
275.2732, 704.7059
275.7553, 708.6183
276.2374, 717.3788
276.7195, 733.0093
277.2017, 745.9388
277.6838, 748.6392
278.1659, 740.0971
278.6480, 733.6725
279.1301, 730.0925
279.6122, 729.7214
280.0944, 736.1713
280.5765, 751.4046
281.0586, 762.0604
281.5407, 755.0235
282.0228, 730.0666
282.5049, 718.9440
282.9871, 728.8516
283.4692, 748.3295
283.9513, 750.5833
284.4334, 734.0634
284.9155, 718.4397
285.3976, 716.9879
285.8798, 728.6199
286.3619, 738.9031
286.8440, 746.7470
287.3261, 752.4816
287.8082, 756.7760
288.2903, 759.6295
288.7725, 761.1009
289.2546, 759.9908
289.7367, 757.0355
290.2188, 756.9024
290.7009, 760.6887
291.1830, 765.8047
291.6652, 768.6980
292.1473, 769.3662
292.6294, 767.4621
293.1115, 759.9315
293.5936, 749.2415
294.0757, 745.1096
294.5579, 749.7759
295.0400, 756.5800
295.5221, 754.8856
296.0042, 746.1532
296.4863, 739.1481
296.9684, 737.2379
297.4506, 740.5090
297.9327, 751.0356
298.4148, 770.4993
298.8969, 790.6149
299.3790, 800.7624
299.8611, 802.7986
300.3433, 802.6596
300.8254, 802.0220
301.3075, 801.5206
301.7896, 802.8946
302.2717, 806.6532
302.7538, 809.5884
303.2360, 804.1867
303.7181, 795.0833
304.2002, 793.5066
304.6823, 812.6076
305.1644, 838.6307
305.6465, 854.3588
306.1287, 858.5599
306.6108, 859.6257
307.0929, 863.4843
307.5750, 869.1711
308.0571, 875.0802
308.5392, 881.7983
309.0214, 887.5526
309.5035, 891.1107
309.9856, 892.3987
310.4677, 891.1945
310.9498, 883.1855
311.4319, 873.5428
311.9141, 869.2705
312.3962, 877.4525
312.8783, 888.4507
313.3604, 896.6498
313.8426, 901.9454
314.3247, 905.7666
314.8068, 911.2872
315.2889, 914.7372
315.7710, 912.2673
316.2531, 894.7451
316.7353, 878.0552
317.2174, 870.8931
317.6995, 872.3649
318.1816, 872.6718
318.6637, 868.5254
319.1458, 861.3489
319.6280, 852.2855
320.1101, 842.9578
320.5922, 830.4217
321.0743, 809.8564
321.5564, 783.5431
322.0385, 764.2037
322.5207, 758.9743
323.0028, 759.2966
323.4849, 760.0208
323.9670, 764.2200
324.4491, 764.1179
324.9312, 756.3373
325.4134, 742.7803
325.8955, 730.6046
326.3776, 720.7145
326.8597, 712.3495
327.3418, 705.0357
327.8239, 696.7289
328.3061, 692.4767
328.7882, 693.4288
329.2703, 698.4990
329.7524, 705.1152
330.2345, 718.4880
330.7166, 728.2844
331.1988, 729.8480
331.6809, 717.4941
332.1630, 710.0971
332.6451, 710.4802
333.1272, 714.8079
333.6093, 715.3497
334.0915, 707.1399
334.5736, 703.0179
335.0557, 709.2595
335.5378, 729.9556
336.0199, 740.3737
336.5020, 734.6960
336.9842, 724.4520
337.4663, 727.6905
337.9484, 751.4713
338.4305, 769.3271
338.9126, 771.6329
339.3947, 758.2327
339.8769, 750.9146
340.3590, 750.1831
340.8411, 754.3665
341.3232, 764.3568
341.8053, 781.6770
342.2874, 791.8163
342.7696, 787.8985
343.2517, 773.6008
343.7338, 770.0339
344.2159, 778.8354
344.6980, 789.3325
345.1801, 789.9733
345.6623, 781.6846
346.1444, 778.8104
346.6265, 786.3519
347.1086, 799.3456
347.5907, 806.9503
348.0728, 809.0560
348.5550, 807.9781
349.0371, 802.9963
349.5192, 795.8561
350.0013, 792.5294
350.4834, 794.9584
350.9655, 799.8179
351.4477, 800.5885
351.9298, 798.6614
352.4119, 800.9565
352.8940, 820.1190
353.3761, 844.1025
353.8582, 850.8400
354.3404, 834.4936
354.8225, 812.9555
355.3046, 802.5419
355.7867, 800.1795
356.2688, 798.4870
356.7509, 789.4999
357.2331, 781.9686
357.7152, 787.4261
358.1973, 808.3600
358.6794, 825.2522
359.1615, 822.0144
359.6436, 807.7678
360.1258, 795.2728
360.6079, 791.0206
361.0900, 788.5298
361.5721, 783.3237
362.0542, 775.3793
362.5363, 770.7830
363.0185, 776.5972
363.5006, 784.7811
363.9827, 788.0658
364.4648, 779.5575
364.9469, 771.2290
365.4290, 766.5361
365.9112, 765.0794
366.3933, 763.4290
366.8754, 759.9533
367.3575, 756.7571
367.8396, 755.0409
368.3217, 753.0742
368.8039, 754.8239
369.2860, 765.8010
369.7681, 781.2391
370.2502, 786.9599
370.7323, 774.0449
371.2144, 760.2982
371.6966, 752.7737
372.1787, 754.9393
372.6608, 754.6964
373.1429, 751.3184
373.6250, 745.9281
374.1071, 739.9576
374.5893, 732.2661
375.0714, 726.3687
375.5535, 724.3885
376.0356, 726.8294
376.5177, 725.2063
376.9998, 718.3060
377.4820, 709.4346
377.9641, 702.1224
378.4462, 696.3096
378.9283, 692.3477
379.4104, 691.2839
379.8925, 692.0885
380.3747, 689.0226
380.8568, 681.2988
381.3389, 674.4304
381.8210, 676.5205
382.3031, 685.6653
382.7852, 684.6387
383.2674, 666.3884
383.7495, 641.8939
384.2316, 632.6123
384.7137, 637.3903
385.1958, 646.6245
385.6779, 657.5065
386.1601, 668.0002
386.6422, 672.9859
387.1243, 671.1349
387.6064, 666.5231
388.0885, 662.5676
388.5706, 659.1706
389.0528, 656.1838
389.5349, 651.4675
390.0170, 648.3081
390.4991, 652.4291
390.9812, 664.8170
391.4633, 673.1738
391.9455, 664.0091
392.4276, 647.6949
392.9097, 637.4081
393.3918, 643.1135
393.8739, 651.1860
394.3561, 655.7310
394.8382, 656.9180
395.3203, 657.5106
395.8024, 658.4160
396.2845, 659.1318
396.7667, 659.1917
397.2488, 654.5928
397.7309, 654.2532
398.2130, 664.6844
398.6951, 681.3589
399.1772, 690.0236
399.6594, 679.4310
400.1415, 668.9099
400.6236, 666.0283
401.1057, 675.4851
401.5878, 681.3388
402.0699, 681.2401
402.5521, 678.6828
403.0342, 678.9702
403.5163, 684.0469
403.9984, 688.4982
404.4805, 690.7582
404.9626, 690.7669
405.4448, 691.1359
405.9269, 691.6998
406.4090, 692.9277
406.8911, 695.3733
407.3732, 699.1724
407.8553, 703.8734
408.3375, 710.9162
408.8196, 717.9130
409.3017, 715.6174
409.7838, 703.2515
410.2659, 690.3081
410.7480, 683.1003
411.2302, 680.9794
411.7123, 681.7023
412.1944, 685.8989
412.6765, 690.3529
413.1586, 690.8444
413.6407, 687.7875
414.1229, 683.0669
414.6050, 678.2466
415.0871, 672.0234
415.5692, 659.9846
416.0513, 641.3655
416.5334, 627.4635
417.0156, 631.9766
417.4977, 645.8146
417.9798, 655.3038
418.4619, 653.3809
418.9440, 647.4803
419.4261, 641.0544
419.9083, 634.3416
420.3904, 628.0356
420.8725, 622.9001
421.3546, 618.0767
421.8367, 613.1005
422.3188, 608.1492
422.8010, 602.4899
423.2831, 594.6281
423.7652, 585.9827
424.2473, 579.3763
424.7294, 573.8315
425.2115, 571.5716
425.6937, 574.4148
426.1758, 584.4412
426.6579, 591.4293
427.1400, 595.6865
427.6221, 596.7321
428.1042, 593.3540
428.5864, 581.4271
429.0685, 573.5207
429.5506, 573.0458
430.0327, 578.8694
430.5148, 582.8480
430.9969, 584.8287
431.4791, 585.2444
431.9612, 584.1017
432.4433, 581.3293
432.9254, 577.9579
433.4075, 573.4332
433.8896, 569.4611
434.3718, 571.3889
434.8539, 578.9435
435.3360, 582.5508
435.8181, 572.4747
436.3002, 554.9964
436.7823, 548.9838
437.2645, 555.5865
437.7466, 564.9796
438.2287, 568.7894
438.7108, 568.1350
439.1929, 565.2722
439.6750, 558.9612
440.1572, 552.7805
440.6393, 551.7578
441.1214, 554.6470
441.6035, 555.2968
442.0856, 546.9233
442.5677, 536.6161
443.0499, 530.4698
443.5320, 531.0010
444.0141, 532.4576
444.4962, 532.1244
444.9783, 531.3120
445.4604, 532.2152
445.9426, 538.7405
446.4247, 543.9449
446.9068, 545.8177
447.3889, 544.1686
447.8710, 539.5276
448.3531, 525.6636
448.8353, 512.8734
449.3174, 509.2293
449.7995, 522.7504
450.2816, 531.8441
450.7637, 532.6019
451.2458, 527.4603
451.7280, 526.2875
452.2101, 530.9086
452.6922, 535.1327
453.1743, 534.6994
453.6564, 528.7312
454.1385, 528.4108
454.6207, 536.0944
455.1028, 544.4612
455.5849, 540.4880
456.0670, 525.1160
456.5491, 514.5921
457.0313, 516.9271
457.5134, 526.9813
457.9955, 532.9641
458.4776, 535.0092
458.9597, 535.3641
459.4418, 533.3126
459.9240, 531.3276
460.4061, 534.4184
460.8882, 545.5090
461.3703, 557.3309
461.8524, 563.6486
462.3345, 565.8338
462.8167, 566.9146
463.2988, 569.0438
463.7809, 569.9882
464.2630, 567.0766
464.7451, 559.5842
465.2272, 554.8067
465.7094, 557.0692
466.1915, 562.3398
466.6736, 567.0311
467.1557, 568.9431
467.6378, 571.9666
468.1199, 578.3621
468.6021, 586.8795
469.0842, 591.3323
469.5663, 586.5472
470.0484, 583.7834
470.5305, 589.6024
471.0126, 609.9655
471.4948, 617.3673
471.9769, 606.3083
472.4590, 589.2401
472.9411, 584.5295
473.4232, 594.3251
473.9053, 602.4504
474.3875, 603.3118
474.8696, 599.2474
475.3517, 600.6618
475.8338, 607.8958
476.3159, 614.2637
476.7981, 611.5142
477.2802, 603.4974
477.7623, 603.1358
478.2444, 614.0751
478.7265, 627.4945
479.2086, 635.7170
479.6908, 638.5150
480.1729, 635.1382
480.6550, 617.4388
481.1371, 598.6841
481.6192, 591.7968
482.1013, 596.6971
482.5835, 601.2004
483.0656, 600.2289
483.5477, 595.5977
484.0298, 588.5228
484.5119, 574.2261
484.9940, 564.2927
485.4762, 562.6238
485.9583, 567.1082
486.4404, 572.3077
486.9225, 579.5641
487.4046, 585.7003
487.8867, 590.3694
488.3689, 593.9839
488.8510, 592.9097
489.3331, 583.4545
489.8152, 573.7392
490.2973, 572.8535
490.7794, 583.5139
491.2616, 591.0886
491.7437, 592.2090
492.2258, 589.6382
492.7079, 591.1971
493.1900, 597.0436
493.6721, 603.5990
494.1543, 610.4041
494.6364, 616.3582
495.1185, 616.0090
495.6006, 608.3830
496.0827, 600.7934
496.5648, 601.4099
497.0470, 607.5151
497.5291, 613.4236
498.0112, 615.7898
498.4933, 618.7697
498.9754, 625.8915
499.4576, 636.6405
499.9397, 648.7263
500.4218, 664.0829
500.9039, 678.3708
501.3860, 688.9280
501.8681, 694.7498
502.3503, 698.6613
502.8324, 701.2258
503.3145, 702.2431
503.7966, 701.4084
504.2787, 694.6420
504.7608, 691.0464
505.2430, 692.4572
505.7251, 698.2927
506.2072, 704.9339
506.6893, 712.8003
507.1714, 720.6728
507.6535, 727.7432
508.1357, 733.7666
508.6178, 741.4090
509.0999, 751.7112
509.5820, 761.2691
510.0641, 763.3120
510.5462, 758.6721
511.0284, 757.9826
511.5105, 767.5217
511.9926, 780.9488
512.4747, 785.4236
512.9568, 781.7963
513.4389, 777.1919
513.9210, 775.5918
514.4031, 776.2424
514.8853, 779.3032
515.3674, 786.0305
515.8495, 789.8984
516.3316, 782.8118
516.8137, 771.5132
517.2958, 765.3271
517.7780, 772.4004
518.2601, 779.8614
518.7422, 782.3309
519.2244, 780.4777
519.7065, 781.6722
520.1886, 790.0039
520.6707, 798.6721
521.1528, 803.8965
521.6349, 801.3109
522.1171, 807.2969
522.5992, 826.2982
523.0813, 849.4422
523.5634, 865.6331
524.0455, 874.3434
524.5276, 878.4305
525.0098, 876.6214
525.4919, 871.5535
525.9740, 872.1285
526.4561, 878.4727
526.9382, 887.5304
527.4203, 898.7240
527.9025, 911.0737
528.3846, 920.9586
528.8667, 927.3497
529.3488, 936.1888
529.8309, 954.8901
530.3130, 979.3199
530.7952, 1003.071
531.2773, 1021.812
531.7594, 1040.659
532.2415, 1064.084
532.7236, 1090.563
533.2057, 1112.493
533.6879, 1122.369
534.1700, 1131.482
534.6521, 1145.853
535.1342, 1168.424
535.6163, 1189.168
536.0984, 1206.499
536.5806, 1222.764
537.0627, 1240.201
537.5448, 1259.702
538.0269, 1279.366
538.5090, 1301.181
538.9911, 1321.887
539.4733, 1326.067
539.9554, 1311.003
540.4375, 1299.568
540.9196, 1308.358
541.4017, 1332.349
541.8839, 1349.392
542.3660, 1359.261
542.8481, 1360.290
543.3302, 1346.255
543.8123, 1322.895
544.2944, 1301.661
544.7766, 1287.302
545.2587, 1273.538
545.7408, 1253.553
546.2229, 1230.439
546.7050, 1211.352
547.1871, 1203.714
547.6693, 1196.944
548.1514, 1186.850
548.6335, 1173.170
549.1156, 1155.411
549.5977, 1127.430
550.0798, 1099.362
550.5620, 1078.146
551.0441, 1064.558
551.5262, 1056.615
552.0083, 1057.270
552.4904, 1061.343
552.9725, 1058.778
553.4547, 1048.940
553.9368, 1035.366
554.4189, 1017.005
554.9010, 996.2753
555.3831, 983.2896
555.8652, 978.1191
556.3474, 977.0590
556.8295, 980.2469
557.3116, 984.9660
557.7937, 985.3522
558.2758, 980.1376
558.7579, 972.5881
559.2401, 963.6665
559.7222, 954.6617
560.2043, 947.6343
560.6864, 945.4270
561.1685, 943.3412
561.6506, 939.2574
562.1328, 933.5027
562.6149, 927.8654
563.0970, 920.3209
563.5791, 915.1357
564.0612, 914.9768
564.5433, 922.5153
565.0255, 924.5990
565.5076, 919.1221
565.9897, 910.6701
566.4718, 903.7976
566.9539, 898.9265
567.4360, 893.0757
567.9182, 885.1885
568.4003, 876.9169
568.8824, 870.2927
569.3645, 865.6744
569.8466, 866.8436
570.3287, 883.0076
570.8109, 903.5833
571.2930, 907.6992
571.7751, 895.8561
572.2572, 884.5040
572.7393, 888.6119
573.2214, 897.2576
573.7036, 898.1672
574.1857, 883.9569
574.6678, 873.1934
575.1499, 879.2516
575.6320, 891.2226
576.1141, 893.1774
576.5963, 869.7274
577.0784, 850.7122
577.5605, 843.7653
578.0426, 846.6345
578.5247, 844.0478
579.0068, 833.9888
579.4890, 822.6389
579.9711, 812.0170
580.4532, 801.9899
580.9353, 796.8649
581.4174, 797.2471
581.8995, 800.0288
582.3817, 803.6453
582.8638, 807.1154
583.3459, 807.2690
583.8280, 804.4901
584.3101, 795.9321
584.7922, 770.1852
585.2744, 735.5739
585.7565, 712.8480
586.2386, 724.4480
586.7207, 740.4370
587.2028, 743.1925
587.6849, 732.3101
588.1671, 719.6982
588.6492, 706.9706
589.1313, 694.5480
589.6134, 682.3938
590.0955, 667.8090
590.5776, 659.8175
591.0598, 663.3192
591.5419, 669.0137
592.0240, 662.2986
592.5061, 639.1984
592.9882, 624.1694
593.4703, 624.7020
593.9525, 634.6390
594.4346, 639.7051
594.9167, 640.1503
595.3988, 639.4942
595.8809, 641.7353
596.3630, 643.4275
596.8452, 636.9850
597.3273, 622.4109
597.8094, 609.0181
598.2915, 604.9896
598.7736, 604.2462
599.2557, 600.2643
599.7379, 587.9783
600.2200, 580.0399
600.7021, 587.2350
601.1842, 599.2311
601.6663, 599.0697
602.1484, 571.0230
602.6306, 551.8496
603.1127, 550.3943
603.5948, 562.9260
604.0769, 570.0762
604.5590, 569.5518
605.0411, 571.0730
605.5233, 583.3990
606.0054, 604.3182
606.4875, 611.5025
606.9696, 603.9609
607.4517, 591.9957
607.9338, 582.9102
608.4160, 576.9391
608.8981, 575.7654
609.3802, 581.6516
609.8623, 587.0004
610.3444, 583.8610
610.8265, 576.7205
611.3087, 573.0439
611.7908, 581.6593
612.2729, 587.8827
612.7550, 584.8945
613.2371, 574.0414
613.7192, 565.5480
614.2014, 558.5613
614.6835, 555.6055
615.1656, 559.4221
615.6477, 571.3781
616.1298, 576.3002
616.6119, 572.4662
617.0941, 565.9526
617.5762, 561.1526
618.0583, 558.2260
618.5404, 559.6614
619.0225, 566.9539
619.5046, 575.2228
619.9868, 579.9593
620.4689, 580.8998
620.9510, 577.6389
621.4331, 563.5564
621.9152, 550.8748
622.3973, 549.0404
622.8795, 555.8446
623.3616, 561.9388
623.8437, 564.7532
624.3258, 565.7249
624.8079, 564.4055
625.2900, 559.8843
625.7722, 559.5631
626.2543, 565.7576
626.7364, 573.2742
627.2185, 578.8282
627.7006, 582.6678
628.1827, 582.0320
628.6649, 575.3000
629.1470, 567.5248
629.6291, 567.4986
630.1112, 573.5748
630.5933, 576.9216
631.0754, 572.1265
631.5576, 566.2950
632.0397, 567.5805
632.5218, 575.0657
633.0039, 585.9909
633.4860, 607.1024
633.9681, 624.3223
634.4503, 627.4429
634.9324, 615.6326
635.4145, 604.4467
635.8966, 598.6589
636.3787, 592.9853
636.8608, 583.2812
637.3430, 563.6011
637.8251, 557.8710
638.3072, 571.6243
638.7893, 590.9705
639.2714, 597.8326
639.7535, 592.0394
640.2357, 589.2206
640.7178, 593.5087
