##NAMES=Ferrierite-Mg
##RRUFFID=R070091
##IDEAL CHEMISTRY=[Mg_2_(K,Na)_2_Ca_0.5_](Si_29_Al_7_)O_72_&#183;18H_2_O
##LOCALITY=Kamloops Lake, British Columbia, Canada
##OWNER=RRUFF
##SOURCE=Michael Scott
##DESCRIPTION=White acicular crystal in radial hemispheres and lining a cavity associated with quartz
##STATUS=The identification of this mineral has been confirmed by X-ray diffraction and chemical analysis
##URL=rruff.info/R070091
##MEASURED CHEMISTRY=(Mg_1.66_Na_1.65_K_0.35_Ca_0.12_Ba_0.05_Sr_0.04_)_Σ=3.87_(Si_30.26_Al_5.74_)O_72_·21.5H_2_O; H_2_O estimated by difference
170.0038, 18716.75
170.4860, 18813.27
170.9681, 18898.45
171.4502, 18969.49
171.9323, 19029.20
172.4144, 19083.40
172.8965, 19136.08
173.3787, 19187.52
173.8608, 19231.46
174.3429, 19276.16
174.8250, 19306.29
175.3071, 19309.26
175.7892, 19292.61
176.2714, 19273.69
176.7535, 19264.98
177.2356, 19266.13
177.7177, 19264.06
178.1998, 19252.58
178.6819, 19244.73
179.1641, 19246.74
179.6462, 19256.27
180.1283, 19267.60
180.6104, 19277.49
181.0925, 19285.73
181.5746, 19288.62
182.0567, 19263.34
182.5389, 19256.95
183.0210, 19303.14
183.5031, 19383.13
183.9852, 19449.03
184.4673, 19468.31
184.9494, 19447.76
185.4316, 19452.06
185.9137, 19496.26
186.3958, 19542.90
186.8779, 19581.13
187.3600, 19611.88
187.8421, 19638.89
188.3243, 19664.24
188.8064, 19687.45
189.2885, 19704.84
189.7706, 19714.37
190.2527, 19721.87
190.7348, 19723.67
191.2170, 19724.56
191.6991, 19736.44
192.1812, 19767.07
192.6633, 19811.48
193.1454, 19849.00
193.6275, 19874.86
194.1097, 19901.06
194.5918, 19931.42
195.0739, 19964.71
195.5560, 19999.51
196.0381, 20036.08
196.5202, 20072.09
197.0024, 20098.49
197.4845, 20103.79
197.9666, 20119.23
198.4487, 20167.44
198.9308, 20231.36
199.4129, 20275.99
199.8951, 20284.64
200.3772, 20271.84
200.8593, 20273.47
201.3414, 20300.32
201.8235, 20315.13
202.3056, 20293.64
202.7878, 20255.32
203.2699, 20237.31
203.7520, 20254.97
204.2341, 20289.33
204.7162, 20302.32
205.1983, 20287.75
205.6805, 20277.65
206.1626, 20288.21
206.6447, 20305.96
207.1268, 20308.76
207.6089, 20289.23
208.0910, 20258.14
208.5732, 20228.68
209.0553, 20198.35
209.5374, 20179.58
210.0195, 20191.30
210.5016, 20210.40
210.9837, 20201.69
211.4659, 20155.35
211.9480, 20097.52
212.4301, 20062.94
212.9122, 20054.65
213.3943, 20037.57
213.8764, 19986.53
214.3586, 19933.34
214.8407, 19921.11
215.3228, 19957.90
215.8049, 20006.78
216.2870, 20029.69
216.7691, 20025.41
217.2513, 20023.25
217.7334, 20021.63
218.2155, 20025.75
218.6976, 20047.32
219.1797, 20086.61
219.6618, 20118.79
220.1440, 20117.15
220.6261, 20082.38
221.1082, 20065.39
221.5903, 20082.95
222.0724, 20107.88
222.5546, 20119.70
223.0367, 20118.12
223.5188, 20113.66
224.0009, 20113.90
224.4830, 20117.80
224.9651, 20116.98
225.4473, 20114.98
225.9294, 20105.40
226.4115, 20077.04
226.8936, 20034.73
227.3757, 20001.68
227.8578, 19995.10
228.3400, 20007.20
228.8221, 20002.70
229.3042, 19971.95
229.7863, 19937.11
230.2684, 19901.65
230.7505, 19868.60
231.2327, 19848.17
231.7148, 19848.42
232.1969, 19860.32
232.6790, 19856.47
233.1611, 19827.04
233.6432, 19801.69
234.1254, 19798.68
234.6075, 19805.13
235.0896, 19792.81
235.5717, 19747.94
236.0538, 19691.22
236.5359, 19667.11
237.0181, 19687.69
237.5002, 19703.93
237.9823, 19702.46
238.4644, 19692.83
238.9465, 19685.54
239.4286, 19683.23
239.9108, 19688.17
240.3929, 19708.49
240.8750, 19757.04
241.3571, 19773.84
241.8392, 19717.45
242.3213, 19647.86
242.8035, 19628.08
243.2856, 19666.46
243.7677, 19718.75
244.2498, 19737.81
244.7319, 19713.82
245.2140, 19707.82
245.6962, 19741.70
246.1783, 19775.85
246.6604, 19786.74
247.1425, 19772.62
247.6246, 19738.14
248.1067, 19680.67
248.5889, 19600.21
249.0710, 19558.59
249.5531, 19576.28
250.0352, 19606.04
250.5173, 19639.87
250.9994, 19669.86
251.4816, 19678.04
251.9637, 19650.59
252.4458, 19593.99
252.9279, 19553.29
253.4100, 19545.77
253.8921, 19532.01
254.3743, 19490.35
254.8564, 19439.04
255.3385, 19410.42
255.8206, 19420.46
256.3027, 19453.53
256.7849, 19467.25
257.2670, 19433.38
257.7491, 19413.96
258.2312, 19423.47
258.7133, 19442.78
259.1954, 19451.04
259.6776, 19442.24
260.1597, 19427.27
260.6418, 19423.80
261.1239, 19438.62
261.6060, 19452.25
262.0881, 19466.22
262.5703, 19478.09
263.0524, 19491.19
263.5345, 19503.10
264.0166, 19501.69
264.4987, 19468.60
264.9808, 19389.00
265.4630, 19350.70
265.9451, 19388.51
266.4272, 19429.42
266.9093, 19434.95
267.3914, 19376.38
267.8735, 19405.72
268.3557, 19415.58
268.8378, 19407.01
269.3199, 19324.80
269.8020, 19337.68
270.2841, 19312.45
270.7662, 19285.66
271.2484, 19311.92
271.7305, 19240.43
272.2126, 19265.85
272.6947, 19252.58
273.1768, 19257.02
273.6589, 19223.12
274.1411, 19201.05
274.6232, 19217.35
275.1053, 19212.41
275.5874, 19174.09
276.0695, 19179.66
276.5516, 19106.82
277.0338, 19102.78
277.5159, 19081.47
277.9980, 19069.26
278.4801, 19098.38
278.9622, 19129.24
279.4443, 19133.83
279.9265, 19111.62
280.4086, 19087.82
280.8907, 19092.88
281.3728, 19128.98
281.8549, 19145.69
282.3370, 19124.07
282.8192, 19100.08
283.3013, 19085.64
283.7834, 19082.59
284.2655, 19094.24
284.7476, 19132.06
285.2297, 19186.21
285.7119, 19216.46
286.1940, 19212.08
286.6761, 19205.48
287.1582, 19222.21
287.6403, 19244.51
288.1224, 19244.02
288.6046, 19201.89
289.0867, 19145.17
289.5688, 19112.85
290.0509, 19107.39
290.5330, 19105.44
291.0151, 19092.52
291.4973, 19082.18
291.9794, 19095.06
292.4615, 19140.67
292.9436, 19179.50
293.4257, 19172.87
293.9078, 19129.52
294.3900, 19096.83
294.8721, 19088.41
295.3542, 19092.48
295.8363, 19093.57
296.3184, 19091.45
296.8005, 19097.82
297.2827, 19131.11
297.7648, 19171.80
298.2469, 19181.10
298.7290, 19149.89
299.2111, 19115.21
299.6932, 19107.72
300.1754, 19126.41
300.6575, 19157.46
301.1396, 19218.38
301.6217, 19276.99
302.1038, 19308.41
302.5859, 19313.67
303.0680, 19302.94
303.5501, 19275.79
304.0323, 19240.04
304.5144, 19230.39
304.9965, 19268.59
305.4786, 19303.52
305.9607, 19311.78
306.4428, 19307.53
306.9250, 19319.95
307.4071, 19361.52
307.8892, 19411.41
308.3713, 19428.46
308.8534, 19378.15
309.3355, 19358.52
309.8177, 19399.15
310.2998, 19454.06
310.7819, 19481.13
311.2640, 19476.25
311.7461, 19468.16
312.2282, 19490.18
312.7104, 19551.55
313.1925, 19583.74
313.6746, 19566.58
314.1567, 19545.36
314.6388, 19537.03
315.1209, 19539.24
315.6031, 19541.96
316.0852, 19537.98
316.5673, 19530.67
317.0494, 19539.03
317.5315, 19588.83
318.0136, 19619.01
318.4958, 19596.55
318.9779, 19562.53
319.4600, 19564.66
319.9421, 19618.63
320.4242, 19692.83
320.9063, 19738.34
321.3885, 19748.33
321.8706, 19752.66
322.3527, 19740.58
322.8348, 19734.26
323.3169, 19750.94
323.7990, 19787.88
324.2812, 19824.77
324.7633, 19844.92
325.2454, 19849.68
325.7275, 19849.71
326.2096, 19837.46
326.6917, 19833.29
327.1739, 19850.01
327.6560, 19880.70
328.1381, 19913.38
328.6202, 19942.95
329.1023, 19972.71
329.5844, 20013.19
330.0666, 20066.94
330.5487, 20102.89
331.0308, 20098.24
331.5129, 20073.69
331.9950, 20059.10
332.4771, 20058.40
332.9593, 20058.74
333.4414, 20049.18
333.9235, 20034.48
334.4056, 20031.60
334.8877, 20049.35
335.3698, 20065.37
335.8520, 20048.48
336.3341, 19999.55
336.8162, 19951.67
337.2983, 19905.58
337.7804, 19865.96
338.2625, 19840.72
338.7447, 19828.75
339.2268, 19817.64
339.7089, 19798.08
340.1910, 19771.57
340.6731, 19751.68
341.1552, 19748.26
341.6374, 19739.39
342.1195, 19712.91
342.6016, 19677.85
343.0837, 19647.94
343.5658, 19628.50
344.0479, 19617.10
344.5301, 19609.66
345.0122, 19616.50
345.4943, 19607.68
345.9764, 19560.33
346.4585, 19515.86
346.9406, 19509.39
347.4228, 19538.21
347.9049, 19570.70
348.3870, 19577.25
348.8691, 19557.36
349.3512, 19538.39
349.8333, 19529.16
350.3155, 19510.46
350.7976, 19458.50
351.2797, 19398.69
351.7618, 19373.58
352.2439, 19407.79
352.7260, 19467.29
353.2082, 19484.14
353.6903, 19448.33
354.1724, 19405.63
354.6545, 19350.67
355.1366, 19303.60
355.6187, 19287.84
356.1009, 19303.64
356.5830, 19312.56
357.0651, 19272.59
357.5472, 19197.78
358.0293, 19154.03
358.5114, 19158.11
358.9936, 19169.49
359.4757, 19159.97
359.9578, 19134.23
360.4399, 19100.88
360.9220, 19059.84
361.4041, 19013.73
361.8863, 18957.40
362.3684, 18894.21
362.8505, 18851.29
363.3326, 18847.07
363.8147, 18865.11
364.2968, 18866.29
364.7790, 18846.84
365.2611, 18823.13
365.7432, 18793.18
366.2253, 18764.00
366.7074, 18748.55
367.1895, 18748.50
367.6717, 18747.14
368.1538, 18723.77
368.6359, 18672.18
369.1180, 18642.69
369.6001, 18657.81
370.0822, 18669.21
370.5644, 18647.14
371.0465, 18605.47
371.5286, 18575.48
372.0107, 18574.94
372.4928, 18595.86
372.9749, 18613.84
373.4571, 18630.93
373.9392, 18640.93
374.4213, 18642.64
374.9034, 18638.60
375.3855, 18627.68
375.8676, 18611.22
376.3498, 18596.68
376.8319, 18593.50
377.3140, 18601.91
377.7961, 18606.11
378.2782, 18606.43
378.7603, 18601.33
379.2425, 18583.88
379.7246, 18562.01
380.2067, 18552.73
380.6888, 18572.17
381.1709, 18594.79
381.6530, 18575.06
382.1352, 18511.82
382.6173, 18470.57
383.0994, 18486.58
383.5815, 18525.85
384.0636, 18539.14
384.5457, 18523.22
385.0279, 18504.37
385.5100, 18481.11
385.9921, 18465.79
386.4742, 18490.00
386.9563, 18558.48
387.4384, 18613.98
387.9206, 18601.28
388.4027, 18521.78
388.8848, 18474.34
389.3669, 18477.45
389.8490, 18490.04
390.3311, 18485.46
390.8133, 18480.31
391.2954, 18513.73
391.7775, 18602.80
392.2596, 18713.58
392.7417, 18776.56
393.2238, 18757.51
393.7060, 18756.06
394.1881, 18775.00
394.6702, 18806.72
395.1523, 18847.24
395.6344, 18896.16
396.1165, 18957.69
396.5987, 19042.21
397.0808, 19140.78
397.5629, 19193.34
398.0450, 19173.42
398.5271, 19153.96
399.0092, 19154.71
399.4914, 19168.54
399.9735, 19189.20
400.4556, 19215.34
400.9377, 19245.60
401.4198, 19277.83
401.9019, 19312.50
402.3841, 19354.19
402.8662, 19409.11
403.3483, 19461.81
403.8304, 19495.29
404.3125, 19513.65
404.7946, 19535.18
405.2768, 19556.40
405.7589, 19588.75
406.2410, 19658.86
406.7231, 19756.93
407.2052, 19822.95
407.6873, 19817.76
408.1695, 19775.76
408.6516, 19791.26
409.1337, 19902.43
409.6158, 19996.17
410.0979, 20048.55
410.5800, 20084.31
411.0622, 20122.74
411.5443, 20168.05
412.0264, 20219.17
412.5085, 20276.63
412.9906, 20340.70
413.4727, 20393.84
413.9549, 20401.35
414.4370, 20437.81
414.9191, 20546.25
415.4012, 20681.33
415.8833, 20787.51
416.3654, 20845.05
416.8476, 20872.00
417.3297, 20885.01
417.8118, 20880.45
418.2939, 20899.90
418.7760, 20967.09
419.2581, 21039.11
419.7403, 21085.42
420.2224, 21112.09
420.7045, 21142.69
421.1866, 21195.03
421.6687, 21252.72
422.1508, 21295.69
422.6330, 21324.17
423.1151, 21335.20
423.5972, 21319.31
424.0793, 21292.42
424.5614, 21289.83
425.0435, 21319.86
425.5257, 21345.12
426.0078, 21351.27
426.4899, 21350.45
426.9720, 21359.42
427.4541, 21378.29
427.9362, 21388.58
428.4184, 21371.27
428.9005, 21327.86
429.3826, 21309.79
429.8647, 21346.57
430.3468, 21373.56
430.8289, 21373.72
431.3111, 21359.94
431.7932, 21347.67
432.2753, 21341.66
432.7574, 21335.74
433.2395, 21322.40
433.7216, 21301.50
434.2038, 21272.51
434.6859, 21218.53
435.1680, 21177.00
435.6501, 21180.13
436.1322, 21207.42
436.6143, 21212.73
437.0965, 21166.40
437.5786, 21104.84
438.0607, 21076.80
438.5428, 21079.92
439.0249, 21080.74
439.5070, 21069.13
439.9892, 21049.52
440.4713, 21026.58
440.9534, 21000.09
441.4355, 20974.21
441.9176, 20944.01
442.3997, 20918.93
442.8819, 20919.68
443.3640, 20937.96
443.8461, 20931.11
444.3282, 20867.41
444.8103, 20765.88
445.2924, 20703.58
445.7746, 20728.06
446.2567, 20731.10
446.7388, 20697.51
447.2209, 20648.10
447.7030, 20597.41
448.1852, 20548.52
448.6673, 20501.29
449.1494, 20458.48
449.6315, 20418.36
450.1136, 20358.20
450.5957, 20267.61
451.0779, 20176.33
451.5600, 20094.40
452.0421, 20018.89
452.5242, 19948.01
453.0063, 19882.05
453.4884, 19817.46
453.9706, 19756.90
454.4527, 19696.04
454.9348, 19619.62
455.4169, 19523.48
455.8990, 19418.72
456.3811, 19309.85
456.8633, 19198.33
457.3454, 19101.27
457.8275, 19034.28
458.3096, 18965.10
458.7917, 18875.19
459.2738, 18773.86
459.7560, 18674.84
460.2381, 18583.64
460.7202, 18503.45
461.2023, 18441.69
461.6844, 18405.52
462.1665, 18361.78
462.6487, 18312.02
463.1308, 18253.68
463.6129, 18174.44
464.0950, 18087.21
464.5771, 18019.58
465.0592, 17989.19
465.5414, 17968.22
466.0235, 17900.10
466.5056, 17778.85
466.9877, 17685.47
467.4698, 17649.95
467.9519, 17634.55
468.4341, 17612.88
468.9162, 17583.63
469.3983, 17534.84
469.8804, 17451.98
470.3625, 17355.67
470.8446, 17255.41
471.3268, 17156.94
471.8089, 17085.03
472.2910, 17054.27
472.7731, 17048.84
473.2552, 17036.79
473.7373, 17024.22
474.2195, 16990.90
474.7016, 16915.30
475.1837, 16836.55
475.6658, 16779.01
476.1479, 16742.06
476.6300, 16716.52
477.1122, 16698.67
477.5943, 16682.61
478.0764, 16647.54
478.5585, 16584.99
479.0406, 16525.52
479.5227, 16469.40
480.0049, 16423.13
480.4870, 16397.19
480.9691, 16389.61
481.4512, 16380.96
481.9333, 16359.37
482.4154, 16329.88
482.8976, 16298.46
483.3797, 16265.38
483.8618, 16238.07
484.3439, 16221.92
484.8260, 16212.40
485.3081, 16197.12
485.7903, 16170.68
486.2724, 16152.61
486.7545, 16161.58
487.2366, 16169.82
487.7187, 16148.09
488.2008, 16099.14
488.6830, 16046.79
489.1651, 16006.88
489.6472, 15980.56
490.1293, 15975.36
490.6114, 16006.14
491.0935, 16032.11
491.5757, 16063.40
492.0578, 16076.79
492.5399, 16040.37
493.0220, 15959.40
493.5041, 15888.46
493.9862, 15882.02
494.4684, 15911.36
494.9505, 15894.29
495.4326, 15822.78
495.9147, 15775.17
496.3968, 15806.03
496.8789, 15872.11
497.3611, 15883.46
497.8432, 15825.42
498.3253, 15764.54
498.8074, 15703.13
499.2895, 15657.40
499.7716, 15660.08
500.2538, 15700.98
500.7359, 15723.22
501.2180, 15683.70
501.7001, 15599.29
502.1822, 15544.90
502.6643, 15530.12
503.1465, 15531.64
503.6286, 15571.17
504.1107, 15605.97
504.5928, 15597.55
505.0749, 15549.91
505.5570, 15501.24
506.0392, 15474.42
506.5213, 15467.26
507.0034, 15480.60
507.4855, 15517.77
507.9676, 15545.46
508.4497, 15550.95
508.9319, 15538.92
509.4140, 15512.36
509.8961, 15465.82
510.3782, 15436.64
510.8603, 15451.56
511.3424, 15475.09
511.8246, 15473.13
512.3067, 15448.74
512.7888, 15424.95
513.2709, 15415.50
513.7531, 15414.32
514.2352, 15403.50
514.7173, 15375.37
515.1994, 15352.62
515.6815, 15334.20
516.1636, 15322.60
516.6458, 15327.53
517.1279, 15341.60
517.6100, 15340.83
518.0921, 15299.64
518.5742, 15250.92
519.0563, 15265.60
519.5385, 15343.92
520.0206, 15385.89
520.5027, 15351.80
520.9848, 15284.95
521.4669, 15232.57
521.9490, 15193.50
522.4312, 15172.54
522.9133, 15182.38
523.3954, 15199.49
523.8775, 15210.47
524.3596, 15216.60
524.8417, 15223.86
525.3239, 15234.78
525.8060, 15244.58
526.2881, 15244.59
526.7702, 15232.08
527.2523, 15219.35
527.7344, 15200.43
528.2166, 15187.73
528.6987, 15191.08
529.1808, 15202.61
529.6629, 15207.76
530.1450, 15199.98
530.6271, 15189.35
531.1093, 15188.07
531.5914, 15193.41
532.0735, 15191.41
532.5556, 15177.13
533.0377, 15166.27
533.5198, 15173.59
534.0020, 15198.22
534.4841, 15220.75
534.9662, 15256.00
535.4483, 15271.58
535.9304, 15233.77
536.4125, 15182.56
536.8947, 15173.70
537.3768, 15213.81
537.8589, 15256.24
538.3410, 15250.11
538.8231, 15200.80
539.3052, 15182.49
539.7874, 15211.55
540.2695, 15240.03
540.7516, 15255.72
541.2337, 15261.34
541.7158, 15257.80
542.1979, 15245.10
542.6801, 15227.82
543.1622, 15196.63
543.6443, 15168.20
544.1264, 15171.68
544.6085, 15205.83
545.0906, 15243.76
545.5728, 15271.87
546.0549, 15292.62
546.5370, 15312.86
547.0191, 15346.14
547.5012, 15353.48
547.9833, 15324.16
548.4655, 15279.47
548.9476, 15214.65
549.4297, 15145.80
549.9117, 15105.67
550.3939, 15113.46
550.8760, 15152.35
551.3581, 15204.32
551.8402, 15270.60
552.3223, 15303.47
552.8044, 15282.06
553.2866, 15244.92
553.7687, 15222.23
554.2508, 15211.47
554.7329, 15205.02
555.2150, 15203.46
555.6971, 15204.31
556.1793, 15209.58
556.6614, 15215.33
557.1435, 15213.90
557.6256, 15203.93
558.1077, 15192.33
558.5898, 15185.77
559.0720, 15184.25
559.5541, 15188.87
560.0362, 15216.57
560.5183, 15223.69
561.0004, 15184.57
561.4825, 15132.14
561.9647, 15096.97
562.4468, 15083.41
562.9289, 15076.41
563.4110, 15071.49
563.8931, 15064.59
564.3752, 15049.29
564.8574, 15025.42
565.3395, 14990.28
565.8216, 14937.99
566.3037, 14882.91
566.7858, 14854.67
567.2679, 14870.17
567.7501, 14873.30
568.2322, 14861.81
568.7143, 14840.26
569.1964, 14800.69
569.6785, 14754.91
570.1606, 14726.29
570.6428, 14726.32
571.1249, 14734.51
571.6070, 14723.05
572.0891, 14692.14
572.5712, 14644.91
573.0533, 14569.07
573.5355, 14503.68
574.0176, 14480.45
574.4997, 14487.41
574.9818, 14494.37
575.4639, 14505.01
575.9460, 14505.70
576.4282, 14479.99
576.9103, 14447.76
577.3924, 14434.77
577.8745, 14441.54
578.3566, 14449.85
578.8387, 14446.76
579.3209, 14433.21
579.8030, 14409.55
580.2851, 14362.42
580.7672, 14337.23
581.2493, 14372.39
581.7314, 14406.51
582.2136, 14401.20
582.6957, 14361.19
583.1778, 14313.59
583.6599, 14261.36
584.1420, 14214.21
584.6241, 14174.74
585.1063, 14147.62
585.5884, 14156.00
586.0705, 14208.38
586.5526, 14258.33
587.0347, 14251.48
587.5168, 14184.88
587.9990, 14142.20
588.4811, 14142.56
588.9632, 14144.42
589.4453, 14147.23
589.9274, 14144.40
590.4095, 14128.53
590.8917, 14099.37
591.3738, 14064.69
591.8559, 14020.38
592.3380, 13977.80
592.8201, 13968.85
593.3022, 13993.29
593.7844, 14013.45
594.2665, 14014.36
594.7486, 14005.19
595.2307, 14000.80
595.7128, 14005.30
596.1949, 13994.68
596.6771, 13947.96
597.1592, 13907.86
597.6413, 13904.04
598.1234, 13916.29
598.6055, 13907.77
599.0876, 13868.23
599.5698, 13829.87
600.0519, 13840.07
600.5340, 13890.89
601.0161, 13906.42
601.4982, 13875.05
601.9803, 13846.14
602.4625, 13848.88
602.9446, 13864.36
603.4267, 13857.73
603.9088, 13824.48
604.3909, 13789.77
604.8730, 13749.36
605.3552, 13718.47
605.8373, 13715.65
606.3194, 13731.80
606.8015, 13741.32
607.2836, 13732.37
607.7657, 13719.91
608.2479, 13739.02
608.7300, 13799.05
609.2121, 13797.89
609.6942, 13687.30
610.1763, 13591.02
610.6584, 13592.58
611.1406, 13641.79
611.6227, 13667.44
612.1048, 13655.56
612.5869, 13640.23
613.0690, 13639.32
613.5511, 13640.89
614.0333, 13627.03
614.5154, 13601.34
614.9975, 13586.05
615.4796, 13594.75
615.9617, 13612.68
616.4438, 13603.69
616.9260, 13553.04
617.4081, 13527.76
617.8902, 13551.26
618.3723, 13576.06
618.8544, 13585.66
619.3365, 13579.99
619.8187, 13554.00
620.3008, 13496.25
620.7829, 13452.61
621.2650, 13470.71
621.7471, 13512.86
622.2292, 13514.29
622.7114, 13474.70
623.1935, 13446.08
623.6756, 13463.10
624.1577, 13505.26
624.6398, 13515.39
625.1219, 13478.07
625.6041, 13445.05
626.0862, 13414.48
626.5683, 13392.13
627.0504, 13385.68
627.5325, 13388.33
628.0146, 13386.17
628.4968, 13373.06
628.9789, 13360.89
629.4610, 13357.80
629.9431, 13362.45
630.4252, 13376.61
630.9073, 13398.83
631.3895, 13415.02
631.8716, 13416.03
632.3537, 13403.94
632.8358, 13383.71
633.3179, 13345.13
633.8000, 13319.18
634.2822, 13310.42
634.7643, 13310.11
635.2464, 13320.74
635.7285, 13335.57
636.2106, 13340.70
636.6927, 13328.20
637.1749, 13316.71
637.6570, 13335.45
638.1391, 13363.18
638.6212, 13345.75
639.1033, 13280.14
639.5854, 13219.15
640.0676, 13195.75
640.5497, 13202.54
641.0318, 13220.37
641.5139, 13270.15
641.9960, 13289.97
642.4781, 13263.71
642.9603, 13225.16
643.4424, 13175.89
643.9245, 13128.89
644.4066, 13109.59
644.8887, 13131.36
645.3708, 13158.35
645.8530, 13155.38
646.3351, 13137.96
646.8172, 13139.30
647.2993, 13161.69
647.7814, 13187.85
648.2635, 13210.12
648.7457, 13223.60
649.2278, 13214.08
649.7099, 13165.95
650.1920, 13129.25
650.6741, 13095.75
651.1563, 13081.98
651.6384, 13112.39
652.1205, 13161.78
652.6026, 13189.26
653.0847, 13182.67
653.5668, 13159.72
654.0490, 13116.92
654.5311, 13073.39
655.0132, 13070.52
655.4953, 13105.55
655.9774, 13135.16
656.4595, 13137.01
656.9417, 13120.33
657.4238, 13102.61
657.9059, 13082.74
658.3880, 13065.33
658.8701, 13045.52
659.3522, 13034.17
659.8344, 13041.71
660.3165, 13056.90
660.7986, 13065.97
661.2807, 13066.26
661.7628, 13058.62
662.2449, 13034.83
