##NAMES=Ferrokentbrooksite
##RRUFFID=R110183
##IDEAL CHEMISTRY=Na_15_Ca_6_Fe^2+^_3_Zr^4+^_3_Nb^5+^(Si_25_O_73_)(O,OH,H_2_O)_3_(F,Cl)_2_
##LOCALITY=Poudrette quarry, Mont St-Hilaire, Quebec, Canada
##OWNER=RRUFF
##SOURCE=Donald Doell
##DESCRIPTION=Massive yellowish-gray
##STATUS=The identification of this mineral has been confirmed only by single crystal X-ray diffraction.
##URL=rruff.info/R110183
194.1473, 862.0366
194.6294, 867.0979
195.1115, 871.3865
195.5936, 876.1581
196.0757, 881.6168
196.5579, 887.3470
197.0400, 892.7143
197.5221, 897.7524
198.0042, 902.1327
198.4863, 905.1367
198.9684, 906.7209
199.4506, 910.1212
199.9327, 916.0888
200.4148, 923.2458
200.8969, 928.4266
201.3790, 931.4250
201.8611, 933.9008
202.3433, 937.0760
202.8254, 941.1248
203.3075, 943.7559
203.7896, 944.4061
204.2717, 943.8671
204.7538, 944.0904
205.2360, 945.1573
205.7181, 946.6046
206.2002, 948.2888
206.6823, 950.2885
207.1644, 951.8782
207.6465, 952.8911
208.1287, 953.4935
208.6108, 954.2787
209.0929, 955.3647
209.5750, 956.2864
210.0571, 956.7581
210.5392, 956.7535
211.0214, 956.3959
211.5035, 955.4657
211.9856, 954.2828
212.4677, 954.1959
212.9498, 955.9337
213.4319, 957.2013
213.9140, 956.3038
214.3962, 952.4075
214.8783, 949.4873
215.3604, 948.3086
215.8425, 948.3079
216.3246, 947.2189
216.8067, 944.6777
217.2889, 941.7243
217.7710, 938.8966
218.2531, 936.1205
218.7352, 933.6327
219.2173, 931.5067
219.6994, 929.6277
220.1816, 927.5373
220.6637, 924.8701
221.1458, 922.5062
221.6279, 921.2595
222.1100, 921.9965
222.5921, 921.4447
223.0743, 918.9180
223.5564, 914.8964
224.0385, 911.4763
224.5206, 908.9550
225.0027, 906.7172
225.4848, 904.3752
225.9670, 901.7734
226.4491, 899.5918
226.9312, 898.1743
227.4133, 897.2635
227.8954, 895.3135
228.3775, 891.4603
228.8597, 887.8958
229.3418, 886.2019
229.8239, 887.6160
230.3060, 887.9190
230.7881, 886.1208
231.2702, 882.8676
231.7524, 881.5508
232.2345, 883.5021
232.7166, 885.4722
233.1987, 885.3254
233.6808, 881.4919
234.1629, 879.0453
234.6451, 878.9395
235.1272, 880.4834
235.6093, 880.5776
236.0914, 878.3998
236.5735, 875.9069
237.0556, 874.2122
237.5378, 873.7555
238.0199, 873.1469
238.5020, 872.1371
238.9841, 870.9374
239.4662, 870.5256
239.9483, 871.7194
240.4305, 872.6393
240.9126, 872.1573
241.3947, 869.2806
241.8768, 867.2513
242.3589, 866.4251
242.8410, 866.5402
243.3232, 866.6893
243.8053, 866.9534
244.2874, 867.1273
244.7695, 867.0300
245.2516, 866.2874
245.7337, 866.0837
246.2159, 866.6729
246.6980, 867.7690
247.1801, 868.4604
247.6622, 868.5536
248.1443, 868.5111
248.6264, 868.4708
249.1086, 868.1633
249.5907, 868.5629
250.0728, 870.1815
250.5549, 872.3852
251.0370, 873.4208
251.5191, 872.7946
252.0013, 871.8186
252.4834, 870.9584
252.9655, 869.9940
253.4476, 869.8632
253.9297, 871.0590
254.4118, 872.8831
254.8940, 873.7178
255.3761, 873.0754
255.8582, 872.2962
256.3403, 871.8058
256.8224, 871.4063
257.3046, 871.9845
257.7867, 873.9783
258.2688, 876.6345
258.7509, 878.4856
259.2330, 879.2731
259.7151, 879.7112
260.1973, 880.0018
260.6794, 880.0751
261.1615, 880.2646
261.6436, 880.5681
262.1257, 880.9964
262.6078, 881.5619
263.0900, 882.2509
263.5721, 883.1583
264.0542, 884.4266
264.5363, 886.2064
265.0184, 887.4786
265.5005, 887.9713
265.9827, 888.3366
266.4648, 889.6944
266.9469, 892.5156
267.4290, 894.9435
267.9111, 896.3221
268.3932, 896.5647
268.8754, 896.8835
269.3575, 897.1559
269.8396, 897.6504
270.3217, 898.7365
270.8038, 900.4814
271.2859, 902.4644
271.7681, 904.6144
272.2502, 906.9020
272.7323, 909.1501
273.2144, 911.4526
273.6965, 913.4307
274.1786, 914.5017
274.6608, 914.4766
275.1429, 914.6647
275.6250, 915.5491
276.1071, 916.9698
276.5892, 917.4841
277.0714, 916.7256
277.5535, 916.0910
278.0356, 917.3293
278.5177, 920.7220
278.9998, 922.9113
279.4819, 922.7744
279.9641, 920.9951
280.4462, 920.7419
280.9283, 922.3205
281.4104, 924.0950
281.8925, 924.7589
282.3746, 924.3066
282.8568, 923.4617
283.3389, 922.0156
283.8210, 920.5430
284.3031, 921.0286
284.7852, 923.7311
285.2673, 926.4242
285.7495, 927.3411
286.2316, 926.6482
286.7137, 926.3535
287.1958, 926.7988
287.6779, 927.6568
288.1600, 928.1407
288.6422, 928.2367
289.1243, 928.6204
289.6064, 929.9061
290.0885, 931.8965
290.5706, 933.5463
291.0527, 934.6922
291.5349, 935.5712
292.0170, 936.5156
292.4991, 937.5018
292.9812, 938.5204
293.4633, 939.5847
293.9454, 940.6650
294.4276, 941.5099
294.9097, 941.9788
295.3918, 942.7555
295.8739, 945.5974
296.3560, 949.8684
296.8381, 952.6707
297.3203, 951.5189
297.8024, 948.1415
298.2845, 945.7817
298.7666, 944.4763
299.2487, 944.4404
299.7308, 947.1292
300.2130, 951.4543
300.6951, 954.2343
301.1772, 953.2728
301.6593, 950.5013
302.1414, 948.3928
302.6235, 946.9598
303.1057, 946.1267
303.5878, 946.0977
304.0699, 946.6127
304.5520, 947.2170
305.0341, 947.9417
305.5162, 948.5314
305.9984, 948.8045
306.4805, 948.7452
306.9626, 948.2509
307.4447, 946.6319
307.9268, 944.7269
308.4089, 943.7603
308.8911, 944.6494
309.3732, 945.6252
309.8553, 944.9596
310.3374, 943.1121
310.8195, 941.6176
311.3016, 942.1316
311.7838, 942.9968
312.2659, 942.4887
312.7480, 939.5469
313.2301, 936.9522
313.7122, 936.8014
314.1943, 938.1843
314.6765, 939.1951
315.1586, 938.2125
315.6407, 937.1264
316.1228, 937.3675
316.6049, 939.5187
317.0870, 941.2734
317.5692, 941.0865
318.0513, 939.9975
318.5334, 939.4563
319.0155, 941.0594
319.4976, 942.3461
319.9797, 941.8604
320.4619, 939.3187
320.9440, 937.4213
321.4261, 937.4610
321.9082, 938.3065
322.3903, 938.8890
322.8724, 939.1026
323.3546, 938.8861
323.8367, 937.4833
324.3188, 935.0059
324.8009, 934.3832
325.2830, 937.9930
325.7651, 942.4418
326.2473, 945.5338
326.7294, 945.9938
327.2115, 946.3717
327.6936, 946.8585
328.1757, 947.4591
328.6578, 948.1437
329.1400, 949.0266
329.6221, 949.9366
330.1042, 950.8280
330.5863, 951.8678
331.0684, 952.6143
331.5505, 952.7949
332.0327, 952.7110
332.5148, 953.0145
332.9969, 953.6163
333.4790, 954.6843
333.9611, 956.5522
334.4432, 959.7783
334.9254, 961.2961
335.4075, 960.2577
335.8896, 958.1602
336.3717, 957.0514
336.8538, 957.1864
337.3359, 957.7109
337.8180, 958.5721
338.3001, 959.7590
338.7823, 960.3575
339.2644, 960.1805
339.7465, 959.8211
340.2286, 960.1140
340.7107, 961.3596
341.1928, 961.4916
341.6750, 959.7982
342.1571, 956.8266
342.6392, 954.7721
343.1213, 953.7269
343.6034, 953.0598
344.0855, 952.5242
344.5677, 952.1032
345.0498, 951.0145
345.5319, 948.9311
346.0140, 946.5421
346.4961, 945.2766
346.9782, 945.0984
347.4604, 945.0221
347.9425, 944.1094
348.4246, 942.7877
348.9067, 942.9926
349.3888, 945.1031
349.8709, 947.3592
350.3531, 947.2556
350.8352, 945.3682
351.3173, 943.8447
351.7994, 944.0551
352.2815, 945.0375
352.7636, 945.1319
353.2458, 944.3281
353.7279, 943.3217
354.2100, 942.5515
354.6921, 941.9881
355.1742, 941.6203
355.6563, 941.6865
356.1385, 941.6649
356.6206, 940.6774
357.1027, 938.9837
357.5848, 937.9111
358.0669, 939.3662
358.5490, 941.2551
359.0312, 941.3816
359.5133, 938.5593
359.9954, 935.6915
360.4775, 934.3174
360.9596, 934.1271
361.4417, 934.4655
361.9239, 935.7999
362.4060, 937.0417
362.8881, 937.5342
363.3702, 937.0986
363.8523, 936.5393
364.3344, 935.9959
364.8166, 935.5112
365.2987, 935.1310
365.7808, 934.6790
366.2629, 934.5338
366.7450, 934.9986
367.2271, 936.0645
367.7093, 936.7720
368.1914, 937.1498
368.6735, 937.0336
369.1556, 936.2917
369.6377, 933.5150
370.1198, 931.8863
370.6020, 931.9000
371.0841, 933.1869
371.5662, 934.4899
372.0483, 936.1796
372.5304, 937.3939
373.0125, 937.5917
373.4947, 936.0601
373.9768, 935.6729
374.4589, 937.2175
374.9410, 939.2709
375.4231, 939.2169
375.9052, 935.9935
376.3874, 933.7009
376.8695, 933.7750
377.3516, 936.1819
377.8337, 938.6862
378.3158, 941.5607
378.7979, 943.9520
379.2801, 944.7453
379.7622, 943.8776
380.2443, 943.0629
380.7264, 942.4051
381.2085, 942.1949
381.6906, 943.5430
382.1728, 946.4637
382.6549, 949.3857
383.1370, 951.0836
383.6191, 951.8322
384.1012, 952.5657
384.5833, 953.2673
385.0655, 954.3027
385.5476, 956.4280
386.0297, 959.3773
386.5118, 962.1046
386.9939, 964.0794
387.4760, 965.5738
387.9582, 967.0293
388.4403, 968.4776
388.9224, 969.6569
389.4045, 970.2003
389.8866, 970.3934
390.3687, 970.6393
390.8509, 971.1494
391.3330, 971.6940
391.8151, 972.3310
392.2972, 972.9462
392.7793, 973.0685
393.2614, 972.3408
393.7436, 971.1164
394.2257, 969.3800
394.7078, 966.4657
395.1899, 964.7021
395.6720, 965.9412
396.1541, 968.6593
396.6363, 970.4130
397.1184, 970.1793
397.6005, 969.2757
398.0826, 968.0029
398.5647, 966.3365
399.0468, 964.6721
399.5290, 962.5782
400.0111, 960.7662
400.4932, 959.8303
400.9753, 961.0217
401.4574, 961.3759
401.9395, 959.9733
402.4217, 957.3988
402.9038, 956.6098
403.3859, 958.9461
403.8680, 961.1100
404.3501, 961.3278
404.8322, 958.8251
405.3144, 957.0679
405.7965, 956.1451
406.2786, 955.8791
406.7607, 956.2266
407.2428, 957.3785
407.7249, 958.0754
408.2071, 957.7898
408.6892, 956.6654
409.1713, 955.4630
409.6534, 954.0997
410.1355, 953.0968
410.6176, 953.3151
411.0998, 954.4733
411.5819, 954.9092
412.0640, 954.1932
412.5461, 952.7823
413.0282, 950.9574
413.5103, 948.8901
413.9925, 947.5424
414.4746, 948.1406
414.9567, 949.5823
415.4388, 950.2094
415.9209, 949.8813
416.4030, 948.9003
416.8852, 947.1209
417.3673, 944.9266
417.8494, 942.9366
418.3315, 941.1252
418.8136, 939.8143
419.2957, 939.4717
419.7779, 939.9617
420.2600, 940.3200
420.7421, 940.4200
421.2242, 940.0496
421.7063, 938.9642
422.1884, 936.5480
422.6706, 934.5073
423.1527, 933.4512
423.6348, 933.0186
424.1169, 932.5148
424.5990, 931.6047
425.0811, 930.8113
425.5633, 930.4016
426.0454, 930.4792
426.5275, 930.0535
427.0096, 928.0201
427.4917, 926.3215
427.9738, 926.8221
428.4560, 931.3815
428.9381, 934.1495
429.4202, 934.0250
429.9023, 931.7314
430.3844, 929.5098
430.8665, 927.1547
431.3487, 925.5012
431.8308, 925.2267
432.3129, 926.4186
432.7950, 927.2562
433.2771, 927.6980
433.7592, 927.8669
434.2414, 927.8608
434.7235, 927.7001
435.2056, 927.5370
435.6877, 927.3486
436.1698, 927.2528
436.6519, 927.6045
437.1341, 928.3854
437.6162, 929.1454
438.0983, 929.3420
438.5804, 929.3538
439.0625, 929.9530
439.5446, 931.4554
440.0268, 932.9206
440.5089, 933.3671
440.9910, 933.1599
441.4731, 933.0416
441.9552, 933.5898
442.4373, 934.1322
442.9195, 933.9305
443.4016, 933.0017
443.8837, 932.7828
444.3658, 934.5292
444.8479, 936.8369
445.3300, 938.6016
445.8122, 939.6954
446.2943, 940.1141
446.7764, 939.2006
447.2585, 937.5822
447.7406, 936.8763
448.2227, 938.2181
448.7049, 939.4641
449.1870, 939.9003
449.6691, 939.3095
450.1512, 939.3038
450.6333, 940.3448
451.1154, 941.4947
451.5976, 941.7806
452.0797, 940.8944
452.5618, 940.2524
453.0439, 940.1825
453.5260, 940.4630
454.0081, 940.2256
454.4903, 939.3408
454.9724, 938.8209
455.4545, 939.5446
455.9366, 941.2688
456.4187, 942.1911
456.9008, 942.1285
457.3830, 941.8744
457.8651, 942.1758
458.3472, 943.0038
458.8293, 944.3557
459.3114, 946.7312
459.7935, 949.0925
460.2757, 950.1742
460.7578, 950.0739
461.2399, 949.3777
461.7220, 947.6521
462.2041, 945.9352
462.6862, 945.4420
463.1684, 946.6486
463.6505, 947.7404
464.1326, 947.8176
464.6147, 947.2395
465.0968, 946.4611
465.5789, 945.3915
466.0611, 944.4193
466.5432, 943.6853
467.0253, 943.1898
467.5074, 942.7562
467.9895, 942.2620
468.4716, 941.9271
468.9538, 941.9531
469.4359, 942.9591
469.9180, 942.8546
470.4001, 940.7045
470.8822, 938.0665
471.3643, 937.4514
471.8465, 939.5918
472.3286, 941.6096
472.8107, 942.8568
473.2928, 943.3602
473.7749, 943.2260
474.2570, 942.3398
474.7392, 941.3828
475.2213, 940.8479
475.7034, 940.6934
476.1855, 940.6833
476.6676, 940.8452
477.1497, 940.9972
477.6319, 940.8317
478.1140, 940.4467
478.5961, 940.1433
479.0782, 939.9544
479.5603, 939.9841
480.0424, 940.2238
480.5246, 940.7187
481.0067, 941.8135
481.4888, 944.7255
481.9709, 947.7678
482.4530, 949.3048
482.9352, 948.4786
483.4173, 947.4744
483.8994, 946.9115
484.3815, 946.7501
484.8636, 946.9387
485.3457, 947.9669
485.8279, 948.8151
486.3100, 948.9876
486.7921, 948.4928
487.2742, 948.6857
487.7563, 950.1838
488.2384, 951.7765
488.7206, 952.7783
489.2027, 952.9799
489.6848, 953.1574
490.1669, 953.2082
490.6490, 953.3807
491.1311, 954.2662
491.6133, 956.0276
492.0954, 957.3044
492.5775, 957.5113
493.0596, 956.9462
493.5417, 956.4450
494.0238, 955.9821
494.5060, 956.3370
494.9881, 959.0889
495.4702, 963.0256
495.9523, 964.9360
496.4344, 964.0646
496.9165, 962.5911
497.3987, 962.7084
497.8808, 963.7774
498.3629, 964.5969
498.8450, 964.4243
499.3271, 964.0578
499.8092, 963.9367
500.2914, 964.0616
500.7735, 964.3818
501.2556, 965.0101
501.7377, 965.7587
502.2198, 966.5341
502.7019, 967.3616
503.1841, 968.1841
503.6662, 969.0806
504.1483, 969.9510
504.6304, 970.6959
505.1125, 971.5873
505.5946, 971.8622
506.0768, 971.0516
506.5589, 969.4892
507.0410, 968.8414
507.5231, 969.1844
508.0052, 970.1895
508.4873, 972.1044
508.9695, 974.9141
509.4516, 976.3802
509.9337, 976.2809
510.4158, 975.6667
510.8979, 975.4362
511.3800, 975.6437
511.8622, 976.6838
512.3443, 979.1018
512.8264, 981.7473
513.3085, 982.7533
513.7906, 982.5932
514.2728, 982.9578
514.7549, 985.9852
515.2370, 989.1914
515.7191, 989.8906
516.2012, 987.7371
516.6833, 986.4666
517.1655, 988.5779
517.6476, 991.9337
518.1297, 994.7088
518.6118, 996.0671
519.0939, 997.4075
519.5760, 999.0140
520.0582, 1000.736
520.5403, 1002.226
521.0224, 1002.947
521.5045, 1004.161
521.9866, 1006.332
522.4688, 1009.462
522.9509, 1012.379
523.4330, 1015.087
523.9151, 1017.581
524.3972, 1019.784
524.8793, 1021.669
525.3615, 1023.675
525.8436, 1025.883
526.3257, 1028.113
526.8078, 1030.114
527.2899, 1031.892
527.7720, 1033.474
528.2542, 1035.063
528.7363, 1036.284
529.2184, 1036.526
529.7005, 1035.890
530.1826, 1034.945
530.6647, 1033.540
531.1469, 1032.292
531.6290, 1031.851
532.1111, 1032.499
532.5932, 1033.077
533.0753, 1033.387
533.5574, 1033.311
534.0396, 1032.723
534.5217, 1030.001
535.0038, 1028.679
535.4859, 1030.212
535.9680, 1033.556
536.4501, 1035.338
536.9323, 1034.599
537.4144, 1033.917
537.8965, 1034.180
538.3786, 1035.392
538.8607, 1037.155
539.3428, 1039.723
539.8250, 1041.969
540.3071, 1042.182
540.7892, 1040.685
541.2713, 1040.929
541.7534, 1043.781
542.2355, 1047.533
542.7177, 1049.902
543.1998, 1051.207
543.6819, 1052.396
544.1640, 1053.631
544.6461, 1055.128
545.1282, 1057.232
545.6104, 1059.860
546.0925, 1062.530
546.5746, 1065.219
547.0567, 1067.704
547.5388, 1069.495
548.0209, 1069.798
548.5031, 1071.924
548.9852, 1078.619
549.4673, 1086.502
549.9494, 1091.945
550.4315, 1092.778
550.9136, 1094.458
551.3958, 1097.746
551.8779, 1102.189
552.3600, 1106.390
552.8421, 1110.289
553.3242, 1114.205
553.8063, 1118.203
554.2885, 1122.313
554.7706, 1126.804
555.2527, 1131.700
555.7348, 1136.777
556.2169, 1141.975
556.6990, 1147.187
557.1812, 1152.221
557.6633, 1157.006
558.1454, 1161.805
558.6275, 1167.561
559.1096, 1173.401
559.5917, 1177.906
560.0739, 1178.843
560.5560, 1179.815
561.0381, 1183.190
561.5202, 1188.295
562.0023, 1192.256
562.4844, 1193.123
562.9666, 1193.727
563.4487, 1195.458
563.9308, 1198.717
564.4129, 1201.122
564.8950, 1202.313
565.3771, 1203.021
565.8593, 1203.772
566.3414, 1204.496
566.8235, 1205.633
567.3056, 1207.443
567.7877, 1209.365
568.2698, 1210.599
568.7520, 1211.139
569.2341, 1210.666
569.7162, 1209.114
570.1983, 1206.469
570.6804, 1202.542
571.1625, 1197.411
571.6447, 1191.448
572.1268, 1184.778
572.6089, 1177.475
573.0910, 1169.743
573.5731, 1161.564
574.0552, 1152.793
574.5374, 1142.696
575.0195, 1132.197
575.5016, 1122.113
575.9837, 1112.389
576.4658, 1103.358
576.9479, 1095.351
577.4301, 1087.873
577.9122, 1079.791
578.3943, 1070.152
578.8764, 1061.587
579.3585, 1054.907
579.8406, 1049.907
580.3228, 1045.354
580.8049, 1041.308
581.2870, 1037.341
581.7691, 1033.012
582.2512, 1028.495
582.7333, 1024.424
583.2155, 1020.856
583.6975, 1017.582
584.1796, 1014.455
584.6617, 1011.422
585.1439, 1008.295
585.6260, 1004.698
586.1081, 1001.620
586.5902, 999.8067
587.0723, 998.9271
587.5544, 998.3619
588.0366, 997.9783
588.5187, 997.7891
589.0008, 997.7690
589.4829, 997.9116
589.9650, 998.2850
590.4471, 999.0648
590.9293, 999.7885
591.4114, 1000.125
591.8935, 999.9337
592.3756, 1000.305
592.8577, 1001.335
593.3398, 1002.659
593.8220, 1004.014
594.3041, 1005.384
594.7862, 1006.529
595.2683, 1007.297
595.7504, 1008.163
596.2325, 1010.254
596.7147, 1013.005
597.1968, 1014.891
597.6789, 1014.129
598.1610, 1013.238
598.6431, 1014.292
599.1252, 1016.911
599.6074, 1019.258
600.0895, 1020.692
600.5716, 1021.703
601.0537, 1022.310
601.5358, 1022.252
602.0179, 1023.127
602.5001, 1025.687
602.9822, 1028.456
603.4643, 1030.267
603.9464, 1030.804
604.4285, 1031.785
604.9106, 1033.551
605.3928, 1035.373
605.8749, 1035.945
606.3570, 1035.373
606.8391, 1035.017
607.3212, 1035.186
607.8033, 1035.909
608.2855, 1037.754
608.7676, 1040.320
609.2497, 1042.227
609.7318, 1042.246
610.2139, 1041.601
610.6960, 1041.180
611.1782, 1041.017
611.6603, 1040.774
612.1424, 1040.284
612.6245, 1039.708
613.1066, 1039.217
613.5887, 1039.170
614.0709, 1038.364
614.5530, 1036.297
615.0351, 1033.940
615.5172, 1032.385
615.9993, 1031.889
616.4814, 1030.967
616.9636, 1029.296
617.4457, 1027.272
617.9278, 1025.443
618.4099, 1023.837
618.8920, 1022.801
619.3741, 1022.782
619.8563, 1023.149
620.3384, 1022.957
620.8205, 1022.292
621.3026, 1021.627
621.7847, 1021.220
622.2668, 1020.919
622.7490, 1020.654
623.2311, 1020.427
623.7132, 1020.145
624.1953, 1019.659
624.6774, 1019.226
625.1595, 1019.075
625.6417, 1019.729
626.1238, 1019.662
626.6059, 1018.602
627.0880, 1017.163
627.5701, 1016.169
628.0522, 1015.675
628.5344, 1015.156
629.0165, 1014.462
629.4986, 1013.739
629.9807, 1013.326
630.4628, 1013.160
630.9449, 1012.944
631.4271, 1012.717
631.9092, 1012.219
632.3913, 1010.849
632.8734, 1008.771
633.3555, 1007.122
633.8376, 1007.326
634.3198, 1007.425
634.8019, 1005.815
635.2840, 1001.719
635.7661, 999.2170
636.2482, 999.7423
636.7303, 1001.113
637.2125, 1001.990
637.6946, 1002.502
638.1767, 1002.068
638.6588, 1000.436
639.1409, 998.2858
639.6230, 996.6512
640.1052, 995.4877
640.5873, 994.0161
641.0694, 991.8111
641.5515, 989.6456
642.0336, 989.0688
642.5157, 989.5751
642.9979, 989.6722
643.4800, 987.6495
643.9621, 985.7617
644.4442, 986.0198
644.9263, 988.0391
645.4084, 989.4631
645.8906, 989.3713
646.3727, 988.6522
646.8548, 987.4886
647.3369, 985.7586
647.8190, 984.7605
648.3011, 984.8775
648.7833, 985.1692
649.2654, 984.7353
649.7475, 983.4356
650.2296, 983.3521
650.7117, 984.8536
651.1938, 986.5831
651.6760, 986.2696
652.1581, 984.7299
652.6402, 984.7076
653.1223, 987.6122
653.6044, 990.7577
654.0865, 991.5049
654.5687, 990.8021
655.0508, 990.4905
655.5329, 992.1154
656.0150, 993.3664
656.4971, 992.9986
656.9792, 991.3853
657.4614, 990.5486
657.9435, 990.9403
658.4256, 991.5817
658.9077, 992.1512
659.3898, 992.6602
659.8719, 993.5194
660.3541, 994.8231
660.8362, 996.0212
661.3183, 996.5183
661.8004, 996.5643
662.2825, 997.1672
662.7646, 998.3917
663.2468, 1000.036
663.7289, 1002.465
664.2110, 1005.004
664.6931, 1006.707
665.1752, 1007.131
665.6573, 1007.381
666.1395, 1007.890
666.6216, 1008.536
667.1037, 1009.164
667.5858, 1009.428
668.0679, 1010.123
668.5500, 1011.388
669.0322, 1013.081
669.5143, 1014.926
669.9964, 1016.995
670.4785, 1018.861
670.9606, 1020.251
671.4427, 1021.446
671.9249, 1023.160
672.4070, 1025.372
672.8891, 1027.906
673.3712, 1031.144
673.8533, 1034.342
674.3354, 1036.465
674.8176, 1037.584
675.2997, 1038.573
675.7818, 1039.701
676.2639, 1040.957
676.7460, 1042.356
677.2281, 1043.903
677.7103, 1045.498
678.1924, 1047.096
678.6745, 1048.778
679.1566, 1050.611
679.6387, 1052.604
680.1208, 1054.757
680.6030, 1057.122
681.0851, 1059.556
681.5672, 1061.857
682.0493, 1064.088
682.5314, 1066.702
683.0135, 1069.917
683.4957, 1073.198
683.9778, 1076.079
684.4599, 1078.589
684.9420, 1080.683
685.4241, 1082.008
685.9063, 1083.337
686.3884, 1085.115
686.8705, 1087.166
687.3526, 1088.811
687.8347, 1088.943
688.3168, 1090.350
688.7990, 1094.379
689.2811, 1100.460
689.7632, 1104.322
690.2453, 1105.769
690.7274, 1106.373
