##NAMES=Ferrimolybdite
##RRUFFID=R050566
##IDEAL CHEMISTRY=Fe^3+^_2_(Mo^6+^O_4_)_3_&#183;7H_2_O
##LOCALITY=Kingman, Arizona, USA
##OWNER=RRUFF
##SOURCE=University of Arizona Mineral Museum
##DESCRIPTION=Yellow fibrous aggregate
##STATUS=The identification of this mineral has been confirmed only by chemical analysis
##URL=rruff.info/R050566
##MEASURED CHEMISTRY=Wavelength dispersive spectroscopy (WDS) scanning shows Mo and Fe only.
91.11523, 40.45047
91.59735, 45.12272
92.07947, 39.86535
92.56158, 28.21305
93.04370, 21.32885
93.52582, 33.74510
94.00793, 54.89490
94.49006, 59.09234
94.97218, 39.65540
95.45429, 11.96484
95.93641, -1.406838
96.41853, -0.6338264
96.90064, 7.125623
97.38276, 21.56229
97.86488, 41.42399
98.34699, 52.39787
98.82911, 49.83381
99.31123, 38.04205
99.79334, 31.41621
100.2755, 31.04577
100.7576, 32.26651
101.2397, 30.36524
101.7218, 24.16912
102.2039, 20.35330
102.6861, 20.24767
103.1682, 23.84695
103.6503, 30.81451
104.1324, 44.44613
104.6145, 57.88094
105.0966, 62.24252
105.5788, 51.87582
106.0609, 42.10542
106.5430, 36.87736
107.0251, 37.16906
107.5072, 38.29582
107.9893, 38.98166
108.4715, 40.83509
108.9536, 46.86362
109.4357, 67.99712
109.9178, 83.56300
110.3999, 85.97762
110.8820, 61.02361
111.3642, 46.29379
111.8463, 48.13619
112.3284, 61.71040
112.8105, 73.47250
113.2926, 82.73271
113.7747, 89.24561
114.2569, 92.70751
114.7390, 88.57088
115.2211, 86.62120
115.7032, 89.49308
116.1853, 96.62096
116.6674, 105.0947
117.1496, 116.6863
117.6317, 128.0740
118.1138, 136.4382
118.5959, 136.0390
119.0780, 136.6829
119.5602, 143.2739
120.0423, 155.7021
120.5244, 170.0333
121.0065, 183.2394
121.4886, 197.2112
121.9707, 214.5217
122.4529, 238.6078
122.9350, 264.8536
123.4171, 290.0031
123.8992, 313.9882
124.3813, 335.9411
124.8634, 352.8274
125.3456, 366.9313
125.8277, 383.5157
126.3098, 408.6335
126.7919, 436.6854
127.2740, 458.4764
127.7561, 472.2912
128.2383, 483.8175
128.7204, 499.4674
129.2025, 518.7350
129.6846, 538.9635
130.1667, 556.8695
130.6488, 574.0978
131.1310, 597.2425
131.6131, 627.9186
132.0952, 663.2462
132.5773, 699.1615
133.0594, 735.8417
133.5415, 771.5037
134.0237, 804.5421
134.5058, 835.3256
134.9879, 867.5533
135.4700, 903.3636
135.9521, 940.2928
136.4343, 970.2734
136.9164, 991.7678
137.3985, 1012.998
137.8806, 1042.724
138.3627, 1082.980
138.8448, 1119.105
139.3270, 1148.162
139.8091, 1170.952
140.2912, 1194.295
140.7733, 1219.712
141.2554, 1243.389
141.7375, 1260.061
142.2197, 1266.546
142.7018, 1274.880
143.1839, 1287.199
143.6660, 1303.362
144.1481, 1324.846
144.6302, 1353.735
145.1124, 1386.043
145.5945, 1416.342
146.0766, 1444.179
146.5587, 1471.230
147.0408, 1498.093
147.5230, 1525.020
148.0051, 1549.972
148.4872, 1564.608
148.9693, 1568.477
149.4514, 1573.896
149.9335, 1581.047
150.4157, 1589.615
150.8978, 1599.260
151.3799, 1609.682
151.8620, 1622.181
152.3441, 1641.376
152.8262, 1662.384
153.3084, 1675.469
153.7905, 1674.895
154.2726, 1671.069
154.7547, 1666.955
155.2368, 1658.477
155.7189, 1656.953
156.2011, 1669.151
156.6832, 1689.501
157.1653, 1704.010
157.6474, 1707.460
158.1295, 1706.311
158.6116, 1703.333
159.0938, 1694.252
159.5759, 1689.877
160.0580, 1697.270
160.5401, 1712.555
161.0222, 1722.529
161.5044, 1714.579
161.9865, 1704.629
162.4686, 1703.712
162.9507, 1722.225
163.4328, 1741.358
163.9149, 1755.878
164.3971, 1765.758
164.8792, 1769.818
165.3613, 1759.677
165.8434, 1746.941
166.3255, 1742.280
166.8076, 1757.396
167.2898, 1774.147
167.7719, 1781.989
168.2540, 1781.773
168.7361, 1780.636
169.2182, 1778.593
169.7003, 1779.166
170.1825, 1786.578
170.6646, 1813.635
171.1467, 1840.485
171.6288, 1848.672
172.1109, 1838.753
172.5931, 1827.799
173.0752, 1828.968
173.5573, 1837.084
174.0394, 1843.814
174.5215, 1845.502
175.0036, 1844.227
175.4858, 1840.636
175.9679, 1834.591
176.4500, 1830.864
176.9321, 1837.047
177.4142, 1848.837
177.8963, 1856.314
178.3785, 1852.166
178.8606, 1842.196
179.3427, 1835.119
179.8248, 1831.090
180.3069, 1828.957
180.7890, 1828.966
181.2712, 1830.262
181.7533, 1830.079
182.2354, 1825.643
182.7175, 1819.005
183.1996, 1814.884
183.6818, 1813.612
184.1639, 1813.433
184.6460, 1811.899
185.1281, 1809.407
185.6102, 1808.000
186.0923, 1810.315
186.5745, 1814.689
187.0566, 1814.636
187.5387, 1808.789
188.0208, 1802.605
188.5029, 1804.447
188.9850, 1813.727
189.4672, 1823.184
189.9493, 1829.950
190.4314, 1834.067
190.9135, 1834.885
191.3956, 1831.140
191.8777, 1827.245
192.3599, 1830.892
192.8420, 1842.105
193.3241, 1854.246
193.8062, 1863.857
194.2883, 1871.220
194.7704, 1878.682
195.2526, 1886.320
195.7347, 1894.075
196.2168, 1902.236
196.6989, 1910.891
197.1810, 1918.483
197.6632, 1922.210
198.1453, 1922.104
198.6274, 1929.070
199.1095, 1945.915
199.5916, 1966.988
200.0737, 1979.873
200.5559, 1983.681
201.0380, 1985.754
201.5201, 1989.056
202.0022, 1993.490
202.4843, 2001.817
202.9664, 2015.213
203.4486, 2031.608
203.9307, 2046.123
204.4128, 2058.159
204.8949, 2070.323
205.3770, 2084.222
205.8591, 2100.167
206.3413, 2115.476
206.8234, 2129.666
207.3055, 2143.339
207.7876, 2158.092
208.2697, 2173.898
208.7519, 2190.389
209.2340, 2207.335
209.7161, 2224.533
210.1982, 2243.289
210.6803, 2264.532
211.1624, 2286.870
211.6446, 2306.089
212.1267, 2320.785
212.6088, 2335.521
213.0909, 2352.778
213.5730, 2372.970
214.0551, 2394.406
214.5373, 2417.664
215.0194, 2441.856
215.5015, 2464.833
215.9836, 2486.036
216.4657, 2507.463
216.9478, 2530.504
217.4300, 2555.382
217.9121, 2581.333
218.3942, 2608.550
218.8763, 2636.480
219.3584, 2663.111
219.8405, 2687.348
220.3227, 2711.808
220.8048, 2737.935
221.2869, 2766.878
221.7690, 2794.521
222.2511, 2820.107
222.7333, 2844.392
223.2154, 2868.675
223.6975, 2893.111
224.1796, 2917.820
224.6617, 2943.090
225.1438, 2969.411
225.6260, 2995.150
226.1081, 3020.613
226.5902, 3045.433
227.0723, 3067.484
227.5544, 3085.992
228.0365, 3103.467
228.5187, 3121.292
229.0008, 3140.495
229.4829, 3157.635
229.9650, 3173.795
230.4471, 3187.554
230.9292, 3194.609
231.4114, 3190.435
231.8935, 3186.376
232.3756, 3188.628
232.8577, 3204.163
233.3398, 3209.524
233.8220, 3204.597
234.3041, 3189.501
234.7862, 3163.503
235.2683, 3120.367
235.7504, 3076.216
236.2325, 3037.149
236.7147, 3005.665
237.1968, 2974.769
237.6789, 2944.680
238.1610, 2915.251
238.6431, 2886.305
239.1252, 2858.149
239.6074, 2829.709
240.0895, 2801.312
240.5716, 2775.951
241.0537, 2741.982
241.5358, 2693.011
242.0179, 2638.469
242.5001, 2597.803
242.9822, 2578.962
243.4643, 2560.929
243.9464, 2535.932
244.4285, 2501.047
244.9106, 2468.265
245.3928, 2438.116
245.8749, 2409.402
246.3570, 2380.152
246.8391, 2350.326
247.3212, 2319.943
247.8034, 2288.906
248.2855, 2256.895
248.7676, 2225.273
249.2497, 2194.296
249.7318, 2163.362
250.2139, 2130.886
250.6961, 2093.630
251.1782, 2060.862
251.6603, 2036.200
252.1424, 2021.387
252.6245, 2003.914
253.1066, 1982.380
253.5888, 1959.362
254.0709, 1937.043
254.5530, 1912.764
255.0351, 1894.773
255.5172, 1887.612
255.9993, 1892.848
256.4815, 1891.709
256.9636, 1883.906
257.4457, 1870.057
257.9278, 1849.030
258.4099, 1815.217
258.8921, 1787.057
259.3742, 1769.779
259.8563, 1763.701
260.3384, 1756.593
260.8205, 1748.526
261.3026, 1739.445
261.7848, 1728.513
262.2669, 1714.157
262.7490, 1702.852
263.2311, 1697.626
263.7132, 1697.783
264.1953, 1691.517
264.6775, 1675.641
265.1596, 1658.551
265.6417, 1647.564
266.1238, 1643.769
266.6059, 1642.517
267.0880, 1643.852
267.5702, 1647.285
268.0523, 1649.417
268.5344, 1650.162
269.0165, 1649.820
269.4986, 1648.281
269.9807, 1645.068
270.4629, 1642.762
270.9450, 1641.914
271.4271, 1642.157
271.9092, 1642.471
272.3913, 1643.402
272.8734, 1642.832
273.3556, 1638.856
273.8377, 1630.932
274.3198, 1623.089
274.8019, 1615.131
275.2840, 1607.798
275.7661, 1603.799
276.2483, 1604.064
276.7304, 1603.799
277.2125, 1600.048
277.6946, 1592.604
278.1768, 1584.103
278.6589, 1573.419
279.1410, 1563.482
279.6231, 1562.210
280.1052, 1571.140
280.5873, 1578.329
281.0695, 1575.795
281.5516, 1563.721
282.0337, 1556.912
282.5158, 1557.081
282.9979, 1559.707
283.4800, 1557.174
283.9622, 1549.231
284.4443, 1541.172
284.9264, 1534.606
285.4085, 1529.667
285.8906, 1528.015
286.3727, 1530.412
286.8549, 1533.274
287.3370, 1530.834
287.8191, 1523.413
288.3012, 1517.964
288.7833, 1518.475
289.2654, 1522.939
289.7476, 1523.610
290.2297, 1520.150
290.7118, 1515.630
291.1939, 1512.555
291.6760, 1511.019
292.1581, 1511.667
292.6403, 1516.377
293.1224, 1522.496
293.6045, 1522.399
294.0866, 1516.043
294.5687, 1510.596
295.0508, 1514.250
295.5330, 1524.335
296.0151, 1531.408
296.4972, 1532.598
296.9793, 1530.592
297.4614, 1528.790
297.9435, 1527.336
298.4257, 1527.745
298.9078, 1532.516
299.3899, 1539.858
299.8720, 1545.951
300.3541, 1550.313
300.8362, 1552.936
301.3184, 1553.048
301.8005, 1551.152
302.2826, 1549.300
302.7647, 1547.228
303.2469, 1546.419
303.7290, 1549.945
304.2111, 1559.104
304.6932, 1568.656
305.1753, 1572.898
305.6574, 1573.438
306.1396, 1573.904
306.6217, 1576.460
307.1038, 1579.677
307.5859, 1581.510
308.0680, 1581.604
308.5501, 1582.904
309.0323, 1589.132
309.5144, 1597.810
309.9965, 1604.965
310.4786, 1605.460
310.9607, 1606.417
311.4428, 1615.390
311.9250, 1632.061
312.4071, 1645.829
312.8892, 1646.430
313.3713, 1642.104
313.8534, 1641.510
314.3355, 1650.463
314.8177, 1661.176
315.2998, 1669.914
315.7819, 1676.992
316.2640, 1684.360
316.7461, 1692.316
317.2282, 1701.114
317.7104, 1711.578
318.1925, 1728.551
318.6746, 1740.203
319.1567, 1736.672
319.6388, 1724.073
320.1209, 1718.836
320.6031, 1730.684
321.0852, 1747.742
321.5673, 1764.639
322.0494, 1781.658
322.5315, 1796.186
323.0136, 1806.356
323.4958, 1813.953
323.9779, 1821.871
324.4600, 1831.279
324.9421, 1840.551
325.4242, 1848.385
325.9064, 1853.769
326.3885, 1862.318
326.8706, 1878.379
327.3527, 1896.224
327.8348, 1910.017
328.3170, 1915.884
328.7991, 1921.626
329.2812, 1927.400
329.7633, 1933.121
330.2454, 1942.585
330.7275, 1960.877
331.2097, 1978.631
331.6918, 1988.931
332.1739, 1986.506
332.6560, 1985.029
333.1381, 1985.675
333.6202, 1988.173
334.1024, 1991.568
334.5845, 1996.632
335.0666, 2001.351
335.5487, 2005.065
336.0308, 2008.661
336.5129, 2008.266
336.9951, 2002.042
337.4772, 1993.081
337.9593, 1987.977
338.4414, 1988.367
338.9235, 1988.013
339.4056, 1983.643
339.8878, 1974.835
340.3699, 1969.493
340.8520, 1968.859
341.3341, 1969.350
341.8162, 1964.729
342.2983, 1954.147
342.7805, 1948.031
343.2626, 1951.687
343.7447, 1962.583
344.2268, 1966.960
344.7089, 1964.155
345.1910, 1958.682
345.6732, 1954.645
346.1553, 1951.730
346.6374, 1947.621
347.1195, 1940.733
347.6016, 1933.643
348.0837, 1933.547
348.5659, 1939.945
349.0480, 1944.200
349.5301, 1937.996
350.0122, 1925.204
350.4944, 1915.945
350.9765, 1911.909
351.4586, 1910.282
351.9407, 1908.980
352.4228, 1907.586
352.9049, 1904.663
353.3871, 1897.510
353.8692, 1889.259
354.3513, 1884.486
354.8334, 1883.540
355.3155, 1883.013
355.7976, 1879.998
356.2798, 1875.570
356.7619, 1871.440
357.2440, 1868.389
357.7261, 1865.766
358.2082, 1863.356
358.6903, 1861.061
359.1725, 1858.326
359.6546, 1853.849
360.1367, 1849.267
360.6188, 1846.323
361.1009, 1847.353
361.5830, 1847.093
362.0652, 1841.912
362.5473, 1833.668
363.0294, 1826.924
363.5115, 1825.241
363.9936, 1823.903
364.4757, 1820.334
364.9579, 1813.364
365.4400, 1807.068
365.9221, 1802.409
366.4042, 1798.829
366.8863, 1795.616
367.3684, 1795.355
367.8506, 1792.798
368.3327, 1786.081
368.8148, 1774.860
369.2969, 1763.811
369.7790, 1751.668
370.2611, 1740.574
370.7433, 1732.099
371.2254, 1728.299
371.7075, 1723.928
372.1896, 1717.834
372.6717, 1710.751
373.1538, 1706.162
373.6360, 1705.832
374.1181, 1705.083
374.6002, 1700.713
375.0823, 1689.961
375.5645, 1686.361
376.0466, 1693.518
376.5287, 1703.858
377.0108, 1704.031
377.4929, 1692.199
377.9750, 1678.974
378.4572, 1667.032
378.9393, 1656.555
379.4214, 1650.449
379.9035, 1649.438
380.3856, 1650.036
380.8677, 1649.145
381.3499, 1646.823
381.8320, 1643.698
382.3141, 1639.399
382.7962, 1634.883
383.2783, 1632.285
383.7604, 1631.514
384.2426, 1631.054
384.7247, 1629.622
385.2068, 1627.760
385.6889, 1627.643
386.1710, 1630.372
386.6531, 1631.063
387.1353, 1621.267
387.6174, 1604.925
388.0995, 1592.214
388.5816, 1590.601
389.0637, 1593.274
389.5458, 1594.473
390.0280, 1594.016
390.5101, 1590.421
390.9922, 1579.287
391.4743, 1565.868
391.9564, 1555.855
392.4385, 1551.854
392.9207, 1550.666
393.4028, 1552.880
393.8849, 1556.992
394.3670, 1558.462
394.8491, 1554.304
395.3312, 1547.893
395.8134, 1540.541
396.2955, 1531.326
396.7776, 1524.264
397.2597, 1521.011
397.7418, 1520.215
398.2239, 1520.118
398.7061, 1522.448
399.1882, 1523.502
399.6703, 1521.324
400.1524, 1515.659
400.6346, 1513.120
401.1167, 1515.129
401.5988, 1519.051
402.0809, 1523.445
402.5630, 1529.860
403.0451, 1533.421
403.5273, 1532.020
404.0094, 1528.037
404.4915, 1528.627
404.9736, 1535.350
405.4557, 1542.814
405.9378, 1548.304
406.4200, 1551.425
406.9021, 1557.385
407.3842, 1566.728
407.8663, 1577.503
408.3484, 1588.500
408.8305, 1599.845
409.3127, 1606.664
409.7948, 1605.635
410.2769, 1600.373
410.7590, 1599.453
411.2411, 1602.916
411.7232, 1612.295
412.2054, 1634.032
412.6875, 1662.978
413.1696, 1682.635
413.6517, 1688.869
414.1338, 1692.335
414.6159, 1706.329
415.0981, 1727.638
415.5802, 1747.482
416.0623, 1760.275
416.5444, 1769.964
417.0265, 1779.395
417.5086, 1788.766
417.9908, 1799.215
418.4729, 1809.884
418.9550, 1822.564
419.4371, 1839.216
419.9192, 1865.053
420.4013, 1889.519
420.8835, 1907.157
421.3656, 1919.729
421.8477, 1932.861
422.3298, 1948.085
422.8119, 1964.190
423.2940, 1981.368
423.7762, 2000.750
424.2583, 2017.332
424.7404, 2017.661
425.2225, 2034.749
425.7047, 2047.727
426.1868, 2056.750
426.6689, 2053.534
427.1510, 2063.400
427.6331, 2066.359
428.1152, 2067.896
428.5974, 2077.466
429.0795, 2081.303
429.5616, 2080.499
430.0437, 2073.419
430.5258, 2069.127
431.0079, 2069.516
431.4901, 2070.946
431.9722, 2066.353
432.4543, 2055.239
432.9364, 2043.322
433.4185, 2033.072
433.9006, 2023.934
434.3828, 2013.858
434.8649, 2002.882
435.3470, 1990.575
435.8291, 1975.250
436.3112, 1958.070
436.7933, 1943.316
437.2755, 1932.428
437.7576, 1922.854
438.2397, 1911.861
438.7218, 1899.697
439.2039, 1887.127
439.6860, 1874.445
440.1682, 1861.539
440.6503, 1848.320
441.1324, 1834.602
441.6145, 1821.579
442.0966, 1810.844
442.5787, 1800.775
443.0609, 1789.607
443.5430, 1774.596
444.0251, 1760.667
444.5072, 1750.412
444.9893, 1742.824
445.4714, 1734.191
445.9536, 1721.324
446.4357, 1709.134
446.9178, 1700.111
447.3999, 1696.024
447.8820, 1690.750
448.3641, 1683.532
448.8463, 1675.490
449.3284, 1667.839
449.8105, 1661.962
450.2926, 1654.056
450.7747, 1642.419
451.2569, 1627.961
451.7390, 1616.965
452.2211, 1610.359
452.7032, 1604.521
453.1853, 1597.292
453.6674, 1588.489
454.1496, 1579.667
454.6317, 1570.487
455.1138, 1562.048
455.5959, 1557.221
456.0780, 1555.499
456.5602, 1551.728
457.0423, 1543.481
457.5244, 1532.500
458.0065, 1521.034
458.4886, 1509.393
458.9707, 1499.682
459.4529, 1496.067
459.9350, 1494.690
460.4171, 1489.519
460.8992, 1478.796
461.3813, 1467.017
461.8634, 1455.556
462.3456, 1445.637
462.8277, 1439.570
463.3098, 1443.007
463.7919, 1446.269
464.2740, 1443.211
464.7561, 1434.218
465.2383, 1426.974
465.7204, 1428.185
466.2025, 1428.817
466.6846, 1422.780
467.1667, 1401.788
467.6488, 1386.445
468.1310, 1381.887
468.6131, 1382.425
469.0952, 1378.779
469.5773, 1368.441
470.0594, 1357.894
470.5415, 1348.218
471.0237, 1339.494
471.5058, 1332.871
471.9879, 1329.260
472.4700, 1325.725
472.9521, 1319.742
473.4342, 1298.917
473.9164, 1308.014
474.3985, 1310.718
474.8806, 1307.375
475.3627, 1279.549
475.8448, 1283.588
476.3270, 1275.010
476.8091, 1266.019
477.2912, 1274.856
477.7733, 1251.154
478.2554, 1259.929
478.7375, 1255.892
479.2197, 1257.877
479.7018, 1247.168
480.1839, 1240.523
480.6660, 1246.796
481.1481, 1246.086
481.6302, 1234.340
482.1124, 1237.358
482.5945, 1214.302
483.0766, 1214.332
483.5587, 1224.384
484.0408, 1213.828
484.5229, 1217.627
485.0051, 1216.110
485.4872, 1190.046
485.9693, 1206.971
486.4514, 1205.462
486.9335, 1185.021
487.4156, 1200.805
487.8978, 1183.207
488.3799, 1177.673
488.8620, 1181.245
489.3441, 1175.548
489.8262, 1184.746
490.3083, 1170.144
490.7905, 1160.754
491.2726, 1156.783
491.7547, 1159.326
492.2368, 1161.777
492.7189, 1158.076
493.2010, 1149.299
493.6832, 1143.096
494.1653, 1140.119
494.6474, 1139.721
495.1295, 1133.649
495.6116, 1143.955
496.0938, 1149.098
496.5759, 1149.359
497.0580, 1129.828
497.5401, 1136.080
498.0222, 1132.136
498.5044, 1127.868
498.9865, 1138.029
499.4686, 1121.881
499.9507, 1132.011
500.4328, 1131.788
500.9149, 1136.446
501.3971, 1130.845
501.8792, 1128.541
502.3613, 1136.696
502.8434, 1139.212
503.3255, 1132.811
503.8076, 1138.361
504.2898, 1122.832
504.7719, 1125.984
505.2540, 1137.253
505.7361, 1131.863
506.2182, 1138.092
506.7003, 1140.032
507.1825, 1122.127
507.6646, 1139.003
508.1467, 1140.977
508.6288, 1127.649
509.1109, 1143.630
509.5930, 1132.621
510.0752, 1131.379
510.5573, 1137.511
511.0394, 1136.156
511.5215, 1146.859
512.0037, 1141.678
512.4858, 1141.654
512.9679, 1140.222
513.4500, 1136.539
513.9321, 1130.656
514.4142, 1126.598
514.8964, 1128.971
515.3785, 1133.834
515.8606, 1136.934
516.3427, 1136.656
516.8248, 1135.583
517.3069, 1133.224
517.7891, 1130.923
518.2712, 1131.180
518.7533, 1138.557
519.2354, 1144.493
519.7175, 1145.293
520.1996, 1141.108
520.6818, 1140.110
521.1639, 1144.010
521.6460, 1149.005
522.1281, 1152.893
522.6102, 1155.394
523.0923, 1157.948
523.5745, 1160.590
524.0566, 1163.296
524.5387, 1165.845
525.0208, 1168.243
525.5029, 1171.496
525.9850, 1176.560
526.4672, 1182.066
526.9493, 1185.126
527.4314, 1185.887
527.9135, 1185.535
528.3956, 1182.911
528.8777, 1180.452
529.3599, 1181.670
529.8420, 1186.977
530.3241, 1194.184
530.8062, 1203.856
531.2883, 1213.936
531.7704, 1221.891
532.2526, 1226.484
532.7347, 1229.860
533.2168, 1233.609
533.6989, 1236.634
534.1810, 1236.461
534.6631, 1226.728
535.1453, 1219.991
535.6274, 1221.024
536.1095, 1230.141
536.5916, 1235.142
537.0737, 1233.584
537.5558, 1231.776
538.0380, 1235.042
538.5201, 1244.813
539.0022, 1248.994
539.4843, 1245.119
539.9664, 1239.527
540.4485, 1242.603
540.9307, 1253.304
541.4128, 1263.168
541.8949, 1268.871
542.3770, 1272.555
542.8591, 1277.645
543.3412, 1283.862
543.8234, 1290.130
544.3055, 1295.518
544.7876, 1300.774
545.2697, 1306.616
545.7518, 1313.150
546.2339, 1319.693
546.7161, 1326.677
547.1982, 1333.091
547.6803, 1338.188
548.1624, 1341.071
548.6445, 1343.540
549.1266, 1346.632
549.6088, 1349.390
550.0909, 1349.531
550.5730, 1343.645
551.0551, 1340.853
551.5372, 1344.708
552.0193, 1354.325
552.5015, 1360.521
552.9836, 1362.816
553.4657, 1363.432
553.9478, 1362.917
554.4299, 1361.543
554.9120, 1363.113
555.3942, 1368.428
555.8763, 1373.275
556.3584, 1371.228
556.8405, 1364.870
557.3226, 1360.959
557.8047, 1362.497
558.2869, 1365.723
558.7690, 1367.919
559.2511, 1369.084
559.7332, 1369.177
560.2154, 1368.039
560.6975, 1365.969
561.1796, 1362.830
561.6617, 1358.625
562.1439, 1354.635
562.6260, 1350.889
563.1081, 1347.655
563.5902, 1344.895
564.0723, 1341.981
564.5544, 1341.148
565.0366, 1343.809
565.5187, 1347.149
566.0008, 1346.755
566.4829, 1341.672
566.9650, 1338.281
567.4471, 1338.698
567.9293, 1340.899
568.4114, 1338.612
568.8935, 1332.260
569.3756, 1328.103
569.8577, 1332.513
570.3398, 1340.507
570.8220, 1342.557
571.3041, 1338.740
571.7862, 1334.495
572.2683, 1333.224
572.7504, 1333.633
573.2325, 1325.256
573.7147, 1337.144
574.1968, 1343.770
574.6789, 1345.417
575.1610, 1327.173
575.6431, 1334.615
576.1252, 1331.763
576.6074, 1328.488
577.0895, 1339.545
577.5716, 1324.194
578.0537, 1335.023
578.5358, 1335.402
579.0179, 1340.564
579.5001, 1335.368
579.9822, 1333.372
580.4643, 1341.736
580.9464, 1330.696
581.4285, 1343.045
581.9106, 1350.132
582.3928, 1352.241
582.8749, 1334.458
583.3570, 1342.361
583.8391, 1339.970
584.3212, 1337.157
584.8033, 1348.675
585.2855, 1333.785
585.7676, 1345.076
586.2497, 1345.916
586.7318, 1351.539
