##NAMES=Ferrosilite
##RRUFFID=R070387
##IDEAL CHEMISTRY=Fe^2+^_2_Si_2_O_6_
##LOCALITY=Central Gneissic Complex (Khtada Lake), British Columbia, Canada
##OWNER=RRUFF
##SOURCE=Jibamitra Ganguly
##DESCRIPTION=Translucent greenish-yellow grains with vitreous luster, known as Hollister enstatite
##STATUS=The identification of this mineral is confirmed by single-crystal X-ray diffraction and chemical analysis.
##URL=rruff.info/R070387
##MEASURED CHEMISTRY=(Fe_0.48_Mg_0.47_Al_0.02_Ca_0.02_[box]_0.01_)_Î£=1_Si_1.00_O_3_ ; = light phase. There are trace amounts of Mn and Ti. The dark phase = quartz
180.5287, 1926.079
181.0108, 1909.667
181.4929, 1947.764
181.9750, 2008.892
182.4572, 2025.364
182.9393, 1992.871
183.4214, 1950.472
183.9035, 1945.492
184.3856, 1970.206
184.8677, 1988.943
185.3499, 1979.191
185.8320, 1950.160
186.3141, 1927.366
186.7962, 1911.349
187.2783, 1903.024
187.7604, 1907.641
188.2426, 1923.963
188.7247, 1938.598
189.2068, 1943.226
189.6889, 1939.309
190.1710, 1932.890
190.6531, 1922.974
191.1353, 1913.384
191.6174, 1913.877
192.0995, 1924.679
192.5816, 1935.134
193.0637, 1936.039
193.5458, 1928.470
194.0280, 1924.227
194.5101, 1925.550
194.9922, 1931.061
195.4743, 1938.358
195.9564, 1948.198
196.4385, 1955.832
196.9207, 1957.170
197.4028, 1952.236
197.8849, 1944.714
198.3670, 1933.635
198.8491, 1920.677
199.3312, 1912.705
199.8134, 1909.372
200.2955, 1912.114
200.7776, 1925.177
201.2597, 1950.169
201.7418, 1970.715
202.2239, 1979.093
202.7061, 1977.069
203.1882, 1990.954
203.6703, 2026.700
204.1524, 2065.479
204.6345, 2081.046
205.1166, 2068.796
205.5988, 2058.062
206.0809, 2059.083
206.5630, 2072.427
207.0451, 2081.398
207.5272, 2082.144
208.0093, 2083.994
208.4915, 2106.933
208.9736, 2161.115
209.4557, 2201.503
209.9378, 2200.790
210.4199, 2147.107
210.9020, 2134.743
211.3842, 2179.598
211.8663, 2251.167
212.3484, 2287.095
212.8305, 2273.704
213.3126, 2259.209
213.7947, 2267.478
214.2769, 2307.783
214.7590, 2334.685
215.2411, 2342.841
215.7232, 2339.418
216.2053, 2341.910
216.6874, 2350.491
217.1696, 2364.496
217.6517, 2386.766
218.1338, 2425.064
218.6159, 2447.149
219.0980, 2446.447
219.5801, 2429.097
220.0623, 2418.820
220.5444, 2419.234
221.0265, 2420.450
221.5086, 2413.974
221.9907, 2390.362
222.4728, 2385.193
222.9550, 2411.337
223.4371, 2460.074
223.9192, 2482.163
224.4013, 2467.191
224.8834, 2440.209
225.3655, 2417.896
225.8477, 2403.332
226.3298, 2387.002
226.8119, 2368.765
227.2940, 2348.353
227.7761, 2318.984
228.2582, 2271.222
228.7404, 2226.023
229.2225, 2202.868
229.7046, 2216.715
230.1867, 2220.366
230.6688, 2203.833
231.1509, 2167.413
231.6331, 2136.063
232.1152, 2111.234
232.5973, 2089.859
233.0794, 2070.013
233.5615, 2052.570
234.0436, 2034.741
234.5258, 2014.142
235.0079, 1990.468
235.4900, 1976.340
235.9721, 1976.659
236.4542, 1981.961
236.9363, 1983.098
237.4185, 1981.131
237.9006, 1972.826
238.3827, 1953.755
238.8648, 1921.281
239.3469, 1904.771
239.8290, 1913.999
240.3112, 1930.913
240.7933, 1933.196
241.2754, 1911.055
241.7575, 1891.705
242.2396, 1881.485
242.7217, 1881.101
243.2039, 1884.989
243.6860, 1896.739
244.1681, 1910.043
244.6502, 1915.877
245.1323, 1909.080
245.6144, 1903.959
246.0966, 1906.188
246.5787, 1918.971
247.0608, 1920.976
247.5429, 1903.846
248.0250, 1882.178
248.5071, 1877.822
248.9893, 1898.376
249.4714, 1922.788
249.9535, 1948.384
250.4356, 1979.607
250.9177, 1989.270
251.3998, 1964.834
251.8820, 1927.528
252.3641, 1911.872
252.8462, 1931.878
253.3283, 1948.001
253.8104, 1943.771
254.2925, 1909.770
254.7747, 1898.211
255.2568, 1918.956
255.7389, 1955.532
256.2210, 1980.558
256.7031, 1994.367
257.1852, 1996.391
257.6674, 1984.098
258.1495, 1952.834
258.6316, 1925.872
259.1137, 1902.492
259.5958, 1884.127
260.0779, 1875.228
260.5601, 1881.420
261.0422, 1885.348
261.5243, 1878.917
262.0064, 1857.981
262.4885, 1845.117
262.9706, 1844.094
263.4528, 1848.323
263.9349, 1843.275
264.4170, 1821.256
264.8991, 1807.945
265.3812, 1818.697
265.8633, 1862.772
266.3455, 1883.397
266.8276, 1871.009
267.3097, 1843.443
267.7918, 1834.076
268.2739, 1847.370
268.7560, 1866.720
269.2382, 1887.724
269.7203, 1912.299
270.2024, 1926.869
270.6845, 1928.870
271.1666, 1923.585
271.6487, 1920.269
272.1309, 1918.973
272.6130, 1919.413
273.0951, 1921.401
273.5772, 1924.838
274.0593, 1929.734
274.5414, 1934.613
275.0236, 1942.960
275.5057, 1964.627
275.9878, 2003.566
276.4699, 2037.124
276.9520, 2050.585
277.4341, 2041.655
277.9163, 2046.643
278.3984, 2069.773
278.8805, 2100.364
279.3626, 2120.915
279.8447, 2130.978
280.3268, 2135.400
280.8090, 2136.284
281.2911, 2133.592
281.7732, 2124.589
282.2553, 2107.204
282.7374, 2087.632
283.2195, 2073.681
283.7017, 2065.118
284.1838, 2065.321
284.6659, 2080.867
285.1480, 2110.098
285.6301, 2130.225
286.1122, 2140.883
286.5944, 2143.460
287.0765, 2134.296
287.5586, 2113.728
288.0407, 2101.897
288.5228, 2117.639
289.0049, 2153.950
289.4871, 2162.424
289.9692, 2136.963
290.4513, 2106.487
290.9334, 2116.476
291.4155, 2162.231
291.8976, 2198.714
292.3798, 2199.480
292.8619, 2174.561
293.3440, 2155.488
293.8261, 2142.336
294.3082, 2136.701
294.7903, 2142.333
295.2725, 2157.963
295.7546, 2177.791
296.2367, 2204.067
296.7188, 2232.084
297.2009, 2248.696
297.6830, 2252.671
298.1652, 2254.969
298.6473, 2270.084
299.1294, 2293.403
299.6115, 2311.188
300.0936, 2308.485
300.5757, 2299.696
301.0579, 2310.687
301.5400, 2341.794
302.0221, 2378.210
302.5042, 2406.100
302.9863, 2429.222
303.4684, 2454.951
303.9506, 2493.360
304.4327, 2532.301
304.9148, 2552.688
305.3969, 2554.710
305.8790, 2562.146
306.3611, 2597.164
306.8433, 2649.149
307.3254, 2700.537
307.8075, 2745.105
308.2896, 2787.015
308.7717, 2825.859
309.2538, 2863.047
309.7360, 2909.287
310.2181, 2973.711
310.7002, 3051.017
311.1823, 3134.569
311.6644, 3236.270
312.1465, 3330.494
312.6287, 3390.349
313.1108, 3421.779
313.5929, 3461.260
314.0750, 3533.432
314.5571, 3620.742
315.0392, 3707.514
315.5214, 3789.495
316.0035, 3870.144
316.4856, 3946.565
316.9677, 4021.039
317.4498, 4103.745
317.9319, 4200.913
318.4141, 4305.771
318.8962, 4413.554
319.3783, 4529.118
319.8604, 4641.183
320.3425, 4739.450
320.8246, 4830.240
321.3068, 4933.522
321.7889, 5068.241
322.2710, 5206.056
322.7531, 5331.850
323.2352, 5439.122
323.7173, 5541.311
324.1995, 5639.712
324.6816, 5734.436
325.1637, 5825.855
325.6458, 5916.063
326.1279, 6001.136
326.6100, 6085.446
327.0922, 6195.048
327.5743, 6251.383
328.0564, 6214.510
328.5385, 6126.843
329.0206, 6064.736
329.5027, 6059.273
329.9849, 6048.557
330.4670, 6017.377
330.9491, 5965.691
331.4312, 5893.537
331.9133, 5796.228
332.3954, 5680.711
332.8776, 5553.844
333.3597, 5403.252
333.8418, 5262.465
334.3239, 5142.323
334.8060, 5045.837
335.2881, 4938.226
335.7703, 4811.991
336.2524, 4680.968
336.7345, 4562.795
337.2166, 4460.978
337.6987, 4359.339
338.1808, 4255.012
338.6630, 4147.285
339.1451, 4048.306
339.6272, 3960.092
340.1093, 3874.537
340.5914, 3782.052
341.0735, 3678.822
341.5557, 3589.691
342.0378, 3521.468
342.5199, 3470.376
343.0020, 3422.275
343.4841, 3378.140
343.9662, 3334.140
344.4484, 3287.204
344.9305, 3237.229
345.4126, 3189.221
345.8947, 3142.343
346.3768, 3099.151
346.8589, 3064.899
347.3411, 3039.228
347.8232, 3016.337
348.3053, 2993.731
348.7874, 2970.819
349.2695, 2943.835
349.7516, 2909.966
350.2338, 2877.060
350.7159, 2857.781
351.1980, 2849.499
351.6801, 2840.097
352.1622, 2818.761
352.6443, 2793.030
353.1265, 2775.808
353.6086, 2768.981
354.0907, 2765.987
354.5728, 2761.941
355.0549, 2756.961
355.5370, 2751.274
356.0192, 2741.354
356.5013, 2733.031
356.9834, 2730.662
357.4655, 2734.453
357.9476, 2746.773
358.4297, 2780.828
358.9119, 2821.060
359.3940, 2848.187
359.8761, 2839.182
360.3582, 2828.231
360.8403, 2835.363
361.3224, 2859.525
361.8046, 2884.958
362.2867, 2900.053
362.7688, 2916.175
363.2509, 2942.784
363.7330, 3008.296
364.2151, 3055.846
364.6973, 3052.898
365.1794, 3013.310
365.6615, 2996.420
366.1436, 3020.043
366.6257, 3066.293
367.1078, 3128.730
367.5900, 3233.968
368.0721, 3313.430
368.5542, 3350.381
369.0363, 3357.813
369.5184, 3366.552
370.0005, 3365.839
370.4827, 3378.103
370.9648, 3412.689
371.4469, 3478.396
371.9290, 3541.339
372.4111, 3602.584
372.8932, 3661.130
373.3754, 3713.235
373.8575, 3751.960
374.3396, 3797.847
374.8217, 3855.708
375.3038, 3924.882
375.7859, 4009.229
376.2681, 4116.418
376.7502, 4226.016
377.2323, 4317.875
377.7144, 4388.415
378.1965, 4457.921
378.6786, 4533.900
379.1608, 4611.448
379.6429, 4670.576
380.1250, 4708.658
380.6071, 4741.714
381.0892, 4784.610
381.5714, 4836.076
382.0535, 4876.778
382.5356, 4905.130
383.0177, 4920.059
383.4998, 4917.026
383.9819, 4896.944
384.4641, 4868.942
384.9462, 4848.563
385.4283, 4823.370
385.9104, 4762.011
386.3925, 4659.212
386.8746, 4534.211
387.3568, 4400.614
387.8389, 4261.860
388.3210, 4124.173
388.8031, 3992.781
389.2852, 3863.547
389.7673, 3733.398
390.2495, 3600.537
390.7316, 3470.835
391.2137, 3342.623
391.6958, 3220.988
392.1779, 3114.084
392.6600, 3033.691
393.1422, 2960.655
393.6243, 2881.101
394.1064, 2798.263
394.5885, 2730.761
395.0706, 2696.667
395.5527, 2673.641
396.0349, 2646.691
396.5170, 2609.188
396.9991, 2573.430
397.4812, 2543.099
397.9633, 2516.327
398.4454, 2487.204
398.9276, 2445.558
399.4097, 2409.545
399.8918, 2386.523
400.3739, 2380.562
400.8560, 2376.804
401.3381, 2379.892
401.8203, 2382.947
402.3024, 2376.171
402.7845, 2351.708
403.2666, 2330.627
403.7487, 2317.084
404.2308, 2311.100
404.7130, 2310.937
405.1951, 2316.281
405.6772, 2328.027
406.1593, 2352.330
406.6414, 2394.936
407.1235, 2414.685
407.6057, 2395.821
408.0878, 2356.000
408.5699, 2350.966
409.0520, 2384.325
409.5341, 2420.789
410.0162, 2435.091
410.4984, 2430.916
410.9805, 2433.266
411.4626, 2444.730
411.9447, 2461.420
412.4268, 2480.198
412.9089, 2500.206
413.3911, 2517.259
413.8732, 2527.219
414.3553, 2533.442
414.8374, 2543.122
415.3195, 2556.556
415.8016, 2564.414
416.2838, 2552.342
416.7659, 2531.066
417.2480, 2516.999
417.7301, 2523.143
418.2122, 2531.360
418.6943, 2531.382
419.1765, 2523.412
419.6586, 2508.263
420.1407, 2481.211
420.6228, 2450.307
421.1049, 2421.511
421.5870, 2399.591
422.0692, 2373.006
422.5513, 2332.857
423.0334, 2286.271
423.5155, 2247.078
423.9976, 2227.240
424.4797, 2206.376
424.9619, 2174.875
425.4440, 2125.949
425.9261, 2093.694
426.4082, 2088.991
426.8903, 2093.793
427.3724, 2090.802
427.8546, 2072.665
428.3367, 2060.492
428.8188, 2062.073
429.3009, 2073.477
429.7830, 2065.885
430.2651, 2031.193
430.7473, 1995.463
431.2294, 1975.073
431.7115, 1971.216
432.1936, 1973.699
432.6757, 1984.283
433.1578, 1997.244
433.6400, 2001.290
434.1221, 1996.387
434.6042, 1990.325
435.0863, 1984.471
435.5684, 1980.050
436.0505, 1984.241
436.5327, 1997.974
437.0148, 2009.100
437.4969, 2000.553
437.9790, 1980.007
438.4611, 1966.168
438.9432, 1968.397
439.4254, 1975.676
439.9075, 1970.792
440.3896, 1958.266
440.8717, 1959.011
441.3538, 2008.596
441.8359, 2064.678
442.3181, 2085.086
442.8002, 2051.042
443.2823, 2017.155
443.7644, 2006.692
444.2465, 2012.717
444.7286, 2024.208
445.2108, 2047.499
445.6929, 2066.910
446.1750, 2074.596
446.6571, 2069.099
447.1392, 2067.072
447.6213, 2074.708
448.1035, 2083.625
448.5856, 2087.281
449.0677, 2077.527
449.5498, 2075.553
450.0319, 2089.898
450.5140, 2112.794
450.9962, 2115.346
451.4783, 2086.986
451.9604, 2059.573
452.4425, 2050.501
452.9246, 2064.189
453.4067, 2060.993
453.8889, 2034.759
454.3710, 2004.894
454.8531, 2004.172
455.3352, 2032.273
455.8173, 2047.604
456.2994, 2030.454
456.7816, 1994.888
457.2637, 1978.846
457.7458, 1982.019
458.2279, 1986.365
458.7100, 1973.908
459.1921, 1953.221
459.6743, 1943.175
460.1564, 1951.201
460.6385, 1959.292
461.1206, 1945.201
461.6027, 1918.222
462.0848, 1898.850
462.5670, 1904.103
463.0491, 1915.304
463.5312, 1921.202
464.0133, 1920.944
464.4954, 1917.100
464.9775, 1902.188
465.4597, 1888.345
465.9418, 1886.443
466.4239, 1915.197
466.9060, 1937.043
467.3881, 1943.594
467.8702, 1937.489
468.3524, 1930.445
468.8345, 1921.239
469.3166, 1912.492
469.7987, 1905.179
470.2808, 1899.186
470.7629, 1894.673
471.2451, 1892.812
471.7272, 1891.118
472.2093, 1882.823
472.6914, 1863.133
473.1735, 1861.471
473.6556, 1894.136
474.1378, 1948.028
474.6199, 1966.674
475.1020, 1947.817
475.5841, 1920.524
476.0662, 1903.711
476.5483, 1895.880
477.0305, 1892.142
477.5126, 1892.784
477.9947, 1894.384
478.4768, 1891.046
478.9589, 1885.095
479.4410, 1882.909
479.9232, 1888.924
480.4053, 1899.028
480.8874, 1912.197
481.3695, 1927.619
481.8516, 1937.674
482.3337, 1936.927
482.8159, 1929.529
483.2980, 1917.899
483.7801, 1892.436
484.2622, 1878.396
484.7443, 1891.003
485.2264, 1919.977
485.7086, 1942.099
486.1907, 1956.655
486.6728, 1961.537
487.1549, 1953.852
487.6370, 1931.155
488.1191, 1912.046
488.6013, 1892.349
489.0834, 1880.961
489.5655, 1889.315
490.0476, 1926.382
490.5297, 1952.029
491.0118, 1959.206
491.4940, 1953.529
491.9761, 1947.764
492.4582, 1941.445
492.9403, 1939.788
493.4224, 1948.686
493.9045, 1965.089
494.3867, 1976.479
494.8688, 1982.364
495.3509, 1984.951
495.8330, 1980.756
496.3151, 1975.103
496.7972, 1981.336
497.2794, 2011.788
497.7615, 2045.469
498.2436, 2059.062
498.7257, 2058.122
499.2078, 2062.001
499.6899, 2088.998
500.1721, 2118.314
500.6542, 2132.948
501.1363, 2125.986
501.6184, 2126.709
502.1005, 2149.398
502.5826, 2181.645
503.0648, 2209.959
503.5469, 2226.422
504.0290, 2246.321
504.5111, 2274.365
504.9932, 2308.429
505.4753, 2334.312
505.9575, 2344.723
506.4396, 2359.497
506.9217, 2392.298
507.4038, 2449.208
507.8859, 2486.013
508.3680, 2497.265
508.8502, 2500.295
509.3323, 2518.890
509.8144, 2552.410
510.2965, 2585.149
510.7786, 2613.233
511.2607, 2637.177
511.7429, 2658.976
512.2250, 2678.042
512.7071, 2689.461
513.1892, 2683.904
513.6713, 2670.964
514.1534, 2664.962
514.6356, 2669.207
515.1177, 2670.755
515.5998, 2657.260
516.0819, 2636.691
516.5640, 2619.616
517.0461, 2608.299
517.5283, 2602.688
518.0104, 2607.481
518.4925, 2620.035
518.9746, 2625.234
519.4567, 2607.159
519.9388, 2592.673
520.4210, 2593.779
520.9031, 2616.179
521.3852, 2638.487
521.8673, 2659.951
522.3494, 2682.305
522.8315, 2708.609
523.3137, 2741.217
523.7958, 2768.616
524.2779, 2787.018
524.7600, 2799.371
525.2421, 2815.065
525.7242, 2834.364
526.2064, 2854.010
526.6885, 2869.940
527.1706, 2884.549
527.6527, 2906.207
528.1348, 2936.273
528.6169, 2965.571
529.0991, 2988.497
529.5812, 3004.228
530.0633, 3011.535
530.5454, 3005.427
531.0275, 2995.578
531.5096, 2989.231
531.9918, 2984.402
532.4739, 2974.303
532.9560, 2949.461
533.4381, 2924.414
533.9202, 2907.403
534.4023, 2901.456
534.8845, 2893.255
535.3666, 2882.234
535.8487, 2868.300
536.3308, 2850.325
536.8129, 2824.549
537.2950, 2804.024
537.7772, 2792.578
538.2593, 2786.537
538.7414, 2776.015
539.2235, 2761.205
539.7056, 2741.774
540.1877, 2713.570
540.6699, 2679.353
541.1520, 2661.174
541.6341, 2660.755
542.1162, 2655.667
542.5983, 2619.110
543.0804, 2562.415
543.5626, 2510.910
544.0447, 2470.186
544.5268, 2436.454
545.0089, 2404.014
545.4910, 2375.379
545.9731, 2355.778
546.4553, 2360.179
546.9374, 2363.181
547.4195, 2349.362
547.9016, 2317.852
548.3837, 2289.154
548.8658, 2267.083
549.3480, 2250.134
549.8301, 2237.441
550.3122, 2229.016
550.7943, 2225.157
551.2764, 2228.620
551.7585, 2234.785
552.2407, 2237.456
552.7228, 2237.889
553.2049, 2228.744
553.6870, 2202.630
554.1691, 2166.827
554.6512, 2152.062
555.1334, 2158.864
555.6155, 2170.820
556.0976, 2180.947
556.5797, 2187.050
557.0618, 2181.684
557.5439, 2162.637
558.0261, 2143.028
558.5082, 2135.998
558.9903, 2135.890
559.4724, 2133.814
559.9545, 2119.982
560.4366, 2110.462
560.9188, 2117.277
561.4009, 2135.384
561.8830, 2148.044
562.3651, 2159.085
562.8472, 2156.795
563.3293, 2127.683
563.8115, 2061.210
564.2936, 2028.244
564.7757, 2044.118
565.2578, 2076.234
565.7399, 2100.387
566.2220, 2117.502
566.7042, 2122.251
567.1863, 2112.712
567.6684, 2092.555
568.1505, 2061.906
568.6326, 2021.830
569.1147, 1995.413
569.5969, 1999.250
570.0790, 2019.885
570.5611, 2033.567
571.0432, 2040.249
571.5253, 2040.954
572.0074, 2027.985
572.4896, 2013.559
572.9717, 2012.167
573.4538, 2029.508
573.9359, 2046.989
574.4180, 2061.667
574.9001, 2069.886
575.3823, 2067.321
575.8644, 2035.521
576.3465, 2013.246
576.8286, 2012.414
577.3107, 2026.579
577.7928, 2031.398
578.2750, 2021.846
578.7571, 2012.067
579.2392, 2008.347
579.7213, 2010.881
580.2034, 2010.033
580.6855, 2005.518
581.1677, 1999.050
581.6498, 1991.421
582.1319, 1982.996
582.6140, 1976.125
583.0961, 1972.406
583.5782, 1966.907
584.0604, 1943.738
584.5425, 1914.060
585.0246, 1903.736
585.5067, 1951.769
585.9888, 1999.787
586.4709, 2002.525
586.9531, 1966.786
587.4352, 1939.994
587.9173, 1950.796
588.3994, 1964.499
588.8815, 1960.298
589.3636, 1924.389
589.8458, 1906.856
590.3279, 1916.071
590.8100, 1936.282
591.2921, 1954.044
591.7742, 1970.948
592.2563, 1978.047
592.7385, 1972.414
593.2206, 1958.193
593.7027, 1940.524
594.1848, 1919.832
594.6669, 1906.442
595.1490, 1909.436
595.6312, 1921.247
596.1133, 1929.455
596.5954, 1934.015
597.0775, 1933.940
597.5596, 1925.438
598.0417, 1913.834
598.5239, 1904.071
599.0060, 1897.008
599.4881, 1891.517
599.9702, 1887.137
600.4523, 1883.977
600.9344, 1882.142
601.4166, 1877.272
601.8987, 1879.520
602.3808, 1894.281
602.8629, 1916.023
603.3450, 1929.128
603.8271, 1931.372
604.3093, 1930.490
604.7914, 1928.488
605.2735, 1925.627
605.7556, 1922.948
606.2377, 1920.219
606.7198, 1920.502
607.2020, 1934.607
607.6841, 1952.444
608.1662, 1946.074
608.6483, 1907.147
609.1304, 1871.699
609.6125, 1876.352
610.0947, 1902.114
610.5768, 1922.504
611.0589, 1929.758
611.5410, 1928.889
612.0231, 1912.321
612.5052, 1887.922
612.9874, 1879.480
613.4695, 1904.527
613.9516, 1929.521
614.4337, 1946.584
614.9158, 1955.615
615.3979, 1959.271
615.8801, 1954.674
616.3622, 1952.045
616.8443, 1964.235
617.3264, 1989.385
617.8085, 1992.814
618.2906, 1968.783
618.7728, 1938.574
619.2549, 1926.099
619.7370, 1926.903
620.2191, 1931.306
620.7012, 1937.020
621.1833, 1944.318
621.6655, 1953.669
622.1476, 1964.818
622.6297, 1977.011
623.1118, 1999.586
623.5939, 2013.895
624.0760, 2004.216
624.5582, 1970.236
625.0403, 1959.872
625.5224, 1995.028
626.0045, 2029.309
626.4866, 2035.687
626.9688, 2005.130
627.4509, 1995.979
627.9330, 2012.909
628.4151, 2038.869
628.8972, 2055.025
629.3793, 2062.778
629.8615, 2072.510
630.3436, 2087.507
630.8257, 2102.335
631.3078, 2111.458
631.7899, 2115.232
632.2720, 2114.550
632.7542, 2098.521
633.2363, 2088.196
633.7184, 2100.514
634.2005, 2131.773
634.6826, 2159.855
635.1647, 2175.791
635.6469, 2190.357
636.1290, 2207.317
636.6111, 2226.040
637.0932, 2251.508
637.5753, 2285.306
638.0574, 2323.803
638.5396, 2364.007
639.0217, 2406.160
639.5038, 2451.645
639.9859, 2500.890
640.4680, 2553.547
640.9501, 2612.279
641.4323, 2674.180
641.9144, 2728.413
642.3965, 2765.225
642.8786, 2798.854
643.3607, 2836.493
643.8428, 2880.821
644.3250, 2938.109
644.8071, 3025.237
645.2892, 3113.792
645.7713, 3191.286
646.2534, 3256.909
646.7355, 3314.947
647.2177, 3358.024
647.6998, 3402.688
648.1819, 3458.188
648.6640, 3528.638
649.1461, 3590.549
649.6282, 3641.881
650.1104, 3691.907
650.5925, 3757.523
651.0746, 3834.197
651.5567, 3885.821
652.0388, 3901.166
652.5209, 3904.008
653.0031, 3927.066
653.4852, 3959.066
653.9673, 3976.059
654.4494, 3957.478
654.9315, 3931.328
655.4136, 3909.802
655.8958, 3892.214
656.3779, 3875.054
656.8600, 3852.917
657.3421, 3835.861
657.8242, 3825.211
658.3063, 3820.948
658.7885, 3831.474
659.2706, 3860.749
659.7527, 3895.805
660.2348, 3925.741
660.7169, 3951.304
661.1990, 3988.377
661.6812, 4037.631
662.1633, 4099.093
662.6454, 4178.119
663.1275, 4269.187
663.6096, 4363.300
664.0917, 4463.958
664.5739, 4554.244
665.0560, 4603.238
665.5381, 4638.155
666.0202, 4703.486
666.5023, 4866.914
666.9844, 5002.225
667.4666, 5060.151
667.9487, 5062.735
668.4308, 5089.390
668.9129, 5161.434
669.3950, 5213.256
669.8771, 5218.105
670.3593, 5180.266
670.8414, 5133.684
671.3235, 5078.484
671.8056, 5008.909
672.2877, 4918.606
