##NAMES=Ferri-pedrizite
##RRUFFID=R070344
##IDEAL CHEMISTRY=NaLi_2_[Fe^3+^_2_Mg_2_Li]Si_8_O_22_(OH)_2_
##LOCALITY=east Pedriza Massif, Sierra de Guadarrama, Spain
##OWNER=RRUFF
##SOURCE=Michael Scott
##DESCRIPTION=Black bladed crystals
##STATUS=The identification of this mineral is confirmed by single-crystal X-ray diffraction and chemical analysis.
##URL=rruff.info/R070344
##MEASURED CHEMISTRY=(Na_0.78_[box]_0.10_Ca_0.06_K_0.06_)_Σ=1_Li_2.00_[Fe^3+^_2.52_Mg_0.99_Fe^2+^_0.20_Al_0.16_Mn_0.07_Ti_0.03_Cr_0.03_Li_1.00_]Si_8.00_O_22_((OH)_1.27_F_0.73_)_Σ=2_; H_2_O from stoichiometry after deducting F; Li_2_O by difference
201.0508, 17642.81
201.5329, 17697.39
202.0150, 17720.74
202.4971, 17706.60
202.9792, 17674.80
203.4613, 17654.57
203.9435, 17642.59
204.4256, 17651.94
204.9077, 17715.02
205.3898, 17774.45
205.8719, 17780.13
206.3540, 17727.30
206.8362, 17661.02
207.3183, 17647.38
207.8004, 17716.78
208.2825, 17762.00
208.7646, 17771.27
209.2467, 17768.25
209.7289, 17760.18
210.2110, 17751.20
210.6931, 17747.93
211.1752, 17760.43
211.6573, 17795.54
212.1395, 17820.90
212.6216, 17838.69
213.1037, 17845.79
213.5858, 17834.77
214.0679, 17809.23
214.5500, 17781.23
215.0322, 17760.02
215.5143, 17743.47
215.9964, 17749.53
216.4785, 17808.84
216.9606, 17862.09
217.4427, 17883.16
217.9249, 17877.58
218.4070, 17865.81
218.8891, 17862.07
219.3712, 17866.02
219.8533, 17890.97
220.3354, 17980.83
220.8176, 18049.36
221.2997, 18061.37
221.7818, 18033.67
222.2639, 18001.76
222.7460, 17989.97
223.2281, 17996.49
223.7103, 18002.83
224.1924, 18019.26
224.6745, 18023.32
225.1566, 17995.59
225.6387, 17955.45
226.1208, 17933.07
226.6030, 17947.61
227.0851, 17988.96
227.5672, 18013.93
228.0493, 18004.04
228.5314, 18002.32
229.0135, 18021.15
229.4957, 18049.57
229.9778, 18077.44
230.4599, 18100.55
230.9420, 18115.91
231.4241, 18113.26
231.9062, 18071.33
232.3884, 18048.79
232.8705, 18071.40
233.3526, 18103.72
233.8347, 18109.09
234.3168, 18076.51
234.7989, 18033.44
235.2811, 18029.35
235.7632, 18082.58
236.2453, 18132.38
236.7274, 18185.89
237.2095, 18226.89
237.6916, 18236.61
238.1738, 18214.90
238.6559, 18187.15
239.1380, 18188.74
239.6201, 18232.12
240.1022, 18258.50
240.5843, 18249.33
241.0665, 18236.29
241.5486, 18231.62
242.0307, 18237.20
242.5128, 18250.98
242.9949, 18275.53
243.4770, 18313.07
243.9592, 18334.34
244.4413, 18312.66
244.9234, 18299.89
245.4055, 18325.93
245.8876, 18378.21
246.3697, 18422.14
246.8519, 18430.20
247.3340, 18406.81
247.8161, 18391.64
248.2982, 18387.56
248.7803, 18388.72
249.2624, 18399.59
249.7446, 18412.73
250.2267, 18414.62
250.7088, 18393.84
251.1909, 18361.68
251.6730, 18352.69
252.1551, 18379.24
252.6373, 18404.31
253.1194, 18416.36
253.6015, 18420.85
254.0836, 18422.81
254.5657, 18423.71
255.0478, 18424.04
255.5300, 18421.46
256.0121, 18411.56
256.4942, 18415.83
256.9763, 18458.90
257.4584, 18508.05
257.9406, 18540.43
258.4227, 18551.05
258.9048, 18549.24
259.3869, 18541.61
259.8690, 18527.80
260.3511, 18515.68
260.8333, 18497.12
261.3154, 18490.42
261.7975, 18519.48
262.2796, 18581.38
262.7617, 18630.81
263.2438, 18621.91
263.7260, 18567.02
264.2081, 18540.62
264.6902, 18563.53
265.1723, 18596.18
265.6544, 18613.18
266.1365, 18616.46
266.6187, 18610.90
267.1008, 18589.55
267.5829, 18562.57
268.0650, 18554.08
268.5471, 18569.53
269.0292, 18587.46
269.5114, 18590.13
269.9935, 18585.38
270.4756, 18586.88
270.9577, 18601.22
271.4398, 18620.68
271.9219, 18640.62
272.4041, 18661.37
272.8862, 18669.92
273.3683, 18650.95
273.8504, 18619.50
274.3325, 18604.03
274.8146, 18608.23
275.2968, 18624.19
275.7789, 18657.68
276.2610, 18701.75
276.7431, 18726.22
277.2252, 18715.80
277.7073, 18686.83
278.1895, 18663.85
278.6716, 18644.83
279.1537, 18637.39
279.6358, 18651.06
280.1179, 18676.70
280.6000, 18698.12
281.0822, 18711.35
281.5643, 18723.26
282.0464, 18744.09
282.5285, 18775.10
283.0106, 18797.66
283.4927, 18796.51
283.9749, 18794.36
284.4570, 18818.22
284.9391, 18867.84
285.4212, 18913.68
285.9033, 18930.69
286.3854, 18918.70
286.8676, 18910.92
287.3497, 18910.23
287.8318, 18910.51
288.3139, 18908.62
288.7960, 18905.26
289.2781, 18900.66
289.7603, 18893.28
290.2424, 18887.49
290.7245, 18902.71
291.2066, 18972.18
291.6887, 19020.31
292.1708, 19024.13
292.6530, 19004.60
293.1351, 18985.98
293.6172, 18976.96
294.0993, 18974.04
294.5814, 18971.08
295.0635, 18966.92
295.5457, 18965.22
296.0278, 18971.62
296.5099, 18976.30
296.9920, 18969.81
297.4741, 18952.71
297.9562, 18934.43
298.4384, 18923.94
298.9205, 18921.24
299.4026, 18927.02
299.8847, 18952.98
300.3668, 18975.49
300.8489, 18984.01
301.3311, 18982.72
301.8131, 18980.53
302.2953, 18982.20
302.7774, 18988.83
303.2595, 19006.82
303.7416, 19044.77
304.2237, 19081.94
304.7058, 19123.26
305.1880, 19157.80
305.6701, 19173.88
306.1522, 19167.04
306.6343, 19142.36
307.1164, 19099.38
307.5985, 19025.00
308.0807, 18982.20
308.5628, 19007.01
309.0449, 19050.53
309.5270, 19091.61
310.0091, 19126.00
310.4912, 19149.45
310.9734, 19156.20
311.4555, 19147.34
311.9376, 19133.33
312.4197, 19110.55
312.9018, 19088.92
313.3839, 19068.61
313.8661, 19053.27
314.3482, 19053.79
314.8303, 19086.31
315.3124, 19132.73
315.7945, 19162.87
316.2766, 19176.18
316.7588, 19175.79
317.2409, 19153.60
317.7230, 19121.50
318.2051, 19099.14
318.6872, 19090.67
319.1693, 19089.21
319.6515, 19093.40
320.1336, 19101.52
320.6157, 19105.53
321.0978, 19102.02
321.5799, 19094.27
322.0620, 19086.97
322.5442, 19080.15
323.0263, 19073.65
323.5084, 19063.54
323.9905, 19055.35
324.4726, 19056.94
324.9547, 19069.61
325.4369, 19088.59
325.9190, 19112.49
326.4011, 19142.17
326.8832, 19154.96
327.3653, 19141.41
327.8474, 19120.48
328.3296, 19092.33
328.8117, 19064.32
329.2938, 19059.29
329.7759, 19094.66
330.2580, 19156.23
330.7401, 19178.57
331.2223, 19104.28
331.7044, 19061.94
332.1865, 19088.04
332.6686, 19141.85
333.1507, 19184.33
333.6328, 19202.16
334.1150, 19198.91
334.5971, 19176.60
335.0792, 19122.91
335.5613, 19084.02
336.0434, 19067.52
336.5255, 19057.21
337.0077, 19049.67
337.4898, 19041.75
337.9719, 19027.14
338.4540, 18997.95
338.9361, 18957.20
339.4182, 18931.61
339.9004, 18920.06
340.3825, 18927.82
340.8646, 18972.52
341.3467, 19029.12
341.8288, 19065.69
342.3109, 19069.33
342.7931, 19054.21
343.2752, 19036.58
343.7573, 19014.54
344.2394, 19003.85
344.7215, 19012.55
345.2036, 19031.44
345.6858, 19058.69
346.1679, 19093.38
346.6500, 19117.93
347.1321, 19106.77
347.6142, 19077.16
348.0963, 19085.89
348.5785, 19153.17
349.0606, 19212.79
349.5427, 19190.65
350.0248, 19116.16
350.5069, 19077.63
350.9890, 19115.89
351.4712, 19175.45
351.9533, 19217.48
352.4354, 19242.78
352.9175, 19254.83
353.3996, 19251.04
353.8817, 19239.84
354.3639, 19246.56
354.8460, 19287.49
355.3281, 19309.04
355.8102, 19282.90
356.2923, 19238.50
356.7744, 19208.81
357.2566, 19201.12
357.7387, 19207.66
358.2208, 19220.87
358.7029, 19242.23
359.1850, 19262.53
359.6671, 19295.97
360.1493, 19314.75
360.6314, 19293.01
361.1135, 19247.29
361.5956, 19215.32
362.0777, 19220.84
362.5598, 19250.83
363.0420, 19256.02
363.5241, 19210.20
364.0062, 19181.72
364.4883, 19191.60
364.9704, 19211.98
365.4525, 19220.95
365.9347, 19213.39
366.4168, 19196.49
366.8989, 19174.28
367.3810, 19145.58
367.8631, 19129.01
368.3452, 19133.62
368.8274, 19140.93
369.3095, 19135.33
369.7916, 19124.74
370.2737, 19129.66
370.7558, 19171.24
371.2379, 19224.31
371.7201, 19241.73
372.2022, 19219.68
372.6843, 19199.54
373.1664, 19204.51
373.6485, 19217.39
374.1306, 19209.91
374.6128, 19174.71
375.0949, 19142.79
375.5770, 19136.89
376.0591, 19144.66
376.5412, 19140.63
377.0233, 19118.85
377.5055, 19091.11
377.9876, 19068.60
378.4697, 19052.06
378.9518, 19036.37
379.4339, 19019.30
379.9160, 19005.12
380.3982, 18999.29
380.8803, 18998.83
381.3624, 18993.73
381.8445, 18977.44
382.3266, 18956.85
382.8087, 18953.09
383.2909, 18992.89
383.7730, 19014.49
384.2551, 19002.81
384.7372, 18981.66
385.2193, 18969.38
385.7014, 18969.34
386.1836, 18975.30
386.6657, 18983.64
387.1478, 18995.32
387.6299, 18989.78
388.1120, 18942.45
388.5941, 18906.26
389.0763, 18901.54
389.5584, 18918.04
390.0405, 18941.04
390.5226, 18966.55
391.0047, 18989.48
391.4868, 19000.91
391.9690, 18999.78
392.4511, 18996.67
392.9332, 18993.00
393.4153, 18989.48
393.8974, 18985.03
394.3795, 18979.76
394.8617, 18980.30
395.3438, 18994.02
395.8259, 19014.20
396.3080, 19033.31
396.7901, 19051.31
397.2722, 19056.62
397.7544, 19038.23
398.2365, 18999.47
398.7186, 18962.63
399.2007, 18910.74
399.6828, 18879.79
400.1649, 18904.04
400.6471, 18953.76
401.1292, 18978.25
401.6113, 18960.78
402.0934, 18921.47
402.5755, 18887.80
403.0576, 18856.55
403.5398, 18843.23
404.0219, 18871.09
404.5040, 18892.69
404.9861, 18878.13
405.4682, 18836.56
405.9503, 18791.70
406.4325, 18755.97
406.9146, 18733.92
407.3967, 18748.75
407.8788, 18833.69
408.3609, 18886.45
408.8430, 18861.12
409.3252, 18816.15
409.8073, 18799.16
410.2894, 18816.53
410.7715, 18837.13
411.2536, 18831.37
411.7357, 18804.90
412.2179, 18785.98
412.7000, 18775.93
413.1821, 18774.78
413.6642, 18790.82
414.1463, 18815.35
414.6284, 18830.41
415.1106, 18829.43
415.5927, 18822.20
416.0748, 18815.64
416.5569, 18808.66
417.0390, 18796.49
417.5211, 18776.39
418.0033, 18754.75
418.4854, 18740.80
418.9675, 18735.68
419.4496, 18735.75
419.9317, 18743.83
420.4138, 18754.77
420.8960, 18768.75
421.3781, 18783.01
421.8602, 18790.01
422.3423, 18784.11
422.8244, 18768.94
423.3065, 18760.88
423.7887, 18772.61
424.2708, 18771.09
424.7529, 18741.39
425.2350, 18706.08
425.7171, 18683.22
426.1992, 18675.32
426.6814, 18673.64
427.1635, 18670.60
427.6456, 18666.40
428.1277, 18662.82
428.6098, 18656.13
429.0919, 18657.44
429.5741, 18685.60
430.0562, 18721.79
430.5383, 18734.60
431.0204, 18706.76
431.5025, 18675.63
431.9846, 18680.74
432.4668, 18709.77
432.9489, 18716.36
433.4310, 18685.74
433.9131, 18639.12
434.3952, 18593.54
434.8773, 18547.01
435.3595, 18535.44
435.8416, 18600.08
436.3237, 18665.02
436.8058, 18683.36
437.2879, 18663.56
437.7701, 18630.52
438.2522, 18595.56
438.7343, 18564.05
439.2164, 18549.99
439.6985, 18559.95
440.1806, 18576.88
440.6628, 18612.23
441.1449, 18643.91
441.6270, 18656.40
442.1091, 18651.19
442.5912, 18639.70
443.0733, 18627.92
443.5555, 18617.51
444.0376, 18616.98
444.5197, 18631.79
445.0018, 18641.25
445.4839, 18633.11
445.9660, 18617.84
446.4482, 18600.95
446.9303, 18581.04
447.4124, 18576.70
447.8945, 18622.01
448.3766, 18686.59
448.8587, 18698.52
449.3409, 18645.09
449.8230, 18583.73
450.3051, 18554.68
450.7872, 18557.78
451.2693, 18577.66
451.7514, 18642.07
452.2336, 18689.79
452.7157, 18686.05
453.1978, 18658.74
453.6799, 18644.86
454.1620, 18655.58
454.6441, 18682.03
455.1263, 18715.53
455.6084, 18759.83
456.0905, 18789.76
456.5726, 18793.11
457.0547, 18793.64
457.5368, 18793.29
458.0190, 18796.04
458.5011, 18808.11
458.9832, 18833.04
459.4653, 18863.95
459.9474, 18889.54
460.4295, 18909.50
460.9117, 18939.62
461.3938, 18991.80
461.8759, 19042.68
462.3580, 19068.34
462.8401, 19073.38
463.3222, 19081.39
463.8044, 19115.67
464.2865, 19142.38
464.7686, 19121.90
465.2507, 19064.95
465.7328, 19018.34
466.2149, 19005.34
466.6971, 19002.33
467.1792, 18960.88
467.6613, 18841.29
468.1434, 18768.34
468.6255, 18781.63
469.1076, 18806.16
469.5898, 18796.07
470.0719, 18755.87
470.5540, 18712.38
471.0361, 18682.40
471.5182, 18660.34
472.0003, 18628.30
472.4825, 18582.32
472.9646, 18537.73
473.4467, 18494.75
473.9288, 18456.74
474.4109, 18423.95
474.8930, 18397.49
475.3752, 18383.25
475.8573, 18388.40
476.3394, 18406.40
476.8215, 18434.11
477.3036, 18471.52
477.7857, 18486.63
478.2679, 18455.63
478.7500, 18398.60
479.2321, 18364.49
479.7142, 18359.96
480.1963, 18357.59
480.6784, 18358.58
481.1606, 18355.27
481.6427, 18336.68
482.1248, 18305.04
482.6069, 18275.33
483.0890, 18259.37
483.5711, 18253.80
484.0533, 18238.10
484.5354, 18195.22
485.0175, 18170.91
485.4996, 18172.24
485.9817, 18191.56
486.4638, 18237.79
486.9460, 18304.27
487.4281, 18348.37
487.9102, 18315.65
488.3923, 18235.98
488.8744, 18204.30
489.3565, 18228.25
489.8387, 18261.63
490.3208, 18291.92
490.8029, 18311.05
491.2850, 18301.70
491.7671, 18250.40
492.2492, 18209.98
492.7314, 18197.99
493.2135, 18206.53
493.6956, 18239.80
494.1777, 18290.96
494.6598, 18323.48
495.1419, 18305.99
495.6241, 18248.25
496.1062, 18213.87
496.5883, 18231.68
497.0704, 18232.74
497.5525, 18191.63
498.0346, 18144.63
498.5168, 18122.75
498.9989, 18128.46
499.4810, 18142.60
499.9631, 18149.02
500.4452, 18151.25
500.9273, 18167.55
501.4095, 18205.08
501.8916, 18225.10
502.3737, 18195.37
502.8558, 18147.25
503.3379, 18133.03
503.8200, 18162.44
504.3022, 18188.42
504.7843, 18185.65
505.2664, 18174.60
505.7485, 18181.30
506.2306, 18205.63
506.7127, 18229.87
507.1949, 18243.29
507.6770, 18245.81
508.1591, 18236.19
508.6412, 18191.38
509.1233, 18168.83
509.6054, 18183.38
510.0876, 18210.93
510.5697, 18237.85
511.0518, 18261.20
511.5339, 18281.65
512.0161, 18303.44
512.4982, 18320.34
512.9803, 18308.45
513.4624, 18260.94
513.9445, 18226.76
514.4266, 18225.31
514.9088, 18244.13
515.3909, 18269.89
515.8730, 18303.99
516.3551, 18328.23
516.8372, 18329.81
517.3193, 18324.63
517.8015, 18329.16
518.2836, 18341.18
518.7657, 18347.09
519.2478, 18338.98
519.7299, 18323.50
520.2120, 18317.27
520.6942, 18331.58
521.1763, 18333.29
521.6584, 18300.09
522.1405, 18276.49
522.6226, 18303.89
523.1047, 18360.66
523.5869, 18386.84
524.0690, 18341.94
524.5511, 18271.26
525.0332, 18247.29
525.5153, 18269.84
525.9974, 18310.37
526.4796, 18374.18
526.9617, 18434.45
527.4438, 18453.07
527.9259, 18436.06
528.4080, 18435.51
528.8901, 18472.36
529.3723, 18514.08
529.8544, 18545.33
530.3365, 18566.89
530.8186, 18577.52
531.3007, 18577.41
531.7828, 18578.34
532.2650, 18597.13
532.7471, 18636.47
533.2292, 18677.74
533.7113, 18731.16
534.1934, 18774.49
534.6755, 18798.50
535.1577, 18809.55
535.6398, 18814.80
536.1219, 18815.64
536.6040, 18817.52
537.0861, 18823.25
537.5682, 18834.01
538.0504, 18855.42
538.5325, 18889.05
539.0146, 18926.12
539.4967, 18963.52
539.9788, 18998.76
540.4609, 19019.39
540.9431, 19025.65
541.4252, 19019.23
541.9073, 18988.29
542.3894, 18952.71
542.8715, 18931.12
543.3536, 18925.06
543.8358, 18927.96
544.3179, 18938.95
544.8000, 18950.34
545.2821, 18920.87
545.7642, 18826.07
546.2463, 18757.85
546.7285, 18763.67
547.2106, 18787.36
547.6927, 18790.80
548.1748, 18772.35
548.6569, 18739.51
549.1390, 18679.94
549.6211, 18618.68
550.1032, 18588.55
550.5853, 18583.05
551.0674, 18573.02
551.5496, 18546.66
552.0317, 18510.32
552.5138, 18472.49
552.9959, 18427.43
553.4780, 18400.67
553.9601, 18403.75
554.4423, 18409.88
554.9244, 18419.38
555.4065, 18421.41
555.8886, 18391.17
556.3707, 18318.06
556.8528, 18250.58
557.3350, 18263.76
557.8171, 18344.46
558.2992, 18382.67
558.7813, 18360.97
559.2634, 18319.12
559.7455, 18270.42
560.2277, 18223.24
560.7098, 18202.84
561.1919, 18228.03
561.6740, 18247.16
562.1561, 18244.20
562.6382, 18227.21
563.1204, 18197.48
563.6025, 18160.17
564.0846, 18132.19
564.5667, 18126.84
565.0488, 18138.23
565.5309, 18144.05
566.0131, 18145.78
566.4952, 18138.17
566.9773, 18111.62
567.4594, 18082.11
567.9415, 18054.71
568.4236, 18032.01
568.9058, 18022.75
569.3879, 18046.52
569.8700, 18070.97
570.3521, 18058.54
570.8342, 18018.55
571.3163, 17981.03
571.7985, 17954.79
572.2806, 17936.76
572.7627, 17923.66
573.2448, 17915.46
573.7269, 17912.20
574.2090, 17914.92
574.6912, 17921.01
575.1733, 17943.49
575.6554, 17961.86
576.1375, 17946.63
576.6196, 17894.24
577.1017, 17840.27
577.5839, 17819.52
578.0660, 17822.96
578.5481, 17820.77
579.0302, 17812.07
579.5123, 17801.73
579.9944, 17790.89
580.4766, 17780.72
580.9587, 17776.84
581.4408, 17785.39
581.9229, 17775.22
582.4050, 17720.02
582.8871, 17664.86
583.3693, 17646.82
583.8514, 17651.95
584.3335, 17642.33
584.8156, 17600.57
585.2977, 17550.71
585.7798, 17533.50
586.2620, 17552.26
586.7441, 17566.89
587.2262, 17581.53
587.7083, 17581.89
588.1904, 17544.25
588.6725, 17491.17
589.1547, 17461.62
589.6368, 17469.22
590.1189, 17477.56
590.6010, 17470.29
591.0831, 17453.22
591.5652, 17428.30
592.0474, 17399.13
592.5295, 17380.50
593.0116, 17383.84
593.4937, 17400.31
593.9758, 17400.72
594.4579, 17372.13
594.9401, 17358.22
595.4222, 17381.60
595.9043, 17403.19
596.3864, 17411.19
596.8685, 17401.53
597.3506, 17362.40
597.8328, 17270.84
598.3149, 17185.29
598.7970, 17166.90
599.2791, 17194.86
599.7612, 17216.96
600.2433, 17223.20
600.7255, 17224.92
601.2076, 17232.93
601.6897, 17244.94
602.1718, 17241.93
602.6539, 17201.74
603.1360, 17176.85
603.6182, 17185.23
604.1003, 17198.96
604.5824, 17196.01
605.0645, 17177.96
605.5466, 17161.24
606.0287, 17157.45
606.5109, 17157.03
606.9930, 17143.47
607.4751, 17118.64
607.9572, 17097.94
608.4393, 17085.43
608.9214, 17076.77
609.4036, 17068.92
609.8857, 17061.83
610.3678, 17048.94
610.8499, 17014.60
611.3320, 16994.77
611.8141, 17007.01
612.2963, 17031.90
612.7784, 17056.49
613.2605, 17075.01
613.7426, 17077.11
614.2247, 17047.00
614.7068, 17001.51
615.1890, 16988.22
615.6711, 17009.16
616.1532, 17012.86
616.6353, 16974.90
617.1174, 16932.03
617.5995, 16931.97
618.0817, 16975.81
618.5638, 16995.33
619.0459, 16970.23
619.5280, 16940.91
620.0101, 16920.46
620.4922, 16905.73
620.9744, 16889.58
621.4565, 16872.13
621.9386, 16863.11
622.4207, 16872.66
622.9028, 16897.08
623.3849, 16927.05
623.8671, 16967.33
624.3492, 16983.23
624.8313, 16951.94
625.3134, 16905.81
625.7955, 16883.73
626.2776, 16884.11
626.7598, 16884.68
627.2419, 16875.04
627.7240, 16872.93
628.2061, 16903.64
628.6882, 16940.97
629.1703, 16939.48
629.6525, 16893.07
630.1346, 16841.49
630.6167, 16821.99
631.0988, 16831.12
631.5809, 16856.28
632.0630, 16908.90
632.5452, 16931.14
633.0273, 16885.56
633.5094, 16821.19
633.9915, 16796.13
634.4736, 16807.98
634.9557, 16809.75
635.4379, 16768.25
635.9200, 16739.70
636.4021, 16776.72
636.8842, 16839.60
637.3663, 16864.57
637.8484, 16837.65
638.3306, 16788.75
638.8127, 16741.38
639.2948, 16699.03
639.7769, 16690.85
640.2590, 16731.65
640.7411, 16751.68
641.2233, 16705.45
641.7054, 16655.31
642.1875, 16681.13
642.6696, 16774.63
643.1517, 16829.32
643.6339, 16795.98
644.1160, 16747.69
644.5981, 16714.78
645.0802, 16696.75
645.5623, 16698.24
646.0444, 16716.43
646.5266, 16729.20
647.0087, 16712.04
647.4908, 16674.57
647.9729, 16668.48
648.4550, 16707.10
648.9371, 16721.74
649.4193, 16675.49
649.9014, 16620.46
650.3835, 16614.44
650.8656, 16649.04
651.3477, 16664.09
651.8298, 16635.28
652.3120, 16601.09
652.7941, 16575.75
653.2762, 16557.52
653.7583, 16539.28
654.2404, 16522.92
654.7225, 16526.52
655.2047, 16571.49
655.6868, 16638.39
656.1689, 16655.80
656.6510, 16613.33
657.1331, 16587.12
657.6152, 16604.00
658.0974, 16625.62
658.5795, 16611.53
659.0616, 16570.86
659.5437, 16544.72
660.0258, 16552.80
660.5079, 16555.89
660.9901, 16535.09
661.4722, 16506.31
661.9543, 16482.21
662.4364, 16466.64
662.9185, 16462.88
663.4006, 16474.17
663.8828, 16495.73
664.3649, 16523.39
664.8470, 16558.04
665.3291, 16565.43
665.8112, 16528.58
666.2933, 16491.62
666.7755, 16488.32
667.2576, 16512.31
667.7397, 16533.93
668.2218, 16566.52
668.7039, 16575.28
669.1860, 16541.60
669.6682, 16491.46
670.1503, 16424.79
670.6324, 16360.17
671.1145, 16344.42
671.5966, 16405.71
672.0787, 16486.55
672.5609, 16497.12
673.0430, 16449.42
673.5251, 16434.35
674.0072, 16466.43
674.4893, 16495.57
674.9714, 16489.95
675.4536, 16462.97
675.9357, 16449.83
676.4178, 16460.16
676.8999, 16463.18
677.3820, 16454.22
677.8641, 16441.72
678.3463, 16430.72
678.8284, 16419.10
679.3105, 16398.86
679.7926, 16367.52
680.2747, 16345.08
680.7568, 16362.44
681.2390, 16399.85
681.7211, 16406.58
682.2032, 16382.16
682.6853, 16357.58
683.1674, 16345.93
683.6495, 16341.45
684.1317, 16336.87
684.6138, 16335.20
685.0959, 16317.46
685.5780, 16249.90
686.0601, 16206.70
686.5422, 16231.36
687.0244, 16273.47
687.5065, 16276.39
687.9886, 16235.65
688.4707, 16195.82
688.9528, 16185.04
689.4349, 16185.84
689.9171, 16180.45
690.3992, 16170.02
690.8813, 16156.01
691.3634, 16139.11
691.8455, 16128.02
