##NAMES=Ferri-winchite
##RRUFFID=R060038
##IDEAL CHEMISTRY=[box]NaCa(Mg_4_Fe^3+^)Si_8_O_22_(OH)_2_
##LOCALITY=Imerina, Madagascar
##OWNER=RRUFF
##SOURCE=University of Arizona Mineral Museum
##DESCRIPTION=Deep black-blue bladed single crystals embedded in dolomite
##STATUS=The identification of this mineral is confirmed by single-crystal X-ray diffraction and chemical analysis.
##URL=rruff.info/R060038
##MEASURED CHEMISTRY=([box]_0.70_Na_0.21_K_0.09_)_Σ=1_(Na_1.40_Ca_0.60_)_Σ=2_(Mg_3.56_Fe^3+^_1.06_Fe^2+^_0.28_Al_0.08_Ti_0.01_)_Σ=5_(Si_7.96_Al_0.04_)_Σ=8.00_O_22_((OH)_1.85_F_0.15_)_Σ=2_
142.8907, 198.4764
143.3728, 198.6775
143.8550, 199.1407
144.3371, 199.7807
144.8192, 200.6480
145.3013, 201.6510
145.7834, 202.6360
146.2655, 203.6695
146.7477, 204.6116
147.2298, 205.3686
147.7119, 205.7173
148.1940, 206.4973
148.6761, 207.6973
149.1582, 209.3387
149.6404, 211.4189
150.1225, 214.2491
150.6046, 217.2215
151.0867, 220.1091
151.5688, 223.0958
152.0509, 225.7720
152.5331, 228.0437
153.0152, 230.0043
153.4973, 231.8705
153.9794, 234.3347
154.4615, 236.1668
154.9436, 236.8525
155.4258, 235.5509
155.9079, 234.0234
156.3900, 232.1729
156.8721, 230.1299
157.3542, 228.4870
157.8363, 227.2034
158.3185, 226.4555
158.8006, 226.3457
159.2827, 227.1032
159.7648, 228.2975
160.2469, 229.9693
160.7290, 232.0757
161.2112, 234.2215
161.6933, 236.4136
162.1754, 238.5389
162.6575, 240.5034
163.1396, 242.1341
163.6217, 243.7327
164.1039, 245.4472
164.5860, 247.2768
165.0681, 249.0510
165.5502, 250.3249
166.0323, 251.6069
166.5145, 253.4928
166.9966, 256.3160
167.4787, 259.7109
167.9608, 263.6358
168.4429, 268.1123
168.9250, 272.5535
169.4071, 276.9448
169.8893, 281.0283
170.3714, 284.4201
170.8535, 287.3932
171.3356, 289.3948
171.8177, 289.9457
172.2998, 288.9853
172.7820, 286.8230
173.2641, 283.4034
173.7462, 278.9407
174.2283, 273.8956
174.7104, 267.8759
175.1925, 261.5883
175.6747, 255.9210
176.1568, 250.9573
176.6389, 246.4380
177.1210, 242.0606
177.6031, 237.9125
178.0852, 234.2219
178.5674, 231.1639
179.0495, 228.6126
179.5316, 226.3572
180.0137, 224.4109
180.4958, 222.6371
180.9779, 220.7821
181.4601, 218.8917
181.9422, 217.2321
182.4243, 215.9914
182.9064, 215.1013
183.3885, 214.4361
183.8706, 214.0396
184.3528, 213.7351
184.8349, 213.1961
185.3170, 212.4520
185.7991, 211.7757
186.2812, 211.4874
186.7633, 211.4489
187.2455, 211.1201
187.7276, 210.2581
188.2097, 209.2668
188.6918, 208.9886
189.1739, 209.4230
189.6560, 209.9329
190.1382, 209.9430
190.6203, 209.5564
191.1024, 209.4725
191.5845, 209.9381
192.0666, 210.6808
192.5487, 210.9604
193.0309, 210.7350
193.5130, 210.5815
193.9951, 211.0460
194.4772, 212.1024
194.9593, 213.1405
195.4414, 214.0393
195.9236, 214.8501
196.4057, 215.7209
196.8878, 216.6620
197.3699, 217.5909
197.8520, 218.3864
198.3341, 219.0493
198.8163, 219.8044
199.2984, 220.6573
199.7805, 221.6420
200.2626, 222.9823
200.7447, 224.7321
201.2268, 226.6034
201.7090, 228.3234
202.1911, 229.8852
202.6732, 231.3696
203.1553, 232.7640
203.6374, 234.0882
204.1195, 235.4587
204.6017, 236.9302
205.0838, 238.3096
205.5659, 239.2800
206.0480, 239.7106
206.5301, 240.5134
207.0122, 242.0448
207.4944, 244.2088
207.9765, 245.8365
208.4586, 246.7632
208.9407, 247.4888
209.4228, 248.5898
209.9049, 250.2125
210.3871, 251.6223
210.8692, 252.5559
211.3513, 253.0379
211.8334, 253.7666
212.3155, 254.8279
212.7976, 255.9969
213.2798, 256.9868
213.7619, 257.6824
214.2440, 258.5858
214.7261, 259.9431
215.2082, 261.7519
215.6903, 263.0824
216.1725, 263.6653
216.6546, 264.1267
217.1367, 265.2332
217.6188, 267.3040
218.1009, 269.1939
218.5830, 270.5882
219.0651, 271.4615
219.5473, 272.4928
220.0294, 273.8608
220.5115, 275.1866
220.9936, 276.0205
221.4757, 276.2781
221.9578, 276.2419
222.4400, 275.9525
222.9221, 275.3940
223.4042, 274.7043
223.8863, 273.9228
224.3684, 272.9587
224.8505, 271.6699
225.3327, 269.9741
225.8148, 268.1578
226.2969, 266.2863
226.7790, 264.3317
227.2611, 262.4380
227.7432, 260.6684
228.2254, 258.8672
228.7075, 256.8305
229.1896, 254.3927
229.6717, 252.0235
230.1538, 249.8380
230.6359, 247.8749
231.1181, 245.7732
231.6002, 243.4271
232.0823, 241.0395
232.5644, 238.8435
233.0465, 236.8523
233.5286, 234.9804
234.0108, 233.2641
234.4929, 231.7135
234.9750, 229.9224
235.4571, 227.5855
235.9392, 225.3231
236.4213, 223.8605
236.9035, 223.7093
237.3856, 223.4297
237.8677, 222.6695
238.3498, 221.3756
238.8319, 220.2697
239.3140, 219.4372
239.7962, 218.7172
240.2783, 217.9326
240.7604, 217.0452
241.2425, 216.1553
241.7246, 215.1943
242.2067, 214.1252
242.6889, 213.5682
243.1710, 213.7782
243.6531, 214.2529
244.1352, 214.4855
244.6173, 214.2953
245.0994, 214.2052
245.5816, 214.3529
246.0637, 214.7436
246.5458, 215.0090
247.0279, 215.0343
247.5100, 215.0534
247.9921, 215.3011
248.4743, 215.9149
248.9564, 216.4915
249.4385, 216.9672
249.9206, 217.3447
250.4027, 217.6307
250.8848, 217.5226
251.3670, 217.6739
251.8491, 218.4298
252.3312, 219.7693
252.8133, 220.7601
253.2954, 221.4069
253.7775, 221.4683
254.2597, 221.6819
254.7418, 221.4653
255.2239, 220.9785
255.7060, 220.4601
256.1881, 219.2508
256.6702, 218.2018
257.1523, 216.7201
257.6345, 215.8843
258.1166, 214.9257
258.5987, 214.2217
259.0808, 213.5834
259.5629, 212.9052
260.0450, 212.2706
260.5272, 211.3799
261.0093, 210.0726
261.4914, 208.4684
261.9735, 207.2771
262.4556, 206.6510
262.9377, 206.1907
263.4199, 205.5673
263.9020, 204.5763
264.3841, 204.1297
264.8662, 204.5110
265.3483, 205.4584
265.8304, 206.0111
266.3126, 206.1453
266.7947, 205.9338
267.2768, 205.3018
267.7589, 204.0340
268.2410, 203.1794
268.7231, 202.9076
269.2053, 203.0317
269.6874, 202.9889
270.1695, 202.7133
270.6516, 202.4444
271.1337, 202.3006
271.6158, 202.2847
272.0980, 202.3671
272.5801, 202.5586
273.0622, 202.8271
273.5443, 203.1008
274.0264, 203.3720
274.5085, 203.6495
274.9907, 203.9690
275.4728, 204.3516
275.9549, 204.5467
276.4370, 204.5050
276.9191, 204.3333
277.4012, 204.1926
277.8834, 204.0704
278.3655, 204.0662
278.8476, 204.2755
279.3297, 204.7141
279.8118, 205.0540
280.2939, 205.2694
280.7761, 205.4493
281.2582, 205.7105
281.7403, 206.0567
282.2224, 206.4796
282.7045, 207.0126
283.1866, 207.6413
283.6688, 208.1787
284.1509, 208.6015
284.6330, 209.0006
285.1151, 209.5444
285.5972, 210.2288
286.0793, 210.7614
286.5615, 210.8744
287.0436, 210.7353
287.5257, 211.2333
288.0078, 212.4510
288.4899, 213.8553
288.9720, 214.9489
289.4542, 215.7490
289.9363, 216.4146
290.4184, 216.9017
290.9005, 217.3242
291.3826, 218.0454
291.8647, 219.0821
292.3469, 220.2193
292.8290, 221.3747
293.3111, 222.5025
293.7932, 223.4013
294.2753, 223.8946
294.7574, 224.2644
295.2396, 225.1326
295.7217, 226.4768
296.2038, 227.8436
296.6859, 228.8276
297.1680, 229.5478
297.6501, 230.3750
298.1323, 231.4574
298.6144, 232.5362
299.0965, 233.2880
299.5786, 233.7300
300.0607, 233.9358
300.5428, 233.8300
301.0250, 233.5509
301.5071, 233.3908
301.9892, 233.4474
302.4713, 233.4501
302.9534, 233.0926
303.4355, 232.4241
303.9177, 231.5939
304.3998, 230.5986
304.8819, 229.5324
305.3640, 228.5066
305.8461, 227.5032
306.3282, 226.6453
306.8104, 226.1045
307.2925, 225.7864
307.7746, 225.5070
308.2567, 225.1249
308.7388, 224.7803
309.2209, 224.6705
309.7031, 224.8213
310.1852, 224.8987
310.6673, 224.6179
311.1494, 224.1330
311.6315, 223.6635
312.1136, 223.0533
312.5958, 222.6640
313.0779, 222.7888
313.5600, 223.3993
314.0421, 224.1666
314.5242, 225.1196
315.0063, 226.0415
315.4885, 226.7112
315.9706, 226.8872
316.4527, 226.9783
316.9348, 227.1199
317.4169, 227.3191
317.8990, 227.6145
318.3812, 228.0864
318.8633, 228.6247
319.3454, 229.1604
319.8275, 229.7494
320.3096, 230.2385
320.7917, 230.5611
321.2739, 230.7586
321.7560, 230.9283
322.2381, 231.0236
322.7202, 231.1619
323.2023, 231.4121
323.6844, 231.8356
324.1666, 232.2470
324.6487, 232.6033
325.1308, 232.9256
325.6129, 233.2442
326.0950, 233.4710
326.5771, 233.7716
327.0593, 234.2037
327.5414, 234.7929
328.0235, 235.3990
328.5056, 235.9991
328.9877, 236.6116
329.4698, 237.2482
329.9520, 238.0045
330.4341, 238.6734
330.9162, 239.1662
331.3983, 239.4736
331.8804, 239.9346
332.3625, 240.5974
332.8447, 241.3722
333.3268, 242.2240
333.8089, 243.3161
334.2910, 244.1990
334.7731, 244.7898
335.2552, 245.1351
335.7374, 245.4808
336.2195, 245.9077
336.7016, 246.2090
337.1837, 246.2288
337.6658, 245.8479
338.1479, 245.5819
338.6301, 245.4929
339.1122, 245.5014
339.5943, 245.4130
340.0764, 245.1850
340.5585, 244.9929
341.0406, 244.9396
341.5227, 245.0350
342.0049, 245.0561
342.4870, 244.9653
342.9691, 244.8773
343.4512, 244.9262
343.9333, 245.1098
344.4154, 245.5034
344.8976, 246.2211
345.3797, 247.1819
345.8618, 247.9509
346.3439, 248.5315
346.8260, 248.9538
347.3081, 249.1438
347.7903, 249.1541
348.2724, 249.3353
348.7545, 249.7560
349.2366, 250.4179
349.7187, 251.4659
350.2008, 252.8786
350.6830, 254.1822
351.1651, 254.8734
351.6472, 255.2106
352.1293, 255.7909
352.6114, 256.7438
353.0935, 257.8613
353.5757, 258.9442
354.0578, 260.0020
354.5399, 261.0831
355.0220, 262.0382
355.5041, 263.1102
355.9862, 264.6629
356.4684, 266.7634
356.9505, 268.9586
357.4326, 270.9532
357.9147, 272.7924
358.3968, 274.5425
358.8789, 275.9850
359.3611, 277.5499
359.8432, 279.5595
360.3253, 282.0175
360.8074, 284.6567
361.2895, 287.4776
361.7716, 290.3732
362.2538, 293.2383
362.7359, 295.7469
363.2180, 298.5542
363.7001, 301.8744
364.1822, 305.7015
364.6643, 309.9164
365.1465, 314.7153
365.6286, 319.7682
366.1107, 324.9407
366.5928, 330.3914
367.0749, 335.6466
367.5570, 340.6264
368.0392, 345.4019
368.5213, 350.1133
369.0034, 354.9565
369.4855, 359.4916
369.9676, 363.7959
370.4497, 368.0350
370.9319, 370.9742
371.4140, 372.5441
371.8961, 372.8336
372.3782, 371.9282
372.8603, 369.8753
373.3424, 366.5273
373.8246, 361.5530
374.3067, 355.1652
374.7888, 348.7080
375.2709, 342.1678
375.7530, 335.5824
376.2351, 328.8102
376.7173, 321.7556
377.1994, 315.0836
377.6815, 308.6888
378.1636, 302.7708
378.6457, 298.0150
379.1278, 294.5374
379.6100, 291.3809
380.0921, 287.9876
380.5742, 284.4010
381.0563, 281.3782
381.5384, 278.9604
382.0205, 276.9621
382.5027, 275.2391
382.9848, 273.7700
383.4669, 272.5270
383.9490, 271.4739
384.4311, 270.6347
384.9132, 270.0917
385.3954, 269.8390
385.8775, 269.7377
386.3596, 269.6175
386.8417, 269.5723
387.3238, 269.8592
387.8059, 270.6647
388.2881, 271.5379
388.7702, 272.0642
389.2523, 272.2620
389.7344, 272.1887
390.2165, 271.8126
390.6986, 271.2137
391.1808, 270.3972
391.6629, 269.3196
392.1450, 268.3190
392.6271, 267.9995
393.1092, 267.7911
393.5913, 266.9475
394.0735, 264.7346
394.5556, 262.2426
395.0377, 259.9895
395.5198, 257.9516
396.0019, 255.7361
396.4840, 252.9198
396.9662, 250.0711
397.4483, 247.5657
397.9304, 245.6053
398.4125, 243.7966
398.8946, 242.1464
399.3767, 240.6065
399.8589, 239.0611
400.3410, 237.4109
400.8231, 235.8319
401.3052, 234.3593
401.7873, 232.9899
402.2694, 231.7129
402.7516, 230.3998
403.2337, 229.2716
403.7158, 228.6134
404.1979, 228.6427
404.6800, 228.6915
405.1621, 228.6915
405.6443, 228.6234
406.1264, 228.2820
406.6085, 227.5472
407.0906, 226.8605
407.5727, 226.5292
408.0548, 226.5713
408.5370, 226.7972
409.0191, 227.2599
409.5012, 227.7696
409.9833, 227.9067
410.4654, 227.6739
410.9475, 227.5091
411.4297, 227.5914
411.9118, 227.9004
412.3939, 228.4483
412.8760, 229.2435
413.3581, 230.0366
413.8402, 230.6293
414.3224, 231.0280
414.8045, 231.2580
415.2866, 231.3003
415.7687, 231.2118
416.2508, 231.0427
416.7329, 230.7977
417.2151, 230.4910
417.6972, 230.0979
418.1793, 229.6661
418.6614, 229.2364
419.1435, 228.8234
419.6256, 228.3975
420.1078, 227.9698
420.5899, 227.5159
421.0720, 226.9835
421.5541, 226.1698
422.0362, 225.4517
422.5183, 225.0526
423.0005, 224.9729
423.4826, 224.7725
423.9647, 224.2544
424.4468, 223.6403
424.9289, 223.0843
425.4110, 222.5342
425.8932, 222.1174
426.3753, 221.8293
426.8574, 221.6748
427.3395, 221.6858
427.8216, 222.0486
428.3037, 222.3138
428.7859, 222.2609
429.2680, 221.7953
429.7501, 221.6905
430.2322, 222.1179
430.7143, 222.6557
431.1964, 222.7813
431.6786, 222.3807
432.1607, 222.1993
432.6428, 222.4959
433.1249, 223.0491
433.6070, 223.1056
434.0891, 222.6369
434.5713, 222.0419
435.0534, 221.5820
435.5355, 221.2249
436.0176, 220.7809
436.4997, 220.2258
436.9818, 219.6457
437.4640, 219.2143
437.9461, 218.8535
438.4282, 218.3045
438.9103, 217.2246
439.3924, 216.0507
439.8745, 215.3407
440.3566, 215.0639
440.8387, 214.9238
441.3209, 214.8099
441.8030, 214.6921
442.2851, 214.5598
442.7672, 214.4670
443.2493, 214.2205
443.7314, 213.5481
444.2136, 212.6661
444.6957, 211.9845
445.1778, 211.6908
445.6599, 211.5615
446.1420, 211.5796
446.6241, 211.7642
447.1063, 211.8120
447.5884, 211.5908
448.0705, 211.2689
448.5526, 210.9713
449.0347, 210.6750
449.5168, 210.4371
449.9990, 210.2851
450.4811, 210.1884
450.9632, 210.0632
451.4453, 209.9015
451.9274, 209.7239
452.4095, 209.5055
452.8917, 209.2342
453.3738, 209.1677
453.8559, 209.3774
454.3380, 209.6286
454.8201, 209.5893
455.3022, 209.2558
455.7844, 209.1672
456.2665, 209.5520
456.7486, 210.1328
457.2307, 210.1956
457.7128, 209.7870
458.1949, 209.5235
458.6771, 210.0228
459.1592, 210.8987
459.6413, 211.3287
460.1234, 211.2160
460.6055, 210.9706
461.0876, 210.8147
461.5698, 210.7969
462.0519, 211.0022
462.5340, 211.7624
463.0161, 212.4772
463.4982, 212.5886
463.9803, 212.2591
464.4625, 212.2088
464.9446, 213.0838
465.4267, 214.0836
465.9088, 214.7038
466.3909, 214.7495
466.8730, 214.7988
467.3552, 214.8763
467.8373, 215.0472
468.3194, 215.3983
468.8015, 216.1701
469.2836, 216.8253
469.7657, 217.1708
470.2479, 217.2661
470.7300, 217.7105
471.2121, 218.6714
471.6942, 219.7122
472.1763, 220.6583
472.6584, 221.5580
473.1406, 222.0443
473.6227, 222.0495
474.1048, 221.7354
474.5869, 221.1857
475.0690, 220.3921
475.5511, 219.9886
476.0333, 220.4043
476.5154, 221.2300
476.9975, 221.3560
477.4796, 220.8096
477.9617, 220.1267
478.4438, 219.5977
478.9260, 219.2279
479.4081, 219.0783
479.8902, 219.2064
480.3723, 219.3271
480.8544, 219.2433
481.3365, 218.9726
481.8187, 218.5469
482.3008, 217.9335
482.7829, 217.2058
483.2650, 216.2528
483.7471, 215.1351
484.2292, 214.3201
484.7114, 214.2985
485.1935, 214.3794
485.6756, 214.1376
486.1577, 213.3175
486.6398, 212.6028
487.1219, 212.0914
487.6041, 211.6985
488.0862, 211.3228
488.5683, 210.8801
489.0504, 210.5907
489.5325, 210.5593
490.0146, 210.7398
490.4968, 210.7537
490.9789, 210.5330
491.4610, 210.3176
491.9431, 210.2986
492.4252, 210.4818
492.9073, 210.5044
493.3895, 210.3071
493.8716, 210.0738
494.3537, 210.0907
494.8358, 210.3152
495.3179, 210.4780
495.8000, 210.3714
496.2822, 210.2541
496.7643, 210.5800
497.2464, 211.2945
497.7285, 212.0621
498.2106, 212.8977
498.6927, 213.5613
499.1749, 213.6643
499.6570, 213.0019
500.1391, 212.5783
500.6212, 213.1123
501.1033, 214.1204
501.5854, 215.0437
502.0676, 215.6189
502.5497, 216.1853
503.0318, 216.9144
503.5139, 217.7471
503.9960, 218.3450
504.4781, 218.2918
504.9603, 218.4100
505.4424, 219.0621
505.9245, 220.4383
506.4066, 221.6159
506.8887, 222.6225
507.3708, 223.4009
507.8530, 223.8006
508.3351, 223.7108
508.8172, 223.8669
509.2993, 224.4431
509.7814, 225.2944
510.2635, 226.0569
510.7457, 226.7374
511.2278, 227.5012
511.7099, 228.5785
512.1920, 229.7807
512.6741, 230.6062
513.1563, 231.0334
513.6384, 231.4623
514.1205, 232.2159
514.6026, 233.1930
515.0847, 234.2912
515.5668, 235.6314
516.0490, 236.7925
516.5311, 237.3749
517.0132, 237.5981
517.4953, 237.9033
517.9774, 238.6245
518.4595, 239.2949
518.9417, 239.7135
519.4238, 239.8637
519.9059, 239.9657
520.3880, 239.8541
520.8701, 239.8474
521.3522, 240.1432
521.8344, 240.9815
522.3165, 241.5939
522.7986, 241.7870
523.2807, 241.9140
523.7628, 242.6347
524.2449, 244.0939
524.7271, 245.3804
525.2092, 246.1207
525.6913, 246.5283
526.1734, 247.4342
526.6555, 248.8462
527.1376, 250.4114
527.6198, 251.8790
528.1019, 253.2983
528.5840, 254.7573
529.0661, 256.2284
529.5482, 257.9146
530.0303, 260.1945
530.5125, 262.7555
530.9946, 265.1642
531.4767, 267.0735
531.9588, 268.9418
532.4409, 270.9727
532.9230, 273.1325
533.4052, 275.3925
533.8873, 277.6222
534.3694, 280.0329
534.8515, 282.8324
535.3336, 286.2311
535.8157, 289.0435
536.2979, 291.2274
536.7800, 292.8946
537.2621, 294.0816
537.7442, 294.6347
538.2263, 295.1494
538.7084, 295.6686
539.1906, 296.1812
539.6727, 296.7671
540.1548, 297.4785
540.6369, 297.7740
541.1190, 297.5310
541.6011, 296.7106
542.0833, 294.9642
542.5654, 292.3312
543.0475, 289.6636
543.5296, 287.6918
544.0117, 286.0486
544.4938, 284.1684
544.9760, 281.9436
545.4581, 279.5883
545.9402, 277.1988
546.4223, 274.7810
546.9044, 272.3439
547.3865, 269.8055
547.8687, 267.3315
548.3508, 264.9188
548.8329, 262.6034
549.3150, 260.5015
549.7971, 258.8168
550.2792, 257.1692
550.7614, 255.3571
551.2435, 253.3518
551.7256, 251.8616
552.2077, 251.1760
552.6898, 250.5972
553.1719, 249.5090
553.6541, 247.8124
554.1362, 246.4630
554.6183, 245.6162
555.1004, 244.9766
555.5825, 244.0648
556.0646, 242.9226
556.5468, 241.8835
557.0289, 241.1048
557.5110, 240.4603
557.9931, 239.7955
558.4752, 239.1004
558.9573, 238.3554
559.4395, 237.4997
559.9216, 236.6094
560.4037, 235.7302
560.8858, 234.8648
561.3679, 234.0367
561.8500, 233.3115
562.3322, 232.6024
562.8143, 231.8231
563.2964, 230.7345
563.7785, 229.8796
564.2606, 229.4223
564.7427, 229.1843
565.2249, 228.8006
565.7070, 228.1503
566.1891, 227.6322
566.6712, 227.4236
567.1533, 227.4548
567.6354, 227.1729
568.1176, 226.5145
568.5997, 225.9266
569.0818, 225.7801
569.5639, 225.9704
570.0460, 226.0824
570.5281, 226.0887
571.0103, 226.0125
571.4924, 225.8389
571.9745, 225.6062
572.4566, 225.3690
572.9387, 225.1053
573.4208, 224.9091
573.9030, 224.9595
574.3851, 225.1177
574.8672, 225.0794
575.3493, 224.4228
575.8314, 223.8605
576.3135, 223.7527
576.7957, 224.1087
577.2778, 224.2200
577.7599, 223.8938
578.2420, 223.5121
578.7241, 223.2712
579.2062, 223.1986
579.6884, 223.1455
580.1705, 223.1030
580.6526, 223.0985
581.1347, 223.2015
581.6168, 223.4074
582.0989, 223.5080
582.5811, 223.4060
583.0632, 223.2818
583.5453, 223.5462
584.0274, 224.0716
584.5095, 224.3780
584.9916, 224.0342
585.4738, 223.4894
585.9559, 223.2237
586.4380, 223.1951
586.9201, 222.9818
587.4022, 222.0770
587.8843, 221.1417
588.3664, 220.6649
588.8485, 220.9269
589.3306, 220.9368
589.8127, 220.3955
590.2949, 219.6584
590.7770, 219.0684
591.2591, 218.8440
591.7412, 218.2095
592.2233, 216.9025
592.7054, 215.3091
593.1876, 214.3372
593.6697, 214.0407
594.1518, 213.7035
594.6339, 213.0206
595.1160, 212.1431
595.5981, 211.4669
596.0803, 210.9739
596.5624, 210.4880
597.0445, 209.8184
597.5266, 209.1170
598.0087, 208.5966
598.4908, 208.2762
598.9730, 208.0189
599.4551, 207.6848
599.9372, 207.4077
600.4193, 207.3274
600.9014, 207.7383
601.3835, 207.9466
601.8657, 207.7098
602.3478, 207.2536
602.8299, 206.9120
603.3120, 206.7736
603.7941, 206.5757
604.2762, 206.2383
604.7584, 205.8087
605.2405, 205.4470
605.7226, 205.1496
606.2047, 204.9468
606.6868, 204.8868
607.1689, 204.9333
607.6511, 204.9603
608.1332, 204.9685
608.6153, 204.9816
609.0974, 205.0963
609.5795, 205.1977
610.0616, 205.0824
610.5438, 204.6304
611.0259, 204.2767
611.5080, 204.3666
611.9901, 204.6486
612.4722, 204.8253
612.9543, 204.6787
613.4365, 204.5955
613.9186, 204.6399
614.4007, 204.7876
614.8828, 205.0170
615.3649, 205.4317
615.8470, 205.6871
616.3292, 205.5613
616.8113, 205.1619
617.2934, 205.3955
617.7755, 206.3581
618.2576, 207.1674
618.7397, 207.0050
619.2219, 206.2460
619.7040, 206.0130
620.1861, 206.3983
620.6682, 206.7872
621.1503, 206.5375
621.6324, 206.0353
622.1146, 205.7732
622.5967, 205.9726
623.0788, 206.1995
623.5609, 206.2746
624.0430, 206.2653
624.5251, 206.2663
625.0073, 206.2654
625.4894, 206.3176
625.9715, 206.4492
626.4536, 206.6380
626.9357, 206.8149
627.4178, 206.9769
627.9000, 207.1280
628.3821, 207.2576
628.8642, 207.3726
629.3463, 207.5184
629.8284, 207.6905
630.3105, 207.9041
630.7927, 208.1777
631.2748, 208.4943
631.7569, 208.8523
632.2390, 209.2591
632.7211, 209.5975
633.2032, 209.7626
633.6854, 209.8220
634.1675, 209.8384
634.6496, 209.7843
