##NAMES=Ferrowyllieite
##RRUFFID=R060178
##IDEAL CHEMISTRY=NaNaFe^2+^(Fe^2+^Al)(PO_4_)_3_
##LOCALITY=Victory mine, Custer County, South Dakota, USA
##OWNER=RRUFF
##SOURCE=Marcus Origlieri
##DESCRIPTION=Dark gray massive associated with muscovite
##STATUS=The identification of this mineral has been confirmed by X-ray diffraction and chemical analysis
##URL=rruff.info/R060178
##MEASURED CHEMISTRY=(Na_1.30_[box]_0.35_Mn^2+^_0.27_Ca_0.08_)_2_(Fe^2+^_1.78_Mg_0.22_)_Σ=2_(Al_0.75_Fe^3+^_0.25_)_Σ=1_(P_1.00_O_4_)_3_
90.26367, 17.87737
90.74579, 17.59124
91.22791, 17.77604
91.71002, 18.36803
92.19214, 18.79989
92.67426, 18.44634
93.15637, 17.54965
93.63850, 16.75764
94.12061, 16.27730
94.60273, 16.03931
95.08485, 15.95162
95.56696, 16.04095
96.04908, 16.10567
96.53120, 15.81609
97.01331, 15.19878
97.49543, 14.68869
97.97755, 14.59518
98.45966, 14.88309
98.94178, 14.80213
99.42390, 14.20860
99.90602, 13.44695
100.3881, 13.23464
100.8703, 13.71946
101.3524, 14.22875
101.8345, 14.37127
102.3166, 14.01793
102.7987, 13.87513
103.2808, 14.11734
103.7630, 14.60119
104.2451, 14.64674
104.7272, 13.99600
105.2093, 13.24825
105.6914, 12.79438
106.1735, 12.80873
106.6557, 12.82776
107.1378, 12.81338
107.6199, 12.76593
108.1020, 12.66295
108.5841, 12.46804
109.0662, 12.23581
109.5484, 12.01292
110.0305, 11.73805
110.5126, 11.53064
110.9947, 11.47367
111.4768, 11.64399
111.9590, 11.60546
112.4411, 11.09466
112.9232, 10.40613
113.4053, 9.933801
113.8874, 9.775286
114.3695, 9.814637
114.8517, 10.08291
115.3338, 10.75496
115.8159, 11.21085
116.2980, 11.03162
116.7801, 10.49933
117.2622, 10.23006
117.7444, 10.73097
118.2265, 11.40521
118.7086, 11.84628
119.1907, 11.85746
119.6728, 11.79720
120.1549, 11.83415
120.6371, 11.95806
121.1192, 12.12813
121.6013, 12.38054
122.0834, 12.64552
122.5655, 12.81254
123.0477, 12.44732
123.5298, 12.32171
124.0119, 13.44650
124.4940, 15.73256
124.9761, 17.92966
125.4582, 18.91868
125.9404, 19.09757
126.4225, 19.23271
126.9046, 19.44842
127.3867, 19.85520
127.8688, 20.78526
128.3509, 22.29328
128.8331, 23.79166
129.3152, 24.53275
129.7973, 24.65046
130.2794, 24.80018
130.7615, 25.30514
131.2436, 26.08511
131.7258, 26.87329
132.2079, 27.66290
132.6900, 28.45135
133.1721, 29.15046
133.6542, 29.75422
134.1364, 30.57534
134.6185, 31.89996
135.1006, 33.71144
135.5827, 35.38594
136.0648, 36.87914
136.5469, 38.22876
137.0291, 39.54832
137.5112, 40.85447
137.9933, 42.02431
138.4754, 42.97352
138.9575, 43.67031
139.4396, 44.28762
139.9218, 44.82045
140.4039, 45.28564
140.8860, 45.76247
141.3681, 46.27082
141.8502, 46.74966
142.3323, 47.07513
142.8145, 47.05659
143.2966, 47.42037
143.7787, 48.51361
144.2608, 50.32027
144.7429, 51.23825
145.2251, 50.70173
145.7072, 49.79356
146.1893, 49.54085
146.6714, 50.25842
147.1535, 51.16478
147.6356, 52.17612
148.1178, 53.32554
148.5999, 54.32707
149.0820, 55.01725
149.5641, 55.62442
150.0462, 56.41198
150.5283, 57.67408
151.0105, 58.81333
151.4926, 59.07397
151.9747, 58.68431
152.4568, 58.68927
152.9389, 59.60297
153.4210, 60.80050
153.9032, 61.41710
154.3853, 61.00312
154.8674, 60.33394
155.3495, 59.58391
155.8316, 58.56345
156.3138, 57.91529
156.7959, 57.87739
157.2780, 58.25477
157.7601, 58.68366
158.2422, 59.35486
158.7243, 59.86267
159.2065, 59.97926
159.6886, 59.40253
160.1707, 58.91088
160.6528, 58.73056
161.1349, 58.80028
161.6170, 58.96327
162.0992, 59.61953
162.5813, 60.07868
163.0634, 59.82112
163.5455, 58.07196
164.0276, 56.49594
164.5097, 55.90444
164.9919, 56.12733
165.4740, 56.51708
165.9561, 56.91920
166.4382, 57.27110
166.9203, 57.51988
167.4025, 57.61757
167.8846, 57.64425
168.3667, 57.60896
168.8488, 57.52597
169.3309, 57.48821
169.8130, 57.52006
170.2952, 57.63734
170.7773, 57.86515
171.2594, 58.45945
171.7415, 58.98067
172.2236, 58.95320
172.7057, 58.41186
173.1879, 57.87157
173.6700, 57.77125
174.1521, 57.92217
174.6342, 58.00429
175.1163, 57.69617
175.5984, 57.35340
176.0806, 57.56399
176.5627, 58.33527
177.0448, 58.94693
177.5269, 58.54518
178.0090, 57.48009
178.4911, 56.57113
178.9733, 56.25776
179.4554, 56.29274
179.9375, 56.33949
180.4196, 56.40278
180.9017, 56.38332
181.3839, 56.06029
181.8660, 55.53436
182.3481, 55.15160
182.8302, 55.21581
183.3123, 55.52655
183.7944, 55.60584
184.2766, 55.41980
184.7587, 55.13027
185.2408, 54.89299
185.7229, 54.71069
186.2050, 54.58688
186.6871, 54.51611
187.1693, 54.50413
187.6514, 54.59219
188.1335, 54.79891
188.6156, 55.04811
189.0977, 55.24278
189.5798, 55.38263
190.0620, 55.49156
190.5441, 55.63169
191.0262, 55.77360
191.5083, 55.70088
191.9904, 55.35720
192.4725, 54.89674
192.9547, 54.55601
193.4368, 54.33282
193.9189, 54.20110
194.4010, 54.15841
194.8831, 54.20235
195.3652, 54.30035
195.8474, 54.46283
196.3295, 54.65919
196.8116, 54.79177
197.2937, 54.84193
197.7758, 54.99312
198.2579, 55.49951
198.7401, 56.37830
199.2222, 56.77144
199.7043, 56.50505
200.1864, 55.84650
200.6685, 55.35621
201.1507, 55.03774
201.6328, 54.88203
202.1149, 54.93348
202.5970, 55.21673
203.0791, 55.43679
203.5612, 55.53086
204.0434, 55.57428
204.5255, 55.83942
205.0076, 56.42767
205.4897, 56.89172
205.9718, 56.90765
206.4539, 56.39782
206.9361, 55.90365
207.4182, 55.45332
207.9003, 55.05954
208.3824, 54.74700
208.8645, 54.51348
209.3466, 54.36592
209.8288, 54.31366
210.3109, 54.36740
210.7930, 54.47460
211.2751, 54.65074
211.7572, 54.87162
212.2393, 55.04932
212.7215, 55.16271
213.2036, 55.27474
213.6857, 55.45569
214.1678, 55.77574
214.6499, 55.91518
215.1321, 55.79587
215.6142, 55.47892
216.0963, 55.23166
216.5784, 55.06953
217.0605, 54.94775
217.5426, 54.81705
218.0248, 54.62027
218.5069, 54.60450
218.9890, 54.88858
219.4711, 55.37527
219.9532, 55.57845
220.4353, 55.35455
220.9175, 55.08739
221.3996, 55.03445
221.8817, 55.30614
222.3638, 55.50764
222.8459, 55.60389
223.3280, 55.60215
223.8102, 55.51591
224.2923, 55.26739
224.7744, 55.05006
225.2565, 55.03606
225.7386, 55.43373
226.2208, 55.50806
226.7029, 55.05346
227.1850, 54.20134
227.6671, 53.64272
228.1492, 53.39809
228.6313, 53.41589
229.1135, 53.74575
229.5956, 54.73409
230.0777, 55.24056
230.5598, 54.99351
231.0419, 54.17418
231.5240, 53.67301
232.0062, 53.59593
232.4883, 53.69279
232.9704, 53.83834
233.4525, 54.09876
233.9346, 54.25783
234.4167, 54.25447
234.8989, 54.13140
235.3810, 54.09632
235.8631, 54.21309
236.3452, 54.33240
236.8273, 54.38926
237.3095, 54.45124
237.7916, 54.27961
238.2737, 53.68402
238.7558, 52.83222
239.2379, 52.44428
239.7200, 52.74666
240.2022, 53.20554
240.6843, 53.56801
241.1664, 53.89657
241.6485, 53.98739
242.1306, 53.78658
242.6127, 53.34287
243.0949, 52.81092
243.5770, 52.01602
244.0591, 51.37501
244.5412, 51.16143
245.0233, 51.70274
245.5054, 51.91101
245.9876, 51.53330
246.4697, 50.83010
246.9518, 49.77379
247.4339, 50.77829
247.9160, 51.28100
248.3981, 51.30889
248.8803, 49.43977
249.3624, 50.02023
249.8445, 49.61902
250.3266, 49.17756
250.8087, 50.10279
251.2909, 48.50958
251.7730, 49.41314
252.2551, 49.32004
252.7372, 49.68308
253.2193, 49.05840
253.7014, 48.73879
254.1836, 49.40720
254.6657, 49.08237
255.1478, 48.67812
255.6299, 48.16866
256.1120, 47.91373
256.5941, 48.04763
257.0763, 47.97649
257.5584, 47.51199
258.0405, 46.96078
258.5226, 47.01664
259.0047, 48.02381
259.4868, 48.92939
259.9690, 49.30777
260.4511, 49.05091
260.9332, 48.74021
261.4153, 48.30786
261.8974, 47.87698
262.3795, 47.73108
262.8617, 48.08599
263.3438, 48.19459
263.8259, 47.67992
264.3080, 46.39373
264.7901, 45.58141
265.2722, 45.35041
265.7544, 45.46320
266.2365, 45.65006
266.7186, 45.99798
267.2007, 46.14454
267.6829, 45.88887
268.1650, 45.18910
268.6471, 44.81144
269.1292, 44.85115
269.6113, 45.05153
270.0934, 45.13258
270.5756, 45.11508
271.0577, 43.90587
271.5398, 45.17428
272.0219, 45.94091
272.5040, 46.23271
272.9861, 44.62754
273.4683, 45.47194
273.9504, 45.33465
274.4325, 45.15710
274.9146, 46.02486
275.3967, 45.73678
275.8788, 44.96161
276.3610, 44.43848
276.8431, 44.18153
277.3252, 44.14572
277.8073, 44.41335
278.2894, 45.03382
278.7715, 45.37720
279.2537, 45.25356
279.7358, 44.77447
280.2179, 44.38096
280.7000, 44.07048
281.1821, 43.85479
281.6642, 43.72748
282.1464, 43.68822
282.6285, 43.82174
283.1106, 44.22647
283.5927, 44.74235
284.0748, 44.89256
284.5569, 44.64434
285.0391, 44.32218
285.5212, 44.21027
286.0033, 44.27563
286.4854, 44.07813
286.9675, 43.45650
287.4496, 42.70870
287.9318, 42.49971
288.4139, 42.83677
288.8960, 43.21252
289.3781, 43.36591
289.8602, 43.31240
290.3424, 43.07247
290.8245, 42.58088
291.3066, 42.07648
291.7887, 41.99668
292.2708, 42.30160
292.7530, 42.62498
293.2351, 42.70388
293.7172, 42.64159
294.1993, 42.85868
294.6814, 43.45813
295.1635, 43.94423
295.6457, 43.56195
296.1278, 42.47392
296.6099, 41.36823
297.0920, 40.42826
297.5741, 39.72689
298.0562, 39.50808
298.5384, 39.79972
299.0205, 40.27160
299.5026, 40.76591
299.9847, 41.19972
300.4668, 41.35839
300.9489, 40.88605
301.4311, 40.22718
301.9132, 40.13825
302.3953, 40.59266
302.8774, 40.94139
303.3595, 40.47024
303.8416, 39.56250
304.3238, 38.88051
304.8059, 38.71852
305.2880, 38.80537
305.7701, 38.92329
306.2522, 39.06987
306.7343, 39.22371
307.2165, 39.48478
307.6986, 39.70775
308.1807, 39.68005
308.6628, 39.19854
309.1449, 38.69938
309.6270, 38.57671
310.1092, 38.72597
310.5913, 38.81581
311.0734, 38.58110
311.5555, 38.25092
312.0376, 38.00787
312.5197, 37.86278
313.0019, 37.86535
313.4840, 38.25073
313.9661, 38.79971
314.4482, 39.06900
314.9304, 38.58381
315.4125, 37.96530
315.8946, 37.59475
316.3767, 37.54712
316.8588, 37.58786
317.3409, 37.74949
317.8231, 37.90903
318.3052, 37.90444
318.7873, 37.30753
319.2694, 36.86841
319.7515, 37.01519
320.2336, 37.81799
320.7158, 38.47282
321.1979, 38.80775
321.6800, 38.86540
322.1621, 38.68102
322.6442, 37.83927
323.1263, 37.19054
323.6085, 37.05327
324.0906, 37.38990
324.5727, 37.57072
325.0548, 37.32637
325.5369, 37.01336
326.0190, 36.84755
326.5012, 36.97000
326.9833, 37.09600
327.4654, 37.17141
327.9475, 37.22564
328.4296, 36.95421
328.9117, 37.39135
329.3939, 37.61942
329.8760, 37.64964
330.3581, 36.88945
330.8402, 37.14991
331.3223, 37.00135
331.8044, 36.83601
332.2866, 37.24012
332.7687, 36.59489
333.2508, 36.98998
333.7329, 36.96979
334.2150, 37.13966
334.6971, 36.89798
335.1793, 36.78340
335.6614, 37.08052
336.1435, 36.64037
336.6256, 36.71506
337.1077, 36.82397
337.5899, 36.98078
338.0720, 37.17346
338.5541, 37.01098
339.0362, 36.31830
339.5183, 35.66057
340.0005, 35.69032
340.4826, 36.55209
340.9647, 37.05162
341.4468, 36.86609
341.9289, 36.24593
342.4110, 36.00838
342.8932, 36.18964
343.3753, 36.52529
343.8574, 36.92422
344.3395, 37.37214
344.8216, 37.55866
345.3037, 37.38096
345.7859, 37.07271
346.2680, 37.13191
346.7501, 37.52745
347.2322, 37.75474
347.7143, 37.34706
348.1964, 36.54622
348.6786, 36.17706
349.1607, 36.31147
349.6428, 36.60787
350.1249, 36.73208
350.6070, 36.70905
351.0891, 36.61219
351.5713, 36.31381
352.0534, 36.03696
352.5355, 36.26674
353.0176, 36.97601
353.4997, 37.53841
353.9818, 37.25105
354.4640, 36.54360
354.9461, 36.07781
355.4282, 36.13014
355.9103, 36.38448
356.3924, 36.22663
356.8745, 36.73520
357.3567, 37.03470
357.8388, 37.13635
358.3209, 36.44759
358.8030, 36.77948
359.2851, 36.70235
359.7672, 36.60844
360.2494, 37.08399
360.7315, 36.51020
361.2136, 36.62791
361.6957, 37.05589
362.1779, 37.27478
362.6600, 37.29584
363.1421, 36.52649
363.6242, 36.77778
364.1063, 36.62005
364.5884, 36.44555
365.0706, 36.84049
365.5527, 36.18610
366.0348, 36.40464
366.5169, 36.83369
366.9990, 37.76953
367.4811, 38.30176
367.9633, 37.85897
368.4454, 37.32278
368.9275, 37.20756
369.4096, 38.18605
369.8917, 38.65759
370.3738, 38.28780
370.8560, 37.40308
371.3381, 36.93873
371.8202, 37.21581
372.3023, 37.47016
372.7844, 37.35972
373.2665, 36.72455
373.7487, 36.39868
374.2308, 36.50387
374.7129, 36.79609
375.1950, 36.97260
375.6771, 37.04458
376.1592, 36.95523
376.6414, 36.62815
377.1235, 36.10034
377.6056, 35.74166
378.0877, 35.57546
378.5698, 35.49199
379.0519, 35.41365
379.5341, 35.34150
380.0162, 35.24190
380.4983, 35.11366
380.9804, 34.95008
381.4625, 34.67289
381.9446, 34.28347
382.4268, 34.04163
382.9089, 34.29381
383.3910, 34.83504
383.8731, 34.91975
384.3553, 34.41407
384.8374, 33.81883
385.3195, 33.76472
385.8016, 34.10946
386.2837, 34.43422
386.7658, 34.65902
387.2480, 34.70777
387.7301, 34.34842
388.2122, 33.60367
388.6943, 32.96144
389.1764, 32.93819
389.6585, 33.18163
390.1407, 33.22570
390.6228, 32.74749
391.1049, 32.31525
391.5870, 32.46734
392.0691, 33.00143
392.5512, 33.30812
393.0334, 32.79383
393.5155, 32.18122
393.9976, 31.93615
394.4797, 32.18654
394.9618, 32.58372
395.4439, 33.30062
395.9261, 34.02166
396.4082, 34.32616
396.8903, 33.47385
397.3724, 32.84585
397.8545, 33.05783
398.3366, 34.17078
398.8188, 34.69923
399.3009, 33.37150
399.7830, 34.17884
400.2651, 34.77712
400.7472, 35.17754
401.2293, 34.78757
401.7115, 35.41830
402.1936, 34.74765
402.6757, 34.55972
403.1578, 35.07166
403.6399, 35.53468
404.1220, 35.58303
404.6042, 35.11059
405.0863, 34.84661
405.5684, 34.81961
406.0505, 34.95833
406.5326, 35.20908
407.0147, 35.59233
407.4969, 35.94024
407.9790, 36.21126
408.4611, 36.41458
408.9432, 36.59383
409.4254, 36.75140
409.9075, 36.85064
410.3896, 36.81858
410.8717, 36.69172
411.3538, 36.65874
411.8359, 36.78846
412.3181, 36.91699
412.8002, 36.76587
413.2823, 36.39713
413.7644, 36.04870
414.2465, 35.88301
414.7286, 35.79444
415.2108, 35.59944
415.6929, 35.28609
416.1750, 35.05875
416.6571, 35.18227
417.1392, 35.45620
417.6213, 35.60982
418.1035, 35.44324
418.5856, 35.24835
419.0677, 34.94737
419.5498, 34.29659
420.0319, 34.64557
420.5140, 34.78547
420.9962, 34.72750
421.4783, 33.87914
421.9604, 34.05145
422.4425, 33.81471
422.9246, 33.56121
423.4067, 33.87716
423.8889, 33.14375
424.3710, 33.45066
424.8531, 33.29296
425.3352, 33.37049
425.8173, 33.63284
426.2994, 33.83344
426.7816, 34.04609
427.2637, 34.11973
427.7458, 33.91462
428.2279, 33.22350
428.7100, 32.75518
429.1921, 32.59493
429.6743, 32.65744
430.1564, 32.78789
430.6385, 33.02241
431.1206, 33.18184
431.6028, 33.12034
432.0849, 32.85654
432.5670, 32.88750
433.0491, 33.26409
433.5312, 33.72889
434.0133, 34.04512
434.4955, 34.21944
434.9776, 34.28334
435.4597, 34.20846
435.9418, 34.07379
436.4239, 33.98044
436.9060, 33.93735
437.3882, 33.99615
437.8703, 34.24702
438.3524, 34.59951
438.8345, 34.97851
439.3166, 35.40470
439.7987, 35.65844
440.2809, 35.39050
440.7630, 34.86707
441.2451, 34.50595
441.7272, 34.43418
442.2093, 34.59703
442.6914, 35.08125
443.1736, 35.83303
443.6557, 36.50639
444.1378, 37.00980
444.6199, 37.37349
445.1020, 37.59133
445.5841, 37.54062
446.0663, 37.58334
446.5484, 37.75249
447.0305, 38.04711
447.5126, 38.47960
447.9947, 39.37209
448.4768, 39.99389
448.9590, 40.01978
449.4411, 39.42751
449.9232, 39.41088
450.4053, 40.27612
450.8874, 41.27456
451.3695, 41.79967
451.8517, 41.70391
452.3338, 41.82955
452.8159, 42.34124
453.2980, 43.00316
453.7801, 43.28687
454.2622, 43.16138
454.7444, 43.07996
455.2265, 43.30992
455.7086, 43.75966
456.1907, 44.01495
456.6729, 44.06859
457.1550, 44.05902
457.6371, 44.07076
458.1192, 44.12067
458.6013, 44.24680
459.0834, 44.44880
459.5656, 44.74640
460.0477, 45.21084
460.5298, 45.79957
461.0119, 46.36150
461.4940, 46.81438
461.9761, 47.22563
462.4583, 47.65144
462.9404, 48.10289
463.4225, 48.53138
463.9046, 48.71250
464.3867, 48.95689
464.8688, 49.55294
465.3510, 51.13308
465.8331, 52.43841
466.3152, 53.07756
466.7973, 53.21127
467.2794, 53.41925
467.7615, 53.85171
468.2437, 54.25598
468.7258, 54.54572
469.2079, 54.69615
469.6900, 54.81630
470.1721, 54.82692
470.6542, 54.89288
471.1364, 55.23008
471.6185, 55.93133
472.1006, 56.53829
472.5827, 56.97490
473.0648, 57.26332
473.5469, 57.49960
474.0291, 57.69574
474.5112, 57.70190
474.9933, 57.22517
475.4754, 56.44310
475.9575, 56.26570
476.4396, 56.80424
476.9218, 57.33131
477.4039, 56.95639
477.8860, 55.97601
478.3681, 55.07232
478.8503, 54.44870
479.3324, 54.00546
479.8145, 53.72766
480.2966, 53.56681
480.7787, 53.35876
481.2608, 52.99293
481.7430, 52.56153
482.2251, 52.10658
482.7072, 51.61865
483.1893, 51.19297
483.6714, 50.57546
484.1535, 49.78349
484.6357, 49.95596
485.1178, 49.91943
485.5999, 49.68504
486.0820, 48.66026
486.5641, 48.65613
487.0462, 48.24295
487.5284, 47.81293
488.0105, 47.95245
488.4926, 47.04262
488.9747, 47.17311
489.4568, 46.88832
489.9389, 46.79358
490.4211, 46.28723
490.9032, 45.90807
491.3853, 45.94057
491.8674, 45.74515
492.3495, 45.19149
492.8316, 44.82722
493.3138, 44.58806
493.7959, 44.27001
494.2780, 43.97295
494.7601, 43.75489
495.2422, 43.59874
495.7243, 43.52671
496.2065, 43.54499
496.6886, 43.46751
497.1707, 43.05883
497.6528, 42.48655
498.1349, 41.97964
498.6170, 41.61994
499.0992, 41.30814
499.5813, 40.92120
500.0634, 40.53553
500.5455, 40.33326
501.0276, 40.75267
501.5097, 41.02874
501.9919, 40.75096
502.4740, 39.78538
502.9561, 39.04749
503.4382, 38.74834
503.9203, 38.58989
504.4025, 38.36290
504.8846, 37.97579
505.3667, 37.74779
505.8488, 37.87459
506.3309, 38.06212
506.8130, 37.54739
507.2952, 36.13415
507.7773, 34.91383
508.2594, 34.38568
508.7415, 34.41362
509.2236, 34.17961
509.7057, 33.66733
510.1879, 33.10420
510.6700, 32.65875
511.1521, 32.30883
511.6342, 31.96914
512.1163, 31.61423
512.5984, 31.32448
513.0806, 31.24655
513.5627, 31.29593
514.0448, 31.29601
514.5269, 31.11767
515.0090, 30.90611
515.4911, 30.79795
515.9733, 30.76530
516.4554, 30.62387
516.9375, 30.30878
517.4196, 29.85761
517.9017, 29.23784
518.3839, 28.25430
518.8660, 27.57534
519.3481, 27.64764
519.8302, 27.88808
520.3123, 27.65191
520.7944, 26.57164
521.2766, 25.68443
521.7587, 25.17210
522.2408, 24.96616
522.7229, 24.80811
523.2050, 24.71864
523.6871, 24.60239
524.1693, 24.43711
524.6514, 24.21898
525.1335, 23.81863
525.6156, 23.21206
526.0977, 22.56948
526.5798, 21.92788
527.0620, 21.37123
527.5441, 20.83283
528.0262, 21.24796
528.5083, 21.45400
528.9904, 21.46220
529.4725, 20.68000
529.9547, 20.91842
530.4368, 20.74784
530.9189, 20.56048
531.4010, 20.94257
531.8831, 20.27532
532.3652, 20.64839
532.8474, 20.60617
533.3295, 20.75401
533.8116, 20.49031
534.2937, 20.35372
534.7758, 20.62882
535.2579, 20.67597
535.7401, 20.29055
536.2222, 19.98797
536.7043, 20.42215
537.1865, 20.66385
537.6686, 20.72435
538.1507, 20.01105
538.6328, 20.33502
539.1149, 20.26659
539.5970, 20.19799
540.0792, 20.71550
540.5613, 20.20026
541.0434, 20.74196
541.5255, 20.88501
542.0076, 21.23474
542.4897, 21.18952
542.9719, 21.28809
543.4540, 21.81491
543.9361, 22.13042
544.4182, 22.10432
544.9003, 22.56586
545.3824, 22.20244
545.8646, 22.89864
546.3467, 23.20558
546.8288, 23.41456
547.3109, 23.53275
547.7930, 23.55946
548.2751, 23.61074
548.7573, 23.57838
549.2394, 23.67621
549.7215, 24.05700
550.2036, 25.00195
550.6857, 25.57202
551.1678, 25.61539
551.6500, 25.44012
552.1321, 25.47165
552.6142, 25.73854
553.0963, 26.02019
553.5784, 26.24839
554.0605, 26.47378
554.5427, 26.91877
555.0248, 27.56306
555.5069, 28.03639
555.9890, 27.88999
556.4711, 27.49581
556.9532, 27.58553
557.4354, 28.18490
557.9175, 28.79173
558.3996, 28.98606
558.8817, 28.99881
559.3638, 29.07837
559.8459, 29.29905
560.3281, 29.55769
560.8102, 29.95951
561.2923, 30.33962
561.7744, 30.43446
562.2565, 29.65033
562.7386, 29.18555
563.2208, 29.45665
563.7029, 30.32609
564.1850, 30.82133
564.6671, 30.73894
565.1492, 30.63619
565.6313, 30.81215
566.1135, 31.29462
566.5956, 31.68751
567.0777, 32.01179
567.5598, 32.16190
568.0419, 31.85446
568.5240, 31.21723
569.0062, 30.93567
569.4883, 31.23294
569.9704, 31.72421
570.4525, 31.99449
570.9346, 32.07450
571.4167, 32.03401
571.8989, 31.66657
572.3810, 31.38866
572.8631, 31.66024
573.3452, 32.37091
573.8273, 32.78622
574.3094, 32.18403
574.7916, 31.55918
575.2737, 31.52021
575.7558, 32.40981
576.2379, 32.94930
576.7200, 32.86155
577.2021, 32.61521
577.6843, 32.64273
578.1664, 33.07272
578.6485, 33.38115
579.1306, 33.47671
579.6127, 33.46867
580.0948, 33.56646
580.5770, 33.76905
581.0591, 34.05207
581.5412, 34.47201
582.0233, 34.92683
582.5054, 35.13645
582.9875, 35.13248
583.4697, 35.17815
583.9518, 35.61390
