##NAMES=Ferricopiapite
##RRUFFID=R060721
##IDEAL CHEMISTRY=Fe^3+^_2/3_Fe^3+^_4_(S^6+^O_4_)_6_(OH)_2_&#183;20H_2_O
##LOCALITY=Alcaparrosa mine, near Cerritos Bayos, El Loa Province, Chile
##OWNER=RRUFF
##SOURCE=University of Arizona Mineral Museum
##DESCRIPTION=Yellow platy crystals associated with parabutlerite
##STATUS=The identification of this mineral has been confirmed only by single crystal X-ray diffraction.
##URL=rruff.info/R060721
92.88562, 984.9279
93.36774, 980.4570
93.84985, 964.4349
94.33197, 937.9270
94.81409, 913.9886
95.29620, 890.6296
95.77832, 871.8552
96.26044, 858.2968
96.74255, 847.2772
97.22467, 835.5630
97.70679, 822.7750
98.18890, 809.9020
98.67102, 796.6632
99.15314, 783.4398
99.63525, 770.1716
100.1174, 756.7263
100.5995, 743.4625
101.0816, 731.7512
101.5637, 721.4813
102.0458, 712.8384
102.5280, 706.3688
103.0101, 701.2976
103.4922, 696.4037
103.9743, 690.8015
104.4564, 684.4486
104.9385, 679.4362
105.4207, 677.1758
105.9028, 674.6149
106.3849, 670.1072
106.8670, 663.6104
107.3491, 656.0368
107.8312, 647.7296
108.3134, 638.7881
108.7955, 631.0984
109.2776, 625.3712
109.7597, 620.8729
110.2418, 616.5769
110.7239, 612.3072
111.2061, 608.3329
111.6882, 605.0466
112.1703, 602.2816
112.6524, 599.4988
113.1345, 596.2893
113.6166, 592.6769
114.0988, 589.1992
114.5809, 585.8505
115.0630, 582.7283
115.5451, 579.8578
116.0272, 577.2457
116.5093, 574.9827
116.9915, 573.3510
117.4736, 572.8855
117.9557, 571.5923
118.4378, 569.0682
118.9199, 566.0022
119.4020, 562.6529
119.8842, 559.1556
120.3663, 555.7495
120.8484, 552.9642
121.3305, 551.6100
121.8126, 550.0170
122.2947, 548.5220
122.7769, 546.6796
123.2590, 543.6619
123.7411, 538.8519
124.2232, 532.9065
124.7053, 528.8466
125.1874, 527.6805
125.6696, 526.8154
126.1517, 525.2778
126.6338, 523.2241
127.1159, 521.2868
127.5980, 519.9310
128.0801, 519.0021
128.5623, 517.8699
129.0444, 516.3600
129.5265, 514.7510
130.0086, 513.3219
130.4907, 512.1119
130.9728, 510.9087
131.4550, 509.3403
131.9371, 507.7180
132.4192, 506.5302
132.9013, 506.0506
133.3834, 506.1295
133.8655, 506.3473
134.3477, 506.7625
134.8298, 507.2477
135.3119, 507.4174
135.7940, 507.5968
136.2761, 508.4055
136.7582, 510.4496
137.2404, 513.7570
137.7225, 516.7737
138.2046, 519.4429
138.6867, 521.8323
139.1688, 523.7268
139.6509, 525.2836
140.1331, 526.9521
140.6152, 529.3063
141.0973, 532.7650
141.5794, 535.2784
142.0615, 536.1527
142.5436, 536.8084
143.0258, 538.1126
143.5079, 540.2131
143.9900, 542.7051
144.4721, 545.0608
144.9542, 547.2010
145.4363, 549.3918
145.9185, 551.6853
146.4006, 554.0183
146.8827, 556.2540
147.3648, 558.3114
147.8469, 560.4371
148.3290, 562.9971
148.8112, 565.8587
149.2933, 569.3390
149.7754, 573.7826
150.2575, 578.9562
150.7396, 584.3094
151.2217, 589.8293
151.7039, 595.2377
152.1860, 600.2064
152.6681, 604.7430
153.1502, 608.9548
153.6323, 613.0502
154.1144, 617.0311
154.5966, 620.4451
155.0787, 623.0980
155.5608, 625.0955
156.0429, 626.5016
156.5250, 627.3397
157.0071, 627.4553
157.4893, 626.5665
157.9714, 624.4562
158.4535, 621.8459
158.9356, 618.8602
159.4177, 615.5088
159.8998, 611.7051
160.3820, 607.4360
160.8641, 602.8807
161.3462, 598.5135
161.8283, 594.8010
162.3104, 590.5801
162.7925, 585.2789
163.2747, 579.6288
163.7568, 574.3185
164.2389, 569.7188
164.7210, 565.7579
165.2031, 562.2131
165.6852, 559.4448
166.1674, 556.6803
166.6495, 553.6035
167.1316, 550.4591
167.6137, 547.7736
168.0958, 545.9053
168.5779, 544.6786
169.0601, 542.9221
169.5422, 540.1783
170.0243, 537.4962
170.5064, 535.3824
170.9885, 533.7200
171.4706, 531.9828
171.9528, 529.7681
172.4349, 527.2315
172.9170, 525.0786
173.3991, 523.9476
173.8812, 522.6837
174.3633, 520.0555
174.8455, 516.0178
175.3276, 512.3029
175.8097, 510.2328
176.2918, 509.1787
176.7739, 508.0420
177.2560, 506.5179
177.7382, 504.8816
178.2203, 503.4057
178.7024, 501.9678
179.1845, 501.1393
179.6666, 501.5065
180.1487, 502.5643
180.6309, 503.7132
181.1130, 504.6298
181.5951, 505.5182
182.0772, 506.9972
182.5593, 509.3947
183.0414, 511.8726
183.5236, 513.8474
184.0057, 515.7412
184.4878, 518.2084
184.9699, 521.7527
185.4520, 526.1583
185.9341, 530.0228
186.4163, 532.5120
186.8984, 535.3697
187.3805, 539.2695
187.8626, 543.8146
188.3447, 548.3079
188.8268, 552.2927
189.3090, 555.7675
189.7911, 559.1869
190.2732, 562.8386
190.7553, 566.1566
191.2374, 569.0486
191.7195, 571.4922
192.2017, 573.5516
192.6838, 575.3256
193.1659, 576.8632
193.6480, 577.0748
194.1301, 575.6425
194.6122, 573.5546
195.0944, 571.0647
195.5765, 568.2570
196.0586, 565.2615
196.5407, 562.2831
197.0228, 559.2824
197.5049, 555.2503
197.9871, 549.6428
198.4692, 543.5589
198.9513, 537.3712
199.4334, 531.2138
199.9155, 525.5135
200.3976, 520.6180
200.8798, 516.5988
201.3619, 513.1111
201.8440, 510.3663
202.3261, 508.0262
202.8082, 505.7721
203.2903, 503.5848
203.7725, 501.7188
204.2546, 500.4176
204.7367, 499.6375
205.2188, 499.2899
205.7009, 499.3082
206.1830, 499.7771
206.6652, 500.9717
207.1473, 503.0730
207.6294, 505.2045
208.1115, 506.3369
208.5936, 507.1341
209.0757, 508.7220
209.5579, 511.7243
210.0400, 515.6734
210.5221, 519.7901
211.0042, 524.2896
211.4863, 528.4342
211.9685, 531.3176
212.4506, 533.7471
212.9327, 536.9709
213.4148, 541.9285
213.8969, 547.9437
214.3790, 552.8509
214.8612, 556.1646
215.3433, 559.1071
215.8254, 562.0205
216.3075, 564.9119
216.7896, 567.8646
217.2717, 571.0002
217.7539, 574.1602
218.2360, 576.5301
218.7181, 577.4542
219.2002, 578.3945
219.6823, 579.8672
220.1644, 581.5446
220.6466, 582.8740
221.1287, 583.4587
221.6108, 583.5155
222.0929, 584.2824
222.5750, 586.3840
223.0571, 588.5876
223.5393, 590.6189
224.0214, 592.6257
224.5035, 594.8466
224.9856, 597.4177
225.4677, 600.3010
225.9498, 603.2316
226.4320, 606.1876
226.9141, 609.2259
227.3962, 612.1622
227.8783, 615.2215
228.3604, 618.7859
228.8425, 623.0979
229.3247, 628.0514
229.8068, 633.1033
230.2889, 638.4429
230.7710, 643.6536
231.2531, 648.4103
231.7352, 652.9993
232.2174, 657.9092
232.6995, 663.3915
233.1816, 669.4041
233.6637, 675.8218
234.1458, 683.4803
234.6279, 690.5240
235.1101, 696.1918
235.5922, 700.9263
236.0743, 705.6014
236.5564, 710.6069
237.0385, 715.8295
237.5206, 720.7453
238.0028, 725.2427
238.4849, 729.7211
238.9670, 734.6060
239.4491, 739.5549
239.9312, 743.8377
240.4133, 747.0641
240.8955, 749.4714
241.3776, 751.6146
241.8597, 753.4755
242.3418, 755.1810
242.8239, 757.0262
243.3060, 758.7786
243.7882, 759.7515
244.2703, 759.5706
244.7524, 758.6416
245.2345, 757.6227
245.7166, 756.5000
246.1987, 755.3865
246.6809, 754.3934
247.1630, 753.4656
247.6451, 752.3818
248.1272, 751.0070
248.6093, 749.5739
249.0914, 748.3632
249.5736, 747.3818
250.0557, 746.4489
250.5378, 745.3680
251.0199, 744.2306
251.5020, 743.3551
251.9841, 742.6370
252.4663, 742.4848
252.9484, 743.0900
253.4305, 744.4329
253.9126, 746.4699
254.3947, 749.4683
254.8768, 753.2400
255.3590, 756.7071
255.8411, 759.1444
256.3232, 762.2206
256.8053, 767.1906
257.2874, 773.7019
257.7695, 780.5026
258.2516, 786.7784
258.7338, 792.7032
259.2159, 798.9104
259.6980, 805.1484
260.1801, 812.1870
260.6622, 820.6429
261.1443, 830.0757
261.6265, 839.5532
262.1086, 848.6464
262.5907, 857.3385
263.0728, 865.3118
263.5549, 872.2896
264.0370, 878.9398
264.5192, 886.1066
265.0013, 893.1140
265.4834, 898.9797
265.9655, 903.3791
266.4476, 906.1478
266.9297, 906.7470
267.4119, 904.9755
267.8940, 901.0139
268.3761, 894.7947
268.8582, 886.9198
269.3403, 878.0591
269.8224, 868.5623
270.3046, 858.3058
270.7867, 846.9459
271.2688, 834.4255
271.7509, 820.7657
272.2330, 805.6520
272.7151, 789.7615
273.1973, 773.5059
273.6794, 757.0120
274.1615, 740.5645
274.6436, 724.5983
275.1257, 709.2162
275.6078, 694.1362
276.0900, 679.3011
276.5721, 664.7245
277.0542, 650.2867
277.5363, 635.9686
278.0184, 622.3029
278.5005, 610.3562
278.9827, 600.8022
279.4648, 591.5755
279.9469, 582.6088
280.4290, 573.8223
280.9111, 564.9240
281.3932, 556.0002
281.8754, 547.7220
282.3575, 541.0745
282.8396, 536.6231
283.3217, 532.2653
283.8038, 527.6557
284.2859, 523.4033
284.7681, 519.8756
285.2502, 517.0652
285.7323, 514.7422
286.2144, 512.6410
286.6965, 510.6748
287.1786, 509.4728
287.6608, 509.5331
288.1429, 509.8085
288.6250, 509.7793
289.1071, 509.5802
289.5892, 509.6817
290.0714, 510.4715
290.5535, 511.9522
291.0356, 513.7521
291.5177, 516.3279
291.9998, 518.7378
292.4819, 520.6738
292.9641, 522.2636
293.4462, 523.8129
293.9283, 525.5478
294.4104, 527.3820
294.8925, 528.7888
295.3746, 529.0306
295.8568, 529.6520
296.3389, 531.4197
296.8210, 533.5527
297.3031, 535.0799
297.7852, 535.5465
298.2673, 535.0060
298.7495, 533.6199
299.2316, 530.5479
299.7137, 527.5770
300.1958, 525.4182
300.6779, 523.0841
301.1600, 519.6004
301.6422, 514.6388
302.1243, 508.5223
302.6064, 501.8561
303.0885, 494.6577
303.5706, 486.7641
304.0527, 477.9064
304.5349, 468.6290
305.0170, 459.3630
305.4991, 450.1871
305.9812, 440.9267
306.4633, 431.3370
306.9454, 421.2764
307.4276, 411.4321
307.9097, 401.9101
308.3918, 392.5602
308.8739, 383.2525
309.3560, 374.0125
309.8381, 365.0770
310.3203, 356.5580
310.8024, 348.5306
311.2845, 340.5873
311.7666, 332.4315
312.2487, 324.6333
312.7308, 317.4401
313.2130, 310.7245
313.6951, 304.2073
314.1772, 297.6920
314.6593, 291.2264
315.1414, 285.3633
315.6235, 280.5653
316.1057, 275.7928
316.5878, 270.7137
317.0699, 265.6069
317.5520, 260.8874
318.0341, 256.7520
318.5162, 253.0068
318.9984, 249.2033
319.4805, 245.1038
319.9626, 241.2769
320.4447, 237.9205
320.9268, 234.7329
321.4089, 231.3550
321.8911, 227.7160
322.3732, 224.1638
322.8553, 221.2246
323.3374, 219.3409
323.8195, 217.0236
324.3016, 213.9683
324.7838, 210.7966
325.2659, 207.5912
325.7480, 204.5443
326.2301, 202.2566
326.7122, 201.4533
327.1943, 202.4315
327.6765, 202.4172
328.1586, 200.9832
328.6407, 199.1326
329.1228, 196.9202
329.6049, 194.5757
330.0870, 192.4947
330.5692, 190.9701
331.0513, 189.9122
331.5334, 188.6588
332.0155, 186.9892
332.4976, 185.3468
332.9797, 184.0250
333.4619, 182.6944
333.9440, 180.8329
334.4261, 178.2031
334.9082, 175.1982
335.3904, 172.7322
335.8725, 171.2013
336.3546, 169.6555
336.8367, 167.9039
337.3188, 166.2172
337.8009, 164.8385
338.2831, 163.8118
338.7652, 162.9918
339.2473, 162.2150
339.7294, 161.5137
340.2115, 160.7396
340.6936, 159.8075
341.1758, 158.8856
341.6579, 158.1130
342.1400, 157.4380
342.6221, 156.6731
343.1042, 155.6150
343.5863, 154.2641
344.0685, 153.2198
344.5506, 152.7258
345.0327, 152.3242
345.5148, 151.9350
345.9969, 151.5734
346.4790, 151.3081
346.9612, 151.1884
347.4433, 151.1309
347.9254, 150.8449
348.4075, 150.1272
348.8896, 149.5109
349.3717, 149.0909
349.8539, 148.7845
350.3360, 148.5598
350.8181, 148.3973
351.3002, 148.2022
351.7823, 147.7827
352.2644, 147.0000
352.7466, 146.4534
353.2287, 146.2778
353.7108, 146.2553
354.1929, 146.3666
354.6750, 146.5566
355.1571, 146.6860
355.6393, 146.6211
356.1214, 146.3629
356.6035, 146.0836
357.0856, 145.7039
357.5677, 145.4071
358.0498, 145.3424
358.5320, 145.3887
359.0141, 145.3099
359.4962, 144.9252
359.9783, 144.4154
360.4604, 144.2888
360.9425, 144.6835
361.4247, 145.1480
361.9068, 145.6938
362.3889, 146.1683
362.8710, 146.3899
363.3531, 146.3037
363.8352, 146.1023
364.3174, 146.0059
364.7995, 146.0237
365.2816, 146.0439
365.7637, 145.9515
366.2458, 145.9508
366.7279, 146.2162
367.2101, 146.7190
367.6922, 147.2476
368.1743, 147.6829
368.6564, 148.0293
369.1385, 148.2654
369.6206, 148.2798
370.1028, 148.4079
370.5849, 148.9635
371.0670, 149.7488
371.5491, 150.4104
372.0312, 150.8123
372.5133, 151.0503
372.9955, 151.1786
373.4776, 151.1637
373.9597, 151.3750
374.4418, 152.1532
374.9239, 153.1424
375.4060, 153.8619
375.8882, 154.2112
376.3703, 154.5549
376.8524, 155.1785
377.3345, 156.0179
377.8166, 156.8339
378.2987, 157.6126
378.7809, 158.2762
379.2630, 158.6362
379.7451, 158.7400
380.2272, 159.0092
380.7093, 159.6687
381.1914, 160.5276
381.6736, 161.3369
382.1557, 162.0705
382.6378, 162.8339
383.1199, 163.7459
383.6020, 164.7463
384.0841, 165.5782
384.5663, 166.0330
385.0484, 166.5258
385.5305, 167.3716
386.0126, 168.4641
386.4947, 169.4436
386.9768, 170.1191
387.4590, 170.6854
387.9411, 171.5935
388.4232, 172.9554
388.9053, 174.2410
389.3874, 175.3004
389.8695, 176.2505
390.3517, 177.2057
390.8338, 178.1964
391.3159, 179.2275
391.7980, 180.3547
392.2801, 181.6133
392.7622, 182.5283
393.2444, 182.8516
393.7265, 183.1003
394.2086, 183.4531
394.6907, 183.9434
395.1728, 184.6310
395.6549, 185.5649
396.1371, 186.6739
396.6192, 187.6411
397.1013, 188.0607
397.5834, 188.8501
398.0655, 190.5447
398.5476, 192.3990
399.0298, 193.5992
399.5119, 193.9566
399.9940, 193.9531
400.4761, 194.2050
400.9582, 194.7168
401.4403, 195.4880
401.9225, 196.6960
402.4046, 197.9569
402.8867, 199.2016
403.3688, 200.3538
403.8509, 201.2834
404.3330, 201.8694
404.8152, 202.1918
405.2973, 202.7092
405.7794, 203.5142
406.2615, 204.3931
406.7436, 205.3435
407.2257, 206.3206
407.7079, 207.2782
408.1900, 208.2066
408.6721, 209.1143
409.1542, 209.9423
409.6363, 210.6245
410.1184, 211.6490
410.6006, 213.4468
411.0827, 215.2657
411.5648, 216.6897
412.0469, 217.7937
412.5290, 218.8852
413.0111, 220.1443
413.4933, 221.5467
413.9754, 223.0503
414.4575, 224.7265
414.9396, 226.3107
415.4217, 227.5262
415.9038, 228.6333
416.3860, 229.9001
416.8681, 231.3671
417.3502, 233.0716
417.8323, 234.8631
418.3144, 236.8182
418.7965, 239.7791
419.2787, 244.8177
419.7608, 249.6739
420.2429, 251.4714
420.7250, 250.4863
421.2071, 249.8213
421.6892, 250.6467
422.1714, 252.3509
422.6535, 254.2439
423.1356, 256.2749
423.6177, 258.2785
424.0998, 260.1019
424.5819, 261.8189
425.0641, 263.7101
425.5462, 265.7527
426.0283, 267.9874
426.5104, 270.6213
426.9925, 273.4359
427.4746, 275.8990
427.9568, 277.8074
428.4389, 279.6542
428.9210, 282.2403
429.4031, 285.9533
429.8852, 289.3778
430.3673, 292.1246
430.8495, 294.9165
431.3316, 298.3740
431.8137, 302.4026
432.2958, 306.4359
432.7779, 310.0477
433.2600, 313.3398
433.7422, 317.0813
434.2243, 321.3958
434.7064, 326.0451
435.1885, 331.2247
435.6706, 336.6137
436.1527, 341.8332
436.6349, 346.7774
437.1170, 351.6161
437.5991, 356.4677
438.0812, 361.0775
438.5633, 366.6286
439.0454, 374.3089
439.5276, 381.7743
440.0097, 388.0074
440.4918, 393.2515
440.9739, 398.2977
441.4560, 403.5458
441.9381, 408.9717
442.4203, 414.6369
442.9024, 420.6573
443.3845, 426.5418
443.8666, 432.2882
444.3487, 437.7521
444.8308, 442.8201
445.3130, 447.4602
445.7951, 451.7924
446.2772, 456.1001
446.7593, 460.2526
447.2414, 463.3985
447.7235, 465.1068
448.2057, 466.4755
448.6878, 468.6982
449.1699, 471.2601
449.6520, 472.7836
450.1341, 472.4893
450.6162, 471.4325
451.0984, 470.6168
451.5805, 469.9420
452.0626, 468.7672
452.5447, 466.7865
453.0268, 464.2309
453.5089, 461.4459
453.9911, 458.3690
454.4732, 455.3848
454.9553, 452.2041
455.4374, 449.3701
455.9195, 447.6318
456.4016, 446.9701
456.8838, 446.5230
457.3659, 445.4956
457.8480, 443.9782
458.3301, 443.6591
458.8122, 445.3565
459.2943, 447.0732
459.7765, 447.9059
460.2586, 448.6359
460.7407, 450.2982
461.2228, 453.2299
461.7049, 457.0746
462.1870, 461.3530
462.6692, 466.0725
463.1513, 471.2158
463.6334, 476.8192
464.1155, 482.7506
464.5976, 488.9305
465.0797, 495.4072
465.5619, 502.4547
466.0440, 510.2868
466.5261, 518.5985
467.0082, 526.3521
467.4903, 533.2431
467.9724, 540.4780
468.4546, 548.9294
468.9367, 557.4261
469.4188, 565.0297
469.9009, 571.7281
470.3830, 578.1621
470.8651, 584.9924
471.3473, 591.9836
471.8294, 598.1799
472.3115, 603.3039
472.7936, 608.3057
473.2757, 614.0806
473.7578, 620.0517
474.2400, 625.0387
474.7221, 628.5228
475.2042, 631.5540
475.6863, 635.0667
476.1684, 638.7164
476.6505, 641.4742
477.1327, 643.0393
477.6148, 643.7408
478.0969, 644.0662
478.5790, 644.0842
479.0611, 642.8497
479.5432, 640.1915
480.0254, 636.3883
480.5075, 631.6396
480.9896, 625.8867
481.4717, 618.9199
481.9538, 610.5958
482.4359, 601.0895
482.9181, 590.9095
483.4002, 579.8770
483.8823, 568.2623
484.3644, 556.1788
484.8465, 543.4747
485.3286, 529.9016
485.8108, 515.5458
486.2929, 500.7822
486.7750, 485.8442
487.2571, 470.8076
487.7392, 455.7625
488.2213, 440.1928
488.7035, 425.5225
489.1856, 412.3335
489.6677, 399.9569
490.1498, 387.6848
490.6319, 375.3141
491.1140, 363.2193
491.5962, 351.8611
492.0783, 341.1541
492.5604, 330.7393
493.0425, 320.4912
493.5246, 310.7363
494.0067, 301.6587
494.4889, 293.2069
494.9710, 285.3575
495.4531, 278.3370
495.9352, 271.6629
496.4173, 264.8851
496.8994, 258.1012
497.3816, 251.5723
497.8637, 245.3821
498.3458, 239.5986
498.8279, 234.3981
499.3100, 229.8748
499.7921, 225.4786
500.2743, 221.2169
500.7564, 217.0567
501.2385, 212.9059
501.7206, 208.8293
502.2027, 205.1631
502.6848, 202.1257
503.1670, 199.4625
503.6491, 196.4449
504.1312, 192.5374
504.6133, 189.1364
505.0954, 186.5962
505.5775, 184.2761
506.0597, 181.6918
506.5418, 178.8752
507.0239, 176.2349
507.5060, 174.1289
507.9881, 172.4413
508.4702, 170.6147
508.9524, 168.5900
509.4345, 166.5619
509.9166, 164.4572
510.3987, 162.4690
510.8808, 160.8589
511.3629, 159.6675
511.8451, 158.5233
512.3271, 157.0935
512.8093, 155.5083
513.2914, 154.1950
513.7735, 153.2407
514.2556, 152.3123
514.7377, 151.1623
515.2198, 149.8585
515.7020, 148.6466
516.1841, 147.5678
516.6662, 146.5325
517.1483, 145.5413
517.6304, 144.5565
518.1125, 143.4677
518.5947, 142.2515
519.0768, 141.0958
519.5589, 140.2200
520.0410, 139.6613
520.5231, 138.9921
521.0052, 138.0952
521.4874, 137.2367
521.9695, 136.5231
522.4516, 135.8870
522.9337, 135.2294
523.4158, 134.5119
523.8979, 133.7965
524.3801, 133.1550
524.8622, 132.5806
525.3443, 132.1369
525.8264, 131.9644
526.3085, 131.7750
526.7906, 131.3849
527.2728, 130.8983
527.7549, 130.5295
528.2370, 130.4008
528.7191, 130.3414
529.2012, 130.1221
529.6833, 129.7537
530.1655, 129.3943
530.6476, 129.0632
531.1297, 128.7851
531.6118, 128.6119
532.0939, 128.5285
532.5760, 128.4417
533.0582, 128.3827
533.5403, 128.2716
534.0224, 127.8339
534.5045, 127.2704
534.9866, 127.2687
535.4688, 128.1752
535.9509, 129.5035
536.4330, 130.3585
536.9151, 130.5783
537.3972, 130.6578
537.8793, 130.3834
538.3615, 130.1797
538.8436, 130.2420
539.3257, 130.5695
539.8078, 131.1409
540.2899, 131.9649
540.7720, 132.9093
541.2542, 133.7239
541.7363, 134.4757
542.2184, 134.8485
542.7005, 134.1798
543.1826, 133.6442
543.6647, 134.0437
544.1469, 135.2166
544.6290, 136.4186
545.1111, 137.4276
545.5932, 138.1420
546.0753, 138.3112
546.5574, 137.9512
547.0396, 137.5119
547.5217, 137.0981
548.0038, 136.7701
548.4859, 136.6582
548.9680, 136.7741
549.4501, 136.8913
549.9323, 137.1283
550.4144, 137.2251
550.8965, 136.8855
551.3786, 136.2069
551.8607, 135.5357
552.3428, 135.0580
552.8250, 134.7049
553.3071, 134.3090
553.7892, 133.8559
554.2713, 133.3794
554.7534, 133.0415
555.2355, 132.5398
555.7177, 131.5506
556.1998, 130.2457
556.6819, 129.1093
557.1640, 128.4853
557.6461, 128.0919
558.1282, 127.2438
558.6104, 125.8281
559.0925, 124.7132
559.5746, 124.5010
560.0567, 124.2550
560.5388, 122.9037
561.0209, 120.6449
561.5031, 118.8801
561.9852, 118.5558
562.4673, 118.6730
562.9494, 118.2051
563.4315, 117.2388
563.9136, 116.2789
564.3958, 115.5252
564.8779, 114.8855
565.3600, 114.1976
565.8421, 113.4283
566.3242, 112.7192
566.8063, 111.9518
567.2885, 111.3502
567.7706, 111.1951
568.2527, 111.2866
568.7348, 111.1982
569.2169, 110.7169
569.6990, 110.0296
570.1812, 109.4491
570.6633, 108.9288
571.1454, 108.7257
571.6275, 109.2201
572.1096, 109.6675
572.5917, 109.4483
573.0739, 108.9113
573.5560, 108.9302
574.0381, 110.0976
574.5202, 111.4838
575.0023, 111.9259
575.4844, 111.6027
575.9666, 111.5187
576.4487, 111.9491
576.9308, 112.5771
577.4129, 113.0531
577.8950, 113.3783
578.3771, 113.9469
578.8593, 114.9427
579.3414, 115.9959
579.8235, 116.8458
580.3056, 117.6736
580.7877, 118.7991
581.2698, 120.3145
581.7520, 122.0016
582.2341, 123.5740
582.7162, 125.0160
583.1984, 126.6226
583.6805, 128.7538
584.1626, 130.5856
584.6447, 131.4471
585.1268, 132.1018
585.6089, 133.5670
586.0911, 136.1230
586.5732, 138.9192
587.0553, 141.1089
587.5374, 142.8906
588.0195, 145.0058
588.5016, 147.5781
