##NAMES=Ferrosilite
##RRUFFID=R070386
##IDEAL CHEMISTRY=Fe^2+^_2_Si_2_O_6_
##LOCALITY=Greenland
##OWNER=RRUFF
##SOURCE=Subrata Ghose, collected by Ramberg
##DESCRIPTION=Unconsolidated brown transparent cleavage fragments
##STATUS=The identification of this mineral is confirmed by single-crystal X-ray diffraction and chemical analysis.
##URL=rruff.info/R070386
##MEASURED CHEMISTRY=(Fe^2+^_1.64_Mg_0.32_Al_0.02_Ca_0.02_)_Σ=2_(Si_1.98_Al_0.02_)_Σ=2_O_6_
177.1539, 1772.751
177.6360, 1768.886
178.1181, 1767.067
178.6002, 1750.114
179.0823, 1718.215
179.5645, 1688.389
180.0466, 1674.888
180.5287, 1674.892
181.0108, 1681.551
181.4929, 1700.485
181.9750, 1722.715
182.4572, 1725.824
182.9393, 1707.305
183.4214, 1689.267
183.9035, 1703.007
184.3856, 1741.321
184.8677, 1772.539
185.3499, 1780.043
185.8320, 1768.796
186.3141, 1750.025
186.7962, 1721.820
187.2783, 1693.554
187.7604, 1677.588
188.2426, 1673.700
188.7247, 1676.510
189.2068, 1689.661
189.6889, 1709.400
190.1710, 1713.144
190.6531, 1693.369
191.1353, 1665.668
191.6174, 1665.708
192.0995, 1694.158
192.5816, 1720.460
193.0637, 1715.603
193.5458, 1683.530
194.0280, 1669.271
194.5101, 1684.994
194.9922, 1719.009
195.4743, 1742.214
195.9564, 1755.265
196.4385, 1755.338
196.9207, 1731.552
197.4028, 1683.625
197.8849, 1653.021
198.3670, 1654.179
198.8491, 1678.448
199.3312, 1682.049
199.8134, 1659.692
200.2955, 1634.889
200.7776, 1631.818
201.2597, 1652.478
201.7418, 1675.856
202.2239, 1699.052
202.7061, 1721.379
203.1882, 1733.733
203.6703, 1735.087
204.1524, 1728.589
204.6345, 1714.769
205.1166, 1690.729
205.5988, 1674.055
206.0809, 1672.449
206.5630, 1686.625
207.0451, 1697.477
207.5272, 1703.991
208.0093, 1708.665
208.4915, 1717.885
208.9736, 1736.020
209.4557, 1743.755
209.9378, 1725.576
210.4199, 1672.451
210.9020, 1656.640
211.3842, 1694.292
211.8663, 1754.461
212.3484, 1772.041
212.8305, 1729.623
213.3126, 1689.022
213.7948, 1681.026
214.2769, 1718.132
214.7590, 1738.763
215.2411, 1735.233
215.7232, 1718.029
216.2053, 1714.756
216.6875, 1730.587
217.1696, 1749.800
217.6517, 1766.005
218.1338, 1781.417
218.6159, 1785.633
219.0980, 1771.642
219.5802, 1746.886
220.0623, 1742.090
220.5444, 1767.923
221.0265, 1795.317
221.5086, 1803.164
221.9907, 1776.848
222.4729, 1771.101
222.9550, 1801.693
223.4371, 1858.514
223.9192, 1883.836
224.4013, 1862.780
224.8834, 1831.125
225.3656, 1812.174
225.8477, 1808.004
226.3298, 1812.707
226.8119, 1829.263
227.2940, 1855.920
227.7761, 1875.753
228.2583, 1889.531
228.7404, 1895.196
229.2225, 1888.399
229.7046, 1857.746
230.1867, 1838.923
230.6688, 1839.451
231.1510, 1858.984
231.6331, 1880.416
232.1152, 1908.127
232.5973, 1933.179
233.0794, 1945.603
233.5615, 1938.061
234.0437, 1932.668
234.5258, 1931.950
235.0079, 1935.803
235.4900, 1950.449
235.9721, 1985.057
236.4542, 2021.996
236.9364, 2040.849
237.4185, 2030.586
237.9006, 2023.464
238.3827, 2027.058
238.8648, 2042.582
239.3469, 2056.916
239.8291, 2072.255
240.3112, 2084.479
240.7933, 2086.898
241.2754, 2069.406
241.7575, 2060.242
242.2396, 2068.107
242.7218, 2095.625
243.2039, 2120.555
243.6860, 2143.482
244.1681, 2163.121
244.6502, 2177.491
245.1323, 2184.473
245.6145, 2189.994
246.0966, 2198.874
246.5787, 2215.816
247.0608, 2208.218
247.5429, 2157.514
248.0250, 2096.014
248.5072, 2071.997
248.9893, 2102.296
249.4714, 2140.474
249.9535, 2179.540
250.4356, 2227.502
250.9177, 2235.664
251.3999, 2182.770
251.8820, 2104.830
252.3641, 2059.016
252.8462, 2063.973
253.3283, 2067.023
253.8104, 2046.379
254.2926, 1990.241
254.7747, 1965.128
255.2568, 1985.945
255.7389, 2027.731
256.2210, 2046.659
256.7031, 2033.529
257.1852, 2015.646
257.6674, 2003.321
258.1495, 1999.903
258.6316, 1986.143
259.1137, 1954.286
259.5958, 1917.839
260.0779, 1903.888
260.5601, 1924.761
261.0422, 1942.543
261.5243, 1941.303
262.0064, 1915.518
262.4885, 1895.352
262.9706, 1883.982
263.4528, 1875.916
263.9349, 1857.643
264.4170, 1818.379
264.8991, 1793.893
265.3812, 1806.752
265.8633, 1871.586
266.3455, 1898.523
266.8276, 1871.624
267.3097, 1820.706
267.7918, 1803.248
268.2739, 1830.115
268.7560, 1860.707
269.2382, 1879.466
269.7203, 1885.479
270.2024, 1883.503
270.6845, 1870.179
271.1666, 1852.402
271.6487, 1844.875
272.1309, 1851.007
272.6130, 1855.543
273.0951, 1850.420
273.5772, 1833.920
274.0593, 1822.265
274.5414, 1816.543
275.0236, 1814.136
275.5057, 1808.965
275.9878, 1799.384
276.4699, 1794.808
276.9520, 1800.256
277.4341, 1816.177
277.9163, 1837.130
278.3984, 1867.180
278.8805, 1895.707
279.3626, 1900.880
279.8447, 1879.330
280.3268, 1857.993
280.8090, 1849.944
281.2911, 1855.258
281.7732, 1858.936
282.2553, 1860.898
282.7374, 1861.015
283.2195, 1855.206
283.7017, 1842.480
284.1838, 1839.444
284.6659, 1859.309
285.1480, 1899.856
285.6301, 1929.656
286.1122, 1947.368
286.5944, 1957.988
287.0765, 1965.574
287.5586, 1970.271
288.0407, 1980.287
288.5228, 2004.167
289.0049, 2038.623
289.4871, 2059.898
289.9692, 2064.652
290.4513, 2068.510
290.9334, 2097.872
291.4155, 2149.566
291.8976, 2193.199
292.3798, 2209.174
292.8619, 2205.733
293.3440, 2208.909
293.8261, 2218.729
294.3082, 2235.827
294.7903, 2262.083
295.2725, 2296.664
295.7546, 2335.495
296.2367, 2379.995
296.7188, 2426.865
297.2009, 2467.111
297.6830, 2499.875
298.1652, 2531.513
298.6473, 2568.163
299.1294, 2608.999
299.6115, 2652.580
300.0936, 2695.527
300.5757, 2741.575
301.0579, 2801.210
301.5400, 2873.879
302.0221, 2947.472
302.5042, 3007.144
302.9863, 3059.019
303.4684, 3114.724
303.9506, 3188.459
304.4327, 3263.752
304.9148, 3319.850
305.3969, 3356.184
305.8790, 3389.897
306.3611, 3436.700
306.8433, 3488.862
307.3254, 3533.078
307.8075, 3560.940
308.2896, 3582.075
308.7717, 3603.038
309.2538, 3624.261
309.7360, 3647.769
310.2181, 3679.843
310.7002, 3713.660
311.1823, 3740.780
311.6644, 3761.496
312.1465, 3771.838
312.6287, 3762.713
313.1108, 3737.160
313.5929, 3715.496
314.0750, 3714.479
314.5571, 3719.056
315.0392, 3714.908
315.5214, 3687.810
316.0035, 3663.367
316.4856, 3657.492
316.9677, 3666.059
317.4498, 3670.929
317.9319, 3663.624
318.4141, 3650.579
318.8962, 3636.034
319.3783, 3619.458
319.8604, 3603.217
320.3425, 3582.622
320.8246, 3561.847
321.3068, 3553.787
321.7889, 3576.453
322.2710, 3602.488
322.7531, 3618.179
323.2352, 3621.933
323.7173, 3614.443
324.1995, 3587.728
324.6816, 3549.503
325.1637, 3518.129
325.6458, 3497.395
326.1279, 3483.028
326.6100, 3475.327
327.0922, 3484.545
327.5743, 3479.533
328.0564, 3446.173
328.5385, 3399.548
329.0206, 3367.071
329.5027, 3370.486
329.9849, 3366.374
330.4670, 3342.358
330.9491, 3293.948
331.4312, 3238.986
331.9133, 3166.212
332.3954, 3092.334
332.8776, 3041.460
333.3597, 3029.056
333.8418, 3016.301
334.3239, 2994.317
334.8061, 2962.463
335.2882, 2923.047
335.7703, 2866.336
336.2524, 2811.825
336.7345, 2783.770
337.2166, 2790.692
337.6988, 2801.007
338.1809, 2810.128
338.6630, 2817.647
339.1451, 2814.899
339.6272, 2800.279
340.1093, 2778.826
340.5915, 2749.924
341.0736, 2709.332
341.5557, 2689.809
342.0378, 2703.092
342.5199, 2740.181
343.0020, 2768.490
343.4842, 2787.245
343.9663, 2800.453
344.4484, 2810.205
344.9305, 2816.691
345.4126, 2820.485
345.8947, 2820.103
346.3769, 2819.291
346.8590, 2825.169
347.3411, 2837.808
347.8232, 2856.312
348.3053, 2886.698
348.7874, 2923.735
349.2696, 2945.500
349.7517, 2944.661
350.2338, 2940.968
350.7159, 2971.056
351.1980, 3026.243
351.6801, 3068.150
352.1623, 3064.086
352.6444, 3035.207
353.1265, 3017.316
353.6086, 3014.986
354.0907, 3014.001
354.5728, 3001.357
355.0550, 2979.879
355.5371, 2955.459
356.0192, 2929.476
356.5013, 2902.962
356.9834, 2872.428
357.4655, 2837.201
357.9477, 2814.968
358.4298, 2843.030
358.9119, 2883.424
359.3940, 2888.335
359.8761, 2796.446
360.3582, 2700.708
360.8404, 2656.727
361.3225, 2660.974
361.8046, 2667.141
362.2867, 2660.976
362.7688, 2645.204
363.2509, 2621.909
363.7331, 2585.401
364.2152, 2548.087
364.6973, 2510.196
365.1794, 2473.064
365.6615, 2443.336
366.1436, 2424.569
366.6258, 2412.027
367.1079, 2404.633
367.5900, 2416.339
368.0721, 2411.637
368.5542, 2373.103
369.0363, 2315.895
369.5185, 2277.586
370.0006, 2272.200
370.4827, 2272.174
370.9648, 2270.535
371.4469, 2269.933
371.9290, 2259.246
372.4112, 2231.768
372.8933, 2197.964
373.3754, 2172.729
373.8575, 2156.719
374.3396, 2147.694
374.8217, 2147.133
375.3039, 2155.392
375.7860, 2157.581
376.2681, 2150.554
376.7502, 2142.443
377.2323, 2143.511
377.7144, 2156.667
378.1966, 2162.851
378.6787, 2156.991
379.1608, 2141.651
379.6429, 2125.755
380.1250, 2108.911
380.6071, 2094.964
381.0893, 2088.153
381.5714, 2087.932
382.0535, 2089.747
382.5356, 2095.853
383.0177, 2099.018
383.4998, 2075.728
383.9820, 2029.790
384.4641, 1999.936
384.9462, 2029.073
385.4283, 2090.001
385.9104, 2117.625
386.3925, 2102.706
386.8747, 2072.760
387.3568, 2051.583
387.8389, 2038.216
388.3210, 2030.067
388.8031, 2026.397
389.2852, 2027.203
389.7674, 2034.675
390.2495, 2049.000
390.7316, 2061.691
391.2137, 2067.806
391.6958, 2068.836
392.1779, 2066.505
392.6601, 2061.841
393.1422, 2053.728
393.6243, 2037.310
394.1064, 2014.941
394.5885, 2000.029
395.0706, 2006.254
395.5528, 2016.467
396.0349, 2018.622
396.5170, 2001.664
396.9991, 1989.735
397.4812, 2000.436
397.9633, 2020.359
398.4455, 2015.452
398.9276, 1948.301
399.4097, 1884.198
399.8918, 1847.688
400.3739, 1848.097
400.8560, 1851.941
401.3382, 1867.455
401.8203, 1882.436
402.3024, 1879.430
402.7845, 1844.860
403.2666, 1815.575
403.7487, 1802.256
404.2309, 1805.000
404.7130, 1798.597
405.1951, 1779.164
405.6772, 1757.273
406.1593, 1745.482
406.6414, 1747.840
407.1236, 1734.150
407.6057, 1692.122
408.0878, 1635.947
408.5699, 1609.670
409.0520, 1616.168
409.5341, 1627.314
410.0163, 1622.697
410.4984, 1605.608
410.9805, 1597.123
411.4626, 1600.213
411.9447, 1608.356
412.4268, 1613.635
412.9090, 1616.297
413.3911, 1617.335
413.8732, 1617.953
414.3553, 1616.989
414.8374, 1613.261
415.3195, 1606.828
415.8017, 1595.659
416.2838, 1568.492
416.7659, 1537.631
417.2480, 1522.295
417.7301, 1541.316
418.2122, 1566.217
418.6944, 1576.362
419.1765, 1574.774
419.6586, 1574.893
420.1407, 1590.877
420.6228, 1606.192
421.1049, 1607.799
421.5871, 1585.008
422.0692, 1564.735
422.5513, 1556.451
423.0334, 1555.634
423.5155, 1554.202
423.9977, 1553.960
424.4798, 1549.770
424.9619, 1535.501
425.4440, 1504.042
425.9261, 1493.452
426.4082, 1522.009
426.8904, 1559.688
427.3725, 1576.691
427.8546, 1556.465
428.3367, 1545.509
428.8188, 1554.390
429.3009, 1579.211
429.7831, 1593.923
430.2652, 1596.508
430.7473, 1593.560
431.2294, 1588.439
431.7115, 1580.962
432.1936, 1572.529
432.6758, 1561.571
433.1579, 1552.252
433.6400, 1553.225
434.1221, 1564.469
434.6042, 1578.254
435.0863, 1595.864
435.5685, 1613.476
436.0506, 1615.979
436.5327, 1602.463
437.0148, 1583.889
437.4969, 1568.477
437.9790, 1556.381
438.4612, 1548.027
438.9433, 1546.125
439.4254, 1545.131
439.9075, 1533.422
440.3896, 1515.043
440.8717, 1508.705
441.3539, 1542.169
441.8360, 1583.823
442.3181, 1603.899
442.8002, 1592.276
443.2823, 1575.143
443.7644, 1557.263
444.2466, 1542.873
444.7287, 1538.687
445.2108, 1567.677
445.6929, 1587.687
446.1750, 1575.943
446.6571, 1527.687
447.1393, 1497.304
447.6214, 1500.480
448.1035, 1517.543
448.5856, 1534.429
449.0677, 1557.913
449.5498, 1571.192
450.0320, 1572.503
450.5141, 1562.767
450.9962, 1541.088
451.4783, 1494.979
451.9604, 1462.139
452.4425, 1467.869
452.9247, 1521.823
453.4068, 1538.212
453.8889, 1503.954
454.3710, 1460.276
454.8531, 1473.080
455.3352, 1541.969
455.8174, 1594.635
456.2995, 1605.591
456.7816, 1586.418
457.2637, 1558.833
457.7458, 1523.365
458.2279, 1499.948
458.7101, 1514.610
459.1922, 1550.679
459.6743, 1577.168
460.1564, 1590.337
460.6385, 1588.801
461.1206, 1554.681
461.6028, 1504.737
462.0849, 1475.590
462.5670, 1504.913
463.0491, 1546.446
463.5312, 1570.013
464.0133, 1572.812
464.4955, 1572.137
464.9776, 1571.070
465.4597, 1571.549
465.9418, 1575.250
466.4239, 1588.819
466.9060, 1598.491
467.3882, 1600.363
467.8703, 1595.955
468.3524, 1592.203
468.8345, 1594.666
469.3166, 1591.793
469.7987, 1576.618
470.2809, 1541.125
470.7630, 1521.921
471.2451, 1525.150
471.7272, 1537.873
472.2093, 1543.853
472.6914, 1541.882
473.1736, 1538.906
473.6557, 1536.104
474.1378, 1533.794
474.6199, 1534.835
475.1020, 1539.896
475.5841, 1541.486
476.0663, 1528.362
476.5484, 1506.135
477.0305, 1497.418
477.5126, 1506.839
477.9947, 1523.707
478.4768, 1540.728
478.9590, 1555.588
479.4411, 1562.021
479.9232, 1548.918
480.4053, 1531.226
480.8874, 1524.392
481.3695, 1528.073
481.8517, 1529.773
482.3338, 1526.095
482.8159, 1515.615
483.2980, 1494.826
483.7801, 1441.579
484.2622, 1410.820
484.7444, 1432.617
485.2265, 1487.704
485.7086, 1532.612
486.1907, 1560.182
486.6728, 1578.245
487.1549, 1589.080
487.6371, 1592.926
488.1192, 1586.974
488.6013, 1560.264
489.0834, 1535.639
489.5655, 1537.073
490.0476, 1576.102
490.5298, 1600.051
491.0119, 1597.275
491.4940, 1579.193
491.9761, 1576.294
492.4582, 1589.743
492.9403, 1607.335
493.4225, 1626.152
493.9046, 1644.340
494.3867, 1654.425
494.8688, 1655.739
495.3509, 1653.036
495.8330, 1644.033
496.3152, 1634.849
496.7973, 1641.341
497.2794, 1682.230
497.7615, 1723.563
498.2436, 1720.808
498.7257, 1688.251
499.2079, 1674.839
499.6900, 1731.985
500.1721, 1798.725
500.6542, 1830.200
501.1363, 1812.611
501.6184, 1797.996
502.1006, 1807.653
502.5827, 1825.218
503.0648, 1833.137
503.5469, 1817.253
504.0290, 1805.570
504.5111, 1802.841
504.9933, 1807.711
505.4754, 1811.816
505.9575, 1811.461
506.4396, 1816.455
506.9217, 1835.362
507.4038, 1873.394
507.8860, 1892.659
508.3681, 1888.298
508.8502, 1875.404
509.3323, 1872.300
509.8144, 1878.764
510.2965, 1891.799
510.7787, 1912.022
511.2608, 1936.917
511.7429, 1964.577
512.2250, 1993.905
512.7071, 2015.507
513.1892, 2017.025
513.6713, 2009.163
514.1534, 2005.099
514.6356, 2006.139
515.1177, 2012.576
515.5998, 2025.049
516.0819, 2042.938
516.5640, 2065.515
517.0461, 2094.059
517.5283, 2125.429
518.0104, 2165.002
518.4925, 2209.227
518.9746, 2237.950
519.4567, 2233.410
519.9388, 2224.752
520.4210, 2224.332
520.9031, 2234.222
521.3852, 2246.944
521.8673, 2263.890
522.3494, 2282.534
522.8315, 2303.015
523.3137, 2330.704
523.7958, 2337.526
524.2779, 2310.427
524.7600, 2261.570
525.2421, 2237.981
525.7242, 2240.481
526.2064, 2238.568
526.6885, 2204.143
527.1706, 2150.460
527.6527, 2117.659
528.1348, 2110.334
528.6169, 2108.519
529.0991, 2090.680
529.5812, 2065.650
530.0633, 2048.764
530.5454, 2054.171
531.0275, 2059.359
531.5096, 2045.736
531.9918, 2019.022
532.4739, 1998.121
532.9560, 1999.448
533.4381, 2001.154
533.9202, 1990.545
534.4023, 1961.470
534.8845, 1940.871
535.3666, 1941.590
535.8487, 1944.648
536.3308, 1931.635
536.8129, 1887.385
537.2950, 1860.926
537.7772, 1864.523
538.2593, 1886.410
538.7414, 1892.302
539.2235, 1878.875
539.7056, 1867.000
540.1877, 1863.741
540.6699, 1869.775
541.1520, 1896.970
541.6341, 1947.755
542.1162, 1990.843
542.5983, 1991.447
543.0804, 1962.829
543.5626, 1932.626
544.0447, 1904.352
544.5268, 1882.157
545.0089, 1865.030
545.4910, 1856.302
545.9731, 1863.073
546.4553, 1916.184
546.9374, 1961.379
547.4195, 1964.826
547.9016, 1924.445
548.3837, 1889.851
548.8658, 1879.965
549.3480, 1873.985
549.8301, 1858.175
550.3122, 1815.205
550.7943, 1794.221
551.2764, 1806.657
551.7585, 1833.045
552.2407, 1842.766
552.7228, 1834.038
553.2049, 1814.563
553.6870, 1780.692
554.1691, 1739.183
554.6512, 1717.751
555.1334, 1716.769
555.6155, 1724.283
556.0976, 1742.650
556.5797, 1762.001
557.0618, 1754.768
557.5439, 1715.293
558.0261, 1671.610
558.5082, 1644.163
558.9903, 1630.281
559.4724, 1625.414
559.9545, 1629.805
560.4366, 1640.994
560.9188, 1667.544
561.4009, 1701.693
561.8830, 1718.316
562.3651, 1701.260
562.8472, 1674.207
563.3293, 1640.207
563.8115, 1592.864
564.2936, 1575.889
564.7757, 1605.964
565.2578, 1647.840
565.7399, 1673.486
566.2220, 1680.550
566.7042, 1681.561
567.1863, 1678.518
567.6684, 1669.031
568.1505, 1641.140
568.6326, 1596.177
569.1147, 1564.368
569.5969, 1564.024
570.0790, 1582.507
570.5611, 1599.789
571.0432, 1615.073
571.5253, 1621.732
572.0074, 1603.030
572.4896, 1579.124
572.9717, 1573.781
573.4538, 1596.233
573.9359, 1616.502
574.4180, 1625.008
574.9001, 1622.353
575.3823, 1609.475
575.8644, 1564.740
576.3465, 1534.992
576.8286, 1534.900
577.3107, 1556.317
577.7928, 1569.509
578.2750, 1572.825
578.7571, 1571.008
579.2392, 1564.326
579.7213, 1552.501
580.2034, 1545.323
580.6855, 1543.062
581.1677, 1544.055
581.6498, 1551.846
582.1320, 1563.122
582.6141, 1559.518
583.0962, 1534.313
583.5783, 1504.128
584.0604, 1483.874
584.5425, 1473.189
585.0247, 1470.917
585.5068, 1484.151
585.9889, 1499.191
586.4710, 1506.455
586.9531, 1507.004
587.4352, 1508.585
587.9174, 1520.743
588.3995, 1529.082
588.8816, 1524.569
589.3637, 1500.166
589.8458, 1480.270
590.3279, 1457.357
590.8101, 1445.472
591.2922, 1464.645
591.7743, 1528.251
592.2564, 1570.618
592.7385, 1579.985
593.2206, 1566.375
593.7028, 1543.802
594.1849, 1513.110
594.6670, 1494.790
595.1491, 1506.960
595.6312, 1534.417
596.1133, 1549.318
596.5955, 1552.426
597.0776, 1551.796
597.5597, 1550.646
598.0418, 1549.832
598.5239, 1550.740
599.0060, 1554.547
599.4882, 1556.528
599.9703, 1549.917
600.4524, 1542.649
600.9345, 1543.555
601.4166, 1558.146
601.8987, 1576.207
602.3809, 1600.952
602.8630, 1627.822
603.3451, 1643.803
603.8272, 1645.880
604.3093, 1644.396
604.7914, 1639.645
605.2736, 1633.714
605.7557, 1646.440
606.2378, 1679.742
606.7199, 1709.566
607.2020, 1715.493
607.6841, 1703.921
608.1663, 1685.679
608.6484, 1659.699
609.1305, 1642.096
609.6126, 1653.365
610.0947, 1679.854
610.5768, 1702.404
611.0590, 1715.407
611.5411, 1722.458
612.0232, 1720.550
612.5053, 1713.197
612.9874, 1711.123
613.4695, 1723.457
613.9517, 1732.283
614.4338, 1730.165
614.9159, 1716.902
615.3980, 1715.902
615.8801, 1731.413
616.3622, 1748.464
616.8444, 1759.683
617.3265, 1764.662
617.8086, 1749.914
618.2907, 1709.537
618.7728, 1672.821
619.2549, 1677.854
619.7371, 1713.186
620.2192, 1753.406
620.7013, 1796.772
621.1834, 1833.357
621.6655, 1849.144
622.1476, 1852.154
622.6298, 1860.672
623.1119, 1891.017
623.5940, 1919.239
624.0761, 1926.528
624.5582, 1912.587
625.0403, 1932.813
625.5225, 2020.432
626.0046, 2104.378
626.4867, 2143.628
626.9688, 2124.510
627.4509, 2133.336
627.9330, 2175.941
628.4152, 2231.073
628.8973, 2273.096
629.3794, 2304.907
629.8615, 2350.204
630.3436, 2420.933
630.8257, 2489.903
631.3079, 2519.393
631.7900, 2520.905
632.2721, 2522.159
632.7542, 2529.378
633.2363, 2545.873
633.7184, 2576.286
634.2006, 2619.079
634.6827, 2664.417
635.1648, 2719.012
635.6469, 2767.628
636.1290, 2801.657
636.6111, 2817.515
637.0933, 2842.356
637.5754, 2881.087
638.0575, 2921.814
638.5396, 2954.322
639.0217, 2978.301
639.5038, 3004.205
639.9860, 3034.589
640.4681, 3062.809
640.9502, 3073.851
641.4323, 3073.595
641.9144, 3082.898
642.3965, 3115.336
642.8787, 3151.573
643.3608, 3168.201
643.8429, 3173.033
644.3250, 3187.169
644.8071, 3225.138
645.2892, 3269.550
645.7714, 3313.052
646.2535, 3355.193
646.7356, 3397.312
647.2177, 3425.178
647.6998, 3468.944
648.1819, 3546.839
648.6641, 3667.709
649.1462, 3779.202
649.6283, 3876.977
650.1104, 3980.080
650.5925, 4116.664
651.0746, 4281.192
651.5568, 4424.475
652.0389, 4531.590
652.5210, 4635.867
653.0031, 4787.126
653.4852, 4965.669
653.9673, 5129.643
654.4495, 5247.760
654.9316, 5359.244
655.4137, 5490.138
655.8958, 5633.153
656.3779, 5761.623
656.8600, 5869.060
657.3422, 5960.628
657.8243, 6035.048
658.3064, 6090.805
658.7885, 6159.392
659.2706, 6255.741
659.7527, 6330.941
660.2349, 6346.286
660.7170, 6304.677
661.1991, 6257.693
661.6812, 6209.613
662.1633, 6144.157
662.6454, 6040.372
663.1276, 5906.567
663.6097, 5758.721
664.0918, 5599.467
664.5739, 5430.211
665.0560, 5241.677
665.5381, 5045.092
666.0203, 4861.909
666.5024, 4720.044
666.9845, 4566.166
667.4666, 4371.648
667.9487, 4151.437
668.4308, 3966.147
668.9130, 3826.677
669.3951, 3696.212
669.8772, 3562.508
670.3593, 3426.406
670.8414, 3298.755
671.3235, 3178.983
671.8057, 3069.242
672.2878, 2975.275
