##NAMES=Ferrinatrite
##RRUFFID=R170042
##IDEAL CHEMISTRY=Na_3_Fe^3+^(S^6+^O_4_)_3_&#183;3H_2_O
##LOCALITY=Alcaparrosa, Antofogasta, Chile
##OWNER=RRUFF
##SOURCE=James Shigley
##DESCRIPTION=Colorless acicular crystals, associated with colorless tabular rhomboclase (R070507) and pale yellow-brown r√∂merite
##STATUS=The identification of this mineral has been confirmed by single-crystal X-ray diffraction.
##URL=rruff.info/R170042
9.392212e+001, 2.604930e+002
9.440424e+001, 2.632363e+002
9.488635e+001, 2.677158e+002
9.536847e+001, 2.724725e+002
9.585059e+001, 2.750141e+002
9.633270e+001, 2.754446e+002
9.681482e+001, 2.758951e+002
9.729694e+001, 2.774987e+002
9.777905e+001, 2.801791e+002
9.826117e+001, 2.831039e+002
9.874329e+001, 2.860178e+002
9.922540e+001, 2.892268e+002
9.970752e+001, 2.935001e+002
1.001896e+002, 2.988634e+002
1.006718e+002, 3.048593e+002
1.011539e+002, 3.113033e+002
1.016360e+002, 3.182083e+002
1.021181e+002, 3.251104e+002
1.026002e+002, 3.315360e+002
1.030823e+002, 3.377502e+002
1.035645e+002, 3.459155e+002
1.040466e+002, 3.568583e+002
1.045287e+002, 3.686862e+002
1.050108e+002, 3.799239e+002
1.054929e+002, 3.896738e+002
1.059750e+002, 4.003383e+002
1.064572e+002, 4.125843e+002
1.069393e+002, 4.266795e+002
1.074214e+002, 4.400194e+002
1.079035e+002, 4.532442e+002
1.083856e+002, 4.656400e+002
1.088677e+002, 4.764494e+002
1.093499e+002, 4.846413e+002
1.098320e+002, 4.924977e+002
1.103141e+002, 5.005988e+002
1.107962e+002, 5.094689e+002
1.112783e+002, 5.174469e+002
1.117604e+002, 5.237249e+002
1.122426e+002, 5.292855e+002
1.127247e+002, 5.355057e+002
1.132068e+002, 5.412003e+002
1.136889e+002, 5.486894e+002
1.141710e+002, 5.588812e+002
1.146531e+002, 5.722557e+002
1.151353e+002, 5.876486e+002
1.156174e+002, 6.052515e+002
1.160995e+002, 6.248438e+002
1.165816e+002, 6.460107e+002
1.170637e+002, 6.693784e+002
1.175458e+002, 6.937537e+002
1.180280e+002, 7.188708e+002
1.185101e+002, 7.464548e+002
1.189922e+002, 7.721394e+002
1.194743e+002, 7.938076e+002
1.199564e+002, 8.117601e+002
1.204385e+002, 8.274474e+002
1.209207e+002, 8.412880e+002
1.214028e+002, 8.533342e+002
1.218849e+002, 8.637078e+002
1.223670e+002, 8.703541e+002
1.228491e+002, 8.767762e+002
1.233312e+002, 8.860909e+002
1.238134e+002, 8.982508e+002
1.242955e+002, 9.116935e+002
1.247776e+002, 9.244100e+002
1.252597e+002, 9.375020e+002
1.257418e+002, 9.531819e+002
1.262239e+002, 9.719491e+002
1.267061e+002, 9.941313e+002
1.271882e+002, 1.020361e+003
1.276703e+002, 1.050670e+003
1.281524e+002, 1.083861e+003
1.286345e+002, 1.118332e+003
1.291166e+002, 1.154421e+003
1.295988e+002, 1.193517e+003
1.300809e+002, 1.236832e+003
1.305630e+002, 1.283834e+003
1.310451e+002, 1.333175e+003
1.315272e+002, 1.384892e+003
1.320093e+002, 1.437768e+003
1.324915e+002, 1.491619e+003
1.329736e+002, 1.546399e+003
1.334557e+002, 1.599396e+003
1.339378e+002, 1.649363e+003
1.344199e+002, 1.696290e+003
1.349020e+002, 1.738293e+003
1.353842e+002, 1.776076e+003
1.358663e+002, 1.807293e+003
1.363484e+002, 1.828731e+003
1.368305e+002, 1.839882e+003
1.373126e+002, 1.842210e+003
1.377947e+002, 1.837095e+003
1.382769e+002, 1.824934e+003
1.387590e+002, 1.800905e+003
1.392411e+002, 1.762898e+003
1.397232e+002, 1.713073e+003
1.402053e+002, 1.658851e+003
1.406874e+002, 1.598506e+003
1.411696e+002, 1.536628e+003
1.416517e+002, 1.476745e+003
1.421338e+002, 1.418057e+003
1.426159e+002, 1.362569e+003
1.430980e+002, 1.309530e+003
1.435801e+002, 1.259513e+003
1.440623e+002, 1.215459e+003
1.445444e+002, 1.179060e+003
1.450265e+002, 1.146938e+003
1.455086e+002, 1.116821e+003
1.459907e+002, 1.086925e+003
1.464728e+002, 1.061537e+003
1.469550e+002, 1.041304e+003
1.474371e+002, 1.026461e+003
1.479192e+002, 1.014913e+003
1.484013e+002, 1.008605e+003
1.488834e+002, 1.004431e+003
1.493655e+002, 9.995426e+002
1.498477e+002, 9.914445e+002
1.503298e+002, 9.852650e+002
1.508119e+002, 9.822246e+002
1.512940e+002, 9.827603e+002
1.517761e+002, 9.838158e+002
1.522582e+002, 9.848385e+002
1.527404e+002, 9.864966e+002
1.532225e+002, 9.895233e+002
1.537046e+002, 9.952490e+002
1.541867e+002, 1.001180e+003
1.546688e+002, 1.006706e+003
1.551509e+002, 1.011813e+003
1.556331e+002, 1.016740e+003
1.561152e+002, 1.022239e+003
1.565973e+002, 1.027396e+003
1.570794e+002, 1.031017e+003
1.575615e+002, 1.032314e+003
1.580436e+002, 1.032448e+003
1.585258e+002, 1.032032e+003
1.590079e+002, 1.031497e+003
1.594900e+002, 1.029315e+003
1.599721e+002, 1.024567e+003
1.604542e+002, 1.017919e+003
1.609363e+002, 1.010608e+003
1.614185e+002, 1.003984e+003
1.619006e+002, 9.961478e+002
1.623827e+002, 9.855840e+002
1.628648e+002, 9.707279e+002
1.633469e+002, 9.562389e+002
1.638290e+002, 9.439076e+002
1.643112e+002, 9.335135e+002
1.647933e+002, 9.242435e+002
1.652754e+002, 9.165079e+002
1.657575e+002, 9.093507e+002
1.662396e+002, 9.019362e+002
1.667217e+002, 8.936393e+002
1.672039e+002, 8.859631e+002
1.676860e+002, 8.811649e+002
1.681681e+002, 8.781271e+002
1.686502e+002, 8.731639e+002
1.691323e+002, 8.638307e+002
1.696144e+002, 8.517622e+002
1.700966e+002, 8.381932e+002
1.705787e+002, 8.222891e+002
1.710608e+002, 8.066805e+002
1.715429e+002, 7.939712e+002
1.720250e+002, 7.835680e+002
1.725071e+002, 7.733833e+002
1.729893e+002, 7.617086e+002
1.734714e+002, 7.493005e+002
1.739535e+002, 7.370961e+002
1.744356e+002, 7.248512e+002
1.749177e+002, 7.134626e+002
1.753998e+002, 7.041921e+002
1.758820e+002, 6.967841e+002
1.763641e+002, 6.895834e+002
1.768462e+002, 6.806993e+002
1.773283e+002, 6.711931e+002
1.778104e+002, 6.630069e+002
1.782925e+002, 6.564154e+002
1.787747e+002, 6.517814e+002
1.792568e+002, 6.503758e+002
1.797389e+002, 6.521054e+002
1.802210e+002, 6.545931e+002
1.807031e+002, 6.556591e+002
1.811852e+002, 6.559052e+002
1.816674e+002, 6.568781e+002
1.821495e+002, 6.587993e+002
1.826316e+002, 6.618754e+002
1.831137e+002, 6.669904e+002
1.835958e+002, 6.742206e+002
1.840779e+002, 6.815779e+002
1.845601e+002, 6.863211e+002
1.850422e+002, 6.892703e+002
1.855243e+002, 6.944153e+002
1.860064e+002, 7.035658e+002
1.864885e+002, 7.155660e+002
1.869706e+002, 7.273676e+002
1.874528e+002, 7.390671e+002
1.879349e+002, 7.506674e+002
1.884170e+002, 7.619332e+002
1.888991e+002, 7.729855e+002
1.893812e+002, 7.846676e+002
1.898633e+002, 7.971550e+002
1.903455e+002, 8.105695e+002
1.908276e+002, 8.255840e+002
1.913097e+002, 8.424304e+002
1.917918e+002, 8.604391e+002
1.922739e+002, 8.793743e+002
1.927560e+002, 8.994396e+002
1.932382e+002, 9.187560e+002
1.937203e+002, 9.369284e+002
1.942024e+002, 9.539017e+002
1.946845e+002, 9.698918e+002
1.951666e+002, 9.847238e+002
1.956487e+002, 9.987339e+002
1.961309e+002, 1.013357e+003
1.966130e+002, 1.029024e+003
1.970951e+002, 1.040384e+003
1.975772e+002, 1.044917e+003
1.980593e+002, 1.043165e+003
1.985414e+002, 1.041268e+003
1.990236e+002, 1.039659e+003
1.995057e+002, 1.036882e+003
1.999878e+002, 1.030514e+003
2.004699e+002, 1.020058e+003
2.009520e+002, 1.009701e+003
2.014341e+002, 1.000565e+003
2.019163e+002, 9.926716e+002
2.023984e+002, 9.856234e+002
2.028805e+002, 9.790246e+002
2.033626e+002, 9.741159e+002
2.038447e+002, 9.731547e+002
2.043268e+002, 9.769059e+002
2.048090e+002, 9.809090e+002
2.052911e+002, 9.834451e+002
2.057732e+002, 9.844521e+002
2.062553e+002, 9.866877e+002
2.067374e+002, 9.900942e+002
2.072195e+002, 9.947592e+002
2.077017e+002, 1.000843e+003
2.081838e+002, 1.008393e+003
2.086659e+002, 1.017131e+003
2.091480e+002, 1.026840e+003
2.096301e+002, 1.037521e+003
2.101122e+002, 1.049371e+003
2.105944e+002, 1.061979e+003
2.110765e+002, 1.076067e+003
2.115586e+002, 1.093041e+003
2.120407e+002, 1.113942e+003
2.125228e+002, 1.134833e+003
2.130049e+002, 1.154454e+003
2.134871e+002, 1.172668e+003
2.139692e+002, 1.190026e+003
2.144513e+002, 1.206235e+003
2.149334e+002, 1.221960e+003
2.154155e+002, 1.238263e+003
2.158976e+002, 1.256214e+003
2.163798e+002, 1.272412e+003
2.168619e+002, 1.285505e+003
2.173440e+002, 1.295156e+003
2.178261e+002, 1.304338e+003
2.183082e+002, 1.313468e+003
2.187904e+002, 1.321636e+003
2.192725e+002, 1.327944e+003
2.197546e+002, 1.333470e+003
2.202367e+002, 1.334698e+003
2.207188e+002, 1.329953e+003
2.212009e+002, 1.318670e+003
2.216831e+002, 1.306679e+003
2.221652e+002, 1.295144e+003
2.226473e+002, 1.281963e+003
2.231294e+002, 1.263992e+003
2.236115e+002, 1.238514e+003
2.240936e+002, 1.213390e+003
2.245758e+002, 1.190296e+003
2.250579e+002, 1.169427e+003
2.255400e+002, 1.149948e+003
2.260221e+002, 1.131489e+003
2.265042e+002, 1.114712e+003
2.269863e+002, 1.100924e+003
2.274685e+002, 1.090747e+003
2.279506e+002, 1.082079e+003
2.284327e+002, 1.074285e+003
2.289148e+002, 1.067111e+003
2.293969e+002, 1.061980e+003
2.298790e+002, 1.058847e+003
2.303612e+002, 1.057650e+003
2.308433e+002, 1.058272e+003
2.313254e+002, 1.060666e+003
2.318075e+002, 1.064969e+003
2.322896e+002, 1.071383e+003
2.327717e+002, 1.080120e+003
2.332539e+002, 1.089527e+003
2.337360e+002, 1.098930e+003
2.342181e+002, 1.109422e+003
2.347002e+002, 1.122612e+003
2.351823e+002, 1.140032e+003
2.356644e+002, 1.157273e+003
2.361466e+002, 1.173135e+003
2.366287e+002, 1.187359e+003
2.371108e+002, 1.203065e+003
2.375929e+002, 1.220723e+003
2.380750e+002, 1.239173e+003
2.385571e+002, 1.257029e+003
2.390393e+002, 1.273492e+003
2.395214e+002, 1.290893e+003
2.400035e+002, 1.310484e+003
2.404856e+002, 1.332416e+003
2.409677e+002, 1.352193e+003
2.414498e+002, 1.368746e+003
2.419320e+002, 1.383952e+003
2.424141e+002, 1.399682e+003
2.428962e+002, 1.417147e+003
2.433783e+002, 1.432718e+003
2.438604e+002, 1.445211e+003
2.443425e+002, 1.454597e+003
2.448247e+002, 1.464736e+003
2.453068e+002, 1.476914e+003
2.457889e+002, 1.488394e+003
2.462710e+002, 1.496744e+003
2.467531e+002, 1.500323e+003
2.472352e+002, 1.503969e+003
2.477174e+002, 1.508546e+003
2.481995e+002, 1.514014e+003
2.486816e+002, 1.518921e+003
2.491637e+002, 1.523949e+003
2.496458e+002, 1.527745e+003
2.501279e+002, 1.529430e+003
2.506101e+002, 1.529295e+003
2.510922e+002, 1.526562e+003
2.515743e+002, 1.520827e+003
2.520564e+002, 1.512367e+003
2.525385e+002, 1.502940e+003
2.530206e+002, 1.493455e+003
2.535028e+002, 1.481699e+003
2.539849e+002, 1.465946e+003
2.544670e+002, 1.443988e+003
2.549491e+002, 1.422916e+003
2.554312e+002, 1.403713e+003
2.559133e+002, 1.386045e+003
2.563954e+002, 1.366758e+003
2.568776e+002, 1.343190e+003
2.573597e+002, 1.321834e+003
2.578418e+002, 1.307614e+003
2.583239e+002, 1.304078e+003
2.588060e+002, 1.297396e+003
2.592881e+002, 1.284868e+003
2.597703e+002, 1.268620e+003
2.602524e+002, 1.257116e+003
2.607345e+002, 1.251707e+003
2.612166e+002, 1.248410e+003
2.616987e+002, 1.245318e+003
2.621808e+002, 1.242699e+003
2.626630e+002, 1.239650e+003
2.631451e+002, 1.236373e+003
2.636272e+002, 1.232610e+003
2.641093e+002, 1.227520e+003
2.645914e+002, 1.221150e+003
2.650735e+002, 1.213540e+003
2.655557e+002, 1.204583e+003
2.660378e+002, 1.194438e+003
2.665199e+002, 1.183171e+003
2.670020e+002, 1.171218e+003
2.674841e+002, 1.157875e+003
2.679662e+002, 1.141620e+003
2.684484e+002, 1.121816e+003
2.689305e+002, 1.101058e+003
2.694126e+002, 1.081056e+003
2.698947e+002, 1.062410e+003
2.703768e+002, 1.040144e+003
2.708589e+002, 1.013183e+003
2.713411e+002, 9.839077e+002
2.718232e+002, 9.570731e+002
2.723053e+002, 9.334539e+002
2.727874e+002, 9.092684e+002
2.732695e+002, 8.824224e+002
2.737516e+002, 8.526904e+002
2.742338e+002, 8.243885e+002
2.747159e+002, 7.975518e+002
2.751980e+002, 7.718063e+002
2.756801e+002, 7.468607e+002
2.761622e+002, 7.225402e+002
2.766443e+002, 7.001965e+002
2.771265e+002, 6.807596e+002
2.776086e+002, 6.638338e+002
2.780907e+002, 6.470353e+002
2.785728e+002, 6.303640e+002
2.790549e+002, 6.136027e+002
2.795370e+002, 5.958533e+002
2.800192e+002, 5.768867e+002
2.805013e+002, 5.602177e+002
2.809834e+002, 5.474961e+002
2.814655e+002, 5.378036e+002
2.819476e+002, 5.264022e+002
2.824297e+002, 5.128622e+002
2.829119e+002, 4.994330e+002
2.833940e+002, 4.881969e+002
2.838761e+002, 4.791282e+002
2.843582e+002, 4.709854e+002
2.848403e+002, 4.636409e+002
2.853224e+002, 4.569520e+002
2.858046e+002, 4.505172e+002
2.862867e+002, 4.443920e+002
2.867688e+002, 4.384860e+002
2.872509e+002, 4.326944e+002
2.877330e+002, 4.270413e+002
2.882151e+002, 4.218076e+002
2.886973e+002, 4.171507e+002
2.891794e+002, 4.127892e+002
2.896615e+002, 4.078382e+002
2.901436e+002, 4.023947e+002
2.906257e+002, 3.975225e+002
2.911078e+002, 3.944371e+002
2.915900e+002, 3.926851e+002
2.920721e+002, 3.901245e+002
2.925542e+002, 3.862803e+002
2.930363e+002, 3.821781e+002
2.935184e+002, 3.798972e+002
2.940005e+002, 3.791743e+002
2.944827e+002, 3.777897e+002
2.949648e+002, 3.735027e+002
2.954469e+002, 3.675783e+002
2.959290e+002, 3.635521e+002
2.964111e+002, 3.617781e+002
2.968932e+002, 3.612041e+002
2.973754e+002, 3.612563e+002
2.978575e+002, 3.616326e+002
2.983396e+002, 3.611994e+002
2.988217e+002, 3.587375e+002
2.993038e+002, 3.552911e+002
2.997859e+002, 3.527282e+002
3.002681e+002, 3.511627e+002
3.007502e+002, 3.499065e+002
3.012323e+002, 3.482124e+002
3.017144e+002, 3.463302e+002
3.021965e+002, 3.448544e+002
3.026786e+002, 3.445137e+002
3.031608e+002, 3.444202e+002
3.036429e+002, 3.433280e+002
3.041250e+002, 3.412908e+002
3.046071e+002, 3.391638e+002
3.050892e+002, 3.373900e+002
3.055714e+002, 3.360102e+002
3.060535e+002, 3.352123e+002
3.065356e+002, 3.356866e+002
3.070177e+002, 3.360768e+002
3.074998e+002, 3.345277e+002
3.079819e+002, 3.314707e+002
3.084641e+002, 3.292722e+002
3.089462e+002, 3.304626e+002
3.094283e+002, 3.328815e+002
3.099104e+002, 3.340228e+002
3.103925e+002, 3.327220e+002
3.108746e+002, 3.311208e+002
3.113568e+002, 3.310024e+002
3.118389e+002, 3.318004e+002
3.123210e+002, 3.319543e+002
3.128031e+002, 3.297745e+002
3.132852e+002, 3.271815e+002
3.137673e+002, 3.258451e+002
3.142495e+002, 3.265363e+002
3.147316e+002, 3.269304e+002
3.152137e+002, 3.250858e+002
3.156958e+002, 3.222531e+002
3.161779e+002, 3.205685e+002
3.166600e+002, 3.223170e+002
3.171422e+002, 3.242607e+002
3.176243e+002, 3.245219e+002
3.181064e+002, 3.226650e+002
3.185885e+002, 3.209216e+002
3.190706e+002, 3.201438e+002
3.195527e+002, 3.198582e+002
3.200349e+002, 3.195269e+002
3.205170e+002, 3.183898e+002
3.209991e+002, 3.177763e+002
3.214812e+002, 3.185204e+002
3.219633e+002, 3.206420e+002
3.224454e+002, 3.220722e+002
3.229276e+002, 3.216904e+002
3.234097e+002, 3.208420e+002
3.238918e+002, 3.205343e+002
3.243739e+002, 3.215468e+002
3.248560e+002, 3.224020e+002
3.253381e+002, 3.230634e+002
3.258203e+002, 3.234644e+002
3.263024e+002, 3.231878e+002
3.267845e+002, 3.210734e+002
3.272666e+002, 3.191083e+002
3.277487e+002, 3.182552e+002
3.282308e+002, 3.194232e+002
3.287130e+002, 3.205120e+002
3.291951e+002, 3.217924e+002
3.296772e+002, 3.229930e+002
3.301593e+002, 3.233781e+002
3.306414e+002, 3.221546e+002
3.311235e+002, 3.210354e+002
3.316057e+002, 3.205957e+002
3.320878e+002, 3.209915e+002
3.325699e+002, 3.216119e+002
3.330520e+002, 3.225141e+002
3.335341e+002, 3.236088e+002
3.340162e+002, 3.248606e+002
3.344984e+002, 3.265714e+002
3.349805e+002, 3.278358e+002
3.354626e+002, 3.283655e+002
3.359447e+002, 3.281365e+002
3.364268e+002, 3.277596e+002
3.369089e+002, 3.270084e+002
3.373911e+002, 3.264544e+002
3.378732e+002, 3.268200e+002
3.383553e+002, 3.284149e+002
3.388374e+002, 3.296519e+002
3.393195e+002, 3.302265e+002
3.398016e+002, 3.302270e+002
3.402838e+002, 3.298629e+002
3.407659e+002, 3.288809e+002
3.412480e+002, 3.284096e+002
3.417301e+002, 3.296452e+002
3.422122e+002, 3.326309e+002
3.426944e+002, 3.348045e+002
3.431765e+002, 3.357805e+002
3.436586e+002, 3.359498e+002
3.441407e+002, 3.359347e+002
3.446228e+002, 3.357264e+002
3.451049e+002, 3.356371e+002
3.455871e+002, 3.358582e+002
3.460692e+002, 3.363622e+002
3.465513e+002, 3.370632e+002
3.470334e+002, 3.380577e+002
3.475155e+002, 3.388937e+002
3.479977e+002, 3.386264e+002
3.484798e+002, 3.375303e+002
3.489619e+002, 3.370556e+002
3.494440e+002, 3.384438e+002
3.499261e+002, 3.406480e+002
3.504082e+002, 3.412207e+002
3.508904e+002, 3.401735e+002
3.513725e+002, 3.389915e+002
3.518546e+002, 3.390540e+002
3.523367e+002, 3.399026e+002
3.528188e+002, 3.405989e+002
3.533009e+002, 3.409208e+002
3.537831e+002, 3.409095e+002
3.542652e+002, 3.404611e+002
3.547473e+002, 3.396550e+002
3.552294e+002, 3.388615e+002
3.557115e+002, 3.383701e+002
3.561936e+002, 3.379940e+002
3.566758e+002, 3.374752e+002
3.571579e+002, 3.366627e+002
3.576400e+002, 3.360333e+002
3.581221e+002, 3.364673e+002
3.586042e+002, 3.373192e+002
3.590863e+002, 3.373190e+002
3.595685e+002, 3.348568e+002
3.600506e+002, 3.321549e+002
3.605327e+002, 3.305764e+002
3.610148e+002, 3.303016e+002
3.614969e+002, 3.305456e+002
3.619790e+002, 3.312975e+002
3.624612e+002, 3.322713e+002
3.629433e+002, 3.331635e+002
3.634254e+002, 3.341859e+002
3.639075e+002, 3.348099e+002
3.643896e+002, 3.347979e+002
3.648717e+002, 3.341732e+002
3.653539e+002, 3.333095e+002
3.658360e+002, 3.318422e+002
3.663181e+002, 3.304385e+002
3.668002e+002, 3.294677e+002
3.672823e+002, 3.289619e+002
3.677644e+002, 3.288863e+002
3.682466e+002, 3.297579e+002
3.687287e+002, 3.310955e+002
3.692108e+002, 3.315524e+002
3.696929e+002, 3.300616e+002
3.701750e+002, 3.288071e+002
3.706571e+002, 3.285978e+002
3.711393e+002, 3.298750e+002
3.716214e+002, 3.307680e+002
3.721035e+002, 3.312550e+002
3.725856e+002, 3.313952e+002
3.730677e+002, 3.312201e+002
3.735498e+002, 3.305850e+002
3.740320e+002, 3.299792e+002
3.745141e+002, 3.295939e+002
3.749962e+002, 3.294007e+002
3.754783e+002, 3.286298e+002
3.759604e+002, 3.267339e+002
3.764425e+002, 3.254340e+002
3.769247e+002, 3.267759e+002
3.774068e+002, 3.313398e+002
3.778889e+002, 3.338239e+002
3.783710e+002, 3.330047e+002
3.788531e+002, 3.302492e+002
3.793352e+002, 3.286715e+002
3.798174e+002, 3.283266e+002
3.802995e+002, 3.286189e+002
3.807816e+002, 3.294988e+002
3.812637e+002, 3.308417e+002
3.817458e+002, 3.319072e+002
3.822279e+002, 3.327390e+002
3.827101e+002, 3.329363e+002
3.831922e+002, 3.311949e+002
3.836743e+002, 3.280561e+002
3.841564e+002, 3.262024e+002
3.846385e+002, 3.273219e+002
3.851206e+002, 3.300352e+002
3.856028e+002, 3.321383e+002
3.860849e+002, 3.336077e+002
3.865670e+002, 3.345860e+002
3.870491e+002, 3.351746e+002
3.875312e+002, 3.353546e+002
3.880133e+002, 3.350813e+002
3.884955e+002, 3.342682e+002
3.889776e+002, 3.331422e+002
3.894597e+002, 3.313993e+002
3.899418e+002, 3.294441e+002
3.904239e+002, 3.283276e+002
3.909060e+002, 3.292498e+002
3.913882e+002, 3.308421e+002
3.918703e+002, 3.320831e+002
3.923524e+002, 3.328262e+002
3.928345e+002, 3.334225e+002
3.933166e+002, 3.336967e+002
3.937987e+002, 3.340274e+002
3.942809e+002, 3.348857e+002
3.947630e+002, 3.371684e+002
3.952451e+002, 3.392672e+002
3.957272e+002, 3.405563e+002
3.962093e+002, 3.410576e+002
3.966914e+002, 3.414236e+002
3.971736e+002, 3.411992e+002
3.976557e+002, 3.412623e+002
3.981378e+002, 3.421631e+002
3.986199e+002, 3.457371e+002
3.991020e+002, 3.478646e+002
3.995841e+002, 3.472142e+002
4.000663e+002, 3.450990e+002
4.005484e+002, 3.447439e+002
4.010305e+002, 3.478012e+002
4.015126e+002, 3.505356e+002
4.019947e+002, 3.514014e+002
4.024768e+002, 3.497720e+002
4.029590e+002, 3.498138e+002
4.034411e+002, 3.523674e+002
4.039232e+002, 3.556358e+002
4.044053e+002, 3.574854e+002
4.048874e+002, 3.574213e+002
4.053695e+002, 3.576750e+002
4.058517e+002, 3.587264e+002
4.063338e+002, 3.604250e+002
4.068159e+002, 3.622606e+002
4.072980e+002, 3.643086e+002
4.077801e+002, 3.661503e+002
4.082622e+002, 3.672601e+002
4.087444e+002, 3.677231e+002
4.092265e+002, 3.687638e+002
4.097086e+002, 3.706365e+002
4.101907e+002, 3.727577e+002
4.106728e+002, 3.743755e+002
4.111549e+002, 3.755176e+002
4.116371e+002, 3.763894e+002
4.121192e+002, 3.767014e+002
4.126013e+002, 3.768842e+002
4.130834e+002, 3.779499e+002
4.135655e+002, 3.798900e+002
4.140476e+002, 3.819305e+002
4.145298e+002, 3.837856e+002
4.150119e+002, 3.852465e+002
4.154940e+002, 3.858769e+002
4.159761e+002, 3.849130e+002
4.164582e+002, 3.840573e+002
4.169403e+002, 3.850751e+002
4.174225e+002, 3.874369e+002
4.179046e+002, 3.895440e+002
4.183867e+002, 3.902326e+002
