##NAMES=Ferro-gedrite
##RRUFFID=R070531
##IDEAL CHEMISTRY=[box]Fe^2+^_2_(Fe^2+^_3_Al_2_)(Si_6_Al_2_)O_22_(OH)_2_
##LOCALITY=Ludvika, Dalarna District, Kopparberg, Sweden
##OWNER=RRUFF
##SOURCE=James Shigley
##DESCRIPTION=Flattened black prismatic crystals in semi-sheaflike aggregates, associated with quartz
##STATUS=The identification of this mineral is confirmed by single-crystal X-ray diffraction and chemical analysis.
##URL=rruff.info/R070531
##MEASURED CHEMISTRY=(Na_0.56_[box]_0.44_)_Σ=1_(Fe^2+^_1.94_Mn_0.05_Ca_0.01_)_Σ=2_(Fe^2+^_1.92_Mg_1.53_Al_1.52_Fe^3+^_0.02_Ti_0.01_)_Σ=5_(Si_5.88_Al_2.12_)_Σ=8_O_22_(OH)_2_; = light phase, and the dark phase is quartz
146.7805, 839.6486
147.2626, 847.9964
147.7448, 867.8918
148.2269, 885.5035
148.7090, 899.3992
149.1911, 909.8885
149.6732, 919.8503
150.1554, 932.8087
150.6375, 943.0557
151.1196, 946.3372
151.6017, 930.6345
152.0838, 920.5500
152.5659, 920.9703
153.0481, 933.3062
153.5302, 943.7558
154.0123, 949.9329
154.4944, 954.5189
154.9765, 960.2365
155.4586, 970.8600
155.9408, 979.5055
156.4229, 982.6334
156.9050, 972.9417
157.3871, 964.2760
157.8692, 970.7687
158.3513, 983.0100
158.8335, 985.5962
159.3156, 960.6520
159.7977, 936.6427
160.2798, 927.3759
160.7619, 941.7811
161.2440, 956.2371
161.7262, 966.0175
162.2083, 970.8992
162.6904, 970.0637
163.1725, 955.9545
163.6546, 940.3881
164.1367, 931.5462
164.6189, 935.9570
165.1010, 941.3765
165.5831, 942.1376
166.0652, 938.8969
166.5473, 934.9608
167.0294, 928.7830
167.5116, 923.9787
167.9937, 924.1370
168.4758, 935.8551
168.9579, 948.7179
169.4400, 957.0803
169.9221, 960.9529
170.4043, 960.4537
170.8864, 952.2276
171.3685, 940.2630
171.8506, 930.3225
172.3327, 925.3483
172.8148, 923.1968
173.2970, 921.1218
173.7791, 918.6826
174.2612, 919.8879
174.7433, 932.2814
175.2254, 951.0267
175.7076, 965.7394
176.1897, 968.1783
176.6718, 964.8611
177.1539, 966.1896
177.6360, 975.2755
178.1181, 980.8164
178.6003, 963.9931
179.0824, 930.7534
179.5645, 905.4380
180.0466, 908.5735
180.5287, 928.0480
181.0108, 940.1996
181.4930, 940.6072
181.9751, 935.2108
182.4572, 930.0401
182.9393, 925.3315
183.4214, 923.5394
183.9035, 929.9219
184.3857, 940.9358
184.8678, 945.9284
185.3499, 940.6976
185.8320, 930.5181
186.3141, 925.1624
186.7962, 924.5623
187.2784, 925.5113
187.7605, 924.5754
188.2426, 922.4935
188.7247, 923.3021
189.2068, 929.4803
189.6889, 938.5981
190.1711, 944.6687
190.6532, 947.6155
191.1353, 947.8160
191.6174, 942.8152
192.0995, 933.4380
192.5816, 929.4434
193.0638, 937.6413
193.5459, 954.2667
194.0280, 959.7106
194.5101, 951.9539
194.9922, 941.0473
195.4743, 940.5685
195.9565, 950.6392
196.4386, 960.0188
196.9207, 964.9844
197.4028, 965.6622
197.8849, 962.0499
198.3671, 952.4719
198.8492, 942.2499
199.3313, 939.2426
199.8134, 943.7837
200.2955, 952.8627
200.7776, 968.1409
201.2598, 990.1085
201.7419, 1003.845
202.2240, 1007.693
202.7061, 1005.393
203.1882, 1003.898
203.6703, 1003.288
204.1525, 1003.000
204.6346, 1002.565
205.1167, 1001.831
205.5988, 1001.984
206.0809, 1002.869
206.5630, 1004.808
207.0452, 1009.375
207.5273, 1017.769
208.0094, 1025.254
208.4915, 1028.294
208.9736, 1025.554
209.4557, 1025.606
209.9379, 1029.782
210.4200, 1037.011
210.9021, 1044.224
211.3842, 1052.616
211.8663, 1058.385
212.3484, 1057.514
212.8306, 1047.309
213.3127, 1041.542
213.7948, 1043.845
214.2769, 1052.099
214.7590, 1053.085
215.2411, 1042.996
215.7233, 1032.447
216.2054, 1031.109
216.6875, 1043.485
217.1696, 1051.015
217.6517, 1050.503
218.1338, 1042.419
218.6160, 1031.504
219.0981, 1014.349
219.5802, 999.0409
220.0623, 995.0356
220.5444, 1010.044
221.0265, 1016.408
221.5087, 1006.181
221.9908, 979.5477
222.4729, 960.7426
222.9550, 951.2328
223.4371, 947.5932
223.9192, 947.1615
224.4014, 952.1965
224.8835, 955.4783
225.3656, 955.4769
225.8477, 952.0908
226.3298, 946.8444
226.8119, 938.1621
227.2941, 929.1123
227.7762, 923.4625
228.2583, 923.7840
228.7404, 922.4045
229.2225, 916.3722
229.7046, 904.5999
230.1868, 897.7639
230.6689, 897.8416
231.1510, 901.2185
231.6331, 903.8090
232.1152, 906.8250
232.5974, 906.8369
233.0795, 902.7950
233.5616, 894.3680
234.0437, 883.5093
234.5258, 866.7322
235.0079, 849.9450
235.4901, 842.1678
235.9722, 847.7693
236.4543, 854.9355
236.9364, 860.4765
237.4185, 864.1582
237.9006, 867.3947
238.3828, 870.5917
238.8649, 873.0869
239.3470, 873.5206
239.8291, 870.0071
240.3112, 867.4462
240.7933, 868.3010
241.2755, 874.9291
241.7576, 875.7901
242.2397, 867.1159
242.7218, 854.6739
243.2039, 848.8436
243.6860, 851.6720
244.1682, 857.8487
244.6503, 866.7570
245.1324, 881.1927
245.6145, 888.8250
246.0966, 886.6517
246.5787, 879.2177
247.0609, 875.3731
247.5430, 877.0658
248.0251, 879.1793
248.5072, 879.7249
248.9893, 877.9440
249.4714, 876.6482
249.9536, 874.5258
250.4357, 873.4745
250.9178, 878.8674
251.3999, 897.2486
251.8820, 910.8970
252.3641, 911.6516
252.8463, 894.2092
253.3284, 879.0370
253.8105, 864.6946
254.2926, 853.4032
254.7747, 851.7198
255.2568, 866.4751
255.7390, 878.8379
256.2211, 879.3207
256.7032, 860.6045
257.1853, 852.7717
257.6674, 859.9867
258.1495, 875.9924
258.6317, 887.4501
259.1138, 894.5389
259.5959, 896.5396
260.0780, 891.5248
260.5601, 875.1918
261.0422, 865.5680
261.5244, 865.1263
262.0065, 869.9359
262.4886, 870.5829
262.9707, 864.6012
263.4528, 859.7911
263.9349, 860.0040
264.4171, 867.0329
264.8992, 873.1169
265.3813, 878.5582
265.8634, 882.9001
266.3455, 884.2957
266.8276, 880.6884
267.3098, 879.3121
267.7919, 885.4343
268.2740, 902.6219
268.7561, 910.5336
269.2382, 905.9124
269.7203, 894.3979
270.2025, 887.5909
270.6846, 886.8575
271.1667, 886.8207
271.6488, 884.6213
272.1309, 879.5432
272.6130, 876.5455
273.0952, 875.6798
273.5773, 876.9442
274.0594, 881.4259
274.5415, 890.3290
275.0236, 897.4447
275.5057, 899.3036
275.9879, 895.3946
276.4700, 891.5380
276.9521, 887.8031
277.4342, 884.1962
277.9163, 880.8547
278.3984, 877.8823
278.8806, 874.6055
279.3627, 870.2554
279.8448, 864.7865
280.3269, 860.4095
280.8090, 856.6030
281.2911, 854.9158
281.7733, 860.0478
282.2554, 872.8903
282.7375, 882.5629
283.2196, 881.6207
283.7017, 870.7653
284.1838, 865.3948
284.6660, 866.4608
285.1481, 871.2458
285.6302, 876.1434
286.1123, 881.1514
286.5944, 886.5974
287.0765, 894.1318
287.5587, 902.9666
288.0408, 907.0025
288.5229, 905.7753
289.0050, 901.1611
289.4871, 894.3807
289.9692, 885.6846
290.4514, 878.3203
290.9335, 874.1560
291.4156, 872.5575
291.8977, 870.5650
292.3798, 867.8172
292.8619, 866.3910
293.3441, 869.8707
293.8262, 877.4829
294.3083, 884.6349
294.7904, 891.5100
295.2726, 896.4442
295.7547, 892.6922
296.2368, 879.3117
296.7189, 866.1642
297.2010, 866.0964
297.6831, 875.6603
298.1653, 883.3858
298.6474, 884.1089
299.1295, 880.3297
299.6116, 874.8806
300.0937, 867.6709
300.5758, 862.9264
301.0580, 867.6799
301.5401, 878.0336
302.0222, 885.0637
302.5043, 882.1295
302.9864, 875.9262
303.4685, 877.0162
303.9507, 885.0220
304.4328, 890.6238
304.9149, 881.3826
305.3970, 865.5635
305.8791, 856.9001
306.3612, 866.1641
306.8434, 879.6474
307.3255, 883.5323
307.8076, 878.6912
308.2897, 872.7194
308.7718, 869.1904
309.2539, 868.0447
309.7361, 869.4722
310.2182, 876.3981
310.7003, 882.7548
311.1824, 881.9760
311.6645, 875.6822
312.1466, 872.1387
312.6288, 881.0480
313.1109, 892.4801
313.5930, 896.5515
314.0751, 885.0744
314.5572, 873.8681
315.0393, 873.8217
315.5215, 881.6595
316.0036, 885.9138
316.4857, 877.8798
316.9678, 866.7020
317.4499, 858.4830
317.9320, 853.8932
318.4142, 853.3518
318.8963, 861.1045
319.3784, 873.2856
319.8605, 880.6776
320.3426, 873.6735
320.8247, 865.7689
321.3069, 864.5421
321.7890, 873.9549
322.2711, 883.5231
322.7532, 893.2841
323.2353, 901.4575
323.7174, 904.7202
324.1996, 893.6473
324.6817, 884.9805
325.1638, 886.5085
325.6459, 904.1362
326.1280, 916.6634
326.6101, 922.5203
327.0923, 922.1437
327.5744, 916.1404
328.0565, 892.8514
328.5386, 875.4467
329.0207, 870.2750
329.5028, 879.8817
329.9850, 890.9113
330.4671, 908.3340
330.9492, 924.5944
331.4313, 931.2549
331.9134, 921.1962
332.3955, 911.5510
332.8777, 905.1174
333.3598, 901.9913
333.8419, 902.1702
334.3240, 908.8620
334.8061, 915.5151
335.2882, 914.9139
335.7704, 900.5580
336.2525, 894.4713
336.7346, 904.6021
337.2167, 927.7385
337.6988, 935.1522
338.1809, 920.4344
338.6631, 902.8068
339.1452, 898.9454
339.6273, 912.8383
340.1094, 920.1069
340.5915, 916.1363
341.0736, 904.0852
341.5558, 894.3076
342.0379, 886.5577
342.5200, 881.5755
343.0021, 880.6182
343.4842, 883.6924
343.9663, 886.6084
344.4485, 889.1270
344.9306, 891.0826
345.4127, 891.7134
345.8948, 891.0450
346.3769, 890.5692
346.8590, 893.2339
347.3412, 897.4180
347.8233, 893.6179
348.3054, 879.5134
348.7875, 864.2311
349.2696, 860.5884
349.7517, 867.0408
350.2339, 875.9798
350.7160, 886.9573
351.1981, 897.2046
351.6802, 900.8770
352.1623, 897.4521
352.6444, 890.7304
353.1266, 880.7211
353.6087, 870.1008
354.0908, 865.0540
354.5729, 871.4335
355.0550, 882.5703
355.5371, 893.3573
356.0193, 903.6575
356.5014, 909.7129
356.9835, 905.5761
357.4656, 896.7241
357.9477, 889.9270
358.4298, 888.3857
358.9120, 888.3245
359.3941, 887.6312
359.8762, 886.4697
360.3583, 885.4434
360.8404, 884.7455
361.3225, 884.3870
361.8047, 884.2406
362.2868, 883.5842
362.7689, 884.3011
363.2510, 889.0746
363.7331, 895.8232
364.2152, 899.5330
364.6974, 895.8328
365.1795, 890.9459
365.6616, 887.3029
366.1437, 884.6602
366.6258, 884.5781
367.1079, 888.8270
367.5901, 895.4435
368.0722, 901.4810
368.5543, 908.7571
369.0364, 913.4280
369.5185, 913.3143
370.0006, 906.8879
370.4828, 904.3392
370.9649, 907.9440
371.4470, 913.9977
371.9291, 919.3591
372.4112, 925.9995
372.8933, 928.2535
373.3755, 921.4649
373.8576, 907.0219
374.3397, 907.2220
374.8218, 930.1452
375.3039, 954.8011
375.7861, 963.5757
376.2682, 950.1280
376.7503, 946.3293
377.2324, 960.1234
377.7145, 983.2016
378.1967, 989.2769
378.6788, 975.0795
379.1609, 959.3447
379.6430, 953.3219
380.1251, 956.8710
380.6072, 960.5331
381.0894, 964.4457
381.5715, 966.8414
382.0536, 962.8689
382.5357, 953.1024
383.0178, 946.2563
383.4999, 948.5532
383.9821, 956.8514
384.4642, 961.0380
384.9463, 960.6502
385.4284, 960.1246
385.9105, 965.8447
386.3926, 975.1262
386.8748, 980.6962
387.3569, 976.4246
387.8390, 969.7681
388.3211, 970.4446
388.8032, 977.8752
389.2853, 986.4380
389.7675, 996.2502
390.2496, 1003.643
390.7317, 1003.054
391.2138, 987.9432
391.6959, 973.1847
392.1780, 970.0773
392.6602, 975.2308
393.1423, 978.5886
393.6244, 971.7856
394.1065, 964.5638
394.5886, 963.7924
395.0707, 973.0375
395.5529, 980.7647
396.0350, 981.5039
396.5171, 978.9195
396.9992, 978.3832
397.4813, 985.7606
397.9634, 990.8085
398.4456, 988.5854
398.9277, 977.1885
399.4098, 971.1998
399.8919, 978.0145
400.3740, 986.9764
400.8561, 989.3239
401.3383, 976.9799
401.8204, 969.8615
402.3025, 972.7849
402.7846, 983.7375
403.2667, 988.6855
403.7488, 983.1857
404.2310, 978.4751
404.7131, 982.7936
405.1952, 1000.562
405.6773, 1009.662
406.1594, 1006.309
406.6415, 996.5150
407.1237, 993.6984
407.6058, 999.4066
408.0879, 1002.882
408.5700, 995.8394
409.0521, 979.7957
409.5342, 978.6285
410.0164, 995.2109
410.4985, 1013.449
410.9806, 1011.614
411.4627, 992.9191
411.9448, 978.3885
412.4269, 976.8920
412.9091, 982.1573
413.3912, 980.7456
413.8733, 973.3743
414.3554, 968.6232
414.8375, 978.3046
415.3196, 993.7507
415.8018, 1000.349
416.2839, 992.3903
416.7660, 980.3655
417.2481, 972.1100
417.7302, 966.9832
418.2123, 963.6320
418.6945, 963.5122
419.1766, 963.5295
419.6587, 960.8588
420.1408, 954.5279
420.6229, 949.4843
421.1050, 949.6579
421.5872, 951.6715
422.0693, 951.5986
422.5514, 946.1221
423.0335, 940.7191
423.5156, 937.2396
423.9977, 935.6735
424.4799, 933.1930
424.9620, 926.5789
425.4441, 920.9966
425.9262, 919.4817
426.4083, 926.2447
426.8904, 930.9645
427.3726, 934.1063
427.8547, 934.9257
428.3368, 930.7492
428.8189, 917.5103
429.3010, 906.4011
429.7831, 902.2759
430.2653, 906.1329
430.7474, 910.0946
431.2295, 915.6383
431.7116, 918.6713
432.1937, 912.0125
432.6758, 894.7404
433.1580, 879.9706
433.6401, 870.6944
434.1222, 866.7684
434.6043, 870.5495
435.0864, 882.4009
435.5685, 891.8837
436.0507, 886.9350
436.5328, 872.5800
437.0149, 864.6911
437.4970, 866.8135
437.9791, 873.2802
438.4612, 880.1385
438.9434, 886.1918
439.4255, 887.6836
439.9076, 876.2356
440.3897, 862.7629
440.8718, 860.5535
441.3539, 871.0579
441.8361, 880.4966
442.3182, 880.8704
442.8003, 875.6241
443.2824, 868.6792
443.7645, 855.9392
444.2466, 847.0126
444.7288, 847.6904
445.2109, 856.2407
445.6930, 863.4152
446.1751, 866.4874
446.6572, 868.1535
447.1393, 869.6930
447.6215, 871.0070
448.1036, 872.4973
448.5857, 874.3488
449.0678, 876.3040
449.5499, 878.2941
450.0320, 882.3245
450.5142, 882.9405
450.9963, 877.4352
451.4784, 865.5790
451.9605, 857.8748
452.4426, 855.7263
452.9247, 854.8361
453.4069, 849.4213
453.8890, 838.3427
454.3711, 836.4634
454.8532, 849.0951
455.3353, 868.5773
455.8174, 876.7798
456.2996, 873.8677
456.7817, 867.7025
457.2638, 860.9333
457.7459, 854.4681
458.2281, 850.2307
458.7102, 848.2286
459.1923, 849.4698
459.6744, 859.5787
460.1565, 873.5536
460.6386, 880.6454
461.1208, 870.6081
461.6029, 857.6474
462.0850, 855.9307
462.5671, 863.0092
463.0492, 865.5099
463.5313, 849.8889
464.0135, 831.1455
464.4956, 821.1883
464.9777, 825.0126
465.4598, 830.5461
465.9419, 836.4846
466.4240, 841.6082
466.9062, 843.8108
467.3883, 840.8828
467.8704, 836.8160
468.3525, 830.2775
468.8346, 820.5262
469.3167, 820.3483
469.7989, 838.5602
470.2810, 857.1002
470.7631, 860.9319
471.2452, 841.9934
471.7273, 831.7635
472.2094, 836.9953
472.6916, 849.7733
473.1737, 849.0811
473.6558, 832.7794
474.1379, 817.1635
474.6200, 809.3439
475.1021, 808.9178
475.5843, 813.9007
476.0664, 825.3414
476.5485, 835.7264
477.0306, 833.8730
477.5127, 823.8470
477.9948, 818.6647
478.4770, 824.9952
478.9591, 834.3378
479.4412, 835.3074
479.9233, 829.7302
480.4054, 825.5814
480.8875, 827.2197
481.3697, 832.5060
481.8518, 840.7614
482.3339, 852.9770
482.8160, 862.9358
483.2981, 870.0689
483.7802, 872.6107
484.2624, 868.2630
484.7445, 845.3564
485.2266, 827.2373
485.7087, 821.9695
486.1908, 828.6339
486.6729, 833.2424
487.1551, 833.2701
487.6372, 833.1132
488.1193, 835.2203
488.6014, 841.5911
489.0835, 845.1960
489.5656, 845.4482
490.0478, 843.5119
490.5299, 840.5618
491.0120, 835.9807
491.4941, 833.3447
491.9762, 833.9561
492.4583, 837.3841
492.9405, 841.4767
493.4226, 846.2355
493.9047, 852.1302
494.3868, 862.5750
494.8689, 874.7250
495.3510, 878.6501
495.8332, 870.7167
496.3153, 860.5679
496.7974, 858.7602
497.2795, 863.1811
497.7616, 868.7582
498.2437, 874.4610
498.7259, 879.3981
499.2080, 882.1831
499.6901, 882.9230
500.1722, 884.8442
500.6543, 894.1902
501.1364, 902.4935
501.6186, 903.0764
502.1007, 888.1692
502.5828, 875.1399
503.0649, 865.1617
503.5470, 859.0764
504.0291, 858.7210
504.5113, 869.6163
504.9934, 879.2114
505.4755, 884.3356
505.9576, 884.8853
506.4397, 883.5400
506.9218, 878.8373
507.4040, 874.8271
507.8861, 875.5872
508.3682, 881.6913
508.8503, 886.2340
509.3324, 887.9569
509.8145, 888.4388
510.2967, 889.9034
510.7788, 892.4423
511.2609, 897.2579
511.7430, 908.6442
512.2252, 921.6603
512.7073, 925.3160
513.1894, 919.6503
513.6715, 913.0931
514.1536, 911.7231
514.6357, 913.5248
515.1179, 916.0857
515.6000, 919.2399
516.0821, 922.2734
516.5642, 924.6432
517.0463, 926.6620
517.5284, 928.9629
518.0106, 933.4258
518.4927, 936.6750
518.9748, 936.6273
519.4569, 932.6957
519.9390, 930.7490
520.4211, 933.0724
520.9033, 935.6543
521.3854, 935.4603
521.8675, 929.8743
522.3496, 927.5450
522.8317, 929.1879
523.3138, 934.1644
523.7960, 942.6334
524.2781, 955.8403
524.7602, 964.9904
525.2423, 965.8130
525.7244, 959.8739
526.2065, 952.5712
526.6887, 943.7744
527.1708, 937.8608
527.6529, 940.4522
528.1350, 948.5573
528.6171, 956.2815
529.0992, 962.9896
529.5814, 967.7491
530.0635, 968.4199
530.5456, 966.6306
531.0277, 965.6470
531.5098, 967.7809
531.9919, 970.2679
532.4741, 971.6752
532.9562, 971.9600
533.4383, 972.0767
533.9204, 969.8967
534.4025, 969.2665
534.8846, 973.0787
535.3668, 988.8990
535.8489, 996.0663
536.3310, 990.0896
536.8131, 978.2878
537.2952, 971.4071
537.7773, 970.3456
538.2595, 972.4056
538.7416, 979.1591
539.2237, 988.5127
539.7058, 988.0261
540.1879, 976.7572
540.6700, 964.3421
541.1522, 956.9414
541.6343, 953.8570
542.1164, 953.0223
542.5985, 954.3326
543.0806, 957.2971
543.5627, 963.6606
544.0449, 971.0726
544.5270, 974.8910
545.0091, 971.3018
545.4912, 965.5939
545.9733, 958.4857
546.4554, 951.5495
546.9376, 950.7480
547.4197, 969.3536
547.9018, 985.9102
548.3839, 986.9611
548.8660, 964.9732
549.3481, 950.8744
549.8303, 952.6419
550.3124, 959.6039
550.7945, 962.2431
551.2766, 957.2158
551.7587, 955.7553
552.2408, 961.0728
552.7230, 969.6282
553.2051, 971.1198
553.6872, 964.5712
554.1693, 957.5946
554.6514, 953.7089
555.1335, 952.2953
555.6157, 950.9533
556.0978, 949.7015
556.5799, 947.7440
557.0620, 942.9524
557.5441, 937.2171
558.0262, 934.6171
558.5084, 937.5447
558.9905, 939.9379
559.4726, 935.5854
559.9547, 927.7096
560.4368, 922.0602
560.9189, 922.9776
561.4011, 924.5659
561.8832, 923.6783
562.3653, 920.5081
562.8474, 920.1794
563.3295, 927.2890
563.8116, 934.1616
564.2938, 937.3633
564.7759, 936.1654
565.2580, 932.6282
565.7401, 924.1442
566.2222, 916.4852
566.7043, 919.4590
567.1865, 934.8173
567.6686, 943.9348
568.1507, 941.2575
568.6328, 931.2367
569.1149, 922.1186
569.5970, 914.1121
570.0792, 909.7225
570.5613, 913.7221
571.0434, 920.8098
571.5255, 922.2884
572.0076, 917.5735
572.4897, 914.1302
572.9719, 919.5402
573.4540, 927.6138
573.9361, 932.1740
574.4182, 931.8785
574.9003, 927.6946
575.3824, 916.1462
575.8646, 901.3253
576.3467, 891.4803
576.8288, 889.5187
577.3109, 889.8121
577.7930, 892.0753
578.2751, 896.0634
578.7573, 898.5521
579.2394, 899.5978
579.7215, 899.0750
580.2036, 896.4885
580.6857, 891.8796
581.1678, 886.6637
581.6500, 880.2991
582.1321, 876.0617
582.6142, 882.1586
583.0963, 894.1534
583.5784, 897.8662
584.0605, 884.7556
584.5427, 868.0806
585.0248, 860.3132
585.5069, 859.8501
585.9890, 862.1578
586.4711, 869.4340
586.9532, 875.2127
587.4354, 874.1500
587.9175, 865.4663
588.3996, 860.7505
588.8817, 868.1572
589.3638, 875.7939
589.8459, 876.1181
590.3281, 863.7614
590.8102, 854.5341
591.2923, 848.6897
591.7744, 845.8604
592.2565, 846.6265
592.7386, 851.6460
593.2208, 854.4927
593.7029, 852.2626
594.1850, 847.7006
594.6671, 848.6833
595.1492, 854.6189
595.6313, 859.9732
596.1135, 860.0692
596.5956, 858.1320
597.0777, 858.6164
597.5598, 861.8679
598.0419, 865.8113
598.5240, 871.8328
599.0062, 876.5938
599.4883, 876.7418
599.9704, 868.0229
600.4525, 860.3415
600.9346, 853.9166
601.4167, 850.3492
601.8989, 852.8378
602.3810, 867.4382
602.8631, 877.9796
603.3452, 880.1847
603.8273, 875.5110
604.3094, 871.5572
604.7916, 867.8054
605.2737, 866.9562
605.7558, 873.3789
606.2379, 884.7954
606.7200, 888.4376
607.2021, 883.4655
607.6843, 877.2310
608.1664, 875.5031
608.6485, 877.5065
609.1306, 882.3796
609.6127, 891.1848
610.0948, 899.7957
610.5770, 907.6985
611.0591, 913.2007
611.5412, 913.2277
612.0233, 898.2179
612.5054, 886.5970
612.9875, 886.1404
613.4697, 895.5947
613.9518, 901.1500
614.4339, 900.6478
614.9160, 899.4641
615.3981, 899.2059
615.8802, 899.5841
616.3624, 905.4102
616.8445, 918.0972
617.3266, 931.3846
617.8087, 939.0107
618.2908, 941.7518
618.7729, 943.5632
619.2551, 945.3631
619.7372, 945.6898
620.2193, 940.8089
620.7014, 933.2832
621.1835, 928.5649
621.6656, 930.3097
622.1478, 934.3409
622.6299, 937.8175
623.1120, 941.4688
623.5941, 948.4514
624.0762, 969.4032
624.5583, 984.7858
625.0405, 983.0797
625.5226, 960.3834
626.0047, 951.2509
626.4868, 960.3194
626.9689, 975.7697
627.4510, 989.6419
627.9332, 1002.051
628.4153, 1010.210
628.8974, 1012.683
629.3795, 1014.214
629.8616, 1023.612
630.3438, 1038.185
630.8259, 1047.856
631.3080, 1046.274
631.7901, 1041.956
632.2722, 1044.822
632.7543, 1052.330
633.2365, 1056.856
633.7186, 1052.774
634.2007, 1046.956
634.6828, 1041.888
635.1649, 1037.670
635.6470, 1036.645
636.1292, 1042.356
636.6113, 1048.203
