##NAMES=Ferrimolybdite
##RRUFFID=R050566
##IDEAL CHEMISTRY=Fe^3+^_2_(Mo^6+^O_4_)_3_&#183;7H_2_O
##LOCALITY=Kingman, Arizona, USA
##OWNER=RRUFF
##SOURCE=University of Arizona Mineral Museum
##DESCRIPTION=Yellow fibrous aggregate
##STATUS=The identification of this mineral has been confirmed only by chemical analysis
##URL=rruff.info/R050566
##MEASURED CHEMISTRY=Wavelength dispersive spectroscopy (WDS) scanning shows Mo and Fe only.
92.06543, 2218.473
92.54755, 2214.157
93.02966, 2223.795
93.51178, 2222.077
93.99390, 2218.701
94.47601, 2232.265
94.95813, 2254.369
95.44025, 2262.634
95.92236, 2236.844
96.40448, 2172.861
96.88660, 2129.774
97.36871, 2114.153
97.85082, 2110.677
98.33294, 2113.435
98.81506, 2120.169
99.29717, 2119.274
99.77929, 2104.136
100.2614, 2077.049
100.7435, 2052.734
101.2256, 2034.867
101.7078, 2021.635
102.1899, 2009.410
102.6720, 1996.259
103.1541, 1985.503
103.6362, 1979.220
104.1183, 1977.212
104.6005, 1977.898
105.0826, 1981.994
105.5647, 1990.576
106.0468, 1993.720
106.5289, 1982.182
107.0110, 1968.300
107.4931, 1959.311
107.9753, 1957.201
108.4574, 1959.139
108.9395, 1959.954
109.4216, 1960.730
109.9037, 1957.973
110.3858, 1948.675
110.8680, 1936.959
111.3501, 1926.415
111.8322, 1918.814
112.3143, 1914.504
112.7964, 1916.261
113.2785, 1931.167
113.7607, 1944.057
114.2428, 1951.954
114.7249, 1954.821
115.2070, 1952.828
115.6891, 1944.874
116.1712, 1931.258
116.6534, 1922.763
117.1355, 1923.150
117.6176, 1925.684
118.0997, 1926.311
118.5818, 1924.790
119.0639, 1919.949
119.5461, 1907.148
120.0282, 1889.240
120.5103, 1875.306
120.9924, 1870.093
121.4745, 1870.652
121.9566, 1869.881
122.4388, 1865.738
122.9209, 1862.597
123.4030, 1864.056
123.8851, 1869.057
124.3672, 1873.953
124.8493, 1876.651
125.3315, 1877.239
125.8136, 1874.445
126.2957, 1860.610
126.7778, 1848.936
127.2599, 1847.010
127.7420, 1854.637
128.2242, 1864.752
128.7063, 1867.072
129.1884, 1854.724
129.6705, 1848.806
130.1526, 1855.263
130.6347, 1863.570
131.1169, 1864.918
131.5990, 1856.635
132.0811, 1843.485
132.5632, 1835.958
133.0453, 1836.875
133.5274, 1840.480
134.0096, 1848.921
134.4917, 1859.483
134.9738, 1868.557
135.4559, 1874.646
135.9380, 1877.882
136.4201, 1878.635
136.9023, 1877.445
137.3844, 1873.932
137.8665, 1865.096
138.3486, 1852.592
138.8307, 1844.339
139.3128, 1846.871
139.7950, 1856.136
140.2771, 1861.901
140.7592, 1862.396
141.2413, 1860.522
141.7234, 1859.174
142.2055, 1858.595
142.6877, 1857.275
143.1698, 1852.654
143.6519, 1847.235
144.1340, 1844.012
144.6161, 1844.453
145.0982, 1847.632
145.5803, 1851.217
146.0625, 1855.230
146.5446, 1859.651
147.0267, 1866.147
147.5088, 1872.802
147.9909, 1876.577
148.4730, 1874.984
148.9552, 1868.322
149.4373, 1862.859
149.9194, 1860.429
150.4015, 1857.525
150.8836, 1852.902
151.3657, 1847.002
151.8479, 1840.615
152.3300, 1833.939
152.8121, 1825.761
153.2942, 1825.346
153.7763, 1841.629
154.2584, 1856.307
154.7406, 1859.724
155.2227, 1851.568
155.7048, 1837.616
156.1869, 1822.901
156.6690, 1805.514
157.1511, 1797.828
157.6333, 1806.905
158.1154, 1821.467
158.5975, 1832.604
159.0796, 1838.495
159.5617, 1840.001
160.0438, 1835.810
160.5260, 1825.302
161.0081, 1819.296
161.4902, 1825.875
161.9723, 1837.805
162.4544, 1840.602
162.9365, 1828.071
163.4187, 1811.502
163.9008, 1803.061
164.3829, 1802.237
164.8650, 1805.762
165.3471, 1815.609
165.8292, 1830.139
166.3113, 1837.677
166.7935, 1830.016
167.2756, 1819.813
167.7577, 1817.531
168.2398, 1823.398
168.7219, 1830.296
169.2040, 1830.823
169.6862, 1823.854
170.1683, 1818.156
170.6504, 1814.614
171.1325, 1813.130
171.6146, 1814.729
172.0967, 1819.326
172.5789, 1824.672
173.0610, 1827.022
173.5431, 1823.677
174.0252, 1823.638
174.5073, 1831.676
174.9894, 1840.145
175.4716, 1842.892
175.9537, 1838.130
176.4358, 1829.197
176.9179, 1822.664
177.4000, 1818.198
177.8821, 1817.296
178.3643, 1825.375
178.8464, 1834.601
179.3285, 1835.769
179.8106, 1825.131
180.2927, 1807.800
180.7748, 1797.813
181.2570, 1802.191
181.7391, 1805.167
182.2212, 1804.321
182.7033, 1801.204
183.1854, 1798.026
183.6675, 1795.731
184.1497, 1794.136
184.6318, 1792.736
185.1139, 1791.734
185.5960, 1790.562
186.0781, 1788.928
186.5602, 1786.947
187.0423, 1784.914
187.5245, 1782.859
188.0066, 1780.955
188.4887, 1779.328
188.9708, 1777.266
189.4529, 1776.590
189.9350, 1779.451
190.4172, 1785.469
190.8993, 1790.878
191.3814, 1795.223
191.8635, 1796.974
192.3456, 1793.534
192.8277, 1782.214
193.3099, 1770.536
193.7920, 1766.437
194.2741, 1770.756
194.7562, 1776.423
195.2383, 1782.338
195.7204, 1787.484
196.2026, 1790.412
196.6847, 1790.293
197.1668, 1789.323
197.6489, 1792.233
198.1310, 1802.443
198.6131, 1806.451
199.0953, 1791.082
199.5774, 1772.648
200.0595, 1767.775
200.5416, 1783.738
201.0237, 1809.799
201.5058, 1821.565
201.9880, 1810.528
202.4701, 1799.653
202.9522, 1790.597
203.4343, 1784.799
203.9164, 1784.882
204.3985, 1792.171
204.8807, 1803.639
205.3628, 1810.034
205.8449, 1806.010
206.3270, 1803.487
206.8091, 1804.284
207.2912, 1807.014
207.7733, 1810.409
208.2555, 1813.866
208.7376, 1817.041
209.2197, 1818.617
209.7018, 1815.309
210.1839, 1814.093
210.6660, 1816.990
211.1482, 1822.137
211.6303, 1827.003
212.1124, 1830.307
212.5945, 1832.381
213.0766, 1834.615
213.5587, 1837.715
214.0409, 1840.152
214.5230, 1840.528
215.0051, 1840.122
215.4872, 1841.852
215.9693, 1847.786
216.4514, 1855.894
216.9336, 1857.925
217.4157, 1848.427
217.8978, 1841.321
218.3799, 1843.041
218.8620, 1850.785
219.3441, 1857.860
219.8263, 1861.518
220.3084, 1861.838
220.7905, 1859.092
221.2726, 1850.520
221.7547, 1843.843
222.2368, 1843.861
222.7190, 1849.316
223.2011, 1855.453
223.6832, 1861.403
224.1653, 1865.702
224.6474, 1865.745
225.1295, 1859.562
225.6117, 1853.885
226.0938, 1854.148
226.5759, 1859.624
227.0580, 1864.393
227.5401, 1867.257
228.0222, 1867.293
228.5043, 1862.704
228.9865, 1851.991
229.4686, 1842.404
229.9507, 1841.422
230.4328, 1848.967
230.9149, 1855.407
231.3970, 1858.535
231.8792, 1858.631
232.3613, 1854.824
232.8434, 1846.683
233.3255, 1838.927
233.8076, 1837.886
234.2897, 1844.507
234.7719, 1846.788
235.2540, 1838.828
235.7361, 1827.490
236.2182, 1816.558
236.7003, 1806.587
237.1824, 1796.585
237.6646, 1784.369
238.1467, 1768.730
238.6288, 1757.382
239.1109, 1755.481
239.5930, 1755.353
240.0751, 1753.066
240.5573, 1748.170
241.0394, 1742.723
241.5215, 1740.562
242.0036, 1744.266
242.4857, 1740.396
242.9678, 1716.339
243.4500, 1693.977
243.9321, 1686.172
244.4142, 1692.964
244.8963, 1704.266
245.3784, 1709.201
245.8605, 1706.893
246.3427, 1701.112
246.8248, 1688.272
247.3069, 1675.254
247.7890, 1664.536
248.2711, 1656.724
248.7532, 1651.962
249.2354, 1651.152
249.7175, 1656.352
250.1996, 1656.471
250.6817, 1649.728
251.1638, 1640.291
251.6459, 1627.124
252.1281, 1612.129
252.6102, 1600.762
253.0923, 1599.278
253.5744, 1610.508
254.0565, 1613.838
254.5386, 1603.894
255.0208, 1592.542
255.5029, 1583.006
255.9850, 1576.483
256.4671, 1574.787
256.9492, 1580.667
257.4313, 1595.617
257.9135, 1599.702
258.3956, 1585.447
258.8777, 1570.199
259.3598, 1560.684
259.8419, 1556.515
260.3240, 1554.207
260.8062, 1551.060
261.2883, 1547.109
261.7704, 1546.362
262.2525, 1553.157
262.7346, 1558.068
263.2167, 1555.666
263.6989, 1548.039
264.1810, 1541.783
264.6631, 1541.929
265.1452, 1546.954
265.6273, 1543.017
266.1094, 1520.102
266.5916, 1500.884
267.0737, 1494.888
267.5558, 1498.927
268.0379, 1505.410
268.5200, 1510.634
269.0021, 1514.827
269.4843, 1519.027
269.9664, 1525.051
270.4485, 1528.974
270.9306, 1527.311
271.4127, 1522.653
271.8948, 1521.051
272.3770, 1525.868
272.8591, 1533.994
273.3412, 1537.305
273.8233, 1535.333
274.3054, 1531.140
274.7875, 1524.213
275.2697, 1515.853
275.7518, 1508.053
276.2339, 1501.090
276.7160, 1496.049
277.1981, 1496.398
277.6802, 1503.244
278.1623, 1508.506
278.6444, 1510.387
279.1266, 1509.165
279.6087, 1503.667
280.0908, 1492.308
280.5729, 1481.522
281.0550, 1482.955
281.5371, 1496.693
282.0193, 1506.169
282.5014, 1503.616
282.9835, 1495.562
283.4656, 1491.766
283.9477, 1494.334
284.4298, 1498.422
284.9120, 1498.812
285.3941, 1496.016
285.8762, 1493.388
286.3583, 1491.539
286.8404, 1490.233
287.3225, 1489.420
287.8047, 1489.170
288.2868, 1488.572
288.7689, 1485.686
289.2510, 1481.689
289.7331, 1480.850
290.2152, 1487.921
290.6974, 1496.025
291.1795, 1496.887
291.6616, 1490.137
292.1437, 1483.833
292.6258, 1482.949
293.1079, 1486.184
293.5901, 1490.268
294.0722, 1496.890
294.5543, 1502.065
295.0364, 1500.133
295.5185, 1491.647
296.0006, 1487.087
296.4828, 1493.563
296.9649, 1505.750
297.4470, 1513.884
297.9291, 1516.859
298.4112, 1517.672
298.8933, 1517.023
299.3755, 1515.405
299.8576, 1516.006
300.3397, 1520.561
300.8218, 1527.214
301.3039, 1534.048
301.7860, 1541.445
302.2682, 1546.307
302.7503, 1546.385
303.2324, 1542.462
303.7145, 1536.416
304.1966, 1526.368
304.6787, 1518.252
305.1609, 1519.846
305.6430, 1529.969
306.1251, 1539.018
306.6072, 1542.322
307.0893, 1541.705
307.5714, 1541.064
308.0536, 1540.973
308.5357, 1540.432
309.0178, 1535.802
309.4999, 1529.474
309.9820, 1529.063
310.4641, 1543.441
310.9463, 1562.618
311.4284, 1569.663
311.9105, 1561.857
312.3926, 1555.152
312.8747, 1563.217
313.3568, 1578.927
313.8390, 1589.590
314.3211, 1590.770
314.8032, 1588.125
315.2853, 1586.816
315.7674, 1586.856
316.2495, 1587.923
316.7317, 1590.430
317.2138, 1593.645
317.6959, 1596.126
318.1780, 1597.134
318.6601, 1599.078
319.1422, 1607.507
319.6243, 1620.476
320.1064, 1622.451
320.5886, 1600.944
321.0707, 1575.128
321.5528, 1569.401
322.0349, 1584.694
322.5170, 1603.238
322.9991, 1617.266
323.4813, 1627.363
323.9634, 1635.239
324.4455, 1640.920
324.9276, 1644.865
325.4097, 1647.129
325.8918, 1647.983
326.3740, 1648.247
326.8561, 1645.611
327.3382, 1643.433
327.8203, 1649.194
328.3024, 1665.355
328.7845, 1679.609
329.2667, 1679.424
329.7488, 1670.146
330.2309, 1664.887
330.7130, 1666.773
331.1951, 1673.216
331.6772, 1684.850
332.1594, 1701.505
332.6415, 1712.026
333.1236, 1706.947
333.6057, 1693.270
334.0878, 1687.007
334.5699, 1692.331
335.0521, 1698.313
335.5342, 1696.767
336.0163, 1689.541
336.4984, 1685.208
336.9805, 1688.436
337.4626, 1693.410
337.9448, 1689.672
338.4269, 1675.642
338.9090, 1665.101
339.3911, 1667.302
339.8732, 1676.019
340.3553, 1678.920
340.8375, 1672.799
341.3196, 1663.878
341.8017, 1659.080
342.2838, 1657.967
342.7659, 1656.098
343.2480, 1648.757
343.7302, 1642.433
344.2123, 1647.154
344.6944, 1663.397
345.1765, 1677.055
345.6586, 1676.823
346.1407, 1664.289
346.6229, 1654.620
347.1050, 1651.449
347.5871, 1648.043
348.0692, 1637.447
348.5513, 1622.338
349.0334, 1613.781
349.5156, 1619.304
349.9977, 1632.658
350.4798, 1636.521
350.9619, 1628.161
351.4440, 1618.110
351.9261, 1607.062
352.4083, 1597.076
352.8904, 1592.780
353.3725, 1596.140
353.8546, 1601.464
354.3367, 1599.677
354.8188, 1588.095
355.3010, 1581.058
355.7831, 1585.737
356.2652, 1591.831
356.7473, 1588.123
357.2294, 1574.113
357.7115, 1560.281
358.1937, 1556.316
358.6758, 1562.793
359.1579, 1565.199
359.6400, 1560.864
360.1221, 1555.512
360.6042, 1550.552
361.0863, 1546.727
361.5685, 1546.272
362.0506, 1551.121
362.5327, 1559.046
363.0148, 1560.647
363.4969, 1551.922
363.9790, 1542.408
364.4612, 1531.679
364.9433, 1521.506
365.4254, 1514.427
365.9075, 1511.215
366.3896, 1510.351
366.8717, 1509.522
367.3539, 1508.955
367.8360, 1507.853
368.3181, 1505.028
368.8002, 1502.614
369.2823, 1503.012
369.7644, 1505.696
370.2466, 1507.645
370.7287, 1506.141
371.2108, 1501.060
371.6929, 1494.202
372.1750, 1481.875
372.6571, 1471.792
373.1393, 1467.700
373.6214, 1467.178
374.1035, 1465.974
374.5856, 1461.764
375.0677, 1455.272
375.5498, 1448.527
376.0320, 1438.250
376.5141, 1433.029
376.9962, 1438.907
377.4783, 1446.604
377.9604, 1447.663
378.4425, 1440.194
378.9247, 1428.790
379.4068, 1419.149
379.8889, 1411.173
380.3710, 1405.394
380.8531, 1404.463
381.3352, 1403.349
381.8174, 1399.346
382.2995, 1393.135
382.7816, 1387.080
383.2637, 1382.664
383.7458, 1379.949
384.2279, 1379.716
384.7101, 1384.025
385.1922, 1387.732
385.6743, 1390.317
386.1564, 1391.152
386.6385, 1389.476
387.1206, 1384.943
387.6028, 1378.013
388.0849, 1367.905
388.5670, 1353.007
389.0491, 1342.827
389.5312, 1343.139
390.0133, 1346.540
390.4955, 1349.680
390.9776, 1351.900
391.4597, 1351.505
391.9418, 1345.068
392.4239, 1334.037
392.9060, 1327.447
393.3882, 1327.581
393.8703, 1329.356
394.3524, 1329.447
394.8345, 1328.597
395.3166, 1328.698
395.7987, 1333.563
396.2809, 1337.245
396.7630, 1328.206
397.2451, 1305.199
397.7272, 1288.088
398.2093, 1289.679
398.6914, 1300.187
399.1736, 1303.593
399.6557, 1297.795
400.1378, 1290.155
400.6199, 1284.183
401.1020, 1279.693
401.5841, 1276.066
402.0662, 1273.013
402.5483, 1271.278
403.0305, 1273.255
403.5126, 1278.656
403.9947, 1280.603
404.4768, 1274.480
404.9589, 1266.629
405.4410, 1264.010
405.9232, 1266.373
406.4053, 1267.236
406.8874, 1261.457
407.3695, 1250.973
407.8516, 1245.760
408.3337, 1250.356
408.8159, 1254.185
409.2980, 1253.328
409.7801, 1249.754
410.2622, 1246.925
410.7443, 1246.048
411.2264, 1245.053
411.7086, 1239.789
412.1907, 1224.419
412.6728, 1220.530
413.1549, 1240.751
413.6370, 1262.057
414.1191, 1267.748
414.6013, 1258.857
415.0834, 1246.567
415.5655, 1239.245
416.0476, 1236.786
416.5297, 1237.955
417.0118, 1250.278
417.4940, 1257.594
417.9761, 1254.641
418.4582, 1246.105
418.9403, 1236.217
419.4224, 1226.813
419.9045, 1220.628
420.3867, 1224.552
420.8688, 1246.670
421.3509, 1257.038
421.8330, 1242.064
422.3151, 1226.211
422.7972, 1222.945
423.2794, 1231.233
423.7615, 1242.105
424.2436, 1249.340
424.7257, 1253.175
425.2078, 1254.936
425.6899, 1252.792
426.1721, 1251.808
426.6542, 1257.274
427.1363, 1263.428
427.6184, 1262.214
428.1005, 1250.088
428.5826, 1235.336
429.0648, 1228.064
429.5469, 1228.307
430.0290, 1229.895
430.5111, 1232.902
430.9932, 1235.282
431.4753, 1235.059
431.9575, 1232.504
432.4396, 1229.849
432.9217, 1229.207
433.4038, 1228.794
433.8859, 1224.659
434.3680, 1216.176
434.8502, 1208.672
435.3323, 1207.188
435.8144, 1208.714
436.2965, 1204.509
436.7786, 1188.881
437.2607, 1175.689
437.7429, 1174.190
438.2250, 1180.592
438.7071, 1186.833
439.1892, 1190.739
439.6713, 1192.286
440.1534, 1191.090
440.6356, 1186.571
441.1177, 1181.637
441.5998, 1176.243
442.0819, 1170.647
442.5640, 1164.587
443.0461, 1158.411
443.5282, 1153.259
444.0103, 1150.051
444.4925, 1148.393
444.9746, 1146.127
445.4567, 1141.847
445.9388, 1138.719
446.4209, 1137.326
446.9030, 1137.127
447.3852, 1138.069
447.8673, 1139.918
448.3494, 1141.498
448.8315, 1141.161
449.3136, 1138.427
449.7957, 1136.154
450.2779, 1136.859
450.7600, 1135.469
451.2421, 1126.943
451.7242, 1115.377
452.2063, 1109.188
452.6884, 1113.962
453.1706, 1124.107
453.6527, 1125.724
454.1348, 1115.821
454.6169, 1106.864
455.0990, 1101.711
455.5811, 1098.816
456.0633, 1098.212
456.5454, 1099.624
457.0275, 1100.456
457.5096, 1097.772
457.9917, 1092.869
458.4738, 1090.464
458.9560, 1091.255
459.4381, 1093.413
459.9202, 1097.894
460.4023, 1102.576
460.8844, 1103.022
461.3665, 1096.647
461.8487, 1088.460
462.3308, 1080.660
462.8129, 1073.869
463.2950, 1070.879
463.7771, 1073.334
464.2592, 1077.858
464.7414, 1079.947
465.2235, 1079.571
465.7056, 1077.371
466.1877, 1072.169
466.6698, 1066.086
467.1519, 1059.371
467.6341, 1052.940
468.1162, 1050.506
468.5983, 1055.215
469.0804, 1064.705
469.5625, 1067.889
470.0446, 1058.321
470.5268, 1050.512
471.0089, 1046.496
471.4910, 1044.158
471.9731, 1041.780
472.4552, 1038.904
472.9373, 1035.722
473.4195, 1032.293
473.9016, 1028.528
474.3837, 1025.744
474.8658, 1024.156
475.3479, 1023.427
475.8300, 1024.177
476.3122, 1025.491
476.7943, 1026.164
477.2764, 1025.693
477.7585, 1024.391
478.2406, 1022.754
478.7227, 1020.825
479.2049, 1017.998
479.6870, 1011.786
480.1691, 1007.231
480.6512, 1008.568
481.1333, 1014.895
481.6154, 1021.712
482.0976, 1028.289
482.5797, 1033.469
483.0618, 1035.464
483.5439, 1034.247
484.0260, 1030.146
484.5081, 1021.380
484.9902, 1011.148
485.4724, 1006.576
485.9545, 1009.830
486.4366, 1011.942
486.9187, 1007.963
487.4008, 1001.905
487.8829, 999.5974
488.3651, 1001.774
488.8472, 1004.621
489.3293, 1004.714
489.8114, 1002.078
490.2935, 1000.574
490.7756, 1001.142
491.2578, 1001.527
491.7399, 1003.019
492.2220, 1003.260
492.7041, 997.6415
493.1862, 985.0726
493.6683, 971.2806
494.1505, 964.6368
494.6326, 966.4180
495.1147, 970.3384
495.5968, 981.3350
496.0789, 989.5875
496.5610, 989.0969
497.0432, 983.4698
497.5253, 980.1600
498.0074, 983.5374
498.4895, 989.5136
498.9716, 990.1542
499.4537, 984.6124
499.9359, 978.9600
500.4180, 973.5462
500.9001, 969.4968
501.3822, 967.3406
501.8643, 967.1384
502.3464, 969.2838
502.8286, 976.9705
503.3107, 985.7648
503.7928, 988.1291
504.2749, 983.8301
504.7570, 979.0940
505.2391, 976.7795
505.7213, 976.5371
506.2034, 977.9880
506.6855, 983.6329
507.1676, 985.1363
507.6497, 977.4332
508.1318, 965.9781
508.6140, 954.8132
509.0961, 945.4359
509.5782, 941.9650
510.0603, 949.1448
510.5424, 966.1823
511.0245, 976.6652
511.5067, 975.7031
511.9888, 974.0176
512.4709, 974.9040
512.9530, 975.1762
513.4351, 969.2783
513.9172, 956.6314
514.3994, 944.7877
514.8815, 944.0886
515.3636, 955.6309
515.8457, 963.8075
516.3278, 969.5069
516.8099, 970.2414
517.2921, 960.3926
517.7742, 946.7819
518.2563, 941.1707
518.7384, 949.5889
519.2205, 959.5523
519.7026, 954.0380
520.1848, 935.7308
520.6669, 926.6705
521.1490, 934.2960
521.6311, 946.4267
522.1132, 949.9208
522.5953, 946.5887
523.0775, 946.1219
523.5596, 954.7041
524.0417, 962.5821
524.5238, 960.7753
525.0059, 952.4979
525.4880, 947.7023
525.9702, 950.7997
526.4523, 956.8018
526.9344, 956.9500
527.4165, 947.8001
527.8986, 941.6707
528.3807, 938.6938
528.8629, 938.3234
529.3450, 940.7039
529.8271, 945.4398
530.3092, 952.8418
530.7913, 963.5713
531.2734, 974.2789
531.7556, 975.0526
532.2377, 959.8770
532.7198, 951.8577
533.2019, 965.1477
533.6840, 977.5533
534.1661, 973.9398
534.6483, 957.2365
535.1304, 943.0306
535.6125, 942.3155
536.0946, 948.1861
536.5767, 947.0804
537.0588, 938.5427
537.5410, 933.1074
538.0231, 937.5060
538.5052, 944.5673
538.9873, 941.0258
539.4694, 924.7471
539.9515, 915.2228
540.4337, 923.9910
540.9158, 937.8942
541.3979, 943.4061
541.8800, 940.9045
542.3621, 938.3956
542.8442, 940.8250
543.3264, 946.7223
543.8085, 951.0789
544.2906, 952.4544
544.7726, 954.1859
545.2548, 956.0805
545.7369, 958.5126
546.2190, 962.1549
546.7011, 966.6809
547.1832, 971.2020
547.6653, 975.5129
548.1475, 978.8017
548.6296, 977.6600
549.1117, 971.4724
549.5938, 962.5140
550.0759, 943.1198
550.5580, 926.7363
551.0402, 926.6602
551.5223, 942.9857
552.0044, 958.9486
552.4865, 965.0347
552.9686, 964.4150
553.4507, 960.9449
553.9329, 954.7744
554.4150, 951.8936
554.8971, 957.0806
555.3792, 966.3178
555.8613, 968.7508
556.3434, 961.5107
556.8256, 956.1127
557.3077, 955.0705
557.7898, 956.5620
558.2719, 960.0717
558.7540, 964.8066
559.2361, 968.6698
559.7183, 970.2343
560.2004, 969.7584
560.6825, 968.3427
561.1646, 966.1668
561.6467, 962.6411
562.1288, 956.9463
562.6110, 950.6788
563.0931, 943.2689
563.5752, 935.8704
564.0573, 932.5272
564.5394, 937.9068
565.0215, 948.3503
565.5037, 954.6934
565.9858, 956.7239
566.4679, 956.1071
566.9500, 952.7078
567.4321, 947.4433
567.9142, 940.0439
568.3964, 929.9338
568.8785, 925.5677
569.3606, 934.7202
569.8427, 947.5896
570.3248, 954.2094
570.8069, 954.8885
571.2891, 954.6709
571.7712, 956.2495
572.2533, 958.6768
572.7354, 959.6548
573.2175, 959.4594
573.6996, 957.0730
574.1818, 945.5254
574.6639, 938.0488
575.1460, 949.2341
575.6281, 971.4710
576.1102, 983.1674
576.5923, 970.0286
577.0745, 944.5418
577.5566, 935.5252
578.0387, 946.5403
578.5208, 954.6110
579.0029, 953.8811
579.4850, 950.3477
579.9672, 948.9340
580.4493, 948.9310
580.9314, 947.0754
581.4135, 938.3112
581.8956, 930.4018
582.3777, 933.0135
582.8599, 943.4055
583.3420, 951.4372
583.8241, 953.8129
584.3062, 951.7461
584.7883, 945.8386
585.2704, 934.1845
585.7526, 928.7137
586.2347, 934.6993
586.7168, 940.7716
587.1989, 943.2634
587.6810, 942.2227
