##NAMES=Ferrierite-Mg
##RRUFFID=R070119
##IDEAL CHEMISTRY=[Mg_2_(K,Na)_2_Ca_0.5_](Si_29_Al_7_)O_72_&#183;18H_2_O
##LOCALITY=Libous, Chomutov, Ústí Region, Bohemia (Böhmen; Boehmen), Czech Republic
##OWNER=RRUFF
##SOURCE=Michael Scott
##DESCRIPTION=Radiating aggregate of tan colored fibrous crystals associated with calcite
##STATUS=The identification of this mineral is confirmed by single-crystal X-ray diffraction and chemical analysis.
##URL=rruff.info/R070119
##MEASURED CHEMISTRY=(K_0.84_Ca_0.03_[box]_0.13_)_Σ=1_(Mg_1.60_Fe^2+^_0.40_)_Σ=2_Ca_0.50_(Si_30.10_Al_5.90_)O_72_·22.91H_2_O ; H_2_O estimated by difference
188.3242, 81507.38
188.8063, 81642.58
189.2884, 81875.63
189.7706, 82125.70
190.2527, 82318.43
190.7348, 82427.98
191.2169, 82509.90
191.6990, 82645.78
192.1811, 82853.19
192.6633, 83031.91
193.1454, 83104.34
193.6275, 83161.20
194.1096, 83276.13
194.5917, 83469.72
195.0738, 83684.99
195.5560, 83842.05
196.0381, 83923.28
196.5202, 84035.91
197.0023, 84256.38
197.4844, 84486.36
197.9665, 84652.73
198.4487, 84741.79
198.9308, 84817.98
199.4129, 84961.67
199.8950, 85186.48
200.3771, 85392.94
200.8592, 85551.00
201.3414, 85691.66
201.8235, 85839.89
202.3056, 85994.79
202.7877, 86124.66
203.2698, 86181.87
203.7519, 86155.47
204.2341, 86145.99
204.7162, 86172.19
205.1983, 86212.65
205.6804, 86260.57
206.1625, 86314.25
206.6446, 86371.79
207.1267, 86439.49
207.6089, 86520.41
208.0910, 86570.41
208.5731, 86551.70
209.0552, 86533.21
209.5373, 86550.74
210.0194, 86598.53
210.5016, 86647.15
210.9837, 86673.34
211.4658, 86677.11
211.9479, 86674.30
212.4300, 86643.59
212.9121, 86630.23
213.3943, 86657.17
213.8764, 86715.95
214.3585, 86783.16
214.8406, 86837.16
215.3227, 86882.68
215.8048, 86970.27
216.2870, 87157.24
216.7691, 87312.12
217.2512, 87353.77
217.7333, 87335.00
218.2154, 87352.41
218.6975, 87475.06
219.1797, 87672.98
219.6618, 87816.24
220.1439, 87860.89
220.6260, 87915.58
221.1081, 88054.26
221.5902, 88211.18
222.0724, 88290.94
222.5545, 88231.99
223.0366, 88094.38
223.5187, 88037.30
224.0008, 88093.02
224.4829, 88170.95
224.9651, 88268.31
225.4472, 88362.88
225.9293, 88428.40
226.4114, 88453.72
226.8935, 88456.69
227.3756, 88472.25
227.8578, 88511.26
228.3399, 88533.07
228.8220, 88514.05
229.3041, 88484.43
229.7862, 88459.18
230.2683, 88442.80
230.7505, 88449.02
231.2326, 88511.63
231.7147, 88653.98
232.1968, 88752.82
232.6789, 88733.00
233.1610, 88701.96
233.6432, 88734.38
234.1253, 88835.09
234.6074, 88936.92
235.0895, 88949.18
235.5716, 88856.13
236.0537, 88833.52
236.5358, 88978.53
237.0180, 89129.10
237.5001, 89189.61
237.9822, 89172.12
238.4643, 89155.84
238.9464, 89212.73
239.4285, 89339.84
239.9107, 89453.36
240.3928, 89558.13
240.8749, 89639.35
241.3570, 89681.57
241.8391, 89696.03
242.3212, 89709.86
242.8034, 89747.05
243.2855, 89797.21
243.7676, 89807.53
244.2497, 89733.77
244.7318, 89699.18
245.2139, 89806.66
245.6961, 89973.32
246.1782, 90067.54
246.6603, 90002.36
247.1424, 89858.18
247.6245, 89810.63
248.1066, 89897.06
248.5888, 89972.98
249.0709, 89967.46
249.5530, 89927.39
250.0351, 89898.84
250.5172, 89897.53
250.9993, 89904.18
251.4815, 89887.64
251.9636, 89842.08
252.4457, 89816.46
252.9278, 89829.84
253.4099, 89869.66
253.8920, 89938.02
254.3742, 90039.40
254.8563, 90126.70
255.3384, 90140.27
255.8205, 90085.80
256.3026, 90067.42
256.7847, 90128.45
257.2668, 90210.87
257.7490, 90261.59
258.2311, 90281.74
258.7132, 90299.32
259.1953, 90327.79
259.6774, 90366.70
260.1595, 90420.27
260.6417, 90503.31
261.1238, 90572.40
261.6059, 90583.27
262.0880, 90550.41
262.5701, 90517.56
263.0522, 90492.05
263.5344, 90480.30
264.0165, 90502.81
264.4986, 90568.69
264.9807, 90627.62
265.4628, 90632.66
265.9449, 90606.34
266.4271, 90596.26
266.9092, 90630.22
267.3913, 90667.67
267.8734, 90661.76
268.3555, 90614.12
268.8376, 90573.49
269.3198, 90567.45
269.8019, 90583.12
270.2840, 90588.45
270.7661, 90580.16
271.2482, 90567.33
271.7303, 90550.38
272.2125, 90532.27
272.6946, 90519.35
273.1767, 90507.10
273.6588, 90512.44
274.1409, 90575.30
274.6230, 90707.91
275.1052, 90823.48
275.5873, 90891.30
276.0694, 90926.25
276.5515, 90953.66
277.0336, 90979.92
277.5157, 90989.35
277.9979, 90953.73
278.4800, 90866.27
278.9621, 90805.24
279.4442, 90776.56
279.9263, 90777.85
280.4084, 90815.88
280.8906, 90887.45
281.3727, 90972.42
281.8548, 91063.75
282.3369, 91157.99
282.8190, 91194.23
283.3011, 91128.45
283.7833, 91055.18
284.2654, 91022.15
284.7475, 91017.38
285.2296, 90998.41
285.7117, 90935.13
286.1938, 90853.25
286.6760, 90854.95
287.1581, 91033.55
287.6402, 91174.35
288.1223, 91247.14
288.6044, 91265.48
289.0865, 91233.49
289.5687, 91153.70
290.0508, 91055.62
290.5329, 90989.79
291.0150, 90971.02
291.4971, 90959.55
291.9792, 90962.69
292.4614, 90967.18
292.9435, 90965.15
293.4256, 90955.01
293.9077, 90938.45
294.3898, 90918.12
294.8719, 90895.65
295.3541, 90856.20
295.8362, 90737.05
296.3183, 90664.32
296.8004, 90742.50
297.2825, 90901.03
297.7646, 90980.87
298.2468, 90862.75
298.7289, 90599.93
299.2110, 90473.87
299.6931, 90608.44
300.1752, 90715.85
300.6573, 90718.60
301.1395, 90681.33
301.6216, 90681.37
302.1037, 90748.17
302.5858, 90835.16
303.0679, 90850.47
303.5500, 90755.58
304.0321, 90708.89
304.5143, 90772.20
304.9964, 90859.37
305.4785, 90927.66
305.9606, 90970.07
306.4427, 90994.24
306.9248, 91008.45
307.4070, 91012.43
307.8891, 90993.19
308.3712, 90929.59
308.8533, 90868.96
309.3354, 90823.84
309.8175, 90799.84
310.2997, 90811.57
310.7818, 90894.73
311.2639, 91005.12
311.7460, 91040.43
312.2281, 90982.14
312.7102, 90920.42
313.1924, 90924.26
313.6745, 90941.73
314.1566, 90898.71
314.6387, 90756.34
315.1208, 90608.46
315.6029, 90533.60
316.0851, 90526.38
316.5672, 90556.12
317.0493, 90640.84
317.5314, 90724.21
318.0135, 90723.20
318.4956, 90632.20
318.9778, 90542.08
319.4599, 90474.93
319.9420, 90434.11
320.4241, 90436.21
320.9062, 90487.53
321.3883, 90542.46
321.8705, 90556.41
322.3526, 90529.05
322.8347, 90507.86
323.3168, 90487.01
323.7989, 90479.39
324.2810, 90514.73
324.7632, 90577.70
325.2453, 90598.79
325.7274, 90523.73
326.2095, 90389.32
326.6916, 90359.20
327.1737, 90552.88
327.6559, 90687.63
328.1380, 90668.61
328.6201, 90578.38
329.1022, 90515.13
329.5843, 90510.65
330.0664, 90544.28
330.5486, 90586.09
331.0307, 90639.23
331.5128, 90692.73
331.9949, 90772.97
332.4770, 90831.63
332.9591, 90813.57
333.4413, 90739.44
333.9234, 90693.66
334.4055, 90760.17
334.8876, 90929.48
335.3697, 90971.58
335.8518, 90749.34
336.3340, 90552.74
336.8161, 90441.40
337.2982, 90389.47
337.7803, 90361.44
338.2624, 90342.80
338.7445, 90333.41
339.2267, 90340.95
339.7088, 90382.50
340.1909, 90386.34
340.6730, 90288.26
341.1551, 90185.44
341.6372, 90146.70
342.1194, 90173.59
342.6015, 90206.07
343.0836, 90183.48
343.5657, 90117.38
344.0478, 90088.55
344.5299, 90112.88
345.0121, 90155.03
345.4942, 90194.20
345.9763, 90233.18
346.4584, 90281.45
346.9405, 90374.46
347.4226, 90449.88
347.9048, 90409.76
348.3869, 90254.94
348.8690, 90108.95
349.3511, 90013.50
349.8332, 89969.92
350.3153, 89975.74
350.7975, 90045.97
351.2796, 90118.70
351.7617, 90167.59
352.2438, 90200.94
352.7259, 90237.59
353.2080, 90283.47
353.6902, 90313.76
354.1723, 90289.32
354.6544, 90194.16
355.1365, 90164.43
355.6186, 90294.82
356.1007, 90409.03
356.5829, 90375.09
357.0650, 90224.03
357.5471, 90069.21
358.0292, 89977.38
358.5113, 89941.77
358.9934, 89933.85
359.4755, 90013.45
359.9576, 90046.89
360.4398, 89987.91
360.9219, 89895.81
361.4040, 89832.78
361.8861, 89813.48
362.3682, 89805.29
362.8503, 89761.25
363.3325, 89666.74
363.8146, 89597.46
364.2967, 89580.25
364.7788, 89563.51
365.2609, 89516.51
365.7430, 89453.88
366.2252, 89412.02
366.7073, 89416.89
367.1894, 89454.54
367.6715, 89484.55
368.1536, 89506.13
368.6357, 89521.52
369.1179, 89510.56
369.6000, 89504.87
370.0821, 89547.41
370.5642, 89651.23
371.0463, 89741.20
371.5284, 89739.33
372.0106, 89660.84
372.4927, 89592.35
372.9748, 89544.54
373.4569, 89515.69
373.9390, 89518.07
374.4211, 89542.49
374.9033, 89547.95
375.3854, 89501.12
375.8675, 89446.16
376.3496, 89434.17
376.8317, 89460.21
377.3138, 89475.07
377.7960, 89450.43
378.2781, 89397.95
378.7602, 89351.13
379.2423, 89279.01
379.7244, 89260.40
380.2065, 89384.47
380.6887, 89538.49
381.1708, 89571.94
381.6529, 89458.30
382.1350, 89306.12
382.6171, 89243.86
383.0992, 89297.21
383.5814, 89287.80
384.0635, 89168.21
384.5456, 89044.85
385.0277, 88952.19
385.5098, 88886.75
385.9919, 88836.41
386.4741, 88795.17
386.9562, 88762.20
387.4383, 88731.99
387.9204, 88690.95
388.4025, 88685.13
388.8846, 88796.87
389.3668, 88888.17
389.8489, 88829.67
390.3310, 88627.84
390.8131, 88438.87
391.2952, 88408.55
391.7773, 88511.73
392.2595, 88599.31
392.7416, 88662.48
393.2237, 88723.84
393.7058, 88820.66
394.1879, 88920.10
394.6700, 88960.76
395.1522, 88896.97
395.6343, 88820.05
396.1164, 88819.60
396.5985, 88878.96
397.0806, 88925.02
397.5627, 88941.38
398.0449, 88921.52
398.5270, 88836.09
399.0091, 88672.07
399.4912, 88551.58
399.9733, 88507.72
400.4554, 88503.93
400.9376, 88530.22
401.4197, 88574.20
401.9018, 88591.88
402.3839, 88547.75
402.8660, 88455.23
403.3481, 88401.76
403.8303, 88446.47
404.3124, 88456.97
404.7945, 88392.39
405.2766, 88300.66
405.7587, 88229.62
406.2408, 88191.02
406.7230, 88164.41
407.2051, 88122.25
407.6872, 88059.71
408.1693, 88018.48
408.6514, 88014.53
409.1335, 88016.20
409.6157, 88033.18
410.0978, 88044.11
410.5799, 88003.99
411.0620, 87873.68
411.5441, 87723.30
412.0262, 87676.16
412.5083, 87741.21
412.9904, 87787.69
413.4726, 87769.21
413.9547, 87726.22
414.4368, 87700.09
414.9189, 87690.95
415.4010, 87695.21
415.8831, 87727.59
416.3653, 87764.93
416.8474, 87770.95
417.3295, 87743.88
417.8116, 87713.98
418.2937, 87697.50
418.7758, 87695.32
419.2580, 87711.89
419.7401, 87777.29
420.2222, 87821.56
420.7043, 87824.43
421.1864, 87798.52
421.6685, 87749.63
422.1507, 87682.55
422.6328, 87619.51
423.1149, 87591.54
423.5970, 87609.42
424.0791, 87594.40
424.5612, 87516.55
425.0434, 87437.38
425.5255, 87372.06
426.0076, 87319.05
426.4897, 87272.16
426.9718, 87228.86
427.4539, 87191.58
427.9361, 87160.19
428.4182, 87131.29
428.9003, 87133.54
429.3824, 87224.55
429.8645, 87297.07
430.3466, 87250.08
430.8288, 87102.67
431.3109, 86981.35
431.7930, 86963.54
432.2751, 86998.96
432.7572, 87021.02
433.2393, 87028.05
433.7215, 87010.62
434.2036, 86950.32
434.6857, 86871.85
435.1678, 86846.05
435.6499, 86905.61
436.1320, 86937.18
436.6142, 86889.54
437.0963, 86811.66
437.5784, 86748.26
438.0605, 86709.59
438.5426, 86704.00
439.0247, 86748.34
439.5069, 86841.28
439.9890, 86864.21
440.4711, 86713.03
440.9532, 86611.36
441.4353, 86638.73
441.9174, 86718.55
442.3996, 86771.95
442.8817, 86772.60
443.3638, 86726.38
443.8459, 86613.05
444.3280, 86424.43
444.8102, 86326.18
445.2923, 86403.49
445.7744, 86469.09
446.2565, 86389.32
446.7386, 86227.09
447.2207, 86115.92
447.7029, 86119.34
448.1850, 86162.96
448.6671, 86184.80
449.1492, 86183.77
449.6313, 86146.87
450.1134, 86057.89
450.5956, 85958.65
451.0777, 85908.87
451.5598, 85913.43
452.0419, 85924.24
452.5240, 85954.71
453.0061, 85974.97
453.4883, 85948.24
453.9704, 85891.74
454.4525, 85863.42
454.9346, 85898.70
455.4167, 85965.21
455.8988, 85967.62
456.3810, 85847.74
456.8631, 85766.69
457.3452, 85772.41
457.8273, 85779.36
458.3094, 85732.35
458.7915, 85633.09
459.2737, 85509.59
459.7558, 85355.73
460.2379, 85206.30
460.7200, 85197.86
461.2021, 85377.63
461.6842, 85524.50
462.1664, 85539.42
462.6485, 85487.70
463.1306, 85433.45
463.6127, 85377.96
464.0948, 85342.67
464.5769, 85356.72
465.0591, 85390.05
465.5412, 85402.30
466.0233, 85388.48
466.5054, 85338.82
466.9875, 85229.16
467.4696, 85080.15
467.9517, 85022.29
468.4338, 85143.62
468.9160, 85229.84
469.3981, 85226.49
469.8802, 85181.13
470.3623, 85131.11
470.8444, 85089.37
471.3265, 85067.00
471.8087, 85081.64
472.2908, 85132.17
472.7729, 85154.73
473.2550, 85143.91
473.7371, 85110.91
474.2192, 85061.22
474.7014, 84993.68
475.1835, 84895.96
475.6656, 84760.81
476.1477, 84642.56
476.6298, 84613.70
477.1119, 84645.10
477.5941, 84615.70
478.0762, 84495.23
478.5583, 84377.27
479.0404, 84339.85
479.5225, 84370.37
480.0046, 84384.56
480.4868, 84356.34
480.9689, 84339.27
481.4510, 84388.88
481.9331, 84451.83
482.4152, 84436.09
482.8973, 84321.73
483.3795, 84176.44
483.8616, 84074.84
484.3437, 84018.00
484.8258, 83995.30
485.3079, 84069.95
485.7900, 84109.37
486.2722, 84042.10
486.7543, 83937.06
487.2364, 83891.05
487.7185, 83936.74
488.2006, 84008.59
488.6827, 84023.09
489.1649, 83986.75
489.6470, 83986.80
490.1291, 84048.64
490.6112, 84113.44
491.0933, 84141.94
491.5754, 84140.57
492.0576, 84118.72
492.5397, 84043.74
493.0218, 83992.07
493.5039, 84047.45
493.9860, 84149.03
494.4681, 84170.13
494.9503, 84077.98
495.4324, 83944.79
495.9145, 83852.24
496.3966, 83806.98
496.8787, 83736.88
497.3608, 83607.90
497.8430, 83495.13
498.3251, 83418.72
498.8072, 83370.09
499.2893, 83343.20
499.7714, 83334.95
500.2535, 83326.05
500.7357, 83287.45
501.2178, 83220.13
501.6999, 83169.06
502.1820, 83142.49
502.6641, 83121.63
503.1462, 83083.58
503.6284, 83045.08
504.1105, 83043.18
504.5926, 83110.54
505.0747, 83165.18
505.5568, 83145.40
506.0389, 83080.34
506.5211, 83024.24
507.0032, 82988.92
507.4853, 82958.37
507.9674, 82915.93
508.4495, 82861.45
508.9316, 82825.40
509.4138, 82798.81
509.8959, 82800.23
510.3780, 82857.30
510.8601, 82932.19
511.3422, 82988.30
511.8243, 83015.78
512.3065, 83020.55
512.7886, 83005.37
513.2707, 82971.20
513.7528, 82935.43
514.2349, 82911.00
514.7170, 82853.93
515.1992, 82699.57
515.6813, 82516.13
516.1634, 82395.34
516.6455, 82357.13
517.1276, 82346.88
517.6097, 82351.27
518.0919, 82361.08
518.5740, 82362.71
519.0561, 82354.73
519.5382, 82344.26
520.0203, 82338.61
520.5024, 82333.51
520.9846, 82304.94
521.4667, 82228.45
521.9488, 82158.93
522.4309, 82088.41
522.9130, 82033.52
523.3951, 82020.79
523.8773, 82041.77
524.3594, 82051.70
524.8415, 82012.06
525.3236, 81939.17
525.8057, 81884.10
526.2878, 81849.84
526.7700, 81818.61
527.2521, 81781.88
527.7342, 81748.00
528.2163, 81725.58
528.6984, 81714.68
529.1805, 81714.25
529.6627, 81748.60
530.1448, 81774.73
530.6269, 81742.92
531.1090, 81665.08
531.5911, 81587.42
532.0732, 81531.27
532.5554, 81496.03
533.0375, 81482.38
533.5196, 81504.72
534.0017, 81516.11
534.4838, 81509.42
534.9659, 81499.77
535.4481, 81506.69
535.9302, 81514.16
536.4123, 81480.13
536.8944, 81371.69
537.3765, 81261.97
537.8586, 81282.88
538.3408, 81416.16
538.8229, 81441.72
539.3050, 81278.83
539.7871, 81102.84
540.2692, 81093.91
540.7513, 81226.34
541.2335, 81277.45
541.7156, 81158.12
542.1977, 81044.17
542.6798, 81018.13
543.1619, 81036.51
543.6440, 81043.22
544.1262, 81023.13
544.6083, 80986.45
545.0904, 80944.66
545.5725, 80897.23
546.0546, 80823.98
546.5367, 80679.57
547.0189, 80585.52
547.5010, 80617.45
547.9831, 80686.63
548.4652, 80706.02
548.9473, 80662.52
549.4294, 80611.68
549.9115, 80603.78
550.3936, 80604.68
550.8757, 80541.77
551.3578, 80416.72
551.8400, 80308.41
552.3221, 80256.80
552.8042, 80249.45
553.2863, 80262.33
553.7684, 80334.38
554.2505, 80347.98
554.7327, 80250.47
555.2148, 80142.17
555.6969, 80081.37
556.1790, 80058.84
556.6611, 80034.69
557.1432, 79985.53
557.6254, 79945.34
558.1075, 79994.63
558.5896, 80141.48
559.0717, 80215.52
559.5538, 80158.84
560.0359, 80081.28
560.5181, 80087.73
561.0002, 80141.30
561.4823, 80137.72
561.9644, 80007.93
562.4465, 79887.71
562.9286, 79858.30
563.4108, 79877.74
563.8929, 79885.30
564.3750, 79868.77
564.8571, 79847.91
565.3392, 79842.94
565.8214, 79850.58
566.3035, 79833.06
566.7856, 79772.84
567.2677, 79715.80
567.7498, 79675.73
568.2319, 79637.78
568.7141, 79579.77
569.1962, 79506.02
569.6783, 79456.13
570.1604, 79484.60
570.6425, 79534.91
571.1246, 79508.74
571.6068, 79415.38
572.0889, 79350.59
572.5710, 79361.64
573.0531, 79380.77
573.5352, 79295.98
574.0173, 79058.84
574.4995, 78921.79
574.9816, 78957.70
575.4637, 79010.01
575.9458, 79027.07
576.4279, 79014.56
576.9100, 78974.35
577.3922, 78910.07
577.8743, 78862.26
578.3564, 78903.78
578.8385, 79018.96
579.3206, 79044.87
579.8027, 78944.77
580.2849, 78859.80
580.7670, 78879.70
581.2491, 78955.47
581.7312, 78981.65
582.2133, 78938.48
582.6954, 78908.45
583.1776, 78952.02
583.6597, 78990.93
584.1418, 78935.90
584.6239, 78807.41
585.1060, 78687.80
585.5881, 78621.19
586.0703, 78599.33
586.5524, 78622.54
587.0345, 78723.54
587.5166, 78733.74
587.9987, 78556.33
588.4808, 78386.19
588.9630, 78345.70
589.4451, 78381.05
589.9272, 78374.38
590.4093, 78271.22
590.8914, 78178.83
591.3735, 78197.17
591.8557, 78268.02
592.3378, 78280.51
592.8199, 78221.27
593.3020, 78149.92
593.7841, 78109.54
594.2662, 78096.05
594.7484, 78093.45
595.2305, 78130.02
595.7126, 78129.09
596.1947, 78060.56
596.6768, 77978.80
597.1589, 77910.01
597.6411, 77858.37
598.1232, 77825.55
598.6053, 77819.13
599.0874, 77820.45
599.5695, 77809.20
600.0516, 77785.88
600.5338, 77749.75
601.0159, 77698.62
601.4980, 77645.73
601.9801, 77596.14
602.4622, 77551.64
602.9443, 77556.88
603.4265, 77699.61
603.9086, 77772.74
604.3907, 77686.68
604.8728, 77553.78
605.3549, 77477.98
605.8370, 77463.74
606.3192, 77447.79
606.8013, 77382.32
607.2834, 77289.74
607.7655, 77216.43
608.2476, 77162.48
608.7297, 77130.75
609.2119, 77134.23
609.6940, 77136.05
610.1761, 77087.72
610.6582, 76988.57
611.1403, 76922.36
611.6224, 76913.41
612.1046, 76911.80
612.5867, 76898.23
613.0688, 76882.39
613.5509, 76881.01
614.0330, 76894.24
614.5151, 76902.96
614.9973, 76889.00
615.4794, 76857.35
615.9615, 76830.04
616.4436, 76810.98
616.9257, 76773.41
617.4078, 76692.80
617.8900, 76608.44
618.3721, 76575.70
618.8542, 76590.43
619.3363, 76574.52
619.8184, 76487.48
620.3005, 76395.80
620.7827, 76316.59
621.2648, 76263.47
621.7469, 76273.20
622.2290, 76345.69
622.7111, 76411.06
623.1932, 76390.95
623.6754, 76300.40
624.1575, 76255.99
624.6396, 76278.86
625.1217, 76283.56
625.6038, 76228.32
626.0859, 76157.16
626.5681, 76109.50
627.0502, 76085.32
627.5323, 76083.70
628.0144, 76124.29
628.4965, 76167.66
628.9786, 76202.98
629.4608, 76218.26
629.9429, 76183.19
630.4250, 76093.40
630.9071, 75991.79
631.3892, 75924.79
631.8713, 75889.23
632.3535, 75844.08
632.8356, 75780.98
633.3177, 75729.02
633.7998, 75723.45
634.2819, 75711.91
634.7640, 75621.02
635.2462, 75458.57
635.7283, 75363.40
636.2104, 75437.21
636.6925, 75538.28
637.1746, 75574.91
637.6567, 75559.24
638.1389, 75514.41
638.6210, 75448.86
639.1031, 75373.66
639.5852, 75295.02
640.0673, 75215.83
640.5494, 75182.48
641.0316, 75232.69
641.5137, 75242.74
641.9958, 75114.95
642.4779, 74984.60
642.9600, 74995.50
643.4421, 75130.40
643.9243, 75199.02
644.4064, 75082.43
644.8885, 74933.84
645.3706, 74845.16
645.8527, 74809.22
646.3348, 74833.50
646.8170, 74910.09
647.2991, 74959.92
647.7812, 74897.54
648.2633, 74741.77
648.7454, 74638.23
649.2275, 74601.00
649.7097, 74580.03
650.1918, 74572.45
650.6739, 74571.07
651.1560, 74569.80
651.6381, 74569.41
652.1202, 74574.59
652.6024, 74608.99
653.0845, 74625.84
653.5666, 74586.45
654.0487, 74514.16
654.5308, 74435.25
655.0129, 74360.18
655.4951, 74308.05
655.9772, 74296.52
656.4593, 74318.59
656.9414, 74352.12
657.4235, 74413.21
657.9056, 74431.19
658.3878, 74377.09
658.8699, 74293.72
659.3519, 74205.92
659.8340, 74115.84
660.3162, 74029.05
660.7983, 73918.05
661.2804, 73852.05
661.7625, 73909.66
662.2446, 74006.91
662.7267, 74034.45
663.2089, 73987.60
663.6910, 73926.99
664.1731, 73892.59
664.6552, 73876.55
665.1373, 73864.23
665.6194, 73859.62
666.1016, 73829.85
666.5837, 73757.27
667.0658, 73681.33
667.5479, 73627.36
668.0300, 73590.19
668.5121, 73559.19
668.9943, 73538.71
669.4764, 73513.85
669.9585, 73493.91
670.4406, 73456.83
670.9227, 73347.00
671.4048, 73201.37
671.8870, 73132.13
672.3691, 73199.05
672.8512, 73321.92
673.3333, 73369.63
673.8154, 73344.77
674.2975, 73340.91
674.7797, 73376.20
675.2618, 73391.20
675.7439, 73348.48
676.2260, 73267.36
676.7081, 73185.63
677.1902, 73098.16
677.6724, 73027.63
678.1545, 72985.93
678.6366, 72953.55
679.1187, 72922.16
