##NAMES=Ferrowyllieite
##RRUFFID=R160068
##IDEAL CHEMISTRY=NaNaFe^2+^(Fe^2+^Al)(PO_4_)_3_
##LOCALITY=Victory mine, near Custer, Custer County, South Dakota, USA
##OWNER=RRUFF
##SOURCE=James Shigley
##DESCRIPTION=Dark green aggregates of blocky crystals, associated with quartz, muscovite, and arrojadite-(BaNa) (R160077)..
##STATUS=The identification of this mineral is confirmed by single-crystal X-ray diffraction and chemical analysis.
##URL=rruff.info/R160068
##MEASURED CHEMISTRY=(Na_1.05_Ca_0.07_Mn^2+^_0.29_ â–¡_0.58_)(Fe^2+^_1.87_Mg_0.16_)(Al^3+^_0.72_Fe^3+^_0.28_)(P_1.01_O_4_)_3_   ; Grey phase. Bright phase is arrojadite-(BaNa).
91.35754, 496.3921
91.83966, 492.9708
92.32178, 477.1537
92.80389, 460.6843
93.28601, 446.5381
93.76813, 435.7993
94.25024, 427.2537
94.73236, 417.8712
95.21448, 406.4335
95.69659, 395.0375
96.17871, 385.2339
96.66083, 377.0485
97.14294, 370.1474
97.62506, 364.2071
98.10718, 359.1230
98.58929, 354.5930
99.07141, 351.2241
99.55353, 347.5560
100.0356, 342.7959
100.5178, 337.0757
100.9999, 331.1625
101.4820, 325.5399
101.9641, 320.2072
102.4462, 315.9736
102.9283, 313.3427
103.4105, 311.4366
103.8926, 309.2862
104.3747, 306.6328
104.8568, 304.1754
105.3389, 303.0107
105.8210, 302.8838
106.3032, 302.5418
106.7853, 301.8503
107.2674, 300.6329
107.7495, 297.8486
108.2316, 291.8792
108.7137, 285.6100
109.1959, 280.9942
109.6780, 278.1140
110.1601, 276.1170
110.6422, 274.1259
111.1243, 272.0185
111.6064, 270.3693
112.0886, 269.6432
112.5707, 269.1081
113.0528, 268.2855
113.5349, 267.0208
114.0170, 265.5176
114.4991, 264.2766
114.9813, 263.9170
115.4634, 262.9868
115.9455, 261.0552
116.4276, 258.6222
116.9097, 256.2758
117.3918, 254.3321
117.8740, 252.7308
118.3561, 251.0705
118.8382, 249.1193
119.3203, 247.3594
119.8024, 245.9599
120.2845, 244.8868
120.7667, 244.0081
121.2488, 243.2187
121.7309, 242.5756
122.2130, 242.1942
122.6951, 242.7143
123.1772, 243.1038
123.6594, 242.3164
124.1415, 240.1799
124.6236, 237.7166
125.1057, 235.3633
125.5878, 233.2188
126.0699, 231.6128
126.5521, 230.8705
127.0342, 230.7661
127.5163, 230.6595
127.9984, 230.7051
128.4805, 230.4864
128.9626, 229.7654
129.4448, 228.6521
129.9269, 227.4194
130.4090, 226.2695
130.8911, 225.2196
131.3732, 224.0789
131.8553, 222.6213
132.3375, 221.2567
132.8196, 220.2575
133.3017, 219.5648
133.7838, 218.8620
134.2659, 217.7018
134.7480, 215.6514
135.2302, 214.3023
135.7123, 214.1630
136.1944, 214.2592
136.6765, 213.8141
137.1586, 212.6674
137.6407, 211.3795
138.1229, 210.9433
138.6050, 212.2917
139.0871, 212.8175
139.5692, 211.9763
140.0513, 210.3471
140.5334, 208.6533
141.0156, 207.1345
141.4977, 205.6837
141.9798, 203.9922
142.4619, 201.8858
142.9440, 200.0274
143.4261, 198.7429
143.9083, 197.9454
144.3904, 197.3052
144.8725, 196.7976
145.3546, 196.2975
145.8367, 195.6360
146.3188, 194.7831
146.8010, 193.8238
147.2831, 192.8108
147.7652, 191.7374
148.2473, 190.6631
148.7294, 189.5398
149.2115, 188.4585
149.6937, 187.5170
150.1758, 186.7609
150.6579, 186.1056
151.1400, 185.3872
151.6221, 184.5785
152.1042, 183.7673
152.5864, 182.8307
153.0685, 181.9555
153.5506, 181.4114
154.0327, 181.3676
154.5148, 181.6510
154.9969, 181.5067
155.4791, 180.6074
155.9612, 179.5811
156.4433, 178.4624
156.9254, 177.2889
157.4075, 176.0852
157.8896, 174.8524
158.3718, 173.6015
158.8539, 172.5888
159.3360, 171.9803
159.8181, 171.4017
160.3002, 170.6864
160.7823, 169.8902
161.2645, 169.2157
161.7466, 168.8748
162.2287, 168.8628
162.7108, 168.4290
163.1929, 167.2597
163.6750, 165.9669
164.1572, 164.9421
164.6393, 164.2030
165.1214, 163.4981
165.6035, 162.5869
166.0856, 161.5035
166.5677, 160.5450
167.0499, 159.7459
167.5320, 159.0853
168.0141, 158.5767
168.4962, 158.2447
168.9783, 157.9558
169.4604, 157.6534
169.9426, 157.3172
170.4247, 156.8718
170.9068, 156.3293
171.3889, 155.6567
171.8710, 154.6948
172.3531, 153.1840
172.8353, 151.8126
173.3174, 151.0273
173.7995, 150.6712
174.2816, 150.3919
174.7637, 149.9396
175.2458, 149.3295
175.7280, 148.8408
176.2101, 148.5983
176.6922, 148.3577
177.1743, 148.0360
177.6564, 147.6366
178.1385, 147.1885
178.6207, 146.7274
179.1028, 146.2664
179.5849, 145.6984
180.0670, 144.8664
180.5491, 144.0664
181.0313, 143.4002
181.5134, 142.8745
181.9955, 142.4646
182.4776, 142.1661
182.9597, 142.0654
183.4418, 141.7463
183.9240, 141.0044
184.4061, 140.2540
184.8882, 139.7436
185.3703, 139.4944
185.8524, 139.3647
186.3345, 139.2060
186.8167, 139.0637
187.2988, 138.6976
187.7809, 137.9102
188.2630, 137.0305
188.7451, 136.3275
189.2272, 135.8526
189.7094, 135.4937
190.1915, 135.1081
190.6736, 134.6781
191.1557, 134.3109
191.6378, 134.0353
192.1199, 133.8200
192.6021, 133.6363
193.0842, 133.4834
193.5663, 133.3361
194.0484, 133.1780
194.5305, 133.0127
195.0126, 132.7899
195.4948, 132.4572
195.9769, 132.0600
196.4590, 131.6715
196.9411, 131.2785
197.4232, 130.9581
197.9053, 130.8456
198.3875, 130.9082
198.8696, 130.9019
199.3517, 130.6551
199.8338, 130.2194
200.3159, 129.8203
200.7980, 129.4962
201.2802, 129.2117
201.7623, 128.9614
202.2444, 128.7350
202.7265, 128.4736
203.2086, 128.0499
203.6907, 127.4760
204.1729, 127.1604
204.6550, 127.4281
205.1371, 127.7064
205.6192, 127.6638
206.1013, 127.3424
206.5834, 127.0010
207.0656, 126.9391
207.5477, 127.2290
208.0298, 127.2991
208.5119, 126.9196
208.9940, 126.4918
209.4761, 126.1557
209.9583, 125.9221
210.4404, 125.7324
210.9225, 125.5150
211.4046, 125.2408
211.8867, 125.0681
212.3689, 125.1494
212.8510, 125.1946
213.3331, 125.0520
213.8152, 124.7250
214.2973, 124.3123
214.7794, 123.9099
215.2616, 123.4820
215.7437, 123.2091
216.2258, 123.2993
216.7079, 123.3464
217.1900, 123.0557
217.6721, 122.4448
218.1543, 121.7859
218.6364, 121.3904
219.1185, 121.3480
219.6006, 121.2478
220.0827, 121.0368
220.5648, 120.8138
221.0470, 120.6846
221.5291, 120.6439
222.0112, 120.5468
222.4933, 120.2072
222.9754, 119.5358
223.4575, 119.1128
223.9397, 119.1741
224.4218, 119.3267
224.9039, 119.2273
225.3860, 118.8436
225.8681, 118.4336
226.3502, 118.2655
226.8324, 118.3586
227.3145, 118.4017
227.7966, 118.3563
228.2787, 118.2657
228.7608, 118.1938
229.2429, 118.1507
229.7251, 118.0334
230.2072, 117.6993
230.6893, 117.1870
231.1714, 116.7309
231.6535, 116.2872
232.1356, 115.9548
232.6178, 115.9491
233.0999, 116.3433
233.5820, 116.6608
234.0641, 116.3806
234.5462, 115.7307
235.0283, 115.2230
235.5105, 115.0875
235.9926, 115.1245
236.4747, 115.0500
236.9568, 114.8438
237.4389, 114.6032
237.9210, 114.3836
238.4032, 114.1744
238.8853, 113.9601
239.3674, 113.7340
239.8495, 113.5029
240.3316, 113.2746
240.8137, 113.0508
241.2959, 112.8284
241.7780, 112.5757
242.2601, 112.3305
242.7422, 112.1436
243.2243, 112.0456
243.7064, 112.0021
244.1886, 111.9735
244.6707, 112.0090
245.1528, 111.9251
245.6349, 111.6193
246.1170, 111.1878
246.5991, 110.7145
247.0813, 110.2283
247.5634, 109.7245
248.0455, 109.1514
248.5276, 108.3971
249.0097, 107.8579
249.4918, 107.9165
249.9740, 108.0704
250.4561, 107.8071
250.9382, 106.9218
251.4203, 105.7589
251.9024, 104.9865
252.3845, 104.7669
252.8667, 104.5998
253.3488, 104.4987
253.8309, 104.3561
254.3130, 104.0506
254.7951, 103.5520
255.2772, 102.9764
255.7594, 102.5374
256.2415, 102.3075
256.7236, 102.0660
257.2057, 101.8266
257.6878, 101.5524
258.1699, 101.1761
258.6520, 100.6980
259.1342, 100.2205
259.6163, 99.91038
260.0984, 99.81682
260.5805, 99.80209
261.0626, 100.0305
261.5447, 100.2050
262.0269, 100.0829
262.5090, 99.64839
262.9911, 99.10584
263.4732, 98.75192
263.9553, 98.76687
264.4374, 98.45383
264.9196, 97.48779
265.4017, 96.51503
265.8838, 95.99472
266.3659, 95.91528
266.8480, 95.89816
267.3301, 95.50526
267.8123, 94.59060
268.2944, 93.92075
268.7765, 93.61764
269.2586, 93.39935
269.7407, 93.15372
270.2228, 92.85997
270.7050, 92.51811
271.1871, 92.11396
271.6692, 91.62774
272.1513, 91.28063
272.6334, 91.09892
273.1155, 90.99460
273.5977, 90.97447
274.0798, 91.00502
274.5619, 91.01950
275.0440, 90.98077
275.5261, 90.88732
276.0082, 90.60535
276.4904, 89.96031
276.9725, 89.35494
277.4546, 88.88256
277.9367, 88.56443
278.4188, 88.47320
278.9009, 88.70010
279.3831, 89.15598
279.8652, 89.24370
280.3473, 88.68552
280.8294, 88.15637
281.3115, 87.81965
281.7936, 87.64302
282.2758, 87.59058
282.7579, 87.66744
283.2400, 87.79800
283.7221, 87.72978
284.2042, 87.27640
284.6863, 86.92614
285.1685, 86.89568
285.6506, 87.00267
286.1327, 86.94889
286.6148, 86.61167
287.0969, 86.14664
287.5790, 85.86780
288.0612, 85.83922
288.5433, 85.81142
289.0254, 85.79123
289.5075, 85.73527
289.9896, 85.53434
290.4717, 85.14998
290.9539, 84.78631
291.4360, 84.78075
291.9181, 85.25911
292.4002, 85.47861
292.8823, 85.17177
293.3644, 84.68094
293.8466, 84.33899
294.3287, 84.19789
294.8108, 84.14036
295.2929, 84.04984
295.7750, 83.92265
296.2571, 83.85623
296.7393, 83.96272
297.2214, 84.05398
297.7035, 83.93635
298.1856, 83.61691
298.6677, 83.30088
299.1498, 83.14119
299.6320, 83.13425
300.1141, 83.13486
300.5962, 83.22068
301.0783, 83.24633
301.5604, 83.07357
302.0425, 82.74292
302.5247, 82.44966
303.0068, 82.32201
303.4889, 82.30527
303.9710, 82.19365
304.4531, 81.88953
304.9352, 81.63258
305.4174, 81.60052
305.8995, 81.70539
306.3816, 81.70058
306.8637, 81.46386
307.3458, 81.10391
307.8279, 80.83562
308.3101, 80.64539
308.7922, 80.54958
309.2743, 80.61634
309.7564, 80.76933
310.2385, 80.90054
310.7206, 80.99698
311.2028, 80.99712
311.6849, 80.74114
312.1670, 80.19453
312.6491, 79.79184
313.1312, 79.71652
313.6133, 79.78246
314.0955, 79.76678
314.5776, 79.63290
315.0597, 79.46474
315.5418, 79.31820
316.0239, 79.19873
316.5060, 79.18551
316.9882, 79.38759
317.4703, 79.62667
317.9524, 79.79601
318.4345, 79.88168
318.9166, 79.81801
319.3987, 79.49566
319.8809, 78.97864
320.3630, 78.65076
320.8451, 78.68149
321.3272, 78.73467
321.8093, 78.58916
322.2914, 78.30106
322.7736, 78.07816
323.2557, 78.02272
323.7378, 78.09396
324.2199, 78.19862
324.7020, 78.42706
325.1841, 78.51580
325.6663, 78.21054
326.1484, 77.72161
326.6305, 77.49709
327.1126, 77.72025
327.5947, 78.09973
328.0768, 78.13937
328.5590, 77.77781
329.0411, 77.46455
329.5232, 77.29080
330.0053, 77.20122
330.4874, 77.15337
330.9695, 77.13960
331.4517, 77.10806
331.9338, 76.99913
332.4159, 76.80217
332.8980, 76.62318
333.3801, 76.44109
333.8622, 76.29532
334.3444, 76.22537
334.8265, 76.22615
335.3086, 76.25245
335.7907, 76.27333
336.2729, 76.29275
336.7550, 76.33865
337.2371, 76.56337
337.7192, 76.65540
338.2013, 76.35040
338.6834, 75.80734
339.1656, 75.40761
339.6477, 75.34362
340.1298, 75.50465
340.6119, 75.60421
341.0940, 75.68099
341.5761, 75.64440
342.0583, 75.37031
342.5404, 75.01246
343.0225, 74.76831
343.5046, 74.69399
343.9867, 74.72243
344.4688, 74.77058
344.9510, 74.85686
345.4331, 74.90462
345.9152, 74.94996
346.3973, 74.93156
346.8794, 74.74960
347.3615, 74.42382
347.8437, 74.12294
348.3258, 74.00236
348.8079, 74.07515
349.2900, 74.07182
349.7721, 73.94144
350.2542, 73.80132
350.7364, 73.71294
351.2185, 73.65329
351.7006, 73.54221
352.1827, 73.32084
352.6648, 73.04551
353.1469, 72.95316
353.6291, 73.27567
354.1112, 73.49156
354.5933, 73.51147
355.0754, 73.40676
355.5575, 73.23878
356.0396, 73.03239
356.5218, 72.81543
357.0039, 72.62984
357.4860, 72.44272
357.9681, 72.37463
358.4502, 72.58231
358.9323, 72.77779
359.4145, 72.74650
359.8966, 72.49048
360.3787, 72.15524
360.8608, 71.86356
361.3429, 71.60499
361.8250, 71.51623
362.3072, 71.75788
362.7893, 71.98988
363.2714, 72.15390
363.7535, 72.22387
364.2356, 72.13660
364.7177, 71.83700
365.1999, 71.42001
365.6820, 71.28554
366.1641, 71.80460
366.6462, 72.09257
367.1283, 71.93996
367.6104, 71.59055
368.0926, 71.23192
368.5747, 70.93413
369.0568, 70.72137
369.5389, 70.66489
370.0210, 70.87183
370.5031, 70.92703
370.9853, 70.66103
371.4674, 70.38735
371.9495, 70.29711
372.4316, 70.36055
372.9137, 70.40666
373.3958, 70.26531
373.8780, 69.95115
374.3601, 69.78282
374.8422, 69.89764
375.3243, 69.98921
375.8064, 69.98720
376.2885, 69.89797
376.7707, 69.72123
377.2528, 69.44265
377.7349, 69.11903
378.2170, 68.87284
378.6991, 68.72849
379.1812, 68.59155
379.6634, 68.42392
380.1455, 68.26451
380.6276, 68.12761
381.1097, 68.01943
381.5918, 67.97569
382.0739, 68.12747
382.5561, 68.46266
383.0382, 68.49343
383.5203, 67.93478
384.0024, 67.34114
384.4845, 67.09693
384.9666, 67.10788
385.4488, 67.08694
385.9309, 66.80412
386.4130, 66.41447
386.8951, 66.31397
387.3772, 66.59409
387.8593, 66.80849
388.3415, 66.64594
388.8236, 66.29967
389.3057, 66.00098
389.7878, 65.79566
390.2699, 65.63303
390.7520, 65.45090
391.2342, 65.26069
391.7163, 65.17128
392.1984, 65.26645
392.6805, 65.40431
393.1626, 65.41080
393.6447, 65.28987
394.1269, 65.12473
394.6090, 64.89610
395.0911, 64.66125
395.5732, 64.53069
396.0553, 64.52699
396.5374, 64.51517
397.0196, 64.36417
397.5017, 64.10116
397.9838, 63.91557
398.4659, 63.83634
398.9480, 63.81800
399.4301, 63.89984
399.9123, 64.03294
400.3944, 64.03353
400.8765, 63.78611
401.3586, 63.41764
401.8407, 63.24441
402.3228, 63.34412
402.8050, 63.43014
403.2871, 63.45868
403.7692, 63.44564
404.2513, 63.37455
404.7334, 63.25225
405.2155, 63.17910
405.6977, 63.28148
406.1798, 63.60135
406.6619, 63.78481
407.1440, 63.79611
407.6261, 63.72834
408.1082, 63.57261
408.5904, 63.37217
409.0725, 63.20575
409.5546, 63.11747
410.0367, 63.09869
410.5188, 63.12310
411.0009, 63.26217
411.4831, 63.34860
411.9652, 63.35036
412.4473, 63.31239
412.9294, 63.27575
413.4115, 63.24795
413.8936, 63.20684
414.3758, 63.12837
414.8579, 63.01412
415.3400, 62.85546
415.8221, 62.47681
416.3042, 62.22689
416.7863, 62.33371
417.2685, 62.65506
417.7506, 62.90577
418.2327, 62.90614
418.7148, 62.73780
419.1969, 62.64684
419.6790, 62.67979
420.1612, 62.68092
420.6433, 62.55775
421.1254, 62.42108
421.6075, 62.37018
422.0896, 62.42161
422.5717, 62.49892
423.0539, 62.55344
423.5360, 62.58121
424.0181, 62.50639
424.5002, 62.24710
424.9823, 61.99354
425.4644, 61.85033
425.9466, 61.80639
426.4287, 61.84611
426.9108, 62.05975
427.3929, 62.28363
427.8750, 62.24622
428.3571, 61.93398
428.8393, 61.64045
429.3214, 61.49528
429.8035, 61.44556
430.2856, 61.38177
430.7677, 61.28801
431.2498, 61.23522
431.7320, 61.30611
432.2141, 61.43211
432.6962, 61.47042
433.1783, 61.38677
433.6604, 61.27053
434.1425, 61.23242
434.6247, 61.27058
435.1068, 61.17606
435.5889, 60.75232
436.0710, 60.36444
436.5531, 60.28338
437.0352, 60.43381
437.5174, 60.57543
437.9995, 60.58857
438.4816, 60.51110
438.9637, 60.44413
439.4458, 60.44921
439.9279, 60.37030
440.4101, 60.10089
440.8922, 59.80855
441.3743, 59.64534
441.8564, 59.62585
442.3385, 59.65534
442.8206, 59.64259
443.3028, 59.58546
443.7849, 59.52728
444.2670, 59.45772
444.7491, 59.39825
445.2312, 59.33774
445.7133, 59.29514
446.1955, 59.31358
446.6776, 59.41294
447.1597, 59.52832
447.6418, 59.52282
448.1239, 59.34275
448.6060, 59.20829
449.0882, 59.15626
449.5703, 59.14638
450.0524, 59.19377
450.5345, 59.27554
451.0166, 59.31546
451.4987, 59.24050
451.9809, 59.08273
452.4630, 58.95042
452.9451, 58.83344
453.4272, 58.76896
453.9093, 58.80190
454.3914, 58.88783
454.8736, 59.00056
455.3557, 59.15625
455.8378, 59.25944
456.3199, 59.19520
456.8020, 59.00516
457.2841, 58.86360
457.7663, 58.81816
458.2484, 58.80033
458.7305, 58.73300
459.2126, 58.62498
459.6947, 58.53886
460.1768, 58.47662
460.6590, 58.44740
461.1411, 58.46941
461.6232, 58.53481
462.1053, 58.61898
462.5874, 58.72219
463.0695, 58.81477
463.5517, 58.80836
464.0338, 58.63795
464.5159, 58.49604
464.9980, 58.39982
465.4801, 58.34205
465.9622, 58.30544
466.4444, 58.29349
466.9265, 58.34428
467.4086, 58.50834
467.8907, 58.78635
468.3728, 58.95174
468.8549, 58.87440
469.3371, 58.82933
469.8192, 58.86531
470.3013, 58.96599
470.7834, 59.13198
471.2655, 59.35892
471.7477, 59.57909
472.2298, 59.70093
472.7119, 59.72774
473.1940, 59.63839
473.6761, 59.25538
474.1582, 58.92579
474.6404, 58.84142
475.1225, 58.93903
475.6046, 59.05047
476.0867, 59.11085
476.5688, 59.10772
477.0509, 58.98202
477.5331, 58.70760
478.0152, 58.49874
478.4973, 58.46219
478.9794, 58.50578
479.4615, 58.53398
479.9436, 58.54562
480.4258, 58.51403
480.9079, 58.38427
481.3900, 58.21576
481.8721, 58.12613
482.3542, 58.13115
482.8363, 58.12946
483.3185, 58.04962
483.8006, 57.89809
484.2827, 57.73438
484.7648, 57.46521
485.2469, 57.29142
485.7290, 57.36288
486.2112, 57.54774
486.6933, 57.65403
487.1754, 57.62586
487.6575, 57.51698
488.1396, 57.39204
488.6217, 57.25251
489.1039, 57.08867
489.5860, 56.81437
490.0681, 56.60880
490.5502, 56.58656
491.0323, 56.67585
491.5144, 56.75879
491.9966, 56.77888
492.4787, 56.74003
492.9608, 56.64561
493.4429, 56.48444
493.9250, 56.30080
494.4071, 56.04920
494.8893, 55.81696
495.3714, 55.67054
495.8535, 55.59064
496.3356, 55.49652
496.8177, 55.31873
497.2998, 55.10191
497.7820, 54.97363
498.2641, 54.96012
498.7462, 54.88598
499.2283, 54.57071
499.7104, 54.23182
500.1925, 54.18530
500.6747, 54.49591
501.1568, 54.75916
501.6389, 54.75775
502.1210, 54.58910
502.6031, 54.37633
503.0852, 54.13562
503.5674, 53.94854
504.0495, 53.89842
504.5316, 53.96033
505.0137, 53.94384
505.4958, 53.76416
505.9779, 53.61804
506.4601, 53.58217
506.9422, 53.60158
507.4243, 53.61654
507.9064, 53.60783
508.3885, 53.57137
508.8706, 53.50355
509.3528, 53.40596
509.8349, 53.26428
510.3170, 52.99022
510.7991, 52.76975
511.2812, 52.72191
511.7633, 52.73944
512.2454, 52.64572
512.7275, 52.36864
513.2097, 52.05684
513.6918, 51.97259
514.1739, 52.15264
514.6560, 52.21099
515.1381, 51.98806
515.6202, 51.77232
516.1024, 51.72213
516.5845, 51.81455
517.0666, 51.99971
517.5487, 52.39423
518.0308, 52.72872
518.5129, 52.61946
518.9951, 52.10642
519.4772, 51.57462
519.9593, 51.12926
520.4414, 50.75886
520.9235, 50.43989
521.4056, 50.15522
521.8878, 50.01708
522.3699, 50.25082
522.8520, 50.47288
523.3341, 50.29597
523.8162, 49.81192
524.2983, 49.41724
524.7805, 49.33792
525.2626, 49.46229
525.7447, 49.47409
526.2268, 49.17770
526.7089, 49.07579
527.1910, 49.41770
527.6732, 49.73897
528.1553, 49.67030
528.6374, 49.27557
529.1195, 48.89796
529.6016, 48.79978
530.0837, 48.89146
530.5659, 48.79367
531.0480, 48.33503
531.5301, 48.13690
532.0122, 48.81633
532.4943, 49.53206
532.9764, 49.53595
533.4586, 48.80367
533.9407, 48.10303
534.4228, 47.95487
534.9049, 48.15261
535.3870, 48.34583
535.8691, 48.52569
536.3513, 48.55869
536.8334, 48.30089
537.3155, 47.88256
537.7976, 47.65048
538.2797, 47.67442
538.7618, 47.69439
539.2440, 47.62415
539.7261, 47.52190
540.2082, 47.43167
540.6903, 47.36814
541.1724, 47.36572
541.6545, 47.46409
542.1367, 47.64315
542.6188, 47.73842
543.1009, 47.63906
543.5830, 47.59818
544.0651, 47.66433
544.5472, 47.78205
545.0294, 47.94117
545.5115, 48.11697
545.9936, 48.22292
546.4757, 48.14988
546.9578, 47.92979
547.4399, 47.77146
547.9221, 47.66633
548.4042, 47.64502
548.8863, 47.83297
549.3684, 48.05901
549.8505, 48.12695
550.3326, 47.99343
550.8148, 47.84900
551.2969, 47.80407
551.7790, 47.82768
552.2611, 47.86290
552.7432, 47.90319
553.2253, 47.96055
553.7075, 48.04107
554.1896, 48.14634
554.6717, 48.28327
555.1538, 48.54086
555.6359, 48.70434
556.1180, 48.64485
556.6002, 48.52486
557.0823, 48.51172
557.5644, 48.62292
558.0465, 48.77173
558.5286, 48.88496
559.0107, 48.96553
559.4929, 49.04393
559.9750, 49.17979
560.4571, 49.21210
560.9392, 49.01674
561.4213, 48.77991
561.9034, 48.66533
562.3856, 48.69417
562.8677, 48.76394
563.3498, 48.80577
563.8319, 48.82500
564.3140, 48.82376
564.7961, 48.79052
565.2783, 48.80693
565.7604, 48.94427
566.2425, 49.14156
566.7246, 49.28303
567.2067, 49.36889
567.6888, 49.40299
568.1710, 49.29392
568.6531, 49.18869
569.1352, 49.32289
569.6173, 49.66441
570.0994, 49.90295
570.5815, 49.80746
571.0637, 49.47542
571.5458, 49.31148
572.0279, 49.46455
572.5100, 49.57095
572.9921, 49.62975
573.4742, 49.62657
573.9564, 49.51997
574.4385, 49.33533
574.9206, 49.15147
575.4027, 49.00771
575.8848, 48.92150
576.3669, 48.97459
576.8491, 49.20785
577.3312, 49.36818
577.8133, 49.31389
578.2954, 49.21718
578.7775, 49.27732
579.2596, 49.48434
579.7418, 49.62817
580.2239, 49.58735
580.7060, 49.47927
581.1881, 49.41841
581.6702, 49.40013
