##NAMES=Ferrowyllieite
##RRUFFID=R160068
##IDEAL CHEMISTRY=NaNaFe^2+^(Fe^2+^Al)(PO_4_)_3_
##LOCALITY=Victory mine, near Custer, Custer County, South Dakota, USA
##OWNER=RRUFF
##SOURCE=James Shigley
##DESCRIPTION=Dark green aggregates of blocky crystals, associated with quartz, muscovite, and arrojadite-(BaNa) (R160077)..
##STATUS=The identification of this mineral is confirmed by single-crystal X-ray diffraction and chemical analysis.
##URL=rruff.info/R160068
##MEASURED CHEMISTRY=(Na_1.05_Ca_0.07_Mn^2+^_0.29_ â–¡_0.58_)(Fe^2+^_1.87_Mg_0.16_)(Al^3+^_0.72_Fe^3+^_0.28_)(P_1.01_O_4_)_3_   ; Grey phase. Bright phase is arrojadite-(BaNa).
89.01367, 255.2767
89.49579, 255.6934
89.97791, 255.6669
90.46002, 254.2632
90.94214, 254.1971
91.42426, 261.0649
91.90637, 273.6929
92.38849, 283.0735
92.87061, 279.7722
93.35272, 267.7295
93.83484, 257.9007
94.31696, 253.5887
94.79907, 252.7351
95.28119, 251.2266
95.76331, 249.3740
96.24542, 246.5621
96.72754, 241.2724
97.20966, 233.5668
97.69177, 227.1252
98.17389, 222.7731
98.65601, 220.4230
99.13812, 220.5952
99.62024, 224.1600
100.1024, 228.3843
100.5845, 229.1144
101.0666, 225.6952
101.5487, 221.6576
102.0308, 218.0499
102.5129, 214.7075
102.9951, 212.5079
103.4772, 211.5802
103.9593, 211.6719
104.4414, 212.0891
104.9235, 211.9964
105.4056, 213.3227
105.8878, 216.9835
106.3699, 223.9821
106.8520, 231.5129
107.3341, 241.6728
107.8162, 253.1674
108.2983, 258.4682
108.7805, 253.1625
109.2626, 245.1788
109.7447, 238.7840
110.2268, 234.5155
110.7089, 231.1775
111.1910, 228.6142
111.6732, 226.8067
112.1553, 225.9661
112.6374, 226.4040
113.1195, 227.6326
113.6016, 229.2698
114.0837, 230.4280
114.5659, 232.6887
115.0480, 237.4578
115.5301, 245.1751
116.0122, 251.1375
116.4943, 252.3595
116.9764, 251.2931
117.4586, 251.0426
117.9407, 254.7299
118.4228, 258.1989
118.9049, 258.5053
119.3870, 254.7512
119.8691, 250.6046
120.3513, 247.9697
120.8334, 246.5776
121.3155, 245.9353
121.7976, 244.9496
122.2797, 244.9408
122.7618, 248.0176
123.2440, 255.8922
123.7261, 263.4575
124.2082, 265.5439
124.6903, 262.9870
125.1724, 258.8608
125.6545, 254.0738
126.1367, 249.1942
126.6188, 245.2535
127.1009, 242.4715
127.5830, 240.7071
128.0651, 239.8996
128.5472, 240.0290
129.0294, 240.7355
129.5115, 242.1183
129.9936, 243.9488
130.4757, 245.3878
130.9578, 246.3848
131.4399, 246.7793
131.9221, 245.9476
132.4042, 243.7738
132.8863, 241.1096
133.3684, 238.5342
133.8505, 236.0540
134.3326, 233.9890
134.8148, 232.4828
135.2969, 231.4951
135.7790, 230.7967
136.2611, 230.3960
136.7432, 230.2646
137.2253, 230.1266
137.7075, 229.7635
138.1896, 230.5454
138.6717, 233.4908
139.1538, 238.8532
139.6359, 242.5560
140.1180, 244.5606
140.6002, 244.9203
141.0823, 243.4520
141.5644, 239.3839
142.0465, 235.2406
142.5286, 231.8980
143.0107, 229.5511
143.4929, 227.4719
143.9750, 225.6386
144.4571, 224.0853
144.9392, 222.9523
145.4213, 222.2090
145.9034, 221.9008
146.3856, 222.1052
146.8677, 223.4031
147.3498, 224.2437
147.8319, 224.6832
148.3140, 224.6801
148.7961, 224.0706
149.2783, 222.2000
149.7604, 220.2663
150.2425, 218.7788
150.7246, 217.6813
151.2067, 217.1015
151.6888, 217.3894
152.1710, 218.3323
152.6531, 218.8634
153.1352, 218.2520
153.6173, 217.6285
154.0994, 217.6082
154.5815, 218.8938
155.0637, 220.1087
155.5458, 221.4821
156.0279, 222.8524
156.5100, 222.9431
156.9921, 220.2557
157.4742, 216.8401
157.9564, 214.1772
158.4385, 213.0847
158.9206, 212.3298
159.4027, 211.5320
159.8848, 210.7018
160.3669, 210.1665
160.8491, 210.1487
161.3312, 210.4351
161.8133, 210.8284
162.2954, 211.2438
162.7775, 211.7668
163.2596, 212.7085
163.7418, 214.0755
164.2239, 214.8089
164.7060, 213.8699
165.1881, 212.1177
165.6702, 210.6301
166.1523, 209.9022
166.6345, 209.4963
167.1166, 209.1826
167.5987, 208.9507
168.0808, 208.7420
168.5629, 208.3753
169.0450, 208.0234
169.5272, 207.9678
170.0093, 208.4798
170.4914, 209.2621
170.9735, 210.2038
171.4556, 211.3604
171.9377, 212.1614
172.4199, 211.9888
172.9020, 211.1006
173.3841, 210.0934
173.8662, 208.9870
174.3483, 208.0153
174.8304, 207.5801
175.3126, 207.8048
175.7947, 208.0788
176.2768, 207.6511
176.7589, 206.7430
177.2410, 206.0408
177.7231, 205.9689
178.2053, 206.3257
178.6874, 206.8909
179.1695, 207.7445
179.6516, 208.4433
180.1337, 208.3137
180.6158, 207.5020
181.0980, 206.7065
181.5801, 206.3325
182.0622, 206.2689
182.5443, 206.2435
183.0264, 206.2354
183.5085, 206.2408
183.9907, 206.2522
184.4728, 206.2699
184.9549, 206.3004
185.4370, 206.2531
185.9191, 206.2002
186.4012, 206.5123
186.8834, 207.3686
187.3655, 208.3015
187.8476, 208.4084
188.3297, 207.7073
188.8118, 206.8739
189.2939, 206.3117
189.7761, 205.9858
190.2582, 205.7200
190.7403, 205.5166
191.2224, 205.3276
191.7045, 205.0299
192.1866, 204.6186
192.6688, 204.2390
193.1509, 203.9724
193.6330, 203.8188
194.1151, 203.8208
194.5972, 204.0527
195.0793, 204.3642
195.5615, 204.3369
196.0436, 203.9257
196.5257, 203.5156
197.0078, 203.4071
197.4899, 203.6115
197.9720, 203.7371
198.4542, 203.7515
198.9363, 203.6496
199.4184, 203.3568
199.9005, 202.8204
200.3826, 202.3272
200.8647, 202.0425
201.3469, 201.9655
201.8290, 202.1758
202.3111, 202.8380
202.7932, 203.7090
203.2753, 203.9259
203.7574, 203.3399
204.2396, 202.5837
204.7217, 202.0628
205.2038, 201.7961
205.6859, 201.6534
206.1680, 201.6458
206.6501, 201.7447
207.1323, 201.8398
207.6144, 201.9197
208.0965, 202.0281
208.5786, 202.2481
209.0607, 202.6594
209.5428, 202.8204
210.0250, 202.5967
210.5071, 202.1048
210.9892, 201.8152
211.4713, 201.7817
211.9534, 201.8410
212.4355, 201.8935
212.9176, 201.9376
213.3998, 201.9693
213.8819, 201.9706
214.3640, 201.9539
214.8461, 202.0116
215.3282, 202.2153
215.8103, 202.3499
216.2925, 202.2469
216.7746, 201.8012
217.2567, 201.4125
217.7388, 201.1251
218.2209, 200.9202
218.7030, 200.7207
219.1852, 200.5248
219.6673, 200.3367
220.1494, 200.1693
220.6315, 200.0464
221.1136, 199.8957
221.5957, 199.7430
222.0779, 199.5639
222.5600, 199.1834
223.0421, 198.4263
223.5242, 197.7597
224.0063, 197.5208
224.4884, 197.9801
224.9706, 198.1967
225.4527, 197.9884
225.9348, 197.4845
226.4169, 197.2384
226.8990, 197.3717
227.3811, 197.5847
227.8633, 197.7451
228.3454, 197.9632
228.8275, 197.8579
229.3096, 197.3194
229.7917, 196.4413
230.2738, 195.5715
230.7560, 194.6080
231.2381, 193.8226
231.7202, 193.4299
232.2023, 193.7315
232.6844, 193.7401
233.1665, 193.2863
233.6487, 192.5241
234.1308, 191.9940
234.6129, 191.8195
235.0950, 191.7004
235.5771, 191.4777
236.0592, 191.0555
236.5414, 190.7335
237.0235, 190.5078
237.5056, 190.3838
237.9877, 190.4072
238.4698, 190.6919
238.9520, 190.9514
239.4341, 191.0678
239.9162, 191.0445
240.3983, 190.8492
240.8804, 190.4046
241.3625, 189.8091
241.8447, 189.3049
242.3268, 188.9254
242.8089, 188.5921
243.2910, 188.2688
243.7731, 187.9171
244.2552, 187.6867
244.7374, 187.6846
245.2195, 187.7631
245.7016, 187.5798
246.1837, 186.9900
246.6658, 186.3795
247.1479, 185.8884
247.6301, 185.5182
248.1122, 185.2732
248.5943, 185.2241
249.0764, 185.2646
249.5585, 185.1949
250.0406, 184.9731
250.5228, 184.7198
251.0049, 184.4920
251.4870, 184.3335
251.9691, 183.9924
252.4512, 183.2629
252.9333, 182.5029
253.4155, 182.3496
253.8976, 183.2311
254.3797, 183.8734
254.8618, 183.8027
255.3439, 182.8819
255.8260, 182.1555
256.3082, 181.6597
256.7903, 181.3248
257.2724, 181.0886
257.7545, 181.0229
258.2366, 180.8880
258.7188, 180.5807
259.2009, 180.0869
259.6830, 179.7238
260.1651, 179.5615
260.6472, 179.4492
261.1293, 179.1901
261.6115, 178.7008
262.0936, 178.3107
262.5757, 178.1617
263.0578, 178.2516
263.5399, 178.0989
264.0220, 177.6288
264.5042, 177.0429
264.9863, 176.4853
265.4684, 175.9050
265.9505, 175.5665
266.4326, 175.6457
266.9147, 176.0648
267.3969, 176.0141
267.8790, 175.3477
268.3611, 174.5127
268.8432, 173.8635
269.3253, 173.4100
269.8074, 173.0993
270.2896, 172.9520
270.7717, 172.9378
271.2538, 172.9179
271.7359, 172.8822
272.2180, 172.8604
272.7001, 172.9025
273.1823, 173.0347
273.6644, 173.0438
274.1465, 172.8722
274.6286, 172.5823
275.1107, 172.3779
275.5928, 172.2958
276.0750, 172.1722
276.5571, 171.8764
277.0392, 171.3945
277.5213, 170.9487
278.0034, 170.5344
278.4855, 170.1945
278.9677, 170.1236
279.4498, 170.3839
279.9319, 170.5067
280.4140, 170.1138
280.8961, 169.2173
281.3782, 168.6264
281.8604, 168.4096
282.3425, 168.4360
282.8246, 168.5441
283.3067, 168.7408
283.7888, 168.8856
284.2709, 168.9153
284.7531, 168.8352
285.2352, 168.6826
285.7173, 168.4450
286.1994, 168.1756
286.6815, 167.9540
287.1636, 167.7764
287.6458, 167.5717
288.1279, 167.3173
288.6100, 167.0153
289.0921, 166.6465
289.5742, 166.1941
290.0563, 165.7901
290.5385, 165.6211
291.0206, 165.6521
291.5027, 165.6670
291.9848, 165.6106
292.4669, 165.4860
292.9490, 165.2334
293.4312, 164.8515
293.9133, 164.5594
294.3954, 164.6832
294.8775, 165.0815
295.3596, 165.2803
295.8417, 165.0979
296.3239, 164.7191
296.8060, 164.4020
297.2881, 164.1445
297.7702, 163.9328
298.2523, 163.7834
298.7344, 163.6689
299.2166, 163.5319
299.6987, 163.3590
300.1808, 163.1693
300.6629, 162.9648
301.1450, 162.7573
301.6271, 162.5839
302.1093, 162.4649
302.5914, 162.3978
303.0735, 162.4036
303.5556, 162.5098
304.0377, 162.5941
304.5198, 162.5352
305.0020, 162.3641
305.4841, 162.1566
305.9662, 161.9801
306.4483, 161.7683
306.9304, 161.3897
307.4125, 160.8043
307.8947, 160.3249
308.3768, 160.2378
308.8589, 160.3966
309.3410, 160.5744
309.8231, 160.7325
310.3052, 160.8311
310.7874, 160.8251
311.2695, 160.7146
311.7516, 160.5826
312.2337, 160.4924
312.7158, 160.4011
313.1979, 160.2642
313.6801, 160.0252
314.1622, 159.7799
314.6443, 159.5449
315.1264, 159.3320
315.6085, 159.1967
316.0906, 159.2836
316.5728, 159.3921
317.0549, 159.3720
317.5370, 159.1240
318.0191, 158.8405
318.5012, 158.5234
318.9833, 158.2107
319.4655, 158.0091
319.9476, 158.0129
320.4297, 158.0882
320.9118, 158.1938
321.3939, 158.3991
321.8760, 158.4560
322.3582, 158.1326
322.8403, 157.6571
323.3224, 157.4109
323.8045, 157.7541
324.2866, 158.0617
324.7687, 158.0906
325.2509, 157.7175
325.7330, 157.5300
326.2151, 157.7470
326.6972, 158.0960
327.1793, 158.2911
327.6614, 158.3361
328.1436, 158.2231
328.6257, 157.8665
329.1078, 157.2574
329.5899, 156.8443
330.0720, 156.7607
330.5541, 156.7649
331.0363, 156.6841
331.5184, 156.4352
332.0005, 156.2428
332.4826, 156.1537
332.9647, 156.1372
333.4468, 156.0348
333.9290, 155.7740
334.4111, 155.5383
334.8932, 155.4405
335.3753, 155.5448
335.8574, 155.5815
336.3395, 155.5121
336.8216, 155.3949
337.3037, 155.3530
337.7859, 155.4064
338.2680, 155.4763
338.7501, 155.5680
339.2322, 155.6917
339.7143, 155.5997
340.1964, 155.2165
340.6786, 154.7863
341.1607, 154.7008
341.6428, 154.9942
342.1249, 155.1343
342.6070, 154.9049
343.0891, 154.3973
343.5713, 153.9754
344.0534, 153.6283
344.5355, 153.4581
345.0176, 153.6993
345.4997, 154.2696
345.9818, 154.6055
346.4640, 154.5287
346.9461, 154.2388
347.4282, 154.1195
347.9103, 154.1601
348.3924, 154.2099
348.8745, 154.2140
349.3567, 154.1521
349.8388, 153.9321
350.3209, 153.4973
350.8030, 153.0690
351.2851, 152.9297
351.7672, 153.0134
352.2494, 153.1196
352.7315, 153.2038
353.2136, 153.2277
353.6957, 153.0635
354.1778, 152.6931
354.6599, 152.4498
355.1421, 152.7438
355.6242, 153.3033
356.1063, 153.7162
356.5884, 153.7259
357.0705, 153.6311
357.5526, 153.6458
358.0348, 153.7468
358.5169, 153.7936
358.9990, 153.5836
359.4811, 153.3545
359.9632, 153.3369
360.4453, 153.7633
360.9275, 154.0972
361.4096, 153.9850
361.8917, 153.6165
362.3738, 153.4298
362.8559, 153.6871
363.3380, 154.0560
363.8202, 154.4009
364.3023, 154.7069
364.7844, 154.9623
365.2665, 155.1603
365.7486, 155.3082
366.2307, 155.4148
366.7129, 155.4927
367.1950, 155.5207
367.6771, 155.4690
368.1592, 155.3350
368.6413, 155.2594
369.1234, 155.3734
369.6056, 155.4502
370.0877, 155.3298
370.5698, 154.8840
371.0519, 154.4608
371.5340, 154.0677
372.0161, 153.7151
372.4983, 153.4515
372.9804, 153.3471
373.4625, 153.1985
373.9446, 152.8648
374.4267, 152.2412
374.9088, 151.8857
375.3910, 151.8785
375.8731, 152.0381
376.3552, 152.1016
376.8373, 152.0642
377.3194, 151.9645
377.8015, 151.8191
378.2837, 151.6231
378.7658, 151.3497
379.2479, 150.9954
379.7300, 150.5714
380.2121, 150.0129
380.6942, 149.3537
381.1764, 148.8676
381.6585, 148.6504
382.1406, 148.5878
382.6227, 148.5123
383.1048, 148.4169
383.5869, 148.2435
384.0691, 147.9364
384.5512, 147.5274
385.0333, 147.1019
385.5154, 146.6721
385.9975, 146.1795
386.4796, 145.4631
386.9618, 144.6303
387.4439, 143.9411
387.9260, 143.6194
388.4081, 143.4343
388.8902, 143.1986
389.3723, 142.9117
389.8545, 142.5945
390.3366, 142.2722
390.8187, 141.9206
391.3008, 141.5041
391.7829, 140.9232
392.2650, 140.4052
392.7472, 140.0720
393.2293, 139.8804
393.7114, 139.7036
394.1935, 139.5184
394.6756, 139.3205
395.1577, 139.1062
395.6399, 138.8707
396.1220, 138.6308
396.6041, 138.3775
397.0862, 138.1234
397.5683, 137.8843
398.0504, 137.6272
398.5326, 137.4179
399.0147, 137.2656
399.4968, 137.1689
399.9789, 137.1281
400.4610, 137.2342
400.9431, 137.3043
401.4253, 137.1940
401.9074, 136.7222
402.3895, 136.4733
402.8716, 136.5646
403.3537, 136.8591
403.8358, 137.0131
404.3180, 136.9852
404.8001, 136.9375
405.2822, 136.9440
405.7643, 137.0087
406.2464, 137.0359
406.7285, 137.0321
407.2107, 136.9803
407.6928, 136.8382
408.1749, 136.6088
408.6570, 136.3980
409.1391, 136.2255
409.6212, 136.0989
410.1034, 136.0535
410.5855, 136.0884
411.0676, 136.1392
411.5497, 136.2160
412.0318, 136.2705
412.5139, 136.1558
412.9961, 135.8147
413.4782, 135.4497
413.9603, 135.2928
414.4424, 135.2818
414.9245, 135.2742
415.4066, 135.2131
415.8888, 135.1130
416.3709, 134.9362
416.8530, 134.6869
417.3351, 134.5404
417.8172, 134.7391
418.2993, 135.0186
418.7815, 135.1191
419.2636, 134.8090
419.7457, 134.5259
420.2278, 134.4904
420.7099, 134.6137
421.1920, 134.6711
421.6742, 134.5908
422.1563, 134.4497
422.6384, 134.2804
423.1205, 134.0893
423.6026, 133.8616
424.0847, 133.5212
424.5669, 133.1846
425.0490, 132.9709
425.5311, 132.9873
426.0132, 132.9654
426.4953, 132.8179
426.9774, 132.5841
427.4596, 132.5593
427.9417, 132.9044
428.4238, 133.1752
428.9059, 133.0776
429.3880, 132.5080
429.8701, 132.0829
430.3523, 131.8151
430.8344, 131.6994
431.3165, 131.7754
431.7986, 132.0573
432.2807, 132.3187
432.7628, 132.4749
433.2450, 132.5547
433.7271, 132.6644
434.2092, 132.8069
434.6913, 132.9312
435.1734, 132.9561
435.6555, 132.9298
436.1377, 132.9904
436.6198, 133.1796
437.1019, 133.4213
437.5840, 133.6163
438.0661, 133.7907
438.5482, 134.0168
439.0304, 134.3588
439.5125, 134.7516
439.9946, 135.1789
440.4767, 135.6413
440.9588, 135.9733
441.4409, 135.9682
441.9231, 135.8430
442.4052, 135.8073
442.8873, 135.9786
443.3694, 136.1700
443.8515, 136.2023
444.3336, 136.1949
444.8158, 136.4930
445.2979, 137.6702
445.7800, 138.7185
446.2621, 139.1696
446.7442, 138.7159
447.2263, 138.6637
447.7085, 139.2920
448.1906, 140.1331
448.6727, 140.7495
449.1548, 141.0890
449.6369, 141.2955
450.1190, 141.3242
450.6012, 141.2407
451.0833, 141.3302
451.5654, 141.6200
452.0475, 142.0008
452.5296, 142.4426
453.0117, 142.9464
453.4939, 143.4332
453.9760, 143.9207
454.4581, 144.3296
454.9402, 144.5409
455.4223, 144.5710
455.9044, 144.5468
456.3866, 144.4729
456.8687, 144.3995
457.3508, 144.4685
457.8329, 144.6541
458.3150, 144.7610
458.7971, 144.5384
459.2793, 144.2092
459.7614, 144.0870
460.2435, 144.2532
460.7256, 144.4580
461.2077, 144.5896
461.6898, 144.6340
462.1720, 144.5708
462.6541, 144.2313
463.1362, 143.9324
463.6183, 143.8500
464.1004, 143.9616
464.5826, 144.0224
465.0647, 143.8668
465.5468, 143.7200
466.0289, 143.7253
466.5110, 144.0892
466.9931, 144.2352
467.4753, 143.9147
467.9574, 143.4726
468.4395, 143.4170
468.9216, 144.0027
469.4037, 144.5115
469.8858, 144.7765
470.3680, 144.8178
470.8501, 144.7874
471.3322, 144.6154
471.8143, 144.5664
472.2964, 144.9097
472.7785, 145.6497
473.2607, 146.2186
473.7428, 146.5871
474.2249, 146.7420
474.7070, 146.5098
475.1891, 145.9711
475.6712, 145.6450
476.1534, 145.9156
476.6355, 146.4223
477.1176, 146.5656
477.5997, 146.3734
478.0818, 146.0847
478.5639, 145.7919
479.0461, 145.5295
479.5282, 145.3343
480.0103, 145.2049
480.4924, 145.1668
480.9745, 145.2980
481.4566, 145.5136
481.9388, 145.6889
482.4209, 145.9003
482.9030, 145.9456
483.3851, 145.6528
483.8672, 145.0522
484.3493, 144.5653
484.8315, 144.3970
485.3136, 144.2381
485.7957, 143.9162
486.2778, 143.2528
486.7599, 142.8176
487.2420, 142.7468
487.7242, 142.8081
488.2063, 142.6611
488.6884, 142.2342
489.1705, 141.8136
489.6526, 141.4574
490.1347, 141.1611
490.6169, 140.8952
491.0990, 140.6614
491.5811, 140.4423
492.0632, 140.2398
492.5453, 140.0466
493.0274, 139.8331
493.5096, 139.6040
493.9917, 139.3189
494.4738, 138.8631
494.9559, 138.3104
495.4380, 137.8511
495.9201, 137.6860
496.4023, 137.5177
496.8844, 136.9576
497.3665, 136.1211
497.8486, 135.4422
498.3307, 135.3016
498.8128, 135.3003
499.2950, 135.1707
499.7771, 134.8572
500.2592, 134.5107
500.7413, 134.1882
501.2234, 133.8453
501.7055, 133.4416
502.1877, 132.8389
502.6698, 132.3338
503.1519, 132.0068
503.6340, 131.8067
504.1161, 131.5520
504.5982, 131.2534
505.0804, 130.8745
505.5625, 130.3648
506.0446, 129.7080
506.5267, 129.1630
507.0088, 128.7115
507.4909, 128.4076
507.9731, 128.4444
508.4552, 128.7802
508.9373, 128.7218
509.4194, 128.0221
509.9015, 127.0961
510.3836, 126.6996
510.8658, 126.7301
511.3479, 126.7080
511.8300, 126.3320
512.3121, 125.7917
512.7943, 125.2749
513.2764, 124.7905
513.7585, 124.3837
514.2406, 124.1151
514.7227, 123.9214
515.2048, 123.7650
515.6870, 123.7185
516.1691, 123.5485
516.6512, 123.0657
517.1333, 122.4348
517.6154, 121.9253
518.0975, 121.7267
518.5797, 121.4951
519.0618, 121.0964
519.5439, 120.5553
520.0260, 120.2147
520.5081, 120.2110
520.9902, 120.2036
521.4724, 119.9428
521.9545, 119.3206
522.4366, 119.0535
522.9187, 119.2502
523.4008, 119.5915
523.8829, 119.7159
524.3651, 119.6250
524.8472, 119.2856
525.3293, 118.6144
525.8114, 117.7853
526.2935, 117.0484
526.7756, 116.4185
527.2578, 115.9549
527.7399, 115.7522
528.2220, 115.7001
528.7041, 115.7139
529.1862, 115.7915
529.6683, 115.7970
530.1505, 115.6118
530.6326, 115.3300
531.1147, 115.0377
531.5968, 114.6815
532.0789, 114.4199
532.5610, 114.3072
533.0432, 114.3144
533.5253, 114.3886
534.0074, 114.7840
534.4895, 114.9370
534.9716, 114.5600
535.4537, 113.6838
535.9359, 113.4019
536.4180, 113.9817
536.9001, 114.6474
537.3822, 114.8635
537.8643, 114.5874
538.3464, 114.4270
538.8286, 114.4209
539.3107, 114.5190
539.7928, 114.6946
540.2749, 114.9307
540.7570, 115.1263
541.2391, 115.2069
541.7213, 115.2797
542.2034, 115.4279
542.6855, 115.6786
543.1676, 116.1437
543.6497, 117.2328
544.1318, 118.3364
544.6140, 118.8567
545.0961, 118.7130
545.5782, 118.6328
546.0603, 118.8685
546.5424, 119.3211
547.0245, 119.9101
547.5067, 120.8178
547.9888, 121.5947
548.4709, 122.1067
548.9530, 122.4982
549.4351, 123.0073
549.9172, 123.6335
550.3994, 124.3945
550.8815, 125.3677
551.3636, 126.4913
551.8457, 127.2824
552.3278, 127.6823
552.8099, 128.0504
553.2921, 128.6284
553.7742, 129.3865
554.2563, 130.1712
554.7384, 130.9908
555.2205, 131.7553
555.7026, 132.2807
556.1848, 132.6998
556.6669, 133.2987
557.1490, 134.2319
557.6311, 135.2547
558.1132, 136.3055
558.5953, 137.2991
559.0775, 138.0652
559.5596, 138.1103
560.0417, 138.2902
560.5238, 139.1558
561.0059, 140.7296
561.4880, 141.9335
561.9702, 142.4216
562.4523, 142.6411
562.9344, 142.7937
563.4165, 142.8705
563.8986, 142.9021
564.3807, 142.8816
564.8629, 142.8292
565.3450, 142.7710
565.8271, 142.7098
566.3092, 142.6488
566.7913, 142.6222
567.2734, 142.5612
567.7556, 142.2869
568.2377, 141.8188
568.7198, 141.3225
569.2019, 140.8257
569.6840, 140.3789
570.1661, 140.0925
570.6483, 139.9570
571.1304, 139.7961
571.6125, 139.6054
572.0946, 139.2755
572.5767, 138.6388
573.0588, 137.4474
573.5410, 136.5283
574.0231, 136.3003
574.5052, 136.4162
574.9873, 136.4444
575.4694, 136.4459
575.9515, 136.2146
576.4337, 135.5839
576.9158, 134.7139
577.3979, 134.2065
577.8800, 134.1819
578.3621, 134.1658
578.8442, 133.9083
579.3264, 133.4644
