##NAMES=Ferrostrunzite
##RRUFFID=R100079
##IDEAL CHEMISTRY=Fe^2+^Fe^3+^_2_(P^5+^O_4_)_2_(OH)_2_&#183;6H_2_O
##LOCALITY=Hornerstown, Monmouth County, New Jersey, USA
##OWNER=RRUFF
##SOURCE=Jeff Weissman
##DESCRIPTION=Radial sprays of colorless acicular crystals
##STATUS=The identification of this mineral has been confirmed only by single crystal X-ray diffraction.
##URL=rruff.info/R100079
157.9885, 367.3497
158.4706, 375.6553
158.9528, 383.9181
159.4349, 392.5869
159.9170, 401.1598
160.3991, 410.3816
160.8812, 421.1131
161.3633, 434.1234
161.8455, 448.2787
162.3276, 463.2660
162.8097, 478.9128
163.2918, 495.0921
163.7739, 511.9712
164.2560, 528.6197
164.7382, 541.0801
165.2203, 554.4472
165.7024, 565.6873
166.1845, 571.9394
166.6666, 572.1890
167.1487, 570.1114
167.6309, 567.4749
168.1130, 564.0300
168.5951, 559.2831
169.0772, 551.1821
169.5593, 542.6340
170.0414, 536.2160
170.5236, 532.7966
171.0057, 530.4290
171.4878, 527.9601
171.9699, 525.3940
172.4520, 522.8035
172.9341, 519.3441
173.4163, 516.1547
173.8984, 514.7365
174.3805, 516.0153
174.8626, 518.0930
175.3447, 519.0647
175.8268, 519.1829
176.3090, 519.6475
176.7911, 521.5232
177.2732, 524.2167
177.7553, 526.7953
178.2374, 529.1078
178.7195, 531.1137
179.2017, 532.6625
179.6838, 533.8016
180.1659, 534.8503
180.6480, 536.0692
181.1301, 537.3904
181.6122, 538.7308
182.0944, 540.3416
182.5765, 541.7575
183.0586, 542.1409
183.5407, 541.4981
184.0228, 540.3462
184.5049, 538.8713
184.9871, 537.1963
185.4692, 535.8484
185.9513, 535.2144
186.4334, 534.9201
186.9155, 533.6568
187.3976, 531.2961
187.8798, 529.5111
188.3619, 530.6424
188.8440, 534.2322
189.3261, 537.2341
189.8082, 538.0951
190.2903, 537.6038
190.7725, 538.7298
191.2546, 541.6519
191.7367, 545.3168
192.2188, 548.5790
192.7009, 551.4940
193.1830, 554.6112
193.6652, 558.5760
194.1473, 563.0975
194.6294, 565.7317
195.1115, 566.0621
195.5936, 565.9005
196.0757, 567.6892
196.5579, 571.4753
197.0400, 575.7111
197.5221, 580.1057
198.0042, 584.5875
198.4863, 588.1988
198.9684, 590.8190
199.4506, 592.8080
199.9327, 594.6367
200.4148, 596.3283
200.8969, 597.7516
201.3790, 598.9431
201.8611, 599.9066
202.3433, 600.2891
202.8254, 600.1172
203.3075, 599.3051
203.7896, 597.6285
204.2717, 594.9787
204.7538, 591.9494
205.2360, 588.9147
205.7181, 585.9717
206.2002, 581.8404
206.6823, 575.9120
207.1644, 569.5214
207.6465, 565.2216
208.1287, 563.4091
208.6108, 562.4209
209.0929, 561.9030
209.5750, 562.1808
210.0571, 561.1019
210.5392, 558.3076
211.0214, 554.5032
211.5035, 551.0358
211.9856, 547.9240
212.4677, 545.2128
212.9498, 542.9716
213.4319, 541.3047
213.9141, 539.7385
214.3962, 538.1819
214.8783, 536.7674
215.3604, 535.8806
215.8425, 535.6868
216.3246, 535.6035
216.8068, 535.2232
217.2889, 534.1937
217.7710, 534.1087
218.2531, 535.3015
218.7352, 537.2726
219.2173, 538.8841
219.6995, 540.0665
220.1816, 541.0135
220.6637, 541.7430
221.1458, 542.0272
221.6279, 542.7580
222.1100, 543.9762
222.5922, 545.6456
223.0743, 547.8574
223.5564, 551.1182
224.0385, 554.0359
224.5206, 555.5988
225.0027, 554.5892
225.4849, 555.7755
225.9670, 560.4297
226.4491, 566.9187
226.9312, 570.7471
227.4133, 570.1062
227.8954, 569.6960
228.3776, 571.8742
228.8597, 578.1298
229.3418, 583.3818
229.8239, 587.4354
230.3060, 590.4837
230.7881, 592.8326
231.2703, 593.9082
231.7524, 595.1607
232.2345, 597.3329
232.7166, 601.1708
233.1987, 604.3268
233.6808, 607.2086
234.1630, 609.2955
234.6451, 608.9363
235.1272, 604.5707
235.6093, 600.1166
236.0914, 597.4093
236.5735, 597.5174
237.0557, 596.8890
237.5378, 594.8273
238.0199, 592.2552
238.5020, 591.6376
238.9841, 594.1259
239.4662, 596.8770
239.9484, 598.6321
240.4305, 598.7239
240.9126, 599.3392
241.3947, 600.5541
241.8768, 602.2545
242.3589, 604.1857
242.8411, 606.3727
243.3232, 608.7194
243.8053, 611.2473
244.2874, 614.2959
244.7695, 616.6586
245.2516, 618.0778
245.7338, 618.9265
246.2159, 620.1097
246.6980, 622.1307
247.1801, 623.7029
247.6622, 624.1204
248.1443, 622.5170
248.6265, 622.2682
249.1086, 623.7974
249.5907, 626.4740
250.0728, 629.1022
250.5549, 631.9614
251.0370, 634.2953
251.5192, 635.6700
252.0013, 635.6240
252.4834, 636.1024
252.9655, 637.2270
253.4476, 638.7794
253.9297, 640.5817
254.4119, 643.3986
254.8940, 644.9642
255.3761, 644.0090
255.8582, 639.4452
256.3403, 636.9109
256.8224, 637.5653
257.3046, 639.3641
257.7867, 638.7087
258.2688, 634.4307
258.7509, 630.1873
259.2330, 627.3660
259.7151, 626.3246
260.1973, 624.4689
260.6794, 621.4734
261.1615, 618.0397
261.6436, 615.2190
262.1257, 613.0421
262.6078, 611.3409
263.0900, 610.0485
263.5721, 609.1264
264.0542, 608.9159
264.5363, 609.6688
265.0184, 610.8111
265.5005, 611.6031
265.9827, 611.8771
266.4648, 612.2416
266.9469, 612.8633
267.4290, 613.7375
267.9111, 614.7180
268.3932, 615.9172
268.8754, 617.0280
269.3575, 617.5760
269.8396, 617.3250
270.3217, 617.4089
270.8038, 618.1249
271.2859, 619.4610
271.7681, 621.0272
272.2502, 622.8583
272.7323, 624.8539
273.2144, 626.9875
273.6965, 629.3832
274.1786, 631.2806
274.6608, 632.3611
275.1429, 632.7743
275.6250, 633.8336
276.1071, 635.8581
276.5892, 637.6205
277.0714, 637.6819
277.5535, 635.8135
278.0356, 634.4525
278.5177, 634.2371
278.9998, 634.8290
279.4819, 634.9785
279.9641, 634.7649
280.4462, 633.8121
280.9283, 631.4187
281.4104, 627.5446
281.8925, 624.3435
282.3746, 622.3156
282.8568, 621.0410
283.3389, 619.3029
283.8210, 617.0405
284.3031, 614.7484
284.7852, 612.8922
285.2673, 611.4368
285.7495, 609.4896
286.2316, 606.7549
286.7137, 603.7186
287.1958, 601.6400
287.6779, 600.5530
288.1600, 599.1248
288.6422, 596.1486
289.1243, 591.8699
289.6064, 588.2516
290.0885, 585.3806
290.5706, 583.2704
291.0527, 582.3500
291.5349, 582.5326
292.0170, 582.4630
292.4991, 581.3193
292.9812, 579.3168
293.4633, 577.1682
293.9454, 574.8518
294.4276, 572.6089
294.9097, 570.7303
295.3918, 569.2025
295.8739, 567.9977
296.3560, 567.6535
296.8381, 567.5670
297.3203, 565.9257
297.8024, 562.5175
298.2845, 559.2194
298.7666, 558.3967
299.2487, 559.3935
299.7308, 560.1774
300.2130, 559.7665
300.6951, 558.6892
301.1772, 557.5123
301.6593, 556.2435
302.1414, 555.5992
302.6235, 556.8860
303.1057, 559.2413
303.5878, 560.8673
304.0699, 560.7057
304.5520, 559.9207
305.0341, 560.1093
305.5162, 561.1182
305.9984, 561.6235
306.4805, 559.6378
306.9626, 556.8181
307.4447, 555.6157
307.9268, 557.4645
308.4089, 560.0634
308.8911, 561.7938
309.3732, 562.6614
309.8553, 562.7059
310.3374, 561.0788
310.8195, 559.0342
311.3016, 557.9014
311.7838, 558.2444
312.2659, 558.9250
312.7480, 559.2889
313.2301, 559.4359
313.7122, 559.6149
314.1943, 560.1207
314.6765, 560.6000
315.1586, 560.6533
315.6407, 559.9743
316.1228, 559.7730
316.6049, 561.2662
317.0870, 563.5392
317.5692, 565.0646
318.0513, 564.9433
318.5334, 564.2402
319.0155, 563.2736
319.4976, 561.9728
319.9797, 561.0356
320.4619, 561.0951
320.9440, 561.4811
321.4261, 561.4457
321.9082, 560.5446
322.3903, 559.4429
322.8724, 558.2335
323.3546, 556.9218
323.8367, 555.8259
324.3188, 555.6910
324.8009, 555.4350
325.2830, 554.2408
325.7651, 551.2365
326.2473, 548.1708
326.7294, 545.2546
327.2115, 542.4872
327.6936, 539.7788
328.1757, 536.7798
328.6578, 534.1308
329.1400, 532.1492
329.6221, 531.4151
330.1042, 530.5872
330.5863, 529.5259
331.0684, 528.3495
331.5505, 527.4348
332.0327, 526.8716
332.5148, 526.4375
332.9969, 526.0926
333.4790, 525.9995
333.9611, 525.4955
334.4432, 524.2177
334.9254, 522.7293
335.4075, 522.0736
335.8896, 522.6651
336.3717, 523.2260
336.8538, 523.1554
337.3359, 522.2911
337.8181, 522.7194
338.3002, 524.8492
338.7823, 527.6506
339.2644, 530.1256
339.7465, 532.4338
340.2286, 533.7117
340.7108, 533.2874
341.1929, 531.5502
341.6750, 531.5502
342.1571, 533.7178
342.6392, 535.9962
343.1213, 536.2782
343.6035, 534.5126
344.0856, 533.8918
344.5677, 535.2908
345.0498, 537.7656
345.5319, 538.6962
346.0140, 538.0151
346.4962, 537.7093
346.9783, 539.5236
347.4604, 542.9771
347.9425, 545.6194
348.4246, 547.1896
348.9067, 548.1172
349.3889, 548.6506
349.8710, 548.9378
350.3531, 549.7742
350.8352, 552.3629
351.3173, 555.5975
351.7994, 557.1190
352.2816, 556.7340
352.7637, 555.9566
353.2458, 556.2691
353.7279, 557.2756
354.2100, 558.1136
354.6921, 558.0491
355.1743, 557.9230
355.6564, 558.8699
356.1385, 560.7728
356.6206, 562.4850
357.1027, 563.1731
357.5848, 563.2396
358.0670, 563.1912
358.5491, 563.3212
359.0312, 563.1185
359.5133, 561.9957
359.9954, 560.2159
360.4775, 558.5915
360.9597, 557.3710
361.4418, 556.5281
361.9239, 556.1429
362.4060, 556.4601
362.8881, 556.5409
363.3702, 555.6953
363.8524, 554.4548
364.3345, 553.6346
364.8166, 554.2053
365.2987, 554.5750
365.7808, 553.8930
366.2629, 551.9308
366.7451, 550.5892
367.2272, 550.7929
367.7093, 551.4470
368.1914, 551.5897
368.6735, 550.5072
369.1556, 549.6172
369.6378, 549.2941
370.1199, 549.4420
370.6020, 549.2341
371.0841, 548.7289
371.5662, 547.8112
372.0483, 546.2992
372.5305, 543.1044
373.0126, 541.4269
373.4947, 542.1360
373.9768, 544.1224
374.4589, 544.6296
374.9410, 542.7754
375.4232, 541.2552
375.9053, 541.2130
376.3874, 542.8737
376.8695, 544.3127
377.3516, 545.6052
377.8337, 546.5780
378.3159, 546.8824
378.7980, 546.3977
379.2801, 546.1779
379.7622, 546.5536
380.2443, 547.4117
380.7264, 548.2755
381.2086, 549.1297
381.6907, 550.0519
382.1728, 551.3712
382.6549, 552.9420
383.1370, 553.6244
383.6191, 552.9207
384.1013, 551.8008
384.5834, 552.0965
385.0655, 553.6227
385.5476, 554.9702
386.0297, 554.7125
386.5118, 553.8832
386.9940, 554.7305
387.4761, 557.6765
387.9582, 560.5772
388.4403, 561.2360
388.9224, 560.3766
389.4045, 559.5149
389.8867, 559.0865
390.3688, 559.0519
390.8509, 559.6743
391.3330, 560.8622
391.8151, 561.6864
392.2972, 561.2667
392.7794, 560.3566
393.2615, 559.6650
393.7436, 559.3790
394.2257, 559.3450
394.7078, 559.9452
395.1899, 560.7978
395.6721, 560.8992
396.1542, 558.7751
396.6363, 556.7575
397.1184, 556.1216
397.6005, 557.5673
398.0826, 558.6105
398.5648, 558.6862
399.0469, 558.2328
399.5290, 557.7819
400.0111, 557.5756
400.4932, 557.1483
400.9753, 556.2910
401.4575, 555.0017
401.9396, 554.0145
402.4217, 553.3459
402.9038, 552.9417
403.3859, 552.8547
403.8680, 553.4509
404.3502, 553.4356
404.8323, 552.5053
405.3144, 551.0058
405.7965, 549.7773
406.2786, 548.7158
406.7607, 548.2439
407.2428, 548.8842
407.7249, 550.7000
408.2071, 551.5236
408.6892, 551.2761
409.1713, 550.2911
409.6534, 548.4535
410.1355, 545.8651
410.6176, 544.4548
411.0998, 545.2794
411.5819, 547.3181
412.0640, 548.0761
412.5461, 547.5864
413.0282, 546.8425
413.5103, 546.4072
413.9925, 546.2919
414.4746, 546.5892
414.9567, 547.4191
415.4388, 548.3545
415.9209, 549.0185
416.4030, 549.4490
416.8852, 549.7587
417.3673, 550.2241
417.8494, 550.4426
418.3315, 549.6788
418.8136, 547.8787
419.2957, 546.8229
419.7779, 548.3008
420.2600, 550.6959
420.7421, 552.3646
421.2242, 551.8752
421.7063, 551.6143
422.1884, 552.5844
422.6706, 554.4688
423.1527, 556.0987
423.6348, 557.0781
424.1169, 557.8378
424.5990, 558.5742
425.0811, 559.3073
425.5633, 560.0057
426.0454, 560.6376
426.5275, 561.2499
427.0096, 561.8778
427.4917, 562.2022
427.9738, 563.0432
428.4560, 564.7316
428.9381, 567.2309
429.4202, 569.3831
429.9023, 571.0557
430.3844, 572.5696
430.8665, 574.1876
431.3487, 575.9846
431.8308, 577.3300
432.3129, 577.9977
432.7950, 578.3983
433.2771, 579.3553
433.7592, 580.8677
434.2414, 582.6379
434.7235, 584.9227
435.2056, 587.3981
435.6877, 588.3759
436.1698, 587.7194
436.6519, 587.1699
437.1341, 588.9422
437.6162, 592.2008
438.0983, 594.7559
438.5804, 595.7148
439.0625, 596.1586
439.5446, 597.2560
440.0268, 598.8901
440.5089, 600.6234
440.9910, 602.6169
441.4731, 604.3594
441.9552, 605.2416
442.4373, 605.0121
442.9195, 604.9453
443.4016, 605.8053
443.8837, 607.1580
444.3658, 608.4740
444.8479, 609.4813
445.3300, 610.5489
445.8122, 612.0933
446.2943, 613.9742
446.7764, 615.0878
447.2585, 614.3846
447.7406, 613.5530
448.2227, 613.4510
448.7049, 614.4833
449.1870, 615.4901
449.6691, 616.5499
450.1512, 617.5399
450.6333, 618.2244
451.1154, 618.4815
451.5976, 618.7122
452.0797, 619.0790
452.5618, 619.5510
453.0439, 619.5957
453.5260, 619.1091
454.0081, 618.5162
454.4903, 617.9708
454.9724, 617.4856
455.4545, 617.8404
455.9366, 619.3825
456.4187, 621.2706
456.9008, 621.9182
457.3830, 621.4750
457.8651, 621.0494
458.3472, 621.3153
458.8293, 621.9026
459.3114, 622.1342
459.7935, 622.0059
460.2757, 621.7709
460.7578, 621.6880
461.2399, 621.6077
461.7220, 621.3740
462.2041, 621.1583
462.6862, 620.4025
463.1684, 617.9025
463.6505, 614.5449
464.1326, 612.4483
464.6147, 613.2554
465.0968, 614.8692
465.5789, 616.4973
466.0611, 618.1635
466.5432, 619.0613
467.0253, 618.0735
467.5074, 616.7428
467.9895, 616.3708
468.4716, 618.6658
468.9538, 619.7760
469.4359, 618.6605
469.9180, 616.2150
470.4001, 615.4445
470.8822, 617.3801
471.3643, 619.1920
471.8465, 619.6879
472.3286, 618.7463
472.8107, 617.6901
473.2928, 616.2947
473.7749, 615.3821
474.2570, 616.1904
474.7392, 618.7094
475.2213, 621.0565
475.7034, 622.8802
476.1855, 624.2348
476.6676, 625.0148
477.1497, 625.2892
477.6319, 625.6946
478.1140, 626.8863
478.5961, 628.3663
479.0782, 629.2016
479.5603, 629.2833
480.0424, 629.3183
480.5246, 629.9826
481.0067, 630.9291
481.4888, 631.6534
481.9709, 631.6326
482.4530, 631.7675
482.9352, 632.6461
483.4173, 634.0762
483.8994, 635.4532
484.3815, 636.6020
484.8636, 637.6295
485.3457, 638.4781
485.8279, 638.9716
486.3100, 639.9710
486.7921, 641.9920
487.2742, 644.3084
487.7563, 646.3308
488.2384, 648.1083
488.7206, 649.4647
489.2027, 650.0274
489.6848, 650.2129
490.1669, 651.7100
490.6490, 654.9950
491.1311, 658.1185
491.6133, 659.8544
492.0954, 660.2487
492.5775, 661.7406
493.0596, 664.5386
493.5417, 667.5410
494.0238, 669.3002
494.5060, 670.1340
494.9881, 671.5959
495.4702, 674.4164
495.9523, 677.4685
496.4344, 678.8017
496.9165, 678.8420
497.3987, 679.1895
497.8808, 680.6413
498.3629, 682.8863
498.8450, 686.1074
499.3271, 690.4163
499.8092, 693.7316
500.2914, 694.5961
500.7735, 694.1201
501.2556, 693.3642
501.7377, 691.7433
502.2198, 690.8809
502.7019, 691.8654
503.1841, 693.9014
503.6662, 694.8248
504.1483, 693.7053
504.6304, 692.2730
505.1125, 691.0571
505.5946, 690.1175
506.0768, 688.6416
506.5589, 686.3297
507.0410, 683.9606
507.5231, 682.2853
508.0052, 681.4792
508.4873, 680.2227
508.9695, 678.2479
509.4516, 676.0059
509.9337, 674.4349
510.4158, 673.4962
510.8979, 672.4889
511.3800, 671.1032
511.8622, 669.4222
512.3443, 667.5579
512.8264, 665.5291
513.3085, 663.4748
513.7906, 661.0950
514.2728, 658.9079
514.7549, 657.8412
515.2370, 658.5662
515.7191, 658.9005
516.2012, 656.7192
516.6833, 653.4327
517.1655, 651.1716
517.6476, 651.7826
518.1297, 652.3911
518.6118, 651.7961
519.0939, 650.1191
519.5760, 648.9646
520.0582, 649.2475
520.5403, 649.4761
521.0224, 648.9385
521.5045, 647.1654
521.9866, 646.0391
522.4688, 645.9234
522.9509, 646.0421
523.4330, 645.4230
523.9151, 643.9672
524.3972, 642.2130
524.8793, 640.0457
525.3615, 637.8603
525.8436, 636.9307
526.3257, 637.2334
526.8078, 637.4254
527.2899, 636.6790
527.7720, 635.2635
528.2542, 633.6339
528.7363, 631.8043
529.2184, 630.2390
529.7005, 629.9219
530.1826, 629.9474
530.6647, 628.9645
531.1469, 625.8458
531.6290, 622.9228
532.1111, 621.6867
532.5932, 621.5773
533.0753, 621.4549
533.5574, 621.2972
534.0396, 620.7621
534.5217, 619.4677
535.0038, 617.3466
535.4859, 615.8424
535.9680, 615.1882
536.4501, 614.9570
536.9323, 614.9992
537.4144, 615.6044
537.8965, 615.6024
538.3786, 614.7526
538.8607, 613.5948
539.3428, 612.9365
539.8250, 612.7979
540.3071, 612.9435
540.7892, 613.6249
541.2713, 614.3068
541.7534, 613.2870
542.2355, 610.7283
542.7177, 608.3289
543.1998, 607.3938
543.6819, 607.2000
544.1640, 606.7031
544.6461, 605.8239
545.1282, 604.6788
545.6104, 603.0585
546.0925, 601.3416
546.5746, 599.9293
547.0567, 598.6854
547.5388, 598.0956
548.0209, 598.9806
548.5031, 600.6100
548.9852, 601.3968
549.4673, 600.0000
549.9494, 598.9070
550.4315, 598.9571
550.9136, 600.1430
551.3958, 600.5652
551.8779, 599.9532
552.3600, 599.0354
552.8421, 598.2170
553.3242, 597.4988
553.8063, 596.9014
554.2885, 596.4528
554.7706, 596.0511
555.2527, 595.5336
555.7348, 594.9261
556.2169, 594.3360
556.6990, 593.5800
557.1812, 593.1438
557.6633, 594.0310
558.1454, 595.9344
558.6275, 597.7052
559.1096, 598.8770
559.5917, 599.5040
560.0739, 599.3471
560.5560, 598.3809
561.0381, 597.7800
561.5202, 598.2170
562.0023, 599.0918
562.4844, 599.9938
562.9666, 601.3205
563.4487, 601.9402
563.9308, 601.0696
564.4129, 599.7797
564.8950, 599.8001
565.3771, 601.7817
565.8593, 603.6038
566.3414, 604.8342
566.8235, 605.5266
567.3056, 605.9591
567.7877, 606.1193
568.2698, 606.0579
568.7520, 605.4503
569.2341, 604.6033
569.7162, 604.9439
570.1983, 606.5866
570.6804, 608.2308
571.1625, 608.6976
571.6447, 608.3405
572.1268, 607.5918
572.6089, 606.1540
573.0910, 605.2250
573.5731, 606.1584
574.0552, 608.0332
574.5374, 609.2571
575.0195, 609.1129
575.5016, 608.4407
575.9837, 607.2947
576.4658, 605.7484
576.9479, 604.4688
577.4301, 603.5994
577.9122, 602.8623
578.3943, 602.0023
578.8764, 600.8268
579.3585, 600.8303
579.8406, 602.4199
580.3228, 604.2787
580.8049, 605.1231
581.2870, 604.9752
581.7691, 604.1287
582.2512, 602.3798
582.7333, 600.5338
583.2155, 599.9326
583.6976, 600.2662
584.1797, 600.5490
584.6618, 599.8114
585.1439, 599.1836
585.6260, 600.3461
586.1082, 602.7999
586.5903, 604.0400
587.0724, 601.9025
587.5545, 598.9959
588.0366, 596.7108
588.5187, 595.2920
589.0009, 594.1481
589.4830, 592.8099
589.9651, 592.0075
590.4472, 592.5495
590.9293, 595.8974
591.4114, 597.0409
591.8936, 594.9081
592.3757, 591.2733
592.8578, 589.3373
593.3399, 589.2004
593.8220, 589.3505
594.3041, 589.3575
594.7863, 589.2953
595.2684, 589.4241
595.7505, 589.6964
596.2326, 589.7725
596.7147, 589.4968
597.1968, 588.8801
597.6790, 587.7426
598.1611, 586.0641
598.6432, 584.6542
599.1253, 584.1786
599.6074, 584.0614
600.0895, 583.8164
600.5717, 583.1853
601.0538, 582.7313
601.5359, 582.7526
602.0180, 582.9169
602.5001, 582.7828
602.9822, 582.1845
603.4644, 581.5984
603.9465, 581.0272
604.4286, 580.5402
604.9107, 580.4717
605.3928, 580.8806
605.8749, 581.1179
606.3571, 580.9091
606.8392, 580.2686
607.3213, 578.8258
607.8034, 576.6434
608.2855, 575.2181
608.7676, 576.5023
609.2498, 578.9022
609.7319, 580.3557
610.2140, 580.4483
610.6961, 580.1765
611.1782, 579.7003
611.6603, 579.3189
612.1425, 579.3471
612.6246, 580.8132
613.1067, 581.5382
613.5888, 580.7961
614.0709, 579.2299
614.5530, 578.0656
615.0352, 577.4219
615.5173, 576.9816
615.9994, 576.6918
616.4815, 576.5399
616.9636, 576.4685
617.4457, 576.4910
617.9279, 576.4923
618.4100, 576.3381
618.8921, 576.1168
619.3742, 576.0844
619.8563, 576.2529
620.3384, 576.4630
620.8206, 576.2975
621.3027, 576.2170
621.7848, 576.9539
622.2669, 579.1590
622.7490, 580.8268
623.2311, 580.4045
623.7133, 579.1865
624.1954, 578.8279
624.6775, 581.0807
625.1596, 582.3777
625.6417, 581.9667
626.1238, 580.3779
626.6060, 578.9503
627.0881, 577.4342
627.5702, 576.8801
628.0523, 578.1422
628.5344, 580.6658
629.0165, 581.4031
629.4987, 580.3166
629.9808, 579.1384
630.4629, 579.1907
630.9450, 579.9748
631.4271, 580.6497
631.9092, 581.1541
632.3914, 581.4030
632.8735, 581.0862
633.3556, 580.5967
633.8377, 580.3751
634.3198, 580.7892
634.8019, 580.9272
635.2841, 580.0169
635.7662, 578.8740
636.2483, 578.6830
636.7304, 580.4545
637.2125, 581.4756
637.6946, 581.0367
638.1768, 579.7617
638.6589, 579.5500
639.1410, 580.5912
639.6231, 581.3969
640.1052, 581.3168
640.5873, 580.6041
641.0695, 579.9442
641.5516, 579.3389
642.0337, 578.7831
642.5158, 578.4179
642.9979, 578.0344
643.4800, 577.2312
643.9622, 575.9413
644.4443, 575.0668
644.9264, 575.3857
645.4085, 576.0944
645.8906, 576.5201
646.3727, 576.1784
646.8549, 576.2528
647.3370, 577.1955
647.8191, 578.2816
648.3012, 578.5741
648.7833, 577.7734
649.2654, 577.1216
649.7476, 576.7868
650.2297, 576.6920
650.7118, 576.7908
651.1939, 577.0498
651.6760, 577.0563
652.1581, 576.2131
652.6402, 575.3660
653.1223, 576.4708
653.6044, 578.9291
654.0865, 580.2499
654.5687, 577.7414
655.0508, 574.6561
