##NAMES=Ferro-holmquistite
##RRUFFID=R070005
##IDEAL CHEMISTRY=[box]Li_2_(Fe^2+^_3_Al_2_)Si_8_O_22_(OH)_2_
##LOCALITY=Mount Marrion, South Australia, Australia
##OWNER=RRUFF
##SOURCE=Michael Scott
##DESCRIPTION=Dark blue fractured prismatic crystals
##STATUS=The identification of this mineral is confirmed by single-crystal X-ray diffraction and chemical analysis.
##URL=rruff.info/R070005
##MEASURED CHEMISTRY=(Li_1.93_Na_0.03_Mn_0.02_[box]_0.02_)_Σ=2_((Fe^2+^_1.52_Mg_1.48_)_Σ=3_(Al_1.91_Fe^3+^_0.09_)_Σ=2_)_Σ=5_Si_8.00_O_22_(OH)_2_; Li estimated by difference Li=2-(Na+K+Ca+Mn) and charge balance; OH by charge balance
174.2868, 42820.08
174.7689, 43109.37
175.2510, 43447.84
175.7331, 43828.70
176.2152, 44210.16
176.6973, 44541.80
177.1795, 44862.23
177.6616, 45245.87
178.1437, 45734.96
178.6258, 46263.66
179.1079, 46725.97
179.5900, 47130.33
180.0722, 47530.20
180.5543, 47965.52
181.0364, 48435.34
181.5185, 48928.99
182.0006, 49464.33
182.4827, 50012.62
182.9649, 50538.96
183.4470, 51037.80
183.9291, 51537.31
184.4112, 52055.34
184.8933, 52594.29
185.3754, 53141.62
185.8576, 53744.17
186.3397, 54354.98
186.8218, 54814.53
187.3039, 55107.13
187.7860, 55329.31
188.2681, 55619.26
188.7503, 55964.64
189.2324, 56243.74
189.7145, 56406.33
190.1966, 56455.78
190.6787, 56415.41
191.1608, 56289.09
191.6430, 56064.54
192.1251, 55707.16
192.6072, 55216.29
193.0893, 54647.23
193.5714, 54006.51
194.0535, 53293.05
194.5357, 52581.89
195.0178, 51875.35
195.4999, 51190.29
195.9820, 50549.07
196.4641, 49953.38
196.9462, 49414.47
197.4284, 48949.54
197.9105, 48560.18
198.3926, 48188.68
198.8747, 47822.96
199.3568, 47476.70
199.8389, 47192.45
200.3211, 46976.19
200.8032, 46797.32
201.2853, 46639.09
201.7674, 46502.59
202.2495, 46377.95
202.7316, 46268.63
203.2138, 46170.08
203.6959, 46056.49
204.1780, 45914.42
204.6601, 45794.32
205.1422, 45750.88
205.6243, 45802.89
206.1065, 45834.71
206.5886, 45815.92
207.0707, 45755.33
207.5528, 45733.98
208.0349, 45767.96
208.5170, 45810.16
208.9992, 45812.22
209.4813, 45763.34
209.9634, 45709.58
210.4455, 45650.76
210.9276, 45588.16
211.4097, 45575.43
211.8919, 45627.87
212.3740, 45708.58
212.8561, 45782.73
213.3382, 45858.14
213.8203, 45904.96
214.3024, 45911.21
214.7846, 45873.89
215.2667, 45829.01
215.7488, 45773.20
216.2309, 45713.10
216.7130, 45653.23
217.1951, 45584.40
217.6773, 45536.50
218.1594, 45518.59
218.6415, 45532.97
219.1236, 45571.23
219.6057, 45653.88
220.0878, 45744.64
220.5700, 45778.48
221.0521, 45729.13
221.5342, 45674.26
222.0163, 45637.75
222.4984, 45620.51
222.9805, 45621.32
223.4627, 45649.05
223.9448, 45689.84
224.4269, 45712.25
224.9090, 45697.13
225.3911, 45697.04
225.8732, 45738.36
226.3554, 45845.09
226.8375, 45924.66
227.3196, 45961.97
227.8017, 45976.48
228.2838, 46014.24
228.7659, 46083.00
229.2481, 46162.57
229.7302, 46248.57
230.2123, 46359.45
230.6944, 46431.14
231.1765, 46440.65
231.6587, 46414.06
232.1408, 46428.97
232.6229, 46512.67
233.1050, 46599.28
233.5871, 46651.19
234.0692, 46631.79
234.5514, 46659.16
235.0335, 46757.33
235.5156, 46903.87
235.9977, 47023.77
236.4798, 47114.68
236.9619, 47183.73
237.4441, 47232.58
237.9262, 47250.47
238.4083, 47269.46
238.8904, 47284.62
239.3725, 47301.25
239.8546, 47345.63
240.3368, 47431.34
240.8189, 47527.33
241.3010, 47619.67
241.7831, 47724.73
242.2652, 47789.46
242.7473, 47787.22
243.2295, 47735.46
243.7116, 47739.03
244.1937, 47826.50
244.6758, 47932.30
245.1579, 48015.70
245.6400, 48069.77
246.1222, 48115.68
246.6043, 48154.96
247.0864, 48187.63
247.5685, 48210.95
248.0506, 48215.29
248.5327, 48222.73
249.0149, 48249.57
249.4970, 48305.85
249.9791, 48360.27
250.4612, 48411.48
250.9433, 48458.95
251.4254, 48494.82
251.9076, 48510.64
252.3897, 48526.07
252.8718, 48555.43
253.3539, 48602.37
253.8360, 48654.69
254.3181, 48714.72
254.8003, 48780.75
255.2824, 48836.09
255.7645, 48882.94
256.2466, 48916.04
256.7287, 48929.38
257.2108, 48917.23
257.6930, 48898.61
258.1751, 48869.00
258.6572, 48832.05
259.1393, 48825.59
259.6214, 48864.07
260.1035, 48911.00
260.5857, 48939.85
261.0678, 48951.16
261.5499, 48940.32
262.0320, 48890.74
262.5141, 48811.93
262.9962, 48797.03
263.4784, 48874.40
263.9605, 48968.36
264.4426, 49016.61
264.9247, 49003.69
265.4068, 48999.58
265.8889, 49024.41
266.3711, 49069.67
266.8532, 49065.43
267.3353, 48989.01
267.8174, 48907.02
268.2995, 48872.71
268.7816, 48895.00
269.2638, 48932.38
269.7459, 48990.62
270.2280, 49059.77
270.7101, 49070.01
271.1922, 48996.42
271.6743, 48921.73
272.1565, 48918.64
272.6386, 48998.19
273.1207, 49087.52
273.6028, 49184.21
274.0849, 49280.38
274.5670, 49334.51
275.0492, 49336.34
275.5313, 49325.27
276.0134, 49330.68
276.4955, 49352.94
276.9776, 49385.93
277.4597, 49427.83
277.9419, 49479.82
278.4240, 49556.70
278.9061, 49667.93
279.3882, 49764.38
279.8703, 49789.33
280.3524, 49740.54
280.8346, 49725.90
281.3167, 49772.63
281.7988, 49859.80
282.2809, 49916.07
282.7630, 49934.93
283.2451, 49967.80
283.7273, 50082.15
284.2094, 50269.95
284.6915, 50387.42
285.1736, 50388.76
285.6557, 50325.97
286.1378, 50328.07
286.6200, 50397.85
287.1021, 50489.31
287.5842, 50570.85
288.0663, 50643.74
288.5484, 50725.52
289.0305, 50826.49
289.5127, 50927.92
289.9948, 50990.68
290.4769, 51015.18
290.9590, 51028.76
291.4411, 51042.19
291.9232, 51058.83
292.4054, 51095.92
292.8875, 51163.11
293.3696, 51239.65
293.8517, 51288.23
294.3338, 51311.33
294.8159, 51330.29
295.2981, 51360.39
295.7802, 51397.30
296.2623, 51429.06
296.7444, 51453.78
297.2265, 51473.14
297.7086, 51482.94
298.1908, 51486.21
298.6729, 51499.12
299.1550, 51548.98
299.6371, 51612.27
300.1192, 51637.26
300.6013, 51605.16
301.0835, 51572.37
301.5656, 51619.86
302.0477, 51724.40
302.5298, 51807.11
303.0119, 51798.23
303.4940, 51751.64
303.9762, 51741.43
304.4583, 51781.18
304.9404, 51834.63
305.4225, 51877.08
305.9046, 51908.57
306.3867, 51929.79
306.8689, 51917.84
307.3510, 51907.64
307.8331, 51948.11
308.3152, 52054.26
308.7973, 52140.78
309.2794, 52119.71
309.7616, 52039.32
310.2437, 51982.56
310.7258, 52023.73
311.2079, 52077.52
311.6900, 52075.65
312.1721, 52006.80
312.6543, 51942.96
313.1364, 51916.55
313.6185, 51919.99
314.1006, 51943.73
314.5827, 52011.25
315.0648, 52076.05
315.5470, 52106.68
316.0291, 52099.43
316.5112, 52103.86
316.9933, 52141.41
317.4754, 52199.82
317.9576, 52266.42
318.4397, 52362.29
318.9218, 52442.64
319.4039, 52485.19
319.8860, 52490.06
320.3681, 52496.72
320.8503, 52503.26
321.3324, 52521.99
321.8145, 52562.62
322.2966, 52641.97
322.7787, 52727.49
323.2608, 52816.94
323.7430, 52909.70
324.2251, 52995.62
324.7072, 53080.62
325.1893, 53154.58
325.6714, 53211.40
326.1535, 53220.86
326.6357, 53247.62
327.1178, 53306.04
327.5999, 53389.98
328.0820, 53462.20
328.5641, 53504.10
329.0462, 53550.36
329.5284, 53617.40
330.0105, 53715.34
330.4926, 53819.16
330.9747, 53933.81
331.4568, 54054.34
331.9389, 54166.46
332.4211, 54268.25
332.9032, 54362.67
333.3853, 54449.14
333.8674, 54519.91
334.3495, 54606.68
334.8316, 54721.20
335.3138, 54845.34
335.7959, 54940.05
336.2780, 54996.49
336.7601, 55045.21
337.2422, 55095.77
337.7243, 55148.63
338.2065, 55205.44
338.6886, 55271.95
339.1707, 55334.31
339.6528, 55360.17
340.1349, 55338.49
340.6170, 55347.13
341.0992, 55424.55
341.5813, 55562.25
342.0634, 55678.40
342.5455, 55773.47
343.0276, 55841.73
343.5097, 55863.26
343.9919, 55839.75
344.4740, 55825.13
344.9561, 55840.36
345.4382, 55873.57
345.9203, 55890.40
346.4024, 55890.81
346.8846, 55877.82
347.3667, 55857.42
347.8488, 55826.72
348.3309, 55768.61
348.8130, 55657.86
349.2951, 55543.58
349.7773, 55520.98
350.2594, 55581.59
350.7415, 55651.02
351.2236, 55682.78
351.7057, 55686.27
352.1878, 55677.47
352.6700, 55656.70
353.1521, 55630.61
353.6342, 55594.44
354.1163, 55556.02
354.5984, 55540.45
355.0806, 55577.41
355.5627, 55636.66
356.0448, 55691.80
356.5269, 55742.21
357.0090, 55776.53
357.4911, 55771.74
357.9733, 55746.83
358.4554, 55735.79
358.9375, 55760.97
359.4196, 55798.71
359.9017, 55834.73
360.3839, 55866.78
360.8660, 55904.78
361.3481, 55959.08
361.8302, 56019.24
362.3123, 56073.55
362.7944, 56115.36
363.2766, 56154.05
363.7587, 56190.01
364.2408, 56223.13
364.7229, 56262.87
365.2050, 56306.19
365.6871, 56359.51
366.1693, 56427.82
366.6514, 56540.67
367.1335, 56635.71
367.6156, 56681.18
368.0977, 56690.84
368.5798, 56758.85
369.0620, 56933.41
369.5441, 57121.68
370.0262, 57276.49
370.5083, 57346.13
370.9904, 57475.48
371.4725, 57704.75
371.9547, 57986.20
372.4368, 58185.58
372.9189, 58244.12
373.4010, 58329.38
373.8831, 58514.38
374.3652, 58815.35
374.8474, 59123.41
375.3295, 59451.32
375.8116, 59770.11
376.2937, 60038.44
376.7758, 60243.63
377.2579, 60442.33
377.7401, 60639.07
378.2222, 60839.27
378.7043, 61097.29
379.1864, 61422.65
379.6685, 61755.39
380.1506, 62021.86
380.6328, 62228.24
381.1149, 62442.18
381.5970, 62690.89
382.0791, 62951.50
382.5612, 63177.28
383.0433, 63370.51
383.5255, 63539.06
384.0076, 63695.83
384.4897, 63832.55
384.9718, 63939.27
385.4539, 64015.26
385.9360, 64055.24
386.4182, 64061.27
386.9003, 64028.31
387.3824, 63941.01
387.8645, 63758.55
388.3466, 63532.55
388.8287, 63312.56
389.3109, 63105.16
389.7930, 62899.86
390.2751, 62709.64
390.7572, 62515.44
391.2393, 62288.83
391.7214, 61920.23
392.2036, 61594.71
392.6857, 61445.45
393.1678, 61477.87
393.6499, 61471.84
394.1320, 61294.18
394.6141, 61070.34
395.0963, 60908.34
395.5784, 60897.16
396.0605, 60879.36
396.5426, 60809.67
397.0247, 60699.71
397.5068, 60617.93
397.9890, 60585.18
398.4711, 60571.58
398.9532, 60563.03
399.4353, 60555.81
399.9174, 60560.42
400.3995, 60587.48
400.8817, 60623.37
401.3638, 60639.92
401.8459, 60631.69
402.3280, 60612.47
402.8101, 60579.43
403.2922, 60525.94
403.7744, 60510.71
404.2565, 60546.69
404.7386, 60602.05
405.2207, 60643.38
405.7028, 60670.25
406.1849, 60684.58
406.6671, 60682.20
407.1492, 60668.06
407.6313, 60655.96
408.1134, 60641.82
408.5955, 60659.38
409.0776, 60779.70
409.5598, 60973.16
410.0419, 61060.87
410.5240, 60982.34
411.0061, 60846.51
411.4882, 60830.52
411.9703, 60917.90
412.4525, 61021.50
412.9346, 61103.96
413.4167, 61165.50
413.8988, 61200.82
414.3809, 61206.53
414.8630, 61205.68
415.3452, 61193.59
415.8273, 61191.28
416.3094, 61235.50
416.7915, 61378.84
417.2736, 61544.71
417.7557, 61702.39
418.2379, 61848.64
418.7200, 61934.81
419.2021, 61894.57
419.6842, 61808.90
420.1663, 61744.99
420.6484, 61740.03
421.1306, 61731.36
421.6127, 61710.29
422.0948, 61675.00
422.5769, 61619.12
423.0590, 61521.70
423.5411, 61420.47
424.0233, 61335.46
424.5054, 61290.14
424.9875, 61203.27
425.4696, 61035.80
425.9517, 60847.82
426.4338, 60721.99
426.9160, 60704.52
427.3981, 60666.04
427.8802, 60563.45
428.3623, 60400.99
428.8444, 60296.17
429.3265, 60263.16
429.8087, 60256.95
430.2908, 60243.00
430.7729, 60220.38
431.2550, 60198.99
431.7371, 60177.48
432.2192, 60161.11
432.7014, 60159.07
433.1835, 60171.18
433.6656, 60203.89
434.1477, 60284.26
434.6298, 60389.79
435.1119, 60439.83
435.5941, 60423.32
436.0762, 60392.02
436.5583, 60398.20
437.0404, 60432.57
437.5225, 60472.63
438.0046, 60516.95
438.4868, 60557.64
438.9689, 60575.54
439.4510, 60575.04
439.9331, 60595.42
440.4152, 60683.16
440.8973, 60791.84
441.3795, 60878.09
441.8616, 60925.96
442.3437, 60960.45
442.8258, 60965.49
443.3079, 60964.47
443.7900, 61009.01
444.2722, 61182.10
444.7543, 61342.88
445.2364, 61421.77
445.7185, 61380.06
446.2006, 61390.48
446.6827, 61526.96
447.1649, 61688.08
447.6470, 61773.27
448.1291, 61715.66
448.6112, 61689.80
449.0933, 61720.78
449.5754, 61804.11
450.0576, 61926.36
450.5397, 62119.76
451.0218, 62286.25
451.5039, 62356.25
451.9860, 62314.75
452.4681, 62295.97
452.9503, 62312.76
453.4324, 62342.29
453.9145, 62341.46
454.3966, 62310.99
454.8787, 62291.69
455.3608, 62306.36
455.8430, 62343.67
456.3251, 62382.73
456.8072, 62423.80
457.2893, 62435.93
457.7714, 62365.48
458.2535, 62249.71
458.7357, 62157.55
459.2178, 62094.39
459.6999, 62078.99
460.1820, 62171.70
460.6641, 62332.47
461.1462, 62443.01
461.6284, 62389.87
462.1105, 62304.99
462.5926, 62280.47
463.0747, 62334.67
463.5568, 62400.92
464.0389, 62494.95
464.5211, 62573.24
465.0032, 62586.86
465.4853, 62424.05
465.9674, 62306.83
466.4495, 62296.29
466.9316, 62382.79
467.4138, 62462.98
467.8959, 62553.95
468.3780, 62620.39
468.8601, 62639.07
469.3422, 62581.20
469.8243, 62550.31
470.3065, 62551.54
470.7886, 62574.69
471.2707, 62608.62
471.7528, 62658.30
472.2349, 62693.29
472.7170, 62702.03
473.1992, 62688.06
473.6813, 62657.28
474.1634, 62605.66
474.6455, 62578.59
475.1276, 62641.39
475.6097, 62765.48
476.0919, 62844.66
476.5740, 62843.61
477.0561, 62830.07
477.5382, 62917.48
478.0203, 63066.38
478.5024, 63157.71
478.9846, 63059.58
479.4667, 62919.26
479.9488, 62868.39
480.4309, 62916.32
480.9130, 62997.15
481.3951, 63106.37
481.8773, 63217.57
482.3594, 63305.32
482.8415, 63329.31
483.3236, 63366.39
483.8057, 63455.71
484.2878, 63576.27
484.7700, 63654.43
485.2521, 63649.48
485.7342, 63631.84
486.2163, 63619.64
486.6984, 63606.87
487.1805, 63621.29
487.6627, 63660.19
488.1448, 63728.94
488.6269, 63843.49
489.1090, 64020.44
489.5911, 64182.72
490.0732, 64327.00
490.5554, 64441.28
491.0375, 64460.38
491.5196, 64372.92
492.0017, 64315.75
492.4838, 64413.43
492.9659, 64616.89
493.4481, 64748.78
493.9302, 64788.93
494.4123, 64787.02
494.8944, 64771.66
495.3765, 64755.31
495.8586, 64766.10
496.3408, 64840.02
496.8229, 64925.14
497.3050, 64974.06
497.7871, 64993.30
498.2692, 65020.82
498.7513, 65119.71
499.2335, 65204.57
499.7156, 65198.18
500.1977, 65023.75
500.6798, 64921.57
501.1619, 65026.80
501.6440, 65214.10
502.1262, 65307.84
502.6083, 65197.18
503.0904, 65102.23
503.5725, 65066.73
504.0546, 65085.69
504.5367, 65089.49
505.0189, 65065.83
505.5010, 65047.97
505.9831, 65060.30
506.4652, 65108.46
506.9473, 65150.88
507.4294, 65186.89
507.9116, 65213.47
508.3937, 65223.36
508.8758, 65217.34
509.3579, 65208.70
509.8400, 65183.20
510.3221, 65167.82
510.8043, 65247.43
511.2864, 65412.46
511.7685, 65552.02
512.2506, 65545.55
512.7327, 65480.86
513.2148, 65480.57
513.6970, 65590.73
514.1791, 65692.31
514.6612, 65678.37
515.1433, 65613.12
515.6254, 65599.45
516.1075, 65721.42
516.5897, 65852.19
517.0718, 65942.54
517.5539, 65992.34
518.0360, 66056.91
518.5181, 66164.95
519.0002, 66272.40
519.4824, 66355.34
519.9645, 66409.25
520.4466, 66448.41
520.9287, 66461.06
521.4108, 66469.00
521.8929, 66509.81
522.3751, 66588.84
522.8572, 66674.45
523.3393, 66760.94
523.8214, 66845.79
524.3035, 66909.35
524.7856, 66950.97
525.2678, 66997.42
525.7499, 67069.96
526.2320, 67162.32
526.7141, 67267.30
527.1962, 67389.01
527.6783, 67491.01
528.1605, 67520.65
528.6426, 67506.85
529.1247, 67503.07
529.6068, 67528.41
530.0889, 67572.60
530.5710, 67644.75
531.0532, 67736.88
531.5353, 67807.64
532.0174, 67819.75
532.4995, 67823.89
532.9816, 67848.84
533.4637, 67913.22
533.9459, 67962.09
534.4280, 67975.88
534.9101, 67984.54
535.3922, 68027.23
535.8743, 68124.81
536.3564, 68205.63
536.8386, 68250.20
537.3207, 68269.68
537.8028, 68316.15
538.2849, 68394.15
538.7670, 68470.49
539.2491, 68518.40
539.7313, 68545.85
540.2134, 68599.11
540.6955, 68684.70
541.1776, 68763.59
541.6597, 68784.54
542.1418, 68769.65
542.6240, 68765.06
543.1061, 68785.99
543.5882, 68820.92
544.0703, 68878.08
544.5524, 68944.05
545.0345, 68981.36
545.5167, 68901.72
545.9988, 68847.35
546.4809, 68915.95
546.9630, 69139.76
547.4451, 69314.96
547.9272, 69396.10
548.4094, 69426.98
548.8915, 69438.26
549.3736, 69418.77
549.8557, 69397.63
550.3378, 69364.85
550.8199, 69338.19
551.3021, 69368.01
551.7842, 69469.75
552.2663, 69553.61
552.7484, 69572.11
553.2305, 69543.36
553.7126, 69571.46
554.1948, 69660.33
554.6769, 69734.63
555.1590, 69709.24
555.6411, 69627.60
556.1232, 69582.61
556.6053, 69596.90
557.0875, 69622.88
557.5696, 69610.35
558.0517, 69582.05
558.5338, 69578.37
559.0159, 69646.05
559.4980, 69711.41
559.9802, 69726.13
560.4623, 69700.09
560.9444, 69710.79
561.4265, 69839.99
561.9086, 69953.83
562.3907, 69982.00
562.8729, 69888.08
563.3550, 69823.71
563.8371, 69788.33
564.3192, 69783.26
564.8013, 69816.12
565.2834, 69894.60
565.7656, 69973.77
566.2477, 70054.90
566.7298, 70122.69
567.2119, 70131.27
567.6940, 70084.38
568.1761, 70044.69
568.6583, 70061.50
569.1404, 70102.68
569.6225, 70113.52
570.1046, 70092.41
570.5867, 70052.18
571.0688, 69954.32
571.5510, 69863.98
572.0331, 69857.88
572.5152, 69987.95
572.9973, 70134.30
573.4794, 70264.22
573.9615, 70379.96
574.4437, 70480.70
574.9258, 70595.00
575.4079, 70663.06
575.8900, 70651.48
576.3721, 70571.34
576.8542, 70543.22
577.3364, 70592.23
577.8185, 70644.04
578.3006, 70643.97
578.7827, 70586.53
579.2648, 70590.97
579.7469, 70669.73
580.2291, 70769.54
580.7112, 70834.65
581.1933, 70868.82
581.6754, 70884.63
582.1575, 70874.71
582.6396, 70864.71
583.1218, 70886.45
583.6039, 70932.63
584.0860, 70982.52
584.5681, 71042.90
585.0502, 71090.62
585.5323, 71093.09
586.0145, 71049.34
586.4966, 71048.41
586.9787, 71163.54
587.4608, 71294.22
587.9429, 71375.09
588.4250, 71372.66
588.9072, 71384.16
589.3893, 71418.97
589.8714, 71459.97
590.3535, 71476.54
590.8356, 71457.73
591.3177, 71467.70
591.7999, 71521.69
592.2820, 71614.20
592.7641, 71755.44
593.2462, 71942.05
593.7283, 72085.93
594.2104, 72097.36
594.6926, 72046.00
595.1747, 72045.12
595.6568, 72100.23
596.1389, 72172.01
596.6210, 72234.00
597.1031, 72297.45
597.5853, 72376.52
598.0674, 72498.70
598.5495, 72592.61
599.0316, 72604.40
599.5137, 72582.59
599.9958, 72609.98
600.4780, 72710.11
600.9601, 72836.25
601.4423, 72997.95
601.9244, 73181.09
602.4065, 73318.68
602.8886, 73402.07
603.3707, 73467.44
603.8528, 73528.05
604.3350, 73585.07
604.8171, 73669.18
605.2992, 73787.30
605.7813, 73883.73
606.2634, 73879.27
606.7455, 73818.91
607.2277, 73801.05
607.7098, 73864.65
608.1919, 73935.13
608.6740, 73930.30
609.1561, 73894.34
609.6382, 73906.49
610.1204, 74075.72
610.6025, 74215.54
611.0846, 74242.82
611.5667, 74169.20
612.0488, 74116.02
612.5309, 74118.43
613.0131, 74106.41
613.4952, 74047.15
613.9773, 73932.09
614.4594, 73828.93
614.9415, 73739.02
615.4236, 73657.95
615.9058, 73583.20
616.3879, 73514.70
616.8700, 73451.06
617.3521, 73391.38
617.8342, 73338.60
618.3163, 73298.17
618.7985, 73267.77
619.2806, 73241.75
619.7627, 73199.75
620.2448, 73176.11
620.7269, 73203.30
621.2090, 73272.45
621.6912, 73343.52
622.1733, 73449.81
622.6554, 73514.83
623.1375, 73490.02
623.6196, 73351.64
624.1017, 73230.09
624.5839, 73082.87
625.0660, 73002.43
625.5481, 73094.90
626.0302, 73408.40
626.5123, 73599.77
626.9944, 73626.53
627.4766, 73558.12
627.9587, 73470.71
628.4408, 73370.98
628.9229, 73301.59
629.4050, 73286.24
629.8871, 73297.02
630.3693, 73295.11
630.8514, 73289.51
631.3335, 73310.15
631.8156, 73393.34
632.2977, 73491.25
632.7798, 73569.07
633.2620, 73624.24
633.7441, 73696.95
634.2262, 73826.02
634.7083, 73950.84
635.1904, 74034.49
635.6725, 74059.92
636.1547, 74090.41
636.6368, 74128.06
637.1189, 74167.34
637.6010, 74201.85
638.0831, 74231.69
638.5652, 74258.36
639.0474, 74279.04
639.5295, 74302.82
640.0116, 74344.37
640.4937, 74401.68
640.9758, 74468.81
641.4579, 74553.63
641.9401, 74638.34
642.4222, 74700.96
642.9043, 74745.90
643.3864, 74800.66
643.8685, 74883.48
644.3506, 74973.57
644.8328, 75061.84
645.3149, 75145.72
645.7970, 75232.74
646.2791, 75327.09
646.7612, 75419.34
647.2433, 75494.94
647.7255, 75546.57
648.2076, 75631.61
648.6897, 75765.41
649.1718, 75908.28
649.6539, 75987.79
650.1360, 76016.30
650.6182, 76052.28
651.1003, 76100.37
651.5824, 76184.24
652.0645, 76357.84
652.5466, 76593.56
653.0287, 76805.84
653.5109, 76937.38
653.9930, 77051.81
654.4751, 77169.92
654.9572, 77292.73
655.4393, 77459.02
655.9214, 77711.41
656.4036, 77973.71
656.8857, 78207.28
657.3678, 78394.71
657.8499, 78624.20
658.3320, 78891.16
658.8141, 79207.84
659.2963, 79609.48
659.7784, 80088.14
660.2605, 80529.70
660.7426, 80897.27
661.2247, 81283.70
661.7068, 81815.67
662.1890, 82454.43
662.6711, 83115.18
663.1532, 83783.38
663.6353, 84443.88
664.1174, 85056.15
664.5995, 85652.76
665.0817, 86340.22
