##NAMES=Ferrierite-Mg
##RRUFFID=R070091
##IDEAL CHEMISTRY=[Mg_2_(K,Na)_2_Ca_0.5_](Si_29_Al_7_)O_72_&#183;18H_2_O
##LOCALITY=Kamloops Lake, British Columbia, Canada
##OWNER=RRUFF
##SOURCE=Michael Scott
##DESCRIPTION=White acicular crystal in radial hemispheres and lining a cavity associated with quartz
##STATUS=The identification of this mineral has been confirmed by X-ray diffraction and chemical analysis
##URL=rruff.info/R070091
##MEASURED CHEMISTRY=(Mg_1.66_Na_1.65_K_0.35_Ca_0.12_Ba_0.05_Sr_0.04_)_Σ=3.87_(Si_30.26_Al_5.74_)O_72_·21.5H_2_O; H_2_O estimated by difference
167.0547, 14708.09
167.5368, 14853.82
168.0189, 14949.22
168.5011, 15003.82
168.9832, 15038.16
169.4653, 15038.78
169.9474, 15035.53
170.4295, 15060.77
170.9116, 15128.42
171.3938, 15205.81
171.8759, 15267.84
172.3580, 15316.16
172.8401, 15359.19
173.3222, 15406.58
173.8043, 15450.30
174.2865, 15475.36
174.7686, 15464.97
175.2507, 15452.53
175.7328, 15484.18
176.2149, 15554.43
176.6970, 15623.33
177.1792, 15653.19
177.6613, 15659.37
178.1434, 15674.02
178.6255, 15711.82
179.1076, 15758.73
179.5897, 15790.99
180.0719, 15808.83
180.5540, 15828.42
181.0361, 15875.50
181.5182, 15938.59
182.0003, 15982.51
182.4824, 15980.35
182.9646, 15954.16
183.4467, 15952.77
183.9288, 15977.28
184.4109, 16016.55
184.8930, 16061.34
185.3751, 16111.42
185.8573, 16166.45
186.3394, 16236.05
186.8215, 16312.55
187.3036, 16359.45
187.7857, 16372.32
188.2678, 16374.17
188.7500, 16394.96
189.2321, 16434.49
189.7142, 16479.69
190.1963, 16531.03
190.6784, 16585.99
191.1605, 16624.78
191.6427, 16642.55
192.1248, 16653.46
192.6069, 16681.18
193.0890, 16726.30
193.5711, 16776.53
194.0532, 16829.51
194.5354, 16884.71
195.0175, 16927.73
195.4996, 16955.82
195.9817, 16974.31
196.4638, 16996.14
196.9460, 17022.57
197.4281, 17044.23
197.9102, 17045.54
198.3923, 17024.00
198.8744, 17038.12
199.3565, 17105.57
199.8387, 17204.11
200.3208, 17268.59
200.8029, 17294.57
201.2850, 17303.29
201.7671, 17301.68
202.2492, 17286.00
202.7314, 17291.71
203.2135, 17327.84
203.6956, 17388.18
204.1777, 17449.86
204.6598, 17517.59
205.1419, 17574.30
205.6241, 17598.55
206.1062, 17579.90
206.5883, 17581.29
207.0704, 17623.37
207.5525, 17697.46
208.0346, 17730.01
208.5168, 17703.30
208.9989, 17668.98
209.4810, 17678.73
209.9631, 17748.05
210.4452, 17807.86
210.9273, 17842.27
211.4095, 17852.46
211.8916, 17868.52
212.3737, 17889.43
212.8558, 17917.74
213.3379, 17960.20
213.8200, 18025.29
214.3022, 18079.82
214.7843, 18114.86
215.2664, 18130.16
215.7485, 18138.32
216.2306, 18133.25
216.7127, 18128.10
217.1949, 18140.81
217.6770, 18182.58
218.1591, 18216.68
218.6412, 18227.81
219.1233, 18210.21
219.6054, 18226.62
220.0876, 18297.54
220.5697, 18383.68
221.0518, 18429.78
221.5339, 18411.82
222.0160, 18401.48
222.4981, 18423.63
222.9803, 18487.49
223.4624, 18530.59
223.9445, 18545.87
224.4266, 18545.25
224.9087, 18544.54
225.3908, 18538.17
225.8730, 18541.93
226.3551, 18562.69
226.8372, 18605.76
227.3193, 18644.45
227.8014, 18676.22
228.2835, 18705.49
228.7657, 18741.08
229.2478, 18791.20
229.7299, 18835.07
230.2120, 18865.75
230.6941, 18882.88
231.1762, 18888.09
231.6584, 18873.07
232.1405, 18850.09
232.6226, 18843.46
233.1047, 18858.59
233.5868, 18881.80
234.0689, 18910.13
234.5511, 18949.93
235.0332, 18975.42
235.5153, 18975.29
235.9974, 18965.26
236.4795, 18981.04
236.9616, 19040.34
237.4438, 19099.25
237.9259, 19138.12
238.4080, 19144.22
238.8901, 19165.17
239.3722, 19210.64
239.8543, 19267.94
240.3365, 19305.66
240.8186, 19308.71
241.3007, 19314.17
241.7828, 19340.83
242.2649, 19407.88
242.7470, 19448.70
243.2292, 19451.83
243.7113, 19431.79
244.1934, 19424.45
244.6755, 19430.74
245.1576, 19448.42
245.6397, 19478.21
246.1219, 19526.29
246.6040, 19572.79
247.0861, 19624.53
247.5682, 19673.03
248.0503, 19690.94
248.5324, 19652.32
249.0146, 19622.31
249.4967, 19632.48
249.9788, 19703.94
250.4609, 19768.40
250.9430, 19829.86
251.4251, 19882.99
251.9073, 19912.52
252.3894, 19904.70
252.8715, 19895.08
253.3536, 19900.63
253.8357, 19928.75
254.3178, 19953.13
254.8000, 19970.37
255.2821, 19984.71
255.7642, 20009.90
256.2463, 20056.48
256.7284, 20096.22
257.2105, 20111.72
257.6927, 20087.67
258.1748, 20082.58
258.6569, 20104.41
259.1390, 20143.21
259.6211, 20169.60
260.1032, 20174.74
260.5854, 20184.88
261.0675, 20214.57
261.5496, 20272.53
262.0317, 20324.80
262.5138, 20373.12
262.9959, 20414.03
263.4781, 20434.74
263.9602, 20422.07
264.4423, 20417.71
264.9244, 20448.94
265.4065, 20534.15
265.8886, 20584.81
266.3708, 20585.98
266.8529, 20559.87
267.3350, 20556.49
267.8171, 20578.86
268.2992, 20616.19
268.7813, 20669.14
269.2635, 20745.52
269.7456, 20801.35
270.2277, 20831.46
270.7098, 20843.97
271.1919, 20854.60
271.6740, 20863.93
272.1562, 20869.38
272.6383, 20861.79
273.1204, 20834.66
273.6025, 20847.04
274.0846, 20914.68
274.5667, 21005.82
275.0489, 21059.57
275.5310, 21070.33
276.0131, 21069.95
276.4952, 21066.60
276.9773, 21058.59
277.4594, 21074.81
277.9416, 21122.43
278.4237, 21183.97
278.9058, 21231.58
279.3879, 21264.48
279.8700, 21289.52
280.3521, 21302.84
280.8343, 21304.69
281.3164, 21329.78
281.7985, 21384.31
282.2806, 21450.10
282.7627, 21501.55
283.2448, 21539.09
283.7270, 21560.17
284.2091, 21546.02
284.6912, 21503.22
285.1733, 21514.52
285.6554, 21590.17
286.1375, 21688.86
286.6197, 21753.80
287.1018, 21786.41
287.5839, 21811.17
288.0660, 21836.51
288.5481, 21862.17
289.0303, 21886.02
289.5124, 21907.19
289.9945, 21929.66
290.4766, 21956.40
290.9587, 21987.76
291.4409, 22026.45
291.9230, 22086.96
292.4051, 22154.88
292.8872, 22177.58
293.3693, 22150.11
293.8514, 22118.02
294.3336, 22133.88
294.8157, 22188.07
295.2978, 22242.31
295.7799, 22284.34
296.2620, 22315.96
296.7441, 22335.79
297.2263, 22343.14
297.7084, 22352.94
298.1905, 22379.63
298.6726, 22419.62
299.1547, 22464.40
299.6368, 22518.79
300.1190, 22571.20
300.6011, 22597.54
301.0832, 22599.33
301.5653, 22602.64
302.0474, 22631.71
302.5295, 22676.58
303.0117, 22720.49
303.4938, 22760.99
303.9759, 22795.13
304.4580, 22813.45
304.9401, 22818.46
305.4222, 22828.29
305.9044, 22868.06
306.3865, 22916.81
306.8686, 22943.96
307.3507, 22921.81
307.8328, 22901.58
308.3149, 22933.39
308.7971, 23007.17
309.2792, 23078.17
309.7613, 23121.59
310.2434, 23149.27
310.7255, 23173.04
311.2076, 23192.89
311.6898, 23213.82
312.1719, 23246.93
312.6540, 23284.99
313.1361, 23306.72
313.6182, 23273.03
314.1003, 23236.86
314.5825, 23241.55
315.0646, 23314.49
315.5467, 23384.11
316.0288, 23414.72
316.5109, 23420.13
316.9930, 23430.29
317.4752, 23459.54
317.9573, 23494.12
318.4394, 23526.79
318.9215, 23556.64
319.4036, 23585.12
319.8857, 23607.27
320.3679, 23629.11
320.8500, 23660.38
321.3321, 23719.27
321.8142, 23774.38
322.2963, 23811.76
322.7784, 23826.87
323.2606, 23841.18
323.7427, 23852.48
324.2248, 23866.63
324.7069, 23890.50
325.1890, 23940.98
325.6711, 23985.37
326.1533, 24013.03
326.6354, 24019.75
327.1175, 24033.99
327.5996, 24057.14
328.0817, 24087.79
328.5638, 24124.69
329.0460, 24176.89
329.5281, 24224.35
330.0102, 24265.87
330.4923, 24301.17
330.9744, 24325.10
331.4565, 24329.63
331.9387, 24330.71
332.4208, 24340.38
332.9029, 24363.44
333.3850, 24385.43
333.8671, 24404.34
334.3492, 24420.68
334.8314, 24438.39
335.3135, 24455.88
335.7956, 24477.56
336.2777, 24510.66
336.7598, 24564.42
337.2419, 24593.22
337.7241, 24581.44
338.2062, 24549.95
338.6883, 24563.45
339.1704, 24633.95
339.6525, 24706.46
340.1346, 24748.90
340.6168, 24758.16
341.0989, 24781.98
341.5810, 24826.86
342.0631, 24878.44
342.5452, 24911.35
343.0273, 24925.72
343.5095, 24928.48
343.9916, 24909.23
344.4737, 24875.02
344.9558, 24884.40
345.4379, 24945.56
345.9200, 25017.00
346.4022, 25045.24
346.8843, 25035.79
347.3664, 25023.99
347.8485, 25015.66
348.3306, 25016.23
348.8127, 25040.80
349.2949, 25089.99
349.7770, 25150.69
350.2591, 25225.74
350.7412, 25303.57
351.2233, 25352.53
351.7054, 25354.83
352.1876, 25331.20
352.6697, 25289.55
353.1518, 25235.18
353.6339, 25210.42
354.1160, 25280.86
354.5981, 25387.40
355.0803, 25449.56
355.5624, 25430.89
356.0445, 25395.31
356.5266, 25386.48
357.0087, 25400.84
357.4908, 25427.41
357.9730, 25476.25
358.4551, 25525.50
358.9372, 25555.92
359.4193, 25557.64
359.9014, 25560.78
360.3835, 25582.31
360.8657, 25614.47
361.3478, 25643.91
361.8299, 25660.92
362.3120, 25678.34
362.7941, 25700.67
363.2762, 25727.56
363.7584, 25763.91
364.2405, 25828.51
364.7226, 25896.48
365.2047, 25941.18
365.6868, 25921.04
366.1689, 25914.88
366.6511, 25956.41
367.1332, 26048.77
367.6153, 26100.46
368.0974, 26068.65
368.5795, 26019.04
369.0616, 25994.83
369.5438, 26010.40
370.0259, 26030.88
370.5080, 26053.58
370.9901, 26079.10
371.4722, 26109.26
371.9543, 26144.38
372.4365, 26184.15
372.9186, 26230.01
373.4007, 26288.56
373.8828, 26335.00
374.3649, 26365.11
374.8470, 26384.57
375.3292, 26401.30
375.8113, 26411.09
376.2934, 26432.53
376.7755, 26483.26
377.2576, 26565.45
377.7397, 26605.67
378.2219, 26592.72
378.7040, 26564.50
379.1861, 26575.35
379.6682, 26625.12
380.1503, 26664.11
380.6324, 26670.34
381.1146, 26655.22
381.5967, 26650.60
382.0788, 26655.94
382.5609, 26682.25
383.0430, 26755.96
383.5251, 26860.79
384.0073, 26947.09
384.4894, 27000.51
384.9715, 27031.92
385.4536, 27048.47
385.9357, 27052.64
386.4178, 27058.49
386.9000, 27069.71
387.3821, 27089.75
387.8642, 27127.13
388.3463, 27188.39
388.8284, 27248.78
389.3105, 27287.47
389.7927, 27311.06
390.2748, 27334.62
390.7569, 27366.65
391.2390, 27399.80
391.7211, 27426.25
392.2032, 27444.24
392.6854, 27469.55
393.1675, 27512.14
393.6496, 27564.54
394.1317, 27618.77
394.6138, 27688.66
395.0959, 27744.15
395.5781, 27767.10
396.0602, 27760.71
396.5423, 27765.66
397.0244, 27787.04
397.5065, 27823.18
397.9886, 27872.76
398.4708, 27965.77
398.9529, 28034.83
399.4350, 28068.90
399.9171, 28078.67
400.3992, 28092.43
400.8813, 28103.33
401.3635, 28127.37
401.8456, 28174.99
402.3277, 28255.81
402.8098, 28318.18
403.2919, 28352.27
403.7740, 28378.22
404.2562, 28425.69
404.7383, 28500.89
405.2204, 28576.07
405.7025, 28646.47
406.1846, 28711.00
406.6667, 28763.06
407.1489, 28800.08
407.6310, 28835.67
408.1131, 28883.21
408.5952, 28941.80
409.0773, 28998.18
409.5594, 29051.20
410.0416, 29099.11
410.5237, 29134.37
411.0058, 29159.15
411.4879, 29194.07
411.9700, 29268.76
412.4521, 29360.57
412.9343, 29416.42
413.4164, 29425.90
413.8985, 29429.13
414.3806, 29460.88
414.8628, 29516.00
415.3449, 29584.05
415.8270, 29678.72
416.3091, 29771.49
416.7912, 29830.94
417.2733, 29858.27
417.7555, 29889.29
418.2376, 29959.74
418.7197, 30036.34
419.2018, 30088.22
419.6839, 30078.15
420.1660, 30074.65
420.6482, 30103.78
421.1303, 30158.71
421.6124, 30214.36
422.0945, 30271.21
422.5766, 30323.47
423.0587, 30365.51
423.5409, 30383.26
424.0230, 30422.57
424.5051, 30510.08
424.9872, 30611.50
425.4693, 30677.77
425.9514, 30684.62
426.4336, 30691.03
426.9157, 30706.96
427.3978, 30732.22
427.8799, 30777.16
428.3620, 30862.04
428.8441, 30933.97
429.3263, 30932.16
429.8084, 30834.44
430.2905, 30795.81
430.7726, 30856.04
431.2547, 30971.02
431.7368, 31019.64
432.2190, 30996.53
432.7011, 30979.04
433.1832, 31028.96
433.6653, 31128.38
434.1474, 31178.19
434.6295, 31169.16
435.1117, 31139.06
435.5938, 31118.08
436.0759, 31110.09
436.5580, 31128.31
437.0401, 31201.32
437.5222, 31287.93
438.0044, 31335.17
438.4865, 31346.39
438.9686, 31351.71
439.4507, 31377.48
439.9328, 31405.34
440.4149, 31410.12
440.8971, 31363.16
441.3792, 31336.81
441.8613, 31398.86
442.3434, 31508.49
442.8255, 31578.71
443.3076, 31525.05
443.7898, 31470.59
444.2719, 31476.88
444.7540, 31562.27
445.2361, 31634.38
445.7182, 31679.23
446.2003, 31703.53
446.6825, 31713.92
447.1646, 31713.31
447.6467, 31694.26
448.1288, 31637.97
448.6109, 31556.63
449.0930, 31529.10
449.5752, 31579.95
450.0573, 31644.57
450.5394, 31693.45
451.0215, 31729.13
451.5036, 31733.50
451.9857, 31696.59
452.4679, 31643.00
452.9500, 31609.53
453.4321, 31597.01
453.9142, 31594.45
454.3963, 31598.38
454.8784, 31609.07
455.3606, 31635.74
455.8427, 31679.18
456.3248, 31710.03
456.8069, 31698.13
457.2890, 31653.84
457.7711, 31594.67
458.2533, 31506.30
458.7354, 31439.88
459.2175, 31473.97
459.6996, 31577.85
460.1817, 31664.17
460.6638, 31678.09
461.1460, 31660.11
461.6281, 31641.14
462.1102, 31624.93
462.5923, 31597.98
463.0744, 31530.54
463.5565, 31459.52
464.0387, 31421.64
464.5208, 31429.91
465.0029, 31469.30
465.4850, 31573.59
465.9671, 31722.19
466.4492, 31793.16
466.9314, 31704.64
467.4135, 31603.39
467.8956, 31549.88
468.3777, 31571.10
468.8598, 31567.20
469.3419, 31519.68
469.8241, 31463.30
470.3062, 31451.62
470.7883, 31501.23
471.2704, 31539.15
471.7525, 31540.38
472.2346, 31513.94
472.7168, 31514.64
473.1989, 31545.96
473.6810, 31580.87
474.1631, 31595.26
474.6452, 31593.98
475.1273, 31601.71
475.6095, 31622.04
476.0916, 31650.85
476.5737, 31694.07
477.0558, 31743.42
477.5379, 31773.38
478.0201, 31746.62
478.5022, 31708.84
478.9843, 31713.36
479.4664, 31759.63
479.9485, 31807.91
480.4306, 31833.26
480.9128, 31848.84
481.3949, 31868.81
481.8770, 31909.46
482.3591, 31935.39
482.8412, 31918.58
483.3233, 31878.45
483.8055, 31859.97
484.2876, 31897.94
484.7697, 31934.82
485.2518, 31946.10
485.7339, 31923.74
486.2160, 31923.88
486.6982, 31956.76
487.1803, 32002.72
487.6624, 32046.83
488.1445, 32091.09
488.6266, 32126.82
489.1087, 32151.81
489.5909, 32167.81
490.0730, 32177.05
490.5551, 32177.59
491.0372, 32183.52
491.5193, 32204.00
492.0014, 32236.97
492.4836, 32277.08
492.9657, 32327.33
493.4478, 32362.21
493.9299, 32332.18
494.4120, 32264.15
494.8941, 32232.65
495.3763, 32278.93
495.8584, 32348.84
496.3405, 32384.05
496.8226, 32392.54
497.3047, 32400.13
497.7868, 32421.83
498.2690, 32447.41
498.7511, 32469.02
499.2332, 32485.29
499.7153, 32501.09
500.1974, 32509.51
500.6795, 32521.94
501.1617, 32550.54
501.6438, 32618.46
502.1259, 32678.83
502.6080, 32720.07
503.0901, 32746.27
503.5722, 32778.80
504.0544, 32831.30
504.5365, 32870.97
505.0186, 32877.06
505.5007, 32836.71
505.9828, 32832.13
506.4649, 32876.09
506.9471, 32932.33
507.4292, 32948.37
507.9113, 32922.80
508.3934, 32918.44
508.8755, 32959.55
509.3576, 33024.05
509.8398, 33064.61
510.3219, 33082.50
510.8040, 33091.11
511.2861, 33089.34
511.7682, 33087.22
512.2504, 33099.16
512.7325, 33126.30
513.2146, 33169.10
513.6967, 33263.86
514.1788, 33365.51
514.6609, 33411.00
515.1431, 33294.74
515.6252, 33201.71
516.1073, 33235.39
516.5894, 33364.45
517.0715, 33457.04
517.5536, 33442.70
518.0358, 33420.48
518.5179, 33438.18
519.0000, 33517.43
519.4821, 33570.08
519.9642, 33572.20
520.4464, 33567.28
520.9285, 33609.50
521.4106, 33725.62
521.8927, 33804.00
522.3748, 33816.17
522.8569, 33782.44
523.3391, 33764.54
523.8212, 33763.07
524.3033, 33771.26
524.7854, 33784.27
525.2675, 33803.56
525.7496, 33838.16
526.2318, 33889.50
526.7139, 33941.64
527.1960, 33981.46
527.6781, 34010.13
528.1602, 34031.47
528.6423, 34046.55
529.1245, 34054.25
529.6066, 34041.39
530.0887, 34018.95
530.5708, 34017.32
531.0529, 34069.96
531.5350, 34130.01
532.0172, 34169.11
532.4993, 34180.61
532.9814, 34205.84
533.4635, 34268.28
533.9456, 34335.92
534.4277, 34384.32
534.9099, 34397.73
535.3920, 34419.47
535.8741, 34454.44
536.3562, 34498.20
536.8383, 34542.15
537.3204, 34589.42
537.8026, 34623.47
538.2847, 34634.64
538.7668, 34625.88
539.2489, 34611.79
539.7310, 34591.14
540.2131, 34577.82
540.6953, 34585.48
541.1774, 34609.68
541.6595, 34640.46
542.1416, 34678.34
542.6237, 34715.28
543.1058, 34746.55
543.5880, 34770.31
544.0701, 34783.35
544.5522, 34768.22
545.0343, 34755.94
545.5164, 34759.88
545.9985, 34780.93
546.4807, 34822.44
546.9628, 34911.17
547.4449, 35001.27
547.9270, 35069.96
548.4091, 35120.36
548.8912, 35135.34
549.3734, 35077.78
549.8555, 35009.59
550.3376, 35019.36
550.8197, 35134.73
551.3018, 35247.54
551.7839, 35338.96
552.2661, 35408.58
552.7482, 35449.45
553.2303, 35460.49
553.7124, 35458.51
554.1945, 35449.23
554.6766, 35434.99
555.1588, 35419.30
555.6409, 35401.68
556.1230, 35394.18
556.6051, 35411.13
557.0872, 35444.77
557.5693, 35484.63
558.0515, 35538.88
558.5336, 35582.24
559.0157, 35579.43
559.4978, 35553.52
559.9799, 35558.19
560.4620, 35647.30
560.9442, 35735.57
561.4263, 35794.57
561.9084, 35821.54
562.3905, 35823.05
562.8726, 35767.29
563.3547, 35718.51
563.8369, 35722.33
564.3190, 35796.24
564.8011, 35865.59
565.2832, 35929.95
565.7653, 35984.21
566.2474, 36022.26
566.7296, 36044.16
567.2117, 36046.50
567.6938, 36019.64
568.1759, 35979.02
568.6580, 35955.56
569.1401, 35948.31
569.6223, 35947.86
570.1044, 35946.22
570.5865, 35948.89
571.0686, 35959.92
571.5507, 35978.88
572.0328, 36014.02
572.5150, 36095.82
572.9971, 36184.82
573.4792, 36241.36
573.9613, 36215.09
574.4434, 36201.61
574.9255, 36227.63
575.4077, 36278.99
575.8898, 36317.02
576.3719, 36338.78
576.8540, 36351.43
577.3361, 36349.56
577.8182, 36333.86
578.3004, 36360.04
578.7825, 36439.55
579.2646, 36518.17
579.7467, 36542.30
580.2288, 36520.80
580.7109, 36515.68
581.1931, 36534.04
581.6752, 36568.73
582.1573, 36626.35
582.6394, 36693.38
583.1215, 36739.45
583.6036, 36751.13
584.0858, 36739.23
584.5679, 36688.32
585.0500, 36614.44
585.5321, 36577.29
586.0142, 36619.64
586.4963, 36688.84
586.9785, 36771.91
587.4606, 36880.41
587.9427, 36934.86
588.4248, 36886.26
588.9069, 36823.04
589.3890, 36816.24
589.8712, 36893.54
590.3533, 36945.17
590.8354, 36956.14
591.3175, 36948.13
591.7996, 36966.80
592.2817, 37012.40
592.7639, 37038.20
593.2460, 37012.88
593.7281, 36965.74
594.2102, 36953.80
594.6923, 36976.28
595.1744, 37031.13
595.6566, 37165.30
596.1387, 37304.85
596.6208, 37364.38
597.1029, 37325.85
597.5850, 37272.63
598.0671, 37224.86
598.5493, 37191.15
599.0314, 37180.20
599.5135, 37202.66
599.9956, 37237.05
600.4777, 37290.65
600.9598, 37352.24
601.4420, 37400.73
601.9241, 37437.61
602.4062, 37454.62
602.8883, 37440.78
603.3704, 37404.17
603.8525, 37396.02
604.3347, 37419.17
604.8168, 37445.57
605.2989, 37449.80
605.7810, 37442.25
606.2631, 37454.70
606.7452, 37490.30
607.2274, 37534.80
607.7095, 37586.46
608.1916, 37635.54
608.6737, 37666.01
609.1558, 37658.75
609.6379, 37654.88
610.1201, 37683.48
610.6022, 37727.34
611.0843, 37751.70
611.5664, 37717.06
612.0485, 37697.30
612.5306, 37716.09
613.0128, 37769.77
613.4949, 37811.10
613.9770, 37834.70
614.4591, 37857.09
614.9412, 37893.32
615.4233, 37944.41
615.9055, 37958.79
616.3876, 37927.57
616.8697, 37902.06
617.3518, 37957.34
617.8339, 38062.83
618.3160, 38129.44
618.7982, 38123.65
619.2803, 38103.46
619.7624, 38119.00
620.2445, 38159.61
620.7266, 38204.39
621.2087, 38267.02
621.6909, 38310.01
622.1730, 38293.61
622.6551, 38229.30
623.1372, 38220.12
623.6193, 38351.57
624.1014, 38462.93
624.5836, 38483.76
625.0657, 38395.04
625.5478, 38333.14
626.0299, 38293.79
626.5120, 38289.73
626.9941, 38358.23
627.4763, 38491.08
627.9584, 38562.79
628.4405, 38544.32
628.9226, 38497.15
629.4047, 38504.41
629.8868, 38547.40
630.3690, 38579.82
630.8511, 38553.79
631.3332, 38538.34
631.8153, 38605.24
632.2974, 38728.85
632.7795, 38818.00
633.2617, 38805.23
633.7438, 38784.53
634.2259, 38796.99
634.7080, 38848.55
635.1901, 38893.97
635.6722, 38942.38
636.1544, 38972.19
636.6365, 38960.23
637.1186, 38897.56
637.6007, 38859.88
638.0828, 38851.28
638.5649, 38864.68
639.0471, 38899.81
639.5292, 38951.61
640.0113, 38996.17
640.4934, 39025.34
640.9755, 39048.22
641.4576, 39074.34
641.9398, 39101.80
642.4219, 39125.45
642.9040, 39132.23
643.3861, 39144.83
643.8682, 39184.82
644.3503, 39248.32
644.8325, 39287.98
645.3146, 39266.71
645.7967, 39248.75
646.2788, 39262.87
646.7609, 39317.32
647.2430, 39353.38
647.7252, 39369.23
648.2073, 39371.36
648.6894, 39352.82
649.1715, 39317.88
649.6536, 39327.57
650.1357, 39399.71
650.6179, 39483.08
651.1000, 39518.40
651.5821, 39515.89
652.0642, 39496.13
652.5463, 39435.34
653.0284, 39395.11
653.5106, 39433.88
653.9927, 39526.25
654.4748, 39602.25
654.9569, 39628.90
655.4390, 39649.59
655.9211, 39681.66
656.4033, 39724.14
656.8854, 39755.65
657.3675, 39777.41
657.8496, 39786.52
658.3317, 39773.97
658.8138, 39738.32
659.2960, 39731.03
