##NAMES=Ferrokesterite
##RRUFFID=R110173
##IDEAL CHEMISTRY=Cu^1+^_2_Fe^2+^Sn^4+^S^2-^_4_
##LOCALITY=San Jose mine, Oruro, Bolivia
##OWNER=RRUFF
##SOURCE=Brian Kosnar
##DESCRIPTION=Black rough octahedron associated with zinkenite.
##STATUS=The identification of this mineral is confirmed by single-crystal X-ray diffraction and chemical analysis.
##URL=rruff.info/R110173
##MEASURED CHEMISTRY=Cu_1.99_(Fe_0.54_Zn_0.45_Cd_0.01_)Sn_0.99_S_4_
179.6838, 79.04042
180.1659, 79.34398
180.6480, 80.50992
181.1301, 81.77736
181.6122, 82.44543
182.0944, 82.62320
182.5765, 82.64237
183.0586, 82.68414
183.5407, 82.67085
184.0228, 82.25362
184.5049, 81.32830
184.9871, 80.59928
185.4692, 81.20345
185.9513, 82.90145
186.4334, 84.38471
186.9155, 84.96399
187.3976, 84.84711
187.8798, 84.65777
188.3619, 84.37733
188.8440, 84.17922
189.3261, 84.43987
189.8082, 85.11828
190.2903, 85.65001
190.7725, 85.50345
191.2546, 84.86301
191.7367, 84.91448
192.2188, 85.84962
192.7009, 87.11230
193.1830, 87.77794
193.6652, 87.84644
194.1473, 87.75671
194.6294, 87.69813
195.1115, 87.67042
195.5936, 87.66424
196.0757, 87.65467
196.5579, 87.70500
197.0400, 88.01815
197.5221, 88.62820
198.0042, 89.13877
198.4863, 89.25105
198.9684, 88.95862
199.4506, 88.83305
199.9327, 88.91914
200.4148, 89.18121
200.8969, 89.59480
201.3790, 90.19945
201.8611, 90.76828
202.3433, 91.23296
202.8254, 91.61417
203.3075, 91.61225
203.7896, 91.05975
204.2717, 90.23985
204.7538, 89.90479
205.2360, 90.13640
205.7181, 90.53634
206.2002, 90.90977
206.6823, 91.26723
207.1644, 91.50091
207.6465, 91.53764
208.1287, 91.47788
208.6108, 91.70056
209.0929, 92.35445
209.5750, 92.88039
210.0571, 92.78719
210.5392, 91.83532
211.0214, 91.44216
211.5035, 91.93855
211.9856, 93.00713
212.4677, 93.45841
212.9498, 92.98044
213.4319, 92.59110
213.9140, 93.05832
214.3962, 94.77897
214.8783, 95.91475
215.3604, 96.14536
215.8425, 95.69999
216.3246, 95.48415
216.8067, 95.57502
217.2889, 95.73949
217.7710, 95.80253
218.2531, 95.65336
218.7352, 95.75106
219.2173, 96.25160
219.6994, 97.03133
220.1816, 97.45483
220.6637, 97.35115
221.1458, 97.19511
221.6279, 97.29408
222.1100, 97.74986
222.5921, 98.19362
223.0743, 98.61352
223.5564, 99.00075
224.0385, 99.32124
224.5206, 99.52711
225.0027, 99.73489
225.4848, 100.0407
225.9670, 100.5506
226.4491, 100.8743
226.9312, 100.8121
227.4133, 100.5250
227.8954, 100.8669
228.3775, 102.2214
228.8597, 103.6354
229.3418, 104.4637
229.8239, 104.3238
230.3060, 104.4932
230.7881, 105.1669
231.2702, 106.2328
231.7524, 107.1401
232.2345, 107.8266
232.7166, 108.4231
233.1987, 108.9921
233.6808, 109.5311
234.1629, 110.0248
234.6451, 110.3830
235.1272, 110.6877
235.6093, 111.3271
236.0914, 112.4455
236.5735, 113.6989
237.0556, 114.9215
237.5378, 116.1753
238.0199, 117.2584
238.5020, 118.0887
238.9841, 118.7459
239.4662, 119.5136
239.9483, 120.4264
240.4305, 121.4105
240.9126, 122.4298
241.3947, 123.4490
241.8768, 124.6067
242.3589, 126.0357
242.8410, 127.5980
243.3232, 128.7883
243.8053, 129.3222
244.2874, 129.8668
244.7695, 130.7618
245.2516, 132.1710
245.7337, 133.5778
246.2159, 135.0217
246.6980, 136.4471
247.1801, 137.6551
247.6622, 138.6354
248.1443, 139.4274
248.6264, 140.0152
249.1086, 140.2957
249.5907, 140.6076
250.0728, 140.8575
250.5549, 141.1702
251.0370, 141.9400
251.5191, 143.5031
252.0013, 144.9976
252.4834, 145.9883
252.9655, 146.1020
253.4476, 146.7208
253.9297, 148.1844
254.4118, 150.0021
254.8940, 151.0347
255.3761, 150.8526
255.8582, 150.6454
256.3403, 150.8958
256.8224, 151.6946
257.3046, 152.6908
257.7867, 154.1127
258.2688, 155.5736
258.7509, 156.2149
259.2330, 155.6091
259.7151, 155.0381
260.1973, 155.0019
260.6794, 155.6092
261.1615, 156.2753
261.6436, 157.0356
262.1257, 157.8179
262.6078, 158.4908
263.0900, 159.0164
263.5721, 159.5163
264.0542, 159.9856
264.5363, 160.3947
265.0184, 161.0745
265.5005, 162.1597
265.9827, 163.3766
266.4648, 164.3151
266.9469, 164.8489
267.4290, 165.4496
267.9111, 166.2330
268.3932, 167.1904
268.8754, 168.4643
269.3575, 170.1697
269.8396, 172.0042
270.3217, 173.5387
270.8038, 174.6874
271.2859, 175.8319
271.7681, 177.0399
272.2502, 178.3052
272.7323, 179.6412
273.2144, 180.9241
273.6965, 182.4821
274.1786, 184.8503
274.6608, 188.2751
275.1429, 191.2756
275.6250, 193.3841
276.1071, 194.7235
276.5892, 196.2888
277.0714, 198.0856
277.5535, 200.0236
278.0356, 201.9456
278.5177, 203.8139
278.9998, 206.0820
279.4819, 208.9858
279.9641, 212.3379
280.4462, 215.1809
280.9283, 217.4548
281.4104, 219.5077
281.8925, 221.5919
282.3746, 223.7068
282.8568, 225.9279
283.3389, 228.2930
283.8210, 230.7594
284.3031, 233.3135
284.7852, 236.0155
285.2673, 238.4238
285.7495, 240.1982
286.2316, 241.3769
286.7137, 242.4030
287.1958, 243.3537
287.6779, 244.1563
288.1600, 244.8014
288.6422, 245.2965
289.1243, 245.1733
289.6064, 243.7580
290.0885, 241.3289
290.5706, 239.5330
291.0527, 238.7197
291.5349, 238.0690
292.0170, 236.0658
292.4991, 232.8372
292.9812, 229.6398
293.4633, 227.2559
293.9454, 225.4667
294.4276, 223.6006
294.9097, 221.6154
295.3918, 219.6658
295.8739, 217.8412
296.3560, 216.1983
296.8381, 214.9166
297.3203, 214.2187
297.8024, 213.9327
298.2845, 213.7055
298.7666, 213.5262
299.2487, 213.4549
299.7308, 213.4697
300.2130, 213.6282
300.6951, 214.0961
301.1772, 215.1150
301.6593, 216.3895
302.1414, 217.5520
302.6235, 218.5924
303.1057, 219.5308
303.5878, 219.9991
304.0699, 220.4055
304.5520, 221.5391
305.0341, 224.1725
305.5162, 227.1587
305.9984, 229.2161
306.4805, 230.4549
306.9626, 231.7627
307.4447, 233.7235
307.9268, 236.1085
308.4089, 238.5775
308.8911, 240.9460
309.3732, 243.5295
309.8553, 246.4961
310.3374, 249.8517
310.8195, 253.6951
311.3016, 258.1717
311.7838, 263.0574
312.2659, 268.2013
312.7480, 273.5321
313.2301, 279.1634
313.7122, 285.0748
314.1943, 291.3969
314.6765, 298.2791
315.1586, 305.7990
315.6407, 313.8676
316.1228, 322.6104
316.6049, 332.1056
317.0870, 341.8266
317.5692, 351.3668
318.0513, 360.9586
318.5334, 370.8726
319.0155, 380.6270
319.4976, 391.2148
319.9797, 403.1474
320.4619, 416.5352
320.9440, 430.3533
321.4261, 444.4969
321.9082, 458.7164
322.3903, 472.7178
322.8724, 486.2664
323.3546, 499.7509
323.8367, 513.0302
324.3188, 526.1375
324.8009, 539.9815
325.2830, 555.0018
325.7651, 570.4865
326.2473, 585.9398
326.7294, 602.6349
327.2115, 617.8030
327.6936, 630.6664
328.1757, 641.5488
328.6578, 652.6310
329.1400, 666.0774
329.6221, 677.9948
330.1042, 686.7908
330.5863, 691.0857
331.0684, 694.5712
331.5505, 697.4303
332.0327, 699.4199
332.5148, 700.0164
332.9969, 699.5071
333.4790, 697.1409
333.9611, 692.5723
334.4432, 685.5947
334.9254, 677.1309
335.4075, 667.4839
335.8896, 656.1671
336.3717, 642.3818
336.8538, 625.8094
337.3359, 607.8057
337.8180, 588.8312
338.3001, 568.9794
338.7823, 547.5766
339.2644, 524.4019
339.7465, 500.6140
340.2286, 476.9200
340.7107, 453.2579
341.1928, 431.1879
341.6750, 411.3398
342.1571, 393.4669
342.6392, 377.8795
343.1213, 364.5374
343.6034, 352.9777
344.0855, 342.8075
344.5677, 334.0985
345.0498, 326.6164
345.5319, 320.5119
346.0140, 315.4382
346.4961, 310.9929
346.9782, 307.1686
347.4604, 303.3082
347.9425, 298.9245
348.4246, 294.1910
348.9067, 289.8695
349.3888, 286.0008
349.8709, 282.5307
350.3531, 279.6550
350.8352, 277.1962
351.3173, 274.5103
351.7994, 271.0693
352.2815, 267.2828
352.7636, 263.6919
353.2458, 260.2953
353.7279, 257.2927
354.2100, 255.3414
354.6921, 253.8253
355.1742, 251.6676
355.6563, 248.2270
356.1385, 244.3021
356.6206, 240.5466
357.1027, 236.9192
357.5848, 233.3252
358.0669, 229.6673
358.5490, 225.9972
359.0312, 222.3659
359.5133, 218.7193
359.9954, 215.1763
360.4775, 211.9229
360.9596, 208.8064
361.4417, 205.5578
361.9239, 201.8751
362.4060, 198.1477
362.8881, 194.6300
363.3702, 191.4071
363.8523, 188.0799
364.3344, 184.6005
364.8166, 180.9204
365.2987, 176.9504
365.7808, 172.4098
366.2629, 167.9446
366.7450, 163.7467
367.2271, 159.8190
367.7093, 155.9469
368.1914, 152.1058
368.6735, 148.3095
369.1556, 144.5358
369.6377, 140.6233
370.1198, 137.0357
370.6020, 133.7830
371.0841, 130.8651
371.5662, 128.3033
372.0483, 126.4076
372.5304, 124.5241
373.0125, 122.3418
373.4947, 119.6735
373.9768, 117.3206
374.4589, 115.4694
374.9410, 113.7577
375.4231, 111.5322
375.9052, 108.4667
376.3874, 105.7723
376.8695, 103.9269
377.3516, 102.8886
377.8337, 101.7656
378.3158, 100.5716
378.7979, 99.22688
379.2801, 97.56408
379.7622, 95.54453
380.2443, 93.76625
380.7264, 92.34596
381.2085, 91.21569
381.6906, 90.18870
382.1728, 89.26705
382.6549, 88.46103
383.1370, 87.86210
383.6191, 87.40313
384.1012, 86.84850
384.5833, 86.16158
385.0655, 85.38734
385.5476, 84.48190
386.0297, 83.50663
386.5118, 82.73833
386.9939, 82.45446
387.4760, 82.39059
387.9582, 82.18904
388.4403, 81.84039
388.9224, 81.38039
389.4045, 80.76762
389.8866, 80.08738
390.3687, 79.45073
390.8509, 78.85950
391.3330, 78.37374
391.8151, 78.06886
392.2972, 77.91618
392.7793, 77.79001
393.2614, 77.79436
393.7436, 77.69775
394.2257, 77.25424
394.7078, 76.17486
395.1899, 75.36213
395.6720, 75.26708
396.1541, 75.61653
396.6363, 75.97172
397.1184, 76.31719
397.6005, 76.56612
398.0826, 76.70741
398.5647, 76.74796
399.0468, 76.60995
399.5290, 76.22039
400.0111, 75.68480
400.4932, 75.07667
400.9753, 74.04848
401.4574, 73.42805
401.9395, 73.49755
402.4217, 74.07687
402.9038, 74.30186
403.3859, 73.99327
403.8680, 73.59417
404.3501, 73.31794
404.8322, 73.21465
405.3144, 73.05814
405.7965, 72.81594
406.2786, 72.56101
406.7607, 72.39905
407.2428, 72.32710
407.7249, 72.38248
408.2071, 72.70760
408.6892, 73.19902
409.1713, 73.09727
409.6534, 72.32523
410.1355, 71.39591
410.6176, 70.66607
411.0998, 70.14754
411.5819, 70.00628
412.0640, 70.42441
412.5461, 70.97935
413.0282, 70.96194
413.5103, 70.43752
413.9925, 69.80100
414.4746, 69.05178
414.9567, 68.40620
415.4388, 68.29093
415.9209, 68.78174
416.4030, 69.39367
416.8852, 69.99222
417.3673, 70.39846
417.8494, 70.32924
418.3315, 69.24700
418.8136, 68.01223
419.2957, 67.12682
419.7779, 66.57092
420.2600, 66.13307
420.7421, 65.68950
421.2242, 65.35072
421.7063, 65.25121
422.1884, 65.67396
422.6706, 65.83940
423.1527, 65.29588
423.6348, 64.39826
424.1169, 63.81249
424.5990, 63.83506
425.0811, 63.98350
425.5633, 64.17128
426.0454, 64.42452
426.5275, 64.50783
427.0096, 64.37515
427.4917, 64.10664
427.9738, 63.75381
428.4560, 63.25959
428.9381, 62.79055
429.4202, 62.32063
429.9023, 61.90216
430.3844, 61.75305
430.8665, 61.99330
431.3487, 62.16366
431.8308, 62.00662
432.3129, 61.50814
432.7950, 60.98720
433.2771, 60.42120
433.7592, 59.90826
434.2414, 59.61401
434.7235, 59.51900
435.2056, 59.36827
435.6877, 58.99092
436.1698, 58.57161
436.6519, 58.60903
437.1341, 59.07594
437.6162, 59.47019
438.0983, 59.38988
438.5804, 58.99782
439.0625, 58.51582
439.5446, 57.91321
440.0268, 57.45515
440.5089, 57.55931
440.9910, 57.97756
441.4731, 58.20113
441.9552, 57.73280
442.4373, 57.20892
442.9195, 57.08553
443.4016, 57.36578
443.8837, 57.60082
444.3658, 57.64913
444.8479, 57.55170
445.3300, 57.33242
445.8122, 56.76849
446.2943, 56.37824
446.7764, 56.33749
447.2585, 56.53343
447.7406, 56.67786
448.2227, 56.64568
448.7049, 56.66866
449.1870, 56.88989
449.6691, 57.40414
450.1512, 57.51352
450.6333, 57.00761
451.1154, 56.32734
451.5976, 55.89707
452.0797, 55.79978
452.5618, 55.68801
453.0439, 55.49229
453.5260, 55.25884
454.0081, 55.11127
454.4903, 55.05070
454.9724, 55.07016
455.4545, 55.22204
455.9366, 55.47441
456.4187, 55.60175
456.9008, 55.58681
457.3830, 55.49445
457.8651, 55.36107
458.3472, 55.20481
458.8293, 55.09520
459.3114, 55.07649
459.7935, 55.08977
460.2757, 55.04472
460.7578, 54.95662
461.2399, 54.90397
461.7220, 55.01890
462.2041, 55.14636
462.6862, 55.12629
463.1684, 54.91343
463.6505, 54.65935
464.1326, 54.39458
464.6147, 54.15178
465.0968, 53.96924
465.5789, 53.79076
466.0611, 53.75000
466.5432, 53.98394
467.0253, 54.45704
467.5074, 54.77696
467.9895, 54.89747
468.4716, 54.85470
468.9538, 54.61692
469.4359, 53.90101
469.9180, 53.64019
470.4001, 54.08032
470.8822, 54.80296
471.3643, 55.14359
471.8465, 54.92820
472.3286, 54.85942
472.8107, 55.25596
473.2928, 55.95872
473.7749, 55.97124
474.2570, 55.18934
474.7392, 54.25585
475.2213, 53.59101
475.7034, 53.17951
476.1855, 52.94334
476.6676, 52.90063
477.1497, 52.94305
477.6319, 52.91578
478.1140, 52.85018
478.5961, 52.84937
479.0782, 53.05313
479.5603, 53.28702
480.0424, 53.34782
480.5246, 53.24669
481.0067, 53.07581
481.4888, 52.76849
481.9709, 52.48595
482.4530, 52.40843
482.9352, 52.68834
483.4173, 52.87664
483.8994, 52.69611
484.3815, 52.33333
484.8636, 52.07469
485.3457, 52.15767
485.8279, 52.17429
486.3100, 51.94863
486.7921, 51.47951
487.2742, 51.19190
487.7563, 51.08636
488.2384, 51.16042
488.7206, 51.45903
489.2027, 52.15894
489.6848, 52.60263
490.1669, 52.74444
490.6490, 52.67000
491.1311, 52.47611
491.6133, 52.14295
492.0954, 51.83709
492.5775, 51.59977
493.0596, 51.43116
493.5417, 51.38294
494.0238, 51.45819
494.5060, 51.45028
494.9881, 51.10424
495.4702, 50.56219
495.9523, 50.17897
496.4344, 50.01796
496.9165, 49.94466
497.3987, 49.82566
497.8808, 49.69757
498.3629, 49.63216
498.8450, 49.75293
499.3271, 49.86722
499.8092, 49.87865
500.2914, 49.78424
500.7735, 49.57317
501.2556, 49.01863
501.7377, 48.50878
502.2198, 48.27832
502.7019, 48.42065
503.1841, 48.66356
503.6662, 49.26933
504.1483, 49.83419
504.6304, 49.84412
505.1125, 48.70310
505.5946, 47.98652
506.0768, 48.06981
506.5589, 48.77718
507.0410, 49.23852
507.5231, 49.42695
508.0052, 49.44414
508.4873, 49.24742
508.9695, 48.83538
509.4516, 48.74268
509.9337, 49.03991
510.4158, 49.37210
510.8979, 49.17537
511.3800, 48.60812
511.8622, 48.45844
512.3443, 49.19446
512.8264, 50.06010
513.3085, 49.92071
513.7906, 49.00956
514.2728, 48.16268
514.7549, 47.93523
515.2370, 47.92110
515.7191, 47.70012
516.2012, 47.21910
516.6833, 47.00045
517.1655, 47.57666
517.6476, 48.36479
518.1297, 48.86695
518.6118, 48.85549
519.0939, 48.70856
519.5760, 48.38289
520.0582, 47.96465
520.5403, 47.64867
521.0224, 47.46437
521.5045, 47.34593
521.9866, 47.27952
522.4688, 47.26492
522.9509, 47.29611
523.4330, 47.37130
523.9151, 47.49463
524.3972, 47.74051
524.8793, 48.11431
525.3615, 48.17826
525.8436, 47.80804
526.3257, 47.35530
526.8078, 47.46681
527.2899, 48.00872
527.7720, 48.33437
528.2542, 48.02311
528.7363, 47.48579
529.2184, 47.27529
529.7005, 47.34616
530.1826, 47.44012
530.6647, 47.40422
531.1469, 47.32002
531.6290, 47.25778
532.1111, 47.23326
532.5932, 47.20509
533.0753, 47.14855
533.5574, 47.08467
534.0396, 47.03616
534.5217, 47.03828
535.0038, 47.01928
535.4859, 46.92069
535.9680, 46.79090
536.4501, 46.78981
536.9323, 46.97985
537.4144, 47.19322
537.8965, 47.37365
538.3786, 47.51988
538.8607, 47.62693
539.3428, 47.65716
539.8250, 47.75986
540.3071, 48.23518
540.7892, 49.00200
541.2713, 49.25750
541.7534, 48.76308
542.2355, 48.04038
542.7177, 47.77426
543.1998, 47.88064
543.6819, 48.10136
544.1640, 48.55997
544.6461, 48.90625
545.1282, 48.63860
545.6104, 47.87082
546.0925, 47.30393
546.5746, 47.40266
547.0567, 47.75542
547.5388, 48.10477
548.0209, 48.41085
548.5031, 48.72430
548.9852, 49.29816
549.4673, 49.77110
549.9494, 49.74160
550.4315, 48.70501
550.9136, 47.94910
551.3958, 47.64614
551.8779, 47.69736
552.3600, 47.83600
552.8421, 48.08418
553.3242, 48.34472
553.8063, 48.59460
554.2885, 48.82722
554.7706, 49.00322
555.2527, 49.12675
555.7348, 49.15248
556.2169, 48.94348
556.6990, 48.60991
557.1812, 48.43618
557.6633, 48.48051
558.1454, 48.63963
558.6275, 48.98903
559.1096, 49.35794
559.5917, 49.45192
560.0739, 48.82087
560.5560, 48.19847
561.0381, 47.99168
561.5202, 48.12104
562.0023, 48.21428
562.4844, 47.96170
562.9666, 47.83806
563.4487, 48.15688
563.9308, 49.08315
564.4129, 49.60421
564.8950, 49.48980
565.3771, 49.22094
565.8593, 49.20983
566.3414, 49.53424
566.8235, 49.80248
567.3056, 50.01487
567.7877, 50.10005
568.2698, 49.82360
568.7520, 49.21204
569.2341, 48.75510
569.7162, 48.69933
570.1983, 48.86935
570.6804, 48.96741
571.1625, 49.00060
571.6447, 49.01827
572.1268, 48.96029
572.6089, 48.95651
573.0910, 49.16274
573.5731, 49.62172
574.0552, 50.10025
574.5374, 50.70662
575.0195, 51.17985
575.5016, 51.27931
575.9837, 50.33159
576.4658, 49.78527
576.9479, 49.91770
577.4301, 50.49269
577.9122, 51.09658
578.3943, 51.88335
578.8764, 52.38722
579.3585, 52.40757
579.8406, 52.02027
580.3228, 51.74616
580.8049, 51.58943
581.2870, 51.51854
581.7691, 51.55618
582.2512, 51.66947
582.7333, 51.71448
583.2155, 51.67828
583.6975, 51.63128
584.1796, 51.61068
584.6617, 51.63194
585.1439, 51.73870
585.6260, 52.03306
586.1081, 52.25297
586.5902, 52.14773
587.0723, 51.86396
587.5544, 51.68635
588.0366, 51.66198
588.5187, 51.78619
589.0008, 52.12264
589.4829, 52.65622
589.9650, 53.09831
590.4471, 53.37932
590.9293, 53.66010
591.4114, 54.07887
591.8935, 54.71432
592.3756, 54.85938
592.8577, 54.36969
593.3398, 53.77782
593.8220, 53.67722
594.3041, 54.00595
594.7862, 54.28703
595.2683, 54.44143
595.7504, 54.50370
596.2325, 54.44730
596.7147, 54.33253
597.1968, 54.31524
597.6789, 54.59052
598.1610, 54.88317
598.6431, 54.95057
599.1252, 54.84569
599.6074, 54.81931
600.0895, 55.13379
600.5716, 55.40117
601.0537, 55.37753
601.5358, 54.94112
602.0179, 54.72920
602.5001, 54.85089
602.9822, 55.09708
603.4643, 55.34870
603.9464, 55.65685
604.4285, 55.74084
604.9106, 55.50218
605.3928, 55.18568
605.8749, 55.22426
606.3570, 55.58518
606.8391, 55.82356
607.3212, 55.73645
607.8033, 55.54248
608.2855, 55.53960
608.7676, 55.71095
609.2497, 55.99591
609.7318, 56.56040
610.2139, 57.07615
610.6960, 57.24961
611.1782, 57.07597
611.6603, 56.84165
612.1424, 56.43433
612.6245, 56.15069
613.1066, 56.22039
613.5887, 56.94702
614.0709, 57.35087
614.5530, 57.27657
615.0351, 57.02429
615.5172, 56.91269
615.9993, 56.98194
616.4814, 56.99400
616.9636, 56.88058
617.4457, 56.74560
617.9278, 56.79763
618.4099, 57.02531
618.8920, 57.31181
619.3741, 57.73335
619.8563, 58.09739
620.3384, 58.02882
620.8205, 57.60283
621.3026, 57.19753
621.7847, 57.00801
622.2668, 56.93779
622.7490, 56.91000
623.2311, 56.90989
623.7132, 57.03539
624.1953, 57.49831
624.6774, 57.97038
625.1595, 58.21556
625.6417, 58.07894
626.1238, 58.02670
626.6059, 58.11749
627.0880, 58.23147
627.5701, 58.16396
628.0522, 57.88151
628.5344, 57.75698
629.0165, 57.90120
629.4986, 58.19579
629.9807, 58.45152
630.4628, 58.66475
630.9449, 58.81199
631.4271, 58.79040
631.9092, 58.75663
632.3913, 58.87195
632.8734, 59.12920
633.3555, 59.47192
633.8376, 60.11847
634.3198, 60.65004
634.8019, 60.73888
635.2840, 60.23277
635.7661, 59.92657
636.2482, 59.97945
636.7303, 60.18904
637.2125, 60.45094
637.6946, 60.84417
638.1767, 61.02145
638.6588, 60.86419
639.1409, 60.67310
639.6230, 60.98987
640.1052, 61.76995
640.5873, 62.28243
641.0694, 62.25321
641.5515, 62.01809
642.0336, 62.04404
642.5157, 62.27762
642.9979, 62.56537
643.4800, 63.06720
643.9621, 63.39744
644.4442, 63.05019
644.9263, 62.18089
645.4084, 61.70947
645.8906, 62.30153
646.3727, 63.03940
646.8548, 63.51453
647.3369, 63.69920
647.8190, 63.78969
648.3011, 63.74916
648.7833, 63.66869
649.2654, 63.60519
649.7475, 63.55642
650.2296, 63.55214
650.7117, 63.60078
651.1938, 63.66639
651.6760, 63.59893
652.1581, 63.50092
652.6402, 63.74750
653.1223, 64.61147
653.6044, 65.47631
654.0865, 65.80643
654.5687, 65.74545
655.0508, 65.57648
655.5329, 65.12826
656.0150, 64.87367
656.4971, 65.09890
656.9792, 65.70744
657.4614, 66.18414
657.9435, 66.46909
658.4256, 66.67432
658.9077, 66.82926
659.3898, 66.93399
659.8719, 66.98477
660.3541, 66.97181
660.8362, 66.95023
661.3183, 66.95876
661.8004, 66.99099
662.2825, 67.00777
662.7646, 67.00387
663.2468, 67.04208
663.7289, 67.28200
664.2110, 67.55721
664.6931, 67.64881
665.1752, 67.48642
665.6573, 67.19839
666.1395, 66.54685
666.6216, 65.91228
667.1037, 65.76279
667.5858, 66.98855
668.0679, 67.62400
668.5500, 67.24725
669.0322, 66.31398
669.5143, 65.89155
669.9964, 66.12888
670.4785, 66.10855
670.9606, 65.42039
671.4427, 64.37379
671.9249, 63.90930
672.4070, 63.95495
672.8891, 63.95085
673.3712, 63.45692
673.8533, 62.80070
674.3354, 62.35836
674.8176, 62.12575
675.2997, 61.95601
