##NAMES=Ferricopiapite
##RRUFFID=R060721
##IDEAL CHEMISTRY=Fe^3+^_2/3_Fe^3+^_4_(S^6+^O_4_)_6_(OH)_2_&#183;20H_2_O
##LOCALITY=Alcaparrosa mine, near Cerritos Bayos, El Loa Province, Chile
##OWNER=RRUFF
##SOURCE=University of Arizona Mineral Museum
##DESCRIPTION=Yellow platy crystals associated with parabutlerite
##STATUS=The identification of this mineral has been confirmed only by single crystal X-ray diffraction.
##URL=rruff.info/R060721
88.13672, 293.4875
88.61884, 297.3415
89.10095, 301.0885
89.58307, 305.7958
90.06519, 311.3398
90.54730, 316.8687
91.02942, 322.9595
91.51154, 328.3347
91.99365, 331.3683
92.47577, 332.4266
92.95789, 332.9091
93.44000, 333.6042
93.92212, 334.2000
94.40424, 334.6447
94.88635, 335.5191
95.36847, 336.6180
95.85059, 337.2341
96.33270, 337.3073
96.81482, 337.3465
97.29694, 337.5600
97.77905, 337.9466
98.26117, 339.2307
98.74329, 341.7086
99.22540, 345.2346
99.70752, 349.3498
100.1896, 354.4849
100.6718, 359.0910
101.1539, 360.6251
101.6360, 358.0250
102.1181, 356.3372
102.6002, 357.3731
103.0823, 361.5777
103.5645, 365.5250
104.0466, 368.9247
104.5287, 372.3010
105.0108, 376.7848
105.4929, 382.9166
105.9750, 389.3597
106.4572, 395.7138
106.9393, 402.8028
107.4214, 408.3907
107.9035, 411.7190
108.3856, 413.5163
108.8677, 416.1554
109.3499, 420.4595
109.8320, 425.0591
110.3141, 429.3662
110.7962, 433.0823
111.2783, 436.9373
111.7604, 440.8553
112.2426, 444.9336
112.7247, 449.5673
113.2068, 455.5963
113.6889, 461.8009
114.1710, 467.2764
114.6531, 471.5058
115.1353, 475.2672
115.6174, 478.6704
116.0995, 481.7056
116.5816, 484.8665
117.0637, 488.8809
117.5458, 492.9141
118.0280, 496.1075
118.5101, 497.4281
118.9922, 498.2489
119.4743, 499.2316
119.9564, 500.4026
120.4385, 501.8590
120.9207, 503.5270
121.4028, 505.5203
121.8849, 508.0314
122.3670, 512.1076
122.8491, 516.3545
123.3312, 519.1650
123.8134, 520.1554
124.2955, 520.5188
124.7776, 521.0762
125.2597, 521.8571
125.7418, 522.9539
126.2239, 524.1756
126.7061, 525.8087
127.1882, 528.4384
127.6703, 532.4070
128.1524, 536.9825
128.6345, 540.8318
129.1166, 544.0851
129.5988, 548.0661
130.0809, 554.6141
130.5630, 562.9911
131.0451, 569.9609
131.5272, 574.3076
132.0093, 577.2071
132.4915, 581.4215
132.9736, 587.0185
133.4557, 593.2794
133.9378, 599.5217
134.4199, 605.7609
134.9020, 612.2541
135.3842, 619.1185
135.8663, 626.1977
136.3484, 633.2982
136.8305, 640.2549
137.3126, 647.6563
137.7947, 656.5233
138.2769, 667.4049
138.7590, 677.0250
139.2411, 684.0671
139.7232, 688.5585
140.2053, 693.4983
140.6874, 699.1164
141.1696, 705.0242
141.6517, 710.6244
142.1338, 715.8860
142.6159, 721.0941
143.0980, 726.5129
143.5801, 732.3152
144.0623, 737.4440
144.5444, 741.6575
145.0265, 745.3953
145.5086, 749.2932
145.9907, 753.5693
146.4728, 757.8077
146.9550, 761.8006
147.4371, 764.9238
147.9192, 769.2187
148.4013, 775.0850
148.8834, 782.0501
149.3655, 789.2066
149.8477, 796.5452
150.3298, 804.0269
150.8119, 811.5638
151.2940, 819.0016
151.7761, 826.7302
152.2583, 834.6921
152.7404, 842.8468
153.2225, 851.1645
153.7046, 860.7341
154.1867, 869.6131
154.6688, 876.8749
155.1510, 881.8182
155.6331, 886.0203
156.1152, 889.9486
156.5973, 893.4004
157.0794, 895.4568
157.5615, 895.6722
158.0437, 894.6182
158.5258, 892.6567
159.0079, 890.0212
159.4900, 886.3325
159.9721, 881.2781
160.4542, 874.9794
160.9364, 868.1298
161.4185, 860.4257
161.9006, 852.5383
162.3827, 845.0070
162.8648, 838.2143
163.3469, 831.6072
163.8291, 824.7936
164.3112, 817.8820
164.7933, 811.3700
165.2754, 805.6931
165.7575, 800.4846
166.2396, 795.3592
166.7218, 789.0270
167.2039, 783.5939
167.6860, 780.9258
168.1681, 780.9870
168.6502, 781.2309
169.1323, 780.0115
169.6145, 778.0085
170.0966, 776.1529
170.5787, 775.0970
171.0608, 774.1830
171.5429, 772.8002
172.0250, 770.9089
172.5072, 768.9352
172.9893, 767.2825
173.4714, 765.7461
173.9535, 763.9449
174.4356, 760.8468
174.9177, 757.7824
175.3999, 756.5225
175.8820, 757.2474
176.3641, 758.5305
176.8462, 759.1306
177.3283, 759.2572
177.8104, 759.4616
178.2926, 759.5928
178.7747, 760.0560
179.2568, 761.6290
179.7389, 764.3933
180.2210, 767.8281
180.7031, 771.2305
181.1853, 774.7284
181.6674, 778.7349
182.1495, 783.6415
182.6316, 789.1943
183.1137, 794.6729
183.5958, 800.0891
184.0780, 805.4648
184.5601, 810.8738
185.0422, 816.2664
185.5243, 821.9279
186.0064, 827.9412
186.4885, 834.3398
186.9707, 840.9947
187.4528, 847.9891
187.9349, 855.2185
188.4170, 862.6529
188.8991, 870.2803
189.3812, 877.8262
189.8634, 885.6430
190.3455, 893.4695
190.8276, 899.7782
191.3097, 904.3270
191.7918, 907.7524
192.2739, 911.2538
192.7561, 914.8907
193.2382, 917.8544
193.7203, 919.8824
194.2024, 920.9464
194.6845, 920.6583
195.1666, 918.8145
195.6488, 915.8729
196.1309, 912.7359
196.6130, 909.3994
197.0951, 905.5712
197.5772, 901.1237
198.0593, 896.0632
198.5415, 890.0486
199.0236, 882.8107
199.5057, 874.9208
199.9878, 867.7381
200.4699, 861.2797
200.9520, 855.4240
201.4342, 850.2278
201.9163, 845.6895
202.3984, 841.5626
202.8805, 837.9843
203.3626, 834.6705
203.8447, 830.6256
204.3269, 825.4449
204.8090, 820.9650
205.2911, 818.4550
205.7732, 818.1660
206.2553, 817.9789
206.7374, 817.5910
207.2196, 817.3440
207.7017, 818.1310
208.1838, 819.9664
208.6659, 822.8178
209.1480, 826.9534
209.6301, 832.8489
210.1123, 837.8469
210.5944, 841.2112
211.0765, 843.9249
211.5586, 849.0020
212.0407, 857.1679
212.5228, 866.0947
213.0050, 874.5490
213.4871, 882.4731
213.9692, 889.9453
214.4513, 896.7327
214.9334, 903.1259
215.4155, 910.2109
215.8977, 918.0984
216.3798, 926.4666
216.8619, 935.1691
217.3440, 944.3234
217.8261, 953.3467
218.3082, 962.2198
218.7904, 970.8642
219.2725, 978.9407
219.7546, 986.2488
220.2367, 993.2145
220.7188, 999.8170
221.2009, 1005.684
221.6831, 1012.404
222.1652, 1020.081
222.6473, 1028.667
223.1294, 1037.768
223.6115, 1047.608
224.0936, 1057.773
224.5758, 1068.251
225.0579, 1079.157
225.5400, 1089.940
226.0221, 1100.260
226.5042, 1110.596
226.9863, 1121.897
227.4685, 1134.356
227.9506, 1147.695
228.4327, 1161.844
228.9148, 1177.318
229.3969, 1192.697
229.8790, 1207.710
230.3612, 1222.684
230.8433, 1238.370
231.3254, 1254.929
231.8075, 1272.196
232.2896, 1290.175
232.7717, 1308.975
233.2539, 1328.212
233.7360, 1348.082
234.2181, 1367.962
234.7002, 1386.477
235.1823, 1402.721
235.6644, 1418.717
236.1466, 1435.415
236.6287, 1453.520
237.1108, 1470.365
237.5929, 1485.912
238.0750, 1499.973
238.5571, 1511.847
239.0393, 1520.564
239.5214, 1528.647
240.0035, 1537.040
240.4856, 1546.245
240.9677, 1554.547
241.4498, 1561.813
241.9320, 1568.280
242.4141, 1574.489
242.8962, 1580.528
243.3783, 1586.253
243.8604, 1591.794
244.3425, 1597.531
244.8247, 1601.717
245.3068, 1603.777
245.7889, 1604.666
246.2710, 1605.858
246.7531, 1607.293
247.2352, 1609.109
247.7174, 1611.358
248.1995, 1614.023
248.6816, 1616.938
249.1637, 1619.783
249.6458, 1623.098
250.1279, 1627.713
250.6101, 1634.310
251.0922, 1640.942
251.5743, 1646.775
252.0564, 1651.546
252.5385, 1657.714
253.0206, 1665.516
253.5028, 1674.576
253.9849, 1684.228
254.4670, 1694.615
254.9491, 1705.521
255.4312, 1716.743
255.9133, 1728.112
256.3955, 1741.222
256.8776, 1756.647
257.3597, 1773.249
257.8418, 1789.809
258.3239, 1806.224
258.8061, 1823.153
259.2882, 1840.944
259.7703, 1859.654
260.2524, 1878.205
260.7345, 1896.714
261.2166, 1915.115
261.6988, 1933.917
262.1809, 1953.291
262.6630, 1971.651
263.1451, 1988.689
263.6272, 2004.507
264.1093, 2018.653
264.5915, 2031.563
265.0736, 2042.313
265.5557, 2050.827
266.0378, 2057.745
266.5199, 2059.690
267.0020, 2055.860
267.4842, 2046.666
267.9663, 2034.406
268.4484, 2019.363
268.9305, 2000.703
269.4126, 1977.770
269.8947, 1949.662
270.3769, 1919.783
270.8590, 1888.578
271.3411, 1855.474
271.8232, 1819.361
272.3053, 1779.715
272.7874, 1738.797
273.2696, 1696.955
273.7517, 1653.850
274.2338, 1612.427
274.7159, 1572.906
275.1980, 1534.736
275.6801, 1497.567
276.1623, 1461.354
276.6444, 1426.393
277.1265, 1392.600
277.6086, 1359.431
278.0907, 1329.605
278.5728, 1303.524
279.0550, 1279.892
279.5371, 1256.100
280.0192, 1231.860
280.5013, 1209.782
280.9834, 1191.431
281.4655, 1176.724
281.9477, 1162.489
282.4298, 1148.627
282.9119, 1135.818
283.3940, 1124.964
283.8761, 1116.053
284.3582, 1109.102
284.8404, 1104.722
285.3225, 1102.464
285.8046, 1099.384
286.2867, 1095.234
286.7688, 1091.528
287.2509, 1090.193
287.7331, 1091.104
288.2152, 1092.539
288.6973, 1093.980
289.1794, 1095.573
289.6615, 1097.767
290.1436, 1100.613
290.6258, 1103.846
291.1079, 1107.166
291.5900, 1110.665
292.0721, 1114.914
292.5542, 1120.416
293.0363, 1126.396
293.5185, 1131.063
294.0006, 1134.475
294.4827, 1137.637
294.9648, 1141.459
295.4469, 1145.740
295.9290, 1149.814
296.4112, 1153.652
296.8933, 1157.121
297.3754, 1160.132
297.8575, 1162.615
298.3396, 1164.256
298.8217, 1165.576
299.3039, 1165.775
299.7860, 1163.056
300.2681, 1156.876
300.7502, 1148.670
301.2323, 1140.320
301.7144, 1131.371
302.1966, 1120.815
302.6787, 1107.698
303.1608, 1092.662
303.6429, 1076.198
304.1250, 1058.456
304.6071, 1039.558
305.0893, 1019.541
305.5714, 998.4541
306.0535, 977.1937
306.5356, 955.6457
307.0177, 934.1198
307.4998, 913.4302
307.9820, 893.4226
308.4641, 873.3986
308.9462, 852.6364
309.4283, 831.4998
309.9104, 810.7217
310.3925, 790.7381
310.8747, 771.2939
311.3568, 752.2514
311.8389, 733.7072
312.3210, 716.4320
312.8031, 701.1149
313.2852, 686.9744
313.7674, 673.1047
314.2495, 659.0332
314.7316, 645.7250
315.2137, 634.3532
315.6958, 624.3928
316.1779, 614.0906
316.6601, 601.7973
317.1422, 589.4760
317.6243, 578.5519
318.1064, 569.8624
318.5885, 561.5707
319.0706, 553.0855
319.5528, 544.5825
320.0349, 536.4063
320.5170, 529.0334
320.9991, 521.6945
321.4812, 513.8998
321.9633, 505.2723
322.4455, 497.3665
322.9276, 490.5912
323.4097, 484.6129
323.8918, 479.0226
324.3739, 474.1600
324.8560, 469.2928
325.3382, 464.1303
325.8203, 458.5760
326.3024, 453.4573
326.7845, 448.8940
327.2666, 444.7213
327.7487, 440.7956
328.2309, 436.9749
328.7130, 433.6257
329.1951, 431.3160
329.6772, 429.8322
330.1593, 426.9486
330.6414, 421.3958
331.1236, 415.6838
331.6057, 411.1576
332.0878, 408.5065
332.5699, 405.7816
333.0520, 402.8760
333.5341, 399.8755
334.0163, 397.0704
334.4984, 394.6206
334.9805, 392.1372
335.4626, 389.4501
335.9447, 386.5237
336.4268, 383.4322
336.9090, 379.9377
337.3911, 376.4881
337.8732, 373.9765
338.3553, 372.7293
338.8374, 371.2820
339.3195, 368.9507
339.8017, 365.8151
340.2838, 363.7061
340.7659, 362.8913
341.2480, 362.4218
341.7301, 361.1889
342.2122, 359.1278
342.6944, 357.3663
343.1765, 356.2378
343.6586, 355.5422
344.1407, 354.6239
344.6228, 353.4623
345.1049, 352.3361
345.5871, 351.6276
346.0692, 351.2223
346.5513, 350.3272
347.0334, 348.6718
347.5155, 346.8199
347.9977, 345.8764
348.4798, 345.7281
348.9619, 345.5099
349.4440, 344.4929
349.9261, 343.0691
350.4082, 342.1997
350.8904, 342.0021
351.3725, 341.9715
351.8546, 341.4449
352.3367, 340.6497
352.8188, 340.1757
353.3009, 340.6290
353.7831, 341.3546
354.2652, 341.5491
354.7473, 341.2289
355.2294, 340.7990
355.7115, 340.4110
356.1936, 340.1339
356.6758, 340.0691
357.1579, 340.3384
357.6400, 340.7109
358.1221, 341.0958
358.6042, 341.4655
359.0863, 341.7303
359.5685, 341.5954
360.0506, 341.4948
360.5327, 341.8164
361.0148, 342.8181
361.4969, 343.7270
361.9790, 344.0933
362.4612, 344.1740
362.9433, 344.4098
363.4254, 344.8073
363.9075, 345.4910
364.3896, 346.6740
364.8717, 348.4714
365.3539, 349.9118
365.8360, 350.4958
366.3181, 350.7730
366.8002, 351.2629
367.2823, 352.1134
367.7644, 353.0717
368.2466, 354.1122
368.7287, 355.2374
369.2108, 356.4261
369.6929, 357.7285
370.1750, 359.0650
370.6571, 360.4010
371.1393, 361.9264
371.6214, 363.1240
372.1035, 363.7924
372.5856, 364.2106
373.0677, 364.9796
373.5498, 366.1253
374.0320, 367.6012
374.5141, 369.5342
374.9962, 372.0338
375.4783, 373.8701
375.9604, 374.7346
376.4425, 375.4102
376.9247, 376.8607
377.4068, 379.1675
377.8889, 381.7055
378.3710, 384.4801
378.8531, 387.3097
379.3352, 389.3539
379.8174, 390.4984
380.2995, 391.5186
380.7816, 392.9656
381.2637, 394.8210
381.7458, 396.8022
382.2279, 398.8808
382.7101, 401.1107
383.1922, 403.8573
383.6743, 407.0302
384.1564, 409.8160
384.6385, 411.2903
385.1206, 412.1949
385.6028, 414.1888
386.0849, 417.4159
386.5670, 420.8630
387.0491, 423.4637
387.5312, 425.6300
388.0133, 428.2166
388.4955, 431.9184
388.9776, 435.8514
389.4597, 439.2151
389.9418, 442.0511
390.4239, 444.6156
390.9060, 446.8550
391.3882, 448.9991
391.8703, 451.2386
392.3524, 453.6282
392.8345, 456.1403
393.3166, 458.8528
393.7987, 461.6885
394.2809, 464.4481
394.7630, 466.8911
395.2451, 469.4095
395.7272, 472.3041
396.2093, 475.6832
396.6914, 478.7618
397.1736, 481.0237
397.6557, 483.0825
398.1378, 485.5121
398.6199, 488.9593
399.1020, 492.0666
399.5841, 494.5485
400.0663, 496.4915
400.5484, 498.4767
401.0305, 500.3203
401.5126, 502.4055
401.9947, 505.0112
402.4768, 508.5649
402.9590, 511.5734
403.4411, 513.9426
403.9232, 515.8521
404.4053, 517.5426
404.8874, 518.9139
405.3695, 520.4059
405.8517, 522.1266
406.3338, 524.0770
406.8159, 526.5793
407.2980, 529.7933
407.7801, 533.0301
408.2622, 535.5059
408.7444, 537.2657
409.2265, 539.0629
409.7086, 540.9527
410.1907, 543.0676
410.6728, 545.8457
411.1549, 549.2339
411.6371, 552.5912
412.1192, 555.3070
412.6013, 557.7073
413.0834, 560.5786
413.5655, 564.0184
414.0476, 567.4714
414.5298, 570.4631
415.0119, 573.0801
415.4940, 575.5682
415.9761, 577.7200
416.4582, 579.9904
416.9403, 582.8516
417.4225, 586.2299
417.9046, 589.6194
418.3867, 592.5502
418.8688, 595.4179
419.3509, 598.5855
419.8330, 602.5243
420.3152, 605.9830
420.7973, 607.9807
421.2794, 609.2697
421.7615, 611.2301
422.2436, 615.1512
422.7257, 618.9228
423.2079, 621.5684
423.6900, 622.7863
424.1721, 624.9442
424.6542, 628.8121
425.1363, 633.3380
425.6184, 637.8334
426.1006, 642.1207
426.5827, 646.5131
427.0648, 651.0167
427.5469, 655.6470
428.0290, 660.2980
428.5111, 664.8406
428.9933, 669.5974
429.4754, 674.4919
429.9575, 679.3904
430.4396, 685.6970
430.9217, 693.7725
431.4038, 702.5014
431.8860, 710.2350
432.3681, 716.9225
432.8502, 724.0071
433.3323, 731.9049
433.8144, 740.4436
434.2965, 749.1406
434.7787, 758.0088
435.2608, 767.2536
435.7429, 777.0216
436.2250, 787.2930
436.7071, 798.0471
437.1892, 809.3284
437.6714, 820.9887
438.1535, 832.8094
438.6356, 844.8071
439.1177, 856.9034
439.5998, 869.5704
440.0819, 881.9591
440.5641, 892.8799
441.0462, 902.5060
441.5283, 912.7936
442.0104, 925.2792
442.4925, 938.5432
442.9746, 951.1588
443.4568, 962.3989
443.9389, 973.9055
444.4210, 986.9627
444.9031, 1000.545
445.3852, 1012.751
445.8673, 1022.602
446.3495, 1031.445
446.8316, 1039.567
447.3137, 1046.906
447.7958, 1054.208
448.2779, 1061.655
448.7600, 1068.863
449.2422, 1075.560
449.7243, 1081.893
450.2064, 1087.454
450.6885, 1092.139
451.1706, 1096.170
451.6527, 1100.119
452.1349, 1104.110
452.6170, 1107.620
453.0991, 1109.861
453.5812, 1110.971
454.0633, 1114.070
454.5454, 1119.328
455.0276, 1125.796
455.5097, 1132.307
455.9918, 1139.058
456.4739, 1146.882
456.9560, 1156.180
457.4381, 1166.488
457.9203, 1176.818
458.4024, 1187.370
458.8845, 1199.414
459.3666, 1213.573
459.8488, 1229.628
460.3309, 1247.217
460.8130, 1266.256
461.2951, 1286.707
461.7772, 1308.034
462.2593, 1330.593
462.7415, 1354.422
463.2236, 1380.139
463.7057, 1406.548
464.1878, 1432.769
464.6699, 1458.976
465.1520, 1486.499
465.6342, 1515.802
466.1163, 1545.702
466.5984, 1576.069
467.0805, 1607.001
467.5626, 1637.572
468.0447, 1667.850
468.5269, 1697.580
469.0090, 1726.913
469.4911, 1756.101
469.9732, 1784.183
470.4553, 1811.258
470.9374, 1837.149
471.4196, 1861.700
471.9017, 1884.659
472.3838, 1906.545
472.8659, 1927.811
473.3480, 1948.517
473.8301, 1967.484
474.3123, 1984.900
474.7944, 2000.120
475.2765, 2011.996
475.7586, 2020.830
476.2407, 2028.344
476.7228, 2035.597
477.2050, 2041.225
477.6871, 2043.296
478.1692, 2041.921
478.6513, 2037.438
479.1334, 2030.386
479.6155, 2020.218
480.0977, 2006.481
480.5798, 1989.200
481.0619, 1967.895
481.5440, 1941.626
482.0261, 1911.697
482.5082, 1879.370
482.9904, 1845.562
483.4725, 1808.879
483.9546, 1768.353
484.4367, 1724.232
484.9188, 1678.778
485.4009, 1630.823
485.8831, 1582.500
486.3652, 1533.901
486.8473, 1485.295
487.3294, 1437.077
487.8115, 1388.878
488.2936, 1341.385
488.7758, 1294.395
489.2579, 1247.054
489.7400, 1202.456
490.2221, 1161.605
490.7042, 1123.404
491.1863, 1085.884
491.6685, 1048.819
492.1506, 1012.886
492.6327, 978.6624
493.1148, 945.8135
493.5969, 915.2753
494.0790, 886.7053
494.5612, 859.9927
495.0433, 834.8134
495.5254, 811.2155
496.0075, 788.6288
496.4896, 767.0851
496.9717, 746.5342
497.4539, 727.8231
497.9360, 710.3854
498.4181, 693.5284
498.9002, 676.2634
499.3823, 659.7089
499.8644, 644.5419
500.3466, 630.6889
500.8287, 617.8982
501.3108, 606.5114
501.7929, 595.8747
502.2750, 585.5329
502.7571, 575.4589
503.2393, 565.4639
503.7214, 555.2108
504.2035, 545.1378
504.6856, 536.0931
505.1677, 528.6331
505.6498, 521.2465
506.1320, 513.2583
506.6141, 504.6738
507.0962, 497.4797
507.5783, 491.9932
508.0604, 486.8719
508.5425, 480.9020
509.0247, 474.1860
509.5068, 468.0533
509.9889, 462.7902
510.4710, 457.7581
510.9531, 451.8391
511.4352, 445.3252
511.9174, 439.2800
512.3995, 434.0967
512.8816, 429.6670
513.3637, 426.1733
513.8458, 423.4341
514.3279, 420.3741
514.8101, 415.8935
515.2922, 411.1070
515.7743, 406.9181
516.2564, 403.5639
516.7385, 400.4251
517.2206, 397.4066
517.7028, 394.4694
518.1849, 391.5858
518.6670, 388.9359
519.1491, 386.1286
519.6312, 383.0253
520.1133, 379.7274
520.5955, 376.4843
521.0776, 373.2195
521.5597, 370.2075
522.0418, 367.4872
522.5239, 365.0110
523.0060, 363.6602
523.4882, 363.9373
523.9703, 363.9452
524.4524, 361.1457
524.9345, 355.7859
525.4166, 351.2190
525.8987, 347.9303
526.3809, 345.8927
526.8630, 345.9316
527.3451, 347.4270
527.8272, 347.8544
528.3093, 344.8159
528.7914, 340.6939
529.2736, 338.1436
529.7557, 337.1041
530.2378, 336.2451
530.7199, 334.8795
531.2020, 333.3000
531.6841, 331.7264
532.1663, 330.0639
532.6484, 328.6740
533.1305, 327.7386
533.6126, 327.0864
534.0947, 326.4607
534.5768, 326.2679
535.0590, 325.5587
535.5411, 323.8031
536.0232, 321.2982
536.5053, 320.0180
536.9874, 320.4707
537.4695, 321.0566
537.9517, 320.8935
538.4338, 319.9284
538.9159, 319.3789
539.3980, 319.3161
539.8801, 319.3876
540.3622, 319.1371
540.8444, 318.6566
541.3265, 318.4232
541.8086, 318.6561
542.2907, 318.9338
542.7728, 318.6195
543.2549, 317.8839
543.7371, 317.2286
544.2192, 316.8171
544.7013, 316.6505
545.1834, 316.9214
545.6655, 317.5821
546.1476, 317.9058
546.6298, 317.2829
547.1119, 316.4348
547.5940, 315.8469
548.0761, 315.7465
548.5582, 315.5796
549.0403, 315.2612
549.5225, 314.8753
550.0046, 314.5449
550.4867, 314.4065
550.9688, 314.0534
551.4509, 313.4466
551.9330, 312.5601
552.4152, 311.2102
552.8973, 309.2917
553.3794, 307.4810
553.8615, 306.1929
554.3436, 305.3267
554.8257, 304.2418
555.3079, 302.9175
555.7900, 301.8543
556.2721, 301.7293
556.7542, 302.1529
557.2363, 302.6280
557.7184, 303.4122
558.2006, 303.1856
558.6827, 300.1338
559.1648, 295.5059
559.6469, 291.3480
560.1290, 288.5317
560.6111, 286.2657
561.0933, 284.4521
561.5754, 283.0151
562.0575, 281.5752
562.5396, 280.0497
563.0217, 278.5414
563.5038, 277.0587
563.9860, 275.5657
564.4681, 274.2472
564.9502, 273.1558
565.4323, 272.1572
565.9144, 271.1328
566.3965, 270.0696
566.8787, 269.0733
567.3608, 268.1617
567.8429, 267.3337
568.3250, 266.6750
568.8071, 266.1469
569.2892, 265.5612
569.7714, 264.7667
570.2535, 263.9180
570.7356, 263.2616
571.2177, 262.7609
571.6998, 262.2610
572.1819, 261.4098
572.6641, 260.6798
573.1462, 260.4324
573.6283, 260.7337
574.1104, 261.3624
574.5925, 262.4996
575.0746, 263.7997
575.5568, 264.9724
576.0389, 266.0299
576.5210, 266.8353
577.0031, 267.0473
577.4852, 267.1533
577.9673, 268.1715
578.4495, 270.2595
578.9316, 272.8793
579.4137, 276.2738
579.8958, 279.9879
580.3779, 281.9008
580.8600, 281.9320
581.3422, 281.9755
581.8243, 283.3671
582.3064, 285.7231
582.7885, 288.1205
583.2706, 290.4891
583.7527, 293.1319
