##NAMES=Ferrosilite
##RRUFFID=R070386
##IDEAL CHEMISTRY=Fe^2+^_2_Si_2_O_6_
##LOCALITY=Greenland
##OWNER=RRUFF
##SOURCE=Subrata Ghose, collected by Ramberg
##DESCRIPTION=Unconsolidated brown transparent cleavage fragments
##STATUS=The identification of this mineral is confirmed by single-crystal X-ray diffraction and chemical analysis.
##URL=rruff.info/R070386
##MEASURED CHEMISTRY=(Fe^2+^_1.64_Mg_0.32_Al_0.02_Ca_0.02_)_Σ=2_(Si_1.98_Al_0.02_)_Σ=2_O_6_
170.5756, 4655.064
171.0577, 4630.942
171.5398, 4636.765
172.0219, 4648.384
172.5040, 4640.549
172.9861, 4611.793
173.4683, 4591.532
173.9504, 4607.588
174.4325, 4618.860
174.9146, 4586.253
175.3967, 4503.713
175.8788, 4419.709
176.3610, 4391.273
176.8431, 4425.686
177.3252, 4441.022
177.8073, 4391.685
178.2894, 4337.158
178.7715, 4317.419
179.2537, 4337.374
179.7358, 4367.303
180.2179, 4375.104
180.7000, 4357.523
181.1821, 4341.648
181.6642, 4338.217
182.1464, 4333.255
182.6285, 4314.105
183.1106, 4280.667
183.5927, 4250.868
184.0748, 4248.476
184.5569, 4278.930
185.0391, 4300.819
185.5212, 4306.891
186.0033, 4304.242
186.4854, 4292.004
186.9675, 4271.657
187.4496, 4251.557
187.9318, 4242.021
188.4139, 4245.734
188.8960, 4244.396
189.3781, 4229.805
189.8602, 4214.855
190.3423, 4205.908
190.8245, 4203.113
191.3066, 4202.046
191.7887, 4198.423
192.2708, 4191.938
192.7529, 4184.653
193.2350, 4175.525
193.7172, 4166.398
194.1993, 4155.168
194.6814, 4143.523
195.1635, 4137.565
195.6456, 4147.653
196.1277, 4178.305
196.6099, 4193.733
197.0920, 4186.780
197.5741, 4169.625
198.0562, 4137.435
198.5383, 4096.191
199.0204, 4063.451
199.5026, 4061.156
199.9847, 4094.010
200.4668, 4101.313
200.9489, 4044.650
201.4310, 3995.009
201.9131, 3984.847
202.3953, 4003.839
202.8774, 4019.048
203.3595, 4000.169
203.8416, 3946.446
204.3237, 3908.963
204.8058, 3899.453
205.2880, 3896.705
205.7701, 3899.286
206.2522, 3903.881
206.7343, 3905.192
207.2164, 3898.847
207.6985, 3885.233
208.1807, 3871.446
208.6628, 3853.624
209.1449, 3839.963
209.6270, 3832.021
210.1091, 3829.684
210.5912, 3832.442
211.0734, 3839.965
211.5555, 3852.241
212.0376, 3871.566
212.5197, 3928.655
213.0018, 3952.606
213.4839, 3895.825
213.9661, 3803.691
214.4482, 3744.008
214.9303, 3758.253
215.4124, 3825.229
215.8945, 3858.028
216.3766, 3825.072
216.8587, 3801.842
217.3409, 3811.415
217.8230, 3835.351
218.3051, 3852.799
218.7872, 3854.132
219.2693, 3842.811
219.7514, 3825.271
220.2336, 3786.682
220.7157, 3769.226
221.1978, 3793.038
221.6799, 3831.477
222.1620, 3859.330
222.6441, 3867.366
223.1263, 3863.101
223.6084, 3861.593
224.0905, 3866.649
224.5726, 3865.990
225.0547, 3838.490
225.5368, 3817.109
226.0190, 3838.260
226.5011, 3909.084
226.9832, 3989.622
227.4653, 4016.950
227.9474, 3972.828
228.4296, 3928.240
228.9117, 3879.250
229.3938, 3839.164
229.8759, 3817.965
230.3580, 3816.529
230.8401, 3827.164
231.3223, 3845.444
231.8044, 3876.147
232.2865, 3892.376
232.7686, 3872.827
233.2507, 3854.329
233.7328, 3854.799
234.2150, 3873.744
234.6971, 3898.554
235.1792, 3920.684
235.6613, 3940.749
236.1434, 3949.355
236.6255, 3931.710
237.1077, 3916.260
237.5898, 3913.756
238.0719, 3922.852
238.5540, 3938.390
239.0361, 3962.234
239.5182, 3991.756
240.0004, 3996.650
240.4825, 3951.520
240.9646, 3914.101
241.4467, 3908.966
241.9288, 3925.707
242.4109, 3946.903
242.8931, 3967.391
243.3752, 3982.520
243.8573, 3972.127
244.3394, 3916.280
244.8215, 3872.271
245.3036, 3868.022
245.7858, 3883.130
246.2679, 3892.485
246.7500, 3885.084
247.2321, 3868.578
247.7142, 3856.840
248.1963, 3850.627
248.6785, 3846.949
249.1606, 3857.189
249.6427, 3863.354
250.1248, 3843.084
250.6069, 3786.408
251.0890, 3725.070
251.5712, 3702.437
252.0533, 3724.185
252.5354, 3740.916
253.0175, 3745.517
253.4996, 3735.637
253.9817, 3699.839
254.4639, 3636.283
254.9460, 3580.900
255.4281, 3574.968
255.9102, 3614.823
256.3923, 3634.473
256.8745, 3607.557
257.3566, 3574.121
257.8387, 3566.344
258.3208, 3582.607
258.8029, 3604.427
259.2850, 3627.995
259.7672, 3649.368
260.2493, 3652.663
260.7314, 3630.926
261.2135, 3601.330
261.6956, 3573.121
262.1777, 3547.263
262.6599, 3527.376
263.1420, 3518.453
263.6241, 3515.351
264.1062, 3508.483
264.5883, 3496.246
265.0704, 3486.921
265.5526, 3494.799
266.0347, 3508.826
266.5168, 3504.313
266.9989, 3453.487
267.4810, 3401.511
267.9631, 3401.206
268.4453, 3450.701
268.9274, 3493.592
269.4095, 3497.876
269.8916, 3478.007
270.3737, 3471.091
270.8558, 3481.422
271.3380, 3497.709
271.8201, 3516.372
272.3022, 3536.295
272.7843, 3554.080
273.2664, 3569.465
273.7485, 3580.575
274.2307, 3582.980
274.7128, 3575.099
275.1949, 3566.759
275.6770, 3562.595
276.1591, 3559.469
276.6412, 3549.459
277.1234, 3529.320
277.6055, 3512.107
278.0876, 3517.432
278.5697, 3550.559
279.0518, 3574.591
279.5339, 3569.584
280.0161, 3564.948
280.4982, 3596.589
280.9803, 3664.178
281.4624, 3726.304
281.9445, 3745.130
282.4266, 3717.422
282.9088, 3697.995
283.3909, 3682.936
283.8730, 3678.737
284.3551, 3697.825
284.8372, 3731.570
285.3193, 3753.940
285.8015, 3744.970
286.2836, 3714.593
286.7657, 3723.803
287.2478, 3814.089
287.7299, 3891.585
288.2120, 3932.889
288.6942, 3952.709
289.1763, 3968.759
289.6584, 3988.283
290.1405, 4012.855
290.6226, 4047.022
291.1047, 4108.379
291.5869, 4152.055
292.0690, 4161.899
292.5511, 4165.660
293.0332, 4185.631
293.5153, 4225.419
293.9974, 4273.046
294.4796, 4313.229
294.9617, 4342.701
295.4438, 4378.269
295.9259, 4418.653
296.4080, 4465.873
296.8901, 4521.169
297.3723, 4584.268
297.8544, 4655.431
298.3365, 4740.060
298.8186, 4834.812
299.3007, 4895.920
299.7828, 4883.354
300.2650, 4888.542
300.7471, 4945.666
301.2292, 5031.959
301.7113, 5116.415
302.1934, 5185.216
302.6755, 5242.961
303.1577, 5297.972
303.6398, 5348.389
304.1219, 5401.332
304.6040, 5467.580
305.0861, 5531.731
305.5682, 5581.958
306.0504, 5615.490
306.5325, 5637.110
307.0146, 5646.966
307.4967, 5645.265
307.9788, 5650.003
308.4609, 5674.177
308.9431, 5693.713
309.4252, 5689.038
309.9073, 5662.540
310.3894, 5632.296
310.8715, 5603.759
311.3536, 5578.902
311.8358, 5566.919
312.3179, 5574.004
312.8000, 5574.963
313.2821, 5551.130
313.7642, 5507.127
314.2463, 5450.102
314.7285, 5363.296
315.2106, 5277.534
315.6927, 5225.665
316.1748, 5204.833
316.6569, 5185.195
317.1390, 5152.666
317.6212, 5111.601
318.1033, 5073.847
318.5854, 5040.245
319.0675, 5008.207
319.5496, 4979.604
320.0317, 4951.394
320.5139, 4915.439
320.9960, 4868.359
321.4781, 4820.935
321.9602, 4790.202
322.4423, 4782.733
322.9244, 4771.665
323.4066, 4757.606
323.8887, 4738.396
324.3708, 4712.888
324.8529, 4680.712
325.3350, 4639.651
325.8171, 4584.932
326.2993, 4515.554
326.7814, 4471.040
327.2635, 4469.607
327.7456, 4469.378
328.2277, 4463.890
328.7098, 4449.490
329.1920, 4418.834
329.6741, 4367.317
330.1562, 4304.638
330.6383, 4259.473
331.1204, 4248.889
331.6025, 4228.875
332.0847, 4186.068
332.5668, 4140.024
333.0489, 4107.630
333.5310, 4091.802
334.0131, 4080.570
334.4952, 4060.079
334.9774, 4029.256
335.4595, 3996.328
335.9416, 3955.611
336.4237, 3918.430
336.9058, 3888.757
337.3879, 3866.459
337.8701, 3850.362
338.3522, 3840.159
338.8343, 3835.380
339.3164, 3835.072
339.7985, 3840.328
340.2806, 3847.105
340.7627, 3857.482
341.2448, 3866.878
341.7270, 3868.025
342.2091, 3856.252
342.6912, 3844.319
343.1733, 3843.311
343.6554, 3852.787
344.1375, 3871.899
344.6197, 3909.382
345.1018, 3944.481
345.5839, 3948.631
346.0660, 3921.334
346.5481, 3894.357
347.0302, 3879.219
347.5124, 3870.806
347.9945, 3859.298
348.4766, 3843.352
348.9587, 3836.606
349.4408, 3855.778
349.9229, 3898.800
350.4051, 3918.889
350.8872, 3895.322
351.3693, 3870.432
351.8514, 3869.951
352.3335, 3884.327
352.8156, 3889.163
353.2978, 3872.375
353.7799, 3840.952
354.2620, 3812.536
354.7441, 3787.596
355.2262, 3765.478
355.7083, 3747.912
356.1905, 3732.060
356.6726, 3715.172
357.1547, 3696.962
357.6368, 3679.042
358.1189, 3661.745
358.6010, 3643.423
359.0832, 3638.630
359.5653, 3674.177
360.0474, 3696.485
360.5295, 3679.210
361.0116, 3637.541
361.4937, 3599.334
361.9759, 3579.020
362.4580, 3573.568
362.9401, 3579.536
363.4222, 3606.894
363.9043, 3618.552
364.3864, 3592.320
364.8686, 3554.196
365.3507, 3520.102
365.8328, 3493.140
366.3149, 3475.971
366.7970, 3472.438
367.2791, 3481.322
367.7613, 3499.081
368.2434, 3534.252
368.7255, 3560.899
369.2076, 3550.421
369.6897, 3512.791
370.1718, 3479.006
370.6540, 3454.925
371.1361, 3440.235
371.6182, 3439.864
372.1003, 3451.837
372.5824, 3458.491
373.0645, 3450.117
373.5467, 3430.892
374.0288, 3412.456
374.5109, 3392.115
374.9930, 3377.069
375.4751, 3371.226
375.9572, 3370.793
376.4394, 3373.446
376.9215, 3378.047
377.4036, 3378.646
377.8857, 3367.114
378.3678, 3339.476
378.8499, 3319.452
379.3321, 3311.717
379.8142, 3305.585
380.2963, 3293.282
380.7784, 3279.155
381.2605, 3275.608
381.7426, 3291.479
382.2248, 3316.383
382.7069, 3315.040
383.1890, 3270.339
383.6711, 3231.740
384.1532, 3192.475
384.6353, 3170.450
385.1175, 3192.122
385.5996, 3256.681
386.0817, 3319.748
386.5638, 3335.861
387.0459, 3308.241
387.5280, 3277.091
388.0102, 3235.775
388.4923, 3205.861
388.9744, 3208.626
389.4565, 3230.897
389.9386, 3244.629
390.4207, 3237.277
390.9029, 3221.486
391.3850, 3209.499
391.8671, 3201.066
392.3492, 3194.247
392.8313, 3188.518
393.3134, 3183.793
393.7956, 3180.098
394.2777, 3177.519
394.7598, 3175.281
395.2419, 3176.463
395.7240, 3176.163
396.2061, 3166.885
396.6883, 3148.632
397.1704, 3130.632
397.6525, 3122.086
398.1346, 3123.099
398.6167, 3114.028
399.0988, 3083.293
399.5810, 3057.111
400.0631, 3042.431
400.5452, 3036.836
401.0273, 3040.500
401.5094, 3053.080
401.9915, 3063.343
402.4737, 3048.041
402.9558, 2993.117
403.4379, 2954.113
403.9200, 2945.863
404.4021, 2943.608
404.8842, 2937.141
405.3664, 2926.264
405.8485, 2914.752
406.3306, 2907.002
406.8127, 2899.517
407.2948, 2880.011
407.7769, 2843.773
408.2591, 2812.783
408.7412, 2803.950
409.2233, 2802.206
409.7054, 2785.227
410.1875, 2743.950
410.6696, 2712.420
411.1518, 2719.951
411.6339, 2751.533
412.1160, 2774.466
412.5981, 2782.535
413.0802, 2779.183
413.5623, 2764.032
414.0445, 2735.887
414.5266, 2719.500
415.0087, 2729.694
415.4908, 2737.032
415.9729, 2717.319
416.4550, 2683.567
416.9372, 2667.438
417.4193, 2684.492
417.9014, 2719.037
418.3835, 2735.090
418.8656, 2715.251
419.3477, 2707.447
419.8299, 2725.675
420.3120, 2743.326
420.7941, 2742.659
421.2762, 2724.817
421.7583, 2702.287
422.2404, 2683.664
422.7226, 2668.698
423.2047, 2655.383
423.6868, 2643.064
424.1689, 2634.053
424.6510, 2624.877
425.1331, 2621.447
425.6153, 2633.838
426.0974, 2666.648
426.5795, 2698.577
427.0616, 2709.662
427.5437, 2706.018
428.0258, 2711.568
428.5080, 2734.609
428.9901, 2751.435
429.4722, 2732.952
429.9543, 2683.085
430.4364, 2652.758
430.9185, 2652.613
431.4007, 2665.498
431.8828, 2693.867
432.3649, 2727.118
432.8470, 2739.669
433.3291, 2719.851
433.8112, 2683.198
434.2934, 2659.584
434.7755, 2651.845
435.2576, 2652.931
435.7397, 2673.471
436.2218, 2692.565
436.7039, 2697.194
437.1861, 2689.233
437.6682, 2677.926
438.1503, 2669.317
438.6324, 2662.571
439.1145, 2652.667
439.5966, 2633.420
440.0788, 2626.928
440.5609, 2658.389
441.0430, 2694.078
441.5251, 2704.783
442.0072, 2686.374
442.4893, 2661.105
442.9715, 2638.251
443.4536, 2620.278
443.9357, 2617.189
444.4178, 2632.735
444.8999, 2642.740
445.3820, 2624.109
445.8642, 2584.545
446.3463, 2565.960
446.8284, 2577.202
447.3105, 2598.633
447.7926, 2637.581
448.2747, 2677.373
448.7569, 2690.068
449.2390, 2668.287
449.7211, 2628.482
450.2032, 2587.889
450.6853, 2540.962
451.1674, 2523.264
451.6496, 2570.659
452.1317, 2607.706
452.6138, 2592.106
453.0959, 2551.747
453.5780, 2539.884
454.0602, 2583.819
454.5423, 2644.333
455.0244, 2649.167
455.5065, 2589.166
455.9886, 2546.435
456.4707, 2538.513
456.9529, 2549.100
457.4350, 2570.277
457.9171, 2599.242
458.3992, 2622.177
458.8813, 2637.724
459.3634, 2641.852
459.8456, 2620.614
460.3277, 2578.446
460.8098, 2550.201
461.2919, 2553.667
461.7740, 2577.702
462.2561, 2600.058
462.7383, 2627.559
463.2204, 2638.058
463.7025, 2609.023
464.1846, 2577.568
464.6667, 2575.614
465.1488, 2600.468
465.6310, 2629.160
466.1131, 2645.568
466.5952, 2651.370
467.0773, 2654.982
467.5594, 2659.623
468.0415, 2655.853
468.5237, 2632.551
469.0058, 2607.625
469.4879, 2596.390
469.9700, 2600.272
470.4521, 2607.872
470.9342, 2610.192
471.4164, 2609.354
471.8985, 2612.966
472.3806, 2622.425
472.8627, 2630.468
473.3448, 2634.269
473.8269, 2632.821
474.3091, 2623.647
474.7912, 2597.127
475.2733, 2580.978
475.7554, 2593.817
476.2375, 2619.810
476.7196, 2637.992
477.2018, 2644.649
477.6839, 2647.612
478.1660, 2654.229
478.6481, 2664.492
479.1302, 2672.312
479.6123, 2685.966
480.0945, 2686.935
480.5766, 2665.774
481.0587, 2633.228
481.5408, 2594.391
482.0229, 2552.450
482.5050, 2524.221
482.9872, 2535.990
483.4693, 2584.608
483.9514, 2619.378
484.4335, 2633.696
484.9156, 2642.402
485.3977, 2658.165
485.8799, 2674.061
486.3620, 2674.704
486.8441, 2644.228
487.3262, 2621.412
487.8083, 2640.764
488.2904, 2683.616
488.7726, 2711.016
489.2547, 2713.672
489.7368, 2705.828
490.2189, 2700.991
490.7010, 2698.995
491.1831, 2702.658
491.6653, 2715.473
492.1474, 2729.109
492.6295, 2746.501
493.1116, 2761.096
493.5937, 2760.365
494.0758, 2741.240
494.5580, 2721.790
495.0401, 2731.938
495.5222, 2774.100
496.0043, 2790.853
496.4864, 2756.985
496.9685, 2733.526
497.4507, 2769.330
497.9328, 2835.327
498.4149, 2877.259
498.8970, 2872.303
499.3791, 2859.739
499.8612, 2872.058
500.3434, 2899.320
500.8255, 2916.992
501.3076, 2919.271
501.7897, 2912.311
502.2718, 2899.911
502.7539, 2880.921
503.2361, 2874.934
503.7182, 2886.272
504.2003, 2903.636
504.6824, 2928.688
505.1645, 2955.545
505.6466, 2976.885
506.1288, 2990.448
506.6109, 3000.179
507.0930, 3011.842
507.5751, 3025.796
508.0572, 3032.695
508.5393, 3026.164
509.0215, 3022.618
509.5036, 3034.621
509.9857, 3053.569
510.4678, 3065.354
510.9499, 3064.073
511.4320, 3062.313
511.9142, 3067.316
512.3963, 3078.670
512.8784, 3098.205
513.3605, 3126.591
513.8427, 3151.975
514.3248, 3161.453
514.8069, 3155.474
515.2890, 3163.844
515.7711, 3212.167
516.2532, 3241.707
516.7354, 3222.929
517.2175, 3187.592
517.6996, 3169.610
518.1817, 3176.794
518.6638, 3195.775
519.1459, 3214.424
519.6281, 3232.701
520.1102, 3252.728
520.5923, 3279.590
521.0744, 3296.737
521.5565, 3288.237
522.0386, 3268.814
522.5208, 3257.320
523.0029, 3259.033
523.4850, 3255.496
523.9671, 3232.297
524.4492, 3199.930
524.9313, 3170.636
525.4135, 3146.813
525.8956, 3135.128
526.3777, 3142.147
526.8598, 3163.771
527.3419, 3178.565
527.8240, 3183.080
528.3062, 3184.715
528.7883, 3184.892
529.2704, 3181.628
529.7525, 3173.817
530.2346, 3161.104
530.7167, 3142.740
531.1989, 3115.702
531.6810, 3084.063
532.1631, 3058.790
532.6452, 3039.873
533.1273, 3027.044
533.6094, 3021.640
534.0916, 3021.234
534.5737, 3023.069
535.0558, 3027.296
535.5379, 3031.173
536.0200, 3034.523
536.5021, 3036.766
536.9843, 3035.417
537.4664, 3032.308
537.9485, 3033.299
538.4306, 3041.450
538.9127, 3053.687
539.3948, 3064.860
539.8770, 3079.856
540.3591, 3081.684
540.8412, 3059.104
541.3233, 3034.382
541.8054, 3007.340
542.2875, 2986.583
542.7697, 2991.824
543.2518, 3040.359
543.7339, 3094.312
544.2160, 3104.333
544.6981, 3078.168
545.1802, 3057.427
545.6624, 3050.805
546.1445, 3050.543
546.6266, 3049.109
547.1087, 3054.243
547.5908, 3052.035
548.0729, 3071.569
548.5551, 3089.804
549.0372, 3104.327
549.5193, 3113.317
550.0014, 3111.036
550.4835, 3098.116
550.9656, 3086.785
551.4478, 3091.019
551.9299, 3109.415
552.4120, 3124.775
552.8941, 3142.385
553.3762, 3145.507
553.8583, 3108.542
554.3405, 3063.604
554.8226, 3045.680
555.3047, 3060.551
555.7868, 3075.936
556.2689, 3071.715
556.7510, 3061.979
557.2332, 3066.561
557.7153, 3084.324
558.1974, 3101.488
558.6795, 3111.661
559.1616, 3113.250
559.6437, 3100.308
560.1259, 3048.493
560.6080, 3028.784
561.0901, 3067.468
561.5722, 3108.792
562.0543, 3130.030
562.5364, 3129.508
563.0186, 3107.066
563.5007, 3057.296
563.9828, 3001.044
564.4649, 2968.443
564.9470, 2957.098
565.4291, 2944.490
565.9113, 2923.498
566.3934, 2909.460
566.8755, 2922.804
567.3576, 2960.352
567.8397, 2974.303
568.3218, 2936.127
568.8040, 2908.438
569.2861, 2922.154
569.7682, 2952.335
570.2503, 2973.457
570.7324, 2978.700
571.2145, 2968.341
571.6967, 2938.571
572.1788, 2893.745
572.6609, 2865.018
573.1430, 2858.381
573.6251, 2851.362
574.1072, 2835.203
574.5894, 2816.471
575.0715, 2801.051
575.5536, 2789.180
576.0357, 2779.859
576.5178, 2774.846
576.9999, 2770.638
577.4821, 2766.853
577.9642, 2761.242
578.4463, 2747.836
578.9284, 2724.098
579.4105, 2689.932
579.8926, 2640.289
580.3748, 2559.974
580.8569, 2522.324
581.3390, 2585.196
581.8211, 2630.702
582.3032, 2606.023
582.7853, 2546.275
583.2675, 2505.261
583.7496, 2500.371
584.2317, 2500.018
584.7138, 2473.062
585.1959, 2430.683
585.6780, 2398.763
586.1602, 2380.011
586.6422, 2376.765
587.1243, 2396.573
587.6064, 2428.563
588.0886, 2435.310
588.5707, 2399.479
589.0528, 2363.175
589.5349, 2314.065
590.0170, 2275.754
590.4991, 2272.724
590.9813, 2294.568
591.4634, 2311.554
591.9455, 2306.931
592.4276, 2290.948
592.9097, 2280.590
593.3918, 2275.544
593.8740, 2265.415
594.3561, 2246.055
594.8382, 2226.486
595.3203, 2214.599
595.8024, 2209.643
596.2845, 2203.918
596.7667, 2190.296
597.2488, 2184.395
597.7309, 2201.650
598.2130, 2222.972
598.6951, 2224.144
599.1772, 2204.562
599.6594, 2183.174
600.1415, 2174.732
600.6236, 2177.209
601.1057, 2185.074
601.5878, 2200.986
602.0699, 2211.429
602.5521, 2216.670
603.0342, 2210.969
603.5163, 2179.710
603.9984, 2127.669
604.4805, 2097.543
604.9626, 2114.406
605.4448, 2141.321
605.9269, 2159.473
606.4090, 2169.970
606.8911, 2175.272
607.3732, 2176.299
607.8553, 2174.219
608.3375, 2169.798
608.8196, 2163.202
609.3017, 2158.172
609.7838, 2154.852
610.2659, 2152.839
610.7480, 2150.619
611.2302, 2150.581
611.7123, 2162.096
612.1944, 2184.613
612.6765, 2186.065
613.1586, 2122.758
613.6407, 2055.211
614.1229, 2050.304
614.6050, 2093.185
615.0871, 2136.942
615.5692, 2164.192
616.0513, 2176.984
616.5334, 2174.760
617.0156, 2153.319
617.4977, 2151.673
617.9798, 2193.052
618.4619, 2223.492
618.9440, 2209.987
619.4261, 2187.805
619.9083, 2204.573
620.3904, 2268.290
620.8725, 2318.840
621.3546, 2303.208
621.8367, 2262.632
622.3188, 2254.344
622.8010, 2276.524
623.2831, 2303.613
623.7652, 2324.455
624.2473, 2344.956
624.7294, 2377.628
625.2115, 2430.983
625.6937, 2461.801
626.1758, 2453.882
626.6579, 2440.789
627.1400, 2425.135
627.6221, 2413.061
628.1042, 2409.762
628.5864, 2416.283
629.0685, 2438.471
629.5506, 2496.640
630.0327, 2566.937
630.5148, 2602.371
630.9969, 2604.258
631.4791, 2607.622
631.9612, 2629.010
632.4433, 2662.073
632.9254, 2694.895
633.4075, 2726.979
633.8896, 2760.390
634.3718, 2801.870
634.8539, 2837.246
635.3360, 2856.290
635.8181, 2867.942
636.3002, 2887.083
636.7823, 2918.167
637.2645, 2944.934
637.7466, 2948.186
638.2287, 2940.067
638.7108, 2946.562
639.1929, 2968.112
639.6750, 2989.732
640.1572, 3005.473
640.6393, 3013.346
641.1214, 3007.947
641.6035, 2979.637
642.0856, 2965.865
642.5677, 2977.849
643.0499, 2990.914
643.5320, 2987.246
644.0141, 2982.333
644.4962, 3003.426
644.9783, 3058.990
645.4604, 3114.090
645.9426, 3131.500
646.4247, 3132.254
646.9068, 3158.950
647.3889, 3211.890
647.8710, 3266.754
648.3531, 3311.230
648.8353, 3351.520
649.3174, 3398.934
649.7995, 3454.143
650.2816, 3513.625
650.7637, 3589.424
651.2458, 3655.486
651.7280, 3684.659
652.2101, 3706.531
652.6922, 3767.568
653.1743, 3879.574
653.6564, 3989.349
654.1385, 4049.219
654.6207, 4086.473
655.1028, 4148.680
655.5849, 4234.424
656.0670, 4315.272
656.5491, 4378.166
657.0313, 4431.620
657.5134, 4491.713
657.9955, 4567.092
658.4776, 4610.162
658.9597, 4587.271
659.4418, 4570.629
659.9240, 4600.078
660.4061, 4635.429
660.8882, 4622.150
661.3703, 4551.269
661.8524, 4481.315
662.3345, 4458.820
662.8167, 4449.013
663.2988, 4412.773
663.7809, 4349.945
664.2630, 4260.828
664.7451, 4144.856
665.2272, 4023.305
665.7094, 3927.349
