##NAMES=Ferri-winchite
##RRUFFID=R060038
##IDEAL CHEMISTRY=[box]NaCa(Mg_4_Fe^3+^)Si_8_O_22_(OH)_2_
##LOCALITY=Imerina, Madagascar
##OWNER=RRUFF
##SOURCE=University of Arizona Mineral Museum
##DESCRIPTION=Deep black-blue bladed single crystals embedded in dolomite
##STATUS=The identification of this mineral is confirmed by single-crystal X-ray diffraction and chemical analysis.
##URL=rruff.info/R060038
##MEASURED CHEMISTRY=([box]_0.70_Na_0.21_K_0.09_)_Σ=1_(Na_1.40_Ca_0.60_)_Σ=2_(Mg_3.56_Fe^3+^_1.06_Fe^2+^_0.28_Al_0.08_Ti_0.01_)_Σ=5_(Si_7.96_Al_0.04_)_Σ=8.00_O_22_((OH)_1.85_F_0.15_)_Σ=2_
123.3791, 141.7827
123.8613, 141.5634
124.3434, 141.6725
124.8255, 142.0871
125.3076, 142.5199
125.7897, 142.7063
126.2718, 142.6185
126.7540, 142.6422
127.2361, 142.9378
127.7182, 143.3103
128.2003, 143.6541
128.6824, 143.9524
129.1645, 144.2699
129.6467, 144.7330
130.1288, 145.4677
130.6109, 146.0923
131.0930, 146.4874
131.5751, 146.8202
132.0572, 147.2514
132.5394, 147.8488
133.0215, 148.5353
133.5036, 149.0706
133.9857, 149.3448
134.4678, 149.5769
134.9499, 149.7553
135.4321, 149.9085
135.9142, 150.0776
136.3963, 150.2868
136.8784, 150.5321
137.3605, 150.7812
137.8426, 151.0611
138.3248, 151.3221
138.8069, 151.5193
139.2890, 151.6674
139.7711, 151.8414
140.2532, 152.0867
140.7353, 152.4102
141.2175, 152.7862
141.6996, 153.1975
142.1817, 153.6709
142.6638, 154.2170
143.1459, 154.8193
143.6280, 155.5641
144.1102, 156.5982
144.5923, 157.8099
145.0744, 159.0389
145.5565, 160.1787
146.0386, 161.2841
146.5207, 162.5329
147.0029, 163.9674
147.4850, 165.5071
147.9671, 167.0654
148.4492, 168.6755
148.9313, 170.4095
149.4134, 172.3219
149.8955, 174.4140
150.3777, 176.6236
150.8598, 179.2251
151.3419, 181.7172
151.8240, 184.0154
152.3061, 186.0731
152.7882, 187.8263
153.2704, 189.2294
153.7525, 190.2996
154.2346, 190.8913
154.7167, 190.8432
155.1988, 190.5666
155.6809, 190.2022
156.1631, 189.8152
156.6452, 189.4949
157.1273, 189.3580
157.6094, 189.4394
158.0915, 189.6948
158.5736, 190.0454
159.0558, 190.5990
159.5379, 191.5226
160.0200, 192.8703
160.5021, 194.4371
160.9842, 195.8666
161.4663, 197.1396
161.9485, 198.3790
162.4306, 199.6164
162.9127, 200.8388
163.3948, 202.0249
163.8769, 203.1454
164.3590, 204.2674
164.8412, 205.4803
165.3233, 206.7895
165.8054, 208.1637
166.2875, 209.7084
166.7696, 211.3761
167.2517, 212.7611
167.7339, 213.6704
168.2160, 214.2531
168.6981, 214.7396
169.1802, 215.1811
169.6623, 215.3160
170.1444, 214.9661
170.6266, 214.1735
171.1087, 212.6310
171.5908, 209.8142
172.0729, 206.4399
172.5550, 202.7849
173.0371, 198.9119
173.5193, 195.0913
174.0014, 191.7638
174.4835, 189.2178
174.9656, 186.5837
175.4477, 183.4862
175.9298, 180.3588
176.4120, 177.5581
176.8941, 175.2332
177.3762, 173.3070
177.8583, 171.5830
178.3404, 170.0120
178.8225, 168.7588
179.3047, 167.9313
179.7868, 167.3725
180.2689, 166.9225
180.7510, 166.5065
181.2331, 166.1090
181.7152, 165.6676
182.1974, 165.0080
182.6795, 164.4977
183.1616, 164.3231
183.6437, 164.3279
184.1258, 164.2122
184.6079, 163.7772
185.0900, 163.1083
185.5722, 162.7818
186.0543, 163.0039
186.5364, 163.2603
187.0185, 163.3621
187.5006, 163.3417
187.9827, 163.2993
188.4649, 163.2551
188.9470, 163.2595
189.4291, 163.4697
189.9112, 164.0756
190.3933, 164.7102
190.8754, 165.1115
191.3576, 165.2973
191.8397, 165.4689
192.3218, 165.6804
192.8039, 165.9927
193.2860, 166.5061
193.7681, 167.2047
194.2503, 168.1367
194.7324, 169.5451
195.2145, 171.5541
195.6966, 173.2477
196.1787, 173.7198
196.6608, 173.6579
197.1430, 173.8267
197.6251, 174.4899
198.1072, 175.4541
198.5893, 176.4138
199.0714, 177.3670
199.5535, 178.3314
200.0357, 179.3324
200.5178, 180.3412
200.9999, 181.3245
201.4820, 182.2616
201.9641, 183.1783
202.4462, 184.1591
202.9284, 185.3054
203.4105, 186.3437
203.8926, 187.1969
204.3747, 187.9203
204.8568, 188.5688
205.3389, 189.1560
205.8211, 189.7080
206.3032, 190.3412
206.7853, 191.2882
207.2674, 192.0212
207.7495, 192.3318
208.2316, 192.4003
208.7138, 192.4977
209.1959, 192.7993
209.6780, 193.2504
210.1601, 193.4382
210.6422, 193.0504
211.1243, 192.7140
211.6065, 192.5873
212.0886, 192.5786
212.5707, 192.5184
213.0528, 192.2926
213.5349, 191.9253
214.0170, 191.6572
214.4992, 191.5189
214.9813, 191.4343
215.4634, 191.4333
215.9455, 191.4734
216.4276, 191.4695
216.9097, 191.3631
217.3919, 191.1666
217.8740, 190.9994
218.3561, 191.0240
218.8382, 190.9093
219.3203, 190.4890
219.8024, 189.8203
220.2845, 189.0882
220.7667, 188.4230
221.2488, 187.7657
221.7309, 186.8443
222.2130, 185.5367
222.6951, 184.1247
223.1772, 182.7003
223.6594, 181.2697
224.1415, 179.8810
224.6236, 178.6180
225.1057, 177.3755
225.5878, 175.8518
226.0699, 173.8534
226.5521, 171.7903
227.0342, 169.8953
227.5163, 168.1582
227.9984, 166.5228
228.4805, 164.9906
228.9626, 163.5262
229.4448, 162.0491
229.9269, 160.5435
230.4090, 159.0518
230.8911, 157.5577
231.3732, 156.0661
231.8553, 154.7258
232.3375, 153.6993
232.8196, 152.8267
233.3017, 151.9117
233.7838, 150.9055
234.2659, 149.9153
234.7480, 149.0506
235.2302, 148.3151
235.7123, 147.6740
236.1944, 147.1874
236.6765, 146.7579
237.1586, 146.3107
237.6407, 145.8309
238.1229, 145.3361
238.6050, 144.8046
239.0871, 144.2023
239.5692, 143.7611
240.0513, 143.7363
240.5334, 143.7854
241.0156, 143.6826
241.4977, 143.3761
241.9798, 142.9606
242.4619, 142.5329
242.9440, 142.0661
243.4261, 141.6858
243.9083, 141.3986
244.3904, 141.2113
244.8725, 141.1692
245.3546, 141.2700
245.8367, 141.4213
246.3188, 141.5023
246.8010, 141.4981
247.2831, 141.4654
247.7652, 141.3330
248.2473, 141.2291
248.7294, 141.2543
249.2115, 141.4132
249.6937, 141.6166
250.1758, 141.7512
250.6579, 141.7988
251.1400, 141.8240
251.6221, 141.8484
252.1042, 141.8385
252.5864, 141.7772
253.0685, 141.6610
253.5506, 141.4940
254.0327, 141.2716
254.5148, 140.9661
254.9969, 140.6960
255.4790, 140.5033
255.9612, 140.3039
256.4433, 140.0921
256.9254, 139.8446
257.4075, 139.4906
257.8896, 138.9236
258.3718, 138.0379
258.8539, 137.4285
259.3360, 137.2632
259.8181, 137.1654
260.3002, 136.9280
260.7823, 136.5650
261.2645, 136.2297
261.7466, 136.0747
262.2287, 136.1342
262.7108, 136.1238
263.1929, 136.0444
263.6750, 135.9131
264.1572, 135.6888
264.6393, 135.4060
265.1214, 135.1732
265.6035, 135.0885
266.0856, 135.1599
266.5677, 135.1212
267.0499, 134.9033
267.5320, 134.6696
268.0141, 134.4526
268.4962, 134.2718
268.9783, 134.1632
269.4604, 134.1541
269.9426, 134.2404
270.4247, 134.3648
270.9068, 134.5590
271.3889, 134.7494
271.8710, 134.9303
272.3531, 135.0876
272.8352, 135.1846
273.3174, 135.1920
273.7995, 135.1307
274.2816, 135.1031
274.7637, 135.0640
275.2458, 135.0986
275.7279, 135.2991
276.2101, 135.5917
276.6922, 135.7985
277.1743, 135.8163
277.6564, 135.7442
278.1385, 135.8964
278.6206, 136.4088
279.1028, 136.8409
279.5849, 137.0133
280.0670, 137.0310
280.5491, 137.0609
281.0312, 137.1501
281.5133, 137.3152
281.9955, 137.6439
282.4776, 138.2263
282.9597, 138.6360
283.4418, 138.6378
283.9239, 138.4385
284.4060, 138.3652
284.8882, 138.5098
285.3703, 138.7565
285.8524, 138.9527
286.3345, 139.0954
286.8166, 139.2463
287.2987, 139.4219
287.7809, 139.6104
288.2630, 139.7855
288.7451, 139.9375
289.2272, 140.1175
289.7093, 140.3874
290.1914, 140.7442
290.6736, 141.1171
291.1557, 141.5556
291.6378, 141.9760
292.1199, 142.2715
292.6020, 142.4288
293.0841, 142.5494
293.5663, 142.6807
294.0484, 142.8398
294.5305, 143.0957
295.0126, 143.5742
295.4947, 144.0697
295.9768, 144.4072
296.4590, 144.5848
296.9411, 144.6758
297.4232, 144.7054
297.9053, 144.6760
298.3874, 144.6130
298.8695, 144.4525
299.3517, 144.3284
299.8338, 144.3949
300.3159, 144.6171
300.7980, 144.7538
301.2801, 144.6838
301.7622, 144.4616
302.2444, 144.2296
302.7265, 144.0029
303.2086, 143.7336
303.6907, 143.3637
304.1728, 142.9214
304.6549, 142.4860
305.1371, 142.0146
305.6192, 141.6665
306.1013, 141.7494
306.5834, 142.3222
307.0655, 142.7541
307.5476, 142.6289
308.0298, 142.1733
308.5119, 141.9234
308.9940, 142.0246
309.4761, 142.2612
309.9582, 142.4112
310.4403, 142.4873
310.9225, 142.5478
311.4046, 142.6021
311.8867, 142.6551
312.3688, 142.7252
312.8509, 142.8221
313.3330, 142.8933
313.8152, 142.8774
314.2973, 142.7955
314.7794, 142.7110
315.2615, 142.5619
315.7436, 142.4594
316.2257, 142.5445
316.7079, 142.8250
317.1900, 143.1680
317.6721, 143.5424
318.1542, 143.9089
318.6363, 144.1844
319.1184, 144.3541
319.6006, 144.4406
320.0827, 144.4357
320.5648, 144.3488
321.0469, 144.2471
321.5290, 144.1460
322.0111, 144.0563
322.4933, 143.9896
322.9754, 143.9429
323.4575, 143.9250
323.9396, 143.9433
324.4217, 143.9942
324.9038, 144.0728
325.3860, 144.1902
325.8681, 144.3110
326.3502, 144.3916
326.8323, 144.4361
327.3144, 144.4459
327.7965, 144.3597
328.2787, 144.2552
328.7608, 144.2929
329.2429, 144.5219
329.7250, 144.7707
330.2071, 144.8718
330.6892, 144.8445
331.1714, 144.7755
331.6535, 144.5730
332.1356, 144.3998
332.6177, 144.4964
333.0998, 144.8731
333.5819, 145.1983
334.0641, 145.2439
334.5462, 145.0468
335.0283, 144.8304
335.5104, 144.6366
335.9925, 144.3887
336.4746, 143.9925
336.9568, 143.4812
337.4389, 143.0045
337.9210, 142.5981
338.4031, 142.2988
338.8852, 142.2015
339.3673, 142.4004
339.8495, 142.5457
340.3316, 142.4895
340.8137, 142.2836
341.2958, 142.0005
341.7779, 141.6385
342.2600, 141.2884
342.7421, 141.1015
343.2242, 141.0896
343.7064, 141.0805
344.1885, 141.0181
344.6706, 140.9554
345.1527, 140.9525
345.6348, 141.0179
346.1169, 141.1275
346.5991, 141.2757
347.0812, 141.4633
347.5633, 141.5970
348.0454, 141.6068
348.5275, 141.6217
349.0096, 141.7057
349.4918, 141.8656
349.9739, 142.1146
350.4560, 142.4760
350.9381, 142.9275
351.4202, 143.3578
351.9023, 143.7703
352.3845, 144.1584
352.8666, 144.5318
353.3487, 144.8790
353.8308, 145.1613
354.3129, 145.3566
354.7950, 145.5226
355.2772, 145.7838
355.7593, 146.2212
356.2414, 146.5734
356.7235, 146.6867
357.2056, 146.7755
357.6877, 147.0763
358.1699, 147.6229
358.6520, 148.2479
359.1341, 148.7723
359.6162, 149.1696
360.0983, 149.6033
360.5804, 150.0519
361.0626, 150.5520
361.5447, 151.1314
362.0268, 151.7855
362.5089, 152.5014
362.9910, 153.2791
363.4731, 154.1087
363.9553, 154.8664
364.4374, 155.4854
364.9195, 156.1250
365.4016, 156.8020
365.8837, 157.5236
366.3658, 158.3255
366.8480, 159.2238
367.3301, 160.1394
367.8122, 160.8928
368.2943, 161.3442
368.7764, 161.8394
369.2585, 162.4929
369.7407, 163.1089
370.2228, 163.5950
370.7049, 163.9081
371.1870, 163.9820
371.6691, 163.7118
372.1512, 163.0343
372.6334, 162.4030
373.1155, 162.0791
373.5976, 161.5471
374.0797, 160.5010
374.5618, 159.0987
375.0439, 157.6578
375.5261, 156.3683
376.0082, 155.2331
376.4903, 154.2611
376.9724, 153.5369
377.4545, 152.8654
377.9366, 152.1630
378.4188, 151.5127
378.9009, 151.0278
379.3830, 150.7426
379.8651, 150.5379
380.3472, 150.2108
380.8293, 149.6900
381.3115, 149.2761
381.7936, 149.0174
382.2757, 148.8534
382.7578, 148.7844
383.2399, 148.7935
383.7220, 148.8258
384.2042, 148.7927
384.6863, 148.7121
385.1684, 148.8757
385.6505, 149.5675
386.1326, 150.0980
386.6147, 149.9658
387.0969, 149.5554
387.5790, 149.5364
388.0611, 150.3267
388.5432, 151.4216
389.0253, 151.8849
389.5074, 151.6016
389.9896, 151.1989
390.4717, 150.7936
390.9538, 150.4046
391.4359, 150.0706
391.9180, 149.8000
392.4001, 149.5032
392.8823, 149.0681
393.3644, 148.5259
393.8465, 148.0798
394.3286, 147.8283
394.8107, 147.5724
395.2928, 147.1091
395.7750, 146.4953
396.2571, 145.9340
396.7392, 145.5236
397.2213, 145.2009
397.7034, 144.8793
398.1855, 144.5581
398.6677, 144.2321
399.1498, 143.8088
399.6319, 143.4211
400.1140, 143.3718
400.5961, 143.8959
401.0782, 144.3730
401.5604, 144.3878
402.0425, 144.0650
402.5246, 143.7662
403.0067, 143.6027
403.4888, 143.5053
403.9709, 143.3605
404.4531, 143.1502
404.9352, 143.0250
405.4173, 143.0743
405.8994, 143.1828
406.3815, 143.2155
406.8636, 143.1701
407.3458, 143.1691
407.8279, 143.3202
408.3100, 143.6142
408.7921, 143.8625
409.2742, 144.0972
409.7563, 144.2591
410.2385, 144.3347
410.7206, 144.3200
411.2027, 144.1815
411.6848, 143.9004
412.1669, 143.5591
412.6490, 143.3303
413.1311, 143.3327
413.6133, 143.2465
414.0954, 143.0398
414.5775, 142.7720
415.0596, 142.4747
415.5417, 142.1575
416.0238, 141.8235
416.5060, 141.4757
416.9881, 141.1156
417.4702, 140.7324
417.9523, 140.3099
418.4344, 139.8777
418.9165, 139.4552
419.3987, 139.0238
419.8808, 138.5470
420.3629, 138.0105
420.8450, 137.4399
421.3271, 136.8890
421.8092, 136.3477
422.2914, 135.8591
422.7735, 135.3849
423.2556, 134.9914
423.7377, 134.7659
424.2198, 134.6879
424.7019, 134.6177
425.1841, 134.4326
425.6662, 134.1424
426.1483, 133.8488
426.6304, 133.5140
427.1125, 133.2441
427.5946, 133.1162
428.0768, 133.0676
428.5589, 132.9975
429.0410, 132.8448
429.5231, 132.7159
430.0052, 132.8112
430.4873, 133.1396
430.9695, 133.3123
431.4516, 133.1235
431.9337, 132.8156
432.4158, 132.6703
432.8979, 132.6892
433.3800, 132.7085
433.8622, 132.5967
434.3443, 132.4496
434.8264, 132.4832
435.3085, 132.7432
435.7906, 132.9609
436.2727, 132.9238
436.7549, 132.6663
437.2370, 132.4103
437.7191, 132.1245
438.2012, 131.8801
438.6833, 131.7673
439.1654, 131.7243
439.6476, 131.5825
440.1297, 131.2670
440.6118, 130.8787
441.0939, 130.5804
441.5760, 130.3677
442.0581, 130.2731
442.5403, 130.4436
443.0224, 130.6268
443.5045, 130.6068
443.9866, 130.3967
444.4687, 130.1616
444.9508, 130.0332
445.4330, 129.9968
445.9151, 129.8753
446.3972, 129.3822
446.8793, 129.1494
447.3614, 129.5403
447.8435, 130.1236
448.3257, 130.3787
448.8078, 130.1546
449.2899, 129.7325
449.7720, 129.5382
450.2541, 129.6773
450.7362, 129.6786
451.2184, 129.3719
451.7005, 129.0843
452.1826, 128.9550
452.6647, 128.9520
453.1468, 128.9693
453.6289, 128.9372
454.1111, 128.8908
454.5932, 128.9521
455.0753, 129.1886
455.5574, 129.3293
456.0395, 129.1755
456.5216, 128.9486
457.0038, 128.8132
457.4859, 128.7916
457.9680, 128.8336
458.4501, 128.9364
458.9322, 129.0761
459.4143, 129.1425
459.8965, 129.0863
460.3786, 129.0600
460.8607, 129.2187
461.3428, 129.5031
461.8249, 129.7695
462.3070, 130.0370
462.7892, 130.2364
463.2713, 130.2653
463.7534, 130.1695
464.2355, 130.1252
464.7176, 130.2066
465.1997, 130.3502
465.6819, 130.4425
466.1640, 130.4591
466.6461, 130.5213
467.1282, 130.7392
467.6103, 130.9386
468.0924, 130.9260
468.5746, 130.7309
469.0567, 130.5691
469.5388, 130.6082
470.0209, 130.8096
470.5030, 130.9073
470.9851, 130.8019
471.4673, 130.7099
471.9494, 130.6924
472.4315, 130.6796
472.9136, 130.5755
473.3957, 130.3687
473.8778, 130.1602
474.3600, 130.0878
474.8421, 130.1788
475.3242, 130.2033
475.8063, 130.1597
476.2884, 130.0417
476.7705, 129.7902
477.2527, 129.4751
477.7348, 129.2027
478.2169, 129.0171
478.6990, 128.9060
479.1811, 128.8799
479.6632, 128.9563
480.1454, 128.9673
480.6275, 128.8566
481.1096, 128.6800
481.5917, 128.4484
482.0738, 128.1774
482.5559, 127.9820
483.0380, 127.9741
483.5201, 128.0521
484.0023, 128.0316
484.4844, 127.9018
484.9665, 127.8308
485.4486, 127.9545
485.9307, 128.1789
486.4128, 128.2490
486.8950, 128.1019
487.3771, 127.9459
487.8592, 127.8144
488.3413, 127.7315
488.8234, 127.7507
489.3055, 127.8768
489.7877, 128.0246
490.2698, 128.1051
490.7519, 128.1122
491.2340, 128.1780
491.7161, 128.3348
492.1982, 128.5028
492.6804, 128.6736
493.1625, 128.8354
493.6446, 128.9745
494.1267, 129.0861
494.6088, 129.1767
495.0909, 129.2355
495.5731, 129.2081
496.0552, 129.3239
496.5373, 129.7210
497.0194, 130.1353
497.5015, 130.4875
497.9836, 130.7719
498.4658, 130.9951
498.9479, 131.1555
499.4300, 131.2666
499.9121, 131.3306
500.3942, 131.3272
500.8763, 131.4019
501.3585, 131.6270
501.8406, 131.9237
502.3227, 132.2414
502.8048, 132.5755
503.2869, 132.8681
503.7690, 133.0280
504.2512, 133.1573
504.7333, 133.4288
505.2154, 133.8534
505.6975, 134.2888
506.1796, 134.6579
506.6617, 134.9747
507.1439, 135.2870
507.6260, 135.6096
508.1081, 135.9064
508.5902, 136.1672
509.0723, 136.3974
509.5544, 136.5703
510.0366, 136.6964
510.5187, 136.8817
511.0008, 137.2385
511.4829, 137.7662
511.9650, 138.2200
512.4471, 138.5438
512.9293, 138.8616
513.4114, 139.2451
513.8935, 139.6125
514.3756, 139.8506
514.8577, 139.9344
515.3398, 139.9697
515.8220, 140.0626
516.3041, 140.2053
516.7862, 140.5041
517.2683, 141.1595
517.7504, 141.7043
518.2325, 141.8940
518.7147, 141.8508
519.1968, 141.7768
519.6789, 141.7400
520.1610, 141.6982
520.6431, 141.5500
521.1252, 141.3240
521.6074, 141.2750
522.0895, 141.5132
522.5716, 141.8440
523.0537, 142.0482
523.5358, 142.1468
524.0179, 142.2995
524.5001, 142.5959
524.9822, 142.9004
525.4643, 143.0721
525.9464, 143.1675
526.4285, 143.3722
526.9106, 143.7761
527.3928, 144.2700
527.8749, 144.6394
528.3570, 144.7508
528.8391, 145.0641
529.3212, 145.7176
529.8033, 146.4279
530.2855, 147.0526
530.7676, 147.6028
531.2497, 148.1497
531.7318, 148.7396
532.2139, 149.3365
532.6960, 149.8448
533.1782, 150.2498
533.6603, 150.6079
534.1424, 150.8631
534.6245, 151.1253
535.1066, 151.4625
535.5887, 151.8675
536.0709, 152.2976
536.5530, 152.8024
537.0351, 153.2771
537.5172, 153.5073
537.9993, 153.4842
538.4814, 153.3972
538.9636, 153.3284
539.4457, 153.2298
539.9278, 153.0387
540.4099, 152.7677
540.8920, 152.3679
541.3741, 151.7103
541.8563, 150.9925
542.3384, 150.4323
542.8205, 150.0164
543.3026, 149.5929
543.7847, 149.0755
544.2668, 148.4672
544.7490, 147.7898
545.2311, 146.9610
545.7132, 146.1741
546.1953, 145.4538
546.6774, 144.7599
547.1595, 144.0295
547.6417, 143.2855
548.1238, 142.6311
548.6059, 142.1425
549.0880, 141.8019
549.5701, 141.5534
550.0522, 141.4688
550.5344, 141.2935
551.0165, 140.8976
551.4986, 140.4117
551.9807, 139.8841
552.4628, 139.3283
552.9449, 138.8757
553.4271, 138.6855
553.9092, 138.6178
554.3913, 138.3984
554.8734, 138.0146
555.3555, 137.6943
555.8376, 137.6053
556.3198, 137.6239
556.8019, 137.3912
557.2840, 136.7463
557.7661, 136.2973
558.2482, 136.3207
558.7303, 136.4770
559.2125, 136.4623
559.6946, 136.2711
560.1767, 136.0700
560.6588, 135.9804
561.1409, 135.9624
561.6230, 135.8322
562.1052, 135.4294
562.5873, 135.1903
563.0694, 135.3026
563.5515, 135.4557
564.0336, 135.4171
564.5157, 135.1956
564.9979, 134.9586
565.4800, 134.8251
565.9621, 134.7566
566.4442, 134.6603
566.9263, 134.5367
567.4084, 134.3785
567.8906, 134.1456
568.3727, 133.9096
568.8548, 133.7604
569.3369, 133.7004
569.8190, 133.6801
570.3011, 133.6638
570.7833, 133.6945
571.2654, 133.9165
571.7475, 134.2615
572.2296, 134.3694
572.7117, 134.0153
573.1938, 133.4181
573.6760, 133.1077
574.1581, 133.3096
574.6402, 133.3951
575.1223, 133.2858
575.6044, 133.1388
576.0865, 133.0324
576.5687, 132.9670
577.0508, 132.9282
577.5329, 132.9178
578.0150, 132.8890
578.4971, 132.7147
578.9792, 132.3584
579.4614, 132.0631
579.9435, 131.8811
580.4256, 131.7647
580.9077, 131.6914
581.3898, 131.6526
581.8719, 131.6155
582.3541, 131.5618
582.8362, 131.5117
583.3183, 131.5354
583.8004, 131.5902
584.2825, 131.4958
584.7646, 131.1782
585.2468, 130.7702
585.7289, 130.4308
586.2110, 130.1709
586.6931, 129.9434
587.1752, 129.7523
587.6573, 129.5895
588.1394, 129.5212
588.6215, 129.4564
589.1036, 129.2440
589.5858, 128.8365
590.0679, 128.3431
590.5500, 127.9052
591.0321, 127.5274
591.5142, 127.1505
591.9963, 126.7663
592.4785, 126.3945
592.9606, 126.0068
593.4427, 125.6434
593.9248, 125.3659
594.4069, 125.1922
594.8890, 125.0764
595.3712, 125.0436
595.8533, 125.0323
596.3354, 124.8663
596.8175, 124.5146
597.2996, 124.1717
597.7817, 123.9669
598.2639, 123.8895
598.7460, 123.8906
599.2281, 124.0855
599.7102, 124.1937
600.1923, 124.1576
600.6744, 124.0305
601.1566, 123.8144
601.6387, 123.5435
602.1208, 123.3090
602.6029, 123.1750
603.0850, 123.1387
603.5671, 123.2146
604.0493, 123.4796
604.5314, 123.6506
605.0135, 123.6350
605.4956, 123.5237
605.9777, 123.3210
606.4598, 123.0560
606.9420, 122.8614
607.4241, 122.8610
607.9062, 122.9226
608.3883, 122.8676
608.8704, 122.7218
609.3525, 122.6381
609.8347, 122.6808
610.3168, 122.7674
610.7989, 122.7785
611.2810, 122.6878
611.7631, 122.6576
612.2452, 122.7622
612.7274, 122.8452
613.2095, 122.8150
613.6916, 122.7296
614.1737, 122.6842
614.6558, 122.7095
615.1379, 122.7542
