##NAMES=Ferrobobfergusonite
##RRUFFID=R140993
##IDEAL CHEMISTRY=Na_2_Fe^2+^_5_Fe^3+^Al(PO_4_)_6_
##LOCALITY=Victory mine, Custer, Custer District, Custer County, South Dakota, USA
##OWNER=RRUFF
##SOURCE=Rock Currier
##DESCRIPTION=Dark green aggregates of blocky crystals, associated with quartz and muscovite. Four different dark green minerals are found: schorl, fillowite, ferrobobfergusonite, and ferrowyllieite. Light green crystals are arrojadite. This is the type sample
##STATUS=The identification of this mineral is confirmed by single-crystal X-ray diffraction and chemical analysis.
##URL=rruff.info/R140993
##MEASURED CHEMISTRY=(Na_1.73_Ca_0.13_)(Fe^2+^_3.51_Mn_0.89_Mg_0.43_)(Fe^3+^_0.77_Al_0.23_)Al(P_1.01_O_4_)_6_
8.813672e+001, 4.218981e+002
8.861884e+001, 4.293529e+002
8.910095e+001, 4.354816e+002
8.958307e+001, 4.400373e+002
9.006519e+001, 4.451020e+002
9.054730e+001, 4.532936e+002
9.102942e+001, 4.676205e+002
9.151154e+001, 4.800476e+002
9.199365e+001, 4.792225e+002
9.247577e+001, 4.673525e+002
9.295789e+001, 4.554966e+002
9.344000e+001, 4.524305e+002
9.392212e+001, 4.551723e+002
9.440424e+001, 4.559678e+002
9.488635e+001, 4.535804e+002
9.536847e+001, 4.493862e+002
9.585059e+001, 4.458734e+002
9.633270e+001, 4.429596e+002
9.681482e+001, 4.407236e+002
9.729694e+001, 4.386817e+002
9.777905e+001, 4.368354e+002
9.826117e+001, 4.376648e+002
9.874329e+001, 4.432310e+002
9.922540e+001, 4.524355e+002
9.970752e+001, 4.568815e+002
1.001896e+002, 4.554572e+002
1.006718e+002, 4.516696e+002
1.011539e+002, 4.496733e+002
1.016360e+002, 4.495864e+002
1.021181e+002, 4.507277e+002
1.026002e+002, 4.529592e+002
1.030823e+002, 4.563431e+002
1.035645e+002, 4.601652e+002
1.040466e+002, 4.636849e+002
1.045287e+002, 4.681089e+002
1.050108e+002, 4.760695e+002
1.054929e+002, 4.893408e+002
1.059750e+002, 5.034847e+002
1.064572e+002, 5.174201e+002
1.069393e+002, 5.355814e+002
1.074214e+002, 5.455773e+002
1.079035e+002, 5.436362e+002
1.083856e+002, 5.331536e+002
1.088677e+002, 5.260530e+002
1.093499e+002, 5.235942e+002
1.098320e+002, 5.234866e+002
1.103141e+002, 5.247455e+002
1.107962e+002, 5.282003e+002
1.112783e+002, 5.320801e+002
1.117604e+002, 5.361496e+002
1.122426e+002, 5.405096e+002
1.127247e+002, 5.455835e+002
1.132068e+002, 5.507419e+002
1.136889e+002, 5.570203e+002
1.141710e+002, 5.650891e+002
1.146531e+002, 5.793704e+002
1.151353e+002, 5.913859e+002
1.156174e+002, 5.977139e+002
1.160995e+002, 5.982902e+002
1.165816e+002, 5.991955e+002
1.170637e+002, 6.044938e+002
1.175458e+002, 6.107001e+002
1.180280e+002, 6.140850e+002
1.185101e+002, 6.102031e+002
1.189922e+002, 6.051329e+002
1.194743e+002, 6.022711e+002
1.199564e+002, 6.019008e+002
1.204385e+002, 6.029645e+002
1.209207e+002, 6.039072e+002
1.214028e+002, 6.058857e+002
1.218849e+002, 6.109109e+002
1.223670e+002, 6.257849e+002
1.228491e+002, 6.416749e+002
1.233312e+002, 6.483666e+002
1.238134e+002, 6.432598e+002
1.242955e+002, 6.345365e+002
1.247776e+002, 6.284320e+002
1.252597e+002, 6.247400e+002
1.257418e+002, 6.227132e+002
1.262239e+002, 6.219954e+002
1.267061e+002, 6.226725e+002
1.271882e+002, 6.250536e+002
1.276703e+002, 6.295566e+002
1.281524e+002, 6.351208e+002
1.286345e+002, 6.404527e+002
1.291166e+002, 6.455557e+002
1.295988e+002, 6.505254e+002
1.300809e+002, 6.563212e+002
1.305630e+002, 6.623002e+002
1.310451e+002, 6.655474e+002
1.315272e+002, 6.645196e+002
1.320093e+002, 6.610916e+002
1.324915e+002, 6.595464e+002
1.329736e+002, 6.599939e+002
1.334557e+002, 6.612885e+002
1.339378e+002, 6.623634e+002
1.344199e+002, 6.632216e+002
1.349020e+002, 6.646551e+002
1.353842e+002, 6.670328e+002
1.358663e+002, 6.701044e+002
1.363484e+002, 6.723212e+002
1.368305e+002, 6.729962e+002
1.373126e+002, 6.747314e+002
1.377947e+002, 6.818026e+002
1.382769e+002, 6.959609e+002
1.387590e+002, 7.064890e+002
1.392411e+002, 7.098356e+002
1.397232e+002, 7.058876e+002
1.402053e+002, 7.010820e+002
1.406874e+002, 6.949958e+002
1.411696e+002, 6.885366e+002
1.416517e+002, 6.829841e+002
1.421338e+002, 6.784984e+002
1.426159e+002, 6.745523e+002
1.430980e+002, 6.709004e+002
1.435801e+002, 6.674579e+002
1.440623e+002, 6.650290e+002
1.445444e+002, 6.638182e+002
1.450265e+002, 6.635544e+002
1.455086e+002, 6.639278e+002
1.459907e+002, 6.660160e+002
1.464728e+002, 6.673573e+002
1.469550e+002, 6.670629e+002
1.474371e+002, 6.643605e+002
1.479192e+002, 6.617995e+002
1.484013e+002, 6.593649e+002
1.488834e+002, 6.570824e+002
1.493655e+002, 6.549495e+002
1.498477e+002, 6.518340e+002
1.503298e+002, 6.498531e+002
1.508119e+002, 6.499568e+002
1.512940e+002, 6.550251e+002
1.517761e+002, 6.579191e+002
1.522583e+002, 6.566784e+002
1.527404e+002, 6.528675e+002
1.532225e+002, 6.509041e+002
1.537046e+002, 6.540596e+002
1.541867e+002, 6.570551e+002
1.546688e+002, 6.574564e+002
1.551510e+002, 6.532375e+002
1.556331e+002, 6.485800e+002
1.561152e+002, 6.435735e+002
1.565973e+002, 6.384651e+002
1.570794e+002, 6.343426e+002
1.575615e+002, 6.319067e+002
1.580437e+002, 6.302076e+002
1.585258e+002, 6.286511e+002
1.590079e+002, 6.271522e+002
1.594900e+002, 6.257408e+002
1.599721e+002, 6.241161e+002
1.604542e+002, 6.224339e+002
1.609364e+002, 6.215965e+002
1.614185e+002, 6.230536e+002
1.619006e+002, 6.249501e+002
1.623827e+002, 6.257938e+002
1.628648e+002, 6.244306e+002
1.633469e+002, 6.225532e+002
1.638291e+002, 6.208261e+002
1.643112e+002, 6.192442e+002
1.647933e+002, 6.175538e+002
1.652754e+002, 6.153776e+002
1.657575e+002, 6.131171e+002
1.662396e+002, 6.111949e+002
1.667218e+002, 6.097637e+002
1.672039e+002, 6.087130e+002
1.676860e+002, 6.078958e+002
1.681681e+002, 6.073290e+002
1.686502e+002, 6.072962e+002
1.691323e+002, 6.083971e+002
1.696145e+002, 6.100610e+002
1.700966e+002, 6.115041e+002
1.705787e+002, 6.130704e+002
1.710608e+002, 6.138911e+002
1.715429e+002, 6.127142e+002
1.720250e+002, 6.094231e+002
1.725072e+002, 6.062031e+002
1.729893e+002, 6.048309e+002
1.734714e+002, 6.046618e+002
1.739535e+002, 6.045027e+002
1.744356e+002, 6.037508e+002
1.749177e+002, 6.027640e+002
1.753999e+002, 6.019255e+002
1.758820e+002, 6.012418e+002
1.763641e+002, 6.007014e+002
1.768462e+002, 6.003753e+002
1.773283e+002, 6.001760e+002
1.778104e+002, 5.998847e+002
1.782926e+002, 5.994471e+002
1.787747e+002, 5.988294e+002
1.792568e+002, 5.978040e+002
1.797389e+002, 5.962751e+002
1.802210e+002, 5.949013e+002
1.807031e+002, 5.946154e+002
1.811853e+002, 5.951857e+002
1.816674e+002, 5.958054e+002
1.821495e+002, 5.963528e+002
1.826316e+002, 5.966419e+002
1.831137e+002, 5.960137e+002
1.835958e+002, 5.942596e+002
1.840780e+002, 5.923227e+002
1.845601e+002, 5.915086e+002
1.850422e+002, 5.916986e+002
1.855243e+002, 5.919512e+002
1.860064e+002, 5.921296e+002
1.864885e+002, 5.920486e+002
1.869707e+002, 5.907840e+002
1.874528e+002, 5.880086e+002
1.879349e+002, 5.848199e+002
1.884170e+002, 5.828184e+002
1.888991e+002, 5.819662e+002
1.893812e+002, 5.816107e+002
1.898634e+002, 5.817131e+002
1.903455e+002, 5.821321e+002
1.908276e+002, 5.818770e+002
1.913097e+002, 5.806818e+002
1.917918e+002, 5.792014e+002
1.922739e+002, 5.786746e+002
1.927561e+002, 5.791249e+002
1.932382e+002, 5.796300e+002
1.937203e+002, 5.797615e+002
1.942024e+002, 5.795199e+002
1.946845e+002, 5.788610e+002
1.951666e+002, 5.776579e+002
1.956488e+002, 5.762350e+002
1.961309e+002, 5.752241e+002
1.966130e+002, 5.746422e+002
1.970951e+002, 5.742625e+002
1.975772e+002, 5.740484e+002
1.980593e+002, 5.740067e+002
1.985415e+002, 5.737299e+002
1.990236e+002, 5.731095e+002
1.995057e+002, 5.723446e+002
1.999878e+002, 5.718554e+002
2.004699e+002, 5.716389e+002
2.009520e+002, 5.717166e+002
2.014342e+002, 5.723187e+002
2.019163e+002, 5.735422e+002
2.023984e+002, 5.740609e+002
2.028805e+002, 5.735654e+002
2.033626e+002, 5.725125e+002
2.038447e+002, 5.721224e+002
2.043269e+002, 5.725766e+002
2.048090e+002, 5.730358e+002
2.052911e+002, 5.728742e+002
2.057732e+002, 5.719166e+002
2.062553e+002, 5.716043e+002
2.067374e+002, 5.723114e+002
2.072196e+002, 5.735325e+002
2.077017e+002, 5.737800e+002
2.081838e+002, 5.727571e+002
2.086659e+002, 5.715817e+002
2.091480e+002, 5.709084e+002
2.096301e+002, 5.708524e+002
2.101123e+002, 5.707581e+002
2.105944e+002, 5.705847e+002
2.110765e+002, 5.703553e+002
2.115586e+002, 5.701568e+002
2.120407e+002, 5.700430e+002
2.125228e+002, 5.698380e+002
2.130050e+002, 5.693308e+002
2.134871e+002, 5.682922e+002
2.139692e+002, 5.678398e+002
2.144513e+002, 5.682111e+002
2.149334e+002, 5.691346e+002
2.154155e+002, 5.698256e+002
2.158977e+002, 5.702271e+002
2.163798e+002, 5.704909e+002
2.168619e+002, 5.707737e+002
2.173440e+002, 5.712842e+002
2.178261e+002, 5.710654e+002
2.183082e+002, 5.697361e+002
2.187904e+002, 5.677446e+002
2.192725e+002, 5.664526e+002
2.197546e+002, 5.659526e+002
2.202367e+002, 5.660035e+002
2.207188e+002, 5.666937e+002
2.212009e+002, 5.686721e+002
2.216831e+002, 5.695242e+002
2.221652e+002, 5.688696e+002
2.226473e+002, 5.671470e+002
2.231294e+002, 5.655780e+002
2.236115e+002, 5.640157e+002
2.240936e+002, 5.628515e+002
2.245758e+002, 5.623636e+002
2.250579e+002, 5.629903e+002
2.255400e+002, 5.632399e+002
2.260221e+002, 5.630272e+002
2.265042e+002, 5.624445e+002
2.269863e+002, 5.617061e+002
2.274685e+002, 5.606427e+002
2.279506e+002, 5.596754e+002
2.284327e+002, 5.590154e+002
2.289148e+002, 5.588106e+002
2.293969e+002, 5.585244e+002
2.298790e+002, 5.580287e+002
2.303612e+002, 5.574755e+002
2.308433e+002, 5.573311e+002
2.313254e+002, 5.580251e+002
2.318075e+002, 5.584544e+002
2.322896e+002, 5.580223e+002
2.327717e+002, 5.560860e+002
2.332539e+002, 5.548907e+002
2.337360e+002, 5.548389e+002
2.342181e+002, 5.553945e+002
2.347002e+002, 5.552966e+002
2.351823e+002, 5.541386e+002
2.356644e+002, 5.529256e+002
2.361466e+002, 5.520645e+002
2.366287e+002, 5.517138e+002
2.371108e+002, 5.512745e+002
2.375929e+002, 5.507263e+002
2.380750e+002, 5.501033e+002
2.385571e+002, 5.494877e+002
2.390393e+002, 5.489314e+002
2.395214e+002, 5.483091e+002
2.400035e+002, 5.475594e+002
2.404856e+002, 5.466029e+002
2.409677e+002, 5.457725e+002
2.414498e+002, 5.451259e+002
2.419320e+002, 5.445943e+002
2.424141e+002, 5.440093e+002
2.428962e+002, 5.432103e+002
2.433783e+002, 5.426490e+002
2.438604e+002, 5.425707e+002
2.443425e+002, 5.432162e+002
2.448247e+002, 5.434594e+002
2.453068e+002, 5.430598e+002
2.457889e+002, 5.424150e+002
2.462710e+002, 5.421882e+002
2.467531e+002, 5.427002e+002
2.472352e+002, 5.430685e+002
2.477174e+002, 5.429744e+002
2.481995e+002, 5.422975e+002
2.486816e+002, 5.417588e+002
2.491637e+002, 5.414969e+002
2.496458e+002, 5.412540e+002
2.501279e+002, 5.406050e+002
2.506101e+002, 5.391613e+002
2.510922e+002, 5.380209e+002
2.515743e+002, 5.375471e+002
2.520564e+002, 5.378242e+002
2.525385e+002, 5.381036e+002
2.530206e+002, 5.385095e+002
2.535028e+002, 5.388021e+002
2.539849e+002, 5.386203e+002
2.544670e+002, 5.376484e+002
2.549491e+002, 5.368809e+002
2.554312e+002, 5.366082e+002
2.559133e+002, 5.368657e+002
2.563955e+002, 5.370370e+002
2.568776e+002, 5.371118e+002
2.573597e+002, 5.371109e+002
2.578418e+002, 5.370601e+002
2.583239e+002, 5.369722e+002
2.588061e+002, 5.367977e+002
2.592882e+002, 5.365540e+002
2.597703e+002, 5.362350e+002
2.602524e+002, 5.356485e+002
2.607345e+002, 5.346707e+002
2.612166e+002, 5.335935e+002
2.616988e+002, 5.326190e+002
2.621809e+002, 5.317040e+002
2.626630e+002, 5.310944e+002
2.631451e+002, 5.309664e+002
2.636272e+002, 5.312404e+002
2.641093e+002, 5.311683e+002
2.645915e+002, 5.306599e+002
2.650736e+002, 5.299769e+002
2.655557e+002, 5.293020e+002
2.660378e+002, 5.286575e+002
2.665199e+002, 5.279975e+002
2.670020e+002, 5.272999e+002
2.674842e+002, 5.265849e+002
2.679663e+002, 5.260146e+002
2.684484e+002, 5.256652e+002
2.689305e+002, 5.252819e+002
2.694126e+002, 5.245969e+002
2.698947e+002, 5.234329e+002
2.703769e+002, 5.227538e+002
2.708590e+002, 5.228401e+002
2.713411e+002, 5.233723e+002
2.718232e+002, 5.232131e+002
2.723053e+002, 5.221088e+002
2.727874e+002, 5.210800e+002
2.732696e+002, 5.209098e+002
2.737517e+002, 5.218254e+002
2.742338e+002, 5.219975e+002
2.747159e+002, 5.210651e+002
2.751980e+002, 5.195800e+002
2.756801e+002, 5.189838e+002
2.761623e+002, 5.195080e+002
2.766444e+002, 5.199037e+002
2.771265e+002, 5.193069e+002
2.776086e+002, 5.175869e+002
2.780907e+002, 5.167527e+002
2.785728e+002, 5.171068e+002
2.790550e+002, 5.179508e+002
2.795371e+002, 5.179894e+002
2.800192e+002, 5.171246e+002
2.805013e+002, 5.162487e+002
2.809834e+002, 5.157446e+002
2.814655e+002, 5.156027e+002
2.819477e+002, 5.155768e+002
2.824298e+002, 5.157095e+002
2.829119e+002, 5.158281e+002
2.833940e+002, 5.156392e+002
2.838761e+002, 5.151282e+002
2.843582e+002, 5.146484e+002
2.848404e+002, 5.144101e+002
2.853225e+002, 5.143309e+002
2.858046e+002, 5.138270e+002
2.862867e+002, 5.128087e+002
2.867688e+002, 5.117950e+002
2.872509e+002, 5.114698e+002
2.877331e+002, 5.117850e+002
2.882152e+002, 5.120598e+002
2.886973e+002, 5.121399e+002
2.891794e+002, 5.120184e+002
2.896615e+002, 5.116435e+002
2.901436e+002, 5.110107e+002
2.906258e+002, 5.102335e+002
2.911079e+002, 5.092625e+002
2.915900e+002, 5.081802e+002
2.920721e+002, 5.074444e+002
2.925542e+002, 5.073481e+002
2.930363e+002, 5.075256e+002
2.935185e+002, 5.070342e+002
2.940006e+002, 5.058883e+002
2.944827e+002, 5.050078e+002
2.949648e+002, 5.054589e+002
2.954469e+002, 5.067746e+002
2.959290e+002, 5.074572e+002
2.964112e+002, 5.071086e+002
2.968933e+002, 5.062208e+002
2.973754e+002, 5.053276e+002
2.978575e+002, 5.044744e+002
2.983396e+002, 5.039478e+002
2.988217e+002, 5.042157e+002
2.993039e+002, 5.049045e+002
2.997860e+002, 5.052885e+002
3.002681e+002, 5.052668e+002
3.007502e+002, 5.049433e+002
3.012323e+002, 5.041862e+002
3.017144e+002, 5.031528e+002
3.021966e+002, 5.024306e+002
3.026787e+002, 5.025721e+002
3.031608e+002, 5.031024e+002
3.036429e+002, 5.033703e+002
3.041250e+002, 5.033005e+002
3.046071e+002, 5.031361e+002
3.050893e+002, 5.031370e+002
3.055714e+002, 5.032063e+002
3.060535e+002, 5.031422e+002
3.065356e+002, 5.028061e+002
3.070177e+002, 5.023246e+002
3.074998e+002, 5.017919e+002
3.079820e+002, 5.012081e+002
3.084641e+002, 5.006465e+002
3.089462e+002, 5.002370e+002
3.094283e+002, 4.998660e+002
3.099104e+002, 4.993797e+002
3.103925e+002, 4.983348e+002
3.108747e+002, 4.974759e+002
3.113568e+002, 4.976173e+002
3.118389e+002, 4.986048e+002
3.123210e+002, 4.992598e+002
3.128031e+002, 4.987076e+002
3.132852e+002, 4.976250e+002
3.137674e+002, 4.966348e+002
3.142495e+002, 4.957947e+002
3.147316e+002, 4.952390e+002
3.152137e+002, 4.951606e+002
3.156958e+002, 4.954552e+002
3.161779e+002, 4.957761e+002
3.166601e+002, 4.963080e+002
3.171422e+002, 4.965978e+002
3.176243e+002, 4.962497e+002
3.181064e+002, 4.948115e+002
3.185885e+002, 4.935379e+002
3.190706e+002, 4.928852e+002
3.195528e+002, 4.926773e+002
3.200349e+002, 4.925762e+002
3.205170e+002, 4.928150e+002
3.209991e+002, 4.928661e+002
3.214812e+002, 4.923937e+002
3.219633e+002, 4.911592e+002
3.224455e+002, 4.901844e+002
3.229276e+002, 4.897896e+002
3.234097e+002, 4.897196e+002
3.238918e+002, 4.896613e+002
3.243739e+002, 4.896280e+002
3.248560e+002, 4.895493e+002
3.253382e+002, 4.894220e+002
3.258203e+002, 4.892524e+002
3.263024e+002, 4.890009e+002
3.267845e+002, 4.883382e+002
3.272666e+002, 4.877744e+002
3.277487e+002, 4.877233e+002
3.282309e+002, 4.891918e+002
3.287130e+002, 4.899905e+002
3.291951e+002, 4.896462e+002
3.296772e+002, 4.882867e+002
3.301593e+002, 4.871849e+002
3.306414e+002, 4.863984e+002
3.311236e+002, 4.858212e+002
3.316057e+002, 4.854030e+002
3.320878e+002, 4.852394e+002
3.325699e+002, 4.850433e+002
3.330520e+002, 4.847637e+002
3.335341e+002, 4.844453e+002
3.340163e+002, 4.842276e+002
3.344984e+002, 4.841479e+002
3.349805e+002, 4.841020e+002
3.354626e+002, 4.840462e+002
3.359447e+002, 4.839710e+002
3.364268e+002, 4.839366e+002
3.369090e+002, 4.839839e+002
3.373911e+002, 4.840379e+002
3.378732e+002, 4.839884e+002
3.383553e+002, 4.838434e+002
3.388374e+002, 4.835800e+002
3.393195e+002, 4.831165e+002
3.398017e+002, 4.824755e+002
3.402838e+002, 4.821354e+002
3.407659e+002, 4.821579e+002
3.412480e+002, 4.823383e+002
3.417301e+002, 4.825147e+002
3.422122e+002, 4.826945e+002
3.426944e+002, 4.827353e+002
3.431765e+002, 4.825760e+002
3.436586e+002, 4.822648e+002
3.441407e+002, 4.819565e+002
3.446228e+002, 4.816491e+002
3.451049e+002, 4.813542e+002
3.455871e+002, 4.810911e+002
3.460692e+002, 4.808499e+002
3.465513e+002, 4.805632e+002
3.470334e+002, 4.801629e+002
3.475155e+002, 4.798271e+002
3.479977e+002, 4.800130e+002
3.484798e+002, 4.806466e+002
3.489619e+002, 4.811073e+002
3.494440e+002, 4.808898e+002
3.499261e+002, 4.802580e+002
3.504082e+002, 4.797788e+002
3.508904e+002, 4.794839e+002
3.513725e+002, 4.793683e+002
3.518546e+002, 4.794995e+002
3.523367e+002, 4.798137e+002
3.528188e+002, 4.801414e+002
3.533009e+002, 4.802527e+002
3.537831e+002, 4.804185e+002
3.542652e+002, 4.812123e+002
3.547473e+002, 4.825870e+002
3.552294e+002, 4.835735e+002
3.557115e+002, 4.830075e+002
3.561936e+002, 4.817711e+002
3.566758e+002, 4.810498e+002
3.571579e+002, 4.815420e+002
3.576400e+002, 4.821893e+002
3.581221e+002, 4.822117e+002
3.586042e+002, 4.817465e+002
3.590863e+002, 4.812850e+002
3.595685e+002, 4.808318e+002
3.600506e+002, 4.806288e+002
3.605327e+002, 4.809198e+002
3.610148e+002, 4.819193e+002
3.614969e+002, 4.829509e+002
3.619790e+002, 4.839667e+002
3.624612e+002, 4.847969e+002
3.629433e+002, 4.851739e+002
3.634254e+002, 4.843551e+002
3.639075e+002, 4.836395e+002
3.643896e+002, 4.836527e+002
3.648717e+002, 4.845430e+002
3.653539e+002, 4.852900e+002
3.658360e+002, 4.857506e+002
3.663181e+002, 4.859408e+002
3.668002e+002, 4.858889e+002
3.672823e+002, 4.851966e+002
3.677644e+002, 4.846952e+002
3.682466e+002, 4.846211e+002
3.687287e+002, 4.849259e+002
3.692108e+002, 4.850419e+002
3.696929e+002, 4.849194e+002
3.701750e+002, 4.846546e+002
3.706571e+002, 4.842830e+002
3.711393e+002, 4.836451e+002
3.716214e+002, 4.831895e+002
3.721035e+002, 4.829913e+002
3.725856e+002, 4.829559e+002
3.730677e+002, 4.828817e+002
3.735498e+002, 4.828029e+002
3.740320e+002, 4.826236e+002
3.745141e+002, 4.822667e+002
3.749962e+002, 4.816969e+002
3.754783e+002, 4.813285e+002
3.759604e+002, 4.812827e+002
3.764425e+002, 4.812484e+002
3.769247e+002, 4.807590e+002
3.774068e+002, 4.797117e+002
3.778889e+002, 4.788969e+002
3.783710e+002, 4.786330e+002
3.788531e+002, 4.787332e+002
3.793352e+002, 4.783308e+002
3.798174e+002, 4.773634e+002
3.802995e+002, 4.763383e+002
3.807816e+002, 4.756234e+002
3.812637e+002, 4.752004e+002
3.817458e+002, 4.750307e+002
3.822279e+002, 4.752116e+002
3.827101e+002, 4.754247e+002
3.831922e+002, 4.751105e+002
3.836743e+002, 4.743226e+002
3.841564e+002, 4.734487e+002
3.846385e+002, 4.725793e+002
3.851206e+002, 4.717884e+002
3.856028e+002, 4.713061e+002
3.860849e+002, 4.711727e+002
3.865670e+002, 4.709933e+002
3.870491e+002, 4.702578e+002
3.875312e+002, 4.692144e+002
3.880133e+002, 4.683507e+002
3.884955e+002, 4.678808e+002
3.889776e+002, 4.676323e+002
3.894597e+002, 4.675596e+002
3.899418e+002, 4.676219e+002
3.904239e+002, 4.675824e+002
3.909060e+002, 4.672567e+002
3.913882e+002, 4.667861e+002
3.918703e+002, 4.662715e+002
3.923524e+002, 4.656450e+002
3.928345e+002, 4.651570e+002
3.933166e+002, 4.649444e+002
3.937987e+002, 4.649534e+002
3.942809e+002, 4.650778e+002
3.947630e+002, 4.657124e+002
3.952451e+002, 4.660837e+002
3.957272e+002, 4.656715e+002
3.962093e+002, 4.642561e+002
3.966914e+002, 4.632375e+002
3.971736e+002, 4.631764e+002
3.976557e+002, 4.634925e+002
3.981378e+002, 4.636519e+002
3.986199e+002, 4.634628e+002
3.991020e+002, 4.632583e+002
3.995841e+002, 4.630955e+002
4.000663e+002, 4.629567e+002
4.005484e+002, 4.627271e+002
4.010305e+002, 4.623047e+002
4.015126e+002, 4.619036e+002
4.019947e+002, 4.616337e+002
4.024768e+002, 4.615584e+002
4.029590e+002, 4.614750e+002
4.034411e+002, 4.613261e+002
4.039232e+002, 4.612242e+002
4.044053e+002, 4.615102e+002
4.048874e+002, 4.625098e+002
4.053695e+002, 4.629016e+002
4.058517e+002, 4.619885e+002
4.063338e+002, 4.599144e+002
4.068159e+002, 4.587239e+002
4.072980e+002, 4.585306e+002
4.077801e+002, 4.588350e+002
