##NAMES=Fersmanite
##RRUFFID=R070290
##IDEAL CHEMISTRY=Ca_4_(Na,Ca)_4_(Ti^4+^,Nb^5+^)_4_(Si_2_O_7_)_2_O_8_F_3_
##LOCALITY=Vein No. 1 of Labuntsov, 3rd left tributary of Vuonnemijok river, Eveslogchorr Mt, Khibiny Massif, Kola peninsula, Murmanskaja oblast', Northern Region, Russia
##OWNER=RRUFF
##SOURCE=Michael Scott
##DESCRIPTION=Brown crystals frozen in orthoclase, associated with red eudialyte and black arfvedsonite
##STATUS=The identification of this mineral has been confirmed by single-crystal X-ray diffraction.
##URL=rruff.info/R070290
143.6789, 12590.98
144.1610, 13176.42
144.6431, 13776.07
145.1252, 14393.98
145.6074, 15040.18
146.0895, 15711.13
146.5716, 16391.06
147.0537, 17083.11
147.5358, 17779.80
148.0179, 18382.66
148.5001, 18843.61
148.9822, 19248.24
149.4643, 19668.37
149.9464, 20107.71
150.4285, 20505.11
150.9106, 20815.00
151.3928, 21032.03
151.8749, 21194.93
152.3570, 21288.53
152.8391, 21338.64
153.3212, 21364.03
153.8033, 21365.49
154.2855, 21350.09
154.7676, 21314.36
155.2497, 21263.79
155.7318, 21222.80
156.2139, 21198.54
156.6960, 21184.05
157.1782, 21161.60
157.6603, 21124.77
158.1424, 21117.62
158.6245, 21186.94
159.1066, 21313.86
159.5887, 21461.47
160.0709, 21621.45
160.5530, 21796.45
161.0351, 21991.37
161.5172, 22208.03
161.9993, 22434.89
162.4814, 22665.04
162.9636, 22898.34
163.4457, 23140.80
163.9278, 23390.11
164.4099, 23649.73
164.8920, 23930.20
165.3741, 24241.99
165.8563, 24543.25
166.3384, 24812.33
166.8205, 25053.84
167.3026, 25271.17
167.7847, 25461.04
168.2668, 25629.87
168.7490, 25792.63
169.2311, 25952.39
169.7132, 26099.71
170.1953, 26242.74
170.6774, 26370.47
171.1595, 26460.11
171.6417, 26485.49
172.1238, 26472.59
172.6059, 26490.10
173.0880, 26557.36
173.5701, 26616.20
174.0522, 26652.69
174.5344, 26664.07
175.0165, 26640.62
175.4986, 26565.75
175.9807, 26460.27
176.4628, 26378.51
176.9449, 26320.13
177.4271, 26289.57
177.9092, 26308.31
178.3913, 26346.62
178.8734, 26362.43
179.3555, 26329.98
179.8376, 26266.74
180.3197, 26223.27
180.8019, 26203.75
181.2840, 26199.00
181.7661, 26206.85
182.2482, 26224.44
182.7303, 26249.86
183.2124, 26284.17
183.6946, 26322.61
184.1767, 26350.89
184.6588, 26362.62
185.1409, 26374.60
185.6230, 26397.76
186.1051, 26421.45
186.5873, 26431.00
187.0694, 26417.38
187.5515, 26392.09
188.0336, 26385.50
188.5157, 26403.83
188.9978, 26432.42
189.4800, 26476.75
189.9621, 26524.02
190.4442, 26556.97
190.9263, 26565.94
191.4084, 26567.75
191.8905, 26603.35
192.3727, 26683.62
192.8548, 26782.48
193.3369, 26922.82
193.8190, 27063.94
194.3011, 27170.56
194.7832, 27228.85
195.2654, 27242.79
195.7475, 27211.78
196.2296, 27086.64
196.7117, 27010.34
197.1938, 27022.22
197.6759, 27070.17
198.1581, 27108.16
198.6402, 27120.89
199.1223, 27127.71
199.6044, 27166.48
200.0865, 27255.35
200.5686, 27341.71
201.0508, 27434.42
201.5329, 27515.62
202.0150, 27566.78
202.4971, 27584.31
202.9792, 27583.50
203.4613, 27588.35
203.9435, 27601.81
204.4256, 27614.46
204.9077, 27611.46
205.3898, 27617.16
205.8719, 27657.05
206.3540, 27732.17
206.8362, 27813.55
207.3183, 27858.89
207.8004, 27847.94
208.2825, 27851.25
208.7646, 27876.45
209.2467, 27908.51
209.7289, 27939.43
210.2110, 27967.95
210.6931, 27997.91
211.1752, 28037.46
211.6573, 28096.06
212.1395, 28127.59
212.6216, 28109.45
213.1037, 28085.52
213.5858, 28073.01
214.0679, 28074.37
214.5500, 28085.55
215.0322, 28103.53
215.5143, 28129.08
215.9964, 28156.31
216.4785, 28189.55
216.9606, 28220.56
217.4427, 28253.03
217.9249, 28281.69
218.4070, 28292.47
218.8891, 28267.40
219.3712, 28204.46
219.8533, 28179.27
220.3354, 28235.13
220.8176, 28288.61
221.2997, 28325.92
221.7818, 28343.40
222.2639, 28335.64
222.7460, 28293.90
223.2281, 28223.46
223.7103, 28185.09
224.1924, 28221.31
224.6745, 28244.75
225.1566, 28223.77
225.6387, 28181.26
226.1208, 28155.72
226.6030, 28172.19
227.0851, 28215.68
227.5672, 28221.46
228.0493, 28150.53
228.5314, 28092.80
229.0135, 28058.68
229.4957, 28046.78
229.9778, 28059.67
230.4599, 28099.37
230.9420, 28153.22
231.4241, 28189.16
231.9062, 28192.50
232.3884, 28202.49
232.8705, 28224.44
233.3526, 28253.87
233.8347, 28289.14
234.3168, 28329.27
234.7989, 28370.32
235.2811, 28402.86
235.7632, 28416.73
236.2453, 28447.28
236.7274, 28512.89
237.2095, 28583.52
237.6916, 28633.23
238.1738, 28659.81
238.6559, 28688.80
239.1380, 28757.33
239.6201, 28880.50
240.1022, 28987.71
240.5843, 29064.83
241.0665, 29135.03
241.5486, 29210.02
242.0307, 29289.73
242.5128, 29366.05
242.9949, 29429.57
243.4770, 29478.98
243.9592, 29532.75
244.4413, 29609.04
244.9234, 29672.19
245.4055, 29706.96
245.8876, 29717.33
246.3697, 29714.09
246.8519, 29697.76
247.3340, 29672.34
247.8161, 29676.97
248.2982, 29740.94
248.7803, 29796.62
249.2624, 29827.53
249.7446, 29834.59
250.2267, 29816.44
250.7088, 29764.59
251.1909, 29695.51
251.6730, 29659.69
252.1551, 29675.60
252.6373, 29687.60
253.1194, 29659.54
253.6015, 29625.87
254.0836, 29629.71
254.5657, 29692.21
255.0478, 29775.93
255.5300, 29822.68
256.0121, 29826.74
256.4942, 29814.51
256.9763, 29765.75
257.4584, 29719.32
257.9406, 29712.95
258.4227, 29755.98
258.9048, 29801.37
259.3869, 29793.70
259.8690, 29730.21
260.3511, 29677.41
260.8333, 29656.67
261.3154, 29642.28
261.7975, 29617.98
262.2796, 29582.85
262.7617, 29539.15
263.2438, 29479.70
263.7260, 29409.38
264.2081, 29360.17
264.6902, 29347.55
265.1723, 29337.88
265.6544, 29303.93
266.1365, 29251.91
266.6187, 29202.56
267.1008, 29169.29
267.5829, 29144.61
268.0650, 29113.71
268.5471, 29076.74
269.0292, 29032.22
269.5114, 28969.49
269.9935, 28899.39
270.4756, 28840.46
270.9577, 28796.10
271.4398, 28765.98
271.9219, 28757.61
272.4041, 28771.87
272.8862, 28776.97
273.3683, 28756.47
273.8504, 28715.99
274.3325, 28665.47
274.8146, 28589.66
275.2968, 28532.35
275.7789, 28533.16
276.2610, 28580.25
276.7431, 28627.48
277.2252, 28663.62
277.7073, 28685.53
278.1895, 28685.76
278.6716, 28661.10
279.1537, 28635.94
279.6358, 28626.33
280.1179, 28620.27
280.6000, 28590.31
281.0822, 28526.37
281.5643, 28462.98
282.0464, 28445.21
282.5285, 28477.01
283.0106, 28504.96
283.4927, 28523.41
283.9749, 28535.40
284.4570, 28543.04
284.9391, 28546.70
285.4212, 28547.93
285.9033, 28549.94
286.3854, 28551.71
286.8676, 28536.40
287.3497, 28468.21
287.8318, 28418.94
288.3139, 28446.29
288.7960, 28523.18
289.2781, 28574.30
289.7603, 28555.39
290.2424, 28483.54
290.7245, 28430.31
291.2066, 28398.98
291.6887, 28380.40
292.1708, 28383.65
292.6530, 28395.31
293.1351, 28397.26
293.6172, 28383.30
294.0993, 28363.43
294.5814, 28356.85
295.0635, 28384.49
295.5457, 28384.05
296.0278, 28321.74
296.5099, 28257.81
296.9920, 28246.90
297.4741, 28287.13
297.9562, 28326.26
298.4384, 28304.68
298.9205, 28207.54
299.4026, 28153.41
299.8847, 28183.30
300.3668, 28213.85
300.8489, 28213.69
301.3311, 28191.72
301.8131, 28172.12
302.2953, 28171.39
302.7774, 28185.24
303.2595, 28192.34
303.7416, 28194.52
304.2237, 28185.85
304.7058, 28165.77
305.1880, 28135.40
305.6701, 28096.50
306.1522, 28049.80
306.6343, 27993.02
307.1164, 27916.95
307.5985, 27812.45
308.0807, 27723.90
308.5628, 27672.23
309.0449, 27630.36
309.5270, 27581.27
310.0091, 27524.15
310.4912, 27474.36
310.9734, 27457.22
311.4555, 27467.31
311.9376, 27441.69
312.4197, 27356.15
312.9018, 27262.27
313.3839, 27193.86
313.8661, 27143.10
314.3482, 27090.27
314.8303, 27017.55
315.3124, 26941.20
315.7945, 26895.99
316.2766, 26888.21
316.7588, 26874.71
317.2409, 26825.80
317.7230, 26758.63
318.2051, 26701.22
318.6872, 26658.08
319.1693, 26623.52
319.6515, 26587.52
320.1336, 26554.84
320.6157, 26551.52
321.0978, 26597.58
321.5799, 26659.24
322.0620, 26674.77
322.5442, 26634.43
323.0263, 26616.88
323.5084, 26676.71
323.9905, 26757.95
324.4726, 26771.86
324.9547, 26704.12
325.4369, 26641.44
325.9190, 26674.83
326.4011, 26816.57
326.8832, 26912.67
327.3653, 26930.69
327.8474, 26935.28
328.3296, 26958.39
328.8117, 26998.37
329.2938, 27042.32
329.7759, 27082.37
330.2580, 27121.52
330.7401, 27172.12
331.2223, 27259.30
331.7044, 27326.98
332.1865, 27356.39
332.6686, 27369.57
333.1507, 27389.84
333.6328, 27424.28
334.1150, 27464.90
334.5971, 27497.98
335.0792, 27512.33
335.5613, 27550.35
336.0434, 27632.94
336.5255, 27717.69
337.0077, 27787.30
337.4898, 27839.62
337.9719, 27876.94
338.4540, 27897.16
338.9361, 27903.20
339.4182, 27922.26
339.9004, 27965.52
340.3825, 28005.35
340.8646, 28012.93
341.3467, 28020.08
341.8288, 28075.32
342.3109, 28204.08
342.7931, 28352.79
343.2752, 28436.01
343.7573, 28443.83
344.2394, 28457.03
344.7215, 28497.57
345.2036, 28548.49
345.6858, 28599.74
346.1679, 28650.45
346.6500, 28694.51
347.1321, 28725.12
347.6142, 28746.21
348.0963, 28766.70
348.5785, 28785.01
349.0606, 28810.77
349.5427, 28863.90
350.0248, 28932.26
350.5069, 28977.74
350.9890, 28981.45
351.4712, 28969.72
351.9533, 28964.88
352.4354, 28964.37
352.9175, 28951.45
353.3996, 28913.25
353.8817, 28863.59
354.3639, 28842.54
354.8460, 28868.17
355.3281, 28878.40
355.8102, 28870.56
356.2923, 28835.17
356.7744, 28742.03
357.2566, 28589.51
357.7387, 28441.01
358.2208, 28372.33
358.7029, 28404.36
359.1850, 28400.31
359.6671, 28344.41
360.1493, 28274.23
360.6314, 28204.74
361.1135, 28134.26
361.5956, 28055.02
362.0777, 27961.46
362.5598, 27857.53
363.0420, 27757.06
363.5241, 27662.74
364.0062, 27567.75
364.4883, 27474.24
364.9704, 27378.11
365.4525, 27278.24
365.9347, 27173.85
366.4168, 27058.96
366.8989, 26914.66
367.3810, 26735.28
367.8631, 26606.40
368.3452, 26568.76
368.8274, 26538.47
369.3095, 26467.45
369.7916, 26369.80
370.2737, 26282.21
370.7558, 26230.67
371.2379, 26191.60
371.7201, 26126.08
372.2022, 26032.81
372.6843, 25925.77
373.1664, 25798.68
373.6485, 25668.93
374.1306, 25560.32
374.6128, 25474.30
375.0949, 25407.11
375.5770, 25376.86
376.0591, 25361.35
376.5412, 25316.03
377.0233, 25231.10
377.5055, 25121.53
377.9876, 24996.81
378.4697, 24855.21
378.9518, 24724.56
379.4339, 24600.99
379.9160, 24492.67
380.3982, 24414.42
380.8803, 24357.08
381.3624, 24297.03
381.8445, 24221.20
382.3266, 24134.91
382.8087, 24052.92
383.2909, 23989.90
383.7730, 23911.88
384.2551, 23794.77
384.7372, 23677.99
385.2193, 23599.02
385.7014, 23560.26
386.1836, 23530.69
386.6657, 23475.81
387.1478, 23393.74
387.6299, 23326.62
388.1120, 23279.62
388.5941, 23242.67
389.0763, 23223.71
389.5584, 23209.67
390.0405, 23177.09
390.5226, 23110.06
391.0047, 23036.79
391.4868, 23010.87
391.9690, 23039.77
392.4511, 23044.54
392.9332, 22990.62
393.4153, 22916.16
393.8974, 22854.52
394.3795, 22806.21
394.8617, 22769.29
395.3438, 22738.91
395.8259, 22720.60
396.3080, 22734.63
396.7901, 22785.32
397.2722, 22821.19
397.7544, 22799.86
398.2365, 22732.29
398.7186, 22684.25
399.2007, 22670.57
399.6828, 22659.72
400.1649, 22638.84
400.6471, 22613.00
401.1292, 22592.99
401.6113, 22582.29
402.0934, 22569.87
402.5755, 22536.07
403.0576, 22463.08
403.5398, 22425.43
404.0219, 22470.71
404.5040, 22501.92
404.9861, 22445.98
405.4682, 22333.16
405.9503, 22247.26
406.4325, 22244.64
406.9146, 22300.20
407.3967, 22325.54
407.8788, 22309.81
408.3609, 22285.03
408.8430, 22253.05
409.3252, 22218.03
409.8073, 22185.56
410.2894, 22155.71
410.7715, 22118.65
411.2536, 22061.18
411.7357, 21987.70
412.2179, 21917.23
412.7000, 21841.01
413.1821, 21792.61
413.6642, 21824.23
414.1463, 21898.78
414.6284, 21942.65
415.1106, 21933.57
415.5927, 21901.10
416.0748, 21855.60
416.5569, 21803.00
417.0390, 21763.68
417.5211, 21746.26
418.0033, 21739.06
418.4854, 21727.21
418.9675, 21714.11
419.4496, 21681.76
419.9317, 21600.62
420.4138, 21523.96
420.8960, 21491.23
421.3781, 21495.92
421.8602, 21511.28
422.3423, 21522.46
422.8244, 21525.44
423.3065, 21501.55
423.7887, 21424.36
424.2708, 21361.04
424.7529, 21325.21
425.2350, 21300.08
425.7171, 21270.70
426.1992, 21235.65
426.6814, 21206.35
427.1635, 21201.46
427.6456, 21217.30
428.1277, 21207.79
428.6098, 21162.33
429.0919, 21111.66
429.5741, 21060.06
430.0562, 21016.22
430.5383, 20998.71
431.0204, 21024.11
431.5025, 21050.10
431.9846, 21036.45
432.4668, 20993.38
432.9489, 20958.06
433.4310, 20941.18
433.9131, 20930.18
434.3952, 20908.03
434.8773, 20872.69
435.3595, 20851.98
435.8416, 20865.15
436.3237, 20877.45
436.8058, 20868.73
437.2879, 20841.55
437.7701, 20800.04
438.2522, 20744.28
438.7343, 20689.12
439.2164, 20674.58
439.6985, 20732.66
440.1806, 20775.24
440.6628, 20789.20
441.1449, 20798.61
441.6270, 20822.87
442.1091, 20858.55
442.5912, 20886.13
443.0733, 20887.28
443.5555, 20870.19
444.0376, 20868.52
444.5197, 20889.21
445.0018, 20906.09
445.4839, 20922.18
445.9660, 20922.13
446.4482, 20878.13
446.9303, 20779.68
447.4124, 20695.34
447.8945, 20673.59
448.3766, 20694.46
448.8587, 20724.72
449.3409, 20761.92
449.8230, 20782.96
450.3051, 20764.47
450.7872, 20710.81
451.2693, 20672.31
451.7514, 20645.81
452.2336, 20636.63
452.7157, 20669.42
453.1978, 20712.45
453.6799, 20714.88
454.1620, 20664.33
454.6441, 20599.46
455.1263, 20573.39
455.6084, 20597.61
456.0905, 20595.60
456.5726, 20544.68
457.0547, 20489.55
457.5368, 20435.63
458.0190, 20388.21
458.5011, 20354.79
458.9832, 20339.44
459.4653, 20334.62
459.9474, 20331.35
460.4295, 20329.70
460.9117, 20327.72
461.3938, 20331.04
461.8759, 20325.34
462.3580, 20291.57
462.8401, 20235.45
463.3222, 20186.69
463.8044, 20160.87
464.2865, 20139.58
464.7686, 20107.13
465.2507, 20065.05
465.7328, 20018.20
466.2149, 19966.77
466.6971, 19918.93
467.1792, 19893.94
467.6613, 19920.63
468.1434, 19907.00
468.6255, 19799.01
469.1076, 19698.21
469.5898, 19682.66
470.0719, 19731.83
470.5540, 19776.49
471.0361, 19774.34
471.5182, 19734.75
472.0003, 19679.77
472.4825, 19599.14
472.9646, 19532.15
473.4467, 19495.03
473.9288, 19469.35
474.4109, 19446.70
474.8930, 19425.71
475.3752, 19403.82
475.8573, 19375.80
476.3394, 19347.46
476.8215, 19330.04
477.3036, 19323.92
477.7857, 19320.13
478.2679, 19317.85
478.7500, 19312.12
479.2321, 19284.95
479.7142, 19214.20
480.1963, 19179.32
480.6784, 19224.78
481.1606, 19292.87
481.6427, 19334.91
482.1248, 19346.50
482.6069, 19342.50
483.0890, 19331.82
483.5711, 19317.41
484.0533, 19315.41
484.5354, 19328.65
485.0175, 19350.71
485.4996, 19374.54
485.9817, 19409.65
486.4638, 19468.92
486.9460, 19550.95
487.4281, 19634.64
487.9102, 19702.03
488.3923, 19758.57
488.8744, 19819.02
489.3565, 19882.54
489.8387, 19956.22
490.3208, 20052.78
490.8029, 20156.77
491.2850, 20233.13
491.7671, 20267.74
492.2492, 20316.17
492.7314, 20412.18
493.2135, 20522.85
493.6956, 20603.38
494.1777, 20654.02
494.6598, 20715.59
495.1419, 20820.70
495.6241, 20962.20
496.1062, 21096.82
496.5883, 21221.43
497.0704, 21342.08
497.5525, 21465.48
498.0346, 21581.80
498.5168, 21682.07
498.9989, 21765.73
499.4810, 21838.32
499.9631, 21898.74
500.4452, 21952.10
500.9273, 22015.14
501.4095, 22087.00
501.8916, 22175.16
502.3737, 22308.64
502.8558, 22444.83
503.3379, 22509.68
503.8200, 22481.05
504.3022, 22468.61
504.7843, 22530.59
505.2664, 22620.35
505.7485, 22684.23
506.2306, 22719.59
506.7127, 22749.99
507.1949, 22792.12
507.6770, 22841.04
508.1591, 22875.12
508.6412, 22897.05
509.1233, 22898.33
509.6054, 22862.15
510.0876, 22818.94
510.5697, 22794.05
511.0518, 22785.50
511.5339, 22771.65
512.0161, 22734.53
512.4982, 22682.54
512.9803, 22638.15
513.4624, 22602.68
513.9445, 22568.33
514.4266, 22530.99
514.9088, 22494.95
515.3909, 22466.95
515.8730, 22447.78
516.3551, 22425.59
516.8372, 22401.88
517.3193, 22369.86
517.8015, 22309.50
518.2836, 22231.66
518.7657, 22181.91
519.2478, 22188.02
519.7299, 22221.21
520.2120, 22210.32
520.6942, 22115.56
521.1763, 22052.61
521.6584, 22048.59
522.1405, 22047.23
522.6226, 22002.72
523.1047, 21935.78
523.5869, 21906.93
524.0690, 21958.11
524.5511, 22039.96
525.0332, 22081.12
525.5153, 22081.55
525.9974, 22032.07
526.4796, 21903.25
526.9617, 21767.88
527.4438, 21710.58
527.9259, 21721.90
528.4080, 21734.92
528.8901, 21748.01
529.3723, 21752.85
529.8544, 21742.71
530.3365, 21721.12
530.8186, 21689.74
531.3007, 21649.79
531.7828, 21617.96
532.2650, 21623.90
532.7471, 21680.91
533.2292, 21692.01
533.7113, 21608.59
534.1934, 21533.81
534.6755, 21502.36
535.1577, 21496.70
535.6398, 21496.78
536.1219, 21498.80
536.6040, 21487.26
537.0861, 21435.96
537.5682, 21359.13
538.0504, 21304.32
538.5325, 21278.83
539.0146, 21264.06
539.4967, 21250.59
539.9788, 21237.12
540.4609, 21217.90
540.9431, 21202.47
541.4252, 21168.97
541.9073, 21084.97
542.3894, 20999.06
542.8715, 20971.96
543.3536, 20998.02
543.8358, 21011.61
544.3179, 20955.84
544.8000, 20849.96
545.2821, 20778.30
545.7642, 20748.09
546.2463, 20732.89
546.7285, 20752.97
547.2106, 20765.50
547.6927, 20726.19
548.1748, 20639.36
548.6569, 20566.04
549.1390, 20557.25
549.6211, 20558.40
550.1032, 20494.20
550.5853, 20381.87
551.0674, 20305.38
551.5496, 20301.20
552.0317, 20329.29
552.5138, 20324.73
552.9959, 20275.97
553.4780, 20232.84
553.9601, 20208.29
554.4423, 20174.54
554.9244, 20103.71
555.4065, 20021.48
555.8886, 19974.47
556.3707, 19980.62
556.8528, 19994.65
557.3350, 19948.11
557.8171, 19852.36
558.2992, 19808.37
558.7813, 19841.40
559.2634, 19875.31
559.7455, 19858.97
560.2277, 19804.53
560.7098, 19756.60
561.1919, 19725.56
561.6740, 19683.28
562.1561, 19602.86
562.6382, 19517.89
563.1204, 19467.51
563.6025, 19451.68
564.0846, 19440.81
564.5667, 19411.62
565.0488, 19373.14
565.5309, 19366.31
566.0131, 19416.11
566.4952, 19434.35
566.9773, 19373.22
567.4594, 19301.71
567.9415, 19262.45
568.4236, 19252.03
568.9058, 19244.29
569.3879, 19226.83
569.8700, 19208.40
570.3521, 19201.22
570.8342, 19200.88
571.3163, 19195.63
571.7985, 19182.89
572.2806, 19151.40
572.7627, 19078.01
573.2448, 18950.31
573.7269, 18897.82
574.2090, 19000.92
574.6912, 19078.71
575.1733, 19077.72
575.6554, 19032.42
576.1375, 18972.56
576.6196, 18908.69
577.1017, 18858.86
577.5839, 18850.32
578.0660, 18868.72
578.5481, 18864.51
579.0302, 18835.19
579.5123, 18798.06
579.9944, 18754.15
580.4766, 18713.08
580.9587, 18698.38
581.4408, 18717.96
581.9229, 18725.51
582.4050, 18716.21
582.8871, 18691.67
583.3693, 18637.38
583.8514, 18570.73
584.3335, 18530.45
584.8156, 18534.83
585.2977, 18554.56
585.7798, 18539.95
586.2620, 18487.17
586.7441, 18444.71
587.2262, 18413.27
587.7083, 18394.56
588.1904, 18409.88
588.6725, 18433.10
589.1547, 18415.09
589.6368, 18330.43
590.1189, 18254.55
590.6010, 18246.88
591.0831, 18255.72
591.5652, 18206.51
592.0474, 18101.40
592.5295, 17995.96
593.0116, 17925.60
593.4937, 17885.92
593.9758, 17865.90
594.4579, 17880.07
594.9401, 17879.48
595.4222, 17846.12
595.9043, 17809.79
596.3864, 17780.04
596.8685, 17759.36
597.3506, 17754.85
597.8328, 17781.60
598.3149, 17800.86
598.7970, 17765.65
599.2791, 17696.58
599.7612, 17645.98
600.2433, 17623.75
600.7255, 17617.64
601.2076, 17621.06
601.6897, 17631.06
602.1718, 17623.26
602.6539, 17573.10
603.1360, 17538.70
603.6182, 17539.08
604.1003, 17544.95
604.5824, 17536.34
605.0645, 17512.38
605.5466, 17480.92
606.0287, 17445.11
606.5109, 17405.94
606.9930, 17364.28
607.4751, 17320.13
607.9572, 17271.01
608.4393, 17212.31
608.9214, 17164.45
609.4036, 17155.78
609.8857, 17186.43
610.3678, 17177.12
610.8499, 17087.45
611.3320, 17013.09
611.8141, 16987.88
612.2963, 16981.02
612.7784, 16963.02
613.2605, 16930.00
613.7426, 16893.75
614.2247, 16860.77
614.7068, 16832.86
615.1890, 16818.64
615.6711, 16819.10
616.1532, 16810.60
616.6353, 16786.39
617.1174, 16750.63
617.5995, 16700.96
618.0817, 16636.92
618.5638, 16596.47
619.0459, 16598.19
619.5280, 16603.92
620.0101, 16607.61
620.4922, 16602.75
620.9744, 16575.52
621.4565, 16527.45
621.9386, 16483.21
622.4207, 16467.57
622.9028, 16472.37
623.3849, 16467.62
623.8671, 16453.56
624.3492, 16427.24
624.8313, 16380.78
625.3134, 16329.55
625.7955, 16290.09
626.2776, 16261.63
626.7598, 16245.13
627.2419, 16256.02
627.7240, 16262.47
628.2061, 16253.20
628.6882, 16227.44
629.1703, 16169.81
629.6525, 16085.12
630.1346, 16024.25
630.6167, 16050.06
631.0988, 16140.64
631.5809, 16167.14
632.0630, 16112.23
632.5452, 16060.83
633.0273, 16037.67
633.5094, 16029.50
633.9915, 16027.89
634.4736, 16031.99
634.9557, 16018.53
635.4379, 15963.69
635.9200, 15910.47
636.4021, 15882.84
