##NAMES=Fersmanite
##RRUFFID=R070290
##IDEAL CHEMISTRY=Ca_4_(Na,Ca)_4_(Ti^4+^,Nb^5+^)_4_(Si_2_O_7_)_2_O_8_F_3_
##LOCALITY=Vein No. 1 of Labuntsov, 3rd left tributary of Vuonnemijok river, Eveslogchorr Mt, Khibiny Massif, Kola peninsula, Murmanskaja oblast', Northern Region, Russia
##OWNER=RRUFF
##SOURCE=Michael Scott
##DESCRIPTION=Brown crystals frozen in orthoclase, associated with red eudialyte and black arfvedsonite
##STATUS=The identification of this mineral has been confirmed by single-crystal X-ray diffraction.
##URL=rruff.info/R070290
137.6089, 21678.07
138.0910, 22168.95
138.5731, 22572.91
139.0553, 22884.96
139.5374, 23156.64
140.0195, 23384.63
140.5016, 23574.52
140.9837, 23733.89
141.4658, 23848.36
141.9480, 23957.40
142.4301, 24088.61
142.9122, 24256.09
143.3943, 24413.58
143.8764, 24544.19
144.3585, 24648.21
144.8407, 24802.25
145.3228, 25018.66
145.8049, 25274.92
146.2870, 25550.29
146.7691, 25853.93
147.2512, 26159.60
147.7334, 26449.98
148.2155, 26713.45
148.6976, 27027.66
149.1797, 27442.95
149.6618, 27895.55
150.1439, 28297.48
150.6261, 28593.59
151.1082, 28883.91
151.5903, 29194.85
152.0724, 29547.73
152.5545, 29873.22
153.0366, 30163.89
153.5188, 30422.26
154.0009, 30652.30
154.4830, 30843.18
154.9651, 31016.63
155.4472, 31185.66
155.9293, 31368.55
156.4115, 31521.74
156.8936, 31620.95
157.3757, 31680.07
157.8578, 31748.93
158.3399, 31848.94
158.8221, 31959.07
159.3042, 32066.68
159.7863, 32180.72
160.2684, 32279.99
160.7505, 32344.79
161.2326, 32381.24
161.7148, 32432.15
162.1969, 32515.12
162.6790, 32621.90
163.1611, 32743.28
163.6432, 32891.50
164.1253, 33042.47
164.6075, 33184.26
165.0896, 33316.48
165.5717, 33443.92
166.0538, 33569.12
166.5359, 33691.30
167.0180, 33809.69
167.5002, 33914.63
167.9823, 34022.48
168.4644, 34151.53
168.9465, 34306.94
169.4286, 34456.79
169.9107, 34588.83
170.3929, 34697.99
170.8750, 34776.93
171.3571, 34795.62
171.8392, 34792.47
172.3213, 34811.44
172.8034, 34863.62
173.2856, 34918.72
173.7677, 34945.97
174.2498, 34951.67
174.7319, 34957.05
175.2140, 34990.09
175.6961, 35027.63
176.1783, 35031.43
176.6604, 34987.31
177.1425, 34920.56
177.6246, 34852.14
178.1067, 34784.33
178.5888, 34727.41
179.0710, 34694.37
179.5531, 34678.54
180.0352, 34667.43
180.5173, 34662.65
180.9994, 34656.60
181.4815, 34631.10
181.9637, 34586.66
182.4458, 34546.94
182.9279, 34534.60
183.4100, 34544.35
183.8921, 34556.50
184.3742, 34568.86
184.8564, 34578.52
185.3385, 34577.47
185.8206, 34565.29
186.3027, 34547.37
186.7848, 34514.43
187.2669, 34472.33
187.7491, 34465.42
188.2312, 34536.93
188.7133, 34656.61
189.1954, 34707.45
189.6775, 34680.87
190.1596, 34621.75
190.6418, 34579.16
191.1239, 34553.00
191.6060, 34530.22
192.0881, 34505.18
192.5702, 34478.54
193.0524, 34455.36
193.5345, 34434.72
194.0166, 34419.94
194.4987, 34419.98
194.9808, 34435.93
195.4629, 34450.29
195.9451, 34447.11
196.4272, 34427.10
196.9093, 34437.18
197.3914, 34487.05
197.8735, 34554.04
198.3556, 34589.30
198.8378, 34586.20
199.3199, 34592.55
199.8020, 34650.06
200.2841, 34765.00
200.7662, 34821.28
201.2483, 34789.29
201.7305, 34715.97
202.2126, 34723.39
202.6947, 34827.78
203.1768, 34952.34
203.6589, 35052.02
204.1410, 35122.11
204.6232, 35195.96
205.1053, 35281.32
205.5874, 35370.17
206.0695, 35431.39
206.5516, 35455.57
207.0337, 35476.87
207.5159, 35520.02
207.9980, 35588.57
208.4801, 35657.99
208.9622, 35724.45
209.4443, 35789.47
209.9264, 35865.95
210.4086, 35966.49
210.8907, 36053.36
211.3728, 36095.31
211.8549, 36085.09
212.3370, 36054.32
212.8191, 36000.61
213.3013, 35927.99
213.7834, 35865.57
214.2655, 35812.41
214.7476, 35770.83
215.2297, 35746.39
215.7118, 35747.07
216.1940, 35741.98
216.6761, 35724.93
217.1582, 35696.37
217.6403, 35669.09
218.1224, 35651.41
218.6045, 35624.43
219.0867, 35565.26
219.5688, 35457.05
220.0509, 35357.62
220.5330, 35283.00
221.0151, 35232.81
221.4972, 35178.14
221.9794, 35115.25
222.4615, 35051.54
222.9436, 34995.66
223.4257, 34954.93
223.9078, 34905.26
224.3899, 34834.53
224.8721, 34737.65
225.3542, 34676.68
225.8363, 34668.47
226.3184, 34679.66
226.8005, 34670.57
227.2827, 34633.82
227.7648, 34590.61
228.2469, 34544.50
228.7290, 34494.79
229.2111, 34445.69
229.6932, 34382.50
230.1754, 34332.37
230.6575, 34338.35
231.1396, 34444.13
231.6217, 34528.12
232.1038, 34549.93
232.5859, 34493.93
233.0681, 34459.62
233.5502, 34452.23
234.0323, 34462.73
234.5144, 34477.08
234.9965, 34487.33
235.4786, 34515.36
235.9608, 34574.02
236.4429, 34673.44
236.9250, 34752.13
237.4071, 34801.39
237.8892, 34834.70
238.3713, 34869.69
238.8535, 34891.94
239.3356, 34940.77
239.8177, 35039.86
240.2998, 35215.59
240.7819, 35338.75
241.2640, 35392.37
241.7462, 35405.32
242.2283, 35425.55
242.7104, 35450.58
243.1925, 35487.02
243.6746, 35537.47
244.1567, 35603.86
244.6389, 35680.98
245.1210, 35779.73
245.6031, 35882.56
246.0852, 35954.58
246.5673, 35975.86
247.0494, 36000.59
247.5316, 36054.07
248.0137, 36156.41
248.4958, 36217.04
248.9779, 36217.80
249.4600, 36186.70
249.9421, 36174.63
250.4243, 36185.71
250.9064, 36208.53
251.3885, 36246.13
251.8706, 36315.42
252.3527, 36340.51
252.8348, 36307.25
253.3170, 36238.83
253.7991, 36180.43
254.2812, 36144.04
254.7633, 36095.68
255.2454, 36016.84
255.7275, 35893.73
256.2097, 35793.49
256.6918, 35718.57
257.1739, 35665.95
257.6560, 35637.31
258.1381, 35656.38
258.6202, 35649.98
259.1024, 35583.33
259.5845, 35439.53
260.0666, 35307.57
260.5487, 35186.87
261.0308, 35078.79
261.5129, 34980.10
261.9951, 34889.80
262.4772, 34813.59
262.9593, 34763.79
263.4414, 34754.13
263.9235, 34700.19
264.4056, 34587.92
264.8878, 34443.64
265.3699, 34305.27
265.8520, 34165.04
266.3341, 34049.76
266.8162, 33976.30
267.2983, 33954.40
267.7805, 33918.21
268.2626, 33871.79
268.7447, 33806.63
269.2268, 33697.11
269.7089, 33526.03
270.1910, 33372.82
270.6732, 33275.10
271.1553, 33241.13
271.6374, 33184.71
272.1195, 33099.38
272.6016, 33000.85
273.0837, 32919.01
273.5659, 32857.24
274.0480, 32792.81
274.5301, 32713.46
275.0122, 32618.72
275.4943, 32535.65
275.9764, 32469.77
276.4586, 32405.12
276.9407, 32305.03
277.4228, 32163.13
277.9049, 32051.88
278.3870, 32020.79
278.8691, 32064.24
279.3513, 32050.64
279.8334, 31972.89
280.3155, 31856.24
280.7976, 31724.16
281.2798, 31576.76
281.7619, 31437.33
282.2440, 31309.23
282.7261, 31194.62
283.2082, 31118.42
283.6903, 31088.67
284.1725, 31067.79
284.6546, 31007.55
285.1367, 30909.71
285.6188, 30805.23
286.1009, 30694.42
286.5830, 30584.87
287.0652, 30519.44
287.5473, 30505.45
288.0294, 30495.57
288.5115, 30430.48
288.9936, 30316.51
289.4757, 30209.00
289.9579, 30126.50
290.4400, 30063.20
290.9221, 30002.93
291.4042, 29945.89
291.8863, 29889.26
292.3684, 29823.07
292.8506, 29752.60
293.3327, 29701.54
293.8148, 29693.91
294.2969, 29700.42
294.7790, 29656.05
295.2611, 29560.43
295.7433, 29458.16
296.2254, 29390.37
296.7075, 29345.76
297.1896, 29295.09
297.6717, 29226.39
298.1538, 29148.91
298.6360, 29077.99
299.1181, 29012.42
299.6002, 28945.81
300.0823, 28883.22
300.5644, 28814.29
301.0465, 28715.29
301.5287, 28561.32
302.0108, 28398.36
302.4929, 28293.31
302.9750, 28234.55
303.4571, 28161.39
303.9392, 28026.58
304.4214, 27854.06
304.9035, 27668.19
305.3856, 27464.06
305.8677, 27272.12
306.3498, 27139.38
306.8319, 27049.83
307.3141, 26943.81
307.7962, 26771.90
308.2783, 26574.87
308.7604, 26389.57
309.2425, 26228.90
309.7246, 26077.26
310.2068, 25920.03
310.6889, 25763.00
311.1710, 25619.31
311.6531, 25515.62
312.1352, 25415.08
312.6173, 25287.22
313.0995, 25117.77
313.5816, 24952.88
314.0637, 24822.76
314.5458, 24711.00
315.0279, 24585.65
315.5100, 24418.17
315.9922, 24246.19
316.4743, 24087.01
316.9564, 23941.42
317.4385, 23813.79
317.9206, 23711.90
318.4027, 23627.41
318.8849, 23548.64
319.3670, 23485.09
319.8491, 23415.66
320.3312, 23329.93
320.8133, 23223.73
321.2954, 23120.32
321.7776, 23016.43
322.2597, 22919.72
322.7418, 22838.41
323.2239, 22784.94
323.7060, 22735.72
324.1881, 22688.88
324.6703, 22645.23
325.1524, 22591.39
325.6345, 22513.00
326.1166, 22431.78
326.5987, 22364.56
327.0808, 22322.72
327.5630, 22281.65
328.0451, 22238.01
328.5272, 22192.05
329.0093, 22148.94
329.4914, 22110.99
329.9735, 22074.82
330.4557, 22037.47
330.9378, 21990.34
331.4199, 21957.79
331.9020, 21948.35
332.3841, 21955.93
332.8662, 21950.32
333.3484, 21926.43
333.8305, 21897.14
334.3126, 21868.60
334.7947, 21841.05
335.2768, 21814.77
335.7589, 21791.09
336.2411, 21768.02
336.7232, 21739.65
337.2053, 21705.35
337.6874, 21668.14
338.1695, 21625.19
338.6516, 21574.40
339.1338, 21542.03
339.6159, 21534.60
340.0980, 21536.52
340.5801, 21519.04
341.0622, 21479.45
341.5443, 21443.78
342.0265, 21424.09
342.5086, 21418.70
342.9907, 21413.49
343.4728, 21410.87
343.9549, 21399.11
344.4370, 21355.21
344.9192, 21283.29
345.4013, 21220.47
345.8834, 21181.01
346.3655, 21160.37
346.8476, 21150.10
347.3297, 21150.31
347.8119, 21157.71
348.2940, 21183.51
348.7761, 21216.00
349.2582, 21217.29
349.7403, 21160.44
350.2225, 21084.30
350.7046, 21040.19
351.1867, 21026.15
351.6688, 21030.09
352.1509, 21055.56
352.6331, 21090.23
353.1152, 21115.47
353.5973, 21125.92
354.0794, 21128.33
354.5615, 21121.99
355.0436, 21111.13
355.5258, 21108.63
356.0079, 21130.06
356.4900, 21158.24
356.9721, 21179.00
357.4542, 21190.16
357.9363, 21193.89
358.4185, 21175.18
358.9006, 21151.54
359.3827, 21153.26
359.8648, 21220.42
360.3469, 21293.56
360.8290, 21341.63
361.3112, 21359.59
361.7933, 21370.27
362.2754, 21376.39
362.7575, 21380.84
363.2396, 21386.76
363.7217, 21385.03
364.2039, 21394.58
364.6860, 21421.05
365.1681, 21464.79
365.6502, 21517.96
366.1323, 21618.77
366.6144, 21705.62
367.0966, 21735.47
367.5787, 21628.33
368.0608, 21560.64
368.5429, 21556.07
369.0250, 21603.74
369.5071, 21649.01
369.9893, 21698.83
370.4714, 21738.08
370.9535, 21760.27
371.4356, 21767.12
371.9177, 21750.64
372.3998, 21700.22
372.8820, 21631.53
373.3641, 21578.33
373.8462, 21540.82
374.3283, 21518.80
374.8104, 21519.55
375.2925, 21546.88
375.7747, 21549.62
376.2568, 21522.39
376.7389, 21481.27
377.2210, 21446.86
377.7031, 21419.49
378.1852, 21394.47
378.6674, 21373.51
379.1495, 21353.57
379.6316, 21312.89
380.1137, 21248.55
380.5958, 21193.20
381.0779, 21191.91
381.5601, 21231.75
382.0422, 21247.05
382.5243, 21215.21
383.0064, 21162.34
383.4885, 21139.22
383.9706, 21140.19
384.4528, 21125.19
384.9349, 21043.88
385.4170, 20934.42
385.8991, 20861.42
386.3812, 20840.63
386.8633, 20834.69
387.3455, 20808.28
387.8276, 20769.96
388.3097, 20738.86
388.7918, 20726.23
389.2739, 20724.05
389.7560, 20733.45
390.2382, 20756.89
390.7203, 20762.67
391.2024, 20719.56
391.6845, 20654.30
392.1666, 20597.06
392.6487, 20554.84
393.1309, 20525.65
393.6130, 20518.19
394.0951, 20529.42
394.5772, 20527.26
395.0593, 20486.51
395.5414, 20440.55
396.0236, 20410.66
396.5057, 20413.94
396.9878, 20416.50
397.4699, 20420.35
397.9520, 20421.95
398.4341, 20410.18
398.9163, 20372.33
399.3984, 20334.25
399.8805, 20305.70
400.3626, 20290.78
400.8447, 20273.48
401.3268, 20254.84
401.8090, 20233.03
402.2911, 20203.21
402.7732, 20160.40
403.2553, 20123.16
403.7374, 20095.49
404.2195, 20077.42
404.7017, 20074.87
405.1838, 20095.79
405.6659, 20110.50
406.1480, 20084.07
406.6301, 20015.60
407.1122, 19961.83
407.5944, 19936.37
408.0765, 19927.79
408.5586, 19908.00
409.0407, 19877.20
409.5228, 19850.12
410.0049, 19838.54
410.4871, 19838.46
410.9692, 19842.54
411.4513, 19853.50
411.9334, 19854.40
412.4155, 19810.33
412.8976, 19737.67
413.3798, 19685.20
413.8619, 19698.22
414.3440, 19728.21
414.8261, 19718.20
415.3082, 19667.11
415.7903, 19621.04
416.2725, 19618.10
416.7546, 19633.57
417.2367, 19639.48
417.7188, 19622.06
418.2009, 19598.76
418.6830, 19574.54
419.1652, 19550.11
419.6473, 19529.01
420.1294, 19511.72
420.6115, 19498.35
421.0937, 19488.88
421.5758, 19484.24
422.0579, 19481.98
422.5400, 19481.13
423.0221, 19482.60
423.5042, 19487.82
423.9864, 19495.40
424.4685, 19508.45
424.9506, 19532.76
425.4327, 19570.30
425.9148, 19587.79
426.3969, 19572.10
426.8791, 19551.31
427.3612, 19552.20
427.8433, 19584.67
428.3254, 19606.88
428.8075, 19609.27
429.2896, 19598.89
429.7718, 19602.25
430.2539, 19622.66
430.7360, 19639.33
431.2181, 19629.85
431.7002, 19597.86
432.1823, 19601.63
432.6645, 19649.95
433.1466, 19714.49
433.6287, 19755.04
434.1108, 19776.21
434.5929, 19801.42
435.0750, 19845.65
435.5572, 19897.33
436.0393, 19934.30
436.5214, 19957.19
437.0035, 19979.62
437.4856, 20011.03
437.9677, 20048.71
438.4499, 20089.12
438.9320, 20132.83
439.4141, 20176.58
439.8962, 20212.70
440.3783, 20246.37
440.8604, 20292.06
441.3426, 20379.23
441.8247, 20462.15
442.3068, 20508.37
442.7889, 20504.25
443.2710, 20512.36
443.7531, 20561.95
444.2353, 20627.29
444.7174, 20680.81
445.1995, 20699.35
445.6816, 20726.27
446.1637, 20776.85
446.6458, 20847.13
447.1280, 20897.49
447.6101, 20907.31
448.0922, 20920.10
448.5743, 20961.04
449.0564, 21042.76
449.5385, 21122.46
450.0207, 21205.10
450.5028, 21279.53
450.9849, 21317.28
451.4670, 21309.70
451.9491, 21308.16
452.4312, 21339.13
452.9134, 21395.96
453.3955, 21423.13
453.8776, 21417.07
454.3597, 21406.24
454.8418, 21416.54
455.3239, 21445.38
455.8061, 21485.07
456.2882, 21544.43
456.7703, 21598.10
457.2524, 21596.58
457.7345, 21553.11
458.2166, 21521.78
458.6988, 21559.48
459.1809, 21613.95
459.6630, 21621.58
460.1451, 21569.67
460.6272, 21518.16
461.1093, 21517.71
461.5915, 21536.04
462.0736, 21532.97
462.5557, 21477.43
463.0378, 21415.73
463.5199, 21360.95
464.0020, 21313.80
464.4842, 21275.11
464.9663, 21259.00
465.4484, 21241.53
465.9305, 21209.80
466.4126, 21156.81
466.8947, 21099.83
467.3769, 21031.10
467.8590, 20961.99
468.3411, 20913.61
468.8232, 20904.23
469.3053, 20878.20
469.7874, 20810.88
470.2696, 20706.25
470.7517, 20637.84
471.2338, 20622.39
471.7159, 20616.04
472.1980, 20603.19
472.6801, 20584.35
473.1623, 20532.59
473.6444, 20530.22
474.1265, 20512.27
474.6086, 20496.56
475.0907, 20509.73
475.5728, 20478.22
476.0550, 20496.99
476.5371, 20499.89
477.0192, 20514.43
477.5013, 20513.28
477.9834, 20520.90
478.4655, 20550.24
478.9477, 20538.88
479.4298, 20587.72
479.9119, 20635.02
480.3940, 20678.26
480.8761, 20703.55
481.3582, 20721.78
481.8404, 20764.29
482.3225, 20855.55
482.8046, 20961.65
483.2867, 21070.71
483.7688, 21184.89
484.2509, 21290.70
484.7331, 21369.86
485.2152, 21448.67
485.6973, 21554.21
486.1794, 21698.24
486.6615, 21850.13
487.1436, 22010.51
487.6258, 22176.43
488.1079, 22329.74
488.5900, 22459.60
489.0721, 22604.59
489.5542, 22792.60
490.0363, 23024.82
490.5185, 23241.83
491.0006, 23435.52
491.4827, 23629.99
491.9648, 23854.54
492.4470, 24105.90
492.9291, 24364.23
493.4112, 24620.29
493.8933, 24876.12
494.3754, 25122.02
494.8575, 25362.90
495.3397, 25614.74
495.8218, 25901.36
496.3039, 26202.63
496.7860, 26494.95
497.2681, 26780.02
497.7502, 27053.11
498.2324, 27311.16
498.7145, 27557.69
499.1966, 27802.50
499.6787, 28039.97
500.1608, 28281.90
500.6429, 28542.64
501.1251, 28819.24
501.6072, 29064.27
502.0893, 29256.31
502.5714, 29435.61
503.0535, 29626.12
503.5356, 29857.32
504.0178, 30022.22
504.4999, 30086.46
504.9820, 30114.20
505.4641, 30212.14
505.9462, 30396.15
506.4283, 30567.58
506.9105, 30704.39
507.3926, 30804.50
507.8747, 30847.26
508.3568, 30830.09
508.8389, 30804.64
509.3210, 30814.15
509.8032, 30844.97
510.2853, 30853.66
510.7674, 30828.30
511.2495, 30808.72
511.7316, 30857.16
512.2137, 30940.63
512.6959, 30991.54
513.1780, 30966.12
513.6601, 30912.32
514.1422, 30845.26
514.6243, 30770.25
515.1064, 30719.71
515.5886, 30730.54
516.0707, 30752.76
516.5528, 30755.12
517.0349, 30722.14
517.5170, 30693.46
517.9991, 30684.87
518.4813, 30678.01
518.9634, 30645.69
519.4455, 30552.46
519.9276, 30496.79
520.4097, 30514.84
520.8918, 30590.83
521.3740, 30619.88
521.8561, 30592.92
522.3382, 30549.01
522.8203, 30504.60
523.3024, 30461.23
523.7845, 30439.75
524.2667, 30442.25
524.7488, 30463.44
525.2309, 30519.62
525.7130, 30593.85
526.1951, 30622.75
526.6772, 30542.28
527.1594, 30446.48
527.6415, 30465.37
528.1236, 30573.99
528.6057, 30663.34
529.0878, 30647.48
529.5699, 30603.43
530.0521, 30594.42
530.5342, 30640.60
531.0163, 30666.55
531.4984, 30625.22
531.9805, 30561.47
532.4626, 30522.93
532.9448, 30531.59
533.4269, 30547.79
533.9090, 30577.59
534.3911, 30612.87
534.8732, 30618.88
535.3553, 30581.77
535.8375, 30541.14
536.3196, 30515.19
536.8017, 30504.45
537.2838, 30489.86
537.7659, 30471.33
538.2480, 30448.73
538.7302, 30423.82
539.2123, 30395.43
539.6944, 30354.59
540.1765, 30293.03
540.6586, 30229.74
541.1407, 30190.98
541.6229, 30172.52
542.1050, 30158.35
542.5871, 30146.04
543.0692, 30130.10
543.5513, 30104.45
544.0334, 30069.05
544.5156, 30031.35
544.9977, 29991.80
545.4798, 29953.13
545.9619, 29918.30
546.4440, 29894.74
546.9261, 29864.78
547.4083, 29827.97
547.8904, 29782.51
548.3725, 29724.53
548.8546, 29638.72
549.3367, 29565.23
549.8188, 29517.40
550.3010, 29492.63
550.7831, 29460.62
551.2652, 29420.31
551.7473, 29376.14
552.2294, 29329.14
552.7115, 29279.98
553.1937, 29240.63
553.6758, 29214.98
554.1579, 29186.89
554.6400, 29123.68
555.1221, 29040.24
555.6042, 28982.05
556.0864, 28990.82
556.5685, 29005.05
557.0506, 28960.34
557.5327, 28869.27
558.0148, 28778.99
558.4969, 28703.25
558.9791, 28642.11
559.4612, 28599.75
559.9433, 28580.75
560.4254, 28559.21
560.9075, 28526.18
561.3896, 28491.12
561.8718, 28462.72
562.3539, 28452.51
562.8360, 28428.27
563.3181, 28381.18
563.8002, 28322.01
564.2823, 28275.11
564.7645, 28241.73
565.2466, 28217.28
565.7287, 28205.01
566.2108, 28200.76
566.6929, 28180.93
567.1750, 28144.95
567.6572, 28109.57
568.1393, 28095.73
568.6214, 28091.93
569.1035, 28074.08
569.5856, 28035.65
570.0677, 27993.74
570.5499, 27956.50
571.0320, 27925.99
571.5141, 27905.17
571.9962, 27897.74
572.4783, 27897.54
572.9604, 27922.63
573.4426, 27960.60
573.9247, 27948.79
574.4068, 27798.18
574.8889, 27668.77
575.3710, 27633.04
575.8531, 27717.66
576.3353, 27756.04
576.8174, 27733.15
577.2995, 27685.75
577.7816, 27641.56
578.2637, 27599.17
578.7458, 27581.74
579.2280, 27599.86
579.7101, 27631.04
580.1922, 27631.53
580.6743, 27606.75
581.1564, 27587.27
581.6385, 27609.47
582.1207, 27633.10
582.6028, 27595.08
583.0849, 27502.72
583.5670, 27410.83
584.0491, 27340.75
584.5313, 27291.19
585.0134, 27264.69
585.4955, 27268.77
585.9776, 27272.32
586.4597, 27274.69
586.9418, 27269.38
587.4240, 27248.46
587.9061, 27200.22
588.3882, 27155.04
588.8703, 27119.31
589.3524, 27087.85
589.8345, 27040.69
590.3167, 26969.93
590.7988, 26914.26
591.2809, 26900.81
591.7630, 26918.20
592.2451, 26903.25
592.7272, 26854.65
593.2094, 26806.23
593.6915, 26792.77
594.1736, 26798.20
594.6557, 26793.21
595.1378, 26773.74
595.6199, 26741.38
596.1021, 26691.83
596.5842, 26631.58
597.0663, 26569.63
597.5485, 26489.48
598.0306, 26429.64
598.5127, 26414.91
598.9948, 26434.24
599.4769, 26439.58
599.9590, 26432.95
600.4412, 26405.71
600.9233, 26345.50
601.4054, 26247.61
601.8875, 26193.28
602.3696, 26199.25
602.8517, 26208.61
603.3339, 26160.85
603.8160, 26062.19
604.2981, 26006.13
604.7802, 26011.19
605.2623, 26033.47
605.7444, 26019.51
606.2266, 25977.46
606.7087, 25929.87
607.1908, 25880.29
607.6729, 25832.45
608.1550, 25787.84
608.6371, 25747.00
609.1193, 25710.09
609.6014, 25685.05
610.0835, 25657.47
610.5656, 25619.27
611.0477, 25568.08
611.5298, 25521.07
612.0120, 25482.24
612.4941, 25444.74
612.9762, 25402.22
613.4583, 25348.89
613.9404, 25314.32
614.4225, 25305.96
614.9047, 25305.89
615.3868, 25288.95
615.8689, 25255.77
616.3510, 25215.57
616.8331, 25165.93
617.3152, 25117.40
617.7974, 25098.29
618.2795, 25097.86
618.7616, 25073.70
619.2437, 24963.70
619.7258, 24850.19
620.2079, 24802.37
620.6901, 24823.57
621.1722, 24840.75
621.6543, 24832.62
622.1364, 24809.31
622.6185, 24777.55
623.1006, 24740.88
623.5828, 24686.63
624.0649, 24596.91
624.5470, 24506.02
625.0291, 24462.57
625.5112, 24479.08
625.9933, 24472.58
626.4755, 24419.56
626.9576, 24347.48
627.4397, 24317.33
627.9218, 24324.16
628.4039, 24330.29
628.8860, 24319.94
629.3682, 24296.64
629.8503, 24258.84
630.3324, 24209.05
