##NAMES=Feruvite
##RRUFFID=R061109
##IDEAL CHEMISTRY=CaFe^2+^_3_(Al_5_Mg)(Si_6_O_18_)(BO_3_)_3_(OH)_3_OH
##LOCALITY=Red Cross Lake, Manitoba, Canada
##OWNER=RRUFF
##SOURCE=Michael Scott
##DESCRIPTION=Green fragment
##STATUS=The identification of this mineral has been confirmed only by single crystal X-ray diffraction.
##URL=rruff.info/R061109
157.2414, 4790.475
157.7235, 4802.724
158.2056, 4820.272
158.6877, 4837.682
159.1699, 4850.967
159.6520, 4863.301
160.1341, 4880.411
160.6162, 4910.404
161.0983, 4941.630
161.5804, 4966.401
162.0626, 4976.029
162.5447, 4990.910
163.0268, 5024.083
163.5089, 5070.433
163.9910, 5112.960
164.4731, 5141.535
164.9553, 5164.040
165.4374, 5186.703
165.9195, 5203.324
166.4016, 5228.162
166.8837, 5277.940
167.3658, 5349.269
167.8480, 5412.172
168.3301, 5439.469
168.8122, 5450.021
169.2943, 5467.905
169.7764, 5512.865
170.2585, 5562.353
170.7407, 5597.771
171.2228, 5618.672
171.7049, 5632.155
172.1870, 5641.166
172.6691, 5646.720
173.1512, 5650.726
173.6334, 5653.660
174.1155, 5655.872
174.5976, 5657.210
175.0797, 5657.315
175.5618, 5658.531
176.0439, 5666.833
176.5260, 5679.312
177.0082, 5685.980
177.4903, 5672.633
177.9724, 5651.170
178.4545, 5642.708
178.9366, 5650.025
179.4187, 5670.306
179.9009, 5703.633
180.3830, 5748.857
180.8651, 5796.305
181.3472, 5843.567
181.8293, 5888.782
182.3114, 5924.578
182.7936, 5945.063
183.2757, 5960.572
183.7578, 5994.978
184.2399, 6047.609
184.7220, 6096.516
185.2041, 6112.502
185.6863, 6104.397
186.1684, 6113.917
186.6505, 6163.034
187.1326, 6233.437
187.6147, 6276.817
188.0968, 6291.825
188.5790, 6295.971
189.0611, 6309.598
189.5432, 6331.276
190.0253, 6344.370
190.5074, 6344.591
190.9895, 6331.976
191.4717, 6300.084
191.9538, 6243.094
192.4359, 6186.988
192.9180, 6171.873
193.4001, 6198.300
193.8822, 6223.192
194.3644, 6226.551
194.8465, 6209.559
195.3286, 6194.448
195.8107, 6181.549
196.2928, 6169.771
196.7749, 6155.562
197.2570, 6137.978
197.7392, 6125.439
198.2213, 6122.800
198.7034, 6130.239
199.1855, 6143.126
199.6676, 6164.013
200.1497, 6187.264
200.6319, 6197.854
201.1140, 6193.104
201.5961, 6188.435
202.0782, 6194.515
202.5603, 6213.029
203.0424, 6231.231
203.5246, 6251.322
204.0067, 6268.999
204.4888, 6266.137
204.9709, 6237.558
205.4530, 6203.655
205.9352, 6178.792
206.4173, 6164.439
206.8994, 6152.162
207.3815, 6141.563
207.8636, 6132.163
208.3457, 6120.967
208.8279, 6105.732
209.3100, 6092.922
209.7921, 6090.465
210.2742, 6103.150
210.7563, 6109.269
211.2384, 6106.143
211.7206, 6093.491
212.2027, 6064.106
212.6848, 6010.577
213.1669, 5950.900
213.6490, 5903.614
214.1311, 5869.555
214.6133, 5844.810
215.0954, 5831.218
215.5775, 5829.738
216.0596, 5822.625
216.5417, 5809.542
217.0238, 5791.231
217.5059, 5767.432
217.9881, 5735.228
218.4702, 5703.972
218.9523, 5673.721
219.4344, 5642.783
219.9165, 5627.762
220.3986, 5634.910
220.8808, 5652.755
221.3629, 5663.656
221.8450, 5663.939
222.3271, 5664.488
222.8092, 5668.485
223.2913, 5675.858
223.7735, 5687.570
224.2556, 5706.300
224.7377, 5727.794
225.2198, 5743.668
225.7019, 5753.160
226.1840, 5758.252
226.6662, 5756.823
227.1483, 5739.365
227.6304, 5742.496
228.1125, 5776.743
228.5946, 5827.261
229.0767, 5860.411
229.5589, 5869.179
230.0410, 5870.670
230.5231, 5848.636
231.0052, 5873.725
231.4873, 5886.288
231.9694, 5886.999
232.4516, 5840.358
232.9337, 5854.862
233.4158, 5844.863
233.8979, 5833.858
234.3800, 5856.968
234.8621, 5817.215
235.3443, 5839.784
235.8264, 5837.475
236.3085, 5846.552
236.7906, 5830.974
237.2727, 5823.011
237.7548, 5839.711
238.2369, 5842.755
238.7191, 5824.339
239.2012, 5834.140
239.6833, 5794.816
240.1654, 5766.174
240.6475, 5756.068
241.1296, 5775.104
241.6118, 5798.883
242.0939, 5811.285
242.5760, 5803.252
243.0581, 5802.050
243.5402, 5813.572
244.0223, 5834.949
244.5045, 5847.820
244.9866, 5848.706
245.4687, 5845.632
245.9508, 5844.277
246.4329, 5846.741
246.9150, 5848.053
247.3972, 5852.046
247.8793, 5856.819
248.3614, 5840.592
248.8435, 5789.071
249.3256, 5733.986
249.8077, 5701.271
250.2899, 5704.428
250.7720, 5700.002
251.2541, 5677.792
251.7362, 5640.106
252.2183, 5615.744
252.7004, 5609.480
253.1826, 5610.368
253.6647, 5610.251
254.1468, 5609.164
254.6289, 5606.531
255.1110, 5602.619
255.5931, 5597.195
256.0753, 5587.566
256.5574, 5571.309
257.0395, 5554.014
257.5216, 5539.660
258.0037, 5525.838
258.4858, 5522.191
258.9680, 5537.979
259.4501, 5571.527
259.9322, 5571.795
260.4143, 5517.589
260.8964, 5460.813
261.3785, 5454.233
261.8607, 5520.412
262.3428, 5575.858
262.8249, 5605.065
263.3070, 5608.786
263.7891, 5606.585
264.2712, 5597.197
264.7534, 5583.868
265.2355, 5569.824
265.7176, 5555.354
266.1997, 5538.115
266.6818, 5514.799
267.1639, 5486.383
267.6461, 5468.155
268.1282, 5460.090
268.6103, 5462.118
269.0924, 5476.613
269.5745, 5507.038
270.0566, 5536.355
270.5387, 5562.367
271.0208, 5584.667
271.5030, 5598.371
271.9851, 5599.877
272.4672, 5600.274
272.9493, 5613.308
273.4314, 5642.608
273.9135, 5664.503
274.3957, 5674.138
274.8778, 5671.711
275.3599, 5656.698
275.8420, 5625.680
276.3241, 5591.097
276.8062, 5566.585
277.2884, 5553.708
277.7705, 5537.814
278.2526, 5514.388
278.7347, 5485.100
279.2168, 5457.460
279.6989, 5429.363
280.1811, 5409.506
280.6632, 5414.758
281.1453, 5447.144
281.6274, 5458.066
282.1095, 5425.331
282.5916, 5363.061
283.0738, 5338.181
283.5559, 5356.112
284.0380, 5384.591
284.5201, 5391.762
285.0022, 5378.417
285.4843, 5365.953
285.9665, 5357.448
286.4486, 5354.086
286.9307, 5362.167
287.4128, 5382.455
287.8949, 5405.994
288.3770, 5426.313
288.8592, 5443.271
289.3413, 5455.715
289.8234, 5465.154
290.3055, 5468.799
290.7876, 5453.633
291.2697, 5418.863
291.7519, 5387.675
292.2340, 5386.104
292.7161, 5407.613
293.1982, 5422.199
293.6803, 5421.450
294.1624, 5411.362
294.6446, 5401.971
295.1267, 5393.316
295.6088, 5386.589
296.0909, 5381.103
296.5730, 5378.218
297.0551, 5383.035
297.5373, 5402.280
298.0194, 5422.955
298.5015, 5422.805
298.9836, 5403.625
299.4657, 5381.698
299.9478, 5367.166
300.4300, 5358.877
300.9121, 5355.366
301.3942, 5357.225
301.8763, 5362.354
302.3584, 5370.762
302.8405, 5381.393
303.3227, 5388.494
303.8048, 5382.822
304.2869, 5372.833
304.7690, 5371.372
305.2511, 5384.479
305.7332, 5400.498
306.2154, 5408.325
306.6975, 5409.880
307.1796, 5412.182
307.6617, 5422.008
308.1438, 5433.562
308.6259, 5439.828
309.1081, 5436.241
309.5901, 5434.769
310.0723, 5451.447
310.5544, 5478.011
311.0365, 5492.773
311.5186, 5470.899
312.0007, 5440.730
312.4828, 5425.510
312.9650, 5430.849
313.4471, 5444.919
313.9292, 5473.781
314.4113, 5506.584
314.8934, 5521.555
315.3755, 5488.653
315.8577, 5449.714
316.3398, 5432.724
316.8219, 5447.670
317.3040, 5459.707
317.7861, 5449.128
318.2682, 5428.339
318.7504, 5416.851
319.2325, 5423.689
319.7146, 5438.445
320.1967, 5459.496
320.6788, 5489.698
321.1609, 5491.596
321.6431, 5537.718
322.1252, 5571.312
322.6073, 5593.053
323.0894, 5567.443
323.5715, 5602.979
324.0536, 5614.008
324.5358, 5624.038
325.0179, 5668.179
325.5000, 5649.456
325.9821, 5693.055
326.4642, 5711.777
326.9464, 5741.888
327.4285, 5747.340
327.9106, 5760.408
328.3927, 5798.138
328.8748, 5822.211
329.3569, 5824.827
329.8391, 5855.662
330.3212, 5836.078
330.8033, 5860.734
331.2854, 5904.477
331.7675, 5908.331
332.2496, 5939.613
332.7318, 5960.453
333.2139, 5933.815
333.6960, 5989.739
334.1781, 6009.957
334.6602, 5993.514
335.1423, 6037.261
335.6245, 6065.826
336.1066, 6088.735
336.5887, 6107.567
337.0708, 6122.319
337.5529, 6133.467
338.0350, 6137.879
338.5172, 6131.560
338.9993, 6140.594
339.4814, 6171.792
339.9635, 6215.984
340.4456, 6248.739
340.9277, 6267.955
341.4099, 6288.075
341.8920, 6317.419
342.3741, 6355.776
342.8562, 6398.229
343.3383, 6445.871
343.8204, 6474.132
344.3026, 6530.814
344.7847, 6574.963
345.2668, 6607.262
345.7489, 6592.208
346.2310, 6638.299
346.7131, 6659.887
347.1953, 6680.476
347.6774, 6735.172
348.1595, 6727.006
348.6416, 6781.163
349.1237, 6810.440
349.6058, 6851.105
350.0880, 6867.122
350.5700, 6842.158
351.0522, 6831.980
351.5343, 6814.337
352.0164, 6769.605
352.4985, 6708.095
352.9806, 6652.034
353.4627, 6622.657
353.9449, 6593.207
354.4270, 6529.355
354.9091, 6434.591
355.3912, 6337.755
355.8733, 6261.535
356.3554, 6194.961
356.8376, 6122.091
357.3197, 6023.984
357.8018, 5936.134
358.2839, 5886.685
358.7660, 5868.822
359.2481, 5855.888
359.7303, 5838.787
360.2124, 5819.228
360.6945, 5798.165
361.1766, 5776.430
361.6587, 5751.984
362.1408, 5716.558
362.6230, 5677.754
363.1051, 5652.774
363.5872, 5660.103
364.0693, 5671.765
364.5514, 5675.168
365.0335, 5667.185
365.5157, 5656.027
365.9978, 5636.458
366.4799, 5615.951
366.9620, 5605.487
367.4441, 5617.815
367.9262, 5629.205
368.4084, 5634.095
368.8905, 5632.003
369.3726, 5626.625
369.8547, 5617.317
370.3368, 5605.328
370.8189, 5591.322
371.3011, 5570.640
371.7832, 5555.465
372.2653, 5547.396
372.7474, 5546.459
373.2295, 5553.417
373.7116, 5573.251
374.1938, 5593.389
374.6759, 5602.166
375.1580, 5594.177
375.6401, 5594.782
376.1222, 5607.369
376.6043, 5630.363
377.0865, 5662.437
377.5686, 5705.825
378.0507, 5747.434
378.5328, 5778.984
379.0149, 5800.709
379.4970, 5816.020
379.9792, 5821.845
380.4613, 5827.646
380.9434, 5850.106
381.4255, 5888.899
381.9076, 5933.539
382.3897, 5986.086
382.8719, 6040.924
383.3540, 6076.911
383.8361, 6092.354
384.3182, 6098.845
384.8003, 6105.282
385.2824, 6112.539
385.7646, 6123.301
386.2467, 6144.766
386.7288, 6166.898
387.2109, 6176.298
387.6930, 6173.465
388.1751, 6165.436
388.6573, 6153.013
389.1394, 6139.868
389.6215, 6131.362
390.1036, 6133.271
390.5857, 6134.918
391.0678, 6130.159
391.5499, 6119.477
392.0320, 6104.604
392.5142, 6086.311
392.9963, 6064.373
393.4784, 6038.703
393.9605, 6010.306
394.4426, 5976.093
394.9247, 5926.667
395.4069, 5871.672
395.8890, 5828.429
396.3711, 5810.820
396.8532, 5797.261
397.3353, 5781.189
397.8174, 5762.208
398.2996, 5741.106
398.7817, 5718.297
399.2638, 5693.428
399.7459, 5665.635
400.2280, 5623.249
400.7101, 5593.824
401.1923, 5586.115
401.6744, 5598.781
402.1565, 5603.254
402.6386, 5595.676
403.1207, 5585.171
403.6028, 5579.840
404.0850, 5584.524
404.5671, 5576.354
405.0492, 5547.051
405.5313, 5507.292
406.0134, 5488.005
406.4955, 5492.106
406.9777, 5503.268
407.4598, 5513.992
407.9419, 5524.280
408.4240, 5534.815
408.9061, 5545.677
409.3882, 5556.138
409.8704, 5563.029
410.3525, 5567.234
410.8346, 5576.216
411.3167, 5594.829
411.7988, 5620.052
412.2809, 5643.888
412.7631, 5666.547
413.2452, 5691.889
413.7273, 5725.712
414.2094, 5764.158
414.6915, 5799.690
415.1736, 5827.209
415.6558, 5854.694
416.1379, 5889.744
416.6200, 5931.239
417.1021, 5972.668
417.5842, 6004.488
418.0663, 6038.871
418.5485, 6087.346
419.0306, 6157.910
419.5127, 6227.392
419.9948, 6288.204
420.4769, 6341.048
420.9590, 6388.662
421.4412, 6422.103
421.9233, 6459.217
422.4054, 6510.028
422.8875, 6577.513
423.3696, 6637.270
423.8517, 6686.046
424.3339, 6724.881
424.8160, 6755.782
425.2981, 6773.210
425.7802, 6789.790
426.2623, 6809.270
426.7444, 6829.910
427.2266, 6840.796
427.7087, 6838.088
428.1908, 6831.977
428.6729, 6827.086
429.1550, 6822.734
429.6371, 6823.111
430.1193, 6828.399
430.6014, 6838.827
431.0835, 6856.161
431.5656, 6881.280
432.0477, 6906.848
432.5298, 6932.093
433.0119, 6955.939
433.4940, 6967.566
433.9762, 6964.838
434.4583, 6965.590
434.9404, 6996.376
435.4225, 7047.853
435.9046, 7083.464
436.3867, 7081.309
436.8689, 7071.542
437.3510, 7098.257
437.8331, 7156.448
438.3152, 7219.486
438.7973, 7274.244
439.2794, 7322.524
439.7616, 7364.823
440.2437, 7398.255
440.7258, 7433.830
441.2079, 7479.590
441.6900, 7531.788
442.1721, 7584.167
442.6543, 7629.175
443.1364, 7678.185
443.6185, 7740.271
444.1006, 7816.444
444.5827, 7885.718
445.0648, 7932.619
445.5470, 7977.430
446.0291, 8035.557
446.5112, 8135.857
446.9933, 8216.842
447.4754, 8252.112
447.9576, 8261.642
448.4397, 8325.528
448.9218, 8484.321
449.4039, 8640.603
449.8860, 8748.915
450.3681, 8791.688
450.8503, 8854.555
451.3324, 8941.524
451.8145, 9043.869
452.2966, 9151.474
452.7787, 9265.971
453.2608, 9378.792
453.7430, 9486.340
454.2251, 9590.630
454.7072, 9705.395
455.1893, 9831.587
455.6714, 9960.563
456.1535, 10087.23
456.6357, 10210.75
457.1178, 10329.86
457.5999, 10440.40
458.0820, 10552.97
458.5641, 10683.33
459.0462, 10826.89
459.5284, 10965.82
460.0105, 11093.66
460.4926, 11210.03
460.9747, 11315.04
461.4568, 11410.29
461.9389, 11483.31
462.4211, 11547.76
462.9032, 11578.59
463.3853, 11548.26
463.8674, 11442.07
464.3495, 11280.35
464.8316, 11055.60
465.3138, 10776.66
465.7959, 10476.92
466.2780, 10140.28
466.7601, 9803.600
467.2422, 9480.863
467.7243, 9157.020
468.2065, 8873.909
468.6886, 8642.188
469.1707, 8443.340
469.6528, 8250.245
470.1349, 8064.041
470.6170, 7883.181
471.0992, 7702.145
471.5813, 7523.782
472.0634, 7383.087
472.5455, 7284.971
473.0276, 7201.893
473.5097, 7112.357
473.9918, 7016.751
474.4739, 6929.927
474.9561, 6852.651
475.4382, 6786.801
475.9203, 6742.652
476.4024, 6715.767
476.8845, 6686.044
477.3666, 6634.816
477.8488, 6578.186
478.3309, 6543.245
478.8130, 6530.614
479.2951, 6515.754
479.7772, 6473.711
480.2593, 6422.163
480.7415, 6382.075
481.2236, 6365.445
481.7057, 6353.279
482.1878, 6339.666
482.6699, 6324.048
483.1520, 6305.062
483.6342, 6276.096
484.1163, 6249.171
484.5984, 6229.829
485.0805, 6220.353
485.5626, 6212.224
486.0447, 6207.192
486.5269, 6202.083
487.0090, 6193.560
487.4911, 6179.514
487.9732, 6165.992
488.4553, 6151.946
488.9374, 6139.120
489.4196, 6137.158
489.9017, 6150.054
490.3838, 6160.775
490.8659, 6156.560
491.3480, 6137.895
491.8301, 6126.712
492.3123, 6123.873
492.7944, 6127.743
493.2765, 6139.977
493.7586, 6158.261
494.2407, 6172.803
494.7228, 6180.102
495.2050, 6181.573
495.6871, 6174.057
496.1692, 6159.875
496.6513, 6153.787
497.1334, 6170.461
497.6155, 6197.328
498.0977, 6223.152
498.5798, 6246.509
499.0619, 6266.717
499.5440, 6281.727
500.0261, 6293.378
500.5082, 6304.365
500.9904, 6304.423
501.4725, 6314.530
501.9546, 6345.263
502.4367, 6396.570
502.9188, 6442.388
503.4009, 6489.423
503.8831, 6523.558
504.3652, 6534.554
504.8473, 6508.601
505.3294, 6493.264
505.8115, 6491.407
506.2936, 6498.972
506.7758, 6510.524
507.2579, 6527.132
507.7400, 6542.423
508.2221, 6556.380
508.7042, 6567.390
509.1863, 6566.192
509.6685, 6552.452
510.1506, 6535.626
510.6327, 6524.562
511.1148, 6516.256
511.5969, 6502.326
512.0790, 6479.412
512.5612, 6456.295
513.0433, 6446.561
513.5254, 6443.010
514.0075, 6430.315
514.4896, 6391.167
514.9717, 6348.910
515.4539, 6319.609
515.9360, 6303.011
516.4181, 6282.462
516.9002, 6245.195
517.3823, 6206.731
517.8644, 6177.115
518.3466, 6160.090
518.8287, 6148.815
519.3108, 6147.014
519.7929, 6149.557
520.2750, 6147.241
520.7571, 6137.104
521.2393, 6127.671
521.7214, 6123.501
522.2035, 6123.342
522.6856, 6106.429
523.1677, 6067.100
523.6498, 6029.875
524.1320, 6018.632
524.6141, 6030.165
525.0962, 6030.744
525.5783, 6015.283
526.0604, 5991.407
526.5425, 5963.213
527.0247, 5934.587
527.5068, 5916.684
527.9889, 5923.259
528.4710, 5938.067
528.9531, 5950.387
529.4352, 5958.874
529.9174, 5951.670
530.3995, 5902.583
530.8816, 5847.143
531.3637, 5812.321
531.8458, 5806.518
532.3279, 5814.913
532.8101, 5853.779
533.2922, 5899.775
533.7743, 5916.590
534.2564, 5862.250
534.7385, 5824.685
535.2206, 5825.570
535.7027, 5859.974
536.1848, 5874.449
536.6669, 5858.323
537.1490, 5843.069
537.6312, 5851.292
538.1133, 5886.015
538.5954, 5906.400
539.0775, 5908.266
539.5596, 5903.060
540.0417, 5908.164
540.5239, 5921.225
541.0060, 5926.649
541.4881, 5911.646
541.9702, 5893.690
542.4523, 5901.387
542.9344, 5930.745
543.4166, 5961.500
543.8987, 5985.215
544.3808, 6002.222
544.8629, 6008.260
545.3450, 5998.977
545.8271, 5999.999
546.3093, 6042.156
546.7914, 6091.089
547.2735, 6112.161
547.7556, 6057.623
548.2377, 6021.860
548.7198, 6024.476
549.2020, 6056.627
549.6841, 6090.919
550.1662, 6131.355
550.6483, 6167.525
551.1304, 6195.157
551.6125, 6214.009
552.0947, 6230.149
552.5768, 6240.775
553.0589, 6258.092
553.5410, 6302.878
554.0231, 6370.468
554.5052, 6418.392
554.9874, 6433.294
555.4695, 6436.973
555.9516, 6455.435
556.4337, 6487.805
556.9158, 6530.446
557.3979, 6589.916
557.8801, 6653.686
558.3622, 6708.328
558.8443, 6754.504
559.3264, 6804.050
559.8085, 6863.775
560.2906, 6927.521
560.7728, 6989.909
561.2549, 7043.482
561.7370, 7108.251
562.2191, 7199.791
562.7012, 7299.188
563.1833, 7378.651
563.6655, 7418.071
564.1476, 7474.225
564.6297, 7570.606
565.1118, 7693.778
565.5939, 7768.301
566.0760, 7785.659
566.5582, 7791.359
567.0403, 7822.667
567.5224, 7870.375
568.0045, 7880.317
568.4866, 7849.854
568.9688, 7785.415
569.4509, 7677.698
569.9330, 7543.120
570.4151, 7409.880
570.8972, 7283.619
571.3793, 7167.853
571.8615, 7074.226
572.3436, 6994.480
572.8257, 6910.159
573.3078, 6794.630
573.7899, 6689.090
574.2720, 6617.210
574.7542, 6581.177
575.2363, 6552.164
575.7184, 6526.454
576.2005, 6507.371
576.6826, 6498.812
577.1647, 6508.649
577.6469, 6507.539
578.1290, 6488.026
578.6111, 6465.000
579.0932, 6464.652
579.5753, 6488.556
580.0574, 6512.905
580.5396, 6529.765
581.0217, 6542.448
581.5038, 6555.597
581.9859, 6569.842
582.4680, 6592.556
582.9501, 6635.228
583.4323, 6686.158
583.9144, 6730.357
584.3965, 6766.149
584.8786, 6798.485
585.3607, 6817.702
585.8428, 6840.828
586.3250, 6885.530
586.8071, 6990.835
587.2892, 7076.272
587.7713, 7110.512
588.2534, 7115.872
588.7355, 7146.709
589.2177, 7220.556
589.6998, 7292.534
590.1819, 7347.073
590.6640, 7386.357
591.1461, 7448.940
591.6282, 7540.834
592.1104, 7632.172
592.5925, 7697.772
593.0746, 7741.629
593.5567, 7793.339
594.0388, 7856.735
594.5209, 7916.942
595.0031, 7946.333
595.4852, 7960.870
595.9673, 7996.750
596.4494, 8091.177
596.9315, 8179.788
597.4136, 8205.776
597.8958, 8188.530
598.3779, 8180.628
598.8600, 8206.536
599.3421, 8240.286
599.8242, 8274.540
600.3063, 8310.181
600.7885, 8333.712
601.2706, 8325.076
601.7527, 8303.919
602.2348, 8270.905
602.7169, 8190.541
603.1990, 8171.324
603.6812, 8127.590
604.1633, 8082.861
604.6454, 8072.251
605.1275, 7998.774
605.6096, 7987.618
606.0917, 7951.589
606.5739, 7926.932
607.0560, 7877.630
607.5381, 7765.521
608.0202, 7686.218
608.5023, 7598.016
608.9844, 7517.328
609.4666, 7462.753
609.9487, 7435.312
610.4308, 7403.807
610.9129, 7350.093
611.3950, 7292.560
611.8771, 7245.361
612.3593, 7224.965
612.8414, 7188.010
613.3235, 7124.776
613.8056, 7052.822
614.2877, 7000.631
614.7698, 6975.885
615.2520, 6939.785
615.7341, 6879.923
616.2162, 6807.007
616.6983, 6749.176
617.1804, 6706.076
617.6625, 6669.653
618.1446, 6639.942
618.6267, 6612.341
619.1088, 6576.689
619.5909, 6533.185
620.0731, 6492.645
620.5552, 6461.859
621.0373, 6437.850
621.5194, 6420.176
622.0015, 6414.969
622.4836, 6399.610
622.9658, 6350.886
623.4479, 6294.898
623.9300, 6266.500
624.4121, 6293.279
624.8942, 6302.362
625.3763, 6275.624
625.8585, 6228.213
626.3406, 6208.769
626.8227, 6222.633
627.3048, 6234.720
627.7869, 6228.866
628.2690, 6209.381
628.7512, 6192.637
629.2333, 6178.677
629.7154, 6161.957
630.1975, 6135.983
630.6796, 6105.865
631.1617, 6076.669
631.6439, 6047.521
632.1260, 6028.558
632.6081, 6039.589
633.0902, 6058.268
633.5723, 6060.430
634.0544, 6024.083
634.5366, 5990.182
635.0187, 5958.916
635.5008, 5934.033
635.9829, 5925.634
636.4650, 5940.784
636.9471, 5956.011
637.4293, 5965.610
637.9114, 5969.165
638.3935, 5963.850
638.8756, 5948.587
639.3577, 5934.190
639.8398, 5924.598
640.3220, 5921.450
640.8041, 5931.880
641.2862, 5956.771
641.7683, 5980.614
642.2504, 5985.816
642.7325, 5985.380
643.2147, 5994.336
643.6968, 6021.438
644.1789, 6048.336
644.6610, 6071.674
645.1431, 6091.013
645.6252, 6106.072
646.1074, 6118.717
646.5895, 6123.625
647.0716, 6113.202
647.5537, 6095.725
648.0358, 6105.685
648.5179, 6148.844
649.0001, 6187.132
649.4822, 6197.662
649.9643, 6189.283
650.4464, 6195.933
650.9285, 6217.235
651.4106, 6241.289
651.8928, 6259.689
652.3749, 6274.746
652.8570, 6286.019
653.3391, 6290.854
653.8212, 6308.112
654.3033, 6364.078
654.7855, 6429.415
655.2676, 6474.790
