##NAMES=Feruvite
##RRUFFID=R061109
##IDEAL CHEMISTRY=CaFe^2+^_3_(Al_5_Mg)(Si_6_O_18_)(BO_3_)_3_(OH)_3_OH
##LOCALITY=Red Cross Lake, Manitoba, Canada
##OWNER=RRUFF
##SOURCE=Michael Scott
##DESCRIPTION=Green fragment
##STATUS=The identification of this mineral has been confirmed only by single crystal X-ray diffraction.
##URL=rruff.info/R061109
138.5035, 7494.562
138.9856, 7539.714
139.4677, 7593.580
139.9498, 7661.997
140.4319, 7734.955
140.9140, 7833.368
141.3961, 8002.627
141.8783, 8294.384
142.3604, 8619.552
142.8425, 8900.519
143.3246, 9137.358
143.8067, 9391.757
144.2888, 9708.390
144.7710, 10073.10
145.2531, 10447.32
145.7352, 10747.05
146.2173, 10931.14
146.6994, 11051.97
147.1815, 11199.49
147.6637, 11319.88
148.1458, 11367.92
148.6279, 11375.24
149.1100, 11382.46
149.5921, 11411.46
150.0742, 11437.95
150.5564, 11423.64
151.0385, 11361.61
151.5206, 11280.46
152.0027, 11189.17
152.4848, 11087.69
152.9669, 10975.26
153.4491, 10848.00
153.9312, 10707.79
154.4133, 10558.82
154.8954, 10394.64
155.3775, 10230.58
155.8596, 10058.19
156.3418, 9890.518
156.8239, 9751.209
157.3060, 9656.909
157.7881, 9594.606
158.2702, 9527.071
158.7523, 9443.771
159.2345, 9375.616
159.7166, 9334.663
160.1987, 9315.007
160.6808, 9309.035
161.1629, 9316.445
161.6451, 9334.515
162.1272, 9353.421
162.6093, 9383.656
163.0914, 9400.602
163.5735, 9379.532
164.0556, 9345.091
164.5378, 9338.801
165.0199, 9396.171
165.5020, 9500.173
165.9841, 9560.627
166.4662, 9544.955
166.9483, 9531.335
167.4305, 9546.305
167.9126, 9580.554
168.3947, 9618.854
168.8768, 9654.456
169.3589, 9686.068
169.8410, 9703.025
170.3232, 9686.264
170.8053, 9676.828
171.2874, 9686.853
171.7695, 9711.133
172.2516, 9740.600
172.7337, 9769.992
173.2159, 9798.740
173.6980, 9825.456
174.1801, 9856.813
174.6622, 9875.999
175.1443, 9869.135
175.6264, 9847.362
176.1085, 9831.141
176.5907, 9836.894
177.0728, 9860.682
177.5549, 9860.465
178.0370, 9802.841
178.5191, 9754.220
179.0012, 9727.108
179.4834, 9719.611
179.9655, 9726.695
180.4476, 9745.269
180.9297, 9775.352
181.4118, 9817.345
181.8939, 9886.678
182.3761, 9953.355
182.8582, 9998.289
183.3403, 10037.68
183.8224, 10102.34
184.3045, 10216.83
184.7866, 10372.37
185.2688, 10493.74
185.7509, 10566.93
186.2330, 10616.51
186.7151, 10631.27
187.1972, 10626.96
187.6793, 10628.78
188.1615, 10654.28
188.6436, 10698.16
189.1257, 10716.36
189.6078, 10690.36
190.0899, 10656.44
190.5720, 10611.65
191.0542, 10564.22
191.5363, 10527.88
192.0184, 10512.88
192.5005, 10512.63
192.9826, 10486.73
193.4647, 10401.24
193.9469, 10325.43
194.4290, 10274.04
194.9111, 10237.61
195.3932, 10200.50
195.8753, 10153.56
196.3574, 10100.57
196.8396, 10060.94
197.3217, 10038.33
197.8038, 10026.71
198.2859, 10030.80
198.7680, 10044.34
199.2501, 10059.31
199.7323, 10071.44
200.2144, 10082.63
200.6965, 10099.62
201.1786, 10146.76
201.6607, 10171.64
202.1428, 10153.67
202.6250, 10116.06
203.1071, 10086.40
203.5892, 10077.21
204.0713, 10083.54
204.5534, 10090.94
205.0355, 10109.44
205.5177, 10115.68
205.9998, 10097.81
206.4819, 10071.03
206.9640, 10056.21
207.4461, 10061.58
207.9282, 10072.17
208.4104, 10051.75
208.8925, 9952.934
209.3746, 9884.799
209.8567, 9866.938
210.3388, 9872.063
210.8209, 9881.916
211.3030, 9888.728
211.7852, 9882.234
212.2673, 9840.173
212.7494, 9715.508
213.2315, 9625.526
213.7136, 9596.725
214.1957, 9585.244
214.6779, 9552.621
215.1600, 9489.669
215.6421, 9416.281
216.1242, 9365.105
216.6063, 9353.411
217.0884, 9332.152
217.5706, 9295.597
218.0527, 9254.979
218.5348, 9218.976
219.0169, 9188.999
219.4990, 9160.626
219.9811, 9129.498
220.4633, 9101.409
220.9454, 9053.028
221.4275, 8960.224
221.9096, 8869.497
222.3917, 8812.765
222.8738, 8790.283
223.3560, 8778.146
223.8381, 8749.144
224.3202, 8696.109
224.8023, 8656.323
225.2844, 8633.645
225.7665, 8617.972
226.2487, 8607.318
226.7308, 8599.867
227.2129, 8592.332
227.6950, 8580.971
228.1771, 8564.590
228.6592, 8555.965
229.1414, 8572.915
229.6235, 8579.854
230.1056, 8554.394
230.5877, 8507.095
231.0698, 8465.302
231.5519, 8450.973
232.0341, 8463.322
232.5162, 8465.266
232.9983, 8443.326
233.4804, 8424.693
233.9625, 8418.998
234.4446, 8420.758
234.9268, 8417.461
235.4089, 8399.382
235.8910, 8372.388
236.3731, 8372.147
236.8552, 8438.287
237.3373, 8485.327
237.8195, 8488.513
238.3016, 8468.127
238.7837, 8448.994
239.2658, 8443.218
239.7479, 8448.069
240.2300, 8455.536
240.7122, 8464.276
241.1943, 8478.485
241.6764, 8500.416
242.1585, 8526.552
242.6406, 8555.398
243.1227, 8586.296
243.6049, 8615.115
244.0870, 8632.570
244.5691, 8630.943
245.0512, 8634.574
245.5333, 8653.195
246.0154, 8672.541
246.4975, 8682.093
246.9797, 8679.464
247.4618, 8669.264
247.9439, 8657.416
248.4260, 8644.417
248.9081, 8627.473
249.3902, 8607.622
249.8724, 8582.767
250.3545, 8551.044
250.8366, 8512.655
251.3187, 8469.237
251.8008, 8422.160
252.2829, 8371.419
252.7651, 8317.965
253.2472, 8252.190
253.7293, 8193.080
254.2114, 8151.875
254.6935, 8125.290
255.1756, 8101.491
255.6578, 8072.152
256.1399, 8037.958
256.6220, 8003.995
257.1041, 7964.650
257.5862, 7934.405
258.0684, 7923.385
258.5505, 7924.222
259.0326, 7922.593
259.5147, 7908.925
259.9968, 7888.715
260.4789, 7875.300
260.9611, 7866.211
261.4432, 7870.240
261.9253, 7907.135
262.4074, 7953.529
262.8895, 7978.972
263.3716, 7967.691
263.8537, 7940.881
264.3358, 7930.771
264.8180, 7941.111
265.3001, 7946.498
265.7822, 7936.003
266.2643, 7915.974
266.7464, 7887.930
267.2285, 7847.573
267.7107, 7816.747
268.1928, 7824.128
268.6749, 7866.599
269.1570, 7895.818
269.6391, 7890.038
270.1212, 7872.538
270.6034, 7871.064
271.0855, 7886.824
271.5676, 7904.202
272.0497, 7914.246
272.5318, 7918.749
273.0139, 7923.543
273.4961, 7930.628
273.9782, 7936.038
274.4603, 7935.389
274.9424, 7929.336
275.4245, 7920.468
275.9066, 7913.828
276.3888, 7903.217
276.8709, 7876.849
277.3530, 7832.084
277.8351, 7784.949
278.3172, 7750.104
278.7993, 7725.416
279.2815, 7695.307
279.7636, 7659.287
280.2457, 7616.725
280.7278, 7557.098
281.2099, 7484.662
281.6920, 7430.204
282.1742, 7415.932
282.6563, 7435.082
283.1384, 7448.713
283.6205, 7474.918
284.1026, 7477.705
284.5847, 7420.917
285.0669, 7330.811
285.5490, 7266.361
286.0311, 7257.215
286.5132, 7279.976
286.9953, 7274.784
287.4774, 7214.592
287.9596, 7172.502
288.4417, 7154.191
288.9238, 7160.538
289.4059, 7205.810
289.8880, 7291.833
290.3701, 7380.447
290.8523, 7415.570
291.3344, 7367.418
291.8165, 7336.461
292.2986, 7339.159
292.7807, 7344.869
293.2628, 7325.070
293.7450, 7283.721
294.2271, 7253.345
294.7092, 7268.637
295.1913, 7335.873
295.6734, 7371.040
296.1555, 7344.939
296.6377, 7318.554
297.1198, 7315.153
297.6019, 7326.184
298.0840, 7332.044
298.5661, 7319.970
299.0482, 7294.119
299.5304, 7274.210
300.0125, 7265.133
300.4946, 7255.587
300.9767, 7243.501
301.4588, 7230.279
301.9409, 7214.105
302.4231, 7194.302
302.9052, 7180.551
303.3873, 7194.708
303.8694, 7251.923
304.3515, 7290.411
304.8336, 7295.433
305.3158, 7284.302
305.7979, 7258.769
306.2800, 7222.358
306.7621, 7192.145
307.2442, 7137.817
307.7263, 7189.806
308.2085, 7219.660
308.6906, 7228.568
309.1727, 7153.796
309.6548, 7187.080
310.1369, 7177.059
310.6190, 7165.263
311.1012, 7213.754
311.5833, 7151.153
312.0654, 7189.461
312.5475, 7215.058
313.0296, 7239.560
313.5117, 7244.051
313.9939, 7237.775
314.4760, 7233.818
314.9581, 7233.378
315.4402, 7237.687
315.9223, 7258.084
316.4044, 7290.463
316.8866, 7293.957
317.3687, 7234.749
317.8508, 7156.441
318.3329, 7141.933
318.8150, 7211.063
319.2971, 7268.967
319.7793, 7272.243
320.2614, 7242.357
320.7435, 7211.055
321.2256, 7184.309
321.7077, 7169.984
322.1898, 7181.391
322.6720, 7224.837
323.1541, 7258.478
323.6362, 7273.498
324.1183, 7283.318
324.6004, 7293.058
325.0826, 7305.433
325.5647, 7329.504
326.0468, 7374.862
326.5289, 7439.566
327.0110, 7485.228
327.4931, 7488.405
327.9753, 7502.103
328.4574, 7550.501
328.9395, 7616.518
329.4216, 7672.093
329.9037, 7704.744
330.3858, 7724.130
330.8680, 7753.658
331.3501, 7806.944
331.8322, 7847.756
332.3143, 7859.028
332.7964, 7869.363
333.2785, 7906.382
333.7606, 7970.713
334.2427, 8034.803
334.7249, 8065.742
335.2070, 8058.635
335.6891, 8057.201
336.1712, 8063.169
336.6533, 8073.480
337.1354, 8093.692
337.6176, 8117.115
338.0997, 8129.489
338.5818, 8118.831
339.0639, 8093.512
339.5460, 8075.067
340.0281, 8060.051
340.5103, 8061.119
340.9924, 8092.164
341.4745, 8138.214
341.9566, 8186.756
342.4387, 8236.851
342.9208, 8282.957
343.4030, 8312.967
343.8851, 8330.207
344.3672, 8363.538
344.8493, 8424.685
345.3314, 8498.827
345.8135, 8573.773
346.2957, 8650.003
346.7778, 8714.310
347.2599, 8755.817
347.7420, 8785.189
348.2241, 8815.543
348.7062, 8848.298
349.1884, 8884.955
349.6705, 8933.380
350.1526, 8989.530
350.6347, 9012.666
351.1168, 8980.757
351.5989, 8938.973
352.0811, 8915.084
352.5632, 8898.380
353.0453, 8860.465
353.5274, 8786.313
354.0095, 8689.565
354.4916, 8602.666
354.9738, 8546.228
355.4559, 8472.062
355.9380, 8374.550
356.4201, 8262.560
356.9022, 8133.383
357.3843, 7991.828
357.8665, 7857.032
358.3486, 7747.957
358.8307, 7665.115
359.3128, 7607.038
359.7949, 7597.723
360.2770, 7589.446
360.7592, 7567.949
361.2413, 7536.123
361.7234, 7501.498
362.2055, 7467.929
362.6876, 7434.866
363.1697, 7400.878
363.6519, 7364.572
364.1340, 7330.887
364.6161, 7297.988
365.0982, 7270.231
365.5803, 7253.140
366.0624, 7247.925
366.5446, 7247.343
367.0267, 7244.143
367.5088, 7239.702
367.9909, 7244.688
368.4730, 7268.722
368.9551, 7287.639
369.4373, 7274.520
369.9194, 7236.789
370.4015, 7201.522
370.8836, 7182.041
371.3657, 7165.079
371.8478, 7129.554
372.3300, 7078.109
372.8121, 7044.729
373.2942, 7054.206
373.7763, 7092.264
374.2584, 7106.535
374.7405, 7078.317
375.2227, 7057.661
375.7048, 7058.248
376.1869, 7073.119
376.6690, 7093.507
377.1511, 7117.007
377.6332, 7145.952
378.1154, 7184.605
378.5975, 7238.068
379.0796, 7283.266
379.5617, 7320.518
380.0438, 7350.766
380.5259, 7369.487
381.0081, 7381.525
381.4902, 7397.179
381.9723, 7423.394
382.4544, 7457.986
382.9365, 7494.006
383.4186, 7539.403
383.9008, 7570.474
384.3829, 7572.757
384.8650, 7566.248
385.3471, 7569.648
385.8292, 7587.077
386.3113, 7606.180
386.7935, 7613.869
387.2756, 7610.891
387.7577, 7607.124
388.2398, 7602.480
388.7219, 7599.133
389.2040, 7604.725
389.6862, 7614.133
390.1683, 7609.925
390.6504, 7579.931
391.1325, 7537.534
391.6146, 7495.043
392.0967, 7452.722
392.5789, 7415.452
393.0610, 7388.710
393.5431, 7365.893
394.0252, 7329.305
394.5073, 7274.048
394.9894, 7218.440
395.4716, 7158.234
395.9537, 7104.023
396.4358, 7073.423
396.9179, 7067.971
397.4000, 7067.393
397.8821, 7050.040
398.3643, 7013.481
398.8464, 6978.598
399.3285, 6936.776
399.8106, 6904.941
400.2927, 6895.089
400.7748, 6898.120
401.2570, 6899.532
401.7391, 6892.363
402.2212, 6878.176
402.7033, 6860.183
403.1854, 6838.151
403.6675, 6812.877
404.1497, 6777.159
404.6317, 6743.728
405.1139, 6720.192
405.5960, 6707.156
406.0781, 6701.737
406.5602, 6710.895
407.0423, 6726.536
407.5244, 6715.372
408.0066, 6666.228
408.4887, 6624.685
408.9708, 6625.522
409.4529, 6651.560
409.9350, 6669.839
410.4171, 6674.320
410.8993, 6673.585
411.3814, 6668.900
411.8635, 6663.226
412.3456, 6664.679
412.8277, 6676.199
413.3098, 6692.482
413.7920, 6704.646
414.2741, 6706.836
414.7562, 6729.054
415.2383, 6797.215
415.7204, 6863.041
416.2025, 6893.415
416.6847, 6894.749
417.1668, 6886.831
417.6489, 6878.586
418.1310, 6879.467
418.6131, 6931.393
419.0952, 7088.397
419.5774, 7208.028
420.0595, 7259.792
420.5416, 7282.376
421.0237, 7298.584
421.5058, 7315.428
421.9879, 7339.257
422.4701, 7382.740
422.9522, 7442.754
423.4343, 7485.326
423.9164, 7505.454
424.3985, 7515.967
424.8806, 7520.836
425.3628, 7521.944
425.8449, 7521.890
426.3270, 7520.071
426.8091, 7519.037
427.2912, 7521.700
427.7733, 7527.085
428.2555, 7534.633
428.7376, 7547.772
429.2197, 7552.127
429.7018, 7520.917
430.1839, 7441.907
430.6660, 7390.216
431.1482, 7388.940
431.6303, 7401.467
432.1124, 7405.207
432.5945, 7400.229
433.0766, 7394.019
433.5587, 7390.745
434.0409, 7390.793
434.5230, 7395.792
435.0051, 7409.941
435.4872, 7422.729
435.9693, 7418.819
436.4514, 7423.288
436.9336, 7459.414
437.4157, 7527.913
437.8978, 7607.734
438.3799, 7689.945
438.8620, 7771.193
439.3441, 7814.786
439.8263, 7795.968
440.3084, 7792.498
440.7905, 7859.758
441.2726, 7963.382
441.7547, 8056.407
442.2368, 8122.059
442.7190, 8191.948
443.2011, 8296.278
443.6832, 8423.135
444.1653, 8540.967
444.6474, 8641.874
445.1295, 8731.068
445.6117, 8810.771
446.0938, 8877.467
446.5759, 8964.194
447.0580, 9061.174
447.5401, 9186.636
448.0222, 9382.827
448.5044, 9611.278
448.9865, 9792.421
449.4686, 9886.408
449.9507, 9928.668
450.4328, 9996.623
450.9149, 10099.85
451.3971, 10206.66
451.8792, 10312.67
452.3613, 10424.04
452.8434, 10541.54
453.3255, 10667.39
453.8076, 10805.17
454.2898, 10957.00
454.7719, 11123.31
455.2540, 11309.87
455.7361, 11520.61
456.2182, 11728.46
456.7003, 11908.57
457.1825, 12091.47
457.6646, 12323.42
458.1467, 12617.03
458.6288, 12907.20
459.1109, 13159.50
459.5930, 13398.89
460.0752, 13671.88
460.5573, 13979.46
461.0394, 14253.34
461.5215, 14440.72
462.0036, 14546.73
462.4857, 14619.38
462.9679, 14710.37
463.4500, 14706.38
463.9321, 14572.81
464.4142, 14342.98
464.8963, 14038.45
465.3784, 13670.51
465.8606, 13259.92
466.3427, 12819.92
466.8248, 12348.98
467.3069, 11894.24
467.7890, 11441.44
468.2711, 11025.28
468.7533, 10664.26
469.2354, 10342.97
469.7175, 10040.63
470.1996, 9747.340
470.6817, 9474.637
471.1638, 9228.683
471.6460, 9011.117
472.1281, 8839.420
472.6102, 8724.013
473.0923, 8626.491
473.5744, 8505.710
474.0565, 8357.890
474.5387, 8229.012
475.0208, 8125.124
475.5029, 8033.625
475.9850, 7953.766
476.4671, 7881.137
476.9492, 7808.731
477.4313, 7733.794
477.9135, 7657.985
478.3956, 7582.241
478.8777, 7499.038
479.3598, 7438.252
479.8419, 7422.835
480.3240, 7409.733
480.8062, 7383.945
481.2883, 7346.481
481.7704, 7302.190
482.2525, 7250.434
482.7346, 7197.549
483.2167, 7148.552
483.6989, 7103.978
484.1810, 7077.609
484.6631, 7082.477
485.1452, 7094.625
485.6273, 7079.401
486.1094, 7036.955
486.5916, 7000.575
487.0737, 6983.503
487.5558, 6968.514
488.0379, 6937.601
488.5200, 6896.509
489.0021, 6866.152
489.4843, 6858.089
489.9664, 6862.698
490.4485, 6856.596
490.9306, 6817.301
491.4127, 6849.789
491.8948, 6866.958
492.3770, 6869.631
492.8591, 6814.397
493.3412, 6833.940
493.8233, 6823.516
494.3054, 6811.863
494.7875, 6841.930
495.2697, 6795.119
495.7518, 6824.524
496.2339, 6823.506
496.7160, 6836.412
497.1981, 6819.166
497.6802, 6811.233
498.1624, 6789.456
498.6445, 6779.453
499.1266, 6757.856
499.6087, 6746.276
500.0908, 6773.940
500.5729, 6832.418
501.0551, 6885.196
501.5372, 6912.336
502.0193, 6921.023
502.5014, 6931.441
502.9835, 6949.484
503.4656, 6958.545
503.9478, 6950.307
504.4299, 6941.023
504.9120, 6936.914
505.3941, 6940.397
505.8762, 6955.948
506.3583, 6992.164
506.8405, 7035.859
507.3226, 7054.836
507.8047, 7046.435
508.2868, 7041.916
508.7689, 7058.229
509.2510, 7075.100
509.7332, 7056.960
510.2153, 7000.889
510.6974, 6976.747
511.1795, 7039.308
511.6616, 7113.063
512.1437, 7131.080
512.6259, 7100.383
513.1080, 7057.179
513.5901, 7018.947
514.0722, 6987.002
514.5543, 6965.031
515.0364, 6958.505
515.5186, 6951.587
516.0007, 6947.288
516.4828, 6939.672
516.9649, 6922.299
517.4470, 6898.733
517.9291, 6878.781
518.4113, 6868.195
518.8934, 6863.135
519.3755, 6858.450
519.8576, 6854.149
520.3397, 6846.293
520.8218, 6831.966
521.3040, 6816.447
521.7861, 6807.884
522.2682, 6805.997
522.7503, 6798.599
523.2324, 6770.854
523.7145, 6749.100
524.1967, 6757.473
524.6788, 6784.510
525.1609, 6805.729
525.6430, 6810.867
526.1251, 6800.349
526.6072, 6773.206
527.0894, 6724.143
527.5715, 6675.152
528.0536, 6602.537
528.5357, 6554.805
529.0178, 6575.935
529.4999, 6630.575
529.9821, 6652.608
530.4642, 6611.364
530.9463, 6546.200
531.4284, 6495.753
531.9105, 6457.275
532.3926, 6413.413
532.8748, 6356.938
533.3569, 6311.252
533.8390, 6300.591
534.3211, 6325.342
534.8032, 6349.265
535.2853, 6384.124
535.7675, 6404.568
536.2496, 6388.030
536.7317, 6358.253
537.2138, 6349.617
537.6959, 6368.960
538.1780, 6390.306
538.6602, 6382.513
539.1423, 6346.244
539.6244, 6317.333
540.1065, 6295.527
540.5886, 6281.790
541.0707, 6283.305
541.5529, 6289.858
542.0350, 6288.233
542.5171, 6274.521
542.9992, 6264.093
543.4813, 6278.083
543.9634, 6295.745
544.4456, 6274.737
544.9277, 6215.092
545.4098, 6166.096
545.8919, 6163.079
546.3740, 6193.824
546.8561, 6208.509
547.3383, 6182.996
547.8204, 6175.485
548.3025, 6203.619
548.7846, 6237.269
549.2667, 6255.134
549.7488, 6257.927
550.2310, 6258.173
550.7131, 6264.847
551.1952, 6273.188
551.6773, 6269.413
552.1594, 6252.416
552.6415, 6246.193
553.1237, 6261.107
553.6058, 6285.140
554.0879, 6305.148
554.5700, 6321.396
555.0521, 6336.208
555.5342, 6349.973
556.0164, 6362.533
556.4985, 6367.997
556.9806, 6373.214
557.4627, 6392.262
557.9448, 6430.166
558.4269, 6478.958
558.9091, 6527.752
559.3912, 6576.877
559.8733, 6624.032
560.3554, 6669.324
560.8375, 6712.400
561.3196, 6746.306
561.8018, 6780.073
562.2839, 6827.804
562.7660, 6895.466
563.2481, 6967.687
563.7302, 7038.100
564.2123, 7104.349
564.6945, 7159.269
565.1766, 7202.179
565.6587, 7244.171
566.1408, 7295.965
566.6229, 7351.458
567.1050, 7379.299
567.5872, 7345.449
568.0693, 7329.015
568.5514, 7369.064
569.0335, 7400.003
569.5156, 7373.312
569.9977, 7290.140
570.4799, 7175.673
570.9620, 7034.723
571.4441, 6886.284
571.9262, 6772.325
572.4083, 6692.863
572.8904, 6618.583
573.3726, 6542.696
573.8547, 6465.085
574.3368, 6379.345
574.8189, 6285.038
575.3010, 6214.091
575.7831, 6182.146
576.2653, 6160.314
576.7474, 6142.633
577.2295, 6122.723
577.7116, 6084.695
578.1937, 6026.313
578.6758, 5975.342
579.1580, 5973.318
579.6401, 6020.529
580.1222, 6041.960
580.6042, 6027.787
581.0864, 6007.142
581.5685, 5980.089
582.0506, 5959.259
582.5327, 5964.313
583.0148, 6001.895
583.4969, 6037.488
583.9791, 6055.684
584.4612, 6063.343
584.9433, 6067.646
585.4254, 6068.912
585.9075, 6063.356
586.3896, 6047.750
586.8718, 6028.726
587.3539, 6023.913
587.8360, 6043.673
588.3181, 6052.688
588.8002, 6033.092
589.2823, 6019.173
589.7645, 6030.729
590.2466, 6059.154
590.7287, 6083.288
591.2108, 6091.398
591.6929, 6104.082
592.1750, 6152.140
592.6572, 6219.700
593.1393, 6258.433
593.6214, 6258.941
594.1035, 6254.215
594.5856, 6271.731
595.0677, 6308.037
595.5499, 6335.733
596.0320, 6340.360
596.5141, 6354.990
596.9962, 6393.364
597.4783, 6434.166
597.9604, 6458.589
598.4426, 6468.071
598.9247, 6478.565
599.4068, 6501.190
599.8889, 6529.763
600.3710, 6552.397
600.8531, 6569.521
601.3353, 6593.789
601.8174, 6635.199
602.2995, 6668.722
602.7816, 6661.232
603.2637, 6608.249
603.7458, 6576.583
604.2280, 6584.550
604.7101, 6591.760
605.1922, 6588.479
605.6743, 6574.556
606.1564, 6543.857
606.6385, 6498.658
607.1207, 6460.833
607.6028, 6459.222
608.0849, 6481.627
608.5670, 6470.956
609.0491, 6421.324
609.5313, 6369.087
610.0134, 6321.773
610.4955, 6284.247
610.9776, 6269.632
611.4597, 6281.014
611.9418, 6277.968
612.4240, 6239.823
612.9061, 6199.748
613.3882, 6179.794
613.8703, 6171.863
614.3524, 6158.278
614.8345, 6133.043
615.3167, 6107.037
615.7988, 6098.765
616.2809, 6107.807
616.7630, 6095.288
617.2451, 6053.802
617.7272, 6008.675
618.2094, 5971.683
618.6915, 5937.392
619.1736, 5893.315
619.6557, 5833.301
620.1378, 5791.654
620.6199, 5787.436
621.1021, 5798.391
621.5842, 5813.217
622.0663, 5826.763
622.5484, 5829.295
623.0305, 5816.220
623.5126, 5795.934
623.9948, 5783.740
624.4769, 5781.775
624.9590, 5769.382
625.4411, 5738.261
625.9232, 5709.794
626.4053, 5693.495
626.8875, 5687.201
627.3696, 5690.991
627.8517, 5709.232
628.3338, 5722.494
628.8159, 5716.382
629.2980, 5705.566
629.7802, 5705.460
630.2623, 5715.436
630.7444, 5728.302
631.2265, 5740.423
631.7086, 5750.471
632.1907, 5754.725
632.6729, 5751.167
633.1550, 5751.071
633.6371, 5753.762
634.1192, 5761.680
634.6013, 5780.013
635.0834, 5803.217
635.5656, 5821.899
636.0477, 5835.171
636.5298, 5842.145
