##NAMES=Fetiasite
##RRUFFID=R100014
##IDEAL CHEMISTRY=(Fe^2+^,Fe^3+^,Ti^4+^)_3_O_2_As^3+^_2_O_5_
##LOCALITY=Gorb, Binnental, Valais, Switzerland
##OWNER=RRUFF
##SOURCE=William Pinch
##DESCRIPTION=Brown to reddish-brown platy massive
##STATUS=The identification of this mineral has been confirmed by single-crystal X-ray diffraction.
##URL=rruff.info/R100014
89.60352, 20.65999
90.08563, 21.37863
90.56775, 21.51856
91.04987, 20.71774
91.53198, 19.66928
92.01410, 19.25600
92.49622, 19.45386
92.97833, 19.89002
93.46045, 20.47284
93.94257, 21.08490
94.42468, 21.30087
94.90680, 20.72936
95.38892, 19.64896
95.87103, 18.88773
96.35315, 18.46576
96.83527, 18.30716
97.31738, 18.41409
97.79950, 18.79703
98.28162, 19.11328
98.76373, 19.25213
99.24585, 19.21443
99.72797, 18.86638
100.2101, 18.07374
100.6922, 17.09157
101.1743, 16.50818
101.6564, 16.37545
102.1385, 16.48636
102.6207, 16.77172
103.1028, 17.31279
103.5849, 17.81153
104.0670, 18.45857
104.5491, 19.11917
105.0313, 18.62136
105.5134, 15.98442
105.9955, 13.20043
106.4776, 11.83077
106.9597, 12.97086
107.4418, 13.99232
107.9240, 14.43501
108.4061, 14.20059
108.8882, 14.15474
109.3703, 14.57709
109.8524, 15.08286
110.3345, 15.26215
110.8167, 14.79736
111.2988, 14.29076
111.7809, 13.84818
112.2630, 13.42422
112.7451, 13.21982
113.2272, 13.47732
113.7094, 13.94628
114.1915, 14.21588
114.6736, 14.02197
115.1557, 13.72323
115.6378, 13.51770
116.1199, 13.59320
116.6021, 13.48801
117.0842, 12.81194
117.5663, 11.77836
118.0484, 11.02811
118.5305, 10.93650
119.0126, 11.19242
119.4948, 11.56847
119.9769, 12.27261
120.4590, 12.80656
120.9411, 12.62272
121.4232, 11.83176
121.9053, 11.26693
122.3875, 11.84083
122.8696, 12.89453
123.3517, 13.51308
123.8338, 12.97427
124.3159, 12.02234
124.7980, 11.37245
125.2802, 11.02395
125.7623, 10.96422
126.2444, 11.30960
126.7265, 11.95632
127.2086, 12.62774
127.6907, 13.10860
128.1729, 13.53830
128.6550, 14.28318
129.1371, 15.44399
129.6192, 16.60250
130.1013, 16.95074
130.5834, 16.62203
131.0656, 16.71544
131.5477, 18.12007
132.0298, 20.57590
132.5119, 22.75194
132.9940, 24.46991
133.4761, 25.94492
133.9583, 27.70151
134.4404, 29.76357
134.9225, 31.84899
135.4046, 33.76393
135.8867, 35.51683
136.3688, 37.14692
136.8510, 38.69276
137.3331, 40.09970
137.8152, 41.17737
138.2973, 41.79406
138.7794, 42.45375
139.2615, 43.63449
139.7437, 45.43948
140.2258, 47.26751
140.7079, 48.95822
141.1900, 50.52372
141.6721, 52.50702
142.1542, 55.23188
142.6364, 57.94469
143.1185, 59.65262
143.6006, 59.48724
144.0827, 60.04138
144.5648, 62.09662
145.0469, 66.02299
145.5291, 69.49418
146.0112, 72.46171
146.4933, 75.04565
146.9754, 77.45239
147.4575, 79.47646
147.9396, 81.53941
148.4218, 83.81087
148.9039, 86.43395
149.3860, 88.88117
149.8681, 91.09502
150.3502, 93.10710
150.8323, 94.98798
151.3145, 97.26275
151.7966, 98.95272
152.2787, 99.65669
152.7608, 98.23271
153.2429, 97.56933
153.7250, 98.12090
154.2072, 99.59842
154.6893, 101.1915
155.1714, 102.8640
155.6535, 103.7358
156.1356, 104.0435
156.6177, 102.6539
157.0999, 102.1926
157.5820, 103.7764
158.0641, 106.8669
158.5462, 109.2424
159.0283, 109.7400
159.5104, 109.7078
159.9926, 110.0247
160.4747, 111.0461
160.9568, 112.2840
161.4389, 113.6157
161.9210, 115.0233
162.4031, 116.5383
162.8853, 118.5856
163.3674, 120.5577
163.8495, 121.8992
164.3316, 121.5672
164.8137, 121.2879
165.2958, 122.3434
165.7780, 124.7056
166.2601, 126.3559
166.7422, 125.5717
167.2243, 123.6370
167.7064, 122.1938
168.1885, 122.1489
168.6707, 122.6040
169.1528, 123.0022
169.6349, 123.3229
170.1170, 123.5514
170.5991, 123.5953
171.0812, 123.5512
171.5634, 123.5861
172.0455, 123.7195
172.5276, 123.9935
173.0097, 124.5655
173.4918, 125.5196
173.9739, 126.3221
174.4561, 126.3976
174.9382, 125.9731
175.4203, 125.5913
175.9024, 125.5591
176.3845, 125.7267
176.8666, 125.9259
177.3488, 126.1648
177.8309, 126.3412
178.3130, 126.3584
178.7951, 126.2248
179.2772, 125.9688
179.7593, 125.3228
180.2415, 124.6028
180.7236, 124.4857
181.2057, 125.1773
181.6878, 126.1762
182.1699, 126.8488
182.6520, 127.2215
183.1342, 127.5553
183.6163, 128.1829
184.0984, 128.9190
184.5805, 129.1290
185.0626, 128.5604
185.5447, 127.6987
186.0269, 127.4620
186.5090, 127.8225
186.9911, 128.0916
187.4732, 127.5673
187.9553, 126.4490
188.4374, 125.7194
188.9196, 125.5658
189.4017, 125.8514
189.8838, 126.4614
190.3659, 127.4315
190.8480, 128.1777
191.3301, 128.1468
191.8123, 127.4105
192.2944, 126.6516
192.7765, 125.9387
193.2586, 125.3265
193.7407, 125.0173
194.2228, 125.0268
194.7050, 125.2215
195.1871, 125.5710
195.6692, 126.0735
196.1513, 126.4437
196.6334, 126.5926
197.1155, 126.5722
197.5977, 126.5977
198.0798, 126.6867
198.5619, 126.7470
199.0440, 126.5888
199.5261, 126.1759
200.0082, 126.1141
200.4904, 126.7701
200.9725, 127.9323
201.4546, 128.0880
201.9367, 126.9720
202.4188, 125.5929
202.9009, 125.0698
203.3831, 125.5476
203.8652, 125.8164
204.3473, 125.4313
204.8294, 124.4945
205.3115, 124.2324
205.7936, 124.7911
206.2758, 125.7106
206.7579, 126.7090
207.2400, 127.9731
207.7221, 128.3987
208.2042, 127.2942
208.6863, 124.7154
209.1685, 123.7234
209.6506, 124.8743
210.1327, 126.6397
210.6148, 127.1867
211.0969, 126.1391
211.5790, 125.1381
212.0612, 124.5354
212.5433, 124.3338
213.0254, 124.6173
213.5075, 125.6104
213.9896, 126.7863
214.4717, 127.5275
214.9538, 127.8139
215.4360, 127.7172
215.9181, 127.0862
216.4002, 125.8556
216.8823, 125.2089
217.3644, 125.3277
217.8465, 125.8228
218.3287, 126.2694
218.8108, 126.7646
219.2929, 126.9728
219.7750, 126.6731
220.2571, 125.7508
220.7392, 125.3917
221.2214, 125.8177
221.7035, 126.5789
222.1856, 127.1449
222.6677, 127.5414
223.1498, 127.6686
223.6319, 127.3870
224.1141, 126.5910
224.5962, 126.2240
225.0783, 126.5083
225.5604, 127.0271
226.0425, 127.2111
226.5246, 126.8730
227.0068, 126.5579
227.4889, 126.4098
227.9710, 126.4391
228.4531, 126.5498
228.9352, 126.7606
229.4173, 127.0358
229.8995, 127.3184
230.3816, 127.5756
230.8637, 127.9140
231.3458, 128.4317
231.8279, 129.2230
232.3100, 129.6158
232.7922, 129.4526
233.2743, 129.0226
233.7564, 128.6507
234.2385, 128.1931
234.7206, 128.0568
235.2027, 128.3836
235.6849, 129.2265
236.1670, 130.2688
236.6491, 131.9643
237.1312, 133.4969
237.6133, 133.6949
238.0954, 131.6335
238.5776, 129.8619
239.0597, 129.1559
239.5418, 129.7419
240.0239, 129.7901
240.5060, 128.9426
240.9881, 127.8526
241.4703, 127.3751
241.9524, 127.8844
242.4345, 128.3233
242.9166, 128.3586
243.3987, 127.8950
243.8808, 127.7793
244.3630, 128.1730
244.8451, 128.7735
245.3272, 129.2472
245.8093, 129.6479
246.2914, 129.8151
246.7735, 129.6194
247.2557, 128.9954
247.7378, 128.6834
248.2199, 128.7864
248.7020, 129.0942
249.1841, 129.4161
249.6662, 129.8824
250.1484, 130.0811
250.6305, 129.7348
251.1126, 128.7759
251.5947, 128.5841
252.0768, 129.5073
252.5589, 130.8223
253.0411, 131.8171
253.5232, 132.4783
254.0053, 132.8190
254.4874, 132.7824
254.9695, 132.3618
255.4516, 131.9256
255.9338, 131.4947
256.4159, 131.0275
256.8980, 130.4020
257.3801, 129.3222
257.8622, 128.8427
258.3444, 129.4792
258.8265, 131.1576
259.3086, 131.6779
259.7907, 130.5111
260.2728, 128.9497
260.7549, 128.1300
261.2371, 128.2218
261.7192, 128.5727
262.2013, 129.1346
262.6834, 129.8887
263.1655, 130.6626
263.6476, 131.6639
264.1298, 132.3439
264.6119, 132.0636
265.0940, 130.3211
265.5761, 129.3395
266.0582, 129.6357
266.5403, 130.9757
267.0225, 132.1719
267.5046, 133.4068
267.9867, 134.0893
268.4688, 133.5411
268.9509, 131.3327
269.4330, 129.7230
269.9152, 129.0861
270.3973, 129.2184
270.8794, 129.3257
271.3615, 129.3459
271.8436, 129.5116
272.3257, 130.1322
272.8079, 131.3638
273.2900, 132.0021
273.7721, 131.7723
274.2542, 130.9874
274.7363, 130.5522
275.2184, 130.5210
275.7006, 130.6342
276.1827, 130.7398
276.6648, 130.8322
277.1469, 131.0104
277.6290, 131.2894
278.1111, 131.6498
278.5933, 132.0997
279.0754, 132.6780
279.5575, 133.1372
280.0396, 133.3926
280.5217, 133.4423
281.0038, 133.0255
281.4860, 131.9258
281.9681, 130.7169
282.4502, 130.5164
282.9323, 131.3806
283.4144, 132.4144
283.8965, 133.3810
284.3787, 134.2327
284.8608, 134.3847
285.3429, 133.6890
285.8250, 132.6817
286.3071, 132.1030
286.7892, 131.9476
287.2714, 131.9544
287.7535, 132.0560
288.2356, 132.2402
288.7177, 132.4515
289.1998, 132.7074
289.6819, 132.9173
290.1641, 132.9920
290.6462, 132.9323
291.1283, 132.7316
291.6104, 132.2957
292.0925, 131.7298
292.5746, 131.3598
293.0568, 131.1912
293.5389, 131.1175
294.0210, 130.9234
294.5031, 130.6987
294.9852, 130.8531
295.4673, 131.8572
295.9495, 133.1190
296.4316, 133.2157
296.9137, 132.1851
297.3958, 131.2493
297.8779, 131.8897
298.3600, 133.4359
298.8422, 134.1587
299.3243, 133.1999
299.8064, 131.6611
300.2885, 131.1304
300.7706, 131.4967
301.2527, 131.9908
301.7349, 132.0935
302.2170, 131.9485
302.6991, 131.7868
303.1812, 131.6414
303.6633, 131.5216
304.1454, 131.3363
304.6276, 131.1534
305.1097, 131.2162
305.5918, 131.9053
306.0739, 132.8331
306.5560, 133.5336
307.0381, 133.9246
307.5203, 134.1318
308.0024, 134.1942
308.4845, 134.1497
308.9666, 134.0873
309.4487, 134.1423
309.9308, 134.1468
310.4130, 133.8682
310.8951, 133.2148
311.3772, 132.7050
311.8593, 133.0027
312.3414, 133.6148
312.8235, 133.7655
313.3057, 132.1536
313.7878, 130.7313
314.2699, 131.1239
314.7520, 133.5213
315.2341, 135.3327
315.7162, 134.4095
316.1984, 132.5428
316.6805, 131.7480
317.1626, 134.2359
317.6447, 136.4449
318.1268, 136.6069
318.6089, 134.8373
319.0911, 133.4388
319.5732, 133.5146
320.0553, 134.0872
320.5374, 134.4034
321.0195, 133.9324
321.5016, 133.5873
321.9838, 133.7110
322.4659, 134.1854
322.9480, 134.4306
323.4301, 133.9747
323.9122, 133.5148
324.3943, 133.4404
324.8765, 134.2028
325.3586, 134.7517
325.8407, 134.8311
326.3228, 134.6217
326.8049, 134.5853
327.2870, 134.9977
327.7692, 135.3683
328.2513, 135.5423
328.7334, 135.5128
329.2155, 135.2865
329.6976, 134.5641
330.1797, 133.7431
330.6619, 133.4906
331.1440, 134.4800
331.6261, 135.1269
332.1082, 134.8356
332.5903, 133.3857
333.0724, 132.6002
333.5546, 132.6657
334.0367, 133.2264
334.5188, 134.0176
335.0009, 135.4347
335.4830, 136.1627
335.9651, 135.6850
336.4473, 134.1352
336.9294, 133.2968
337.4115, 133.3649
337.8936, 133.7590
338.3757, 134.0897
338.8578, 134.3894
339.3399, 134.4506
339.8221, 134.1426
340.3042, 133.6355
340.7863, 133.6014
341.2684, 134.1772
341.7505, 134.5517
342.2326, 133.9207
342.7148, 132.3036
343.1969, 131.6721
343.6790, 132.3768
344.1611, 133.7035
344.6432, 134.4934
345.1253, 134.7478
345.6075, 134.7115
346.0896, 134.2706
346.5717, 133.5807
347.0538, 133.3588
347.5359, 133.6400
348.0180, 134.2082
348.5002, 135.1030
348.9823, 136.1597
349.4644, 136.6834
349.9465, 136.1980
350.4286, 135.1485
350.9107, 134.0633
351.3929, 132.9673
351.8750, 132.3449
352.3571, 132.9841
352.8392, 134.3239
353.3213, 135.3532
353.8034, 135.8109
354.2856, 135.8636
354.7677, 135.4638
355.2498, 134.7306
355.7319, 134.1377
356.2140, 134.0370
356.6961, 134.1862
357.1783, 134.3804
357.6604, 134.6404
358.1425, 134.7642
358.6246, 134.4158
359.1067, 133.8468
359.5888, 133.5449
360.0710, 133.7764
360.5531, 134.2908
361.0352, 135.1480
361.5173, 136.4469
361.9994, 137.2160
362.4815, 136.5325
362.9637, 135.3396
363.4458, 134.6492
363.9279, 135.4494
364.4100, 136.0692
364.8921, 135.7139
365.3742, 134.4838
365.8564, 133.8767
366.3385, 134.7168
366.8206, 135.8750
367.3027, 136.6720
367.7848, 136.8560
368.2669, 136.9140
368.7491, 136.7702
369.2312, 136.5110
369.7133, 136.3896
370.1954, 136.5273
370.6775, 136.6773
371.1596, 136.7842
371.6418, 136.9467
372.1239, 136.7520
372.6060, 135.9135
373.0881, 134.9280
373.5702, 134.4869
374.0523, 134.6506
374.5345, 135.2569
375.0166, 136.4844
375.4987, 138.3170
375.9808, 139.3181
376.4629, 139.2896
376.9450, 138.8675
377.4272, 138.6340
377.9093, 138.6197
378.3914, 138.4339
378.8735, 137.8918
379.3556, 137.2180
379.8377, 137.1434
380.3199, 137.7188
380.8020, 138.2779
381.2841, 138.3100
381.7662, 137.9197
382.2483, 137.6707
382.7304, 137.6263
383.2126, 137.6869
383.6947, 137.6573
384.1768, 137.5878
384.6589, 137.7145
385.1410, 138.3031
385.6231, 139.1086
386.1053, 139.8053
386.5874, 140.3887
387.0695, 140.7083
387.5516, 140.4495
388.0337, 139.8696
388.5158, 139.4135
388.9980, 139.2263
389.4801, 139.2012
389.9622, 139.3486
390.4443, 139.6167
390.9264, 139.7934
391.4085, 139.3393
391.8907, 138.9865
392.3728, 139.5519
392.8549, 141.7829
393.3370, 143.3335
393.8191, 142.4407
394.3012, 140.3018
394.7834, 138.9365
395.2655, 139.4086
395.7476, 140.3516
396.2297, 141.5407
396.7118, 143.0892
397.1939, 143.7166
397.6761, 142.2834
398.1582, 140.3340
398.6403, 139.1585
399.1224, 139.4816
399.6045, 139.8449
400.0866, 140.1776
400.5688, 140.4669
401.0509, 140.6215
401.5330, 140.5712
402.0151, 140.4783
402.4972, 140.4140
402.9793, 140.3722
403.4615, 140.3916
403.9436, 140.5173
404.4257, 140.6665
404.9078, 140.6531
405.3899, 140.4008
405.8720, 140.2749
406.3542, 140.4253
406.8363, 140.8304
407.3184, 141.2428
407.8005, 141.6960
408.2826, 142.0217
408.7647, 141.8560
409.2469, 141.2664
409.7290, 141.2294
410.2111, 142.1734
410.6932, 143.4533
411.1753, 143.6856
411.6574, 142.9642
412.1396, 142.2188
412.6217, 142.1602
413.1038, 142.4690
413.5859, 142.5065
414.0680, 142.1808
414.5501, 141.8006
415.0323, 141.6264
415.5144, 141.6115
415.9965, 141.6605
416.4786, 141.7408
416.9607, 141.8607
417.4428, 141.9811
417.9250, 142.1157
418.4071, 142.4118
418.8892, 143.3998
419.3713, 144.3368
419.8534, 144.5302
420.3355, 143.3073
420.8177, 142.1905
421.2998, 141.7478
421.7819, 141.7561
422.2640, 141.7174
422.7461, 141.4690
423.2282, 141.2089
423.7104, 141.0125
424.1925, 140.9078
424.6746, 140.7839
425.1567, 140.5851
425.6388, 140.3994
426.1209, 140.3162
426.6031, 140.4942
427.0852, 140.4969
427.5673, 140.1240
428.0494, 139.4986
428.5315, 139.4322
429.0136, 140.2969
429.4958, 140.9301
429.9779, 140.4350
430.4600, 138.5096
430.9421, 137.5998
431.4242, 137.9513
431.9063, 138.9736
432.3885, 139.9809
432.8706, 140.9711
433.3527, 141.4312
433.8348, 140.9670
434.3169, 139.9029
434.7990, 139.2376
435.2812, 138.9766
435.7633, 138.7611
436.2454, 138.2729
436.7275, 137.6089
437.2096, 136.9543
437.6917, 136.3029
438.1739, 135.7769
438.6560, 135.5018
439.1381, 135.4563
439.6202, 135.5839
440.1023, 136.1315
440.5844, 136.6575
441.0666, 136.8274
441.5487, 136.6142
442.0308, 136.1154
442.5129, 134.9683
442.9950, 133.7450
443.4771, 132.9921
443.9593, 133.3302
444.4414, 133.6452
444.9235, 133.4428
445.4056, 132.9439
445.8877, 132.9277
446.3698, 134.5494
446.8520, 135.7737
447.3341, 135.5708
447.8162, 133.1467
448.2983, 131.7512
448.7804, 132.0556
449.2625, 132.9265
449.7447, 133.0303
450.2268, 132.0032
450.7089, 131.0301
451.1910, 130.2566
451.6731, 129.7158
452.1552, 129.8015
452.6374, 130.7708
453.1195, 131.4283
453.6016, 130.6457
454.0837, 128.4989
454.5658, 127.4010
455.0479, 127.6983
455.5301, 128.4954
456.0122, 128.5020
456.4943, 127.8414
456.9764, 127.2554
457.4585, 127.0486
457.9406, 127.0639
458.4228, 126.9738
458.9049, 126.8081
459.3870, 126.8586
459.8691, 127.9240
460.3512, 129.0992
460.8333, 129.0512
461.3155, 127.0338
461.7976, 125.1407
462.2797, 125.0292
462.7618, 125.9209
463.2439, 126.4622
463.7260, 125.6512
464.2082, 124.8236
464.6903, 124.8211
465.1724, 125.6636
465.6545, 125.8603
466.1366, 123.8999
466.6187, 121.9754
467.1009, 121.5294
467.5830, 124.7657
468.0651, 126.5876
468.5472, 126.2520
469.0293, 124.7011
469.5114, 123.8282
469.9936, 123.8892
470.4757, 124.1623
470.9578, 124.5141
471.4399, 124.9411
471.9220, 125.0569
472.4041, 124.8202
472.8863, 124.3949
473.3684, 123.7889
473.8505, 123.0153
474.3326, 122.6816
474.8147, 122.9992
475.2968, 123.5591
475.7790, 123.6656
476.2611, 123.3629
476.7432, 122.9529
477.2253, 122.4720
477.7074, 122.0223
478.1895, 121.9453
478.6717, 122.2376
479.1538, 122.1918
479.6359, 120.5537
480.1180, 118.5258
480.6001, 117.6976
481.0822, 119.2215
481.5644, 120.7631
482.0465, 120.9134
482.5286, 120.2021
483.0107, 119.7753
483.4928, 120.2317
483.9749, 120.8413
484.4571, 121.3622
484.9392, 121.7929
485.4213, 122.0389
485.9034, 122.0769
486.3855, 121.9310
486.8676, 121.6006
487.3498, 120.9605
487.8319, 120.3281
488.3140, 119.6085
488.7961, 118.9570
489.2782, 118.7650
489.7603, 119.0845
490.2425, 119.7218
490.7246, 120.9130
491.2067, 122.5177
491.6888, 122.5883
492.1709, 120.8850
492.6530, 119.0452
493.1352, 118.7835
493.6173, 119.7271
494.0994, 120.3673
494.5815, 120.4469
495.0636, 120.0658
495.5457, 118.9404
496.0279, 117.3918
496.5100, 116.3762
496.9921, 116.7729
497.4742, 117.6364
497.9563, 118.0928
498.4384, 118.1383
498.9206, 118.2841
499.4027, 118.9694
499.8848, 119.7682
500.3669, 120.3634
500.8490, 120.7473
501.3311, 120.8124
501.8133, 120.1694
502.2954, 119.2404
502.7775, 118.8264
503.2596, 119.9313
503.7417, 120.4654
504.2238, 119.6196
504.7060, 117.4368
505.1881, 116.4596
505.6702, 117.2361
506.1523, 118.3317
506.6344, 118.7203
507.1165, 118.2624
507.5987, 118.1362
508.0808, 118.4900
508.5629, 119.0366
509.0450, 119.3804
509.5271, 119.5257
510.0092, 119.5075
510.4914, 119.2425
510.9735, 118.8849
511.4556, 118.7562
511.9377, 118.8393
512.4199, 118.9744
512.9020, 119.1558
513.3841, 119.2817
513.8662, 119.1560
514.3483, 118.6766
514.8304, 118.3213
515.3126, 118.5665
515.7947, 119.0507
516.2768, 119.3172
516.7589, 119.1399
517.2410, 118.8145
517.7231, 118.1489
518.2053, 117.3108
518.6874, 117.1056
519.1695, 118.4487
519.6516, 119.6818
520.1337, 120.1690
520.6158, 119.7129
521.0980, 119.4202
521.5801, 119.3405
522.0622, 119.3633
522.5443, 119.3577
523.0264, 119.2954
523.5085, 119.4283
523.9907, 119.9189
524.4728, 120.4780
524.9549, 120.3555
525.4370, 119.5795
525.9191, 118.8661
526.4012, 118.5695
526.8834, 118.5886
527.3655, 118.8233
527.8476, 119.2611
528.3297, 119.5539
528.8118, 119.1336
529.2939, 118.5195
529.7761, 118.4124
530.2582, 119.1751
530.7403, 119.9719
531.2224, 120.1592
531.7045, 120.1035
532.1866, 120.4046
532.6688, 122.0845
533.1509, 123.2804
533.6330, 123.1694
534.1151, 121.7984
534.5972, 120.8170
535.0793, 120.4047
535.5615, 120.2456
536.0436, 120.2030
536.5257, 120.2826
537.0078, 120.4765
537.4899, 120.8258
537.9720, 121.2270
538.4542, 121.5857
538.9363, 121.9144
539.4184, 122.0388
539.9005, 121.8369
540.3826, 121.5108
540.8647, 121.6217
541.3469, 122.0937
541.8290, 122.3385
542.3111, 121.7849
542.7932, 120.8971
543.2753, 120.3607
543.7574, 120.1982
544.2396, 120.1537
544.7217, 120.2175
545.2038, 120.2335
545.6859, 119.9847
546.1680, 119.0728
546.6501, 118.5355
547.1323, 119.0367
547.6144, 120.0895
548.0965, 120.8534
548.5786, 121.1908
549.0607, 121.2357
549.5428, 120.9298
550.0250, 120.3094
550.5071, 119.7189
550.9892, 119.0261
551.4713, 118.6043
551.9534, 118.8036
552.4355, 119.7314
552.9177, 120.0987
553.3998, 119.7853
553.8819, 119.2725
554.3640, 119.1818
554.8461, 119.4246
555.3282, 119.4826
555.8104, 119.1579
556.2925, 118.7136
556.7746, 118.6362
557.2567, 118.7614
557.7388, 118.5747
558.2209, 117.2650
558.7031, 115.9339
559.1852, 115.5661
559.6673, 116.1505
560.1494, 116.7415
560.6315, 117.0161
561.1136, 117.1235
561.5958, 117.1520
562.0779, 117.0800
562.5600, 116.9870
563.0421, 116.7435
563.5242, 116.5536
564.0063, 116.7592
564.4885, 117.7517
564.9706, 118.1692
565.4527, 117.5449
565.9348, 116.2634
566.4169, 115.6801
566.8990, 115.8766
567.3812, 116.0978
567.8633, 115.8924
568.3454, 115.3869
568.8275, 115.0149
569.3096, 114.7823
569.7917, 114.6829
570.2739, 114.8215
570.7560, 115.0606
571.2381, 115.2053
571.7202, 115.2344
572.2023, 115.1176
572.6844, 114.6859
573.1666, 114.1352
573.6487, 113.7513
574.1308, 113.5315
574.6129, 113.5949
575.0950, 114.2257
575.5771, 115.2753
576.0593, 115.8261
576.5414, 115.4483
577.0235, 115.0832
577.5056, 115.1579
577.9877, 115.7587
578.4698, 115.8765
578.9520, 115.3589
579.4341, 114.7328
579.9162, 114.5538
580.3983, 114.7796
580.8804, 114.7045
581.3625, 114.1462
581.8447, 113.5213
582.3268, 113.5066
582.8089, 113.9080
583.2910, 114.1742
583.7731, 114.0936
584.2552, 113.7697
584.7373, 113.1059
585.2194, 112.2281
585.7015, 111.6067
586.1837, 111.5218
586.6658, 111.6942
587.1479, 112.0301
