##NAMES=Fetiasite
##RRUFFID=R100014
##IDEAL CHEMISTRY=(Fe^2+^,Fe^3+^,Ti^4+^)_3_O_2_As^3+^_2_O_5_
##LOCALITY=Gorb, Binnental, Valais, Switzerland
##OWNER=RRUFF
##SOURCE=William Pinch
##DESCRIPTION=Brown to reddish-brown platy massive
##STATUS=The identification of this mineral has been confirmed by single-crystal X-ray diffraction.
##URL=rruff.info/R100014
109.5014, 62.77303
109.9835, 63.12365
110.4656, 63.28465
110.9478, 63.42128
111.4299, 63.68796
111.9120, 64.04643
112.3941, 64.18040
112.8762, 63.82408
113.3583, 63.42415
113.8405, 63.22096
114.3226, 63.23003
114.8047, 63.36133
115.2868, 63.57422
115.7689, 63.98857
116.2510, 64.11284
116.7332, 63.63380
117.2153, 63.06543
117.6974, 62.82893
118.1795, 63.03654
118.6616, 63.40640
119.1437, 63.27779
119.6259, 61.77539
120.1080, 60.81976
120.5901, 60.70620
121.0722, 61.10799
121.5543, 61.67618
122.0364, 62.25080
122.5186, 62.79715
123.0007, 63.09529
123.4828, 62.99288
123.9649, 62.87090
124.4470, 62.90649
124.9291, 63.05230
125.4113, 63.12577
125.8934, 63.03294
126.3755, 62.74158
126.8576, 62.27898
127.3397, 61.40237
127.8218, 60.49753
128.3040, 59.84892
128.7861, 59.43961
129.2682, 59.41699
129.7503, 60.42464
130.2324, 61.87819
130.7145, 62.77515
131.1967, 62.38292
131.6788, 61.12706
132.1609, 60.30062
132.6430, 60.01408
133.1251, 60.05812
133.6072, 60.53528
134.0894, 61.23883
134.5715, 61.71229
135.0536, 61.43834
135.5357, 60.31202
136.0178, 59.78209
136.4999, 60.51259
136.9821, 61.31106
137.4642, 61.80181
137.9463, 61.95042
138.4284, 61.89615
138.9105, 61.79298
139.3926, 61.63020
139.8748, 61.43818
140.3569, 61.15224
140.8390, 60.88478
141.3211, 60.65791
141.8032, 60.49473
142.2853, 60.48233
142.7675, 60.78659
143.2496, 61.65123
143.7317, 62.39263
144.2138, 63.13448
144.6959, 63.69225
145.1780, 63.74207
145.6602, 63.10264
146.1423, 62.12836
146.6244, 61.57738
147.1065, 61.52669
147.5886, 61.52001
148.0707, 61.30580
148.5529, 60.97211
149.0350, 60.83259
149.5171, 61.04012
149.9992, 61.51111
150.4813, 62.08373
150.9634, 62.81356
151.4456, 63.50042
151.9277, 64.02154
152.4098, 64.38612
152.8919, 64.50844
153.3740, 64.20621
153.8561, 63.69721
154.3383, 63.07021
154.8204, 62.30606
155.3025, 61.57600
155.7846, 61.16665
156.2667, 61.13980
156.7488, 61.34002
157.2310, 62.08105
157.7131, 62.85424
158.1952, 63.03323
158.6773, 62.23644
159.1594, 60.83754
159.6415, 60.29967
160.1237, 61.82111
160.6058, 62.82600
161.0879, 62.57598
161.5700, 61.60884
162.0521, 60.66706
162.5342, 60.21556
163.0164, 60.23072
163.4985, 60.39781
163.9806, 60.95134
164.4627, 61.40569
164.9448, 61.55147
165.4269, 61.47351
165.9091, 61.41645
166.3912, 61.59794
166.8733, 62.01832
167.3554, 62.07235
167.8375, 61.67640
168.3196, 61.05637
168.8018, 60.19251
169.2839, 59.13593
169.7660, 58.21806
170.2481, 57.80133
170.7302, 57.86379
171.2123, 57.65436
171.6945, 56.80041
172.1766, 55.84570
172.6587, 55.40492
173.1408, 55.58681
173.6229, 55.84846
174.1050, 55.64822
174.5872, 55.13191
175.0693, 54.66878
175.5514, 54.36028
176.0335, 54.17669
176.5156, 54.08626
176.9977, 54.14219
177.4799, 54.17590
177.9620, 54.17658
178.4441, 54.08979
178.9262, 53.74728
179.4083, 52.88332
179.8904, 51.59663
180.3726, 50.57197
180.8547, 49.78861
181.3368, 49.36249
181.8189, 49.56389
182.3010, 50.18272
182.7831, 50.66608
183.2653, 50.44202
183.7474, 49.43687
184.2295, 48.83693
184.7116, 49.07697
185.1937, 49.38946
185.6758, 49.59347
186.1580, 49.64848
186.6401, 49.55117
187.1222, 49.25730
187.6043, 48.67424
188.0864, 48.30709
188.5685, 48.41967
189.0507, 48.49847
189.5328, 48.18698
190.0149, 47.52394
190.4970, 46.86777
190.9791, 46.62886
191.4612, 46.92994
191.9434, 47.35146
192.4255, 48.21336
192.9076, 48.95640
193.3897, 49.22652
193.8718, 48.95636
194.3539, 48.24419
194.8361, 47.09776
195.3182, 45.01830
195.8003, 44.06364
196.2824, 45.22795
196.7645, 47.01140
197.2466, 47.98780
197.7288, 47.82906
198.2109, 47.15675
198.6930, 46.71033
199.1751, 46.48352
199.6572, 46.47201
200.1393, 46.99313
200.6215, 47.63490
201.1036, 47.70831
201.5857, 46.93511
202.0678, 46.00961
202.5499, 45.97313
203.0320, 46.74376
203.5142, 47.30173
203.9963, 47.19270
204.4784, 46.61227
204.9605, 46.00005
205.4426, 45.39938
205.9247, 44.85192
206.4069, 44.29936
206.8890, 43.76079
207.3711, 43.51609
207.8532, 44.00145
208.3353, 45.01715
208.8174, 45.51616
209.2996, 45.11897
209.7817, 44.42024
210.2638, 43.54517
210.7459, 42.63232
211.2280, 42.34861
211.7101, 43.75476
212.1923, 46.77396
212.6744, 48.53624
213.1565, 47.85313
213.6386, 46.65543
214.1207, 45.69286
214.6028, 45.05828
215.0850, 44.74003
215.5671, 44.89398
216.0492, 45.62474
216.5313, 45.97816
217.0134, 45.70611
217.4955, 45.22028
217.9777, 44.42849
218.4598, 43.48314
218.9419, 42.79785
219.4240, 42.91542
219.9061, 44.09080
220.3882, 44.77557
220.8704, 44.63744
221.3525, 44.32761
221.8346, 44.03193
222.3167, 43.81019
222.7988, 43.68285
223.2809, 43.65391
223.7631, 43.67891
224.2452, 44.02589
224.7273, 45.33815
225.2094, 46.37252
225.6915, 46.30396
226.1736, 45.23777
226.6558, 43.94972
227.1379, 43.23763
227.6200, 43.22252
228.1021, 43.33611
228.5842, 43.82325
229.0663, 44.22006
229.5485, 44.18117
230.0306, 43.73463
230.5127, 43.19530
230.9948, 42.86084
231.4769, 42.75661
231.9590, 42.81355
232.4412, 43.23529
232.9233, 43.64472
233.4054, 43.78376
233.8875, 43.64556
234.3696, 43.38927
234.8517, 43.10284
235.3339, 42.77901
235.8160, 42.83152
236.2981, 43.77464
236.7802, 44.71397
237.2623, 44.90964
237.7444, 44.33949
238.2266, 43.57459
238.7087, 43.03473
239.1908, 42.74104
239.6729, 42.57107
240.1550, 42.54098
240.6371, 42.62343
241.1193, 43.03131
241.6014, 43.75915
242.0835, 43.97886
242.5656, 42.57110
243.0477, 40.07615
243.5298, 38.75678
244.0120, 39.75632
244.4941, 41.44089
244.9762, 42.34749
245.4583, 42.43730
245.9404, 42.17866
246.4225, 41.61190
246.9047, 40.94847
247.3868, 40.66467
247.8689, 41.10522
248.3510, 41.71865
248.8331, 41.88437
249.3152, 41.56128
249.7974, 41.19145
250.2795, 40.94349
250.7616, 40.81556
251.2437, 40.84803
251.7258, 41.15821
252.2079, 41.47132
252.6901, 41.34935
253.1722, 40.70184
253.6543, 40.30606
254.1364, 40.71687
254.6185, 41.47900
255.1006, 42.26717
255.5828, 43.10771
256.0649, 43.67582
256.5470, 43.37728
257.0291, 42.02937
257.5112, 40.95729
257.9933, 40.78524
258.4755, 40.99739
258.9576, 41.32849
259.4397, 41.73980
259.9218, 42.07423
260.4039, 42.10411
260.8860, 41.77500
261.3682, 41.45536
261.8503, 41.43982
262.3324, 41.32427
262.8145, 40.63143
263.2966, 39.31318
263.7787, 38.14144
264.2609, 38.16254
264.7430, 39.64632
265.2251, 40.80973
265.7072, 41.33767
266.1893, 41.50336
266.6714, 41.18508
267.1536, 40.47915
267.6357, 39.91719
268.1178, 40.20408
268.5999, 41.54708
269.0820, 42.51414
269.5641, 42.95262
270.0463, 43.04533
270.5284, 42.69702
271.0105, 42.00051
271.4926, 41.24824
271.9747, 40.69019
272.4568, 40.32849
272.9390, 40.12398
273.4211, 40.19027
273.9032, 40.32660
274.3853, 40.53124
274.8674, 40.75945
275.3495, 40.92170
275.8317, 40.94108
276.3138, 40.81607
276.7959, 40.65460
277.2780, 40.42004
277.7601, 40.18090
278.2422, 39.90824
278.7244, 39.64610
279.2065, 39.45131
279.6886, 39.33900
280.1707, 39.33018
280.6528, 39.66827
281.1349, 41.22346
281.6171, 42.17936
282.0992, 41.90432
282.5813, 40.86410
283.0634, 39.63022
283.5455, 38.48010
284.0276, 37.55614
284.5098, 37.54132
284.9919, 39.68286
285.4740, 41.24323
285.9561, 41.54346
286.4382, 41.21130
286.9203, 40.99433
287.4025, 41.23502
287.8846, 41.72679
288.3667, 41.91690
288.8488, 41.57201
289.3309, 41.22538
289.8130, 40.74929
290.2952, 40.36793
290.7773, 40.41193
291.2594, 40.95479
291.7415, 41.61934
292.2236, 41.69122
292.7057, 40.64431
293.1879, 39.85850
293.6700, 39.31137
294.1521, 39.00066
294.6342, 39.06807
295.1163, 39.47325
295.5984, 39.87697
296.0806, 39.78237
296.5627, 38.84814
297.0448, 38.41753
297.5269, 39.02539
298.0090, 39.61496
298.4911, 39.36058
298.9733, 38.36475
299.4554, 37.46034
299.9375, 37.54639
300.4196, 38.86759
300.9017, 39.54160
301.3839, 39.01094
301.8660, 38.49082
302.3481, 38.57304
302.8302, 39.11922
303.3123, 39.65188
303.7944, 39.83184
304.2766, 39.66051
304.7587, 39.20973
305.2408, 37.98094
305.7229, 37.02578
306.2050, 36.55988
306.6871, 36.57209
307.1693, 37.16294
307.6514, 38.45296
308.1335, 40.13711
308.6156, 40.79194
309.0977, 39.00577
309.5798, 37.81001
310.0620, 37.92090
310.5441, 38.64095
311.0262, 39.12174
311.5083, 39.01926
311.9904, 38.54116
312.4725, 38.13555
312.9547, 37.60271
313.4368, 37.45308
313.9189, 38.11496
314.4010, 38.89606
314.8831, 39.13014
315.3652, 38.68559
315.8474, 37.99752
316.3295, 37.70575
316.8116, 38.11350
317.2937, 38.10147
317.7758, 37.21730
318.2579, 36.32973
318.7401, 36.00120
319.2222, 36.24260
319.7043, 36.71429
320.1864, 37.10189
320.6685, 37.39616
321.1506, 37.67256
321.6328, 38.01464
322.1149, 38.26168
322.5970, 38.36394
323.0791, 38.31962
323.5612, 38.10123
324.0433, 37.65373
324.5255, 37.02715
325.0076, 36.76634
325.4897, 37.44375
325.9718, 37.83748
326.4539, 37.47525
326.9360, 36.75349
327.4182, 36.27187
327.9003, 36.32148
328.3824, 36.70172
328.8645, 36.84236
329.3466, 36.43709
329.8287, 36.19570
330.3109, 36.22627
330.7930, 36.38275
331.2751, 36.57398
331.7572, 36.75909
332.2393, 36.88383
332.7214, 36.84882
333.2036, 36.53860
333.6857, 36.33453
334.1678, 36.24760
334.6499, 36.23606
335.1320, 36.23186
335.6141, 36.25962
336.0963, 36.47441
336.5784, 37.13782
337.0605, 38.41024
337.5426, 38.73694
338.0247, 36.93981
338.5068, 35.41714
338.9890, 35.20662
339.4711, 35.90675
339.9532, 36.54612
340.4353, 36.44923
340.9174, 35.77989
341.3995, 35.61144
341.8817, 36.55050
342.3638, 37.28172
342.8459, 37.65403
343.3280, 37.70173
343.8101, 37.40479
344.2922, 36.75546
344.7744, 35.94580
345.2565, 35.37654
345.7386, 35.05378
346.2207, 34.99378
346.7028, 35.39431
347.1849, 35.87188
347.6671, 36.14986
348.1492, 36.18102
348.6313, 36.09042
349.1134, 36.03994
349.5955, 36.06754
350.0776, 35.96684
350.5598, 35.54524
351.0419, 35.16476
351.5240, 35.03957
352.0061, 35.09662
352.4882, 35.08099
352.9703, 34.71984
353.4525, 34.08681
353.9346, 33.97092
354.4167, 34.80563
354.8988, 35.60499
355.3809, 36.15702
355.8630, 36.48302
356.3452, 36.55462
356.8273, 36.31114
357.3094, 35.98053
357.7915, 36.14896
358.2736, 37.12658
358.7557, 37.78815
359.2379, 37.73146
359.7200, 37.37321
360.2021, 36.98122
360.6842, 36.61824
361.1663, 36.26102
361.6484, 35.73820
362.1306, 34.99220
362.6127, 34.86369
363.0948, 36.20030
363.5769, 37.45521
364.0590, 37.63315
364.5411, 36.91843
365.0233, 36.17487
365.5054, 36.04154
365.9875, 36.36916
366.4696, 36.50085
366.9517, 36.36039
367.4338, 36.16776
367.9160, 35.84670
368.3981, 35.58782
368.8802, 35.78046
369.3623, 36.83979
369.8444, 38.00316
370.3265, 37.89781
370.8087, 36.31833
371.2908, 35.30438
371.7729, 36.27099
372.2550, 37.74912
372.7371, 38.09571
373.2192, 37.02325
373.7014, 35.77410
374.1835, 35.27772
374.6656, 35.39008
375.1477, 35.39229
375.6298, 34.96722
376.1119, 34.71962
376.5941, 35.54153
377.0762, 37.20272
377.5583, 38.36255
378.0404, 38.25219
378.5225, 37.46667
379.0046, 36.77112
379.4868, 36.19749
379.9689, 35.87912
380.4510, 36.14677
380.9331, 36.71838
381.4152, 36.71852
381.8973, 35.50262
382.3795, 34.35480
382.8616, 34.25528
383.3437, 34.98227
383.8258, 35.66716
384.3079, 36.00203
384.7900, 36.04939
385.2722, 35.82573
385.7543, 35.16368
386.2364, 34.84979
386.7185, 35.33673
387.2006, 36.19419
387.6827, 36.94265
388.1649, 37.48527
388.6470, 37.76601
389.1291, 37.67070
389.6112, 37.13339
390.0933, 36.75599
390.5754, 36.58771
391.0576, 36.53174
391.5397, 36.64678
392.0218, 36.84562
392.5039, 36.82656
392.9860, 36.35157
393.4681, 35.58302
393.9503, 35.32566
394.4324, 36.25478
394.9145, 36.81448
395.3966, 36.35611
395.8787, 35.58265
396.3608, 35.38619
396.8430, 36.02625
397.3251, 37.01873
397.8072, 37.66449
398.2893, 37.94939
398.7714, 37.87208
399.2535, 37.12486
399.7357, 36.33938
400.2178, 35.75602
400.6999, 35.44428
401.1820, 35.51535
401.6641, 36.15561
402.1462, 37.26569
402.6284, 37.57693
403.1105, 36.01261
403.5926, 34.90492
404.0747, 35.06944
404.5568, 35.74171
405.0389, 35.94242
405.5211, 35.29413
406.0032, 34.31941
406.4853, 33.94542
406.9674, 34.34041
407.4495, 34.81981
407.9316, 35.61902
408.4138, 36.24137
408.8959, 36.23621
409.3780, 35.71032
409.8601, 35.24780
410.3422, 35.32606
410.8243, 35.89549
411.3065, 36.62468
411.7886, 37.85619
412.2707, 38.64171
412.7528, 38.26898
413.2349, 37.32814
413.7170, 36.68322
414.1992, 36.72509
414.6813, 36.96468
415.1634, 36.67788
415.6455, 35.82814
416.1276, 35.16566
416.6097, 34.95609
417.0919, 35.00151
417.5740, 35.12335
418.0561, 35.31916
418.5382, 35.46437
419.0203, 35.32452
419.5024, 35.11249
419.9846, 35.47676
420.4667, 36.66610
420.9488, 37.56469
421.4309, 36.90818
421.9130, 35.17421
422.3951, 34.15715
422.8773, 34.76656
423.3594, 35.52665
423.8415, 35.26304
424.3236, 34.23981
424.8057, 33.44277
425.2878, 33.27581
425.7700, 33.58313
426.2521, 34.13702
426.7342, 35.13633
427.2163, 35.79440
427.6984, 35.82269
428.1805, 35.53550
428.6627, 35.12805
429.1448, 34.67760
429.6269, 34.45824
430.1090, 34.81555
430.5911, 35.81443
431.0732, 36.05709
431.5554, 34.77600
432.0375, 33.73896
432.5196, 33.64985
433.0017, 34.19072
433.4838, 34.88806
433.9659, 35.52677
434.4481, 35.98235
434.9302, 35.92101
435.4123, 34.75258
435.8944, 34.15536
436.3765, 34.63902
436.8586, 35.24482
437.3408, 35.30888
437.8229, 34.84344
438.3050, 34.30925
438.7871, 34.11953
439.2692, 34.24882
439.7513, 34.22819
440.2335, 33.83236
440.7156, 33.61584
441.1977, 33.91883
441.6798, 34.40672
442.1619, 34.64030
442.6440, 34.44930
443.1262, 34.08146
443.6083, 33.89866
444.0904, 33.92691
444.5725, 33.79427
445.0546, 33.19582
445.5367, 32.66587
446.0189, 32.60299
446.5010, 32.96539
446.9831, 33.48351
447.4652, 34.39451
447.9473, 35.25428
448.4294, 34.95397
448.9116, 33.29486
449.3937, 31.98006
449.8758, 32.33669
450.3579, 33.56601
450.8400, 33.83502
451.3221, 32.62289
451.8043, 31.38262
452.2864, 30.74266
452.7685, 30.64191
453.2506, 31.16520
453.7327, 32.42899
454.2148, 33.59572
454.6970, 33.55709
455.1791, 32.03210
455.6612, 31.11920
456.1433, 31.23150
456.6254, 31.61190
457.1075, 32.01804
457.5897, 32.32212
458.0718, 32.19978
458.5539, 31.41137
459.0360, 30.27748
459.5181, 29.79500
460.0002, 30.60406
460.4824, 31.25053
460.9645, 31.89743
461.4466, 32.25317
461.9287, 31.86001
462.4108, 30.81009
462.8929, 29.80767
463.3751, 29.58722
463.8572, 30.15671
464.3393, 30.49112
464.8214, 30.32048
465.3035, 30.24025
465.7856, 30.63987
466.2678, 31.13307
466.7499, 31.09244
467.2320, 30.24140
467.7141, 29.29232
468.1962, 29.48057
468.6783, 30.96421
469.1605, 31.81133
469.6426, 31.25546
470.1247, 30.46860
470.6068, 30.21420
471.0889, 29.21526
471.5710, 30.77391
472.0532, 31.66328
472.5353, 31.91924
473.0174, 29.64887
473.4995, 30.63753
473.9816, 30.31815
474.4637, 29.94379
474.9459, 31.38714
475.4280, 29.47702
475.9101, 30.88871
476.3922, 30.97243
476.8743, 31.66189
477.3564, 31.03526
477.8386, 30.81329
478.3207, 31.90504
478.8028, 32.26720
479.2849, 31.48363
479.7670, 32.20328
480.2491, 30.23323
480.7313, 30.62081
481.2134, 32.02479
481.6955, 31.30032
482.1776, 32.03701
482.6597, 32.21527
483.1418, 29.86069
483.6240, 31.90714
484.1061, 32.04829
484.5882, 30.23313
485.0703, 32.12455
485.5524, 30.57609
486.0345, 30.25356
486.5167, 30.85327
486.9988, 30.48871
487.4809, 31.64082
487.9630, 31.32907
488.4451, 30.88526
488.9272, 31.01027
489.4094, 30.60801
489.8915, 31.02211
490.3736, 30.47710
490.8557, 30.94855
491.3378, 31.64931
491.8199, 30.58212
492.3021, 31.38374
492.7842, 29.28370
493.2663, 29.60902
493.7484, 29.67162
494.2305, 31.28394
494.7126, 29.19245
495.1948, 29.44473
495.6769, 30.69416
496.1590, 30.54500
496.6411, 30.97862
497.1232, 29.68143
497.6053, 30.00748
498.0875, 29.88432
498.5696, 31.30720
499.0517, 31.50705
499.5338, 30.23220
500.0159, 28.96220
500.4980, 30.49086
500.9802, 29.36418
501.4623, 29.66786
501.9444, 28.49145
502.4265, 28.59038
502.9086, 28.66768
503.3907, 29.39807
503.8729, 29.20432
504.3550, 29.45975
504.8371, 29.28778
505.3192, 29.55269
505.8013, 29.76745
506.2834, 29.53096
506.7656, 27.83624
507.2477, 29.18201
507.7298, 28.60122
508.2119, 28.38546
508.6940, 29.20057
509.1761, 30.50113
509.6583, 31.16335
510.1404, 31.09248
510.6225, 30.91039
511.1046, 30.72670
511.5867, 30.54575
512.0688, 30.36593
512.5510, 30.18908
513.0331, 30.02877
513.5152, 29.96468
513.9973, 29.88697
514.4794, 29.53618
514.9615, 28.91212
515.4437, 28.47413
515.9258, 28.46169
516.4079, 28.82611
516.8900, 29.51667
517.3721, 31.06790
517.8542, 31.84488
518.3364, 30.73689
518.8185, 29.12944
519.3006, 28.50831
519.7827, 28.99127
520.2648, 29.74234
520.7469, 30.06725
521.2291, 29.98934
521.7112, 29.85653
522.1933, 29.57975
522.6754, 29.35606
523.1575, 28.98058
523.6396, 28.79702
524.1218, 29.42127
524.6039, 30.86021
525.0860, 32.11442
525.5681, 31.86577
526.0502, 30.15767
526.5323, 29.19732
527.0145, 29.33681
527.4966, 29.63560
527.9787, 29.67435
528.4608, 29.57940
528.9429, 29.49128
529.4250, 29.40059
529.9072, 29.46283
530.3893, 30.08942
530.8714, 30.99944
531.3535, 31.11441
531.8356, 30.07154
532.3177, 28.92625
532.7999, 28.71685
533.2820, 29.40660
533.7641, 29.78938
534.2462, 29.68950
534.7283, 29.44259
535.2104, 29.08328
535.6926, 28.70942
536.1747, 28.45710
536.6568, 28.37531
537.1389, 28.48401
537.6210, 28.85783
538.1031, 29.63751
538.5853, 30.06249
539.0674, 29.85137
539.5495, 29.60623
540.0316, 29.49162
540.5137, 29.48799
540.9958, 29.55450
541.4780, 29.67719
541.9601, 29.81372
542.4422, 29.90141
542.9243, 29.93801
543.4064, 29.98189
543.8885, 30.21899
544.3707, 30.21463
544.8528, 29.47061
545.3349, 28.27650
545.8170, 27.39459
546.2991, 27.12311
546.7813, 27.19475
547.2634, 27.42936
547.7455, 27.80555
548.2276, 28.29253
548.7097, 28.92959
549.1918, 29.49792
549.6740, 29.72747
550.1561, 29.57692
550.6382, 29.16637
551.1203, 27.71428
551.6024, 26.76935
552.0845, 27.71815
552.5667, 29.68074
553.0488, 30.86213
553.5309, 30.48059
554.0130, 29.33836
554.4951, 28.91575
554.9772, 29.59242
555.4594, 29.83446
555.9415, 29.12903
556.4236, 28.47504
556.9057, 28.39754
557.3878, 28.63721
557.8699, 28.60300
558.3521, 27.94492
558.8342, 27.17986
559.3163, 27.11439
559.7984, 27.71921
560.2805, 28.14270
560.7626, 26.95473
561.2448, 28.45382
561.7269, 29.28503
562.2090, 29.48424
562.6911, 27.15853
563.1732, 28.09323
563.6553, 27.72130
564.1375, 27.29579
564.6196, 28.68938
565.1017, 26.73091
565.5838, 28.09565
566.0659, 28.13383
566.5480, 28.77914
567.0302, 28.10975
567.5123, 27.84643
567.9944, 28.89824
568.4765, 29.22185
568.9586, 28.40112
569.4407, 29.08503
569.9229, 27.08062
570.4050, 27.43525
570.8871, 28.80769
571.3692, 28.05306
571.8513, 28.76101
572.3334, 28.91192
572.8156, 26.53138
573.2977, 28.55329
573.7798, 28.67129
574.2619, 26.83439
574.7440, 28.70545
575.2261, 27.13806
575.7083, 26.79797
576.1904, 27.38153
576.6725, 27.00223
577.1546, 28.14100
577.6367, 27.81730
578.1188, 27.36294
578.6010, 27.47880
579.0831, 27.06878
579.5652, 27.47655
580.0473, 26.92660
580.5294, 27.39450
581.0115, 28.09312
581.4937, 27.02518
581.9758, 27.82745
582.4579, 25.72947
582.9400, 26.05824
583.4221, 26.12569
583.9042, 27.74428
584.3864, 25.66043
584.8685, 25.92177
585.3506, 27.18167
585.8327, 27.04436
586.3148, 27.49123
586.7969, 26.20870
587.2791, 26.55080
587.7612, 26.44510
588.2433, 27.88684
588.7254, 28.10694
589.2075, 26.85376
589.6896, 25.60681
590.1718, 27.15991
590.6539, 26.05910
591.1360, 26.39005
591.6181, 25.24229
592.1002, 25.37128
592.5823, 25.48004
593.0645, 26.24327
593.5466, 26.13027
594.0287, 26.22574
594.5108, 26.30780
594.9929, 26.44928
595.4750, 26.51792
595.9572, 26.61135
596.4393, 27.12628
596.9214, 28.43247
597.4035, 29.13651
597.8856, 28.55643
598.3677, 27.70516
598.8499, 26.91767
599.3320, 26.30839
599.8141, 26.15917
600.2962, 26.96085
600.7783, 27.88650
601.2604, 27.67046
601.7426, 26.55353
602.2247, 26.05626
602.7068, 26.77670
603.1889, 27.76680
603.6710, 27.86474
604.1531, 26.92466
604.6353, 26.24732
605.1174, 25.84440
605.5995, 25.68291
606.0816, 25.80445
606.5637, 26.14004
607.0458, 26.68878
