##NAMES=Fettelite
##RRUFFID=R110042
##IDEAL CHEMISTRY=Ag_16_HgAs_4_S_15_
##LOCALITY=Nieder-Beerbach mine near Darmstadt, Odenwald, Germany
##OWNER=RRUFF
##SOURCE=Institute of Mineralogy, University of Heidelberg
##DESCRIPTION=Red hexagonal plates, type-sample. New data are reported in Bindi et al (2012)
##STATUS=The identification of this mineral is confirmed by single-crystal X-ray diffraction and chemical analysis.
##URL=rruff.info/R110042
##MEASURED CHEMISTRY=Ag_16.08_Cu_0.13_Fe_0.01_Hg_0.71_As_3.80_S_15.28_
169.2243, 387.2845
169.7064, 387.1111
170.1885, 389.0277
170.6707, 391.0924
171.1528, 391.9934
171.6349, 391.9030
172.1170, 391.6336
172.5991, 392.0094
173.0812, 393.0966
173.5634, 393.4014
174.0455, 391.5492
174.5276, 389.9112
175.0097, 389.7422
175.4918, 390.8947
175.9739, 392.2722
176.4561, 392.6250
176.9382, 391.5769
177.4203, 390.7637
177.9024, 390.1512
178.3845, 389.7628
178.8666, 389.6507
179.3488, 389.8036
179.8309, 390.1563
180.3130, 390.6444
180.7951, 391.4087
181.2772, 391.9737
181.7593, 392.4883
182.2415, 392.7461
182.7236, 392.5504
183.2057, 391.8706
183.6878, 390.8564
184.1699, 389.6750
184.6520, 387.8937
185.1342, 386.9297
185.6163, 387.3438
186.0984, 388.3677
186.5805, 389.3034
187.0626, 389.9644
187.5447, 390.3044
188.0269, 390.1483
188.5090, 389.4247
188.9911, 388.6364
189.4732, 387.4020
189.9553, 386.2453
190.4374, 386.3529
190.9196, 388.4675
191.4017, 391.0561
191.8838, 391.8706
192.3659, 390.9098
192.8480, 389.5197
193.3301, 387.8639
193.8123, 386.1623
194.2944, 385.3638
194.7765, 386.3283
195.2586, 387.5150
195.7407, 387.2174
196.2228, 385.4134
196.7050, 383.4425
197.1871, 382.1216
197.6692, 381.4443
198.1513, 381.3036
198.6334, 382.3832
199.1155, 383.4043
199.5977, 383.3410
200.0798, 382.1858
200.5619, 380.9046
201.0440, 380.5532
201.5261, 381.3224
202.0082, 381.7456
202.4904, 381.5849
202.9725, 381.0585
203.4546, 379.9417
203.9367, 378.3451
204.4188, 376.9318
204.9009, 376.7145
205.3831, 378.3116
205.8652, 379.1935
206.3473, 378.7218
206.8294, 377.9918
207.3115, 377.5948
207.7936, 377.6372
208.2758, 377.8755
208.7579, 378.0222
209.2400, 378.2487
209.7221, 377.9398
210.2042, 376.0861
210.6863, 374.4785
211.1685, 374.5123
211.6506, 376.3747
212.1327, 379.1057
212.6148, 381.4667
213.0969, 384.0459
213.5790, 384.6061
214.0612, 381.5895
214.5433, 377.6839
215.0254, 374.9720
215.5075, 373.9572
215.9896, 373.7133
216.4717, 372.8783
216.9539, 370.7121
217.4360, 369.9043
217.9181, 371.9818
218.4002, 374.6979
218.8823, 375.6442
219.3644, 374.2259
219.8466, 371.9938
220.3287, 371.0735
220.8108, 371.7175
221.2929, 372.1629
221.7750, 372.0801
222.2571, 371.7152
222.7393, 371.3369
223.2214, 370.9910
223.7035, 370.6953
224.1856, 370.4111
224.6677, 370.1316
225.1498, 370.1621
225.6320, 370.8507
226.1141, 371.8340
226.5962, 372.5320
227.0783, 372.8430
227.5604, 372.8894
228.0425, 372.9144
228.5247, 372.8628
229.0068, 372.2695
229.4889, 370.2955
229.9710, 367.7135
230.4531, 366.4113
230.9352, 367.0713
231.4174, 367.9874
231.8995, 367.7370
232.3816, 366.6745
232.8637, 365.7400
233.3458, 365.5640
233.8279, 365.8829
234.3101, 365.7845
234.7922, 364.9875
235.2743, 364.2112
235.7564, 363.5509
236.2385, 363.1906
236.7206, 363.6113
237.2028, 365.8428
237.6849, 369.1228
238.1670, 369.9597
238.6491, 366.4716
239.1312, 363.2701
239.6133, 362.4631
240.0955, 363.1577
240.5776, 363.8553
241.0597, 363.7451
241.5418, 362.9219
242.0239, 361.7355
242.5060, 359.3024
242.9882, 357.7910
243.4703, 358.5469
243.9524, 360.3799
244.4345, 361.5267
244.9166, 360.8887
245.3987, 358.8881
245.8809, 357.5999
246.3630, 358.3844
246.8451, 358.0643
247.3272, 354.9188
247.8093, 350.6517
248.2914, 347.4898
248.7736, 346.6690
249.2557, 347.6865
249.7378, 348.5348
250.2199, 349.5481
250.7020, 349.9029
251.1841, 348.8370
251.6663, 347.2895
252.1484, 346.4486
252.6305, 346.8961
253.1126, 348.1779
253.5947, 348.8756
254.0768, 348.6639
254.5590, 348.1651
255.0411, 347.2211
255.5232, 346.0935
256.0053, 345.0356
256.4874, 344.1591
256.9695, 343.4279
257.4517, 342.7590
257.9338, 342.6841
258.4159, 341.9819
258.8980, 340.1174
259.3801, 337.8473
259.8622, 335.7841
260.3444, 334.1582
260.8265, 333.1173
261.3086, 332.9953
261.7907, 335.0080
262.2728, 335.9981
262.7549, 334.9922
263.2371, 333.4017
263.7192, 332.5564
264.2013, 332.8182
264.6834, 333.8454
265.1655, 335.2846
265.6476, 337.7723
266.1298, 338.9238
266.6119, 337.9707
267.0940, 336.0684
267.5761, 334.0874
268.0582, 332.2262
268.5403, 330.6304
269.0225, 329.6172
269.5046, 329.4740
269.9867, 328.3914
270.4688, 324.7079
270.9509, 321.0837
271.4330, 320.4284
271.9152, 322.9290
272.3973, 325.5736
272.8794, 325.3390
273.3615, 321.9420
273.8436, 319.4571
274.3257, 319.0219
274.8079, 318.7489
275.2900, 316.4296
275.7721, 312.1762
276.2542, 309.2103
276.7363, 310.7746
277.2184, 316.1284
277.7006, 318.2924
278.1827, 314.6576
278.6648, 309.8726
279.1469, 307.0091
279.6290, 305.9646
280.1111, 305.4195
280.5933, 304.7467
281.0754, 303.9559
281.5575, 303.0944
282.0396, 301.8455
282.5217, 300.9073
283.0038, 301.1046
283.4860, 302.1650
283.9681, 302.6322
284.4502, 301.7373
284.9323, 299.9003
285.4144, 298.0024
285.8965, 295.7525
286.3787, 294.1109
286.8608, 294.0063
287.3429, 295.0423
287.8250, 295.7707
288.3071, 295.6745
288.7892, 295.1212
289.2714, 294.6796
289.7535, 294.3806
290.2356, 293.9635
290.7177, 293.2192
291.1998, 292.2609
291.6819, 291.3689
292.1641, 290.5900
292.6462, 289.9208
293.1283, 289.3304
293.6104, 288.8159
294.0925, 288.4595
294.5746, 288.3751
295.0568, 288.4592
295.5389, 288.5095
296.0210, 288.4973
296.5031, 288.4681
296.9852, 288.6212
297.4673, 288.8263
297.9495, 288.6369
298.4316, 287.4709
298.9137, 285.9971
299.3958, 285.4358
299.8779, 286.0579
300.3600, 286.3826
300.8422, 284.8246
301.3243, 282.3777
301.8064, 280.8530
302.2885, 281.4717
302.7706, 282.3510
303.2527, 280.9105
303.7349, 276.9467
304.2170, 273.5509
304.6991, 273.0228
305.1812, 273.4969
305.6633, 272.2944
306.1454, 268.5620
306.6276, 264.4612
307.1097, 261.8554
307.5918, 260.6822
308.0739, 259.8020
308.5560, 258.9563
309.0381, 258.1933
309.5203, 257.8052
310.0024, 257.8949
310.4845, 257.3141
310.9666, 254.5683
311.4487, 250.2320
311.9308, 247.3061
312.4130, 246.9950
312.8951, 247.3830
313.3772, 246.7051
313.8593, 245.0956
314.3414, 243.3895
314.8235, 241.6029
315.3057, 240.0362
315.7878, 239.7112
316.2699, 241.2753
316.7520, 242.7261
317.2341, 242.4306
317.7162, 240.9288
318.1984, 239.2640
318.6805, 237.7353
319.1626, 236.2950
319.6447, 234.7781
320.1268, 233.1032
320.6089, 231.7682
321.0911, 231.1665
321.5732, 231.0655
322.0553, 231.2529
322.5374, 231.8790
323.0195, 232.4671
323.5016, 232.3381
323.9838, 231.4825
324.4659, 231.0398
324.9480, 232.0920
325.4301, 233.2859
325.9122, 232.7115
326.3943, 229.8899
326.8765, 227.2881
327.3586, 226.9182
327.8407, 228.4158
328.3228, 229.8654
328.8049, 231.1045
329.2870, 231.7469
329.7692, 231.0896
330.2513, 229.2730
330.7334, 227.9402
331.2155, 228.2329
331.6976, 229.5480
332.1797, 230.6132
332.6619, 231.4245
333.1440, 231.6204
333.6261, 230.4273
334.1082, 228.3562
334.5903, 226.5677
335.0724, 225.5074
335.5546, 224.8766
336.0367, 224.3013
336.5188, 223.7710
337.0009, 223.4008
337.4830, 223.1047
337.9651, 223.0944
338.4473, 223.8498
338.9294, 226.0255
339.4115, 228.0239
339.8936, 228.2912
340.3757, 227.0565
340.8578, 226.0574
341.3400, 226.0628
341.8221, 226.4794
342.3042, 226.3589
342.7863, 225.6174
343.2684, 224.8545
343.7505, 224.0573
344.2327, 223.4634
344.7148, 223.9541
345.1969, 226.1402
345.6790, 228.2912
346.1611, 227.7698
346.6432, 225.0461
347.1254, 223.1845
347.6075, 223.5849
348.0896, 224.9783
348.5717, 225.8540
349.0538, 226.0786
349.5359, 226.1515
350.0181, 226.5248
350.5002, 227.0461
350.9823, 227.0887
351.4644, 226.1100
351.9465, 225.0792
352.4286, 224.6053
352.9108, 224.6367
353.3929, 224.8919
353.8750, 225.1854
354.3571, 225.6874
354.8392, 226.9163
355.3214, 229.3925
355.8035, 231.3407
356.2856, 231.4243
356.7677, 230.6745
357.2498, 231.1204
357.7319, 233.4668
358.2141, 236.4084
358.6962, 238.0815
359.1783, 238.2210
359.6604, 238.8131
360.1425, 240.6589
360.6246, 242.7033
361.1068, 243.6468
361.5889, 243.4853
362.0710, 243.6362
362.5531, 245.3138
363.0352, 248.5508
363.5173, 251.8351
363.9995, 255.7293
364.4816, 259.1370
364.9637, 260.8948
365.4458, 261.6953
365.9279, 263.4671
366.4100, 267.3600
366.8922, 272.5455
367.3743, 276.2426
367.8564, 277.4327
368.3385, 278.6991
368.8206, 279.9868
369.3027, 281.6797
369.7849, 284.5752
370.2670, 288.8068
370.7491, 293.1580
371.2312, 295.7582
371.7133, 295.3647
372.1954, 297.0920
372.6776, 302.7194
373.1597, 308.7906
373.6418, 313.6905
374.1239, 317.1336
374.6060, 319.0999
375.0881, 319.3857
375.5703, 318.0676
376.0524, 317.8799
376.5345, 320.9711
377.0166, 322.7242
377.4987, 321.8630
377.9808, 319.0741
378.4630, 315.3068
378.9451, 310.9939
379.4272, 306.1934
379.9093, 301.1259
380.3914, 296.5157
380.8735, 290.2132
381.3557, 280.2078
381.8378, 270.0399
382.3199, 262.3495
382.8020, 257.4194
383.2841, 253.8033
383.7662, 250.0461
384.2484, 246.1463
384.7305, 242.0036
385.2126, 237.1178
385.6947, 232.4462
386.1768, 228.1184
386.6589, 224.2528
387.1411, 221.0471
387.6232, 218.6810
388.1053, 216.9356
388.5874, 215.0050
389.0695, 212.5639
389.5516, 210.5829
390.0338, 209.5218
390.5159, 208.8090
390.9980, 208.0885
391.4801, 207.2460
391.9622, 205.9942
392.4443, 203.5763
392.9265, 199.7541
393.4086, 197.1412
393.8907, 197.0128
394.3728, 197.3380
394.8549, 197.2299
395.3370, 196.6077
395.8192, 195.4084
396.3013, 192.7437
396.7834, 189.4877
397.2655, 188.9641
397.7476, 192.3092
398.2297, 195.4341
398.7119, 195.9986
399.1940, 195.1208
399.6761, 194.0575
400.1582, 193.0762
400.6403, 192.0942
401.1224, 190.8731
401.6046, 189.4429
402.0867, 188.5010
402.5688, 188.3646
403.0509, 188.7113
403.5330, 189.2180
404.0151, 189.8933
404.4973, 190.4021
404.9794, 190.6255
405.4615, 190.5797
405.9436, 190.1993
406.4257, 189.4370
406.9078, 188.6897
407.3900, 188.3405
407.8721, 188.3056
408.3542, 188.1064
408.8363, 187.6932
409.3184, 187.1258
409.8005, 186.0644
410.2827, 184.7995
410.7648, 184.5581
411.2469, 186.1671
411.7290, 188.5321
412.2111, 189.0179
412.6932, 186.9586
413.1754, 185.0351
413.6575, 183.4259
414.1396, 182.3180
414.6217, 182.0457
415.1038, 182.6158
415.5859, 183.5496
416.0681, 184.4379
416.5502, 185.3024
417.0323, 185.7857
417.5144, 185.5552
417.9965, 185.3552
418.4786, 185.7268
418.9608, 186.3243
419.4429, 186.4165
419.9250, 185.6094
420.4071, 184.2184
420.8892, 183.1486
421.3713, 183.2059
421.8535, 182.3174
422.3356, 179.4636
422.8177, 176.3755
423.2998, 174.0456
423.7819, 172.7904
424.2640, 172.8704
424.7462, 174.9365
425.2283, 179.2398
425.7104, 181.8862
426.1925, 181.2589
426.6746, 180.6274
427.1567, 181.1453
427.6389, 182.2206
428.1210, 182.8460
428.6031, 182.5092
429.0852, 181.6145
429.5673, 180.8886
430.0494, 180.2656
430.5316, 180.0402
431.0137, 180.6833
431.4958, 181.4908
431.9779, 182.4101
432.4600, 183.2907
432.9421, 183.1749
433.4243, 180.1331
433.9064, 175.2323
434.3885, 173.5083
434.8706, 176.4216
435.3527, 179.6379
435.8348, 180.0171
436.3170, 178.8753
436.7991, 178.4276
437.2812, 179.7614
437.7633, 181.1756
438.2454, 180.6695
438.7275, 178.5775
439.2097, 177.3460
439.6918, 178.1148
440.1739, 179.6627
440.6560, 180.0314
441.1381, 179.1260
441.6202, 178.6071
442.1024, 179.5795
442.5845, 180.8240
443.0666, 180.8204
443.5487, 179.4834
444.0308, 177.8500
444.5129, 176.6287
444.9951, 175.8029
445.4772, 175.1060
445.9593, 174.0831
446.4414, 173.6882
446.9235, 174.9894
447.4056, 176.8775
447.8878, 177.4344
448.3699, 176.0386
448.8520, 174.0719
449.3341, 173.7099
449.8162, 175.7637
450.2983, 177.1672
450.7805, 177.7103
451.2626, 177.9044
451.7447, 177.9292
452.2268, 177.8305
452.7089, 177.6073
453.1910, 177.2413
453.6732, 176.7875
454.1553, 176.4813
454.6374, 176.3693
455.1195, 176.3373
455.6016, 176.4077
456.0837, 176.5109
456.5659, 176.6727
457.0480, 176.8645
457.5301, 176.8627
458.0122, 176.0000
458.4943, 174.3177
458.9764, 174.4085
459.4586, 177.9149
459.9407, 180.8350
460.4228, 180.7007
460.9049, 178.6938
461.3870, 176.8569
461.8691, 175.8596
462.3513, 175.3884
462.8334, 175.2463
463.3155, 175.4140
463.7976, 175.3825
464.2797, 175.0063
464.7618, 174.3381
465.2440, 173.1551
465.7261, 171.4077
466.2082, 170.5637
466.6903, 171.7538
467.1724, 173.7645
467.6545, 175.3292
468.1367, 176.3135
468.6188, 176.6010
469.1009, 175.9036
469.5830, 174.4928
470.0651, 173.7354
470.5472, 174.3898
471.0294, 174.6522
471.5115, 173.6866
471.9936, 172.2366
472.4757, 171.0869
472.9578, 170.4830
473.4399, 170.5493
473.9221, 171.6100
474.4042, 174.0601
474.8863, 175.1625
475.3684, 174.0209
475.8505, 172.6632
476.3326, 171.4902
476.8148, 170.6836
477.2969, 170.5020
477.7790, 171.0852
478.2611, 172.1166
478.7432, 173.1080
479.2253, 174.4877
479.7075, 174.5757
480.1896, 171.0095
480.6717, 167.9092
481.1538, 168.2573
481.6359, 171.4316
482.1180, 174.1716
482.6002, 173.9055
483.0823, 171.7289
483.5644, 170.9314
484.0465, 172.0099
484.5286, 172.6333
485.0107, 171.0193
485.4929, 168.7908
485.9750, 167.8911
486.4571, 168.6634
486.9392, 170.0169
487.4213, 171.9745
487.9034, 173.9444
488.3856, 174.3870
488.8677, 172.9312
489.3498, 170.9825
489.8319, 169.6222
490.3140, 168.8560
490.7961, 168.2692
491.2783, 167.8469
491.7604, 167.6117
492.2425, 167.7784
492.7246, 168.1010
493.2067, 168.0291
493.6888, 167.3691
494.1710, 166.5956
494.6531, 166.4707
495.1352, 167.2617
495.6173, 167.8810
496.0994, 168.7179
496.5815, 169.0396
497.0637, 167.9023
497.5458, 166.0090
498.0279, 164.8890
498.5100, 165.4523
498.9921, 167.0505
499.4742, 168.1355
499.9564, 168.7503
500.4385, 168.7054
500.9206, 166.9168
501.4027, 165.2999
501.8848, 165.4115
502.3669, 167.0063
502.8491, 168.3365
503.3312, 167.8109
503.8133, 166.2425
504.2954, 166.0291
504.7775, 167.5010
505.2596, 168.7651
505.7418, 168.8138
506.2239, 168.2108
506.7060, 167.7066
507.1881, 167.2880
507.6702, 167.1891
508.1523, 168.0556
508.6345, 169.1477
509.1166, 169.0087
509.5987, 167.4185
510.0808, 165.6948
510.5629, 164.8776
511.0450, 164.9134
511.5272, 165.0011
512.0093, 165.6248
512.4914, 165.7241
512.9735, 164.3252
513.4556, 162.4954
513.9377, 161.6937
514.4199, 162.2842
514.9020, 163.5049
515.3841, 164.4757
515.8662, 165.2243
516.3483, 165.5287
516.8304, 164.8028
517.3126, 164.2478
517.7947, 164.3427
518.2768, 164.7768
518.7589, 165.1321
519.2410, 165.2524
519.7231, 165.1076
520.2053, 164.6560
520.6874, 163.8967
521.1695, 162.7496
521.6516, 160.5591
522.1337, 158.8315
522.6158, 158.7580
523.0980, 159.9122
523.5801, 161.0922
524.0622, 161.9298
524.5443, 162.5584
525.0264, 163.2307
525.5085, 163.8719
525.9907, 163.9134
526.4728, 163.0076
526.9549, 161.7502
527.4370, 160.9442
527.9191, 160.5614
528.4012, 160.7129
528.8834, 162.2838
529.3655, 163.6462
529.8476, 163.3933
530.3297, 161.9386
530.8118, 160.5844
531.2939, 160.0169
531.7761, 160.0553
532.2582, 160.2951
532.7403, 161.1337
533.2224, 161.4126
533.7045, 160.3128
534.1866, 159.4155
534.6688, 160.1887
535.1509, 162.0664
535.6330, 163.1158
536.1151, 161.8170
536.5972, 159.1801
537.0793, 157.9539
537.5615, 158.4329
538.0436, 159.1519
538.5257, 160.0291
539.0078, 160.7153
539.4899, 160.7505
539.9720, 160.1722
540.4542, 159.7917
540.9363, 160.3397
541.4184, 161.1530
541.9005, 161.1809
542.3826, 160.4271
542.8647, 159.6929
543.3469, 159.4045
543.8290, 159.3886
544.3111, 159.1894
544.7932, 158.7052
545.2753, 158.3049
545.7574, 157.8835
546.2396, 157.6743
546.7217, 158.4173
547.2038, 159.7217
547.6859, 159.8637
548.1680, 157.4364
548.6501, 153.2652
549.1323, 151.0292
549.6144, 151.4700
550.0965, 152.6949
550.5786, 155.5105
551.0607, 158.1457
551.5428, 159.1924
552.0250, 158.6880
552.5071, 157.6949
552.9892, 156.7477
553.4713, 155.9614
553.9534, 155.7004
554.4355, 156.0283
554.9177, 156.5715
555.3998, 157.1892
555.8819, 157.9595
556.3640, 159.2412
556.8461, 161.2159
557.3282, 162.2097
557.8104, 160.9615
558.2925, 158.7523
558.7746, 156.7276
559.2567, 155.0861
559.7388, 154.4949
560.2209, 155.5667
560.7031, 157.6284
561.1852, 158.5313
561.6673, 157.0249
562.1494, 156.0990
562.6315, 155.9972
563.1136, 156.3265
563.5958, 157.2130
564.0779, 158.3302
564.5600, 158.7127
565.0421, 157.5177
565.5242, 155.3755
566.0063, 154.6027
566.4885, 155.9413
566.9706, 156.4864
567.4527, 154.3601
567.9348, 152.1076
568.4169, 151.6093
568.8990, 152.7754
569.3812, 154.1367
569.8633, 155.5850
570.3454, 156.4333
570.8275, 154.8982
571.3096, 151.2194
571.7917, 148.9133
572.2739, 149.6471
572.7560, 152.2216
573.2381, 154.8101
573.7202, 157.8172
574.2023, 159.3408
574.6844, 157.9809
575.1666, 156.1530
575.6487, 155.8100
576.1308, 156.4019
576.6129, 155.9488
577.0950, 153.3427
577.5771, 149.9640
578.0593, 149.1047
578.5414, 152.1168
579.0235, 153.9503
579.5056, 153.8641
579.9877, 152.9922
580.4698, 150.9999
580.9520, 148.6497
581.4341, 147.6347
581.9162, 149.1371
582.3983, 151.4033
582.8804, 152.0220
583.3625, 151.1414
583.8447, 150.3263
584.3268, 149.9750
584.8089, 149.6942
585.2910, 148.8901
585.7731, 147.6692
586.2552, 147.1855
586.7374, 147.9394
587.2195, 149.0351
587.7016, 150.3592
588.1837, 151.6180
588.6658, 152.3150
589.1479, 152.3075
589.6301, 151.8126
590.1122, 150.9729
590.5943, 149.6692
591.0764, 149.2018
591.5585, 150.8750
592.0406, 151.8550
592.5228, 150.6418
593.0049, 148.7745
593.4870, 148.3313
593.9691, 149.7991
594.4512, 151.3130
594.9333, 150.8808
595.4155, 148.9586
595.8976, 147.4729
596.3797, 146.5096
596.8618, 146.0835
597.3439, 146.3502
597.8260, 147.1393
598.3082, 148.0460
598.7903, 149.3470
599.2724, 150.0715
599.7545, 149.5539
600.2366, 148.5259
600.7188, 147.3486
601.2009, 146.3125
601.6830, 146.4797
602.1651, 148.7746
602.6472, 152.3109
603.1293, 153.6892
603.6115, 151.2871
604.0936, 149.6883
604.5757, 149.6920
605.0578, 150.0708
605.5399, 150.2231
606.0220, 150.0941
606.5042, 149.7485
606.9863, 149.0766
607.4684, 148.4297
607.9505, 148.5233
608.4326, 149.3340
608.9147, 149.8369
609.3969, 149.5745
609.8790, 149.2812
610.3611, 150.0094
610.8432, 151.6392
611.3253, 152.5296
611.8074, 151.6406
612.2896, 150.8801
612.7717, 151.8401
613.2538, 153.4424
613.7359, 153.6508
614.2180, 151.9270
614.7001, 149.5920
615.1823, 148.1582
615.6644, 147.6585
616.1465, 147.3775
616.6286, 147.4329
617.1107, 147.5568
617.5928, 147.6331
618.0750, 147.7641
618.5571, 148.1975
619.0392, 148.9474
619.5213, 149.4121
620.0034, 148.8178
620.4855, 147.6920
620.9677, 147.3742
621.4498, 147.9524
621.9319, 148.2476
622.4140, 147.5692
622.8961, 146.3765
623.3782, 145.6534
623.8604, 145.5437
624.3425, 145.3832
624.8246, 144.9533
625.3067, 144.5801
625.7888, 144.4095
626.2709, 144.4836
626.7531, 145.0148
627.2352, 146.1258
627.7173, 147.1821
628.1994, 146.6897
628.6815, 144.1111
629.1636, 143.0613
629.6458, 145.2652
630.1279, 147.0293
630.6100, 145.8743
631.0921, 143.2357
631.5742, 141.7437
632.0563, 142.3569
632.5385, 143.2638
633.0206, 143.1376
633.5027, 142.3869
633.9848, 141.6313
634.4669, 140.9854
634.9490, 140.9726
635.4312, 142.1304
635.9133, 144.1307
636.3954, 145.4263
636.8775, 145.5195
637.3596, 145.5300
637.8417, 145.7320
638.3239, 145.6642
638.8060, 144.8315
639.2881, 143.4075
639.7702, 141.9083
640.2523, 140.5102
640.7344, 139.5488
641.2166, 139.8945
641.6987, 141.6115
642.1808, 143.3195
642.6629, 145.2220
643.1450, 146.2913
643.6271, 144.5984
644.1093, 141.0827
644.5914, 139.3290
645.0735, 141.7014
645.5556, 143.7865
646.0377, 142.7795
646.5198, 140.5397
647.0020, 139.8865
647.4841, 141.2422
647.9662, 143.0403
648.4483, 143.9878
648.9304, 144.0953
649.4125, 143.2592
649.8947, 140.1716
650.3768, 138.6500
650.8589, 141.2965
651.3410, 144.1071
651.8231, 143.8112
652.3052, 140.8398
652.7874, 138.3864
653.2695, 138.3094
653.7516, 139.2867
654.2337, 139.7698
654.7158, 139.8872
655.1979, 140.3241
655.6801, 141.3408
656.1622, 142.3697
656.6443, 142.9195
657.1264, 143.0216
657.6085, 141.9227
658.0906, 137.4480
658.5728, 134.6568
659.0549, 136.0759
659.5370, 138.9484
660.0191, 140.4868
660.5012, 140.2658
660.9833, 139.4638
661.4655, 138.7984
661.9476, 138.4244
662.4297, 139.2540
662.9118, 141.5956
