##NAMES=Fettelite
##RRUFFID=R100124
##IDEAL CHEMISTRY=Ag_16_HgAs_4_S_15_
##LOCALITY=Nieder-Berbach, Odenwald, Germany
##OWNER=RRUFF
##SOURCE=William W. Pinch
##DESCRIPTION=Dark reddish thin platy crystals associated with proustite and xanthoconite.
##STATUS=The identification of this mineral is confirmed by single-crystal X-ray diffraction and chemical analysis.
##URL=rruff.info/R100124
##MEASURED CHEMISTRY=Ag_17.81_Fe_0.97_Hg_0.55_Cu_0.01_Sb_0.05_As_3.34_S_15_
90.60547, 3404.966
91.08759, 3406.819
91.56970, 3435.643
92.05182, 3445.251
92.53394, 3468.522
93.01605, 3479.759
93.49817, 3474.633
93.98029, 3458.541
94.46240, 3432.671
94.94452, 3393.091
95.42664, 3348.085
95.90874, 3303.455
96.39086, 3260.222
96.87298, 3217.828
97.35509, 3172.953
97.83721, 3119.474
98.31933, 3069.782
98.80145, 3024.361
99.28356, 2982.155
99.76568, 2942.875
100.2478, 2906.069
100.7299, 2871.567
101.2120, 2839.640
101.6941, 2808.971
102.1763, 2782.060
102.6584, 2758.787
103.1405, 2738.828
103.6226, 2722.058
104.1047, 2708.280
104.5868, 2697.412
105.0690, 2688.787
105.5511, 2682.155
106.0332, 2676.996
106.5153, 2672.465
106.9974, 2668.692
107.4795, 2667.159
107.9617, 2669.169
108.4438, 2674.428
108.9259, 2681.496
109.4080, 2691.290
109.8901, 2702.371
110.3722, 2712.511
110.8544, 2720.904
111.3365, 2730.131
111.8186, 2742.772
112.3007, 2757.437
112.7828, 2771.455
113.2649, 2782.858
113.7471, 2791.890
114.2292, 2801.227
114.7113, 2811.270
115.1934, 2821.344
115.6755, 2831.497
116.1576, 2841.547
116.6397, 2851.102
117.1219, 2859.871
117.6040, 2867.980
118.0861, 2874.710
118.5682, 2880.468
119.0503, 2884.864
119.5324, 2887.427
120.0146, 2888.141
120.4967, 2887.538
120.9788, 2886.499
121.4609, 2885.060
121.9430, 2882.905
122.4251, 2879.418
122.9073, 2875.383
123.3894, 2871.948
123.8715, 2869.653
124.3536, 2867.726
124.8357, 2863.740
125.3178, 2855.867
125.8000, 2849.993
126.2821, 2849.113
126.7642, 2852.322
127.2463, 2856.261
127.7284, 2859.420
128.2105, 2862.577
128.6927, 2866.982
129.1748, 2872.977
129.6569, 2879.781
130.1390, 2886.646
130.6211, 2893.510
131.1032, 2900.862
131.5854, 2909.095
132.0675, 2917.926
132.5496, 2927.137
133.0317, 2936.669
133.5138, 2946.535
133.9959, 2956.977
134.4781, 2968.734
134.9602, 2979.933
135.4423, 2990.216
135.9244, 2999.702
136.4065, 3008.448
136.8886, 3016.470
137.3708, 3023.846
137.8529, 3031.036
138.3350, 3038.303
138.8171, 3045.123
139.2992, 3051.054
139.7813, 3056.402
140.2635, 3061.860
140.7456, 3068.018
141.2277, 3075.020
141.7098, 3081.621
142.1919, 3087.692
142.6740, 3093.558
143.1561, 3099.519
143.6383, 3105.537
144.1204, 3111.302
144.6025, 3116.759
145.0846, 3121.976
145.5667, 3124.935
146.0488, 3125.672
146.5310, 3124.060
147.0131, 3119.930
147.4952, 3113.211
147.9773, 3104.131
148.4594, 3091.938
148.9415, 3077.195
149.4237, 3061.507
149.9058, 3046.342
150.3879, 3030.745
150.8700, 3012.235
151.3521, 2989.654
151.8342, 2964.453
152.3164, 2937.797
152.7985, 2909.886
153.2806, 2881.250
153.7627, 2852.686
154.2448, 2824.157
154.7269, 2794.189
155.2091, 2759.084
155.6912, 2725.306
156.1733, 2697.188
156.6554, 2674.568
157.1375, 2653.542
157.6196, 2629.017
158.1018, 2599.132
158.5839, 2571.188
159.0660, 2544.606
159.5481, 2520.340
160.0302, 2499.389
160.5123, 2481.905
160.9945, 2467.113
161.4766, 2453.908
161.9587, 2443.392
162.4408, 2432.791
162.9229, 2421.179
163.4050, 2409.921
163.8871, 2400.327
164.3693, 2392.852
164.8514, 2387.132
165.3335, 2382.375
165.8156, 2378.497
166.2977, 2375.738
166.7798, 2374.404
167.2620, 2374.159
167.7441, 2374.671
168.2262, 2375.923
168.7083, 2377.564
169.1904, 2378.364
169.6725, 2376.941
170.1547, 2377.150
170.6368, 2381.774
171.1189, 2389.601
171.6010, 2396.466
172.0831, 2400.411
172.5652, 2402.200
173.0474, 2403.833
173.5295, 2404.982
174.0116, 2406.575
174.4937, 2409.587
174.9758, 2414.021
175.4579, 2418.341
175.9401, 2421.508
176.4222, 2424.437
176.9043, 2428.183
177.3864, 2433.168
177.8685, 2438.509
178.3506, 2443.073
178.8328, 2446.661
179.3149, 2450.205
179.7970, 2453.534
180.2791, 2457.188
180.7612, 2461.583
181.2433, 2466.860
181.7255, 2473.071
182.2076, 2480.336
182.6897, 2488.624
183.1718, 2498.202
183.6539, 2509.034
184.1360, 2520.912
184.6181, 2533.583
185.1003, 2546.935
185.5824, 2561.102
186.0645, 2575.821
186.5466, 2591.696
187.0287, 2608.113
187.5108, 2625.347
187.9930, 2642.876
188.4751, 2660.125
188.9572, 2676.701
189.4393, 2692.656
189.9214, 2708.038
190.4035, 2720.433
190.8857, 2734.911
191.3678, 2753.407
191.8499, 2774.512
192.3320, 2796.198
192.8141, 2817.496
193.2962, 2838.149
193.7784, 2856.195
194.2605, 2870.636
194.7426, 2884.249
195.2247, 2897.690
195.7068, 2911.028
196.1889, 2924.258
196.6711, 2937.076
197.1532, 2949.946
197.6353, 2964.805
198.1174, 2982.781
198.5995, 3001.508
199.0816, 3018.430
199.5638, 3034.269
200.0459, 3053.632
200.5280, 3079.946
201.0101, 3112.208
201.4922, 3145.104
201.9743, 3179.020
202.4565, 3213.182
202.9386, 3246.168
203.4207, 3277.958
203.9028, 3311.891
204.3849, 3350.063
204.8670, 3391.565
205.3492, 3434.995
205.8313, 3480.724
206.3134, 3527.538
206.7955, 3573.198
207.2776, 3617.114
207.7597, 3662.646
208.2419, 3711.687
208.7240, 3763.101
209.2061, 3815.925
209.6882, 3869.973
210.1703, 3925.090
210.6524, 3981.370
211.1346, 4039.012
211.6167, 4096.370
212.0988, 4153.035
212.5809, 4208.875
213.0630, 4264.198
213.5451, 4318.834
214.0273, 4372.794
214.5094, 4425.928
214.9915, 4478.618
215.4736, 4529.632
215.9557, 4580.391
216.4378, 4629.138
216.9200, 4674.034
217.4021, 4713.927
217.8842, 4750.578
218.3663, 4788.688
218.8484, 4832.866
219.3305, 4871.318
219.8127, 4900.847
220.2948, 4925.407
220.7769, 4949.128
221.2590, 4973.891
221.7411, 4998.832
222.2232, 5021.416
222.7054, 5041.478
223.1875, 5058.868
223.6696, 5072.278
224.1517, 5083.528
224.6338, 5094.459
225.1159, 5105.932
225.5980, 5117.722
226.0802, 5129.196
226.5623, 5139.932
227.0444, 5150.806
227.5265, 5163.780
228.0086, 5176.387
228.4907, 5184.979
228.9729, 5187.944
229.4550, 5187.009
229.9371, 5186.515
230.4192, 5188.411
230.9013, 5187.774
231.3834, 5184.969
231.8656, 5178.919
232.3477, 5167.780
232.8298, 5150.685
233.3119, 5128.875
233.7940, 5103.893
234.2761, 5074.628
234.7583, 5045.805
235.2404, 5020.733
235.7225, 4996.568
236.2046, 4967.593
236.6867, 4930.977
237.1688, 4890.753
237.6510, 4853.258
238.1331, 4818.786
238.6152, 4784.766
239.0973, 4750.133
239.5794, 4715.308
240.0615, 4680.649
240.5437, 4644.818
241.0258, 4611.951
241.5079, 4588.378
241.9900, 4573.643
242.4721, 4560.669
242.9542, 4548.083
243.4364, 4535.155
243.9185, 4519.193
244.4006, 4497.820
244.8827, 4476.913
245.3648, 4462.204
245.8469, 4453.081
246.3290, 4446.837
246.8112, 4442.527
247.2933, 4440.131
247.7754, 4439.538
248.2575, 4440.818
248.7396, 4443.972
249.2217, 4448.383
249.7039, 4454.204
250.1860, 4462.304
250.6681, 4473.221
251.1502, 4486.768
251.6323, 4502.274
252.1144, 4518.794
252.5966, 4539.049
253.0787, 4563.896
253.5608, 4592.922
254.0429, 4625.740
254.5250, 4662.093
255.0071, 4701.897
255.4893, 4745.292
255.9714, 4792.192
256.4535, 4843.203
256.9356, 4899.108
257.4177, 4958.330
257.8998, 5018.993
258.3820, 5080.532
258.8641, 5142.260
259.3462, 5201.553
259.8283, 5257.078
260.3104, 5312.154
260.7925, 5370.972
261.2747, 5429.726
261.7568, 5483.305
262.2389, 5529.445
262.7210, 5569.010
263.2031, 5605.067
263.6852, 5637.685
264.1674, 5666.067
264.6495, 5688.140
265.1316, 5707.409
265.6137, 5727.524
266.0958, 5750.096
266.5779, 5773.833
267.0601, 5795.758
267.5422, 5815.970
268.0243, 5833.746
268.5064, 5848.256
268.9885, 5861.181
269.4706, 5873.737
269.9528, 5886.393
270.4349, 5899.081
270.9170, 5911.536
271.3991, 5922.787
271.8812, 5935.700
272.3633, 5951.118
272.8455, 5967.515
273.3276, 5983.616
273.8097, 5999.173
274.2918, 6014.792
274.7739, 6031.768
275.2560, 6052.335
275.7382, 6069.260
276.2202, 6082.069
276.7024, 6092.460
277.1845, 6102.311
277.6666, 6111.447
278.1487, 6117.569
278.6308, 6117.850
279.1129, 6111.489
279.5951, 6101.474
280.0772, 6084.951
280.5593, 6067.863
281.0414, 6052.722
281.5235, 6039.897
282.0056, 6028.790
282.4878, 6018.819
282.9699, 6009.822
283.4520, 6003.050
283.9341, 5996.551
284.4162, 5993.716
284.8983, 5998.614
285.3805, 6008.792
285.8626, 6018.818
286.3447, 6025.240
286.8268, 6027.974
287.3089, 6020.096
287.7910, 6002.695
288.2732, 5974.837
288.7553, 5936.628
289.2374, 5887.602
289.7195, 5827.830
290.2016, 5757.587
290.6837, 5676.396
291.1659, 5577.923
291.6480, 5454.542
292.1301, 5323.591
292.6122, 5185.815
293.0943, 5042.497
293.5764, 4894.872
294.0586, 4742.715
294.5407, 4587.250
295.0228, 4431.032
295.5049, 4269.527
295.9870, 4112.805
296.4691, 3957.918
296.9513, 3809.434
297.4334, 3672.379
297.9155, 3548.913
298.3976, 3435.967
298.8797, 3328.939
299.3618, 3228.223
299.8440, 3134.340
300.3261, 3047.781
300.8082, 2968.196
301.2903, 2894.823
301.7724, 2827.800
302.2545, 2766.479
302.7367, 2709.717
303.2188, 2657.852
303.7009, 2611.972
304.1830, 2574.038
304.6651, 2539.603
305.1472, 2505.055
305.6294, 2470.825
306.1115, 2440.381
306.5936, 2416.749
307.0757, 2400.143
307.5578, 2387.695
308.0399, 2380.134
308.5221, 2375.109
309.0042, 2372.075
309.4863, 2370.792
309.9684, 2371.142
310.4505, 2373.199
310.9326, 2376.715
311.4148, 2379.906
311.8969, 2382.855
312.3790, 2385.480
312.8611, 2387.667
313.3432, 2389.536
313.8253, 2391.415
314.3075, 2393.484
314.7896, 2395.388
315.2717, 2396.138
315.7538, 2393.892
316.2359, 2393.191
316.7180, 2394.342
317.2001, 2397.241
317.6823, 2401.203
318.1644, 2406.131
318.6465, 2413.614
319.1286, 2426.156
319.6107, 2445.413
320.0928, 2466.576
320.5750, 2490.015
321.0571, 2515.078
321.5392, 2540.975
322.0213, 2567.685
322.5034, 2596.598
322.9855, 2629.073
323.4677, 2665.967
323.9498, 2702.231
324.4319, 2736.506
324.9140, 2771.545
325.3961, 2810.614
325.8782, 2852.015
326.3604, 2891.541
326.8425, 2926.575
327.3246, 2956.982
327.8067, 2981.430
328.2888, 2999.511
328.7709, 3013.210
329.2531, 3020.289
329.7352, 3023.738
330.2173, 3027.232
330.6994, 3032.300
331.1815, 3040.206
331.6636, 3054.555
332.1458, 3077.032
332.6279, 3104.608
333.1100, 3135.714
333.5921, 3172.442
334.0742, 3216.795
334.5563, 3269.117
335.0385, 3329.673
335.5206, 3398.373
336.0027, 3476.433
336.4848, 3561.880
336.9669, 3656.647
337.4490, 3757.064
337.9312, 3860.407
338.4133, 3967.195
338.8954, 4079.585
339.3775, 4200.122
339.8596, 4329.811
340.3417, 4458.372
340.8239, 4591.547
341.3060, 4717.669
341.7881, 4839.541
342.2702, 4951.105
342.7523, 5043.229
343.2344, 5111.147
343.7166, 5152.251
344.1987, 5152.630
344.6808, 5104.471
345.1629, 5018.102
345.6450, 4888.039
346.1271, 4722.786
346.6093, 4526.171
347.0914, 4301.990
347.5735, 4058.250
348.0556, 3812.831
348.5377, 3555.375
349.0198, 3314.266
349.5020, 3087.690
349.9841, 2875.854
350.4662, 2681.206
350.9483, 2504.098
351.4304, 2342.864
351.9125, 2197.362
352.3947, 2068.556
352.8768, 1950.927
353.3589, 1846.466
353.8410, 1751.251
354.3231, 1665.484
354.8052, 1588.199
355.2874, 1517.498
355.7695, 1452.568
356.2516, 1393.384
356.7337, 1338.284
357.2158, 1287.198
357.6979, 1241.034
358.1800, 1199.490
358.6621, 1162.639
359.1443, 1131.391
359.6264, 1105.897
360.1085, 1084.416
360.5906, 1063.703
361.0727, 1043.545
361.5548, 1024.778
362.0370, 1007.525
362.5191, 991.5770
363.0012, 977.4062
363.4833, 964.6595
363.9654, 952.1862
364.4475, 938.9567
364.9297, 924.9750
365.4118, 910.1369
365.8939, 894.3819
366.3760, 877.7079
366.8581, 859.9494
367.3402, 841.3779
367.8224, 822.4526
368.3045, 803.4697
368.7866, 784.4551
369.2687, 765.3517
369.7508, 745.9713
370.2329, 727.0269
370.7151, 708.1100
371.1972, 689.9732
371.6793, 673.2268
372.1614, 658.2291
372.6435, 644.3681
373.1256, 630.9974
373.6078, 618.1114
374.0899, 606.1428
374.5720, 595.3474
375.0541, 585.4493
375.5362, 576.3531
376.0183, 567.9620
376.5005, 559.9266
376.9826, 551.7947
377.4647, 543.7742
377.9468, 536.5854
378.4289, 530.3349
378.9110, 524.7955
379.3932, 520.4509
379.8753, 516.6354
380.3574, 511.9740
380.8395, 505.3471
381.3216, 498.3138
381.8037, 492.9087
382.2859, 489.1480
382.7680, 485.6668
383.2501, 481.9329
383.7322, 478.1257
384.2143, 474.5951
384.6964, 471.5458
385.1786, 468.1455
385.6607, 463.5761
386.1428, 458.3189
386.6249, 453.5616
387.1070, 449.5580
387.5891, 446.2289
388.0713, 443.7507
388.5534, 442.0386
389.0355, 440.2172
389.5176, 438.0002
389.9997, 435.6630
390.4818, 433.6296
390.9640, 431.8694
391.4461, 429.6986
391.9282, 426.4100
392.4103, 422.3469
392.8924, 419.3373
393.3745, 417.6934
393.8567, 416.6439
394.3388, 416.5712
394.8209, 416.8073
395.3030, 415.8411
395.7851, 412.9882
396.2672, 409.3892
396.7494, 407.1055
397.2315, 407.0049
397.7136, 406.1656
398.1957, 403.7624
398.6778, 401.0324
399.1599, 398.9366
399.6420, 397.5818
400.1241, 396.6552
400.6063, 395.9717
401.0884, 395.5547
401.5705, 394.4747
402.0526, 391.9931
402.5347, 389.7682
403.0168, 388.3339
403.4990, 387.4886
403.9811, 386.9541
404.4632, 386.6074
404.9453, 386.3177
405.4274, 385.7663
405.9095, 384.8970
406.3917, 383.8432
406.8738, 382.7604
407.3559, 381.4204
407.8380, 379.2751
408.3201, 376.5032
408.8022, 374.1469
409.2844, 373.3673
409.7665, 374.2885
410.2486, 374.8492
410.7307, 374.8948
411.2128, 374.7022
411.6949, 374.2755
412.1771, 373.6797
412.6592, 372.9785
413.1413, 372.1816
413.6234, 371.3670
414.1055, 370.7423
414.5876, 370.4086
415.0698, 369.9459
415.5519, 369.1234
416.0340, 368.2294
416.5161, 367.4806
416.9982, 366.8916
417.4803, 366.2946
417.9625, 365.3576
418.4446, 364.2018
418.9267, 363.7868
419.4088, 364.7486
419.8909, 365.4139
420.3730, 364.0211
420.8552, 361.6070
421.3373, 360.3994
421.8194, 361.9050
422.3015, 364.1436
422.7836, 364.7444
423.2657, 363.7201
423.7479, 362.2321
424.2300, 360.3627
424.7121, 358.6151
425.1942, 357.7368
425.6763, 357.8339
426.1584, 358.2035
426.6406, 358.7223
427.1227, 359.2710
427.6048, 359.7437
428.0869, 360.1514
428.5690, 360.1318
429.0511, 359.1273
429.5333, 357.1591
430.0154, 356.0128
430.4975, 356.3744
430.9796, 356.9175
431.4617, 356.9027
431.9438, 356.4724
432.4260, 356.0251
432.9081, 355.7323
433.3902, 355.6009
433.8723, 355.6898
434.3544, 356.6594
434.8365, 356.7031
435.3187, 354.7929
435.8008, 352.5753
436.2829, 351.3925
436.7650, 351.3858
437.2471, 351.9721
437.7292, 352.6935
438.2114, 353.5680
438.6935, 353.9449
439.1756, 353.2628
439.6577, 352.7039
440.1398, 352.7744
440.6219, 353.0529
441.1040, 352.8232
441.5862, 351.7901
442.0683, 350.5712
442.5504, 350.4255
443.0325, 351.8573
443.5146, 352.8177
443.9967, 353.0748
444.4789, 352.8648
444.9610, 351.9727
445.4431, 350.6325
445.9252, 349.5351
446.4073, 349.1979
446.8894, 349.5001
447.3716, 350.0651
447.8537, 351.0743
448.3358, 351.8853
448.8179, 352.2019
449.3000, 352.1767
449.7821, 351.8331
450.2643, 351.0768
450.7464, 350.4685
451.2285, 350.8013
451.7106, 351.8075
452.1927, 351.9763
452.6748, 350.6313
453.1570, 349.1672
453.6391, 349.2794
454.1212, 350.6098
454.6033, 351.5772
455.0854, 351.8409
455.5675, 351.5704
456.0497, 350.5640
456.5318, 349.0087
457.0139, 347.9663
457.4960, 348.1035
457.9781, 348.9479
458.4602, 349.2012
458.9424, 348.6352
459.4245, 348.0794
459.9066, 347.6911
460.3887, 347.3756
460.8708, 347.1164
461.3529, 346.8728
461.8351, 346.4477
462.3172, 345.6157
462.7993, 344.3629
463.2814, 343.2721
463.7635, 341.9659
464.2456, 341.2354
464.7278, 341.8205
465.2099, 342.9177
465.6920, 343.3712
466.1741, 342.7466
466.6562, 341.6234
467.1383, 341.0321
467.6205, 341.2683
468.1026, 341.0943
468.5847, 339.9530
469.0668, 338.8575
469.5489, 338.3889
470.0310, 338.3650
470.5132, 338.1948
470.9953, 337.4084
471.4774, 336.3383
471.9595, 336.0375
472.4416, 336.8916
472.9237, 337.0727
473.4059, 334.9679
473.8880, 332.4812
474.3701, 331.5173
474.8522, 332.3364
475.3343, 333.2343
475.8164, 333.2512
476.2986, 332.5185
476.7807, 331.2375
477.2628, 329.3495
477.7449, 327.3503
478.2270, 325.3977
478.7091, 323.6424
479.1913, 322.6171
479.6734, 322.9154
480.1555, 323.3176
480.6376, 323.3146
481.1197, 322.9477
481.6018, 322.2674
482.0839, 321.2803
482.5660, 320.0806
483.0482, 318.7098
483.5303, 316.9511
484.0124, 315.9438
484.4945, 316.3613
484.9766, 316.8503
485.4587, 316.7422
485.9409, 316.1073
486.4230, 315.2525
486.9051, 314.3401
487.3872, 313.3718
487.8693, 312.3369
488.3514, 311.0363
488.8336, 310.0455
489.3157, 309.4972
489.7978, 309.1497
490.2799, 309.0289
490.7620, 309.0106
491.2441, 308.7024
491.7263, 307.6234
492.2084, 306.0058
492.6905, 305.0754
493.1726, 305.2180
493.6547, 305.1270
494.1368, 303.7061
494.6190, 302.0575
495.1011, 301.4522
495.5832, 302.2265
496.0653, 303.1114
496.5474, 303.1517
497.0295, 302.5411
497.5117, 301.8301
497.9938, 301.0773
498.4759, 300.2984
498.9580, 299.4216
499.4401, 298.5060
499.9222, 297.8517
500.4044, 297.7173
500.8865, 297.5957
501.3686, 297.2409
501.8507, 296.7054
502.3328, 296.0932
502.8149, 295.4414
503.2971, 294.7072
503.7792, 293.7652
504.2613, 292.3595
504.7434, 291.7270
505.2255, 292.5794
505.7076, 293.4172
506.1898, 293.4209
506.6719, 292.8725
507.1540, 292.4825
507.6361, 292.6364
508.1182, 293.0201
508.6003, 292.8353
509.0825, 291.7391
509.5646, 290.9964
510.0467, 291.2501
510.5288, 291.4415
511.0109, 290.8260
511.4930, 289.5838
511.9752, 288.5056
512.4573, 288.1633
512.9394, 288.2624
513.4215, 288.0296
513.9036, 287.3525
514.3857, 287.0767
514.8679, 287.8612
515.3500, 288.9689
515.8321, 289.4847
516.3142, 289.3614
516.7963, 288.9151
517.2784, 287.9616
517.7606, 286.9121
518.2427, 286.3658
518.7248, 286.3633
519.2069, 286.6070
519.6890, 287.0083
520.1711, 287.4574
520.6533, 287.3714
521.1354, 286.1410
521.6175, 285.2715
522.0996, 285.4800
522.5817, 285.8953
523.0638, 285.5400
523.5460, 284.3297
524.0281, 282.9093
524.5102, 281.8231
524.9923, 281.0806
525.4744, 281.0814
525.9565, 282.8068
526.4387, 283.9913
526.9208, 283.7989
527.4029, 283.0706
527.8850, 282.7875
528.3671, 283.1705
528.8492, 283.4796
529.3314, 282.6703
529.8135, 280.9174
530.2956, 280.0554
530.7777, 280.6149
531.2598, 281.1818
531.7419, 280.6900
532.2241, 279.6644
532.7062, 278.9576
533.1883, 278.9082
533.6704, 278.8238
534.1525, 278.0165
534.6346, 276.8397
535.1168, 276.2486
535.5989, 276.5102
536.0810, 276.7829
536.5631, 276.0767
537.0452, 274.3279
537.5273, 273.5404
538.0095, 274.7491
538.4916, 275.6700
538.9737, 275.1125
539.4558, 273.8524
539.9379, 273.1840
540.4200, 273.4934
540.9022, 273.9921
541.3843, 273.5390
541.8664, 271.9368
542.3485, 270.4975
542.8306, 269.0557
543.3127, 267.9970
543.7948, 267.5397
544.2769, 267.5205
544.7590, 267.7863
545.2411, 268.3297
545.7233, 268.7992
546.2054, 268.8058
546.6875, 268.3522
547.1696, 267.4407
547.6517, 265.9260
548.1339, 264.2325
548.6160, 262.3640
549.0981, 260.5552
549.5802, 259.6105
550.0623, 260.4825
550.5444, 261.4081
551.0266, 261.2248
551.5087, 260.2412
551.9908, 258.9911
552.4729, 257.6077
552.9550, 256.5594
553.4371, 256.5387
553.9193, 257.8261
554.4014, 258.4341
554.8835, 258.1321
555.3656, 257.5179
555.8477, 256.5715
556.3298, 255.5275
556.8120, 254.7055
557.2941, 254.2164
557.7762, 253.9316
558.2583, 253.7879
558.7404, 253.8666
559.2225, 253.3629
559.7047, 251.6481
560.1868, 250.1531
560.6689, 249.7430
561.1510, 249.9230
561.6331, 249.7991
562.1152, 248.9759
562.5974, 248.1538
563.0795, 248.1152
563.5616, 248.6356
564.0437, 248.9149
564.5258, 248.7943
565.0079, 248.4142
565.4901, 247.8397
565.9722, 247.0809
566.4543, 246.4020
566.9364, 245.9721
567.4185, 245.4317
567.9006, 244.3034
568.3828, 243.1136
568.8649, 242.9005
569.3470, 243.8078
569.8291, 244.5586
570.3112, 243.4905
570.7933, 240.4292
571.2755, 238.6430
571.7576, 239.0191
572.2397, 239.6158
572.7218, 240.2572
573.2039, 240.7198
573.6860, 240.7580
574.1682, 240.3140
574.6503, 239.5704
575.1324, 238.5246
575.6145, 237.2902
576.0966, 236.4109
576.5787, 235.9816
577.0609, 235.6796
577.5430, 235.4991
578.0251, 235.2454
578.5072, 234.4233
578.9893, 232.6068
579.4714, 231.1616
579.9536, 231.0183
580.4357, 231.3192
580.9178, 230.9143
581.3999, 229.7396
581.8820, 228.5524
582.3641, 227.9251
582.8463, 227.7808
583.3284, 227.6876
583.8105, 228.3116
584.2926, 227.9689
584.7747, 225.6287
585.2568, 223.0143
585.7390, 221.3336
