##NAMES=Fettelite
##RRUFFID=R100124
##IDEAL CHEMISTRY=Ag_16_HgAs_4_S_15_
##LOCALITY=Nieder-Berbach, Odenwald, Germany
##OWNER=RRUFF
##SOURCE=William W. Pinch
##DESCRIPTION=Dark reddish thin platy crystals associated with proustite and xanthoconite.
##STATUS=The identification of this mineral is confirmed by single-crystal X-ray diffraction and chemical analysis.
##URL=rruff.info/R100124
##MEASURED CHEMISTRY=Ag_17.81_Fe_0.97_Hg_0.55_Cu_0.01_Sb_0.05_As_3.34_S_15_
140.2111, 11.05107
140.6932, 12.17621
141.1753, 13.99861
141.6575, 15.84315
142.1396, 17.93803
142.6217, 19.45026
143.1038, 20.00471
143.5859, 19.53426
144.0681, 19.58245
144.5502, 20.16946
145.0323, 21.25484
145.5144, 22.89490
145.9965, 25.61480
146.4786, 28.06813
146.9608, 29.89836
147.4429, 31.07420
147.9250, 31.85973
148.4071, 31.96862
148.8892, 31.79481
149.3713, 31.90795
149.8535, 32.14250
150.3356, 32.83318
150.8177, 34.19122
151.2998, 36.78251
151.7819, 38.81203
152.2640, 39.84253
152.7462, 40.36061
153.2283, 41.21425
153.7104, 42.95956
154.1925, 44.63697
154.6746, 45.91618
155.1567, 46.72022
155.6389, 47.18327
156.1210, 46.93135
156.6031, 46.32176
157.0852, 46.22971
157.5673, 47.13142
158.0495, 48.37721
158.5316, 49.70794
159.0137, 51.45905
159.4958, 52.72807
159.9779, 52.93654
160.4600, 52.40342
160.9422, 52.17033
161.4243, 52.63126
161.9064, 53.48412
162.3885, 54.54146
162.8706, 56.02515
163.3527, 57.41108
163.8349, 58.48424
164.3170, 59.27980
164.7991, 59.96613
165.2812, 60.67178
165.7633, 61.28247
166.2454, 61.68172
166.7276, 61.38424
167.2097, 61.27590
167.6918, 61.79419
168.1739, 62.92955
168.6560, 64.63078
169.1381, 67.64444
169.6203, 70.96232
170.1024, 72.92102
170.5845, 72.66762
171.0666, 71.91031
171.5487, 71.78379
172.0309, 72.24768
172.5130, 72.86240
172.9951, 73.85865
173.4772, 74.73643
173.9593, 74.70259
174.4414, 72.23989
174.9236, 69.36923
175.4057, 68.49997
175.8878, 69.63148
176.3699, 71.24809
176.8520, 72.33267
177.3341, 72.97096
177.8163, 73.34313
178.2984, 73.49448
178.7805, 73.43895
179.2626, 73.08705
179.7447, 72.41454
180.2268, 71.78445
180.7090, 71.71413
181.1911, 72.02513
181.6732, 72.16721
182.1553, 71.63605
182.6374, 70.79671
183.1195, 70.47492
183.6017, 70.73058
184.0838, 71.23251
184.5659, 71.62006
185.0480, 71.91978
185.5301, 72.28867
186.0123, 72.99529
186.4944, 73.84832
186.9765, 74.15761
187.4586, 73.83334
187.9407, 73.23247
188.4228, 72.80202
188.9050, 72.53223
189.3871, 72.31848
189.8692, 72.05981
190.3513, 71.79583
190.8334, 71.74040
191.3155, 71.91969
191.7977, 72.26569
192.2798, 72.83128
192.7619, 73.61769
193.2440, 74.09376
193.7261, 73.52675
194.2082, 72.09516
194.6904, 72.11211
195.1725, 74.07153
195.6546, 76.77989
196.1367, 77.82693
196.6188, 77.11071
197.1009, 76.25233
197.5831, 76.21752
198.0652, 77.00030
198.5473, 77.39551
199.0294, 77.23495
199.5115, 76.80113
199.9937, 76.63354
200.4758, 76.73825
200.9579, 77.05490
201.4400, 77.65886
201.9221, 78.58802
202.4042, 79.20911
202.8864, 79.34978
203.3685, 79.29961
203.8506, 79.93041
204.3327, 81.48809
204.8148, 82.70957
205.2969, 82.64141
205.7791, 81.00999
206.2612, 80.08253
206.7433, 80.03159
207.2254, 80.71751
207.7075, 82.04615
208.1896, 84.41183
208.6718, 86.28589
209.1539, 86.45798
209.6360, 84.33305
210.1181, 83.66795
210.6002, 85.20699
211.0823, 88.02439
211.5645, 89.37427
212.0466, 88.71215
212.5287, 87.88905
213.0108, 88.00710
213.4929, 89.42029
213.9750, 90.36582
214.4572, 90.62332
214.9393, 90.40531
215.4214, 90.34145
215.9035, 90.48658
216.3856, 90.67301
216.8678, 90.78600
217.3499, 90.75890
217.8320, 90.88723
218.3141, 91.24661
218.7962, 91.74732
219.2783, 92.13084
219.7605, 92.43186
220.2426, 92.54137
220.7247, 92.34111
221.2068, 91.65140
221.6889, 91.15478
222.1710, 90.86302
222.6532, 90.78841
223.1353, 91.04114
223.6174, 91.88319
224.0995, 92.62291
224.5816, 92.90158
225.0637, 92.58366
225.5459, 92.11988
226.0280, 91.33263
226.5101, 90.44941
226.9922, 90.24170
227.4743, 91.05227
227.9564, 91.99276
228.4386, 92.68517
228.9207, 93.16225
229.4028, 93.27797
229.8849, 92.97949
230.3670, 92.33364
230.8492, 91.41875
231.3313, 89.80205
231.8134, 88.58133
232.2955, 88.41145
232.7776, 90.17327
233.2597, 90.88150
233.7419, 89.99548
234.2240, 88.19248
234.7061, 87.29572
235.1882, 87.74633
235.6703, 88.42966
236.1524, 88.89604
236.6346, 89.08018
237.1167, 89.19298
237.5988, 89.24307
238.0809, 89.22110
238.5630, 89.12463
239.0451, 89.06501
239.5273, 88.75656
240.0094, 87.93989
240.4915, 86.04121
240.9736, 85.17868
241.4557, 85.78780
241.9378, 87.22800
242.4200, 88.19804
242.9021, 88.64346
243.3842, 88.70923
243.8663, 88.32254
244.3484, 87.11118
244.8306, 86.61242
245.3127, 87.21990
245.7948, 88.33463
246.2769, 88.83809
246.7590, 88.47233
247.2411, 87.92617
247.7233, 87.39160
248.2054, 86.82409
248.6875, 86.44734
249.1696, 86.34138
249.6517, 86.37672
250.1338, 86.29105
250.6160, 85.80623
251.0981, 85.71623
251.5802, 86.44930
252.0623, 88.31789
252.5444, 89.35536
253.0265, 89.12350
253.5087, 88.41410
253.9908, 88.41420
254.4729, 89.56046
254.9550, 90.52493
255.4371, 90.86458
255.9192, 90.47261
256.4014, 90.27330
256.8835, 90.17029
257.3656, 90.35662
257.8477, 91.16849
258.3298, 92.98283
258.8120, 94.57864
259.2941, 95.61801
259.7762, 96.06796
260.2583, 96.56214
260.7404, 97.11761
261.2225, 97.69894
261.7047, 98.33422
262.1868, 99.15587
262.6689, 99.64868
263.1510, 99.50323
263.6331, 98.75502
264.1152, 98.85345
264.5974, 100.1909
265.0795, 101.7689
265.5616, 102.6412
266.0437, 102.7486
266.5258, 102.3694
267.0079, 101.4028
267.4901, 99.93462
267.9722, 98.85329
268.4543, 98.32368
268.9364, 97.83379
269.4185, 96.85559
269.9006, 95.18388
270.3828, 93.92434
270.8649, 93.25375
271.3470, 93.11401
271.8291, 93.35316
272.3112, 94.19437
272.7933, 94.82839
273.2755, 94.49648
273.7576, 93.00588
274.2397, 91.94700
274.7218, 91.73061
275.2039, 91.93947
275.6860, 91.14027
276.1682, 89.05041
276.6503, 86.98840
277.1324, 85.80122
277.6145, 85.55225
278.0966, 85.49723
278.5787, 85.64082
279.0609, 85.88047
279.5430, 86.02757
280.0251, 86.09541
280.5072, 85.99764
280.9893, 85.73115
281.4715, 85.29911
281.9536, 84.43015
282.4357, 82.96858
282.9178, 81.34531
283.3999, 80.28248
283.8820, 79.79369
284.3642, 79.58640
284.8463, 79.60890
285.3284, 79.83837
285.8105, 80.03523
286.2926, 80.20476
286.7747, 80.31480
287.2569, 80.32387
287.7390, 80.23153
288.2211, 80.05937
288.7032, 79.95290
289.1853, 79.79389
289.6674, 78.89478
290.1496, 77.15258
290.6317, 75.32741
291.1138, 74.37124
291.5959, 74.16273
292.0780, 73.88651
292.5602, 73.27563
293.0423, 72.41389
293.5244, 71.50646
294.0065, 70.55960
294.4886, 69.52560
294.9707, 68.39828
295.4529, 67.14533
295.9350, 65.61759
296.4171, 63.49481
296.8992, 61.32300
297.3813, 60.24833
297.8634, 60.19572
298.3456, 60.28317
298.8277, 59.77087
299.3098, 58.91048
299.7919, 58.35466
300.2740, 58.49320
300.7561, 58.53510
301.2383, 56.98170
301.7204, 54.20602
302.2025, 52.01410
302.6846, 52.11813
303.1667, 53.34565
303.6488, 53.91610
304.1310, 53.46258
304.6131, 52.61868
305.0952, 51.87372
305.5773, 51.22259
306.0594, 50.65403
306.5415, 50.10553
307.0237, 49.65971
307.5058, 49.40649
307.9879, 49.36557
308.4700, 49.45451
308.9521, 49.82994
309.4343, 50.27030
309.9164, 50.39776
310.3985, 49.83421
310.8806, 49.04175
311.3627, 48.24217
311.8448, 47.43647
312.3270, 46.96469
312.8091, 47.15293
313.2912, 47.74815
313.7733, 48.45154
314.2554, 49.47316
314.7375, 50.30396
315.2197, 50.63209
315.7018, 50.49668
316.1839, 50.21065
316.6660, 49.76097
317.1481, 49.29966
317.6302, 48.95403
318.1124, 48.75351
318.5945, 48.66885
319.0766, 48.94954
319.5587, 49.39972
320.0408, 49.34997
320.5229, 47.68903
321.0051, 46.10197
321.4872, 45.59418
321.9693, 46.92011
322.4514, 48.20810
322.9335, 49.33899
323.4156, 50.16254
323.8978, 50.38879
324.3799, 49.25371
324.8620, 48.13480
325.3441, 47.58800
325.8262, 47.91610
326.3083, 47.99800
326.7905, 47.32350
327.2726, 46.49402
327.7547, 46.25660
328.2368, 47.41229
328.7189, 48.34895
329.2010, 48.69111
329.6832, 48.37317
330.1653, 48.17321
330.6474, 48.28791
331.1295, 48.37917
331.6116, 48.13084
332.0938, 47.03152
332.5759, 46.42079
333.0580, 46.65355
333.5401, 47.59426
334.0222, 48.19897
334.5043, 48.30215
334.9865, 48.30504
335.4686, 48.40776
335.9507, 48.53518
336.4328, 49.02961
336.9149, 50.16484
337.3970, 51.56325
337.8792, 52.07668
338.3613, 51.38827
338.8434, 50.73359
339.3255, 50.67689
339.8076, 51.28801
340.2898, 52.07257
340.7719, 53.21663
341.2540, 54.23006
341.7361, 54.14565
342.2182, 52.80880
342.7003, 51.89043
343.1825, 52.25367
343.6646, 53.62002
344.1467, 54.01722
344.6288, 53.32997
345.1109, 52.27444
345.5930, 51.69390
346.0752, 51.50500
346.5573, 50.71190
347.0394, 48.71592
347.5215, 46.27318
348.0036, 45.25311
348.4857, 45.62816
348.9679, 46.03258
349.4500, 45.27753
349.9321, 43.73898
350.4142, 42.54259
350.8963, 41.92633
351.3784, 41.52045
351.8606, 40.70805
352.3427, 39.65817
352.8248, 38.98339
353.3069, 39.60281
353.7890, 40.58971
354.2711, 40.53032
354.7533, 39.21940
355.2354, 37.77881
355.7175, 37.14271
356.1996, 37.04658
356.6817, 37.02915
357.1638, 37.02413
357.6460, 36.93204
358.1281, 36.59749
358.6102, 36.04612
359.0923, 35.57853
359.5744, 35.34860
360.0565, 35.29721
360.5387, 35.37895
361.0208, 35.73330
361.5029, 36.02879
361.9850, 36.12775
362.4671, 36.05296
362.9492, 35.86959
363.4314, 35.56439
363.9135, 35.18324
364.3956, 34.68803
364.8777, 33.87007
365.3598, 33.42956
365.8419, 34.01078
366.3241, 34.94836
366.8062, 35.23954
367.2883, 33.94226
367.7704, 32.75945
368.2526, 32.11642
368.7347, 32.06490
369.2168, 32.34361
369.6989, 33.45883
370.1810, 34.58244
370.6631, 35.01365
371.1453, 34.08168
371.6274, 33.45885
372.1095, 33.44248
372.5916, 33.93139
373.0737, 34.25296
373.5558, 34.36736
374.0380, 34.37797
374.5201, 34.33381
375.0022, 34.22582
375.4843, 34.09309
375.9664, 33.93164
376.4485, 33.75060
376.9307, 33.60571
377.4128, 33.54995
377.8949, 33.29564
378.3770, 32.51206
378.8591, 31.26270
379.3412, 30.97272
379.8234, 31.84070
380.3055, 32.97620
380.7876, 33.30952
381.2697, 32.89019
381.7518, 32.55791
382.2339, 32.59447
382.7161, 32.81191
383.1982, 32.69713
383.6803, 32.26490
384.1624, 31.91595
384.6445, 32.06120
385.1266, 32.51669
385.6088, 32.87597
386.0909, 33.12873
386.5730, 33.11560
387.0551, 32.37029
387.5372, 31.15948
388.0193, 30.23519
388.5015, 30.13484
388.9836, 30.45363
389.4657, 30.82460
389.9478, 31.23076
390.4299, 31.59073
390.9120, 32.00533
391.3942, 32.29415
391.8763, 32.22091
392.3584, 31.13893
392.8405, 30.21757
393.3226, 30.13853
393.8047, 30.76619
394.2869, 31.48021
394.7690, 32.39464
395.2511, 33.07851
395.7332, 33.20446
396.2154, 32.39644
396.6975, 31.71485
397.1796, 31.58043
397.6617, 31.67563
398.1438, 31.45840
398.6259, 30.19359
399.1081, 29.25227
399.5902, 29.08628
400.0723, 29.80309
400.5544, 30.57178
401.0365, 31.75043
401.5186, 32.71501
402.0008, 32.87017
402.4829, 31.54359
402.9650, 30.70506
403.4471, 30.76357
403.9292, 31.47100
404.4113, 31.75488
404.8935, 31.46280
405.3756, 31.10401
405.8577, 30.96062
406.3398, 31.07530
406.8219, 31.10016
407.3040, 31.02942
407.7862, 30.87380
408.2683, 30.57665
408.7504, 30.12912
409.2325, 29.83535
409.7146, 29.76072
410.1967, 29.92723
410.6789, 30.65169
411.1610, 31.96911
411.6431, 32.95825
412.1252, 32.48183
412.6073, 31.01713
413.0894, 29.92842
413.5716, 29.55526
414.0537, 29.52563
414.5358, 29.50799
415.0179, 29.48626
415.5000, 29.40744
415.9821, 29.18055
416.4643, 28.91559
416.9464, 28.71012
417.4285, 28.57097
417.9106, 28.51731
418.3927, 28.50519
418.8748, 28.60355
419.3570, 28.89385
419.8391, 29.72436
420.3212, 30.44389
420.8033, 30.80010
421.2854, 30.81953
421.7675, 30.64507
422.2497, 30.00009
422.7318, 29.41226
423.2139, 29.22582
423.6960, 29.80878
424.1781, 30.06943
424.6602, 29.51238
425.1424, 28.66792
425.6245, 28.32701
426.1066, 28.97909
426.5887, 29.52203
427.0709, 29.69245
427.5530, 29.49052
428.0351, 29.35085
428.5172, 29.29871
428.9993, 29.27153
429.4814, 29.24288
429.9636, 29.24077
430.4457, 29.09655
430.9278, 28.70655
431.4099, 28.25580
431.8920, 28.24188
432.3741, 28.73768
432.8563, 29.09712
433.3384, 28.85158
433.8205, 28.14618
434.3026, 28.13710
434.7847, 28.91786
435.2668, 29.64723
435.7490, 29.19086
436.2311, 27.90612
436.7132, 27.10667
437.1953, 27.27502
437.6774, 27.88935
438.1595, 28.36413
438.6417, 28.70276
439.1238, 28.91890
439.6059, 28.97636
440.0880, 28.93858
440.5701, 28.82648
441.0522, 28.61669
441.5344, 28.51911
442.0165, 28.81927
442.4986, 29.25768
442.9807, 29.51471
443.4628, 29.48592
443.9449, 29.25527
444.4271, 28.65117
444.9092, 27.78405
445.3913, 27.26547
445.8734, 27.40463
446.3555, 27.81835
446.8376, 28.37507
447.3198, 29.35645
447.8019, 29.89151
448.2840, 29.79292
448.7661, 29.31304
449.2482, 28.76952
449.7303, 28.03992
450.2125, 27.46051
450.6946, 27.08790
451.1767, 26.92106
451.6588, 26.97867
452.1409, 27.32682
452.6230, 27.74676
453.1052, 28.11239
453.5873, 28.43246
454.0694, 28.61398
454.5515, 28.63528
455.0337, 28.54624
455.5158, 28.42709
455.9979, 28.27470
456.4800, 28.05460
456.9621, 27.61871
457.4442, 27.14179
457.9264, 27.08313
458.4085, 27.43050
458.8906, 27.87750
459.3727, 28.10819
459.8548, 28.28967
460.3369, 28.80352
460.8191, 30.03226
461.3012, 30.90455
461.7833, 30.19253
462.2654, 28.50042
462.7475, 27.08869
463.2296, 26.41701
463.7118, 26.23185
464.1939, 26.60719
464.6760, 27.55631
465.1581, 28.20179
465.6402, 27.89520
466.1223, 27.40679
466.6045, 27.28170
467.0866, 28.12963
467.5687, 28.67628
468.0508, 28.63836
468.5329, 28.27693
469.0150, 28.18866
469.4972, 28.62462
469.9793, 28.95085
470.4614, 28.91806
470.9435, 28.49965
471.4256, 28.24955
471.9077, 28.16212
472.3899, 28.25472
472.8720, 28.70991
473.3541, 29.60820
473.8362, 29.85465
474.3183, 29.09143
474.8004, 27.93741
475.2826, 27.71181
475.7647, 28.35024
476.2468, 28.94049
476.7289, 29.05456
477.2110, 28.78398
477.6931, 28.15833
478.1753, 27.18010
478.6574, 26.42418
479.1395, 26.63647
479.6216, 27.29770
480.1037, 27.58560
480.5858, 27.01994
481.0680, 26.54491
481.5501, 27.09081
482.0322, 28.19381
482.5143, 28.88136
482.9964, 28.57389
483.4786, 27.93749
483.9607, 27.06080
484.4428, 25.91119
484.9249, 25.37507
485.4070, 26.32640
485.8892, 27.51645
486.3713, 28.04403
486.8534, 27.14556
487.3355, 26.69981
487.8176, 27.00641
488.2997, 27.70536
488.7819, 28.02595
489.2640, 27.83654
489.7461, 27.55725
490.2282, 27.27981
490.7103, 27.01001
491.1924, 26.96881
491.6746, 27.24039
492.1567, 27.39272
492.6388, 26.76331
493.1209, 25.50301
493.6030, 25.11071
494.0851, 25.95490
494.5673, 27.23216
495.0494, 27.84679
495.5315, 27.91486
496.0136, 27.83380
496.4957, 27.72647
496.9778, 27.60692
497.4600, 27.51445
497.9421, 27.43959
498.4242, 27.28995
498.9063, 26.77158
499.3884, 26.28865
499.8705, 26.27623
500.3527, 27.12459
500.8348, 27.68134
501.3169, 27.24401
501.7990, 26.34429
502.2811, 25.72714
502.7632, 25.71019
503.2454, 25.79567
503.7275, 25.95768
504.2096, 26.17358
504.6917, 26.16822
505.1738, 25.66108
505.6559, 25.31287
506.1381, 25.58044
506.6202, 26.74263
507.1023, 27.34703
507.5844, 27.25750
508.0665, 26.85720
508.5486, 26.61491
509.0308, 26.53169
509.5129, 26.57064
509.9950, 26.80887
510.4771, 27.07541
510.9592, 26.95027
511.4413, 26.46510
511.9235, 25.93010
512.4056, 25.27834
512.8877, 24.79944
513.3698, 25.14757
513.8519, 26.43663
514.3340, 27.50748
514.8162, 27.12217
515.2983, 26.17498
515.7804, 25.76265
516.2625, 26.79287
516.7446, 27.67330
517.2267, 27.55452
517.7089, 26.80445
518.1910, 26.32528
518.6731, 26.65450
519.1552, 26.96147
519.6373, 26.79660
520.1194, 26.04677
520.6016, 26.02500
521.0837, 27.37088
521.5658, 28.73085
522.0479, 29.01709
522.5300, 27.82097
523.0121, 27.05421
523.4943, 26.93854
523.9764, 27.17893
524.4585, 27.39255
524.9406, 27.58537
525.4227, 27.30909
525.9048, 25.99770
526.3870, 24.30664
526.8691, 24.06300
527.3513, 25.18339
527.8334, 26.39793
528.3155, 26.88579
528.7976, 26.87115
529.2797, 26.59290
529.7618, 26.02517
530.2440, 25.54589
530.7261, 25.43991
531.2082, 25.57783
531.6903, 25.79565
532.1724, 26.30980
532.6545, 26.61184
533.1367, 26.27019
533.6188, 25.53503
534.1009, 25.28756
534.5830, 26.39502
535.0651, 27.29472
535.5472, 27.30886
536.0294, 26.21891
536.5115, 25.90677
536.9936, 26.85976
537.4757, 27.91003
537.9578, 27.97823
538.4399, 26.86518
538.9221, 26.03054
539.4042, 25.62426
539.8863, 25.53820
540.3684, 25.68889
540.8505, 26.04933
541.3326, 26.29187
541.8148, 26.21262
542.2969, 25.97604
542.7790, 25.91634
543.2611, 26.00260
543.7432, 25.98818
544.2253, 25.47951
544.7075, 24.90576
545.1896, 24.74205
545.6717, 25.10410
546.1538, 25.58288
546.6359, 26.12028
547.1180, 26.61140
547.6002, 26.93719
548.0823, 27.22651
548.5644, 27.16857
549.0465, 26.47498
549.5286, 25.38110
550.0107, 24.54580
550.4929, 23.87749
550.9750, 23.62071
551.4571, 24.00041
551.9392, 25.02319
552.4213, 25.63721
552.9034, 25.81732
553.3856, 25.68451
553.8677, 25.12894
554.3498, 24.21851
554.8319, 23.84814
555.3140, 24.18937
555.7961, 24.77669
556.2783, 25.12316
556.7604, 25.23353
557.2425, 25.08906
557.7246, 24.42103
558.2067, 23.76908
558.6888, 23.77753
559.1710, 24.27499
559.6531, 24.68283
560.1352, 24.57897
560.6173, 24.40978
561.0994, 24.47002
561.5815, 24.82047
562.0637, 25.07522
562.5458, 25.04105
563.0279, 24.96101
563.5100, 25.03226
563.9921, 25.56771
564.4742, 25.66902
564.9564, 25.09952
565.4385, 24.25823
565.9206, 23.80087
566.4027, 23.75957
566.8848, 23.98795
567.3669, 24.56456
567.8491, 25.31913
568.3312, 25.73256
568.8133, 25.80653
569.2954, 25.57778
569.7775, 24.63813
570.2596, 23.53308
570.7418, 23.54105
571.2239, 24.77549
571.7060, 25.79902
572.1881, 24.92058
572.6702, 23.50279
573.1523, 23.15512
573.6345, 25.06475
574.1166, 26.66199
574.5987, 26.77913
575.0808, 26.00161
575.5629, 25.29760
576.0450, 24.86197
576.5272, 24.47784
577.0093, 24.04107
577.4914, 23.59988
577.9735, 23.51911
578.4556, 23.99059
578.9377, 24.42855
579.4199, 24.53997
579.9020, 24.31844
580.3841, 24.00532
580.8662, 23.56993
581.3483, 23.21138
581.8304, 23.25186
582.3126, 23.55573
582.7947, 23.57965
583.2768, 23.10632
583.7589, 22.68741
584.2410, 23.07826
584.7231, 23.94147
585.2053, 24.60929
585.6874, 24.72216
586.1696, 24.63566
586.6517, 24.46079
587.1338, 24.22460
587.6159, 24.03634
588.0980, 23.88480
588.5801, 23.82171
589.0623, 23.92523
589.5444, 24.24844
590.0265, 24.36677
590.5086, 24.20988
590.9907, 23.93863
591.4728, 23.61433
591.9550, 23.18798
592.4371, 23.05573
592.9192, 23.27490
593.4013, 23.72930
593.8834, 24.56301
594.3655, 25.62236
594.8477, 25.84350
595.3298, 24.44126
595.8119, 22.59874
596.2940, 21.91924
596.7761, 22.17065
597.2582, 22.55157
597.7404, 22.61818
598.2225, 22.67969
598.7046, 23.02015
599.1867, 23.64759
599.6688, 24.13230
600.1509, 24.31930
600.6331, 24.34700
601.1152, 24.29116
601.5973, 24.15160
602.0794, 23.92943
602.5615, 23.51815
603.0436, 23.12830
603.5258, 23.03304
604.0079, 23.29169
604.4900, 23.55283
604.9721, 23.81760
605.4542, 23.97182
605.9363, 23.57014
606.4185, 22.70975
606.9006, 22.23981
607.3827, 22.98723
607.8648, 24.08078
608.3469, 24.01250
608.8290, 23.00169
609.3112, 22.28536
609.7933, 22.97796
610.2754, 23.97392
610.7575, 24.43096
611.2396, 24.18948
611.7217, 23.87040
612.2039, 23.49368
612.6860, 23.19892
613.1681, 23.11603
613.6502, 23.67289
614.1323, 23.64126
614.6144, 22.57050
615.0966, 21.29373
615.5787, 21.13996
616.0608, 22.32144
616.5429, 23.26634
617.0250, 23.53981
617.5071, 23.44349
617.9893, 23.73256
618.4714, 24.33852
618.9535, 24.71752
619.4356, 24.48255
619.9177, 23.92358
620.3998, 23.16155
620.8820, 22.28144
621.3641, 21.96218
621.8462, 23.34368
622.3283, 24.90688
622.8104, 25.42796
623.2925, 24.45691
623.7747, 23.68201
624.2568, 23.55553
624.7389, 23.65357
625.2210, 23.63025
625.7031, 23.37285
626.1852, 23.25724
626.6674, 23.37170
627.1495, 23.55852
627.6316, 23.52378
628.1137, 23.25595
628.5958, 23.04323
629.0779, 22.94610
629.5601, 22.97776
630.0422, 23.22365
630.5243, 23.64350
631.0064, 24.05659
631.4885, 24.55959
631.9706, 24.87527
632.4528, 24.66936
632.9349, 23.96976
633.4170, 23.17206
633.8991, 22.06544
634.3812, 21.20566
634.8633, 21.00102
635.3455, 21.77609
