##NAMES=Fettelite
##RRUFFID=R100083
##IDEAL CHEMISTRY=Ag_16_HgAs_4_S_15_
##LOCALITY=Chanarcillo, Chile
##OWNER=RRUFF
##SOURCE=William W Pinch
##DESCRIPTION=Red platy crystals on acanthite. Cell parameters match those reported by Bindi et al (2009), indicating a fettelite polytype.
##STATUS=The identification of this mineral is confirmed by single-crystal X-ray diffraction and chemical analysis.
##URL=rruff.info/R100083
##MEASURED CHEMISTRY=Ag_15.66_Hg_1.21_Fe_0.02_Cu_0.004_Sb_0.17_As_3.61_S_15_
91.53320, 89.68636
92.01532, 87.06567
92.49744, 86.03077
92.97955, 89.44338
93.46167, 93.86948
93.94379, 94.49247
94.42590, 90.74234
94.90802, 85.44357
95.39014, 81.29444
95.87225, 78.35510
96.35437, 76.09693
96.83649, 74.20268
97.31860, 72.79903
97.80072, 72.12939
98.28284, 72.32533
98.76495, 73.14780
99.24707, 73.90910
99.72919, 75.41438
100.2113, 75.97363
100.6934, 74.90568
101.1755, 72.58737
101.6577, 69.71801
102.1398, 66.68784
102.6219, 63.10833
103.1040, 61.48769
103.5861, 62.72403
104.0682, 64.57327
104.5504, 66.04562
105.0325, 66.89911
105.5146, 67.26965
105.9967, 67.30927
106.4788, 67.01134
106.9609, 66.29818
107.4431, 64.82922
107.9252, 63.02268
108.4073, 61.37619
108.8894, 59.98421
109.3715, 58.97557
109.8536, 58.68742
110.3358, 59.26839
110.8179, 59.74929
111.3000, 59.49667
111.7821, 58.58710
112.2642, 57.76571
112.7463, 57.34494
113.2285, 57.13839
113.7106, 57.00039
114.1927, 56.94973
114.6748, 56.84977
115.1569, 56.50209
115.6390, 55.83829
116.1212, 55.07529
116.6033, 54.14044
117.0854, 53.19904
117.5675, 52.40149
118.0496, 51.81149
118.5317, 51.42805
119.0139, 51.25340
119.4960, 51.37327
119.9781, 51.64745
120.4602, 52.40753
120.9423, 53.29698
121.4244, 53.63332
121.9066, 52.77930
122.3887, 50.56511
122.8708, 49.62831
123.3529, 50.52728
123.8350, 51.85798
124.3171, 53.28367
124.7993, 54.64844
125.2814, 55.62467
125.7635, 55.87568
126.2456, 55.23860
126.7277, 54.26008
127.2098, 52.38085
127.6920, 50.41599
128.1741, 49.32256
128.6562, 49.38933
129.1383, 49.86343
129.6204, 49.90892
130.1025, 49.58712
130.5847, 49.00606
131.0668, 47.93974
131.5489, 46.58797
132.0310, 45.67802
132.5131, 45.55010
132.9952, 45.73206
133.4774, 46.00155
133.9595, 46.33644
134.4416, 46.22189
134.9237, 44.69970
135.4058, 41.37028
135.8879, 39.39638
136.3701, 41.01664
136.8522, 43.15104
137.3343, 43.97036
137.8164, 43.04010
138.2985, 41.33918
138.7806, 40.66298
139.2628, 42.20628
139.7449, 42.53296
140.2270, 40.25515
140.7091, 37.31768
141.1912, 35.46977
141.6733, 35.50628
142.1555, 36.95528
142.6376, 38.21515
143.1197, 39.20573
143.6018, 40.07624
144.0839, 41.15636
144.5660, 42.08962
145.0482, 42.14899
145.5303, 40.76149
146.0124, 38.26008
146.4945, 37.15671
146.9766, 38.13396
147.4587, 39.48292
147.9409, 40.98131
148.4230, 42.42725
148.9051, 42.94463
149.3872, 41.42928
149.8693, 38.38393
150.3514, 36.86600
150.8336, 38.20292
151.3157, 40.30023
151.7978, 41.27002
152.2799, 40.96734
152.7620, 40.33647
153.2441, 40.04445
153.7263, 39.91854
154.2084, 39.65509
154.6905, 39.05098
155.1726, 38.25903
155.6547, 37.58477
156.1368, 36.98481
156.6190, 36.61694
157.1011, 36.63114
157.5832, 36.89861
158.0653, 37.18435
158.5474, 37.44183
159.0295, 37.64425
159.5117, 37.40025
159.9938, 35.91429
160.4759, 34.76619
160.9580, 34.82059
161.4401, 35.74668
161.9222, 36.60695
162.4044, 36.38753
162.8865, 34.71301
163.3686, 34.20902
163.8507, 36.05341
164.3328, 37.96424
164.8149, 39.10519
165.2971, 39.35538
165.7792, 38.89373
166.2613, 37.79655
166.7434, 35.44905
167.2255, 34.40687
167.7076, 35.87105
168.1898, 37.62580
168.6719, 37.87755
169.1540, 36.34529
169.6361, 34.34946
170.1182, 33.82491
170.6003, 35.69853
171.0825, 36.71996
171.5646, 36.01347
172.0467, 34.66835
172.5288, 33.91973
173.0109, 34.13604
173.4930, 34.87791
173.9752, 35.53819
174.4573, 36.14423
174.9394, 36.61294
175.4215, 36.90853
175.9036, 37.05125
176.3857, 37.02906
176.8679, 36.71473
177.3500, 36.43585
177.8321, 36.67456
178.3142, 37.47074
178.7963, 38.25478
179.2784, 38.85218
179.7606, 39.22974
180.2427, 39.00667
180.7248, 37.49905
181.2069, 35.84894
181.6890, 35.11554
182.1711, 35.39809
182.6533, 35.98167
183.1354, 36.11712
183.6175, 35.70907
184.0996, 35.61040
184.5817, 36.40685
185.0638, 37.34377
185.5460, 38.06770
186.0281, 38.49162
186.5102, 38.59927
186.9923, 38.21406
187.4744, 36.92204
187.9565, 36.27291
188.4387, 37.10236
188.9208, 38.16603
189.4029, 38.49918
189.8850, 37.82772
190.3671, 36.67788
190.8492, 36.08532
191.3314, 36.71582
191.8135, 36.81694
192.2956, 35.83369
192.7777, 34.56531
193.2598, 33.62401
193.7419, 33.26452
194.2241, 33.45770
194.7062, 34.13453
195.1883, 36.17196
195.6704, 37.69407
196.1525, 38.36354
196.6346, 38.58937
197.1168, 38.86586
197.5989, 39.41291
198.0810, 40.07119
198.5631, 40.36721
199.0452, 40.31492
199.5273, 39.92559
200.0095, 38.76544
200.4916, 37.32404
200.9737, 36.45852
201.4558, 36.61938
201.9379, 37.44599
202.4200, 37.87103
202.9022, 37.53443
203.3843, 37.48320
203.8664, 38.42219
204.3485, 39.98128
204.8306, 41.15549
205.3127, 41.53822
205.7949, 41.21406
206.2770, 40.42251
206.7591, 38.91204
207.2412, 37.50727
207.7233, 36.73515
208.2054, 36.51513
208.6876, 36.34028
209.1697, 35.83913
209.6518, 35.44498
210.1339, 35.82955
210.6160, 37.26720
211.0981, 38.76043
211.5803, 39.51875
212.0624, 39.54110
212.5445, 39.26621
213.0266, 38.35453
213.5087, 37.53136
213.9908, 37.67492
214.4730, 39.07291
214.9551, 40.55739
215.4372, 40.52940
215.9193, 38.62791
216.4014, 37.46752
216.8836, 38.89482
217.3657, 40.73168
217.8478, 41.43849
218.3299, 40.62926
218.8120, 39.25124
219.2941, 38.50349
219.7763, 38.42829
220.2584, 38.88430
220.7405, 40.84101
221.2226, 42.68270
221.7047, 43.11369
222.1868, 41.81813
222.6690, 39.70564
223.1511, 38.17200
223.6332, 37.36881
224.1153, 36.83535
224.5974, 36.34897
225.0795, 36.16457
225.5617, 36.63258
226.0438, 37.80018
226.5259, 39.22291
227.0080, 40.16001
227.4901, 40.56627
227.9722, 40.46904
228.4544, 39.24898
228.9365, 37.97902
229.4186, 37.76926
229.9007, 38.83104
230.3828, 40.21234
230.8649, 40.11716
231.3471, 36.21674
231.8292, 34.70046
232.3113, 37.29194
232.7934, 41.03573
233.2755, 43.87716
233.7576, 45.13860
234.2398, 44.93907
234.7219, 43.32112
235.2040, 38.31321
235.6861, 35.53273
236.1682, 36.49554
236.6503, 38.80285
237.1325, 40.31532
237.6146, 40.46507
238.0967, 40.10093
238.5788, 40.53864
239.0609, 42.47176
239.5430, 43.54707
240.0252, 42.94053
240.5073, 41.80487
240.9894, 41.33069
241.4715, 41.79809
241.9536, 42.60633
242.4357, 42.96115
242.9179, 42.74912
243.4000, 42.56417
243.8821, 42.52390
244.3642, 42.50696
244.8463, 42.39433
245.3284, 42.16271
245.8106, 41.82350
246.2927, 41.35545
246.7748, 40.75335
247.2569, 40.16906
247.7390, 39.30981
248.2211, 38.61316
248.7033, 38.83775
249.1854, 40.21015
249.6675, 41.61207
250.1496, 41.75616
250.6317, 40.83477
251.1138, 40.04903
251.5960, 39.38733
252.0781, 39.09704
252.5602, 39.83723
253.0423, 41.88937
253.5244, 43.66894
254.0065, 43.20607
254.4887, 41.27540
254.9708, 39.99266
255.4529, 40.31268
255.9350, 41.40291
256.4171, 42.09821
256.8992, 42.28412
257.3813, 42.44645
257.8635, 43.20873
258.3456, 44.16852
258.8277, 44.56861
259.3098, 43.68977
259.7919, 42.43182
260.2740, 42.14839
260.7562, 43.00967
261.2383, 44.10897
261.7204, 45.60386
262.2025, 46.86296
262.6846, 46.81656
263.1667, 44.42413
263.6489, 41.49180
264.1310, 40.90015
264.6131, 43.26189
265.0952, 45.29676
265.5773, 45.27816
266.0594, 44.27949
266.5416, 43.10600
267.0237, 41.85947
267.5058, 40.80425
267.9879, 40.33206
268.4700, 40.53028
268.9521, 40.91917
269.4343, 41.88092
269.9164, 42.68355
270.3985, 42.50997
270.8806, 41.08320
271.3627, 39.48012
271.8448, 39.25976
272.3270, 40.79264
272.8091, 41.76551
273.2912, 40.58694
273.7733, 39.33276
274.2554, 39.58764
274.7375, 41.56660
275.2197, 43.74131
275.7018, 44.30390
276.1839, 42.99649
276.6660, 41.74496
277.1481, 40.53973
277.6302, 39.66973
278.1124, 39.53176
278.5945, 40.04342
279.0766, 40.56993
279.5587, 40.17416
280.0408, 38.61916
280.5229, 38.28626
281.0051, 40.93091
281.4872, 43.44558
281.9693, 44.53456
282.4514, 44.30312
282.9335, 43.51616
283.4156, 42.67937
283.8978, 41.78586
284.3799, 41.17237
284.8620, 41.20447
285.3441, 41.16052
285.8262, 40.55976
286.3083, 39.68042
286.7905, 39.15497
287.2726, 39.52079
287.7547, 40.66528
288.2368, 41.50676
288.7189, 41.94634
289.2010, 42.15552
289.6832, 42.03532
290.1653, 41.75447
290.6474, 41.55223
291.1295, 41.57113
291.6116, 41.76251
292.0938, 41.95434
292.5759, 42.34672
293.0580, 42.41818
293.5401, 42.01680
294.0222, 41.29834
294.5043, 40.23366
294.9865, 38.77505
295.4686, 37.41923
295.9507, 37.54082
296.4328, 40.48754
296.9149, 42.50759
297.3970, 42.91125
297.8792, 42.47723
298.3613, 41.66656
298.8434, 40.67419
299.3255, 39.76733
299.8076, 39.44781
300.2897, 40.06239
300.7719, 40.49141
301.2540, 40.69265
301.7361, 40.71769
302.2182, 40.50722
302.7003, 40.09949
303.1824, 39.69884
303.6646, 39.64749
304.1467, 40.21598
304.6288, 40.12542
305.1109, 38.56794
305.5930, 37.09397
306.0751, 36.56159
306.5573, 36.84563
307.0394, 37.20892
307.5215, 36.92170
308.0036, 35.90346
308.4857, 35.40655
308.9678, 36.48478
309.4500, 37.05750
309.9321, 35.92013
310.4142, 33.81427
310.8963, 32.36656
311.3784, 32.80529
311.8605, 34.79029
312.3427, 35.61002
312.8248, 33.81982
313.3069, 32.50085
313.7890, 32.31680
314.2711, 32.88668
314.7532, 33.88573
315.2354, 35.19641
315.7175, 36.42700
316.1996, 36.31568
316.6817, 33.44747
317.1638, 31.46771
317.6459, 30.91946
318.1281, 31.24224
318.6102, 32.23392
319.0923, 33.74842
319.5744, 35.21835
320.0565, 35.50845
320.5386, 33.59102
321.0208, 32.90741
321.5029, 35.08342
321.9850, 37.22050
322.4671, 37.18719
322.9492, 34.94859
323.4313, 32.24968
323.9135, 30.97639
324.3956, 31.37920
324.8777, 31.98636
325.3598, 33.76337
325.8419, 34.85209
326.3240, 33.83996
326.8062, 31.41182
327.2883, 29.47827
327.7704, 29.63541
328.2525, 31.74409
328.7346, 33.29533
329.2167, 33.87339
329.6989, 34.32113
330.1810, 34.75204
330.6631, 35.20856
331.1452, 35.84356
331.6273, 36.81223
332.1094, 37.77186
332.5916, 37.45942
333.0737, 34.36561
333.5558, 32.63949
334.0379, 33.86987
334.5200, 36.11284
335.0021, 37.59838
335.4843, 37.75287
335.9664, 37.15655
336.4485, 36.66203
336.9306, 36.23352
337.4127, 36.01927
337.8948, 36.47020
338.3770, 36.79879
338.8591, 36.24003
339.3412, 34.89447
339.8233, 33.75529
340.3055, 34.01596
340.7876, 35.85929
341.2697, 37.24632
341.7518, 38.06548
342.2339, 38.46884
342.7160, 38.36553
343.1982, 37.89000
343.6803, 37.35283
344.1624, 37.04525
344.6445, 36.83227
345.1266, 35.83583
345.6087, 32.80702
346.0909, 31.12364
346.5730, 32.34154
347.0551, 35.14399
347.5372, 38.08728
348.0193, 40.76416
348.5014, 42.79966
348.9836, 43.30736
349.4657, 41.77459
349.9478, 40.42571
350.4299, 40.00276
350.9120, 39.88121
351.3941, 39.52752
351.8763, 38.85542
352.3584, 38.40965
352.8405, 38.58966
353.3226, 39.38604
353.8047, 41.36438
354.2868, 46.55195
354.7690, 50.85101
355.2511, 50.96229
355.7332, 47.70652
356.2153, 44.74975
356.6974, 45.04308
357.1795, 47.64224
357.6617, 48.59146
358.1438, 46.83429
358.6259, 45.55051
359.1080, 47.26238
359.5901, 50.46763
360.0722, 52.77515
360.5544, 53.11062
361.0365, 52.43995
361.5186, 51.90959
362.0007, 51.47474
362.4828, 51.58943
362.9649, 52.78356
363.4471, 54.46029
363.9292, 56.08910
364.4113, 57.72486
364.8934, 58.82508
365.3755, 58.52540
365.8576, 57.14558
366.3398, 56.47152
366.8219, 57.03058
367.3040, 58.26791
367.7861, 59.53565
368.2682, 60.84881
368.7503, 62.58043
369.2325, 65.74728
369.7146, 69.18360
370.1967, 70.50065
370.6788, 69.18273
371.1609, 67.71433
371.6430, 67.98026
372.1252, 69.65467
372.6073, 71.61707
373.0894, 74.71993
373.5715, 77.26983
374.0536, 77.35512
374.5357, 75.38719
375.0179, 73.95226
375.5000, 74.66820
375.9821, 76.34742
376.4642, 76.03342
376.9463, 72.81250
377.4284, 70.00191
377.9106, 69.61746
378.3927, 70.27471
378.8748, 69.34692
379.3569, 66.01461
379.8390, 61.97210
380.3211, 59.42883
380.8033, 58.71989
381.2854, 57.62321
381.7675, 55.88378
382.2496, 53.78637
382.7317, 51.42961
383.2138, 48.87272
383.6960, 46.29273
384.1781, 43.74240
384.6602, 41.26669
385.1423, 39.35320
385.6244, 38.25122
386.1065, 37.31085
386.5887, 36.45732
387.0708, 35.60358
387.5529, 34.55867
388.0350, 33.22512
388.5171, 31.80683
388.9992, 30.74986
389.4814, 30.34000
389.9635, 29.88658
390.4456, 29.14759
390.9277, 28.52381
391.4098, 28.62045
391.8919, 29.35498
392.3741, 29.81289
392.8562, 28.91258
393.3383, 26.35037
393.8204, 24.75104
394.3025, 24.37714
394.7846, 24.61059
395.2668, 25.94293
395.7489, 27.65956
396.2310, 28.45712
396.7131, 27.50462
397.1952, 25.35829
397.6773, 23.92521
398.1595, 23.34830
398.6416, 23.32654
399.1237, 24.40958
399.6058, 25.59879
400.0879, 26.03743
400.5700, 25.53505
401.0522, 24.51939
401.5343, 23.19970
402.0164, 21.33175
402.4985, 20.69993
402.9806, 22.61374
403.4627, 24.65008
403.9449, 26.21584
404.4270, 27.08560
404.9091, 26.81410
405.3912, 24.60378
405.8733, 21.30957
406.3554, 19.71146
406.8376, 20.30814
407.3197, 21.35216
407.8018, 22.97873
408.2839, 24.31325
408.7660, 24.05801
409.2481, 21.62117
409.7303, 19.13735
410.2124, 19.09336
410.6945, 21.30945
411.1766, 22.90950
411.6587, 22.98810
412.1408, 22.65357
412.6230, 23.16692
413.1051, 24.36742
413.5872, 25.00423
414.0693, 23.96875
414.5514, 22.26348
415.0335, 21.63834
415.5157, 22.28600
415.9978, 22.95066
416.4799, 22.88791
416.9620, 22.19213
417.4441, 21.25347
417.9262, 19.61014
418.4084, 18.35694
418.8905, 18.46285
419.3726, 19.45427
419.8547, 19.98813
420.3368, 19.48434
420.8189, 18.77216
421.3011, 19.39882
421.7832, 21.89414
422.2653, 23.39540
422.7474, 22.93253
423.2295, 21.80155
423.7116, 20.94095
424.1938, 20.48991
424.6759, 20.42534
425.1580, 20.84894
425.6401, 21.69300
426.1222, 21.67682
426.6043, 19.52542
427.0865, 18.13001
427.5686, 18.77025
428.0507, 20.41930
428.5328, 21.63569
429.0149, 21.86929
429.4970, 21.56971
429.9792, 21.56501
430.4613, 22.26972
430.9434, 22.33193
431.4255, 21.36918
431.9076, 20.22169
432.3897, 19.04393
432.8719, 18.06277
433.3540, 17.79564
433.8361, 18.84698
434.3182, 20.92524
434.8003, 21.87756
435.2824, 21.05966
435.7646, 20.03246
436.2467, 18.92991
436.7288, 17.96711
437.2109, 17.37841
437.6930, 17.23709
438.1751, 17.42060
438.6573, 17.82670
439.1394, 18.46801
439.6215, 19.19308
440.1036, 20.26881
440.5857, 21.08680
441.0678, 21.21916
441.5500, 20.77184
442.0321, 20.16417
442.5142, 19.33136
442.9963, 18.57905
443.4784, 18.65977
443.9605, 19.71334
444.4427, 20.48018
444.9248, 19.98186
445.4069, 18.98585
445.8890, 19.02942
446.3711, 20.79609
446.8532, 21.86330
447.3354, 19.91404
447.8175, 16.41154
448.2996, 14.69033
448.7817, 15.61687
449.2638, 17.58130
449.7459, 19.06858
450.2281, 20.04425
450.7102, 20.55520
451.1923, 20.08414
451.6744, 19.60856
452.1565, 19.85844
452.6386, 20.63908
453.1208, 21.31086
453.6029, 21.55114
454.0850, 21.44328
454.5671, 21.21266
455.0492, 20.53394
455.5313, 20.18886
456.0135, 20.68720
456.4956, 21.18630
456.9777, 20.71868
457.4598, 19.35781
457.9419, 18.25098
458.4240, 18.65774
458.9062, 20.61524
459.3883, 21.32169
459.8704, 19.25983
460.3525, 17.60837
460.8346, 17.23492
461.3167, 17.59208
461.7989, 17.98123
462.2810, 18.13836
462.7631, 18.21271
463.2452, 18.42251
463.7273, 18.77559
464.2094, 19.22589
464.6916, 19.93808
465.1737, 20.58115
465.6558, 20.91230
466.1379, 20.99607
466.6200, 21.11207
467.1021, 21.76493
467.5843, 22.38964
468.0664, 21.53205
468.5485, 18.92571
469.0306, 16.73306
469.5127, 15.89371
469.9948, 16.10617
470.4770, 16.94820
470.9591, 18.62985
471.4412, 20.09409
471.9233, 20.93743
472.4054, 21.17839
472.8875, 20.59270
473.3697, 19.08365
473.8518, 17.64074
474.3339, 17.14689
474.8160, 17.63783
475.2981, 18.31633
475.7802, 19.37652
476.2624, 20.41159
476.7445, 21.46310
477.2266, 22.32974
477.7087, 22.55158
478.1908, 21.94023
478.6729, 20.91057
479.1551, 20.18090
479.6372, 19.70316
480.1193, 19.69067
480.6014, 20.73083
481.0835, 21.64730
481.5656, 21.76856
482.0478, 21.19012
482.5299, 20.30071
483.0120, 19.30942
483.4941, 18.29377
483.9762, 17.51091
484.4583, 16.68743
484.9405, 16.70182
485.4226, 19.03675
485.9047, 21.32290
486.3868, 21.25886
486.8689, 18.74670
487.3510, 16.18835
487.8332, 15.70031
488.3153, 16.91979
488.7974, 18.25553
489.2795, 19.99450
489.7616, 20.99152
490.2437, 19.70214
490.7259, 17.40347
491.2080, 16.04701
491.6901, 16.23584
492.1722, 16.91953
492.6543, 17.40170
493.1364, 17.78134
493.6186, 18.43576
494.1007, 19.54826
494.5828, 20.60926
495.0649, 21.09422
495.5470, 20.96236
496.0291, 20.29358
496.5113, 18.15833
496.9934, 16.34960
497.4755, 16.18936
497.9576, 17.19536
498.4397, 18.12057
498.9218, 18.36136
499.4040, 18.20722
499.8861, 18.30484
500.3682, 18.89784
500.8503, 19.29331
501.3324, 19.42521
501.8145, 19.44262
502.2967, 19.35030
502.7788, 19.21705
503.2609, 19.18239
503.7430, 19.33530
504.2251, 19.67095
504.7072, 20.27511
505.1894, 21.54107
505.6715, 22.16385
506.1536, 21.01702
506.6357, 19.63435
507.1178, 19.45423
507.5999, 20.58084
508.0821, 21.51118
508.5642, 20.73077
509.0463, 18.90820
509.5284, 18.19805
510.0105, 18.99414
510.4926, 19.67341
510.9748, 18.93299
511.4569, 17.44905
511.9390, 16.89453
512.4211, 17.99484
512.9032, 18.85998
513.3853, 18.23040
513.8674, 16.83720
514.3495, 15.90810
514.8317, 15.71150
515.3138, 15.94146
515.7959, 16.34330
516.2780, 16.93961
516.7601, 17.36996
517.2422, 17.45143
517.7244, 17.60171
518.2065, 18.33761
518.6886, 19.10573
519.1707, 18.83317
519.6528, 17.21212
520.1349, 15.39903
520.6171, 15.43857
521.0992, 18.13807
521.5813, 19.38769
522.0634, 17.48387
522.5455, 15.77084
523.0276, 15.70402
523.5098, 16.66277
523.9919, 17.32346
524.4740, 16.98858
524.9561, 16.44539
525.4382, 17.10433
525.9203, 18.99447
526.4025, 20.16845
526.8846, 20.00210
527.3667, 19.18890
527.8488, 17.88246
528.3309, 16.29096
528.8130, 15.95405
529.2952, 18.90535
529.7773, 22.09091
530.2594, 22.18343
530.7415, 19.80596
531.2236, 18.13097
531.7057, 18.68673
532.1879, 20.30546
532.6700, 20.69611
533.1521, 18.96872
533.6342, 18.03367
534.1163, 18.51545
534.5984, 19.31650
535.0806, 19.70405
535.5627, 19.77473
536.0448, 20.12063
536.5269, 21.17288
537.0090, 22.46773
537.4911, 22.45907
537.9733, 20.29592
538.4554, 18.69970
538.9375, 18.11403
539.4196, 18.05349
539.9017, 18.48774
540.3839, 19.24672
540.8660, 19.81683
541.3481, 19.77701
541.8302, 19.37842
542.3123, 19.31208
542.7944, 19.67410
543.2766, 19.44708
543.7587, 17.61352
544.2408, 15.51186
544.7229, 15.28418
545.2050, 17.18246
545.6871, 18.59269
546.1693, 18.10391
546.6514, 17.00248
547.1335, 16.73378
547.6156, 17.29691
548.0977, 17.91487
548.5798, 18.14957
549.0620, 18.04347
549.5441, 17.74014
550.0262, 16.57928
550.5083, 16.13032
550.9904, 17.18262
551.4725, 18.35612
551.9547, 18.46569
552.4368, 17.64078
552.9189, 16.85891
553.4010, 16.87355
553.8831, 17.46798
554.3652, 17.82606
554.8474, 18.02628
555.3295, 17.78626
555.8116, 15.91508
556.2937, 14.35826
556.7758, 15.06018
557.2579, 17.91412
557.7401, 20.32593
558.2222, 20.32536
558.7043, 19.08418
559.1864, 18.77328
559.6685, 19.45542
560.1506, 19.67937
560.6328, 18.44808
561.1149, 16.61002
561.5970, 16.21666
562.0791, 17.87133
562.5612, 18.75537
563.0433, 17.46403
563.5255, 15.86472
564.0076, 15.68370
564.4897, 16.75513
564.9718, 17.76974
565.4539, 17.87894
565.9360, 17.36257
566.4182, 17.16720
566.9003, 17.48970
567.3824, 17.76703
567.8645, 17.80097
568.3466, 17.91652
568.8287, 18.66446
569.3109, 19.74689
569.7930, 20.05722
570.2751, 18.50475
570.7572, 16.17578
571.2393, 15.49392
571.7214, 16.58579
572.2036, 17.83840
572.6857, 19.06795
573.1678, 19.87567
573.6499, 19.66925
574.1320, 18.48325
574.6141, 17.32184
575.0963, 16.38451
575.5784, 15.64325
576.0605, 14.76434
576.5426, 14.01576
577.0247, 14.58186
577.5068, 17.15910
577.9890, 20.28572
578.4711, 21.09661
578.9532, 18.18891
579.4353, 16.51314
579.9174, 16.64521
580.3995, 17.26297
580.8817, 18.13572
581.3638, 18.95130
581.8459, 19.18041
582.3280, 18.52853
582.8101, 17.55493
583.2922, 17.22178
583.7744, 17.58539
584.2565, 17.73820
584.7386, 17.30635
585.2207, 17.01500
585.7029, 17.76557
