##NAMES=Fettelite
##RRUFFID=R110042
##IDEAL CHEMISTRY=Ag_16_HgAs_4_S_15_
##LOCALITY=Nieder-Beerbach mine near Darmstadt, Odenwald, Germany
##OWNER=RRUFF
##SOURCE=Institute of Mineralogy, University of Heidelberg
##DESCRIPTION=Red hexagonal plates, type-sample. New data are reported in Bindi et al (2012)
##STATUS=The identification of this mineral is confirmed by single-crystal X-ray diffraction and chemical analysis.
##URL=rruff.info/R110042
##MEASURED CHEMISTRY=Ag_16.08_Cu_0.13_Fe_0.01_Hg_0.71_As_3.80_S_15.28_
178.2374, 218.4010
178.7195, 219.9854
179.2017, 221.2473
179.6838, 222.3129
180.1659, 223.4216
180.6480, 224.6159
181.1301, 225.5665
181.6122, 225.8389
182.0944, 225.5923
182.5765, 225.3282
183.0586, 225.0928
183.5407, 225.0141
184.0228, 225.5004
184.5049, 226.6330
184.9871, 227.8307
185.4692, 228.3728
185.9513, 228.3442
186.4334, 228.1671
186.9155, 227.5847
187.3976, 226.9482
187.8798, 227.7048
188.3619, 230.1326
188.8440, 233.0046
189.3261, 234.7130
189.8082, 235.3165
190.2903, 235.2830
190.7725, 234.5355
191.2546, 233.2308
191.7367, 232.2679
192.2188, 231.6140
192.7009, 231.4536
193.1830, 232.6817
193.6652, 235.3112
194.1473, 237.0740
194.6294, 235.8806
195.1115, 232.0718
195.5936, 230.2336
196.0757, 230.9718
196.5579, 233.1485
197.0400, 234.7632
197.5221, 235.7987
198.0042, 236.5009
198.4863, 237.0410
198.9684, 237.4210
199.4506, 237.3155
199.9327, 236.5140
200.4148, 235.4628
200.8969, 235.2406
201.3790, 235.9832
201.8611, 236.8127
202.3433, 237.2371
202.8254, 237.2346
203.3075, 237.1238
203.7896, 236.9313
204.2717, 236.6434
204.7538, 236.0603
205.2360, 234.9820
205.7181, 234.3201
206.2002, 234.8357
206.6823, 236.7755
207.1644, 238.2280
207.6465, 238.9460
208.1287, 239.1290
208.6108, 239.3255
209.0929, 239.4654
209.5750, 239.8027
210.0571, 240.5789
210.5392, 241.9379
211.0214, 243.1286
211.5035, 244.2672
211.9856, 245.1443
212.4677, 244.9414
212.9498, 243.3578
213.4319, 241.3862
213.9140, 239.5266
214.3962, 237.7117
214.8783, 236.2182
215.3604, 234.9535
215.8425, 234.0454
216.3246, 234.2104
216.8067, 235.9302
217.2889, 237.7896
217.7710, 238.9261
218.2531, 239.1425
218.7352, 239.1842
219.2173, 238.9758
219.6994, 238.6323
220.1816, 238.8035
220.6637, 239.8610
221.1458, 240.7847
221.6279, 240.7906
222.1100, 239.2962
222.5921, 238.4472
223.0743, 238.6059
223.5564, 239.5475
224.0385, 240.2074
224.5206, 240.3914
225.0027, 240.5878
225.4848, 241.1517
225.9670, 242.3577
226.4491, 243.3173
226.9312, 244.2051
227.4133, 244.8317
227.8954, 244.0391
228.3775, 240.7240
228.8597, 237.6253
229.3418, 236.5600
229.8239, 238.4957
230.3060, 240.2411
230.7881, 241.6954
231.2702, 242.7931
231.7524, 243.1113
232.2345, 242.3246
232.7166, 241.2100
233.1987, 240.1404
233.6808, 238.8660
234.1629, 238.1754
234.6451, 238.1493
235.1272, 238.7390
235.6093, 239.9071
236.0914, 242.5406
236.5735, 244.5403
237.0556, 244.4700
237.5378, 240.7038
238.0199, 238.5098
238.5020, 238.8735
238.9841, 241.0352
239.4662, 241.8156
239.9483, 240.3530
240.4305, 238.7055
240.9126, 237.9844
241.3947, 238.6740
241.8768, 239.2575
242.3589, 239.7749
242.8410, 240.1399
243.3232, 239.9670
243.8053, 238.8276
244.2874, 237.7372
244.7695, 237.3195
245.2516, 238.2239
245.7337, 238.2613
246.2159, 236.8441
246.6980, 234.5715
247.1801, 233.4354
247.6622, 233.8840
248.1443, 234.7622
248.6264, 235.6613
249.1086, 237.0282
249.5907, 237.2549
250.0728, 235.6239
250.5549, 233.0351
251.0370, 232.0226
251.5191, 233.5578
252.0013, 235.1364
252.4834, 235.5449
252.9655, 234.0276
253.4476, 233.3771
253.9297, 234.0246
254.4118, 235.3501
254.8940, 235.9823
255.3761, 235.7473
255.8582, 235.1214
256.3403, 234.2058
256.8224, 232.8047
257.3046, 231.7717
257.7867, 231.2242
258.2688, 230.9703
258.7509, 230.6164
259.2330, 230.0163
259.7151, 229.6169
260.1973, 229.7126
260.6794, 230.5391
261.1615, 230.7202
261.6436, 229.9105
262.1257, 228.7562
262.6078, 228.3476
263.0900, 228.8335
263.5721, 229.7557
264.0542, 231.2796
264.5363, 233.7501
265.0184, 234.4620
265.5005, 232.7570
265.9827, 230.1007
266.4648, 228.5442
266.9469, 228.3158
267.4290, 228.5945
267.9111, 229.4243
268.3932, 230.8994
268.8754, 231.0420
269.3575, 229.2886
269.8396, 227.0625
270.3217, 226.3717
270.8038, 227.6880
271.2859, 228.6775
271.7681, 228.5673
272.2502, 227.4033
272.7323, 226.6608
273.2144, 226.5349
273.6965, 226.4566
274.1786, 225.4383
274.6608, 223.0412
275.1429, 222.1602
275.6250, 224.1079
276.1071, 228.3403
276.5892, 230.7733
277.0714, 231.1536
277.5535, 230.3452
278.0356, 228.7529
278.5177, 226.2361
278.9998, 224.4331
279.4819, 223.8986
279.9641, 224.2820
280.4462, 224.0331
280.9283, 223.0291
281.4104, 221.9115
281.8925, 221.2206
282.3746, 220.9637
282.8568, 220.7202
283.3389, 220.5568
283.8210, 220.2676
284.3031, 218.9856
284.7852, 216.5628
285.2673, 214.4136
285.7495, 213.8279
286.2316, 214.6622
286.7137, 214.8891
287.1958, 214.0274
287.6779, 212.7769
288.1600, 212.7534
288.6422, 213.9764
289.1243, 215.1669
289.6064, 215.3829
290.0885, 214.8131
290.5706, 214.4831
291.0527, 214.5800
291.5349, 214.6954
292.0170, 213.8913
292.4991, 212.2805
292.9812, 211.0847
293.4633, 211.4333
293.9454, 212.7675
294.4276, 213.2300
294.9097, 212.6117
295.3918, 211.5996
295.8739, 210.9452
296.3560, 210.6209
296.8381, 210.4641
297.3203, 210.7073
297.8024, 211.0154
298.2845, 210.5446
298.7666, 209.2118
299.2487, 207.7691
299.7308, 206.8821
300.2130, 206.4720
300.6951, 206.3246
301.1772, 206.4116
301.6593, 206.6797
302.1414, 207.1611
302.6235, 207.8435
303.1057, 208.4120
303.5878, 208.9699
304.0699, 209.1906
304.5520, 208.3739
305.0341, 205.3765
305.5162, 202.1033
305.9984, 200.5531
306.4805, 200.5910
306.9626, 201.1943
307.4447, 201.8151
307.9268, 202.5456
308.4089, 203.6468
308.8911, 205.8604
309.3732, 207.4195
309.8553, 206.0973
310.3374, 202.7202
310.8195, 200.0522
311.3016, 200.2537
311.7838, 201.5876
312.2659, 202.5579
312.7480, 202.8593
313.2301, 202.7967
313.7122, 202.0724
314.1943, 201.1111
314.6765, 200.8262
315.1586, 202.6755
315.6407, 204.5932
316.1228, 205.2387
316.6049, 204.2473
317.0870, 202.7906
317.5692, 200.8880
318.0513, 198.9532
318.5334, 197.5783
319.0155, 197.3225
319.4976, 197.3493
319.9797, 197.2006
320.4619, 196.7913
320.9440, 196.8995
321.4261, 198.7225
321.9082, 200.7516
322.3903, 201.5483
322.8724, 199.3587
323.3546, 197.3629
323.8367, 196.6864
324.3188, 197.2760
324.8009, 197.1900
325.2830, 194.8023
325.7651, 192.4574
326.2473, 191.6802
326.7294, 194.8399
327.2115, 197.0061
327.6936, 197.0880
328.1757, 195.5806
328.6578, 194.9652
329.1400, 196.4075
329.6221, 197.8035
330.1042, 198.2251
330.5863, 196.6723
331.0684, 195.8220
331.5505, 196.2027
332.0327, 197.1881
332.5148, 197.3692
332.9969, 196.2794
333.4790, 194.9830
333.9611, 193.7366
334.4432, 192.4375
334.9254, 191.6181
335.4075, 191.5471
335.8896, 191.7275
336.3717, 191.3109
336.8538, 189.7055
337.3359, 188.9935
337.8180, 190.1646
338.3001, 193.1653
338.7823, 194.6049
339.2644, 193.9735
339.7465, 192.7723
340.2286, 192.6025
340.7107, 193.7341
341.1928, 194.2579
341.6750, 193.5630
342.1571, 192.0698
342.6392, 191.5350
343.1213, 192.0956
343.6034, 192.8671
344.0855, 193.3346
344.5677, 193.4932
345.0498, 193.1648
345.5319, 192.1334
346.0140, 190.9296
346.4961, 190.6965
346.9782, 191.3979
347.4604, 192.1372
347.9425, 192.2912
348.4246, 192.0525
348.9067, 192.2614
349.3888, 193.0797
349.8709, 193.7624
350.3531, 193.1685
350.8352, 191.5995
351.3173, 190.1814
351.7994, 189.3573
352.2815, 188.9883
352.7636, 188.8841
353.2458, 189.0423
353.7279, 189.3620
354.2100, 189.9616
354.6921, 190.6326
355.1742, 190.9829
355.6563, 190.5913
356.1385, 190.1539
356.6206, 190.4776
357.1027, 191.4124
357.5848, 192.2027
358.0669, 192.1038
358.5490, 191.7998
359.0312, 192.0530
359.5133, 193.3883
359.9954, 194.4476
360.4775, 193.7681
360.9596, 192.2451
361.4417, 191.7812
361.9239, 194.1639
362.4060, 197.0269
362.8881, 199.2212
363.3702, 200.6472
363.8523, 201.2859
364.3344, 200.2762
364.8166, 198.7744
365.2987, 198.0947
365.7808, 199.6954
366.2629, 201.0147
366.7450, 201.1297
367.2271, 200.0354
367.7093, 199.3840
368.1914, 199.7275
368.6735, 200.3420
369.1556, 200.7623
369.6377, 200.9945
370.1198, 200.9764
370.6020, 200.4753
371.0841, 199.6861
371.5662, 199.3362
372.0483, 199.7243
372.5304, 200.1926
373.0125, 200.5811
373.4947, 201.1825
373.9768, 200.7126
374.4589, 198.4515
374.9410, 195.6900
375.4231, 194.7160
375.9052, 196.2608
376.3874, 197.5430
376.8695, 197.7798
377.3516, 196.9847
377.8337, 195.5625
378.3158, 193.3119
378.7979, 190.9578
379.2801, 189.3831
379.7622, 188.6271
380.2443, 187.4398
380.7264, 185.3032
381.2085, 182.7929
381.6906, 181.5877
382.1728, 181.7101
382.6549, 182.0069
383.1370, 181.6352
383.6191, 180.7692
384.1012, 180.1615
384.5833, 179.9380
385.0655, 179.7727
385.5476, 179.2406
386.0297, 178.3953
386.5118, 177.4654
386.9939, 176.3593
387.4760, 175.3071
387.9582, 174.6438
388.4403, 174.3730
388.9224, 174.3638
389.4045, 174.9128
389.8866, 175.5572
390.3687, 175.6292
390.8509, 174.6910
391.3330, 173.3537
391.8151, 171.6483
392.2972, 169.7807
392.7793, 168.5464
393.2614, 168.8574
393.7436, 169.6222
394.2257, 170.1067
394.7078, 170.1901
395.1899, 169.9512
395.6720, 168.8050
396.1541, 167.4566
396.6363, 167.0411
397.1184, 169.0679
397.6005, 170.9197
398.0826, 171.5896
398.5647, 170.8737
399.0468, 170.3037
399.5290, 170.3302
400.0111, 170.3869
400.4932, 169.9988
400.9753, 168.2569
401.4574, 167.3080
401.9395, 167.6799
402.4217, 169.0637
402.9038, 170.0233
403.3859, 170.5308
403.8680, 170.6572
404.3501, 170.3988
404.8322, 169.6811
405.3144, 168.7361
405.7965, 167.2571
406.2786, 165.9258
406.7607, 166.1597
407.2428, 168.3386
407.7249, 169.9997
408.2071, 170.1980
408.6892, 169.1511
409.1713, 167.9957
409.6534, 166.6241
410.1355, 165.7580
410.6176, 166.7413
411.0998, 169.1068
411.5819, 169.9378
412.0640, 168.2700
412.5461, 165.4898
413.0282, 163.4880
413.5103, 162.2675
413.9925, 161.7744
414.4746, 162.3006
414.9567, 163.4221
415.4388, 164.6065
415.9209, 165.8639
416.4030, 166.7984
416.8852, 166.8421
417.3673, 166.3922
417.8494, 166.0990
418.3315, 166.7242
418.8136, 167.1678
419.2957, 166.4272
419.7779, 164.7127
420.2600, 163.3635
420.7421, 163.7328
421.2242, 164.2566
421.7063, 163.6589
422.1884, 160.7102
422.6706, 158.5263
423.1527, 158.2053
423.6348, 159.1065
424.1169, 160.0093
424.5990, 161.1123
425.0811, 161.8394
425.5633, 161.7278
426.0454, 160.5246
426.5275, 160.3047
427.0096, 161.8611
427.4917, 163.7677
427.9738, 164.8569
428.4560, 164.8323
428.9381, 164.5784
429.4202, 164.0751
429.9023, 163.4338
430.3844, 163.0089
430.8665, 162.8213
431.3487, 162.8009
431.8308, 163.1934
432.3129, 164.0761
432.7950, 163.5167
433.2771, 161.0283
433.7592, 158.3621
434.2414, 158.1671
434.7235, 160.2154
435.2056, 161.7167
435.6877, 161.5711
436.1698, 160.4842
436.6519, 159.8885
437.1341, 159.7681
437.6162, 159.7843
438.0983, 159.5423
438.5804, 159.2989
439.0625, 159.5847
439.5446, 160.6203
440.0268, 161.7398
440.5089, 162.2981
440.9910, 162.5054
441.4731, 162.7832
441.9552, 164.0106
442.4373, 164.8299
442.9195, 164.0504
443.4016, 161.6882
443.8837, 159.5453
444.3658, 158.3470
444.8479, 157.6693
445.3300, 157.1882
445.8122, 156.6516
446.2943, 156.5384
446.7764, 157.3874
447.2585, 158.7321
447.7406, 159.3770
448.2227, 158.2232
448.7049, 157.3810
449.1870, 157.6322
449.6691, 159.2715
450.1512, 160.1978
450.6333, 160.0905
451.1154, 159.6143
451.5976, 159.3894
452.0797, 159.4977
452.5618, 159.5910
453.0439, 159.5847
453.5260, 159.5495
454.0081, 159.8525
454.4903, 160.6047
454.9724, 160.9770
455.4545, 160.2002
455.9366, 158.4978
456.4187, 157.4560
456.9008, 157.1819
457.3830, 157.2838
457.8651, 157.1492
458.3472, 156.9857
458.8293, 157.5680
459.3114, 159.8006
459.7935, 162.2256
460.2757, 162.9839
460.7578, 162.2643
461.2399, 161.0732
461.7220, 159.4953
462.2041, 158.0327
462.6862, 157.2820
463.1684, 157.4758
463.6505, 157.7191
464.1326, 157.6982
464.6147, 157.4198
465.0968, 156.8860
465.5789, 155.5828
466.0611, 154.5650
466.5432, 154.1621
467.0253, 154.3573
467.5074, 154.8081
467.9895, 155.9293
468.4716, 156.9353
468.9538, 157.4075
469.4359, 156.9558
469.9180, 156.8509
470.4001, 157.4222
470.8822, 158.1090
471.3643, 157.9874
471.8465, 156.7387
472.3286, 155.5732
472.8107, 154.6760
473.2928, 154.1096
473.7749, 154.4766
474.2570, 156.0020
474.7392, 157.2597
475.2213, 156.6890
475.7034, 154.6684
476.1855, 153.9866
476.6676, 155.1864
477.1497, 156.9063
477.6319, 157.2015
478.1140, 156.4570
478.5961, 155.9207
479.0782, 156.8272
479.5603, 157.8002
480.0424, 156.5268
480.5246, 153.3687
481.0067, 151.3002
481.4888, 153.5104
481.9709, 156.8996
482.4530, 158.5682
482.9352, 157.2200
483.4173, 155.9774
483.8994, 156.6609
484.3815, 158.0925
484.8636, 158.4722
485.3457, 155.5984
485.8279, 153.4738
486.3100, 153.6546
486.7921, 156.1645
487.2742, 157.5991
487.7563, 157.3127
488.2384, 156.6264
488.7206, 156.2825
489.2027, 156.5009
489.6848, 156.4598
490.1669, 156.0534
490.6490, 155.4922
491.1311, 155.1666
491.6133, 155.1476
492.0954, 154.8549
492.5775, 153.8801
493.0596, 152.5552
493.5417, 152.2880
494.0238, 153.0926
494.5060, 153.9300
494.9881, 153.7211
495.4702, 152.9652
495.9523, 153.1170
496.4344, 154.5745
496.9165, 155.9542
497.3987, 155.4414
497.8808, 153.9011
498.3629, 152.9747
498.8450, 154.0259
499.3271, 155.3365
499.8092, 155.9303
500.2914, 155.8495
500.7735, 155.3275
501.2556, 153.6882
501.7377, 152.2036
502.2198, 151.7517
502.7019, 152.9977
503.1841, 153.7841
503.6662, 153.1406
504.1483, 152.2002
504.6304, 152.3595
505.1125, 154.8712
505.5946, 156.4163
506.0768, 156.1581
506.5589, 154.5060
507.0410, 153.4916
507.5231, 153.1827
508.0052, 153.3128
508.4873, 154.0331
508.9695, 155.3442
509.4516, 155.7061
509.9337, 154.9886
510.4158, 153.8210
510.8979, 152.6864
511.3800, 151.6519
511.8622, 151.1457
512.3443, 151.5551
512.8264, 152.1366
513.3085, 151.5300
513.7906, 150.1401
514.2728, 149.4177
514.7549, 151.0733
515.2370, 153.1699
515.7191, 153.9340
516.2012, 153.1749
516.6833, 152.3152
517.1655, 151.8509
517.6476, 151.6640
518.1297, 151.6602
518.6118, 152.1865
519.0939, 152.4392
519.5760, 152.1757
520.0582, 151.5577
520.5403, 150.9729
521.0224, 150.4377
521.5045, 149.9107
521.9866, 149.2891
522.4688, 148.5720
522.9509, 148.3808
523.4330, 148.8159
523.9151, 149.5314
524.3972, 150.3369
524.8793, 151.2316
525.3615, 152.0484
525.8436, 152.8181
526.3257, 153.3926
526.8078, 153.4516
527.2899, 153.0802
527.7720, 152.6735
528.2542, 152.3545
528.7363, 152.1129
529.2184, 152.0328
529.7005, 152.0620
530.1826, 151.9125
530.6647, 151.1399
531.1469, 150.2769
531.6290, 149.7978
532.1111, 149.8330
532.5932, 149.9590
533.0753, 150.1521
533.5574, 150.2935
534.0396, 150.2570
534.5217, 149.3449
535.0038, 149.0589
535.4859, 150.2647
535.9680, 152.2876
536.4501, 152.9270
536.9323, 151.4690
537.4144, 149.8266
537.8965, 148.5672
538.3786, 147.6864
538.8607, 147.5359
539.3428, 148.3096
539.8250, 149.2139
540.3071, 149.3299
540.7892, 148.7773
541.2713, 148.8368
541.7534, 149.8566
542.2355, 151.1070
542.7177, 151.6289
543.1998, 151.5419
543.6819, 151.2098
544.1640, 150.4947
544.6461, 149.8313
545.1282, 149.7991
545.6104, 150.2791
546.0925, 150.5274
546.5746, 150.0003
547.0567, 149.2233
547.5388, 148.5311
548.0209, 147.9945
548.5031, 147.4702
548.9852, 146.5975
549.4673, 145.8758
549.9494, 145.8586
550.4315, 147.2310
550.9136, 148.2359
551.3958, 148.6025
551.8779, 148.5076
552.3600, 148.4563
552.8421, 148.4525
553.3242, 148.4804
553.8063, 148.6131
554.2885, 148.8009
554.7706, 148.5003
555.2527, 147.6520
555.7348, 146.9455
556.2169, 147.0016
556.6990, 147.6660
557.1812, 148.7940
557.6633, 150.6393
558.1454, 151.8615
558.6275, 150.4443
559.1096, 147.6069
559.5917, 145.4654
560.0739, 145.1018
560.5560, 145.4501
561.0381, 146.4850
561.5202, 147.9342
562.0023, 148.6822
562.4844, 147.3469
562.9666, 146.1924
563.4487, 146.4176
563.9308, 148.4191
564.4129, 149.8557
564.8950, 150.7279
565.3771, 151.0309
565.8593, 150.6283
566.3414, 149.2802
566.8235, 148.2946
567.3056, 147.9341
567.7877, 147.7642
568.2698, 146.7188
568.7520, 144.8755
569.2341, 143.7175
569.7162, 144.1800
570.1983, 145.4168
570.6804, 145.9090
571.1625, 145.7313
571.6447, 145.4143
572.1268, 145.0976
572.6089, 144.9311
573.0910, 145.0299
573.5731, 145.3952
574.0552, 146.1339
574.5374, 147.9475
575.0195, 149.8390
575.5016, 150.8841
575.9837, 150.1819
576.4658, 149.5150
576.9479, 149.1628
577.4301, 148.9137
577.9122, 148.2718
578.3943, 146.7630
578.8764, 145.8189
579.3585, 146.0484
579.8406, 147.2186
580.3228, 147.7060
580.8049, 147.4645
581.2870, 146.8382
581.7691, 145.7325
582.2512, 144.3830
582.7333, 143.8591
583.2155, 144.2914
583.6975, 144.8724
584.1796, 144.8301
584.6617, 144.4301
585.1439, 144.1524
585.6260, 144.3443
586.1081, 144.2999
586.5902, 143.0553
587.0723, 141.3211
587.5544, 140.4833
588.0366, 141.4566
588.5187, 142.8354
589.0008, 144.4821
589.4829, 146.3220
589.9650, 147.3950
590.4471, 147.3475
590.9293, 146.9802
591.4114, 146.6528
591.8935, 146.3855
592.3756, 145.9556
592.8577, 145.3001
593.3398, 144.6472
593.8220, 144.0823
594.3041, 143.6593
594.7862, 143.9780
595.2683, 145.4416
595.7504, 146.9027
596.2325, 146.7430
596.7147, 145.3866
597.1968, 143.9452
597.6789, 142.4992
598.1610, 141.4802
598.6431, 141.2822
599.1252, 141.8171
599.6074, 142.6479
600.0895, 144.5699
600.5716, 145.9482
601.0537, 145.7061
601.5358, 143.2565
602.0179, 141.6453
602.5001, 140.9194
602.9822, 141.0269
603.4643, 142.2158
603.9464, 145.0906
604.4285, 146.5836
604.9106, 146.2029
605.3928, 144.9805
605.8749, 144.3816
606.3570, 144.3773
606.8391, 144.6509
607.3212, 145.2946
607.8033, 145.9209
608.2855, 145.8033
608.7676, 145.1175
609.2497, 144.5099
609.7318, 144.4076
610.2139, 144.4754
610.6960, 144.4682
611.1782, 144.3747
611.6603, 144.2931
612.1424, 144.2036
612.6245, 144.1756
613.1066, 144.2413
613.5887, 144.3633
614.0709, 144.7142
614.5530, 145.5993
615.0351, 146.4467
615.5172, 146.6257
615.9993, 146.0042
616.4814, 145.3107
616.9636, 144.6281
617.4457, 143.9565
617.9278, 143.1965
618.4099, 142.3804
618.8920, 141.8353
619.3741, 141.7520
619.8563, 141.9638
620.3384, 142.4086
620.8205, 143.0004
621.3026, 143.3140
621.7847, 142.6562
622.2668, 141.9471
622.7490, 141.9751
623.2311, 142.8787
623.7132, 143.6739
624.1953, 144.1957
624.6774, 144.4559
625.1595, 144.4552
625.6417, 144.0777
626.1238, 143.6631
626.6059, 143.1292
627.0880, 142.6581
627.5701, 142.5583
628.0522, 142.8799
628.5344, 143.1232
629.0165, 143.2348
629.4986, 143.1359
629.9807, 142.3206
630.4628, 141.0009
630.9449, 140.3352
631.4271, 141.7138
631.9092, 143.4975
632.3913, 143.6174
632.8734, 142.3432
633.3555, 141.4383
633.8376, 142.5581
634.3198, 143.7027
634.8019, 143.4052
635.2840, 141.0812
635.7661, 139.6770
636.2482, 139.9774
636.7303, 140.8696
637.2125, 141.6664
637.6946, 142.4177
638.1767, 142.9229
638.6588, 143.1355
639.1409, 143.1727
639.6230, 143.2636
640.1052, 143.3871
640.5873, 143.1260
641.0694, 142.2335
641.5515, 141.1592
642.0336, 140.4656
642.5157, 140.1474
642.9979, 140.1840
643.4800, 140.6524
643.9621, 141.4024
644.4442, 142.7997
644.9263, 144.5883
645.4084, 145.2959
645.8906, 142.7595
646.3727, 140.5009
646.8548, 140.6365
647.3369, 143.6916
647.8190, 144.9433
648.3011, 143.3644
648.7833, 141.5071
649.2654, 141.5115
649.7475, 143.5982
650.2296, 144.7938
650.7117, 144.8774
651.1938, 144.3023
651.6760, 143.1563
652.1581, 141.7611
652.6402, 141.2864
653.1223, 142.4787
653.6044, 143.7393
654.0865, 143.5109
654.5687, 142.3350
655.0508, 141.2614
655.5329, 140.5308
656.0150, 140.1136
656.4971, 140.0093
656.9792, 140.2148
657.4614, 140.7334
657.9435, 141.9476
658.4256, 142.9363
658.9077, 143.4533
659.3898, 143.4969
659.8719, 142.8111
660.3541, 141.1752
660.8362, 139.8465
661.3183, 140.0015
661.8004, 141.2344
662.2825, 141.9345
662.7646, 141.9991
663.2468, 141.7999
663.7289, 141.3252
664.2110, 140.9177
664.6931, 141.1792
665.1752, 142.6980
665.6573, 143.6755
666.1395, 142.7161
666.6216, 141.0185
667.1037, 140.0572
667.5858, 140.8123
668.0679, 141.3387
668.5500, 141.4079
669.0322, 141.2003
669.5143, 141.0740
669.9964, 141.0130
670.4785, 141.1173
670.9606, 141.4896
671.4427, 141.9969
671.9249, 142.2752
