##NAMES=Fettelite
##RRUFFID=R100083
##IDEAL CHEMISTRY=Ag_16_HgAs_4_S_15_
##LOCALITY=Chanarcillo, Chile
##OWNER=RRUFF
##SOURCE=William W Pinch
##DESCRIPTION=Red platy crystals on acanthite. Cell parameters match those reported by Bindi et al (2009), indicating a fettelite polytype.
##STATUS=The identification of this mineral is confirmed by single-crystal X-ray diffraction and chemical analysis.
##URL=rruff.info/R100083
##MEASURED CHEMISTRY=Ag_15.66_Hg_1.21_Fe_0.02_Cu_0.004_Sb_0.17_As_3.61_S_15_
140.1502, -4.350344
140.6323, -2.940936
141.1144, -0.7520481
141.5966, 1.768050
142.0787, 4.939763
142.5608, 6.895664
143.0429, 7.430928
143.5250, 6.872329
144.0071, 5.710085
144.4893, 3.137257
144.9714, 1.290252
145.4535, 1.345662
145.9356, 4.801146
146.4177, 7.163894
146.8998, 8.159884
147.3820, 8.001123
147.8641, 7.514742
148.3462, 5.873383
148.8283, 4.687348
149.3104, 4.860876
149.7925, 8.083784
150.2747, 10.46336
150.7568, 11.40143
151.2389, 11.03191
151.7210, 10.94782
152.2031, 11.40487
152.6852, 11.99080
153.1674, 12.45505
153.6495, 12.83056
154.1316, 13.03422
154.6137, 12.94549
155.0958, 12.55682
155.5779, 12.35018
156.0601, 12.51096
156.5422, 12.81887
157.0243, 13.08419
157.5064, 13.79408
157.9885, 13.97510
158.4706, 12.84658
158.9528, 10.10614
159.4349, 8.551544
159.9170, 10.10355
160.3991, 12.86522
160.8812, 14.64374
161.3633, 13.25759
161.8455, 11.99740
162.3276, 12.67619
162.8097, 15.95323
163.2918, 18.64957
163.7739, 19.41880
164.2560, 18.77415
164.7382, 17.44944
165.2203, 14.49932
165.7024, 12.06999
166.1845, 11.83571
166.6666, 14.72473
167.1487, 17.32620
167.6309, 17.30886
168.1130, 15.66066
168.5951, 14.46315
169.0772, 15.40650
169.5593, 16.82601
170.0414, 17.16634
170.5236, 15.72144
171.0057, 14.21445
171.4878, 13.87179
171.9699, 14.47093
172.4520, 15.35262
172.9341, 16.53486
173.4163, 17.65495
173.8984, 18.25237
174.3805, 18.09163
174.8626, 17.62240
175.3447, 17.00217
175.8268, 16.32998
176.3090, 16.08510
176.7911, 17.00422
177.2732, 18.48888
177.7553, 19.61043
178.2374, 20.27734
178.7195, 20.33163
179.2017, 19.10123
179.6838, 16.73066
180.1659, 14.71964
180.6480, 14.58249
181.1301, 15.67228
181.6122, 16.44897
182.0944, 16.24489
182.5765, 15.65972
183.0586, 15.81586
183.5407, 16.70059
184.0228, 17.62678
184.5049, 17.97073
184.9871, 17.83869
185.4692, 17.57845
185.9513, 17.17009
186.4334, 16.75304
186.9155, 16.73062
187.3976, 17.13284
187.8798, 17.57919
188.3619, 17.68623
188.8440, 17.48911
189.3261, 17.19586
189.8082, 16.81055
190.2903, 16.38296
190.7725, 16.11819
191.2546, 16.03697
191.7367, 15.99062
192.2188, 15.63936
192.7009, 15.01567
193.1830, 14.83010
193.6652, 15.53024
194.1473, 16.95967
194.6294, 18.16217
195.1115, 19.16438
195.5936, 19.86184
196.0757, 20.01675
196.5579, 19.61404
197.0400, 19.14492
197.5221, 18.84829
198.0042, 18.70191
198.4863, 18.20719
198.9684, 17.19890
199.4506, 16.21415
199.9327, 16.22803
200.4148, 17.35888
200.8969, 18.38255
201.3790, 18.64050
201.8611, 18.08667
202.3433, 18.19553
202.8254, 19.19068
203.3075, 20.49294
203.7896, 21.13843
204.2717, 21.08319
204.7538, 20.63611
205.2360, 19.73565
205.7181, 18.27329
206.2002, 17.42838
206.6823, 17.40418
207.1644, 17.75100
207.6465, 17.49592
208.1287, 16.36996
208.6108, 15.59049
209.0929, 15.86754
209.5750, 17.48610
210.0571, 18.64566
210.5392, 19.33609
211.0214, 19.58494
211.5035, 19.26998
211.9856, 18.07360
212.4677, 17.19728
212.9498, 17.44931
213.4319, 19.35415
213.9140, 20.01526
214.3962, 18.80817
214.8783, 16.73013
215.3604, 16.28472
215.8425, 18.19825
216.3246, 20.09428
216.8067, 20.78980
217.2889, 19.80783
217.7710, 19.27177
218.2531, 19.37349
218.7352, 19.85456
219.2173, 20.12993
219.6994, 20.22716
220.1816, 20.06436
220.6637, 19.54296
221.1458, 18.47004
221.6279, 17.59620
222.1100, 16.97857
222.5921, 16.54393
223.0743, 16.02337
223.5564, 15.17821
224.0385, 14.67423
224.5206, 14.92685
225.0027, 16.36100
225.4848, 17.42789
225.9670, 18.11363
226.4491, 18.41063
226.9312, 18.16542
227.4133, 16.82480
227.8954, 15.84158
228.3775, 16.11920
228.8597, 18.73026
229.3418, 19.84908
229.8239, 18.57231
230.3060, 16.00668
230.7881, 15.41744
231.2702, 18.06910
231.7524, 20.77469
232.2345, 22.06613
232.7166, 21.47092
233.1987, 20.52690
233.6808, 18.75307
234.1629, 16.76539
234.6451, 16.35907
235.1272, 18.62244
235.6093, 20.85161
236.0914, 21.77241
236.5735, 20.59622
237.0556, 19.93931
237.5378, 20.04289
238.0199, 20.59592
238.5020, 20.80311
238.9841, 20.50115
239.4662, 20.09940
239.9483, 19.74418
240.4305, 19.37782
240.9126, 19.20871
241.3947, 19.30712
241.8768, 19.57996
242.3589, 19.83783
242.8410, 20.24228
243.3232, 20.38453
243.8053, 20.01621
244.2874, 18.76192
244.7695, 17.92272
245.2516, 17.67358
245.7337, 17.76441
246.2159, 17.58547
246.6980, 16.78349
247.1801, 16.27045
247.6622, 16.51819
248.1443, 18.03057
248.6264, 18.84070
249.1086, 18.59381
249.5907, 17.82523
250.0728, 17.67432
250.5549, 18.48825
251.0370, 19.33699
251.5191, 19.89819
252.0013, 20.15150
252.4834, 20.14952
252.9655, 19.78990
253.4476, 19.23686
253.9297, 18.77777
254.4118, 18.40174
254.8940, 18.14627
255.3761, 18.01404
255.8582, 17.98648
256.3403, 18.19138
256.8224, 18.77076
257.3046, 19.47395
257.7867, 19.86624
258.2688, 19.86319
258.7509, 19.72560
259.2330, 19.42130
259.7151, 18.81448
260.1973, 18.96432
260.6794, 20.40993
261.1615, 22.08481
261.6436, 22.17149
262.1257, 19.80190
262.6078, 17.98387
263.0900, 17.89557
263.5721, 19.80371
264.0542, 20.74308
264.5363, 20.39416
265.0184, 19.47011
265.5005, 18.84208
265.9827, 18.56878
266.4648, 18.43897
266.9469, 18.42315
267.4290, 18.52333
267.9111, 18.66845
268.3932, 18.97116
268.8754, 19.14081
269.3575, 18.67886
269.8396, 17.26815
270.3217, 16.40865
270.8038, 16.66976
271.2859, 17.97151
271.7681, 18.60971
272.2502, 18.36093
272.7323, 17.91300
273.2144, 18.10767
273.6965, 19.15252
274.1786, 19.69715
274.6608, 19.30929
275.1429, 18.14172
275.6250, 17.28273
276.1071, 16.76800
276.5892, 16.45946
277.0714, 16.30963
277.5535, 16.34707
278.0356, 16.20637
278.5177, 15.58175
278.9998, 14.78516
279.4819, 15.41826
279.9641, 17.84399
280.4462, 20.21133
280.9283, 20.90258
281.4104, 19.85948
281.8925, 18.82515
282.3746, 18.00926
282.8568, 17.41177
283.3389, 17.09964
283.8210, 17.10518
284.3031, 17.14453
284.7852, 16.94424
285.2673, 16.53050
285.7495, 16.36679
286.2316, 16.55047
286.7137, 16.95168
287.1958, 17.34004
287.6779, 17.71648
288.1600, 18.04243
288.6422, 18.27758
289.1243, 18.43402
289.6064, 18.58417
290.0885, 18.73619
290.5706, 18.88401
291.0527, 19.12120
291.5349, 19.42516
292.0170, 19.45771
292.4991, 18.89611
292.9812, 17.88967
293.4633, 16.84130
293.9454, 15.65672
294.4276, 14.88246
294.9097, 15.61200
295.3918, 17.57205
295.8739, 19.31751
296.3560, 20.11306
296.8381, 20.19298
297.3203, 19.97857
297.8024, 19.45340
298.2845, 18.88801
298.7666, 18.54001
299.2487, 18.38297
299.7308, 18.32723
300.2130, 18.46273
300.6951, 18.63028
301.1772, 18.38473
301.6593, 17.72853
302.1414, 17.37463
302.6235, 18.55238
303.1057, 20.46381
303.5878, 21.43943
304.0699, 20.31797
304.5520, 18.48574
305.0341, 17.49362
305.5162, 17.27965
305.9984, 17.29747
306.4805, 17.11892
306.9626, 16.94231
307.4447, 17.10796
307.9268, 18.06677
308.4089, 18.91610
308.8911, 18.59525
309.3732, 17.38000
309.8553, 16.40588
310.3374, 16.69070
310.8195, 17.38424
311.3016, 17.57576
311.7838, 16.82209
312.2659, 16.08354
312.7480, 15.97274
313.2301, 16.36157
313.7122, 16.92466
314.1943, 18.06787
314.6765, 18.97940
315.1586, 18.89581
315.6407, 17.36513
316.1228, 16.06791
316.6049, 15.92827
317.0870, 16.53840
317.5692, 17.22463
318.0513, 18.10436
318.5334, 18.71611
319.0155, 18.62541
319.4976, 17.64676
319.9797, 17.09382
320.4619, 18.08219
320.9440, 19.48633
321.4261, 20.03676
321.9082, 18.36102
322.3903, 16.82748
322.8724, 16.19851
323.3546, 16.51427
323.8367, 16.99505
324.3188, 17.98053
324.8009, 18.81588
325.2830, 18.99314
325.7651, 17.57257
326.2473, 16.47412
326.7294, 16.04627
327.2115, 16.22523
327.6936, 16.48387
328.1757, 16.81169
328.6578, 17.19742
329.1400, 17.63569
329.6221, 18.06281
330.1042, 18.63504
330.5863, 19.72649
331.0684, 20.97614
331.5505, 21.25564
332.0327, 19.61679
332.5148, 18.12696
332.9969, 17.65828
333.4790, 18.70206
333.9611, 19.45281
334.4432, 19.95194
334.9254, 20.13312
335.4075, 19.76903
335.8896, 18.39507
336.3717, 17.42937
336.8538, 17.55256
337.3359, 18.95443
337.8180, 19.22361
338.3001, 17.80976
338.7823, 16.10586
339.2644, 15.87720
339.7465, 17.51336
340.2286, 18.90709
340.7107, 19.52375
341.1928, 19.46710
341.6750, 19.43623
342.1571, 19.47641
342.6392, 19.37549
343.1213, 18.90387
343.6034, 18.06055
344.0855, 17.10761
344.5677, 15.89826
345.0498, 14.80883
345.5319, 14.96665
346.0140, 16.40705
346.4961, 18.08101
346.9782, 19.61876
347.4604, 20.91150
347.9425, 21.17780
348.4246, 20.13493
348.9067, 18.70201
349.3888, 18.32304
349.8709, 18.81027
350.3531, 19.12091
350.8352, 18.33787
351.3173, 17.10877
351.7994, 16.67663
352.2815, 17.10812
352.7636, 18.07443
353.2458, 20.01959
353.7279, 22.26227
354.2100, 23.30367
354.6921, 21.49878
355.1742, 18.95654
355.6563, 18.07937
356.1385, 18.72220
356.6206, 19.31080
357.1027, 18.17771
357.5848, 16.60246
358.0669, 16.15320
358.5490, 17.83636
359.0312, 19.85166
359.5133, 21.43709
359.9954, 22.50554
360.4775, 22.82274
360.9596, 21.52746
361.4417, 19.93108
361.9239, 18.88760
362.4060, 18.57300
362.8881, 18.68963
363.3702, 19.71415
363.8523, 20.98971
364.3344, 21.50935
364.8166, 19.91718
365.2987, 18.47394
365.7808, 18.25184
366.2629, 19.47751
366.7450, 20.33087
367.2271, 19.84801
367.7093, 19.20425
368.1914, 19.43261
368.6735, 22.40891
369.1556, 24.28006
369.6377, 23.76489
370.1198, 21.24302
370.6020, 20.06500
371.0841, 21.10273
371.5662, 22.67655
372.0483, 23.94470
372.5304, 25.13350
373.0125, 25.55466
373.4947, 24.75194
373.9768, 23.32844
374.4589, 22.81926
374.9410, 23.83951
375.4231, 24.49330
375.9052, 23.79002
376.3874, 21.41121
376.8695, 20.35015
377.3516, 21.08384
377.8337, 22.31525
378.3158, 22.21095
378.7979, 20.52173
379.2801, 19.40750
379.7622, 19.67061
380.2443, 20.94213
380.7264, 21.59830
381.2085, 21.59996
381.6906, 21.22477
382.1728, 20.57278
382.6549, 19.69007
383.1370, 18.88930
383.6191, 18.18055
384.1012, 17.63874
384.5833, 17.43313
385.0655, 17.53506
385.5476, 17.71679
386.0297, 18.06390
386.5118, 18.35144
386.9939, 18.04499
387.4760, 17.02238
387.9582, 15.97102
388.4403, 15.55831
388.9224, 15.58872
389.4045, 15.65359
389.8866, 15.38979
390.3687, 15.21920
390.8509, 15.79986
391.3330, 17.02698
391.8151, 17.75748
392.2972, 16.78585
392.7793, 15.22522
393.2614, 14.12079
393.7436, 13.73474
394.2257, 13.87638
394.7078, 15.06115
395.1899, 16.77682
395.6720, 17.67798
396.1541, 16.49076
396.6363, 15.06864
397.1184, 14.25004
397.6005, 14.19283
398.0826, 14.51875
398.5647, 15.84872
399.0468, 17.30205
399.5290, 17.81119
400.0111, 16.31048
400.4932, 14.92368
400.9753, 13.85605
401.4574, 13.10861
401.9395, 13.11145
402.4217, 14.36316
402.9038, 15.83757
403.3859, 16.93325
403.8680, 17.81987
404.3501, 17.82762
404.8322, 16.49011
405.3144, 14.44278
405.7965, 13.44302
406.2786, 13.68771
406.7607, 14.30646
407.2428, 15.19341
407.7249, 16.38724
408.2071, 16.28720
408.6892, 14.54016
409.1713, 12.53884
409.6534, 12.27421
410.1355, 13.65126
410.6176, 14.65999
411.0998, 14.49342
411.5819, 13.72424
412.0640, 13.84216
412.5461, 14.81289
413.0282, 15.78818
413.5103, 15.95156
413.9925, 15.66339
414.4746, 15.77573
414.9567, 16.60204
415.4388, 17.33361
415.9209, 16.99437
416.4030, 15.89442
416.8852, 14.79314
417.3673, 14.02000
417.8494, 13.45266
418.3315, 12.98703
418.8136, 12.62111
419.2957, 12.38228
419.7779, 12.14022
420.2600, 12.09737
420.7421, 12.46125
421.2242, 14.09824
421.7063, 15.30813
422.1884, 15.21740
422.6706, 14.18173
423.1527, 13.54358
423.6348, 14.03727
424.1169, 14.65935
424.5990, 14.98740
425.0811, 14.99072
425.5633, 14.67438
426.0454, 13.51248
426.5275, 12.25618
427.0096, 11.88917
427.4917, 13.05899
427.9738, 14.15144
428.4560, 14.87452
428.9381, 15.23954
429.4202, 15.37834
429.9023, 15.29633
430.3844, 14.97903
430.8665, 14.27396
431.3487, 13.03768
431.8308, 12.30881
432.3129, 12.23105
432.7950, 12.63020
433.2771, 13.30650
433.7592, 14.27348
434.2414, 15.02817
434.7235, 15.36870
435.2056, 15.31011
435.6877, 14.76903
436.1698, 13.70798
436.6519, 12.65734
437.1341, 12.16450
437.6162, 12.10973
438.0983, 12.16070
438.5804, 12.19022
439.0625, 12.34243
439.5446, 13.00932
440.0268, 14.00787
440.5089, 14.66920
440.9910, 14.23034
441.4731, 13.50024
441.9552, 13.23625
442.4373, 13.60723
442.9195, 14.00290
443.4016, 14.21277
443.8837, 14.24051
444.3658, 14.09044
444.8479, 13.22001
445.3300, 12.71960
445.8122, 13.46201
446.2943, 15.19786
446.7764, 15.77516
447.2585, 13.22307
447.7406, 10.70997
448.2227, 9.918023
448.7049, 12.18701
449.1870, 13.61357
449.6691, 13.76388
450.1512, 13.28009
450.6333, 13.16588
451.1154, 13.56168
451.5976, 14.03603
452.0797, 14.54760
452.5618, 15.07688
453.0439, 15.25202
453.5260, 15.00051
454.0081, 14.61342
454.4903, 14.25204
454.9724, 13.92135
455.4545, 13.85307
455.9366, 14.19634
456.4187, 14.56218
456.9008, 13.99421
457.3830, 12.64959
457.8651, 11.79978
458.3472, 12.62949
458.8293, 14.15840
459.3114, 14.49030
459.7935, 13.61781
460.2757, 12.57567
460.7578, 12.06788
461.2399, 11.94864
461.7220, 12.06425
462.2041, 12.58543
462.6862, 12.97057
463.1684, 12.61022
463.6505, 11.83721
464.1326, 11.43093
464.6147, 11.96538
465.0968, 12.72951
465.5789, 13.36526
466.0611, 13.82261
466.5432, 14.32677
467.0253, 15.51212
467.5074, 16.44100
467.9895, 16.31645
468.4716, 13.64534
468.9538, 11.76492
469.4359, 10.99227
469.9180, 11.15263
470.4001, 11.81675
470.8822, 13.38816
471.3643, 14.74365
471.8465, 15.48083
472.3286, 15.59639
472.8107, 14.97634
473.2928, 13.36650
473.7749, 11.66448
474.2570, 10.89116
474.7392, 11.04135
475.2213, 11.56802
475.7034, 12.47523
476.1855, 13.54254
476.6676, 14.39554
477.1497, 15.02827
477.6319, 15.36067
478.1140, 15.20510
478.5961, 14.76785
479.0782, 14.31600
479.5603, 13.85238
480.0424, 13.58811
480.5246, 13.95615
481.0067, 14.56122
481.4888, 14.83779
481.9709, 14.38489
482.4530, 13.81659
482.9352, 13.43779
483.4173, 13.19710
483.8994, 12.93211
484.3815, 12.10340
484.8636, 11.63580
485.3457, 12.29581
485.8279, 14.77096
486.3100, 15.93401
486.7921, 14.10826
487.2742, 11.63250
487.7563, 10.58047
488.2384, 11.93475
488.7206, 13.05216
489.2027, 13.71258
489.6848, 13.91626
490.1669, 13.48449
490.6490, 12.13113
491.1311, 11.02421
491.6133, 10.83812
492.0954, 11.55391
492.5775, 12.10035
493.0596, 12.43556
493.5417, 12.76754
494.0238, 13.50981
494.5060, 14.51032
494.9881, 15.02984
495.4702, 14.82376
495.9523, 14.14107
496.4344, 12.95311
496.9165, 11.48398
497.3987, 10.57858
497.8808, 11.28096
498.3629, 12.41954
498.8450, 12.80861
499.3271, 12.33349
499.8092, 11.82173
500.2914, 11.49875
500.7735, 11.45361
501.2556, 11.77315
501.7377, 13.10794
502.2198, 14.04630
502.7019, 13.99730
503.1841, 13.31568
503.6662, 12.97424
504.1483, 13.32779
504.6304, 13.73538
505.1125, 14.07731
505.5946, 14.37285
506.0768, 14.31944
506.5589, 13.62076
507.0410, 13.01485
507.5231, 13.33986
508.0052, 14.86923
508.4873, 15.38516
508.9695, 14.32034
509.4516, 12.63615
509.9337, 12.31044
510.4158, 13.26403
510.8979, 13.99326
511.3800, 13.54738
511.8622, 12.52233
512.3443, 12.46544
512.8264, 13.31643
513.3085, 13.94402
513.7906, 13.05262
514.2728, 11.58751
514.7549, 10.84046
515.2370, 11.23616
515.7191, 11.81870
516.2012, 12.00518
516.6833, 11.98697
517.1655, 12.06163
517.6476, 12.38740
518.1297, 12.75956
518.6118, 13.27212
519.0939, 13.87110
519.5760, 13.99580
520.0582, 12.86417
520.5403, 11.86033
521.0224, 11.69904
521.5045, 12.96477
521.9866, 13.26626
522.4688, 12.03566
522.9509, 10.46675
523.4330, 10.16868
523.9151, 11.43000
524.3972, 12.32465
524.8793, 12.26618
525.3615, 11.72532
525.8436, 12.06922
526.3257, 13.28589
526.8078, 14.42373
527.2899, 15.05710
527.7720, 15.19977
528.2542, 14.58003
528.7363, 13.15425
529.2184, 12.08321
529.7005, 13.05800
530.1826, 14.77423
530.6647, 15.33220
531.1469, 13.33210
531.6290, 11.52385
532.1111, 11.91234
532.5932, 13.56495
533.0753, 14.57737
533.5574, 13.72562
534.0396, 12.79536
534.5217, 12.36701
535.0038, 12.49060
535.4859, 12.78312
535.9680, 13.23736
536.4501, 13.84842
536.9323, 14.73180
537.4144, 16.34030
537.8965, 16.86911
538.3786, 15.92886
538.8607, 14.38774
539.3428, 13.50554
539.8250, 13.29973
540.3071, 13.47483
540.7892, 14.16991
541.2713, 15.01291
541.7534, 14.86052
542.2355, 13.81078
542.7177, 12.90430
543.1998, 13.22340
543.6819, 13.94327
544.1640, 13.56477
544.6461, 11.91930
545.1282, 10.46885
545.6104, 10.45238
546.0925, 11.12230
546.5746, 11.64309
547.0567, 11.68475
547.5388, 11.68770
548.0209, 11.84164
548.5031, 12.05701
548.9852, 12.14025
549.4673, 11.88694
549.9494, 11.67994
550.4315, 11.54996
550.9136, 11.49794
551.3958, 11.86389
551.8779, 13.01437
552.3600, 13.96627
552.8421, 13.93929
553.3242, 12.78229
553.8063, 12.13182
554.2885, 12.14605
554.7706, 12.42224
555.2527, 12.53730
555.7348, 12.47504
556.2169, 12.02548
556.6990, 10.68801
557.1812, 9.507504
557.6633, 10.53582
558.1454, 13.18435
558.6275, 15.24435
559.1096, 15.00410
559.5917, 13.94890
560.0739, 13.19760
560.5560, 12.83100
561.0381, 12.55809
561.5202, 12.17557
562.0023, 11.89636
562.4844, 11.90541
562.9666, 12.76179
563.4487, 13.07890
563.9308, 12.31427
564.4129, 11.18176
564.8950, 10.81728
565.3771, 11.59846
565.8593, 12.31765
566.3414, 12.75933
566.8235, 12.92549
567.3056, 12.70891
567.7877, 12.03242
568.2698, 11.54623
568.7520, 11.70843
569.2341, 12.38513
569.7162, 13.26028
570.1983, 14.35541
570.6804, 15.03393
571.1625, 14.04133
571.6447, 12.39259
572.1268, 11.85383
572.6089, 13.36446
573.0910, 14.92870
573.5731, 15.30365
574.0552, 14.85365
574.5374, 14.22287
575.0195, 13.40892
575.5016, 12.66068
575.9837, 12.06489
576.4658, 11.62008
576.9479, 11.20071
577.4301, 10.33058
577.9122, 10.05941
578.3943, 11.20822
578.8764, 14.35197
579.3585, 15.37484
579.8406, 13.59656
580.3228, 11.21205
580.8049, 10.69561
581.2870, 11.92412
581.7691, 12.62462
582.2512, 12.29015
582.7333, 11.55626
583.2155, 11.24473
583.6975, 11.31066
584.1796, 11.60302
584.6617, 12.37435
585.1439, 13.10733
585.6260, 13.16295
586.1081, 12.68977
586.5902, 12.44211
587.0723, 13.15625
587.5544, 13.89597
588.0366, 14.09860
588.5187, 13.58353
589.0008, 13.05446
589.4829, 12.42474
589.9650, 11.92768
590.4471, 11.77087
590.9293, 12.16112
591.4114, 12.39026
591.8935, 12.31630
592.3756, 12.16753
592.8577, 12.49103
593.3398, 13.33266
593.8220, 13.81443
594.3041, 13.57186
594.7862, 12.84886
595.2683, 12.05837
595.7504, 11.24183
596.2325, 10.65389
596.7147, 10.50054
597.1968, 10.64117
597.6789, 10.98516
598.1610, 11.52892
598.6431, 12.03017
599.1252, 12.32593
599.6074, 12.53261
600.0895, 12.75153
600.5716, 13.04920
601.0537, 13.27570
601.5358, 13.54205
602.0179, 13.66963
602.5001, 13.36847
602.9822, 12.28319
603.4643, 11.48509
603.9464, 11.16926
604.4285, 11.25256
604.9106, 11.59783
605.3928, 12.26550
605.8749, 12.61152
606.3570, 11.92994
606.8391, 10.70811
607.3212, 10.67004
607.8033, 11.77550
608.2855, 13.10784
608.7676, 14.33900
609.2497, 15.21129
609.7318, 15.22114
610.2139, 14.12001
610.6960, 13.04981
611.1782, 12.59717
611.6603, 12.51934
612.1424, 12.55501
612.6245, 12.80844
613.1066, 12.97804
613.5887, 12.98611
614.0709, 12.89404
614.5530, 12.83921
615.0351, 12.91880
615.5172, 12.79882
615.9993, 12.20911
616.4814, 11.34589
616.9636, 11.48762
617.4457, 12.74203
617.9278, 13.77146
618.4099, 13.39625
618.8920, 12.17010
619.3741, 11.72629
619.8563, 12.13088
620.3384, 12.49703
620.8205, 11.75532
621.3026, 10.70331
621.7847, 10.37995
622.2668, 11.26091
622.7490, 12.16319
623.2311, 12.77876
623.7132, 13.04823
624.1953, 12.89565
624.6774, 11.51251
625.1595, 10.68496
625.6417, 10.69827
626.1238, 11.39230
626.6059, 12.49719
627.0880, 14.41548
627.5701, 15.50200
628.0522, 14.77840
628.5344, 12.75574
629.0165, 12.13074
629.4986, 12.92986
629.9807, 13.96008
630.4628, 14.50778
630.9449, 14.66064
631.4271, 14.47297
631.9092, 13.93299
632.3913, 13.49959
632.8734, 13.91787
633.3555, 14.41071
633.8376, 14.05279
634.3198, 11.86107
