##NAMES=Fibroferrite
##RRUFFID=R061076
##IDEAL CHEMISTRY=Fe^3+^S^6+^O_4_(OH)&#183;5H_2_O
##LOCALITY=Cyprus
##OWNER=RRUFF
##SOURCE=Michael Scott
##DESCRIPTION=Matted aggregates of pale yellow fibers
##STATUS=The identification of this mineral has been confirmed by X-ray diffraction and chemical analysis
##URL=rruff.info/R061076
##MEASURED CHEMISTRY=Fe^3+^_1.00_(S_1.00_O_4_)(OH)Â·5H_2_O
111.9225, 261.6237
112.4046, 220.7373
112.8867, 190.6240
113.3688, 195.1252
113.8509, 242.5522
114.3330, 294.3123
114.8152, 342.2069
115.2973, 388.1301
115.7794, 435.0543
116.2615, 481.6779
116.7436, 531.3596
117.2257, 586.8371
117.7079, 655.0879
118.1900, 717.0758
118.6721, 753.6965
119.1542, 773.9967
119.6363, 806.8468
120.1184, 868.6667
120.6006, 950.2664
121.0827, 1042.487
121.5648, 1155.917
122.0469, 1267.586
122.5290, 1359.133
123.0111, 1431.266
123.4933, 1492.427
123.9754, 1543.985
124.4575, 1589.156
124.9396, 1634.070
125.4217, 1682.912
125.9038, 1731.926
126.3860, 1763.928
126.8681, 1766.211
127.3502, 1753.982
127.8323, 1749.769
128.3144, 1749.774
128.7965, 1738.417
129.2787, 1701.990
129.7608, 1648.996
130.2429, 1599.757
130.7250, 1553.332
131.2071, 1514.362
131.6892, 1496.386
132.1714, 1498.804
132.6535, 1497.821
133.1356, 1469.235
133.6177, 1415.886
134.0998, 1386.332
134.5819, 1392.575
135.0640, 1421.729
135.5462, 1435.423
136.0283, 1431.057
136.5104, 1422.348
136.9925, 1423.448
137.4746, 1437.375
137.9567, 1439.779
138.4389, 1421.992
138.9210, 1385.975
139.4031, 1363.526
139.8852, 1359.317
140.3673, 1360.449
140.8494, 1351.510
141.3316, 1328.851
141.8137, 1306.347
142.2958, 1288.211
142.7779, 1276.190
143.2600, 1260.355
143.7421, 1241.571
144.2243, 1218.950
144.7064, 1190.189
145.1885, 1147.066
145.6706, 1108.677
146.1527, 1081.912
146.6348, 1070.836
147.1170, 1062.944
147.5991, 1060.418
148.0812, 1061.230
148.5633, 1058.343
149.0454, 1037.490
149.5275, 1024.214
150.0097, 1030.272
150.4918, 1087.429
150.9739, 1126.839
151.4560, 1135.294
151.9381, 1117.417
152.4202, 1112.358
152.9024, 1127.920
153.3845, 1153.564
153.8666, 1182.680
154.3487, 1222.176
154.8308, 1256.640
155.3129, 1277.074
155.7950, 1282.824
156.2772, 1302.272
156.7593, 1353.618
157.2414, 1416.152
157.7235, 1470.010
158.2056, 1497.437
158.6877, 1526.353
159.1699, 1566.055
159.6520, 1618.019
160.1341, 1676.212
160.6162, 1742.236
161.0983, 1812.672
161.5804, 1882.875
162.0626, 1943.637
162.5447, 2008.396
163.0268, 2087.596
163.5089, 2189.433
163.9910, 2285.385
164.4731, 2358.526
164.9553, 2415.782
165.4374, 2472.185
165.9195, 2535.483
166.4016, 2600.245
166.8837, 2662.811
167.3658, 2721.854
167.8480, 2779.405
168.3301, 2839.559
168.8122, 2900.240
169.2943, 2953.846
169.7764, 2999.507
170.2585, 3034.380
170.7407, 3055.311
171.2228, 3060.643
171.7049, 3053.104
172.1870, 3032.159
172.6691, 2998.570
173.1512, 2959.849
173.6334, 2924.107
174.1155, 2886.049
174.5976, 2837.135
175.0797, 2770.894
175.5618, 2694.962
176.0439, 2617.135
176.5260, 2537.124
177.0082, 2457.017
177.4903, 2378.126
177.9724, 2299.191
178.4545, 2220.006
178.9366, 2136.905
179.4187, 2052.805
179.9009, 1970.511
180.3830, 1888.076
180.8651, 1817.530
181.3472, 1779.903
181.8293, 1767.748
182.3114, 1750.429
182.7936, 1707.490
183.2757, 1648.882
183.7578, 1596.713
184.2399, 1552.376
184.7220, 1514.460
185.2041, 1482.482
185.6863, 1455.996
186.1684, 1434.158
186.6505, 1415.686
187.1326, 1401.185
187.6147, 1394.260
188.0968, 1397.929
188.5790, 1403.151
189.0611, 1392.000
189.5432, 1364.475
190.0253, 1336.649
190.5074, 1319.872
190.9895, 1312.894
191.4717, 1302.491
191.9538, 1285.335
192.4359, 1265.988
192.9180, 1256.242
193.4001, 1256.952
193.8822, 1258.186
194.3644, 1253.453
194.8465, 1242.844
195.3286, 1227.600
195.8107, 1205.788
196.2928, 1180.650
196.7749, 1161.394
197.2570, 1147.634
197.7392, 1141.517
198.2213, 1148.552
198.7034, 1170.050
199.1855, 1187.222
199.6676, 1197.468
200.1497, 1200.542
200.6319, 1191.876
201.1140, 1167.443
201.5961, 1143.508
202.0782, 1138.864
202.5603, 1157.157
203.0424, 1171.614
203.5246, 1174.541
204.0067, 1167.202
204.4888, 1164.249
204.9709, 1167.030
205.4530, 1171.439
205.9352, 1173.654
206.4173, 1174.047
206.8994, 1170.351
207.3815, 1159.406
207.8636, 1141.098
208.3457, 1134.363
208.8279, 1143.899
209.3100, 1157.928
209.7921, 1160.100
210.2742, 1146.061
210.7563, 1133.517
211.2384, 1127.931
211.7206, 1129.563
212.2027, 1134.338
212.6848, 1143.683
213.1669, 1154.622
213.6490, 1162.467
214.1311, 1166.353
214.6133, 1169.478
215.0954, 1173.336
215.5775, 1178.503
216.0596, 1179.594
216.5417, 1172.266
217.0238, 1164.393
217.5059, 1170.719
217.9881, 1197.478
218.4702, 1225.755
218.9523, 1249.922
219.4344, 1270.677
219.9165, 1283.571
220.3986, 1285.482
220.8808, 1281.532
221.3629, 1281.755
221.8450, 1286.298
222.3271, 1294.815
222.8092, 1306.380
223.2913, 1318.099
223.7735, 1341.975
224.2556, 1384.021
224.7377, 1435.937
225.2198, 1475.649
225.7019, 1496.413
226.1840, 1516.196
226.6662, 1544.996
227.1483, 1593.177
227.6304, 1624.206
228.1125, 1629.216
228.5946, 1619.226
229.0767, 1626.230
229.5589, 1657.824
230.0410, 1695.080
230.5231, 1730.450
231.0052, 1765.847
231.4873, 1793.901
231.9694, 1809.554
232.4516, 1818.657
232.9337, 1842.092
233.4158, 1891.036
233.8979, 1938.548
234.3800, 1969.189
234.8621, 1971.569
235.3443, 1981.268
235.8264, 1998.807
236.3085, 2024.662
236.7906, 2062.083
237.2727, 2119.316
237.7548, 2176.796
238.2369, 2224.601
238.7191, 2259.019
239.2012, 2290.250
239.6833, 2315.396
240.1654, 2337.305
240.6475, 2367.569
241.1296, 2407.247
241.6118, 2453.810
242.0939, 2507.906
242.5760, 2579.438
243.0581, 2637.138
243.5402, 2673.391
244.0223, 2693.419
244.5045, 2722.926
244.9866, 2766.425
245.4687, 2813.515
245.9508, 2858.734
246.4329, 2903.669
246.9150, 2943.299
247.3972, 2975.932
247.8793, 3002.643
248.3614, 3030.189
248.8435, 3059.724
249.3256, 3088.705
249.8077, 3115.975
250.2899, 3144.191
250.7720, 3165.248
251.2541, 3178.946
251.7362, 3184.916
252.2183, 3180.605
252.7004, 3160.156
253.1826, 3137.675
253.6647, 3122.935
254.1468, 3121.601
254.6289, 3115.316
255.1110, 3105.956
255.5931, 3090.611
256.0753, 3054.877
256.5574, 2993.625
257.0395, 2919.199
257.5216, 2837.552
258.0037, 2741.546
258.4858, 2656.985
258.9680, 2593.762
259.4501, 2544.172
259.9322, 2471.314
260.4143, 2361.133
260.8964, 2252.704
261.3785, 2175.432
261.8607, 2142.209
262.3428, 2099.002
262.8249, 2036.643
263.3070, 1961.130
263.7891, 1895.209
264.2712, 1842.841
264.7534, 1794.618
265.2355, 1746.255
265.7176, 1697.787
266.1997, 1647.016
266.6818, 1591.028
267.1639, 1532.798
267.6461, 1482.508
268.1282, 1440.457
268.6103, 1405.646
269.0924, 1379.781
269.5745, 1366.502
270.0566, 1344.839
270.5387, 1308.157
271.0208, 1263.691
271.5030, 1237.647
271.9851, 1236.814
272.4672, 1234.272
272.9493, 1210.473
273.4314, 1161.384
273.9135, 1120.170
274.3957, 1090.748
274.8778, 1070.475
275.3599, 1053.214
275.8420, 1039.646
276.3241, 1026.482
276.8062, 1013.253
277.2884, 1000.456
277.7705, 979.4539
278.2526, 945.4454
278.7347, 907.3201
279.2168, 888.9260
279.6989, 893.5530
280.1811, 897.6849
280.6632, 883.1837
281.1453, 849.9580
281.6274, 832.4907
282.1095, 836.9811
282.5916, 852.2770
283.0738, 857.1404
283.5559, 851.0849
284.0380, 840.3600
284.5201, 825.8610
285.0022, 808.2228
285.4843, 796.9692
285.9665, 794.5858
286.4486, 794.5767
286.9307, 782.2353
287.4128, 757.8514
287.8949, 740.0161
288.3770, 745.0263
288.8592, 767.3036
289.3413, 776.8291
289.8234, 770.6179
290.3055, 756.4420
290.7876, 742.2051
291.2697, 728.4077
291.7519, 720.6494
292.2340, 725.8817
292.7161, 739.8045
293.1982, 749.0914
293.6803, 753.6597
294.1624, 752.3098
294.6446, 738.4886
295.1267, 715.3067
295.6088, 697.7581
296.0909, 697.7508
296.5730, 707.5852
297.0551, 709.5335
297.5373, 702.4580
298.0194, 694.2119
298.5015, 692.4226
298.9836, 696.0767
299.4657, 702.1244
299.9478, 713.2114
300.4300, 724.3673
300.9121, 726.6120
301.3942, 719.6501
301.8763, 710.8211
302.3584, 703.7937
302.8405, 699.7616
303.3227, 701.3838
303.8048, 714.9091
304.2869, 731.5325
304.7690, 742.0643
305.2511, 746.5583
305.7332, 748.2301
306.2154, 746.8188
306.6975, 744.6750
307.1796, 745.4814
307.6617, 756.1716
308.1438, 765.4476
308.6259, 761.6998
309.1081, 746.4772
309.5901, 732.2836
310.0723, 728.3624
310.5544, 728.8234
311.0365, 726.3965
311.5186, 693.1147
312.0007, 706.7228
312.4828, 712.0941
312.9650, 709.6694
313.4471, 676.1061
313.9292, 682.7535
314.4113, 673.2864
314.8934, 663.1581
315.3755, 675.4650
315.8577, 646.4296
316.3398, 658.3802
316.8219, 654.3211
317.3040, 653.1454
317.7861, 661.0715
318.2682, 666.0660
318.7504, 659.3996
319.2325, 630.9562
319.7146, 607.5219
320.1967, 596.7365
320.6788, 596.4747
321.1609, 602.5005
321.6431, 629.9660
322.1252, 650.5209
322.6073, 649.6112
323.0894, 616.3557
323.5715, 586.1154
324.0536, 558.3181
324.5358, 537.9282
325.0179, 532.1944
325.5000, 557.9567
325.9821, 583.6218
326.4642, 601.5315
326.9464, 611.7437
327.4285, 613.0111
327.9106, 590.1958
328.3927, 564.5074
328.8748, 560.5089
329.3569, 607.6987
329.8391, 640.3615
330.3212, 641.4650
330.8033, 607.2207
331.2854, 580.8928
331.7675, 566.6190
332.2496, 557.0012
332.7318, 545.1238
333.2139, 526.7448
333.6960, 514.0757
334.1781, 510.1077
334.6602, 514.2212
335.1423, 517.7327
335.6245, 519.5171
336.1066, 522.5248
336.5887, 530.6134
337.0708, 547.5212
337.5529, 555.5818
338.0350, 549.2525
338.5172, 533.3539
338.9993, 528.0522
339.4814, 536.7903
339.9635, 545.0155
340.4456, 541.0535
340.9277, 523.4103
341.4099, 513.5803
341.8920, 514.4837
342.3741, 522.3107
342.8562, 531.3553
343.3383, 542.0045
343.8204, 548.2134
344.3026, 544.2721
344.7847, 531.8227
345.2668, 523.1802
345.7489, 519.6978
346.2310, 517.6569
346.7131, 508.2809
347.1953, 493.4304
347.6774, 487.0647
348.1595, 503.1641
348.6416, 531.7457
349.1237, 546.8065
349.6058, 547.0446
350.0880, 545.0205
350.5700, 558.0925
351.0522, 579.4331
351.5343, 590.1923
352.0164, 575.4376
352.4985, 551.5135
352.9806, 539.7778
353.4627, 539.5824
353.9449, 542.5878
354.4270, 542.4271
354.9091, 541.6494
355.3912, 543.9619
355.8733, 551.6956
356.3554, 561.2656
356.8376, 571.6066
357.3197, 581.9561
357.8018, 589.3674
358.2839, 593.9058
358.7660, 593.8909
359.2481, 585.4676
359.7303, 559.6425
360.2124, 543.1303
360.6945, 556.8509
361.1766, 588.6084
361.6587, 612.1740
362.1408, 607.8340
362.6230, 600.7711
363.1051, 606.4044
363.5872, 632.8652
364.0693, 647.8234
364.5514, 627.6533
365.0335, 596.0674
365.5157, 583.6671
365.9978, 617.6215
366.4799, 649.7819
366.9620, 665.5426
367.4441, 661.6245
367.9262, 662.5322
368.4084, 671.9019
368.8905, 684.9528
369.3726, 698.2724
369.8547, 715.1415
370.3368, 727.3398
370.8189, 732.4059
371.3011, 731.1898
371.7832, 730.9988
372.2653, 731.1409
372.7474, 733.1920
373.2295, 738.4035
373.7116, 747.7255
374.1938, 757.6273
374.6759, 768.6707
375.1580, 779.7828
375.6401, 788.4170
376.1222, 794.3470
376.6043, 798.7372
377.0865, 800.7280
377.5686, 799.8044
378.0507, 804.7473
378.5328, 816.1633
379.0149, 832.1005
379.4970, 851.4963
379.9792, 874.2458
380.4613, 894.7114
380.9434, 908.0248
381.4255, 917.1087
381.9076, 933.7863
382.3897, 958.5511
382.8719, 984.0282
383.3540, 1003.846
383.8361, 1018.401
384.3182, 1027.288
384.8003, 1024.615
385.2824, 1022.234
385.7646, 1044.913
386.2467, 1088.603
386.7288, 1124.162
387.2109, 1120.225
387.6930, 1099.286
388.1751, 1094.012
388.6573, 1113.912
389.1394, 1141.453
389.6215, 1166.640
390.1036, 1188.815
390.5857, 1206.343
391.0678, 1214.110
391.5499, 1220.137
392.0320, 1230.135
392.5142, 1244.946
392.9963, 1261.399
393.4784, 1284.284
393.9605, 1306.246
394.4426, 1318.456
394.9247, 1303.964
395.4069, 1293.334
395.8890, 1299.620
396.3711, 1322.728
396.8532, 1341.529
397.3353, 1348.598
397.8174, 1352.780
398.2996, 1359.828
398.7817, 1374.089
399.2638, 1386.416
399.7459, 1397.151
400.2280, 1405.776
400.7101, 1410.014
401.1923, 1405.934
401.6744, 1402.469
402.1565, 1403.445
402.6386, 1410.334
403.1207, 1417.109
403.6028, 1424.356
404.0850, 1430.967
404.5671, 1435.260
405.0492, 1437.269
405.5313, 1436.827
406.0134, 1432.639
406.4955, 1425.346
406.9777, 1422.258
407.4598, 1424.112
407.9419, 1427.359
408.4240, 1428.248
408.9061, 1427.012
409.3882, 1427.145
409.8704, 1430.589
410.3525, 1434.454
410.8346, 1433.331
411.3167, 1427.264
411.7988, 1416.549
412.2809, 1396.127
412.7631, 1372.151
413.2452, 1358.406
413.7273, 1358.298
414.2094, 1362.118
414.6915, 1361.030
415.1736, 1356.431
415.6558, 1351.474
416.1379, 1349.814
416.6200, 1347.101
417.1021, 1335.551
417.5842, 1315.053
418.0663, 1303.672
418.5485, 1318.875
419.0306, 1345.353
419.5127, 1367.522
419.9948, 1379.117
420.4769, 1387.756
420.9590, 1394.789
421.4412, 1400.736
421.9233, 1407.352
422.4054, 1417.425
422.8875, 1426.474
423.3696, 1432.290
423.8517, 1433.050
424.3339, 1433.605
424.8160, 1435.784
425.2981, 1422.729
425.7802, 1438.863
426.2623, 1446.760
426.7444, 1446.862
427.2266, 1415.823
427.7087, 1424.996
428.1908, 1418.054
428.6729, 1410.452
429.1550, 1425.284
429.6371, 1398.776
430.1193, 1413.251
430.6014, 1411.367
431.0835, 1416.971
431.5656, 1403.205
432.0477, 1398.568
432.5298, 1391.474
433.0119, 1380.196
433.4940, 1360.194
433.9762, 1334.005
434.4583, 1315.604
434.9404, 1307.025
435.4225, 1300.921
435.9046, 1288.720
436.3867, 1271.601
436.8689, 1252.981
437.3510, 1230.743
437.8331, 1209.806
438.3152, 1200.380
438.7973, 1201.105
439.2794, 1196.330
439.7616, 1164.593
440.2437, 1126.184
440.7258, 1103.635
441.2079, 1107.563
441.6900, 1119.232
442.1721, 1134.555
442.6543, 1150.555
443.1364, 1160.323
443.6185, 1159.904
444.1006, 1153.963
444.5827, 1143.589
445.0648, 1127.712
445.5470, 1112.924
446.0291, 1099.682
446.5112, 1088.163
446.9933, 1078.704
447.4754, 1071.523
447.9576, 1066.165
448.4397, 1065.481
448.9218, 1067.654
449.4039, 1058.990
449.8860, 1031.776
450.3681, 1005.831
450.8503, 993.6185
451.3324, 999.5342
451.8145, 998.4001
452.2966, 986.5510
452.7787, 971.8027
453.2608, 970.2230
453.7430, 982.8752
454.2251, 989.6322
454.7072, 978.6193
455.1893, 956.0320
455.6714, 945.7377
456.1535, 948.0182
456.6357, 956.6113
457.1178, 971.0239
457.5999, 987.4937
458.0820, 996.5563
458.5641, 993.9420
459.0462, 987.1963
459.5284, 982.0235
460.0105, 979.0646
460.4926, 979.9969
460.9747, 987.8306
461.4568, 998.5521
461.9389, 1008.995
462.4211, 1018.703
462.9032, 1029.078
463.3853, 1041.267
463.8674, 1054.105
464.3495, 1066.384
464.8316, 1083.972
465.3138, 1094.270
465.7959, 1083.746
466.2780, 1058.508
466.7601, 1057.131
467.2422, 1108.397
467.7243, 1160.861
468.2065, 1191.200
468.6886, 1188.035
469.1707, 1194.084
469.6528, 1213.573
470.1349, 1238.954
470.6170, 1260.441
471.0992, 1278.728
471.5813, 1290.191
472.0634, 1290.112
472.5455, 1282.255
473.0276, 1289.044
473.5097, 1312.213
473.9918, 1337.613
474.4739, 1352.194
474.9561, 1358.349
475.4382, 1369.921
475.9203, 1389.872
476.4024, 1411.854
476.8845, 1430.054
477.3666, 1443.712
477.8488, 1450.343
478.3309, 1443.269
478.8130, 1431.616
479.2951, 1427.496
479.7772, 1430.651
480.2593, 1429.224
480.7415, 1407.633
481.2236, 1382.066
481.7057, 1368.701
482.1878, 1381.132
482.6699, 1391.574
483.1520, 1389.130
483.6342, 1377.756
484.1163, 1366.521
484.5984, 1364.829
485.0805, 1356.321
485.5626, 1329.570
486.0447, 1277.871
486.5269, 1248.952
487.0090, 1256.164
487.4911, 1274.315
487.9732, 1282.366
488.4553, 1277.802
488.9374, 1269.939
489.4196, 1258.465
489.9017, 1245.151
490.3838, 1235.896
490.8659, 1231.310
491.3480, 1226.386
491.8301, 1215.461
492.3123, 1200.696
492.7944, 1198.863
493.2765, 1211.641
493.7586, 1226.028
494.2407, 1223.707
494.7228, 1212.005
495.2050, 1212.545
495.6871, 1241.568
496.1692, 1271.741
496.6513, 1266.310
497.1334, 1235.465
497.6155, 1214.322
498.0977, 1226.202
498.5798, 1251.597
499.0619, 1278.686
499.5440, 1306.654
500.0261, 1330.643
500.5082, 1344.912
500.9904, 1356.300
501.4725, 1371.874
501.9546, 1398.593
502.4367, 1423.189
502.9188, 1441.403
503.4009, 1455.274
503.8831, 1473.857
504.3652, 1499.753
504.8473, 1526.463
505.3294, 1551.268
505.8115, 1573.383
506.2936, 1596.159
506.7758, 1618.102
507.2579, 1643.431
507.7400, 1679.772
508.2221, 1727.338
508.7042, 1770.768
509.1863, 1803.538
509.6685, 1832.929
510.1506, 1879.004
510.6327, 1939.692
511.1148, 1994.802
511.5969, 2030.204
512.0790, 2052.386
512.5612, 2068.689
513.0433, 2078.956
513.5254, 2091.713
514.0075, 2113.933
514.4896, 2142.490
514.9717, 2172.884
515.4539, 2205.768
515.9360, 2238.235
516.4181, 2267.801
516.9002, 2295.711
517.3823, 2326.103
517.8644, 2376.321
518.3466, 2415.255
518.8287, 2424.035
519.3108, 2388.781
519.7929, 2374.985
520.2750, 2396.436
520.7571, 2427.442
521.2393, 2442.622
521.7214, 2440.060
522.2035, 2427.195
522.6856, 2401.107
523.1677, 2367.961
523.6498, 2349.591
524.1320, 2347.631
524.6141, 2337.602
525.0962, 2299.874
525.5783, 2242.759
526.0604, 2197.489
526.5425, 2165.291
527.0247, 2134.534
527.5068, 2090.126
527.9889, 2039.221
528.4710, 1996.654
528.9531, 1971.952
529.4352, 1947.258
529.9174, 1912.265
530.3995, 1866.557
530.8816, 1810.761
531.3637, 1727.238
531.8458, 1648.092
532.3279, 1590.781
532.8101, 1559.704
533.2922, 1526.120
533.7743, 1481.601
534.2564, 1435.827
534.7385, 1397.359
535.2206, 1373.714
535.7027, 1342.001
536.1848, 1298.060
536.6669, 1247.151
537.1490, 1200.738
537.6312, 1158.093
538.1133, 1121.317
538.5954, 1092.340
539.0775, 1069.962
539.5596, 1048.317
540.0417, 1027.582
540.5239, 1006.169
541.0060, 982.7402
541.4881, 957.8372
541.9702, 931.7531
542.4523, 903.3214
542.9344, 878.2134
543.4166, 864.4478
543.8987, 857.6530
544.3808, 849.5450
544.8629, 835.1699
545.3450, 819.9203
545.8271, 808.4185
546.3093, 799.6643
546.7914, 786.0668
547.2735, 751.8652
547.7556, 722.5396
548.2377, 713.9296
548.7198, 741.5027
549.2020, 755.3638
549.6841, 751.4084
550.1662, 736.6589
550.6483, 717.1390
551.1304, 688.1548
551.6125, 669.9664
552.0947, 669.6039
552.5768, 680.5649
553.0589, 680.8658
553.5410, 669.7018
554.0231, 662.0636
554.5052, 674.2834
554.9874, 696.3049
555.4695, 695.1217
555.9516, 668.7463
556.4337, 641.7745
556.9158, 637.0744
557.3979, 645.5934
557.8801, 655.2634
558.3622, 666.7761
558.8443, 671.7313
559.3264, 659.6738
559.8085, 637.9733
560.2906, 621.3804
560.7728, 616.5645
561.2549, 615.4351
561.7370, 615.2142
562.2191, 615.7568
562.7012, 619.4985
563.1833, 627.7429
563.6655, 637.7985
564.1476, 649.9506
564.6297, 668.5963
565.1118, 672.3801
565.5939, 655.0128
566.0760, 632.1398
566.5582, 629.5275
567.0403, 646.7897
567.5224, 661.6273
568.0045, 665.7442
568.4866, 665.3638
568.9688, 673.1864
569.4509, 688.3592
569.9330, 704.3210
570.4151, 723.0481
570.8972, 737.4597
571.3793, 736.4198
571.8615, 717.8475
572.3436, 702.2606
572.8257, 702.9397
573.3078, 710.9659
573.7899, 718.2855
574.2720, 724.6628
574.7542, 727.9828
575.2363, 725.4556
575.7184, 719.9092
576.2005, 717.5264
576.6826, 722.9760
577.1647, 723.7852
577.6469, 714.2386
578.1290, 695.9213
578.6111, 686.3126
579.0932, 686.7233
579.5753, 690.4591
580.0574, 694.5272
580.5396, 698.3682
581.0217, 697.6554
581.5038, 691.4473
581.9859, 683.6838
582.4680, 679.5327
582.9501, 676.9942
583.4323, 671.4333
583.9144, 657.6443
584.3965, 644.9360
584.8786, 639.8572
585.3607, 641.4027
585.8428, 646.7057
586.3250, 664.1567
586.8071, 676.6672
587.2892, 675.3145
587.7713, 658.1014
588.2534, 640.1566
588.7355, 615.6872
589.2177, 596.8007
589.6998, 593.6298
590.1819, 614.3934
590.6640, 623.6575
591.1461, 616.4079
591.6282, 603.0176
592.1104, 600.5409
592.5925, 608.8557
593.0746, 614.1095
593.5567, 610.0126
594.0388, 602.4265
594.5209, 602.6251
595.0031, 609.6586
595.4852, 618.1357
595.9673, 627.3761
596.4494, 634.9894
596.9315, 638.3624
597.4136, 637.1796
597.8958, 633.8723
598.3779, 628.1797
598.8600, 621.6672
599.3421, 615.2752
599.8242, 604.0217
600.3063, 601.0520
600.7885, 614.6915
601.2706, 633.8837
601.7527, 642.0438
602.2348, 634.4236
602.7169, 626.7185
603.1990, 621.0696
603.6812, 618.2379
604.1633, 623.8669
604.6454, 638.8794
605.1275, 650.9116
605.6096, 650.5142
606.0917, 641.6697
606.5739, 634.8537
607.0560, 630.3982
607.5381, 626.7003
608.0202, 624.6925
608.5023, 621.7291
608.9844, 614.1723
