##NAMES=Fibroferrite
##RRUFFID=R061076
##IDEAL CHEMISTRY=Fe^3+^S^6+^O_4_(OH)&#183;5H_2_O
##LOCALITY=Cyprus
##OWNER=RRUFF
##SOURCE=Michael Scott
##DESCRIPTION=Matted aggregates of pale yellow fibers
##STATUS=The identification of this mineral has been confirmed by X-ray diffraction and chemical analysis
##URL=rruff.info/R061076
##MEASURED CHEMISTRY=Fe^3+^_1.00_(S_1.00_O_4_)(OH)Â·5H_2_O
119.2185, 215.1857
119.7006, 211.8539
120.1827, 236.3479
120.6648, 277.4210
121.1470, 317.4365
121.6291, 345.2802
122.1112, 361.6760
122.5933, 379.4195
123.0754, 398.3313
123.5575, 418.6412
124.0397, 438.7333
124.5218, 460.0942
125.0039, 486.9709
125.4860, 523.6456
125.9681, 570.8685
126.4502, 607.2679
126.9324, 627.4771
127.4145, 644.2977
127.8966, 664.9050
128.3787, 688.3403
128.8608, 708.5804
129.3429, 720.4711
129.8251, 722.9589
130.3072, 720.7267
130.7893, 705.6021
131.2714, 692.0209
131.7535, 694.5247
132.2356, 712.8759
132.7178, 729.1497
133.1999, 724.3871
133.6820, 695.2078
134.1641, 671.2608
134.6462, 655.3802
135.1283, 644.2652
135.6105, 637.8771
136.0926, 636.6711
136.5747, 631.5001
137.0568, 604.2505
137.5389, 554.9702
138.0210, 529.9863
138.5032, 552.8720
138.9853, 599.8742
139.4674, 639.4156
139.9495, 665.5000
140.4316, 685.8135
140.9137, 710.5065
141.3959, 739.0629
141.8780, 760.3102
142.3601, 762.7891
142.8422, 756.1235
143.3243, 760.4912
143.8064, 781.3851
144.2886, 810.7177
144.7707, 843.6874
145.2528, 875.5867
145.7349, 888.0933
146.2170, 881.3993
146.6991, 865.8630
147.1813, 851.2994
147.6634, 842.4413
148.1455, 829.8943
148.6276, 803.4957
149.1097, 764.2748
149.5918, 726.9112
150.0739, 697.4213
150.5561, 675.8115
151.0382, 667.3419
151.5203, 684.0866
152.0024, 701.7202
152.4845, 694.2678
152.9666, 662.4000
153.4488, 639.4958
153.9309, 664.1253
154.4130, 734.2063
154.8951, 776.8335
155.3772, 757.5950
155.8593, 723.9762
156.3415, 702.7966
156.8236, 696.4943
157.3057, 704.2745
157.7878, 733.4044
158.2699, 786.6153
158.7520, 822.7769
159.2342, 817.2623
159.7163, 805.9954
160.1984, 808.8794
160.6805, 828.0287
161.1626, 852.8273
161.6447, 872.2371
162.1269, 885.2301
162.6090, 899.9844
163.0911, 914.8504
163.5732, 933.9686
164.0553, 961.8419
164.5374, 998.4445
165.0196, 1037.558
165.5017, 1069.531
165.9838, 1089.876
166.4659, 1122.086
166.9480, 1185.323
167.4301, 1248.848
167.9123, 1295.834
168.3944, 1322.909
168.8765, 1338.738
169.3586, 1353.234
169.8407, 1365.503
170.3228, 1379.248
170.8050, 1402.962
171.2871, 1422.676
171.7692, 1427.898
172.2513, 1416.933
172.7334, 1397.922
173.2155, 1382.798
173.6977, 1375.632
174.1798, 1360.923
174.6619, 1338.933
175.1440, 1309.267
175.6261, 1266.842
176.1082, 1211.922
176.5904, 1156.349
177.0725, 1119.323
177.5546, 1113.748
178.0367, 1097.030
178.5188, 1060.502
179.0009, 1018.813
179.4831, 981.9110
179.9652, 952.0246
180.4473, 924.0027
180.9294, 888.6890
181.4115, 837.4803
181.8936, 798.5217
182.3758, 781.2832
182.8579, 768.1251
183.3400, 743.6079
183.8221, 705.8628
184.3042, 668.3023
184.7863, 653.2877
185.2685, 681.0784
185.7506, 689.4325
186.2327, 669.8499
186.7148, 640.6340
187.1969, 612.0541
187.6790, 587.0486
188.1612, 564.6431
188.6433, 541.7775
189.1254, 510.3382
189.6075, 497.5408
190.0896, 515.0964
190.5717, 538.9999
191.0538, 555.7188
191.5360, 561.7319
192.0181, 559.4370
192.5002, 550.6631
192.9823, 528.4713
193.4644, 516.2119
193.9465, 523.1102
194.4287, 531.1880
194.9108, 526.0123
195.3929, 507.0504
195.8750, 486.7146
196.3571, 482.4308
196.8392, 504.5450
197.3214, 514.9452
197.8035, 511.4135
198.2856, 500.6250
198.7677, 481.8616
199.2498, 457.6398
199.7319, 436.5733
200.2141, 429.8411
200.6962, 442.9967
201.1783, 453.1587
201.6604, 461.6591
202.1425, 466.8854
202.6246, 468.6133
203.1068, 466.4516
203.5889, 458.6342
204.0710, 440.8275
204.5531, 405.4861
205.0352, 392.6967
205.5173, 422.2420
205.9995, 453.0930
206.4816, 462.6461
206.9637, 452.0188
207.4458, 436.9238
207.9279, 432.4999
208.4100, 440.2818
208.8922, 450.0775
209.3743, 468.5016
209.8564, 482.7191
210.3385, 486.2914
210.8206, 480.2239
211.3027, 469.0685
211.7849, 455.7065
212.2670, 439.4428
212.7491, 429.9839
213.2312, 431.0020
213.7133, 434.5511
214.1954, 438.2172
214.6776, 442.0813
215.1597, 448.0060
215.6418, 458.4861
216.1239, 473.5701
216.6060, 477.5993
217.0882, 456.7704
217.5703, 439.3368
218.0524, 435.8976
218.5345, 441.8602
219.0166, 446.2369
219.4987, 440.6412
219.9809, 426.8083
220.4630, 425.5551
220.9451, 449.6444
221.4272, 473.5206
221.9093, 495.9098
222.3914, 514.3889
222.8736, 524.5190
223.3557, 522.8152
223.8378, 512.5265
224.3199, 510.5539
224.8020, 527.9202
225.2841, 541.2667
225.7663, 540.2576
226.2484, 535.4005
226.7305, 542.1044
227.2126, 568.6238
227.6947, 606.5754
228.1768, 629.3358
228.6590, 613.9810
229.1411, 615.4281
229.6232, 660.2153
230.1053, 714.4926
230.5874, 740.2100
231.0695, 722.1010
231.5516, 681.7469
232.0338, 666.6428
232.5159, 693.1923
232.9980, 717.0746
233.4801, 734.8533
233.9622, 748.6614
234.4443, 758.9432
234.9265, 766.2402
235.4086, 773.1758
235.8907, 784.5374
236.3728, 803.8630
236.8549, 819.3004
237.3370, 826.0516
237.8192, 832.2028
238.3013, 842.9846
238.7834, 859.2613
239.2655, 878.3100
239.7476, 897.3702
240.2297, 916.6373
240.7119, 934.9814
241.1940, 951.5776
241.6761, 967.9391
242.1582, 984.3659
242.6403, 1001.038
243.1224, 1018.183
243.6046, 1034.523
244.0867, 1049.191
244.5688, 1072.046
245.0509, 1116.779
245.5330, 1156.887
246.0151, 1177.057
246.4973, 1182.846
246.9794, 1191.516
247.4615, 1219.049
247.9436, 1263.085
248.4257, 1295.290
248.9078, 1310.874
249.3900, 1319.684
249.8721, 1321.726
250.3542, 1320.718
250.8363, 1323.634
251.3184, 1336.353
251.8005, 1354.898
252.2827, 1366.867
252.7648, 1371.614
253.2469, 1370.144
253.7290, 1361.987
254.2111, 1349.033
254.6932, 1332.804
255.1754, 1312.799
255.6575, 1291.768
256.1396, 1274.944
256.6217, 1263.404
257.1038, 1252.273
257.5859, 1245.714
258.0681, 1235.917
258.5502, 1213.842
259.0323, 1175.805
259.5144, 1130.801
259.9965, 1086.893
260.4786, 1043.481
260.9608, 1006.246
261.4429, 984.6918
261.9250, 964.1176
262.4071, 926.5875
262.8892, 868.1953
263.3713, 814.8520
263.8535, 790.4909
264.3356, 790.6159
264.8177, 785.5577
265.2998, 767.9921
265.7819, 744.6168
266.2640, 722.0729
266.7462, 700.3759
267.2283, 678.6061
267.7104, 655.3406
268.1925, 631.7465
268.6746, 610.1595
269.1567, 590.5226
269.6389, 573.9647
270.1210, 563.5585
270.6031, 557.8829
271.0852, 551.4320
271.5673, 542.0490
272.0494, 531.4677
272.5316, 521.1977
273.0137, 511.2269
273.4958, 503.5890
273.9779, 502.3696
274.4600, 505.3346
274.9421, 500.1337
275.4243, 476.8615
275.9064, 452.8127
276.3885, 441.0600
276.8706, 440.0432
277.3527, 439.4462
277.8348, 432.5880
278.3170, 422.3424
278.7991, 420.0366
279.2812, 437.3899
279.7633, 447.9046
280.2454, 437.1827
280.7275, 413.2534
281.2097, 392.0894
281.6918, 380.4700
282.1739, 374.1589
282.6560, 363.2559
283.1381, 338.2642
283.6202, 325.7476
284.1024, 340.0410
284.5845, 363.0718
285.0666, 374.2622
285.5487, 368.5537
286.0308, 356.3439
286.5129, 351.9623
286.9951, 359.9519
287.4772, 363.5459
287.9593, 362.0335
288.4414, 357.0952
288.9235, 346.6129
289.4056, 332.4899
289.8878, 321.9411
290.3699, 322.4388
290.8520, 335.3917
291.3341, 343.2122
291.8162, 341.4894
292.2983, 339.5388
292.7804, 341.3936
293.2625, 345.3289
293.7447, 346.9121
294.2268, 342.8786
294.7089, 334.9940
295.1910, 333.0676
295.6731, 349.3571
296.1552, 354.6903
296.6374, 334.4489
297.1195, 305.4972
297.6016, 287.1456
298.0837, 287.1854
298.5658, 296.4229
299.0479, 296.9784
299.5301, 283.8078
300.0122, 275.8923
300.4943, 278.0981
300.9764, 284.6338
301.4585, 294.8660
301.9406, 307.6477
302.4228, 316.2514
302.9049, 309.9164
303.3870, 287.9972
303.8691, 276.3738
304.3512, 284.2274
304.8333, 295.4493
305.3155, 301.4082
305.7976, 302.6273
306.2797, 301.8991
306.7618, 297.3102
307.2439, 292.0627
307.7260, 297.5910
308.2082, 318.6796
308.6903, 337.7435
309.1724, 342.8583
309.6545, 338.5783
310.1366, 330.7596
310.6187, 317.6277
311.1009, 304.7874
311.5830, 300.3232
312.0651, 303.8763
312.5472, 303.0022
313.0293, 285.0080
313.5114, 264.5763
313.9936, 273.0350
314.4757, 328.6307
314.9578, 371.2165
315.4399, 361.1229
315.9220, 317.3878
316.4041, 281.9303
316.8863, 267.0486
317.3684, 262.7706
317.8505, 254.5030
318.3326, 239.9172
318.8147, 232.3449
319.2968, 239.8553
319.7790, 251.1750
320.2611, 256.1955
320.7432, 253.7314
321.2253, 246.7247
321.7074, 235.7610
322.1895, 219.6846
322.6717, 220.2153
323.1538, 263.2146
323.6359, 293.9147
324.1180, 279.9680
324.6001, 236.6501
325.0822, 197.3754
325.5644, 180.8923
326.0465, 183.6190
326.5286, 192.0468
327.0107, 215.0964
327.4928, 232.3645
327.9749, 239.4023
328.4571, 241.5257
328.9392, 241.5668
329.4213, 241.0751
329.9034, 244.2743
330.3855, 261.6600
330.8676, 304.7717
331.3498, 325.1176
331.8319, 302.2634
332.3140, 272.4761
332.7961, 250.9606
333.2782, 238.5328
333.7603, 229.3486
334.2425, 218.2172
334.7246, 206.0391
335.2067, 200.8709
335.6888, 208.0078
336.1709, 213.3221
336.6530, 206.6220
337.1352, 194.9482
337.6173, 190.0475
338.0994, 198.9178
338.5815, 212.4014
339.0636, 216.4730
339.5457, 210.3338
340.0279, 207.5643
340.5100, 217.9119
340.9921, 230.7903
341.4742, 231.1169
341.9563, 215.5700
342.4384, 200.1723
342.9206, 192.4335
343.4027, 191.4347
343.8848, 197.1056
344.3669, 211.2752
344.8490, 224.7694
345.3311, 225.6704
345.8133, 213.5178
346.2954, 204.6724
346.7775, 206.9120
347.2596, 208.8033
347.7417, 195.5379
348.2238, 170.4171
348.7060, 154.9664
349.1881, 165.9586
349.6702, 199.3198
350.1523, 221.2024
350.6344, 218.7778
351.1165, 221.8219
351.5987, 249.5207
352.0808, 282.8612
352.5629, 291.5733
353.0450, 264.9388
353.5271, 222.9932
354.0092, 202.1594
354.4914, 215.4255
354.9735, 225.1431
355.4556, 231.7164
355.9377, 235.1059
356.4198, 232.8840
356.9019, 226.6546
357.3841, 222.0947
357.8662, 223.5670
358.3483, 231.0596
358.8304, 246.1749
359.3125, 288.2148
359.7946, 309.7581
360.2768, 276.2570
360.7589, 218.9205
361.2410, 185.4904
361.7231, 199.5209
362.2052, 233.7247
362.6873, 246.1886
363.1695, 234.4704
363.6516, 228.6570
364.1337, 247.1638
364.6158, 267.5316
365.0979, 260.4285
365.5800, 222.0033
366.0622, 193.6550
366.5443, 209.2374
367.0264, 248.3686
367.5085, 266.9278
367.9906, 255.6575
368.4727, 240.0756
368.9549, 244.8920
369.4370, 268.5841
369.9191, 282.0629
370.4012, 274.5789
370.8833, 264.6541
371.3654, 264.1049
371.8476, 270.8328
372.3297, 277.1832
372.8118, 279.2424
373.2939, 278.4307
373.7760, 278.9606
374.2581, 282.7086
374.7403, 285.3972
375.2224, 285.8369
375.7045, 285.7697
376.1866, 289.1190
376.6687, 295.3813
377.1508, 297.2693
377.6329, 284.2474
378.1151, 252.4484
378.5972, 233.4775
379.0793, 235.1343
379.5614, 243.0130
380.0435, 255.5669
380.5256, 271.0703
381.0078, 287.5004
381.4899, 304.5264
381.9720, 320.5626
382.4541, 331.6100
382.9362, 336.4258
383.4183, 340.8380
383.9005, 350.0123
384.3826, 357.1859
384.8647, 352.9724
385.3468, 335.5583
385.8289, 323.7831
386.3110, 338.8604
386.7932, 370.1706
387.2753, 383.3464
387.7574, 369.8421
388.2395, 351.7345
388.7216, 348.1544
389.2037, 357.0093
389.6859, 365.8373
390.1680, 373.1517
390.6501, 380.1389
391.1322, 385.3633
391.6143, 390.5139
392.0964, 402.3700
392.5786, 425.5093
393.0607, 453.7191
393.5428, 471.1623
394.0249, 475.9967
394.5070, 472.0625
394.9891, 446.8381
395.4713, 421.0471
395.9534, 416.2040
396.4355, 432.4316
396.9176, 449.6496
397.3997, 445.8332
397.8818, 419.5170
398.3640, 410.8630
398.8461, 434.4398
399.3282, 460.7271
399.8103, 487.4756
400.2924, 510.5040
400.7745, 523.9404
401.2567, 524.8177
401.7388, 517.9075
402.2209, 508.2718
402.7030, 494.7986
403.1851, 488.6129
403.6672, 497.1858
404.1494, 509.4829
404.6315, 517.0399
405.1136, 519.7012
405.5957, 519.0153
406.0778, 511.4301
406.5599, 502.4932
407.0421, 503.7538
407.5242, 516.4406
408.0063, 526.8702
408.4884, 524.7751
408.9705, 513.2120
409.4526, 507.1461
409.9348, 510.9539
410.4169, 514.7909
410.8990, 516.8820
411.3811, 516.4157
411.8632, 510.2675
412.3453, 497.6860
412.8275, 485.1949
413.3096, 482.9349
413.7917, 496.6779
414.2738, 500.6211
414.7559, 483.1017
415.2380, 468.7737
415.7202, 475.2272
416.2023, 493.6811
416.6844, 501.4479
417.1665, 482.3726
417.6486, 449.6805
418.1307, 443.5617
418.6129, 474.7585
419.0950, 503.9355
419.5771, 522.4399
420.0592, 534.6297
420.5413, 542.0222
421.0234, 545.0117
421.5056, 546.5365
421.9877, 549.2249
422.4698, 552.0698
422.9519, 551.2349
423.4340, 545.2750
423.9161, 540.4496
424.3983, 542.8254
424.8804, 550.1590
425.3625, 553.3927
425.8446, 545.9949
426.3267, 540.5881
426.8088, 548.8329
427.2910, 563.0822
427.7731, 564.8383
428.2552, 547.1042
428.7373, 524.9109
429.2194, 522.1208
429.7015, 548.7931
430.1837, 567.1261
430.6658, 571.8630
431.1479, 573.9125
431.6300, 580.8833
432.1121, 590.1315
432.5942, 593.7661
433.0764, 586.2888
433.5585, 570.7183
434.0406, 556.7029
434.5227, 544.9091
435.0048, 533.0066
435.4869, 518.8049
435.9691, 505.3625
436.4512, 492.7199
436.9333, 481.4718
437.4154, 478.1608
437.8975, 498.4488
438.3796, 529.8551
438.8618, 533.7770
439.3439, 503.2633
439.8260, 466.1484
440.3081, 434.1573
440.7902, 411.0027
441.2723, 407.3651
441.7545, 441.9271
442.2366, 473.4115
442.7187, 483.4350
443.2008, 478.2009
443.6829, 465.3174
444.1650, 447.1736
444.6472, 429.4427
445.1293, 419.5197
445.6114, 418.6427
446.0935, 420.7131
446.5756, 430.3595
447.0577, 437.8102
447.5399, 440.5489
448.0220, 437.9357
448.5041, 427.5664
448.9862, 407.1933
449.4683, 384.2373
449.9504, 375.9709
450.4326, 386.6471
450.9147, 392.9304
451.3968, 389.2255
451.8789, 380.6266
452.3610, 369.0655
452.8431, 355.2527
453.3253, 342.8426
453.8074, 331.7649
454.2895, 323.9777
454.7716, 323.6224
455.2537, 330.6608
455.7358, 339.9422
456.2180, 351.2912
456.7001, 361.2853
457.1822, 358.2281
457.6643, 332.8925
458.1464, 314.7054
458.6285, 313.9081
459.1106, 320.1979
459.5927, 323.7166
460.0749, 323.1620
460.5570, 322.9509
461.0391, 327.9179
461.5212, 337.4559
462.0033, 338.0789
462.4854, 321.5584
462.9676, 306.5931
463.4497, 297.6247
463.9318, 291.7038
464.4139, 283.6848
464.8960, 272.3896
465.3781, 266.2965
465.8603, 278.0375
466.3424, 304.8273
466.8245, 325.4034
467.3066, 337.5142
467.7887, 344.0274
468.2708, 342.5892
468.7530, 336.9588
469.2351, 337.6357
469.7172, 352.5166
470.1993, 367.0685
470.6814, 372.3541
471.1635, 370.9787
471.6457, 368.5991
472.1278, 367.0077
472.6099, 363.9139
473.0920, 354.7517
473.5741, 334.2642
474.0562, 329.7104
474.5384, 353.5459
475.0205, 377.7763
475.5026, 390.7503
475.9847, 395.6229
476.4668, 400.3652
476.9489, 409.0333
477.4311, 416.6358
477.9132, 412.1964
478.3953, 393.2786
478.8774, 378.4000
479.3595, 368.7271
479.8416, 366.1783
480.3238, 376.3992
480.8059, 395.8165
481.2880, 408.2046
481.7701, 398.5344
482.2522, 385.2239
482.7343, 394.4315
483.2165, 420.5178
483.6986, 429.4892
484.1807, 403.0780
484.6628, 362.4590
485.1449, 347.4466
485.6270, 372.1244
486.1092, 392.5556
486.5913, 408.2033
487.0734, 419.5022
487.5555, 427.1717
488.0376, 430.7979
488.5197, 428.6207
489.0019, 418.9624
489.4840, 404.5969
489.9661, 392.5445
490.4482, 381.5903
490.9303, 376.3950
491.4124, 384.2371
491.8946, 393.4916
492.3767, 394.6966
492.8588, 388.7581
493.3409, 386.0173
493.8230, 398.7052
494.3051, 414.4706
494.7873, 410.6557
495.2694, 388.3636
495.7515, 372.3360
496.2336, 375.5791
496.7157, 391.0925
497.1978, 402.6917
497.6800, 406.4949
498.1621, 415.2208
498.6442, 435.2992
499.1263, 456.6643
499.6084, 474.8023
500.0905, 487.3850
500.5727, 489.1895
501.0548, 474.7307
501.5369, 450.5335
502.0190, 441.1068
502.5011, 452.2962
502.9832, 464.1853
503.4654, 472.4781
503.9475, 480.4040
504.4296, 488.1816
504.9117, 496.6560
505.3938, 511.1814
505.8759, 542.5406
506.3581, 578.3196
506.8402, 594.9761
507.3223, 593.0838
507.8044, 596.2394
508.2865, 618.2366
508.7686, 649.4130
509.2508, 666.4123
509.7329, 661.2647
510.2150, 660.1008
510.6971, 664.5371
511.1792, 674.1772
511.6613, 691.5835
512.1434, 714.3350
512.6255, 734.9413
513.1077, 747.7030
513.5898, 756.6030
514.0719, 775.5948
514.5540, 809.6324
515.0361, 839.1505
515.5182, 859.2552
516.0004, 873.8968
516.4825, 884.0772
516.9646, 890.5222
517.4467, 897.4875
517.9288, 909.9017
518.4109, 922.2836
518.8931, 925.6639
519.3752, 921.2352
519.8573, 918.6980
520.3394, 922.3560
520.8215, 930.1647
521.3036, 938.8033
521.7858, 950.9980
522.2679, 957.4557
522.7500, 955.1966
523.2321, 949.9156
523.7142, 944.3740
524.1964, 938.6384
524.6785, 931.9702
525.1606, 923.9409
525.6427, 914.7446
526.1248, 905.4390
526.6069, 896.6299
527.0891, 883.4258
527.5712, 862.8764
528.0533, 839.8873
528.5354, 817.3911
529.0175, 795.5700
529.4996, 775.2294
529.9818, 760.3762
530.4639, 743.9325
530.9460, 715.2466
531.4281, 680.2332
531.9102, 658.3035
532.3923, 657.1907
532.8745, 659.3461
533.3566, 638.3210
533.8387, 585.9531
534.3208, 546.6571
534.8029, 522.9808
535.2850, 508.5189
535.7672, 508.7404
536.2493, 514.3548
536.7314, 511.6708
537.2135, 495.3788
537.6956, 473.7511
538.1777, 457.2654
538.6599, 445.0084
539.1420, 428.2094
539.6241, 403.3138
540.1062, 380.4195
540.5883, 367.3473
541.0704, 362.4017
541.5526, 358.1184
542.0347, 354.6344
542.5168, 351.2035
542.9989, 352.6821
543.4810, 351.6764
543.9631, 331.7151
544.4453, 293.5905
544.9274, 263.1516
545.4095, 267.8292
545.8916, 303.9541
546.3737, 322.6136
546.8558, 316.3448
547.3380, 304.7390
547.8201, 287.2263
548.3022, 270.3236
548.7843, 260.8067
549.2664, 259.3048
549.7485, 258.7358
550.2307, 250.8571
550.7128, 242.7336
551.1949, 252.1597
551.6770, 277.8998
552.1591, 290.3368
552.6412, 271.2969
553.1234, 234.9467
553.6055, 212.9882
554.0876, 211.3619
554.5697, 214.5736
555.0518, 232.7215
555.5339, 246.7080
556.0161, 240.3148
556.4982, 220.0583
556.9803, 203.4027
557.4624, 199.8998
557.9445, 203.6459
558.4266, 203.9156
558.9088, 200.3806
559.3909, 199.5042
559.8730, 202.5038
560.3551, 208.2082
560.8372, 221.9622
561.3193, 239.3632
561.8015, 240.6687
562.2836, 204.3513
562.7657, 170.8828
563.2478, 164.3141
563.7299, 173.9630
564.2120, 184.5050
564.6942, 191.3381
565.1763, 193.7912
565.6584, 189.6998
566.1405, 179.0985
566.6226, 177.3255
567.1047, 195.6501
567.5869, 205.0795
568.0690, 190.5872
568.5511, 168.7033
569.0332, 154.6803
569.5153, 151.0175
569.9974, 154.0695
570.4796, 167.4997
570.9617, 183.6046
571.4438, 188.0388
571.9259, 181.1599
572.4080, 175.8923
572.8901, 179.4481
573.3723, 187.2578
573.8544, 188.7136
574.3365, 178.3800
574.8186, 172.6045
575.3007, 173.5816
575.7828, 176.7458
576.2650, 180.8218
576.7471, 184.9955
577.2292, 187.9935
577.7113, 189.0271
578.1934, 189.6855
578.6755, 194.4025
579.1577, 202.2662
579.6398, 200.5443
580.1219, 183.5625
580.6040, 167.4165
581.0861, 165.1442
581.5682, 175.6313
582.0504, 187.2356
582.5325, 206.2027
583.0146, 218.6180
583.4967, 220.3728
583.9788, 213.3305
584.4609, 193.2201
584.9431, 163.6655
585.4252, 142.8053
585.9073, 147.9058
586.3894, 172.2136
586.8715, 185.5427
587.3536, 185.5176
587.8358, 182.3875
588.3179, 175.5903
588.8000, 169.5661
589.2821, 168.9806
589.7642, 173.5969
590.2463, 178.4076
590.7285, 180.6083
591.2106, 183.6349
591.6927, 192.4232
592.1748, 204.0045
592.6569, 211.3896
593.1390, 212.1793
593.6212, 208.3134
594.1033, 202.4055
594.5854, 194.5902
595.0675, 182.7103
595.5496, 157.4749
596.0317, 141.5401
596.5139, 150.7132
596.9960, 167.9827
597.4781, 172.0212
597.9602, 158.1155
598.4423, 144.4856
598.9244, 143.0426
599.4066, 148.4804
599.8887, 153.0907
600.3708, 156.5543
600.8529, 161.0925
601.3350, 167.9313
601.8171, 176.4570
602.2993, 185.5725
602.7814, 197.0134
603.2635, 205.0542
603.7456, 209.3307
604.2277, 210.9892
604.7098, 210.3829
605.1920, 207.5607
605.6741, 201.8814
606.1562, 192.5067
606.6383, 183.2099
607.1204, 174.8727
607.6025, 169.7114
608.0847, 179.6892
608.5668, 207.8513
609.0489, 227.7453
609.5310, 218.2881
610.0131, 186.8274
610.4952, 165.3771
610.9774, 162.5689
611.4595, 158.0109
611.9416, 147.2659
612.4237, 137.5835
612.9058, 137.5735
613.3879, 143.4094
613.8701, 141.9052
614.3522, 123.1152
614.8343, 100.0204
615.3164, 94.41211
615.7985, 104.2363
616.2806, 111.1402
