##NAMES=Fiedlerite
##RRUFFID=R060859
##IDEAL CHEMISTRY=Pb^2+^_3_Cl_4_F(OH)&#183;H_2_O
##LOCALITY=Laurium, Attica, Greece
##OWNER=RRUFF
##SOURCE=Michael Scott
##DESCRIPTION=Colorless prismatic crystals associated with phosgenite, polytype 1A
##STATUS=The identification of this mineral is confirmed by single-crystal X-ray diffraction and chemical analysis.
##URL=rruff.info/R060859
##MEASURED CHEMISTRY=Pb_3.00_Cl_4.00_F_1.00_(OH)Â·H_2_O ; OH and H_2_O estimated by difference
137.9194, 32841.53
138.4015, 33128.86
138.8836, 33572.05
139.3657, 34149.48
139.8479, 34862.75
140.3300, 35716.18
140.8121, 36630.61
141.2942, 37641.92
141.7763, 38682.12
142.2584, 39749.25
142.7406, 40830.39
143.2227, 41897.98
143.7048, 42938.52
144.1869, 43959.33
144.6690, 44903.83
145.1511, 45791.49
145.6333, 46589.83
146.1154, 47300.94
146.5975, 47914.14
147.0796, 48402.55
147.5617, 48729.19
148.0438, 48885.80
148.5260, 48888.05
149.0081, 48774.90
149.4902, 48515.38
149.9723, 48063.02
150.4544, 47421.71
150.9365, 46658.75
151.4187, 45870.37
151.9008, 45027.16
152.3829, 44202.06
152.8650, 43346.76
153.3471, 42532.50
153.8292, 41802.50
154.3114, 41168.38
154.7935, 40626.85
155.2756, 40174.14
155.7577, 39802.82
156.2398, 39554.99
156.7219, 39409.91
157.2041, 39385.75
157.6862, 39513.23
158.1683, 39798.27
158.6504, 40202.66
159.1325, 40656.31
159.6146, 41152.79
160.0968, 41719.88
160.5789, 42370.16
161.0610, 43078.39
161.5431, 43837.02
162.0252, 44641.69
162.5073, 45458.22
162.9895, 46216.14
163.4716, 46874.23
163.9537, 47522.00
164.4358, 48216.27
164.9179, 48882.91
165.4000, 49445.72
165.8822, 49874.52
166.3643, 50178.57
166.8464, 50373.06
167.3285, 50433.00
167.8106, 50418.02
168.2927, 50341.34
168.7749, 50190.91
169.2570, 49940.65
169.7391, 49578.36
170.2212, 49134.75
170.7033, 48673.06
171.1854, 48196.26
171.6676, 47702.10
172.1497, 47187.84
172.6318, 46659.01
173.1139, 46125.86
173.5960, 45590.25
174.0781, 45049.65
174.5603, 44497.90
175.0424, 43921.27
175.5245, 43354.26
176.0066, 42818.46
176.4887, 42293.01
176.9708, 41739.96
177.4530, 41135.28
177.9351, 40510.84
178.4172, 39947.87
178.8993, 39450.93
179.3814, 38978.40
179.8635, 38537.80
180.3457, 38112.62
180.8278, 37667.71
181.3099, 37188.27
181.7920, 36689.81
182.2741, 36215.45
182.7562, 35761.52
183.2384, 35327.09
183.7205, 34924.07
184.2026, 34539.71
184.6847, 34144.37
185.1668, 33727.30
185.6489, 33301.50
186.1311, 32897.07
186.6132, 32510.38
187.0953, 32143.61
187.5774, 31808.12
188.0595, 31491.78
188.5416, 31173.36
189.0238, 30843.35
189.5059, 30508.41
189.9880, 30176.41
190.4701, 29841.49
190.9522, 29521.66
191.4343, 29217.12
191.9165, 28931.28
192.3986, 28673.41
192.8807, 28449.69
193.3628, 28246.29
193.8449, 28035.31
194.3270, 27811.27
194.8092, 27596.56
195.2913, 27393.61
195.7734, 27204.39
196.2555, 27037.24
196.7376, 26898.69
197.2197, 26772.13
197.7019, 26630.66
198.1840, 26477.39
198.6661, 26305.94
199.1482, 26092.74
199.6303, 25862.03
200.1124, 25661.94
200.5946, 25508.93
201.0767, 25381.01
201.5588, 25245.25
202.0409, 25102.91
202.5230, 24954.51
203.0051, 24804.77
203.4873, 24648.42
203.9694, 24470.39
204.4515, 24261.45
204.9336, 24049.16
205.4157, 23877.87
205.8978, 23748.61
206.3800, 23627.27
206.8621, 23500.70
207.3442, 23377.97
207.8263, 23270.27
208.3084, 23178.35
208.7905, 23108.73
209.2727, 23083.16
209.7548, 23105.99
210.2369, 23112.86
210.7190, 23062.09
211.2011, 22998.25
211.6832, 22989.21
212.1654, 23052.85
212.6475, 23134.42
213.1296, 23160.57
213.6117, 23125.92
214.0938, 23128.94
214.5760, 23203.95
215.0581, 23315.39
215.5402, 23435.35
216.0223, 23560.62
216.5044, 23667.13
216.9865, 23723.56
217.4687, 23727.11
217.9508, 23735.23
218.4329, 23756.51
218.9150, 23783.25
219.3971, 23809.89
219.8792, 23835.91
220.3614, 23859.18
220.8435, 23879.82
221.3256, 23897.15
221.8077, 23900.45
222.2898, 23885.56
222.7719, 23859.02
223.2541, 23820.53
223.7362, 23771.55
224.2183, 23725.22
224.7004, 23691.13
225.1825, 23670.14
225.6646, 23657.59
226.1468, 23656.88
226.6289, 23660.98
227.1110, 23662.91
227.5931, 23663.95
228.0752, 23672.99
228.5573, 23697.02
229.0395, 23735.46
229.5216, 23774.87
230.0037, 23815.56
230.4858, 23856.58
230.9679, 23894.22
231.4500, 23930.87
231.9322, 23976.68
232.4143, 24041.55
232.8964, 24118.99
233.3785, 24169.59
233.8606, 24195.99
234.3427, 24198.82
234.8249, 24177.05
235.3070, 24131.93
235.7891, 24062.98
236.2712, 23966.49
236.7533, 23850.69
237.2354, 23746.98
237.7176, 23670.29
238.1997, 23585.66
238.6818, 23494.15
239.1639, 23388.30
239.6460, 23251.73
240.1281, 23075.32
240.6103, 22875.61
241.0924, 22692.23
241.5745, 22545.78
242.0566, 22385.68
242.5387, 22200.59
243.0208, 22003.45
243.5030, 21800.66
243.9851, 21595.55
244.4672, 21403.51
244.9493, 21254.54
245.4314, 21188.75
245.9135, 21099.40
246.3957, 20966.60
246.8778, 20822.81
247.3599, 20693.03
247.8420, 20582.96
248.3241, 20489.21
248.8062, 20406.32
249.2884, 20332.37
249.7705, 20277.61
250.2526, 20243.89
250.7347, 20224.33
251.2168, 20219.69
251.6989, 20226.66
252.1811, 20234.85
252.6632, 20231.60
253.1453, 20210.95
253.6274, 20213.58
254.1095, 20266.62
254.5916, 20313.96
255.0738, 20331.05
255.5559, 20321.54
256.0380, 20302.01
256.5201, 20284.97
257.0022, 20270.41
257.4843, 20253.17
257.9665, 20235.69
258.4486, 20213.14
258.9307, 20194.70
259.4128, 20169.33
259.8949, 20120.17
260.3770, 20037.16
260.8592, 19922.24
261.3413, 19780.14
261.8234, 19583.01
262.3055, 19395.85
262.7876, 19249.18
263.2697, 19111.25
263.7519, 18945.11
264.2340, 18734.38
264.7161, 18491.40
265.1982, 18243.05
265.6803, 17981.46
266.1624, 17729.43
266.6446, 17491.80
267.1267, 17263.13
267.6088, 17041.43
268.0909, 16825.03
268.5730, 16610.54
269.0551, 16389.91
269.5373, 16159.00
270.0194, 15941.49
270.5015, 15746.43
270.9836, 15562.94
271.4657, 15382.33
271.9478, 15204.74
272.4300, 15043.80
272.9121, 14920.53
273.3942, 14834.14
273.8763, 14727.68
274.3584, 14570.04
274.8405, 14422.55
275.3227, 14325.23
275.8048, 14271.61
276.2869, 14231.13
276.7690, 14186.21
277.2511, 14140.47
277.7332, 14105.64
278.2154, 14081.51
278.6975, 14069.88
279.1796, 14070.14
279.6617, 14082.72
280.1438, 14111.22
280.6259, 14160.28
281.1081, 14224.04
281.5902, 14295.72
282.0723, 14375.95
282.5544, 14460.93
283.0365, 14542.60
283.5186, 14630.10
284.0008, 14740.49
284.4829, 14876.47
284.9650, 15034.84
285.4471, 15226.09
285.9292, 15443.99
286.4113, 15648.78
286.8935, 15820.81
287.3756, 15974.21
287.8577, 16137.87
288.3398, 16310.92
288.8219, 16493.61
289.3040, 16699.15
289.7862, 16912.30
290.2683, 17108.74
290.7504, 17281.37
291.2325, 17429.55
291.7146, 17548.08
292.1967, 17633.13
292.6789, 17708.79
293.1610, 17805.30
293.6431, 17878.40
294.1252, 17873.47
294.6073, 17785.23
295.0894, 17663.56
295.5716, 17559.61
296.0537, 17480.08
296.5358, 17361.39
297.0179, 17178.93
297.5000, 16982.47
297.9821, 16805.60
298.4643, 16640.69
298.9464, 16451.88
299.4285, 16210.85
299.9106, 15923.78
300.3927, 15660.22
300.8748, 15435.66
301.3570, 15215.22
301.8391, 14989.79
302.3212, 14764.79
302.8033, 14547.53
303.2854, 14340.99
303.7675, 14144.32
304.2497, 13950.91
304.7318, 13752.76
305.2139, 13573.50
305.6960, 13415.18
306.1781, 13273.12
306.6602, 13148.89
307.1424, 13041.13
307.6245, 12936.02
308.1066, 12808.52
308.5887, 12643.91
309.0708, 12516.92
309.5529, 12475.26
310.0351, 12435.71
310.5172, 12353.14
310.9993, 12235.56
311.4814, 12125.00
311.9635, 12058.09
312.4456, 12029.55
312.9278, 11993.81
313.4099, 11933.19
313.8920, 11895.42
314.3741, 11915.37
314.8562, 11968.38
315.3383, 12011.71
315.8205, 12023.49
316.3026, 12021.05
316.7847, 12031.53
317.2668, 12056.30
317.7489, 12086.32
318.2310, 12115.86
318.7132, 12150.24
319.1953, 12199.63
319.6774, 12272.07
320.1595, 12339.69
320.6416, 12378.62
321.1237, 12394.16
321.6059, 12407.81
322.0880, 12425.04
322.5701, 12443.42
323.0522, 12462.15
323.5343, 12482.41
324.0164, 12492.57
324.4986, 12493.04
324.9807, 12479.78
325.4628, 12443.60
325.9449, 12383.18
326.4270, 12315.27
326.9091, 12258.08
327.3913, 12212.41
327.8734, 12140.89
328.3555, 12030.57
328.8376, 11907.50
329.3197, 11779.67
329.8018, 11651.11
330.2840, 11527.80
330.7661, 11414.78
331.2482, 11309.45
331.7303, 11196.83
332.2124, 11064.67
332.6945, 10940.33
333.1767, 10834.86
333.6588, 10735.86
334.1409, 10626.58
334.6230, 10502.29
335.1051, 10373.95
335.5873, 10258.56
336.0694, 10164.67
336.5515, 10066.31
337.0336, 9962.182
337.5157, 9855.648
337.9979, 9738.927
338.4800, 9618.130
338.9621, 9513.042
339.4442, 9445.953
339.9263, 9414.441
340.4084, 9370.422
340.8906, 9298.353
341.3727, 9234.657
341.8548, 9203.484
342.3369, 9186.659
342.8190, 9153.252
343.3011, 9083.759
343.7833, 9000.326
344.2654, 8940.366
344.7475, 8907.030
345.2296, 8876.843
345.7117, 8843.669
346.1938, 8808.203
346.6760, 8771.093
347.1581, 8731.661
347.6402, 8693.549
348.1223, 8659.551
348.6044, 8628.681
349.0865, 8597.116
349.5687, 8563.028
350.0508, 8530.641
350.5329, 8507.469
351.0150, 8492.753
351.4971, 8471.901
351.9792, 8438.607
352.4614, 8400.772
352.9435, 8361.481
353.4256, 8322.620
353.9077, 8294.130
354.3898, 8286.953
354.8719, 8296.388
355.3541, 8282.580
355.8362, 8226.290
356.3183, 8174.311
356.8004, 8143.945
357.2825, 8124.458
357.7646, 8098.575
358.2468, 8059.674
358.7289, 8017.479
359.2110, 7990.436
359.6931, 7991.582
360.1752, 7983.013
360.6573, 7957.844
361.1395, 7930.143
361.6216, 7908.627
362.1037, 7893.388
362.5858, 7878.670
363.0679, 7857.766
363.5500, 7831.439
364.0322, 7817.683
364.5143, 7833.204
364.9964, 7838.288
365.4785, 7810.421
365.9606, 7767.488
366.4427, 7735.706
366.9249, 7727.144
367.4070, 7729.910
367.8891, 7726.483
368.3712, 7716.120
368.8533, 7706.759
369.3354, 7702.598
369.8176, 7698.614
370.2997, 7691.010
370.7818, 7679.768
371.2639, 7662.227
371.7460, 7627.887
372.2281, 7588.076
372.7103, 7570.442
373.1924, 7582.737
373.6745, 7592.511
374.1566, 7565.818
374.6387, 7505.745
375.1208, 7466.714
375.6030, 7472.221
376.0851, 7480.009
376.5672, 7460.347
377.0493, 7421.911
377.5314, 7391.137
378.0135, 7381.634
378.4957, 7386.392
378.9778, 7386.417
379.4599, 7387.783
379.9420, 7375.463
380.4241, 7340.148
380.9063, 7296.718
381.3884, 7256.864
381.8705, 7223.064
382.3526, 7191.808
382.8347, 7158.494
383.3168, 7121.796
383.7990, 7095.877
384.2811, 7096.628
384.7632, 7091.944
385.2453, 7069.158
385.7274, 7034.748
386.2095, 7000.372
386.6917, 6971.620
387.1738, 6946.190
387.6559, 6918.976
388.1380, 6888.741
388.6201, 6862.846
389.1022, 6842.073
389.5844, 6828.165
390.0665, 6827.040
390.5486, 6840.063
391.0307, 6845.514
391.5128, 6823.606
391.9949, 6785.480
392.4771, 6756.346
392.9592, 6740.140
393.4413, 6729.590
393.9234, 6721.741
394.4055, 6715.354
394.8876, 6700.322
395.3698, 6671.570
395.8519, 6638.425
396.3340, 6599.292
396.8161, 6559.899
397.2982, 6536.076
397.7803, 6536.242
398.2625, 6549.235
398.7446, 6550.456
399.2267, 6536.318
399.7088, 6514.125
400.1909, 6475.292
400.6730, 6434.972
401.1552, 6404.317
401.6373, 6383.880
402.1194, 6366.093
402.6015, 6342.889
403.0836, 6315.020
403.5657, 6302.253
404.0479, 6325.401
404.5300, 6334.494
405.0121, 6307.796
405.4942, 6262.743
405.9763, 6221.862
406.4584, 6192.959
406.9406, 6168.136
407.4227, 6133.856
407.9048, 6090.415
408.3869, 6061.119
408.8690, 6058.168
409.3511, 6062.190
409.8333, 6053.047
410.3154, 6031.994
410.7975, 6012.843
411.2796, 6003.646
411.7617, 5996.751
412.2438, 5980.641
412.7260, 5955.795
413.2081, 5935.261
413.6902, 5927.407
414.1723, 5930.013
414.6544, 5933.482
415.1365, 5941.403
415.6187, 5945.378
416.1008, 5945.635
416.5829, 5940.186
417.0650, 5923.345
417.5471, 5895.017
418.0292, 5866.158
418.5114, 5851.590
418.9935, 5855.533
419.4756, 5849.531
419.9577, 5824.932
420.4398, 5798.839
420.9219, 5773.018
421.4041, 5750.220
421.8862, 5735.112
422.3683, 5731.018
422.8504, 5732.630
423.3325, 5731.945
423.8146, 5729.999
424.2968, 5719.136
424.7789, 5693.238
425.2610, 5660.606
425.7431, 5623.704
426.2252, 5582.853
426.7073, 5556.942
427.1895, 5569.169
427.6716, 5596.497
428.1537, 5599.308
428.6358, 5574.235
429.1179, 5548.847
429.6000, 5543.068
430.0822, 5552.422
430.5643, 5551.175
431.0464, 5530.505
431.5285, 5511.146
432.0106, 5501.671
432.4927, 5495.791
432.9749, 5484.070
433.4570, 5464.317
433.9391, 5442.876
434.4212, 5427.747
434.9033, 5419.559
435.3854, 5414.858
435.8676, 5420.730
436.3497, 5422.889
436.8318, 5415.638
437.3139, 5401.188
437.7960, 5382.957
438.2781, 5361.371
438.7603, 5340.525
439.2424, 5329.759
439.7245, 5330.794
440.2066, 5328.900
440.6887, 5317.597
441.1708, 5304.502
441.6530, 5297.993
442.1351, 5297.861
442.6172, 5295.250
443.0993, 5282.680
443.5814, 5267.201
444.0635, 5258.755
444.5457, 5257.648
445.0278, 5258.268
445.5099, 5257.473
445.9920, 5255.519
446.4741, 5253.643
446.9562, 5252.520
447.4384, 5250.551
447.9205, 5251.276
448.4026, 5249.021
448.8847, 5235.961
449.3668, 5211.608
449.8489, 5183.843
450.3311, 5160.094
450.8132, 5140.444
451.2953, 5126.186
451.7774, 5122.953
452.2595, 5118.640
452.7416, 5105.380
453.2238, 5090.597
453.7059, 5086.060
454.1880, 5097.615
454.6701, 5111.734
455.1522, 5111.250
455.6343, 5097.240
456.1165, 5083.918
456.5986, 5073.458
457.0807, 5064.961
457.5628, 5058.128
458.0449, 5052.605
458.5270, 5046.790
459.0092, 5035.659
459.4913, 5027.960
459.9734, 5032.729
460.4555, 5046.876
460.9376, 5062.856
461.4197, 5078.425
461.9019, 5087.654
462.3840, 5076.032
462.8661, 5020.410
463.3482, 4987.120
463.8303, 4995.147
464.3124, 5007.994
464.7946, 5001.646
465.2767, 4979.011
465.7588, 4957.628
466.2409, 4950.537
466.7230, 4952.408
467.2051, 4943.333
467.6873, 4917.512
468.1694, 4898.261
468.6515, 4897.752
469.1336, 4903.937
469.6157, 4908.592
470.0978, 4911.003
470.5800, 4907.875
471.0621, 4889.230
471.5442, 4866.643
472.0263, 4863.973
472.5084, 4883.226
472.9905, 4900.001
473.4727, 4898.042
473.9548, 4879.950
474.4369, 4859.896
474.9190, 4830.061
475.4011, 4808.399
475.8832, 4802.763
476.3654, 4804.477
476.8475, 4804.885
477.3296, 4802.148
477.8117, 4798.910
478.2938, 4798.287
478.7759, 4800.311
479.2581, 4800.033
479.7402, 4801.479
480.2223, 4794.310
480.7044, 4763.696
481.1865, 4728.645
481.6686, 4715.250
482.1508, 4732.895
482.6329, 4755.931
483.1150, 4762.531
483.5971, 4755.184
484.0792, 4741.673
484.5613, 4721.338
485.0435, 4702.547
485.5256, 4692.823
486.0077, 4691.804
486.4898, 4689.821
486.9719, 4685.725
487.4540, 4681.694
487.9362, 4679.303
488.4183, 4677.343
488.9004, 4673.039
489.3825, 4665.698
489.8646, 4658.835
490.3467, 4658.290
490.8289, 4666.719
491.3110, 4667.420
491.7931, 4648.841
492.2752, 4634.452
492.7573, 4637.931
493.2394, 4648.958
493.7216, 4649.264
494.2037, 4630.077
494.6858, 4605.386
495.1679, 4592.181
495.6500, 4589.151
496.1321, 4584.134
496.6143, 4573.471
497.0964, 4563.473
497.5785, 4563.354
498.0606, 4571.606
498.5427, 4570.801
499.0248, 4544.250
499.5070, 4523.193
499.9891, 4534.113
500.4712, 4561.789
500.9533, 4573.480
501.4355, 4557.102
501.9176, 4530.448
502.3997, 4522.514
502.8818, 4540.847
503.3639, 4549.481
503.8460, 4541.998
504.3282, 4530.879
504.8103, 4516.941
505.2924, 4503.173
505.7745, 4494.667
506.2566, 4494.417
506.7387, 4497.410
507.2209, 4497.887
507.7030, 4495.979
508.1851, 4492.542
508.6672, 4487.010
509.1493, 4481.643
509.6314, 4479.785
510.1136, 4481.031
510.5957, 4478.791
511.0778, 4468.563
511.5599, 4458.599
512.0420, 4450.928
512.5241, 4447.185
513.0062, 4452.669
513.4883, 4468.974
513.9705, 4486.618
514.4526, 4490.112
514.9347, 4475.441
515.4168, 4464.145
515.8989, 4461.539
516.3810, 4456.733
516.8632, 4443.556
517.3453, 4426.145
517.8274, 4411.083
518.3095, 4400.467
518.7916, 4394.102
519.2737, 4393.792
519.7559, 4398.247
520.2380, 4401.034
520.7201, 4400.775
521.2022, 4399.055
521.6843, 4397.825
522.1664, 4396.863
522.6486, 4391.930
523.1307, 4373.852
523.6128, 4362.033
524.0949, 4372.273
524.5770, 4390.317
525.0591, 4393.960
525.5413, 4377.527
526.0234, 4354.853
526.5055, 4342.781
526.9876, 4342.016
527.4697, 4342.220
527.9518, 4347.064
528.4340, 4347.368
528.9161, 4334.159
529.3982, 4316.925
529.8803, 4310.469
530.3624, 4320.937
530.8445, 4329.725
531.3267, 4319.412
531.8088, 4298.038
532.2909, 4283.872
532.7730, 4279.672
533.2551, 4279.493
533.7372, 4280.404
534.2194, 4281.484
534.7015, 4274.166
535.1836, 4244.529
535.6657, 4225.055
536.1478, 4225.210
536.6299, 4234.806
537.1121, 4246.429
537.5942, 4257.721
538.0763, 4267.339
538.5584, 4274.691
539.0405, 4279.340
539.5226, 4277.887
540.0048, 4267.518
540.4869, 4260.498
540.9690, 4266.282
541.4511, 4274.628
541.9332, 4271.583
542.4153, 4255.048
542.8975, 4239.980
543.3796, 4231.521
543.8617, 4227.586
544.3438, 4228.872
544.8259, 4233.498
545.3080, 4233.432
545.7902, 4223.541
546.2723, 4208.207
546.7544, 4199.017
547.2365, 4197.483
547.7186, 4199.402
548.2007, 4213.000
548.6829, 4222.120
549.1650, 4212.580
549.6471, 4190.894
550.1292, 4176.144
550.6113, 4180.292
551.0934, 4192.018
551.5756, 4197.362
552.0577, 4196.412
552.5398, 4188.592
553.0219, 4171.267
553.5040, 4153.727
553.9861, 4146.706
554.4683, 4151.519
554.9504, 4154.576
555.4325, 4158.373
555.9146, 4157.696
556.3967, 4141.344
556.8788, 4122.470
557.3610, 4124.883
557.8431, 4154.061
558.3252, 4185.443
558.8073, 4184.289
559.2894, 4150.147
559.7715, 4136.248
560.2537, 4154.445
560.7358, 4170.229
561.2179, 4158.933
561.7000, 4138.647
562.1821, 4134.578
562.6642, 4154.724
563.1464, 4172.155
563.6285, 4174.280
564.1106, 4165.468
564.5927, 4146.801
565.0748, 4120.886
565.5569, 4100.146
566.0391, 4093.372
566.5212, 4097.193
567.0033, 4099.268
567.4854, 4100.197
567.9675, 4098.131
568.4496, 4089.581
568.9318, 4081.295
569.4139, 4077.782
569.8960, 4078.406
570.3781, 4080.214
570.8602, 4084.143
571.3423, 4085.445
571.8245, 4072.010
572.3066, 4047.241
572.7887, 4037.350
573.2708, 4053.122
573.7529, 4074.357
574.2350, 4076.283
574.7172, 4055.671
575.1993, 4047.700
575.6814, 4072.570
576.1635, 4086.319
576.6456, 4057.196
577.1277, 4015.156
577.6099, 4002.889
578.0920, 4030.122
578.5741, 4064.671
579.0562, 4068.694
579.5383, 4046.738
580.0204, 4039.118
580.5026, 4050.581
580.9847, 4060.433
581.4668, 4057.575
581.9489, 4047.860
582.4310, 4040.956
582.9132, 4035.647
583.3953, 4037.521
583.8774, 4058.816
584.3596, 4079.811
584.8417, 4079.700
585.3238, 4062.944
585.8059, 4048.969
586.2880, 4048.801
586.7701, 4054.225
587.2523, 4044.994
587.7344, 4014.357
588.2165, 3996.818
588.6986, 4003.534
589.1807, 4014.269
589.6628, 4020.494
590.1450, 4022.011
590.6271, 4017.717
591.1092, 4002.728
591.5913, 3990.315
592.0734, 3994.840
592.5555, 4006.926
593.0377, 4007.363
593.5198, 3993.402
594.0019, 3978.422
594.4840, 3973.888
594.9661, 3978.380
595.4482, 3980.705
595.9304, 3975.020
596.4125, 3976.718
596.8946, 3996.387
597.3767, 4016.553
597.8588, 4022.449
598.3409, 4015.458
598.8231, 4008.914
599.3052, 4014.032
599.7873, 4020.383
600.2694, 4010.028
600.7515, 3986.938
601.2336, 3973.171
601.7158, 3976.873
602.1979, 3986.027
602.6800, 3985.456
603.1621, 3973.302
603.6442, 3967.710
604.1263, 3972.258
604.6085, 3978.553
605.0906, 3987.128
605.5727, 3994.802
606.0548, 3998.227
606.5369, 3996.666
607.0190, 3991.867
607.5012, 3984.123
607.9833, 3974.411
608.4654, 3964.969
608.9475, 3955.710
609.4296, 3948.265
609.9117, 3942.634
610.3939, 3940.266
610.8760, 3944.622
611.3581, 3959.190
611.8402, 3969.328
612.3223, 3975.607
612.8044, 3976.455
613.2866, 3964.374
613.7687, 3948.202
614.2508, 3944.595
614.7329, 3959.602
615.2150, 3977.935
615.6971, 3981.970
616.1793, 3972.948
616.6614, 3955.935
617.1435, 3927.364
617.6256, 3908.360
618.1077, 3913.694
618.5898, 3935.215
619.0720, 3953.141
619.5541, 3968.352
620.0362, 3978.455
620.5183, 3981.168
621.0004, 3980.249
621.4825, 3975.700
621.9647, 3969.933
622.4468, 3967.894
622.9289, 3972.138
623.4110, 3979.818
623.8931, 3989.073
624.3752, 3999.852
624.8574, 3998.240
625.3395, 3976.501
625.8216, 3957.934
626.3037, 3960.549
626.7858, 3977.877
627.2679, 3988.842
627.7501, 3989.221
628.2322, 3990.529
628.7143, 3993.745
629.1964, 4000.717
629.6785, 4016.992
630.1606, 4039.182
630.6428, 4056.250
631.1249, 4061.525
631.6070, 4058.870
632.0891, 4054.419
632.5712, 4047.635
