##NAMES=Fiedlerite
##RRUFFID=R060859
##IDEAL CHEMISTRY=Pb^2+^_3_Cl_4_F(OH)&#183;H_2_O
##LOCALITY=Laurium, Attica, Greece
##OWNER=RRUFF
##SOURCE=Michael Scott
##DESCRIPTION=Colorless prismatic crystals associated with phosgenite, polytype 1A
##STATUS=The identification of this mineral is confirmed by single-crystal X-ray diffraction and chemical analysis.
##URL=rruff.info/R060859
##MEASURED CHEMISTRY=Pb_3.00_Cl_4.00_F_1.00_(OH)Â·H_2_O ; OH and H_2_O estimated by difference
107.0595, 8948.614
107.5417, 10371.63
108.0238, 12031.62
108.5059, 13915.14
108.9880, 16014.52
109.4701, 18344.14
109.9522, 20936.64
110.4344, 23810.98
110.9165, 26722.71
111.3986, 29763.88
111.8807, 32807.93
112.3628, 35730.66
112.8449, 38636.00
113.3271, 41298.14
113.8092, 43661.31
114.2913, 45688.49
114.7734, 47587.53
115.2555, 49305.85
115.7376, 50945.44
116.2198, 52600.98
116.7019, 54262.08
117.1840, 55972.70
117.6661, 57782.95
118.1482, 59712.63
118.6303, 61684.87
119.1124, 63704.41
119.5946, 65733.95
120.0767, 67658.25
120.5588, 69371.10
121.0409, 70962.48
121.5230, 72536.49
122.0051, 74116.82
122.4873, 75673.45
122.9694, 77141.54
123.4515, 78537.26
123.9336, 79934.66
124.4157, 81306.08
124.8979, 82722.50
125.3800, 84306.93
125.8621, 86109.56
126.3442, 88105.77
126.8263, 90249.14
127.3084, 92516.80
127.7905, 95010.96
128.2727, 97800.22
128.7548, 100879.8
129.2369, 104189.2
129.7190, 107707.8
130.2011, 111435.8
130.6832, 115394.1
131.1654, 119625.5
131.6475, 124028.2
132.1296, 128541.1
132.6117, 133178.8
133.0938, 137698.2
133.5759, 142026.2
134.0581, 146164.2
134.5402, 149914.8
135.0223, 153341.3
135.5044, 156342.6
135.9865, 158596.5
136.4686, 160087.5
136.9508, 160881.2
137.4329, 161003.2
137.9150, 160447.4
138.3971, 159267.1
138.8792, 157395.7
139.3613, 154873.5
139.8434, 152057.6
140.3256, 148854.6
140.8077, 145480.5
141.2898, 142083.1
141.7719, 138660.8
142.2540, 135297.0
142.7361, 132020.8
143.2183, 128776.8
143.7004, 125770.1
144.1825, 122996.7
144.6646, 120451.3
145.1467, 118190.4
145.6288, 116232.0
146.1110, 114488.8
146.5931, 112939.0
147.0752, 111596.8
147.5573, 110379.3
148.0394, 109327.9
148.5215, 108402.9
149.0037, 107476.2
149.4858, 106592.3
149.9679, 105682.1
150.4500, 104706.6
150.9321, 103599.4
151.4142, 102522.9
151.8964, 101487.6
152.3785, 100495.7
152.8606, 99543.38
153.3427, 98621.06
153.8248, 97745.94
154.3069, 96930.82
154.7890, 96097.67
155.2712, 95403.05
155.7533, 94880.55
156.2354, 94537.91
156.7175, 94323.71
157.1996, 94221.29
157.6817, 94243.09
158.1639, 94398.65
158.6460, 94723.84
159.1281, 95147.14
159.6102, 95643.76
160.0923, 96207.87
160.5744, 96839.51
161.0566, 97549.96
161.5387, 98317.25
162.0208, 99112.48
162.5029, 99992.91
162.9850, 100842.1
163.4671, 101602.1
163.9493, 102255.7
164.4314, 102816.6
164.9135, 103322.5
165.3956, 103741.3
165.8777, 104006.3
166.3598, 104078.3
166.8420, 103993.6
167.3241, 103784.1
167.8062, 103466.6
168.2883, 103016.8
168.7704, 102392.5
169.2525, 101616.4
169.7346, 100757.8
170.2168, 99835.00
170.6989, 98870.83
171.1810, 97893.19
171.6631, 96899.95
172.1452, 95907.88
172.6273, 94918.07
173.1095, 93937.12
173.5916, 92949.28
174.0737, 91906.68
174.5558, 90850.98
175.0379, 89870.46
175.5201, 89053.84
176.0022, 88275.14
176.4843, 87374.24
176.9664, 86354.95
177.4485, 85310.92
177.9306, 84338.77
178.4128, 83413.34
178.8949, 82449.09
179.3770, 81371.82
179.8591, 80242.59
180.3412, 79159.48
180.8233, 78114.27
181.3055, 77112.35
181.7876, 76159.38
182.2697, 75252.52
182.7518, 74339.17
183.2339, 73392.19
183.7160, 72421.89
184.1982, 71473.39
184.6803, 70543.34
185.1624, 69656.23
185.6445, 68855.84
186.1266, 68139.08
186.6087, 67414.94
187.0908, 66620.95
187.5730, 65773.02
188.0551, 64976.80
188.5372, 64234.63
189.0193, 63539.85
189.5014, 62873.90
189.9835, 62231.38
190.4657, 61593.49
190.9478, 60934.67
191.4299, 60257.02
191.9120, 59631.17
192.3941, 59076.22
192.8762, 58567.10
193.3584, 58047.28
193.8405, 57518.36
194.3226, 56989.75
194.8047, 56472.61
195.2868, 55967.39
195.7689, 55477.23
196.2511, 55000.57
196.7332, 54535.21
197.2153, 54060.88
197.6974, 53564.23
198.1795, 53112.14
198.6616, 52797.62
199.1438, 52632.54
199.6259, 52408.31
200.1080, 52064.50
200.5901, 51621.32
201.0722, 51208.61
201.5543, 50822.45
202.0364, 50467.96
202.5186, 50160.13
203.0007, 49905.94
203.4828, 49643.98
203.9649, 49354.02
204.4470, 49035.90
204.9291, 48726.90
205.4113, 48423.21
205.8934, 48127.74
206.3755, 47842.47
206.8576, 47565.18
207.3397, 47303.86
207.8218, 47058.26
208.3040, 46828.21
208.7861, 46627.23
209.2682, 46456.69
209.7503, 46319.60
210.2324, 46224.54
210.7145, 46180.72
211.1967, 46160.11
211.6788, 46156.77
212.1609, 46172.67
212.6430, 46200.74
213.1251, 46234.80
213.6072, 46289.47
214.0894, 46392.09
214.5715, 46555.55
215.0536, 46736.54
215.5357, 46917.80
216.0178, 47097.80
216.4999, 47284.56
216.9820, 47477.98
217.4642, 47672.39
217.9463, 47859.58
218.4284, 48030.36
218.9105, 48203.51
219.3926, 48394.28
219.8747, 48621.93
220.3569, 48794.70
220.8390, 48893.75
221.3211, 48946.42
221.8032, 49017.55
222.2853, 49109.11
222.7674, 49217.85
223.2496, 49343.67
223.7317, 49495.57
224.2138, 49646.93
224.6959, 49787.27
225.1780, 49931.50
225.6601, 50138.27
226.1423, 50453.26
226.6244, 50756.90
227.1065, 50974.81
227.5886, 51036.91
228.0707, 51179.86
228.5528, 51437.07
229.0350, 51778.83
229.5171, 52098.60
229.9992, 52391.19
230.4813, 52675.14
230.9634, 52962.64
231.4455, 53273.64
231.9276, 53552.41
232.4098, 53805.51
232.8919, 54027.14
233.3740, 54173.71
233.8561, 54222.41
234.3382, 54229.86
234.8203, 54231.97
235.3025, 54255.92
235.7846, 54220.55
236.2667, 54123.02
236.7488, 53962.76
237.2309, 53735.63
237.7130, 53424.25
238.1952, 53073.29
238.6773, 52714.28
239.1594, 52374.14
239.6415, 51972.00
240.1236, 51480.09
240.6057, 50913.70
241.0879, 50351.62
241.5700, 49796.13
242.0521, 49250.39
242.5342, 48718.88
243.0163, 48207.45
243.4984, 47694.99
243.9806, 47167.86
244.4627, 46632.04
244.9448, 46141.81
245.4269, 45720.97
245.9090, 45313.22
246.3911, 44869.40
246.8732, 44344.95
247.3554, 43874.05
247.8375, 43488.80
248.3196, 43176.59
248.8017, 42829.58
249.2838, 42418.46
249.7659, 42014.67
250.2481, 41669.61
250.7302, 41412.30
251.2123, 41154.61
251.6944, 40878.09
252.1765, 40592.63
252.6586, 40352.78
253.1408, 40176.40
253.6229, 40026.24
254.1050, 39876.69
254.5871, 39735.94
255.0692, 39583.11
255.5513, 39408.70
256.0334, 39218.83
256.5156, 39049.68
256.9977, 38909.90
257.4798, 38777.02
257.9619, 38633.69
258.4440, 38473.00
258.9261, 38314.49
259.4083, 38170.42
259.8904, 38031.65
260.3725, 37833.47
260.8546, 37553.61
261.3367, 37241.82
261.8188, 36940.93
262.3010, 36666.84
262.7831, 36346.04
263.2652, 35953.35
263.7473, 35502.72
264.2294, 35066.70
264.7115, 34668.58
265.1937, 34250.30
265.6758, 33761.16
266.1579, 33184.39
266.6400, 32620.38
267.1221, 32089.46
267.6042, 31583.99
268.0864, 31088.49
268.5685, 30598.53
269.0506, 30118.88
269.5327, 29651.17
270.0148, 29195.51
270.4969, 28753.63
270.9791, 28326.38
271.4612, 27912.02
271.9433, 27519.43
272.4254, 27150.43
272.9075, 26801.65
273.3896, 26470.25
273.8718, 26156.44
274.3539, 25879.79
274.8360, 25644.56
275.3181, 25445.45
275.8002, 25260.42
276.2823, 25089.42
276.7645, 24931.81
277.2466, 24778.82
277.7287, 24627.05
278.2108, 24514.76
278.6929, 24447.70
279.1750, 24420.55
279.6572, 24420.60
280.1393, 24448.68
280.6214, 24497.68
281.1035, 24555.87
281.5856, 24622.51
282.0677, 24737.19
282.5499, 24913.98
283.0320, 25131.60
283.5141, 25333.34
283.9962, 25515.50
284.4783, 25716.52
284.9604, 25963.15
285.4425, 26255.45
285.9247, 26567.89
286.4068, 26895.14
286.8889, 27243.73
287.3710, 27629.37
287.8531, 28052.66
288.3352, 28489.25
288.8174, 28929.94
289.2995, 29373.20
289.7816, 29812.79
290.2637, 30240.08
290.7458, 30659.79
291.2279, 31093.56
291.7101, 31536.74
292.1922, 31925.06
292.6743, 32209.21
293.1564, 32404.71
293.6385, 32563.28
294.1206, 32693.41
294.6028, 32772.33
295.0849, 32778.89
295.5670, 32712.09
296.0491, 32561.63
296.5312, 32300.35
297.0133, 31955.61
297.4955, 31586.09
297.9776, 31203.47
298.4597, 30796.07
298.9418, 30352.51
299.4239, 29877.15
299.9060, 29388.55
300.3882, 28884.12
300.8703, 28376.57
301.3524, 27896.25
301.8345, 27444.70
302.3166, 27013.12
302.7987, 26583.96
303.2809, 26165.33
303.7630, 25765.75
304.2451, 25396.31
304.7272, 25046.71
305.2093, 24711.49
305.6914, 24385.61
306.1736, 24078.22
306.6557, 23784.73
307.1378, 23509.78
307.6199, 23260.08
308.1020, 23047.21
308.5841, 22853.38
309.0663, 22652.79
309.5484, 22443.86
310.0305, 22275.21
310.5126, 22208.99
310.9947, 22190.40
311.4768, 22152.10
311.9590, 22015.73
312.4411, 21895.11
312.9232, 21877.71
313.4053, 21956.05
313.8874, 22035.78
314.3695, 22051.42
314.8517, 22054.29
315.3337, 22093.43
315.8159, 22205.32
316.2980, 22334.43
316.7801, 22466.79
317.2622, 22600.42
317.7443, 22727.36
318.2264, 22826.69
318.7086, 22927.78
319.1907, 23051.78
319.6728, 23223.40
320.1549, 23393.88
320.6370, 23557.44
321.1191, 23711.25
321.6013, 23845.59
322.0834, 23957.56
322.5655, 24047.51
323.0476, 24114.54
323.5297, 24153.61
324.0118, 24176.42
324.4940, 24193.00
324.9761, 24194.29
325.4582, 24158.83
325.9403, 24083.66
326.4224, 23971.16
326.9045, 23820.33
327.3867, 23623.35
327.8688, 23402.96
328.3509, 23151.25
328.8330, 22878.69
329.3151, 22597.76
329.7972, 22312.97
330.2794, 22015.01
330.7615, 21695.54
331.2436, 21344.59
331.7257, 21008.22
332.2078, 20693.73
332.6899, 20387.34
333.1721, 20070.03
333.6542, 19740.10
334.1363, 19407.13
334.6184, 19064.98
335.1005, 18714.92
335.5826, 18389.18
336.0648, 18086.71
336.5469, 17809.70
337.0290, 17558.19
337.5111, 17334.69
337.9932, 17126.69
338.4753, 16938.24
338.9575, 16765.07
339.4396, 16566.41
339.9217, 16331.60
340.4038, 16096.94
340.8859, 15891.30
341.3680, 15719.26
341.8502, 15545.52
342.3323, 15366.57
342.8144, 15184.66
343.2965, 15009.76
343.7786, 14839.14
344.2607, 14689.22
344.7429, 14585.41
345.2250, 14521.48
345.7071, 14423.46
346.1892, 14271.22
346.6713, 14102.72
347.1534, 13979.19
347.6355, 13898.54
348.1176, 13826.14
348.5998, 13739.30
349.0819, 13644.33
349.5640, 13559.44
350.0461, 13485.28
350.5282, 13417.08
351.0103, 13348.00
351.4925, 13278.91
351.9746, 13211.91
352.4567, 13151.90
352.9388, 13093.41
353.4209, 13030.91
353.9030, 12964.50
354.3852, 12889.42
354.8673, 12787.83
355.3494, 12677.22
355.8315, 12586.61
356.3136, 12546.63
356.7957, 12518.10
357.2779, 12467.89
357.7600, 12398.04
358.2421, 12331.94
358.7242, 12291.94
359.2063, 12258.19
359.6884, 12210.04
360.1706, 12127.00
360.6527, 12045.87
361.1348, 11982.03
361.6169, 11933.49
362.0990, 11894.24
362.5811, 11868.04
363.0633, 11845.46
363.5454, 11821.19
364.0275, 11795.75
364.5096, 11765.52
364.9917, 11729.06
365.4738, 11687.20
365.9560, 11641.50
366.4381, 11593.62
366.9202, 11541.60
367.4023, 11482.24
367.8844, 11409.13
368.3665, 11347.46
368.8487, 11303.41
369.3308, 11269.66
369.8129, 11237.73
370.2950, 11204.87
370.7771, 11177.83
371.2592, 11161.92
371.7414, 11158.68
372.2235, 11141.85
372.7056, 11108.60
373.1877, 11064.00
373.6698, 11008.83
374.1519, 10931.59
374.6341, 10873.97
375.1162, 10848.19
375.5983, 10847.26
376.0804, 10836.63
376.5625, 10814.99
377.0446, 10787.08
377.5267, 10755.40
378.0089, 10719.40
378.4910, 10684.74
378.9731, 10655.05
379.4552, 10623.20
379.9373, 10567.63
380.4194, 10486.47
380.9016, 10417.77
381.3837, 10393.74
381.8658, 10403.40
382.3479, 10380.50
382.8300, 10317.73
383.3121, 10248.84
383.7943, 10226.32
384.2764, 10238.00
384.7585, 10232.76
385.2406, 10172.93
385.7227, 10088.20
386.2048, 10030.54
386.6870, 9999.084
387.1691, 9980.092
387.6512, 9972.352
388.1333, 9967.689
388.6154, 9952.920
389.0975, 9921.928
389.5797, 9881.406
390.0618, 9828.773
390.5439, 9768.561
391.0260, 9721.605
391.5081, 9715.194
391.9902, 9717.918
392.4724, 9704.508
392.9545, 9667.173
393.4366, 9621.785
393.9187, 9564.114
394.4008, 9505.037
394.8829, 9462.153
395.3651, 9459.785
395.8472, 9459.522
396.3293, 9444.411
396.8114, 9410.158
397.2935, 9376.287
397.7756, 9352.221
398.2578, 9327.109
398.7399, 9289.633
399.2220, 9213.977
399.7041, 9153.396
400.1862, 9121.241
400.6683, 9115.810
401.1505, 9100.368
401.6326, 9068.715
402.1147, 9033.595
402.5968, 9002.027
403.0789, 8973.310
403.5610, 8951.166
404.0432, 8940.554
404.5253, 8934.796
405.0074, 8913.831
405.4895, 8872.596
405.9716, 8830.792
406.4537, 8797.908
406.9359, 8774.252
407.4180, 8751.341
407.9001, 8730.053
408.3822, 8707.048
408.8643, 8675.104
409.3464, 8634.554
409.8285, 8596.974
410.3106, 8565.406
410.7928, 8540.428
411.2749, 8524.529
411.7570, 8517.807
412.2391, 8515.258
412.7212, 8517.025
413.2033, 8519.618
413.6855, 8513.529
414.1676, 8493.176
414.6497, 8469.081
415.1318, 8452.620
415.6139, 8442.419
416.0960, 8434.459
416.5782, 8436.275
417.0603, 8433.618
417.5424, 8408.547
418.0245, 8353.698
418.5066, 8300.765
418.9887, 8264.200
419.4709, 8241.236
419.9530, 8227.243
420.4351, 8236.297
420.9172, 8240.255
421.3993, 8222.438
421.8814, 8182.770
422.3636, 8151.315
422.8457, 8140.167
423.3278, 8136.820
423.8099, 8132.910
424.2920, 8134.803
424.7741, 8127.519
425.2563, 8104.989
425.7384, 8071.918
426.2205, 8045.156
426.7026, 8032.055
427.1847, 8015.554
427.6668, 7987.096
428.1490, 7940.537
428.6311, 7904.029
429.1132, 7877.090
429.5953, 7859.963
430.0774, 7857.404
430.5595, 7874.621
431.0417, 7880.376
431.5238, 7859.902
432.0059, 7820.067
432.4880, 7804.213
432.9701, 7815.876
433.4522, 7829.516
433.9344, 7821.587
434.4165, 7795.536
434.8986, 7772.010
435.3807, 7754.178
435.8628, 7740.929
436.3449, 7731.366
436.8271, 7725.242
437.3092, 7721.046
437.7913, 7723.500
438.2734, 7725.177
438.7555, 7712.501
439.2376, 7683.137
439.7197, 7655.442
440.2018, 7643.173
440.6840, 7641.459
441.1661, 7643.354
441.6482, 7653.926
442.1303, 7660.365
442.6124, 7654.574
443.0945, 7637.797
443.5767, 7618.490
444.0588, 7592.708
444.5409, 7570.009
445.0230, 7557.372
445.5051, 7564.591
445.9872, 7566.402
446.4694, 7556.295
446.9515, 7539.098
447.4336, 7523.500
447.9157, 7505.462
448.3978, 7494.377
448.8799, 7497.290
449.3621, 7517.291
449.8442, 7517.428
450.3263, 7486.758
450.8084, 7450.521
451.2905, 7431.996
451.7726, 7436.242
452.2548, 7437.680
452.7369, 7431.279
453.2190, 7420.530
453.7011, 7416.574
454.1832, 7420.307
454.6653, 7422.768
455.1475, 7419.721
455.6296, 7411.296
456.1117, 7395.983
456.5938, 7372.525
457.0759, 7349.337
457.5580, 7339.813
458.0402, 7339.524
458.5223, 7334.403
459.0044, 7310.845
459.4865, 7286.533
459.9686, 7285.726
460.4507, 7305.383
460.9329, 7325.189
461.4150, 7341.374
461.8971, 7346.429
462.3792, 7328.481
462.8613, 7270.511
463.3434, 7224.244
463.8256, 7226.196
464.3077, 7254.143
464.7898, 7270.523
465.2719, 7245.768
465.7540, 7225.139
466.2361, 7229.356
466.7183, 7262.780
467.2004, 7282.142
467.6825, 7276.479
468.1646, 7261.235
468.6467, 7245.782
469.1288, 7226.382
469.6110, 7213.662
470.0930, 7210.788
470.5752, 7213.999
471.0573, 7213.457
471.5394, 7209.359
472.0215, 7200.352
472.5036, 7182.678
472.9857, 7156.180
473.4679, 7140.686
473.9500, 7137.980
474.4321, 7140.280
474.9142, 7140.773
475.3963, 7139.364
475.8784, 7135.009
476.3606, 7128.262
476.8427, 7117.898
477.3248, 7099.528
477.8069, 7074.724
478.2890, 7051.596
478.7711, 7036.096
479.2533, 7025.057
479.7354, 7013.663
480.2175, 7000.469
480.6996, 6992.038
481.1817, 6999.399
481.6638, 7012.354
482.1460, 7016.977
482.6281, 6997.268
483.1102, 6978.523
483.5923, 6968.955
484.0744, 6968.188
484.5565, 6972.914
485.0387, 6996.937
485.5208, 7014.847
486.0029, 7011.311
486.4850, 6964.820
486.9671, 6937.814
487.4492, 6940.712
487.9314, 6957.815
488.4135, 6964.834
488.8956, 6958.066
489.3777, 6950.946
489.8598, 6948.338
490.3419, 6949.194
490.8241, 6941.598
491.3062, 6923.795
491.7883, 6905.753
492.2704, 6897.911
492.7525, 6898.475
493.2346, 6889.174
493.7168, 6865.105
494.1989, 6838.710
494.6810, 6827.786
495.1631, 6829.610
495.6452, 6834.080
496.1273, 6840.577
496.6095, 6844.668
497.0916, 6840.399
497.5737, 6828.048
498.0558, 6812.063
498.5379, 6783.652
499.0201, 6758.965
499.5022, 6755.941
499.9843, 6795.315
500.4664, 6826.853
500.9485, 6829.803
501.4306, 6813.307
501.9127, 6794.251
502.3948, 6762.274
502.8770, 6741.561
503.3591, 6745.695
503.8412, 6777.236
504.3233, 6791.811
504.8054, 6779.340
505.2875, 6760.297
505.7697, 6748.291
506.2518, 6743.727
506.7339, 6745.050
507.2160, 6755.056
507.6981, 6767.537
508.1802, 6766.679
508.6624, 6751.305
509.1445, 6741.958
509.6266, 6755.552
510.1087, 6781.812
510.5908, 6780.523
511.0729, 6751.149
511.5551, 6721.041
512.0372, 6716.282
512.5193, 6727.153
513.0014, 6736.349
513.4835, 6741.340
513.9656, 6741.235
514.4478, 6731.659
514.9299, 6716.492
515.4120, 6703.816
515.8941, 6690.302
516.3762, 6685.690
516.8583, 6700.750
517.3405, 6736.444
517.8226, 6762.156
518.3047, 6762.720
518.7868, 6756.233
519.2689, 6755.239
519.7510, 6773.752
520.2332, 6777.278
520.7153, 6758.237
521.1974, 6727.200
521.6795, 6702.951
522.1616, 6682.700
522.6437, 6678.070
523.1259, 6701.020
523.6080, 6746.285
524.0901, 6759.306
524.5722, 6734.945
525.0543, 6707.107
525.5364, 6705.233
526.0186, 6723.738
526.5007, 6739.133
526.9828, 6748.349
527.4649, 6752.281
527.9470, 6747.308
528.4291, 6737.497
528.9113, 6732.978
529.3934, 6741.093
529.8755, 6754.307
530.3576, 6774.316
530.8397, 6798.287
531.3218, 6804.667
531.8040, 6763.040
532.2861, 6713.675
532.7682, 6686.657
533.2503, 6699.904
533.7324, 6705.592
534.2145, 6685.919
534.6967, 6659.230
535.1788, 6651.512
535.6609, 6680.211
536.1430, 6699.969
536.6251, 6698.063
537.1072, 6678.954
537.5894, 6672.860
538.0715, 6682.233
538.5536, 6696.737
539.0357, 6712.944
539.5178, 6730.270
539.9999, 6737.478
540.4821, 6732.029
540.9642, 6724.508
541.4463, 6730.200
541.9284, 6744.517
542.4105, 6752.562
542.8926, 6746.831
543.3748, 6735.743
543.8569, 6725.846
544.3390, 6717.813
544.8211, 6713.877
545.3032, 6714.708
545.7853, 6720.314
546.2675, 6734.629
546.7495, 6760.692
547.2316, 6775.360
547.7137, 6762.502
548.1959, 6740.822
548.6780, 6726.168
549.1601, 6721.529
549.6422, 6722.590
550.1243, 6735.205
550.6064, 6751.977
551.0886, 6750.417
551.5707, 6717.863
552.0528, 6700.752
552.5349, 6725.168
553.0170, 6784.898
553.4991, 6810.170
553.9813, 6797.596
554.4634, 6773.007
554.9455, 6755.623
555.4276, 6744.371
555.9097, 6736.034
556.3918, 6730.528
556.8740, 6726.583
557.3561, 6720.077
557.8382, 6714.317
558.3203, 6716.168
558.8024, 6736.358
559.2845, 6758.631
559.7667, 6777.168
560.2488, 6790.559
560.7309, 6792.125
561.2130, 6767.060
561.6951, 6739.178
562.1772, 6720.457
562.6594, 6713.255
563.1415, 6712.094
563.6236, 6716.199
564.1057, 6726.522
564.5878, 6747.239
565.0699, 6786.291
565.5521, 6809.995
566.0342, 6808.651
566.5163, 6791.455
566.9984, 6784.174
567.4805, 6787.317
567.9626, 6791.483
568.4448, 6790.972
568.9269, 6787.927
569.4090, 6788.527
569.8911, 6792.857
570.3732, 6798.420
570.8553, 6800.991
571.3375, 6804.265
571.8196, 6814.634
572.3017, 6838.214
572.7838, 6858.012
573.2659, 6866.262
573.7480, 6864.414
574.2302, 6855.010
574.7123, 6823.801
575.1944, 6800.570
575.6765, 6796.504
576.1586, 6810.173
576.6407, 6824.164
577.1229, 6843.246
577.6050, 6856.719
578.0871, 6857.906
578.5692, 6844.022
579.0513, 6834.220
579.5334, 6828.413
580.0156, 6827.159
580.4977, 6834.385
580.9798, 6848.734
581.4619, 6855.702
581.9440, 6848.532
582.4261, 6838.770
582.9083, 6847.297
583.3904, 6868.765
583.8725, 6885.373
584.3546, 6883.921
584.8367, 6876.396
585.3188, 6867.478
585.8010, 6858.236
586.2831, 6861.815
586.7652, 6903.374
587.2473, 6946.249
587.7294, 6964.883
588.2115, 6940.450
588.6937, 6922.916
589.1758, 6914.937
589.6579, 6914.641
590.1400, 6920.777
590.6221, 6936.519
591.1042, 6950.599
591.5864, 6960.859
592.0685, 6968.063
592.5506, 6976.785
593.0327, 6987.652
593.5148, 6989.158
593.9969, 6962.458
594.4791, 6923.131
594.9612, 6918.954
595.4433, 6950.072
595.9254, 6980.561
596.4075, 6971.185
596.8896, 6948.958
597.3718, 6950.262
597.8539, 6993.109
598.3360, 7033.005
598.8181, 7047.477
599.3002, 7046.146
599.7823, 7043.340
600.2645, 7044.163
600.7466, 7041.042
601.2287, 7029.478
601.7108, 7012.073
