##NAMES=Fillowite
##RRUFFID=R110143
##IDEAL CHEMISTRY=Na_2_CaMn^2+^_7_(PO_4_)_6_
##LOCALITY=Gottcha claim, Cross Lake, Manitoba, Canada
##OWNER=RRUFF
##SOURCE=Donald M Doell 
##DESCRIPTION=Reddish-brown, greasy, massive
##STATUS=The identification of this mineral has been confirmed by single-crystal X-ray diffraction.
##URL=rruff.info/R110143
176.4561, 204.3588
176.9382, 203.7988
177.4203, 203.4225
177.9024, 203.0634
178.3845, 202.9844
178.8666, 203.5247
179.3488, 204.6198
179.8309, 205.8084
180.3130, 206.4344
180.7951, 206.1735
181.2772, 206.0369
181.7593, 205.8125
182.2415, 205.8216
182.7236, 206.4901
183.2057, 207.8573
183.6878, 209.3743
184.1699, 210.1740
184.6520, 209.6229
185.1342, 209.6045
185.6163, 210.8448
186.0984, 212.3403
186.5805, 212.9076
187.0626, 212.1636
187.5447, 210.8370
188.0269, 210.1101
188.5090, 210.0295
188.9911, 210.1620
189.4732, 210.5347
189.9553, 211.0438
190.4374, 211.5150
190.9196, 211.9094
191.4017, 212.2311
191.8838, 212.5121
192.3659, 212.7667
192.8480, 212.8993
193.3301, 212.6673
193.8123, 212.2267
194.2944, 212.3071
194.7765, 213.7197
195.2586, 214.8822
195.7407, 213.8289
196.2228, 210.5182
196.7050, 207.5506
197.1871, 207.2164
197.6692, 209.3796
198.1513, 210.9264
198.6334, 210.6284
199.1155, 210.0487
199.5977, 210.2064
200.0798, 211.1657
200.5619, 212.4703
201.0440, 213.8503
201.5261, 215.3996
202.0082, 216.4431
202.4904, 216.3918
202.9725, 216.1623
203.4546, 216.1696
203.9367, 216.4751
204.4188, 216.9217
204.9009, 217.3847
205.3831, 217.9871
205.8652, 218.2005
206.3473, 217.7665
206.8294, 217.1602
207.3115, 216.5317
207.7936, 215.9634
208.2758, 215.5793
208.7579, 215.6714
209.2400, 216.9065
209.7221, 217.0738
210.2042, 215.4133
210.6863, 213.4158
211.1685, 212.0182
211.6506, 211.4314
212.1327, 211.3347
212.6148, 211.3002
213.0969, 211.4941
213.5790, 211.3555
214.0612, 210.6897
214.5433, 209.8415
215.0254, 209.0268
215.5075, 208.3145
215.9896, 207.7139
216.4717, 207.2901
216.9539, 207.2954
217.4360, 206.7897
217.9181, 205.1432
218.4002, 203.2829
218.8823, 202.1980
219.3644, 202.1350
219.8466, 202.4609
220.3287, 202.3967
220.8108, 201.9448
221.2929, 201.1003
221.7750, 199.2963
222.2571, 197.3117
222.7393, 196.2172
223.2214, 196.3096
223.7035, 196.8465
224.1856, 196.9437
224.6677, 196.6408
225.1498, 196.3701
225.6320, 196.2425
226.1141, 196.2148
226.5962, 196.2044
227.0783, 196.1810
227.5604, 196.2294
228.0425, 196.5336
228.5247, 197.0208
229.0068, 197.3748
229.4889, 197.2504
229.9710, 196.9243
230.4531, 197.1072
230.9352, 198.1084
231.4174, 199.1091
231.8995, 199.3767
232.3816, 199.1329
232.8637, 198.9642
233.3458, 198.9604
233.8279, 199.2286
234.3101, 200.2791
234.7922, 202.7133
235.2743, 204.9057
235.7564, 205.8120
236.2385, 205.8433
236.7206, 205.8159
237.2028, 206.1970
237.6849, 206.8843
238.1670, 207.4431
238.6491, 207.7992
239.1312, 208.1281
239.6133, 208.5965
240.0955, 209.0852
240.5776, 209.3412
241.0597, 209.0471
241.5418, 208.4440
242.0239, 208.7785
242.5060, 210.9336
242.9882, 212.8529
243.4703, 214.2999
243.9524, 215.0893
244.4345, 214.8030
244.9166, 212.9879
245.3987, 210.1578
245.8809, 208.8516
246.3630, 210.7007
246.8451, 212.0358
247.3272, 212.1249
247.8093, 211.2938
248.2914, 209.8820
248.7736, 208.0295
249.2557, 205.9010
249.7378, 204.1938
250.2199, 203.3225
250.7020, 202.3811
251.1841, 201.0337
251.6663, 199.6295
252.1484, 198.7259
252.6305, 198.6015
253.1126, 198.8728
253.5947, 198.3050
254.0768, 195.8314
254.5590, 193.7594
255.0411, 192.4175
255.5232, 191.4692
256.0053, 190.4617
256.4874, 189.2116
256.9695, 187.9670
257.4517, 187.3311
257.9338, 188.3439
258.4159, 188.7289
258.8980, 188.0055
259.3801, 186.8483
259.8622, 185.9253
260.3444, 185.4704
260.8265, 185.3283
261.3086, 185.2254
261.7907, 185.3959
262.2728, 185.1916
262.7549, 184.2294
263.2371, 183.0685
263.7192, 182.3638
264.2013, 182.2728
264.6834, 182.3115
265.1655, 181.7406
265.6476, 180.2254
266.1298, 178.8649
266.6119, 177.4886
267.0940, 176.3753
267.5761, 176.0167
268.0582, 176.4660
268.5403, 176.9382
269.0225, 176.4200
269.5046, 174.5625
269.9867, 173.3274
270.4688, 173.4699
270.9509, 173.8122
271.4330, 173.2468
271.9152, 171.6727
272.3973, 169.8545
272.8794, 168.4237
273.3615, 167.4328
273.8436, 166.8728
274.3257, 167.0186
274.8079, 167.3969
275.2900, 167.7732
275.7721, 168.1026
276.2542, 168.1365
276.7363, 167.5488
277.2184, 166.4404
277.7006, 165.7538
278.1827, 165.9613
278.6648, 166.2212
279.1469, 165.9863
279.6290, 165.2741
280.1111, 164.2700
280.5933, 162.9301
281.0754, 161.4266
281.5575, 160.3003
282.0396, 159.6840
282.5217, 159.2773
283.0038, 158.9089
283.4860, 158.5936
283.9681, 158.4277
284.4502, 158.5391
284.9323, 158.7559
285.4144, 158.7246
285.8965, 158.3903
286.3787, 157.9625
286.8608, 157.4394
287.3429, 156.8899
287.8250, 156.6023
288.3071, 156.7948
288.7892, 157.1205
289.2714, 157.0933
289.7535, 156.7068
290.2356, 156.1514
290.7177, 155.1817
291.1998, 154.0962
291.6819, 153.8151
292.1641, 154.8401
292.6462, 156.1274
293.1283, 156.5512
293.6104, 156.2083
294.0925, 155.5816
294.5746, 154.7700
295.0568, 153.8181
295.5389, 152.6915
296.0210, 151.2267
296.5031, 150.0707
296.9852, 150.0144
297.4673, 150.7374
297.9495, 151.4594
298.4316, 152.1535
298.9137, 152.6160
299.3958, 152.4053
299.8779, 151.3820
300.3600, 150.3205
300.8422, 149.6442
301.3243, 149.2978
301.8064, 149.2800
302.2885, 149.8763
302.7706, 150.5244
303.2527, 150.4718
303.7349, 149.6640
304.2170, 148.9387
304.6991, 148.7963
305.1812, 148.9173
305.6633, 148.8768
306.1454, 148.6084
306.6276, 148.2149
307.1097, 147.6368
307.5918, 146.9034
308.0739, 146.5632
308.5560, 147.1124
309.0381, 147.8625
309.5203, 148.0101
310.0024, 147.4910
310.4845, 146.8375
310.9666, 146.3780
311.4487, 146.0815
311.9308, 145.8283
312.4130, 145.6833
312.8951, 145.4391
313.3772, 144.8350
313.8593, 143.9286
314.3414, 143.1217
314.8235, 142.4270
315.3057, 141.9829
315.7878, 142.2991
316.2699, 143.7454
316.7520, 145.1601
317.2341, 145.6127
317.7162, 145.3953
318.1984, 145.0746
318.6805, 144.8602
319.1626, 144.6551
319.6447, 144.0998
320.1268, 143.0060
320.6089, 142.5286
321.0911, 144.4375
321.5732, 147.0636
322.0553, 147.8954
322.5374, 145.7169
323.0195, 142.7951
323.5016, 141.5070
323.9838, 141.8552
324.4659, 142.3452
324.9480, 142.5238
325.4301, 142.4790
325.9122, 142.2422
326.3943, 141.7367
326.8765, 141.4473
327.3586, 141.9699
327.8407, 143.1159
328.3228, 143.8095
328.8049, 143.7097
329.2870, 143.1920
329.7692, 142.5256
330.2513, 141.7372
330.7334, 141.1931
331.2155, 141.2537
331.6976, 141.6707
332.1797, 141.8915
332.6619, 141.8681
333.1440, 141.6197
333.6261, 140.9041
334.1082, 139.9497
334.5903, 139.3363
335.0724, 139.4145
335.5546, 139.8424
336.0367, 140.3698
336.5188, 141.0480
337.0009, 141.2074
337.4830, 139.9882
337.9651, 138.1284
338.4473, 137.0581
338.9294, 137.2721
339.4115, 137.7589
339.8936, 137.6986
340.3757, 137.1653
340.8578, 136.7361
341.3400, 136.6985
341.8221, 136.7866
342.3042, 136.5302
342.7863, 135.8367
343.2684, 135.3140
343.7505, 135.5421
344.2327, 136.1512
344.7148, 136.1246
345.1969, 135.0547
345.6790, 133.8357
346.1611, 133.5607
346.6432, 134.0814
347.1254, 134.7376
347.6075, 135.7835
348.0896, 136.6677
348.5717, 136.4966
349.0538, 135.1601
349.5359, 133.7457
350.0181, 133.0828
350.5002, 133.0213
350.9823, 132.7760
351.4644, 131.8815
351.9465, 131.1581
352.4286, 131.4687
352.9108, 132.5589
353.3929, 133.1416
353.8750, 132.4141
354.3571, 130.9709
354.8392, 130.3004
355.3214, 130.5731
355.8035, 131.0738
356.2856, 132.0492
356.7677, 132.9925
357.2498, 132.6970
357.7319, 130.6425
358.2141, 128.2647
358.6962, 127.6285
359.1783, 129.0063
359.6604, 130.3458
360.1425, 131.9175
360.6246, 133.0504
361.1068, 132.7460
361.5889, 131.0370
362.0710, 129.3663
362.5531, 128.9963
363.0352, 129.9191
363.5173, 130.4118
363.9995, 130.2787
364.4816, 129.9598
364.9637, 129.5202
365.4458, 129.0520
365.9279, 128.7066
366.4100, 128.5299
366.8922, 128.6054
367.3743, 129.2609
367.8564, 131.5019
368.3385, 132.8698
368.8206, 132.4599
369.3027, 131.2661
369.7849, 130.4719
370.2670, 130.3985
370.7491, 130.4710
371.2312, 129.8496
371.7133, 128.1439
372.1954, 126.9478
372.6776, 126.3583
373.1597, 126.1504
373.6418, 126.4679
374.1239, 127.1126
374.6060, 127.4542
375.0881, 126.9157
375.5703, 125.5416
376.0524, 124.8344
376.5345, 125.3916
377.0166, 125.9099
377.4987, 126.0953
377.9808, 126.0630
378.4630, 125.9862
378.9451, 125.9440
379.4272, 125.9437
379.9093, 126.0320
380.3914, 126.5086
380.8735, 126.5401
381.3557, 125.8635
381.8378, 124.9510
382.3199, 123.9771
382.8020, 123.0592
383.2841, 122.4445
383.7662, 122.4346
384.2484, 123.0905
384.7305, 123.9247
385.2126, 125.6686
385.6947, 126.8744
386.1768, 126.6857
386.6589, 125.6174
387.1411, 124.7082
387.6232, 124.5851
388.1053, 125.0652
388.5874, 125.5442
389.0695, 126.1903
389.5516, 126.4914
390.0338, 126.0686
390.5159, 125.4455
390.9980, 125.0850
391.4801, 125.1163
391.9622, 125.3771
392.4443, 125.6436
392.9265, 125.8889
393.4086, 126.3995
393.8907, 127.3730
394.3728, 128.4869
394.8549, 129.6291
395.3370, 130.7624
395.8192, 131.7862
396.3013, 132.5737
396.7834, 133.2059
397.2655, 133.9076
397.7476, 134.6218
398.2297, 135.5530
398.7119, 137.3244
399.1940, 139.2236
399.6761, 140.1411
400.1582, 139.4114
400.6403, 138.4991
401.1224, 139.0044
401.6046, 140.8517
402.0867, 142.7151
402.5688, 144.3130
403.0509, 145.6245
403.5330, 146.3752
404.0151, 146.5254
404.4973, 147.4230
404.9794, 150.4829
405.4615, 154.4406
405.9436, 156.9402
406.4257, 157.5695
406.9078, 157.8014
407.3900, 158.7610
407.8721, 160.3328
408.3542, 161.8329
408.8363, 162.9816
409.3184, 164.2547
409.8005, 166.0316
410.2827, 168.2031
410.7648, 170.3738
411.2469, 172.3789
411.7290, 174.2642
412.2111, 176.1268
412.6932, 178.0118
413.1754, 179.7663
413.6575, 181.2715
414.1396, 182.6791
414.6217, 184.2641
415.1038, 186.0295
415.5859, 187.5666
416.0681, 188.4117
416.5502, 188.4728
417.0323, 188.8330
417.5144, 189.5981
417.9965, 190.4949
418.4786, 191.3912
418.9608, 192.3390
419.4429, 193.5329
419.9250, 195.0909
420.4071, 196.7906
420.8892, 198.0330
421.3713, 198.8672
421.8535, 199.0776
422.3356, 198.1272
422.8177, 196.9735
423.2998, 196.2966
423.7819, 196.2087
424.2640, 196.5122
424.7462, 197.1898
425.2283, 198.3437
425.7104, 198.3561
426.1925, 195.6311
426.6746, 193.4655
427.1567, 193.2589
427.6389, 194.1163
428.1210, 194.6062
428.6031, 194.0207
429.0852, 192.8284
429.5673, 191.9645
430.0494, 191.5141
430.5316, 191.0789
431.0137, 190.6373
431.4958, 190.1369
431.9779, 189.5434
432.4600, 188.8538
432.9421, 188.0888
433.4243, 187.0884
433.9064, 185.9885
434.3885, 185.3950
434.8706, 185.4260
435.3527, 185.7527
435.8348, 186.6972
436.3170, 187.7132
436.7991, 187.7628
437.2812, 186.2338
437.7633, 184.1640
438.2454, 182.2511
438.7275, 180.5403
439.2097, 179.4657
439.6918, 179.3430
440.1739, 179.6865
440.6560, 179.8531
441.1381, 179.8692
441.6202, 179.6478
442.1024, 178.8042
442.5845, 177.9069
443.0666, 177.7023
443.5487, 178.2226
444.0308, 178.8630
444.5129, 179.1814
444.9951, 179.2124
445.4772, 179.3232
445.9593, 179.7403
446.4414, 179.9648
446.9235, 179.8583
447.4056, 179.4607
447.8878, 178.7306
448.3699, 177.6661
448.8520, 176.5646
449.3341, 175.8819
449.8162, 175.7540
450.2983, 175.6989
450.7805, 175.9002
451.2626, 175.9962
451.7447, 175.7579
452.2268, 175.2496
452.7089, 174.6458
453.1910, 174.0403
453.6732, 173.4804
454.1553, 173.1875
454.6374, 173.3245
455.1195, 173.4622
455.6016, 173.5806
456.0837, 173.6396
456.5659, 173.6131
457.0480, 173.4932
457.5301, 173.2728
458.0122, 172.8950
458.4943, 172.3631
458.9764, 171.9571
459.4586, 171.8388
459.9407, 171.6109
460.4228, 170.7432
460.9049, 169.6875
461.3870, 169.3665
461.8691, 170.4999
462.3513, 171.8365
462.8334, 171.5385
463.3155, 169.6880
463.7976, 168.4783
464.2797, 168.8040
464.7618, 169.8143
465.2440, 170.4452
465.7261, 170.6972
466.2082, 170.9384
466.6903, 171.2634
467.1724, 171.6613
467.6545, 172.1706
468.1367, 172.7795
468.6188, 173.3086
469.1009, 173.5972
469.5830, 173.7150
470.0651, 174.0256
470.5472, 175.0083
471.0294, 175.5555
471.5115, 174.7427
471.9936, 173.6061
472.4757, 173.5781
472.9578, 174.9822
473.4399, 176.9553
473.9221, 178.5501
474.4042, 179.8259
474.8863, 180.3205
475.3684, 178.9924
475.8505, 178.0816
476.3326, 178.8261
476.8148, 180.4732
477.2969, 181.7186
477.7790, 181.9229
478.2611, 181.4417
478.7432, 181.0266
479.2253, 180.8123
479.7075, 180.2819
480.1896, 178.9129
480.6717, 177.6025
481.1538, 176.8607
481.6359, 176.6522
482.1180, 176.6368
482.6002, 176.7003
483.0823, 176.7559
483.5644, 176.5564
484.0465, 176.0888
484.5286, 175.4147
485.0107, 174.5808
485.4929, 173.5285
485.9750, 172.1324
486.4571, 170.3363
486.9392, 168.4623
487.4213, 166.5447
487.9034, 164.7102
488.3856, 163.3623
488.8677, 162.6129
489.3498, 161.8810
489.8319, 160.6588
490.3140, 158.9632
490.7961, 157.3517
491.2783, 155.5933
491.7604, 154.1465
492.2425, 153.5041
492.7246, 153.2617
493.2067, 152.6391
493.6888, 151.3656
494.1710, 149.7746
494.6531, 148.3912
495.1352, 147.2975
495.6173, 146.1621
496.0994, 144.8461
496.5815, 143.6284
497.0637, 142.8530
497.5458, 142.2717
498.0279, 141.3602
498.5100, 139.8113
498.9921, 137.8055
499.4742, 135.6114
499.9564, 132.7699
500.4385, 130.9452
500.9206, 131.5307
501.4027, 132.2661
501.8848, 131.5354
502.3669, 129.5053
502.8491, 127.6960
503.3312, 127.5117
503.8133, 128.2212
504.2954, 127.7419
504.7775, 125.8593
505.2596, 123.7993
505.7418, 121.9496
506.2239, 120.3586
506.7060, 119.1107
507.1881, 118.2881
507.6702, 117.4975
508.1523, 116.5264
508.6345, 115.4651
509.1166, 114.3909
509.5987, 113.3106
510.0808, 112.4738
510.5629, 112.1425
511.0450, 112.2691
511.5272, 112.2346
512.0093, 112.1605
512.4914, 111.8071
512.9735, 110.8394
513.4556, 109.6598
513.9377, 108.7390
514.4199, 108.2240
514.9020, 108.0455
515.3841, 108.1813
515.8662, 108.7135
516.3483, 108.9936
516.8304, 108.9676
517.3126, 108.7321
517.7947, 108.0647
518.2768, 107.2763
518.7589, 106.8186
519.2410, 106.8775
519.7231, 107.2058
520.2053, 107.6193
520.6874, 108.1643
521.1695, 107.9809
521.6516, 106.1359
522.1337, 104.6067
522.6158, 105.1005
523.0980, 106.9656
523.5801, 108.3236
524.0622, 108.2263
524.5443, 107.6225
525.0264, 107.4727
525.5085, 107.7046
525.9907, 107.8679
526.4728, 107.7539
526.9549, 107.6274
527.4370, 107.9631
527.9191, 108.8812
528.4012, 109.4876
528.8834, 109.2712
529.3655, 109.0799
529.8476, 109.5900
530.3297, 110.6389
530.8118, 111.6604
531.2939, 112.3497
531.7761, 112.8307
532.2582, 113.3989
532.7403, 113.9338
533.2224, 114.7972
533.7045, 116.2595
534.1866, 117.7684
534.6688, 118.9800
535.1509, 119.9429
535.6330, 120.8591
536.1151, 121.7611
536.5972, 122.8366
537.0793, 124.7195
537.5615, 127.6088
538.0436, 130.4493
538.5257, 132.9152
539.0078, 135.2030
539.4899, 137.4818
539.9720, 139.7591
540.4542, 141.9474
540.9363, 144.2579
541.4184, 146.3222
541.9005, 147.4450
542.3826, 147.6515
542.8647, 147.7931
543.3469, 148.2993
543.8290, 149.0406
544.3111, 149.7278
544.7932, 150.5152
545.2753, 150.9073
545.7574, 150.5280
546.2396, 149.9437
546.7217, 149.7405
547.2038, 149.8453
547.6859, 149.6646
548.1680, 148.7146
548.6501, 147.2725
549.1323, 146.5825
549.6144, 146.9729
550.0965, 147.5926
550.5786, 148.5871
551.0607, 149.5608
551.5428, 150.2281
552.0250, 150.5789
552.5071, 150.7679
552.9892, 150.8580
553.4713, 150.8872
553.9534, 151.0097
554.4355, 151.2755
554.9177, 151.3656
555.3998, 151.0203
555.8819, 150.5264
556.3640, 150.2898
556.8461, 150.3478
557.3282, 150.3977
557.8104, 150.2043
558.2925, 150.0091
558.7746, 150.2315
559.2567, 150.8180
559.7388, 151.1993
560.2209, 151.0273
560.7031, 150.4192
561.1852, 149.7472
561.6673, 148.6533
562.1494, 148.0112
562.6315, 148.0471
563.1136, 148.3703
563.5958, 148.8123
564.0779, 149.2892
564.5600, 149.6365
565.0421, 149.6805
565.5242, 149.6132
566.0063, 150.1636
566.4885, 151.6058
566.9706, 152.8537
567.4527, 153.5387
567.9348, 154.0167
568.4169, 154.5256
568.8990, 155.0584
569.3812, 155.4747
569.8633, 155.6363
570.3454, 155.6684
570.8275, 155.7156
571.3096, 155.7842
571.7917, 155.9158
572.2739, 156.0991
572.7560, 156.4029
573.2381, 156.9179
573.7202, 157.5673
574.2023, 158.7090
574.6844, 160.7646
575.1666, 162.9937
575.6487, 164.8746
576.1308, 166.5007
576.6129, 168.2738
577.0950, 170.4270
577.5771, 172.6674
578.0593, 174.3314
578.5414, 175.2302
579.0235, 176.0633
579.5056, 176.6139
579.9877, 177.3386
580.4698, 178.5652
580.9520, 180.1225
581.4341, 181.6427
581.9162, 183.0108
582.3983, 184.1644
582.8804, 184.9717
583.3625, 185.4561
583.8447, 185.8531
584.3268, 186.2592
584.8089, 186.4857
585.2910, 186.0055
585.7731, 184.9662
586.2552, 184.9604
586.7374, 187.4705
587.2195, 189.6409
587.7016, 189.8765
588.1837, 188.7909
588.6658, 187.3751
589.1479, 185.9569
589.6301, 184.5385
590.1122, 183.1562
590.5943, 181.8567
591.0764, 180.1253
591.5585, 177.3558
592.0406, 174.8503
592.5228, 173.2938
593.0049, 171.9817
593.4870, 169.9107
593.9691, 166.8442
594.4512, 163.8872
594.9333, 162.3081
595.4155, 161.7523
595.8976, 160.5925
596.3797, 158.5861
596.8618, 156.6719
597.3439, 155.3783
597.8260, 154.5823
598.3082, 153.9535
598.7903, 153.6183
599.2724, 153.1336
599.7545, 152.0579
600.2366, 150.9470
600.7188, 150.5277
601.2009, 150.7466
601.6830, 150.9352
602.1651, 150.6340
602.6472, 149.9759
603.1293, 149.4281
603.6115, 148.8591
604.0936, 148.6620
604.5757, 149.1262
605.0578, 149.6938
605.5399, 150.0658
606.0220, 150.2387
606.5042, 150.3252
606.9863, 150.3837
607.4684, 150.3937
607.9505, 150.2748
608.4326, 150.0328
608.9147, 149.8824
609.3969, 149.8347
609.8790, 149.9865
610.3611, 150.7405
610.8432, 152.0029
611.3253, 152.3653
611.8074, 150.7149
612.2896, 149.1383
612.7717, 149.1259
613.2538, 149.8200
613.7359, 149.5262
614.2180, 147.8120
614.7001, 145.9508
615.1823, 145.5236
615.6644, 146.6237
616.1465, 147.2390
616.6286, 147.6213
617.1107, 147.0973
617.5928, 144.5686
618.0750, 141.6516
618.5571, 140.2381
619.0392, 140.6292
619.5213, 141.0565
620.0034, 139.8248
620.4855, 137.7640
620.9677, 136.8871
621.4498, 137.3169
621.9319, 137.7103
622.4140, 137.4685
622.8961, 136.7277
623.3782, 135.6886
623.8604, 134.2218
624.3425, 132.9101
624.8246, 132.0569
625.3067, 131.1759
625.7888, 129.6133
626.2709, 127.7695
626.7531, 126.8129
627.2352, 127.3512
627.7173, 128.2598
628.1994, 127.2245
628.6815, 123.7056
629.1636, 121.2404
629.6458, 120.5731
630.1279, 120.2996
630.6100, 120.0670
631.0921, 119.6212
631.5742, 118.3875
632.0563, 115.9394
632.5385, 113.5520
633.0206, 112.1660
633.5027, 111.4879
633.9848, 111.1346
634.4669, 111.0257
634.9490, 110.5098
635.4312, 108.9895
635.9133, 106.7530
636.3954, 105.1495
636.8775, 104.4443
637.3596, 104.0747
637.8417, 104.2898
638.3239, 104.6223
638.8060, 104.7353
639.2881, 104.6586
639.7702, 104.6417
640.2523, 104.8838
640.7344, 105.1388
641.2166, 104.9051
641.6987, 104.1651
642.1808, 103.3070
642.6629, 102.4007
643.1450, 101.3934
643.6271, 99.98691
644.1093, 98.37840
644.5914, 97.39806
645.0735, 97.63215
645.5556, 97.97942
646.0377, 97.95837
646.5198, 97.72498
647.0020, 97.49137
647.4841, 97.30141
647.9662, 97.12280
648.4483, 96.97790
648.9304, 96.79550
649.4125, 95.95108
649.8947, 93.72207
650.3768, 92.21471
650.8589, 92.24358
651.3410, 92.72217
651.8231, 93.09225
652.3052, 93.25202
652.7874, 93.09203
653.2695, 92.34212
653.7516, 91.45112
654.2337, 91.04091
654.7158, 91.00161
655.1979, 90.77425
655.6801, 90.16094
656.1622, 89.54375
656.6443, 89.31817
657.1264, 89.49227
657.6085, 89.94508
658.0906, 91.22895
658.5728, 92.06368
659.0549, 92.02399
659.5370, 91.46709
660.0191, 90.58729
660.5012, 89.53122
660.9833, 88.66512
661.4655, 88.29968
661.9476, 88.34230
662.4297, 88.58781
662.9118, 89.07629
663.3939, 89.44128
663.8760, 89.51940
664.3582, 89.48653
664.8403, 89.54542
665.3224, 89.68783
665.8045, 89.81898
666.2866, 89.77894
666.7687, 89.87517
667.2509, 90.51511
667.7330, 91.32793
668.2151, 91.67431
668.6972, 91.40702
669.1793, 90.87998
669.6614, 90.40468
670.1436, 89.99703
670.6257, 89.90817
671.1078, 90.34102
671.5899, 90.67215
672.0720, 90.75743
672.5541, 90.65249
673.0363, 90.29549
673.5184, 89.72549
674.0005, 89.28062
674.4826, 89.23302
