##NAMES=Fingerite
##RRUFFID=R070614
##IDEAL CHEMISTRY=Cu^2+^_11_O_2_(V^5+^O_4_)_6_
##LOCALITY=Izalco Volcano, Sonsonate Department, El Salvador
##OWNER=RRUFF
##SOURCE=Michael Scott
##DESCRIPTION=Black submetallic well-formed prismatic crystals associated with black, poorly-formed ziesite, R070482
##STATUS=The identification of this mineral has been confirmed by single-crystal X-ray diffraction.
##URL=rruff.info/R070614
125.9321, 1154.251
126.4143, 1214.732
126.8964, 1279.844
127.3785, 1333.191
127.8606, 1377.332
128.3427, 1420.581
128.8248, 1465.993
129.3070, 1510.953
129.7891, 1549.376
130.2712, 1581.461
130.7533, 1607.018
131.2354, 1623.960
131.7175, 1632.470
132.1996, 1642.632
132.6818, 1659.584
133.1639, 1682.577
133.6460, 1698.853
134.1281, 1705.853
134.6102, 1710.600
135.0923, 1725.204
135.5745, 1751.161
136.0566, 1780.978
136.5387, 1813.829
137.0208, 1852.185
137.5029, 1880.807
137.9850, 1897.883
138.4672, 1904.994
138.9493, 1908.847
139.4314, 1910.717
139.9135, 1907.227
140.3956, 1892.589
140.8777, 1855.297
141.3599, 1834.198
141.8420, 1840.496
142.3241, 1875.451
142.8062, 1896.273
143.2883, 1883.383
143.7704, 1860.089
144.2526, 1852.410
144.7347, 1868.397
145.2168, 1888.461
145.6989, 1911.007
146.1810, 1944.187
146.6631, 1957.979
147.1453, 1945.117
147.6274, 1914.656
148.1095, 1884.341
148.5916, 1837.276
149.0737, 1804.041
149.5558, 1795.735
150.0379, 1846.025
150.5201, 1877.042
151.0022, 1877.607
151.4843, 1853.870
151.9664, 1830.258
152.4485, 1802.868
152.9306, 1780.348
153.4128, 1767.850
153.8949, 1775.762
154.3770, 1783.509
154.8591, 1790.029
155.3412, 1795.236
155.8233, 1789.158
156.3055, 1756.561
156.7876, 1716.356
157.2697, 1687.786
157.7518, 1680.624
158.2339, 1682.009
158.7160, 1689.050
159.1982, 1703.275
159.6803, 1714.252
160.1624, 1713.952
160.6445, 1708.163
161.1266, 1706.781
161.6087, 1722.096
162.0909, 1737.784
162.5730, 1742.398
163.0551, 1729.313
163.5372, 1714.204
164.0193, 1705.482
164.5014, 1701.505
164.9836, 1696.996
165.4657, 1685.431
165.9478, 1673.539
166.4299, 1668.381
166.9120, 1678.938
167.3941, 1690.025
167.8763, 1689.261
168.3584, 1677.585
168.8405, 1664.922
169.3226, 1655.502
169.8047, 1649.629
170.2868, 1647.771
170.7690, 1659.557
171.2511, 1670.427
171.7332, 1661.955
172.2153, 1632.413
172.6974, 1601.442
173.1795, 1587.059
173.6617, 1584.752
174.1438, 1583.953
174.6259, 1576.136
175.1080, 1567.426
175.5901, 1568.428
176.0722, 1581.790
176.5544, 1598.697
177.0365, 1614.142
177.5186, 1626.637
178.0007, 1628.793
178.4828, 1605.547
178.9649, 1569.052
179.4471, 1547.721
179.9292, 1550.184
180.4113, 1564.001
180.8934, 1570.499
181.3755, 1570.091
181.8576, 1570.051
182.3397, 1579.559
182.8219, 1595.298
183.3040, 1603.420
183.7861, 1597.398
184.2682, 1583.395
184.7503, 1574.529
185.2324, 1570.887
185.7146, 1571.686
186.1967, 1580.585
186.6788, 1595.851
187.1609, 1603.631
187.6430, 1595.449
188.1251, 1575.340
188.6073, 1560.072
189.0894, 1550.457
189.5715, 1542.926
190.0536, 1532.235
190.5357, 1518.423
191.0178, 1505.933
191.5000, 1496.365
191.9821, 1489.819
192.4642, 1485.400
192.9463, 1482.816
193.4284, 1482.947
193.9105, 1488.479
194.3927, 1499.959
194.8748, 1512.119
195.3569, 1523.955
195.8390, 1535.810
196.3211, 1539.408
196.8032, 1531.605
197.2854, 1517.421
197.7675, 1510.403
198.2496, 1511.550
198.7317, 1515.338
199.2138, 1519.492
199.6959, 1524.681
200.1780, 1524.251
200.6602, 1515.982
201.1423, 1501.408
201.6244, 1487.651
202.1065, 1474.436
202.5886, 1462.705
203.0707, 1452.839
203.5529, 1444.428
204.0350, 1440.152
204.5171, 1442.226
204.9992, 1450.114
205.4813, 1453.867
205.9634, 1453.220
206.4456, 1449.082
206.9277, 1440.121
207.4098, 1422.589
207.8919, 1413.174
208.3740, 1420.351
208.8561, 1446.462
209.3383, 1458.999
209.8204, 1452.502
210.3025, 1438.835
210.7846, 1439.199
211.2667, 1463.313
211.7488, 1477.076
212.2310, 1462.588
212.7131, 1408.606
213.1952, 1378.013
213.6773, 1378.329
214.1594, 1397.403
214.6415, 1409.395
215.1236, 1410.901
215.6058, 1412.036
216.0879, 1418.709
216.5700, 1435.189
217.0521, 1444.076
217.5342, 1444.326
218.0163, 1436.840
218.4985, 1421.564
218.9806, 1388.858
219.4627, 1364.344
219.9448, 1366.325
220.4269, 1409.953
220.9090, 1441.629
221.3912, 1455.699
221.8733, 1454.134
222.3554, 1446.053
222.8375, 1425.400
223.3196, 1406.209
223.8017, 1400.079
224.2839, 1417.936
224.7660, 1424.564
225.2481, 1409.222
225.7302, 1374.592
226.2123, 1360.315
226.6944, 1377.604
227.1766, 1402.908
227.6587, 1416.138
228.1408, 1414.273
228.6229, 1405.932
229.1050, 1389.541
229.5871, 1364.604
230.0693, 1349.005
230.5514, 1346.785
231.0335, 1350.413
231.5156, 1352.112
231.9977, 1351.353
232.4798, 1349.566
232.9619, 1346.328
233.4441, 1340.975
233.9262, 1339.566
234.4083, 1345.847
234.8904, 1353.327
235.3725, 1352.114
235.8546, 1333.566
236.3368, 1320.966
236.8189, 1324.363
237.3010, 1351.243
237.7831, 1361.373
238.2652, 1344.917
238.7473, 1317.328
239.2295, 1305.170
239.7116, 1318.126
240.1937, 1331.162
240.6758, 1334.845
241.1579, 1324.610
241.6400, 1319.510
242.1222, 1321.156
242.6043, 1327.283
243.0864, 1333.727
243.5685, 1342.906
244.0506, 1348.709
244.5327, 1347.980
245.0149, 1337.006
245.4970, 1328.283
245.9791, 1321.989
246.4612, 1317.884
246.9433, 1315.372
247.4254, 1314.520
247.9075, 1315.142
248.3897, 1317.608
248.8718, 1323.682
249.3539, 1327.240
249.8360, 1327.260
250.3181, 1324.681
250.8002, 1322.616
251.2824, 1320.298
251.7645, 1319.628
252.2466, 1322.433
252.7287, 1331.719
253.2108, 1336.861
253.6929, 1335.395
254.1751, 1329.262
254.6572, 1327.497
255.1393, 1333.222
255.6214, 1338.545
256.1035, 1337.902
256.5856, 1328.078
257.0677, 1320.382
257.5499, 1315.613
258.0320, 1313.716
258.5141, 1315.175
258.9962, 1322.497
259.4783, 1329.113
259.9604, 1329.361
260.4426, 1319.886
260.9247, 1313.881
261.4068, 1314.112
261.8889, 1319.580
262.3710, 1324.044
262.8531, 1330.212
263.3353, 1330.702
263.8174, 1316.150
264.2995, 1279.428
264.7816, 1252.215
265.2637, 1241.465
265.7458, 1245.440
266.2280, 1251.993
266.7101, 1262.500
267.1922, 1272.859
267.6743, 1278.004
268.1564, 1275.748
268.6385, 1278.211
269.1207, 1291.404
269.6028, 1312.819
270.0849, 1317.699
270.5670, 1300.382
271.0491, 1278.747
271.5313, 1272.276
272.0134, 1284.607
272.4955, 1291.851
272.9776, 1286.123
273.4597, 1269.579
273.9418, 1260.946
274.4240, 1261.281
274.9061, 1266.520
275.3882, 1274.549
275.8703, 1286.255
276.3524, 1292.305
276.8345, 1286.458
277.3167, 1271.805
277.7988, 1272.643
278.2809, 1292.984
278.7630, 1316.261
279.2451, 1323.343
279.7272, 1313.495
280.2094, 1302.370
280.6915, 1291.932
281.1736, 1283.454
281.6557, 1288.408
282.1378, 1310.040
282.6199, 1331.497
283.1021, 1328.686
283.5842, 1302.342
284.0663, 1285.093
284.5484, 1294.261
285.0305, 1321.565
285.5126, 1324.612
285.9948, 1300.062
286.4769, 1272.308
286.9590, 1274.377
287.4411, 1302.426
287.9232, 1319.414
288.4053, 1303.656
288.8874, 1267.931
289.3695, 1255.418
289.8517, 1267.813
290.3338, 1287.665
290.8159, 1298.316
291.2980, 1300.659
291.7801, 1299.547
292.2622, 1295.389
292.7444, 1289.340
293.2265, 1283.548
293.7086, 1278.020
294.1907, 1273.586
294.6728, 1272.342
295.1549, 1273.226
295.6371, 1272.685
296.1192, 1265.546
296.6013, 1257.416
297.0834, 1260.852
297.5655, 1276.264
298.0476, 1291.843
298.5298, 1296.283
299.0119, 1292.643
299.4940, 1288.237
299.9761, 1285.318
300.4582, 1283.422
300.9403, 1282.032
301.4225, 1281.156
301.9046, 1280.491
302.3867, 1278.802
302.8688, 1277.226
303.3509, 1277.854
303.8330, 1285.334
304.3152, 1293.117
304.7973, 1294.421
305.2794, 1289.294
305.7615, 1281.865
306.2436, 1271.449
306.7257, 1261.320
307.2079, 1256.227
307.6900, 1261.090
308.1721, 1269.357
308.6542, 1278.680
309.1363, 1288.682
309.6184, 1293.851
310.1006, 1285.011
310.5827, 1271.416
311.0648, 1263.600
311.5469, 1274.382
312.0290, 1284.080
312.5111, 1278.897
312.9933, 1259.734
313.4754, 1245.026
313.9575, 1243.089
314.4396, 1249.089
314.9217, 1258.447
315.4038, 1276.862
315.8860, 1291.786
316.3681, 1296.508
316.8502, 1291.772
317.3323, 1288.374
317.8144, 1293.160
318.2965, 1298.865
318.7787, 1299.810
319.2608, 1291.940
319.7429, 1282.104
320.2250, 1269.380
320.7071, 1254.570
321.1892, 1245.132
321.6713, 1245.695
322.1534, 1250.179
322.6356, 1254.726
323.1177, 1257.417
323.5998, 1261.825
324.0819, 1271.911
324.5640, 1286.162
325.0461, 1291.731
325.5283, 1282.280
326.0104, 1268.014
326.4925, 1254.040
326.9746, 1233.802
327.4567, 1222.674
327.9388, 1225.312
328.4210, 1238.749
328.9031, 1247.803
329.3852, 1248.983
329.8673, 1249.399
330.3494, 1253.463
330.8315, 1266.661
331.3137, 1272.216
331.7958, 1265.740
332.2779, 1251.463
332.7600, 1245.068
333.2421, 1252.784
333.7242, 1257.697
334.2064, 1247.092
334.6885, 1210.885
335.1706, 1197.916
335.6527, 1219.940
336.1348, 1259.874
336.6169, 1275.208
337.0991, 1259.691
337.5812, 1239.784
338.0633, 1227.927
338.5454, 1224.459
339.0275, 1224.817
339.5096, 1230.584
339.9918, 1237.465
340.4739, 1235.270
340.9560, 1222.859
341.4381, 1213.816
341.9202, 1218.209
342.4023, 1233.899
342.8845, 1241.092
343.3666, 1237.968
343.8487, 1230.306
344.3308, 1225.445
344.8129, 1223.232
345.2950, 1221.892
345.7772, 1222.583
346.2593, 1223.509
346.7414, 1217.219
347.2235, 1202.217
347.7056, 1189.329
348.1877, 1194.059
348.6699, 1211.490
349.1520, 1225.836
349.6341, 1229.449
350.1162, 1226.352
350.5983, 1220.913
351.0804, 1213.136
351.5626, 1205.448
352.0447, 1198.924
352.5268, 1193.987
353.0089, 1191.366
353.4910, 1191.513
353.9731, 1193.948
354.4552, 1200.607
354.9373, 1210.906
355.4195, 1217.335
355.9016, 1212.986
356.3837, 1203.158
356.8658, 1193.469
357.3479, 1181.641
357.8300, 1174.396
358.3122, 1178.340
358.7943, 1191.372
359.2764, 1201.515
359.7585, 1202.380
360.2406, 1199.370
360.7227, 1196.569
361.2049, 1199.002
361.6870, 1196.683
362.1691, 1181.529
362.6512, 1158.257
363.1333, 1143.894
363.6154, 1149.426
364.0976, 1159.028
364.5797, 1164.832
365.0618, 1161.535
365.5439, 1161.324
366.0260, 1169.641
366.5081, 1181.560
366.9903, 1184.893
367.4724, 1165.598
367.9545, 1152.002
368.4366, 1156.434
368.9187, 1192.790
369.4008, 1210.427
369.8830, 1200.278
370.3651, 1176.257
370.8472, 1160.844
371.3293, 1157.173
371.8114, 1156.171
372.2935, 1156.164
372.7757, 1157.766
373.2578, 1153.189
373.7399, 1138.387
374.2220, 1123.738
374.7041, 1125.217
375.1862, 1146.411
375.6684, 1163.115
376.1505, 1167.644
376.6326, 1161.667
377.1147, 1155.433
377.5968, 1148.369
378.0789, 1143.852
378.5611, 1147.925
379.0432, 1159.430
379.5253, 1165.658
380.0074, 1160.808
380.4895, 1150.740
380.9716, 1149.274
381.4538, 1156.259
381.9359, 1163.875
382.4180, 1166.072
382.9001, 1164.309
383.3822, 1162.341
383.8643, 1161.856
384.3465, 1159.823
384.8286, 1149.191
385.3107, 1132.740
385.7928, 1120.806
386.2749, 1126.899
386.7570, 1137.832
387.2391, 1137.267
387.7213, 1118.744
388.2034, 1100.504
388.6855, 1095.654
389.1676, 1100.227
389.6497, 1106.222
390.1318, 1114.556
390.6140, 1119.951
391.0961, 1117.670
391.5782, 1105.596
392.0603, 1095.369
392.5424, 1090.805
393.0245, 1090.568
393.5067, 1093.039
393.9888, 1100.891
394.4709, 1108.406
394.9530, 1114.854
395.4351, 1120.376
395.9172, 1121.835
396.3994, 1112.763
396.8815, 1102.934
397.3636, 1100.475
397.8457, 1117.834
398.3278, 1125.978
398.8099, 1117.211
399.2921, 1094.548
399.7742, 1081.411
400.2563, 1080.600
400.7384, 1085.346
401.2205, 1093.373
401.7026, 1108.145
402.1848, 1114.829
402.6669, 1110.643
403.1490, 1099.037
403.6311, 1087.735
404.1132, 1076.109
404.5953, 1067.179
405.0775, 1063.247
405.5596, 1064.285
406.0417, 1064.022
406.5238, 1061.424
407.0059, 1059.842
407.4880, 1065.808
407.9702, 1078.572
408.4523, 1089.493
408.9344, 1094.359
409.4165, 1094.735
409.8986, 1094.508
410.3807, 1093.734
410.8629, 1091.428
411.3450, 1085.206
411.8271, 1076.832
412.3092, 1069.780
412.7913, 1063.130
413.2734, 1060.247
413.7556, 1067.874
414.2377, 1084.085
414.7198, 1097.047
415.2019, 1095.548
415.6840, 1089.040
416.1661, 1086.668
416.6483, 1092.655
417.1304, 1099.576
417.6125, 1108.146
418.0946, 1115.255
418.5767, 1112.771
419.0588, 1084.440
419.5410, 1056.492
420.0230, 1042.720
420.5052, 1049.588
420.9873, 1056.034
421.4694, 1060.622
421.9515, 1062.580
422.4336, 1060.683
422.9157, 1047.090
423.3979, 1038.432
423.8800, 1039.639
424.3621, 1051.911
424.8442, 1061.499
425.3263, 1068.889
425.8084, 1073.052
426.2906, 1071.612
426.7727, 1060.946
427.2548, 1055.973
427.7369, 1061.470
428.2190, 1073.945
428.7011, 1077.453
429.1833, 1070.300
429.6654, 1060.828
430.1475, 1053.011
430.6296, 1046.888
431.1117, 1045.573
431.5938, 1050.048
432.0760, 1057.841
432.5581, 1067.260
433.0402, 1077.641
433.5223, 1083.408
434.0044, 1077.011
434.4865, 1065.253
434.9687, 1062.478
435.4508, 1069.932
435.9329, 1078.265
436.4150, 1080.197
436.8971, 1077.080
437.3792, 1071.331
437.8614, 1057.564
438.3435, 1046.417
438.8256, 1047.705
439.3077, 1060.010
439.7898, 1072.131
440.2719, 1085.263
440.7541, 1092.268
441.2362, 1085.963
441.7183, 1046.881
442.2004, 1020.124
442.6825, 1026.675
443.1646, 1055.067
443.6468, 1075.222
444.1289, 1078.736
444.6110, 1076.523
445.0931, 1071.580
445.5752, 1062.393
446.0573, 1055.424
446.5395, 1050.720
447.0216, 1048.198
447.5037, 1048.438
447.9858, 1054.546
448.4679, 1056.523
448.9500, 1049.847
449.4322, 1035.712
449.9143, 1030.033
450.3964, 1034.692
450.8785, 1042.205
451.3606, 1047.036
451.8427, 1049.224
452.3249, 1048.726
452.8070, 1045.037
453.2891, 1039.390
453.7712, 1033.183
454.2533, 1026.581
454.7354, 1022.069
455.2175, 1023.021
455.6996, 1026.709
456.1818, 1026.396
456.6639, 1020.634
457.1460, 1016.686
457.6281, 1026.968
458.1102, 1043.293
458.5923, 1050.862
459.0745, 1035.202
459.5566, 1014.846
460.0387, 1000.974
460.5208, 993.7544
461.0029, 991.8240
461.4850, 996.0364
461.9672, 1004.446
462.4493, 1015.974
462.9314, 1041.554
463.4135, 1055.711
463.8956, 1044.021
464.3777, 1016.191
464.8599, 1001.552
465.3420, 1017.467
465.8241, 1031.803
466.3062, 1031.972
466.7883, 1010.893
467.2704, 1001.412
467.7526, 1008.358
468.2347, 1022.378
468.7168, 1032.552
469.1989, 1038.961
469.6810, 1040.569
470.1631, 1034.818
470.6453, 1024.173
471.1274, 1022.535
471.6095, 1031.171
472.0916, 1040.242
472.5737, 1041.220
473.0558, 1035.492
473.5380, 1030.053
474.0201, 1025.557
474.5022, 1022.516
474.9843, 1024.027
475.4664, 1028.331
475.9485, 1028.752
476.4307, 1018.932
476.9128, 1004.720
477.3949, 990.6656
477.8770, 976.6798
478.3591, 968.5858
478.8412, 976.3741
479.3234, 989.8102
479.8055, 997.1580
480.2876, 989.8190
480.7697, 980.6511
481.2518, 972.5237
481.7339, 965.7825
482.2161, 962.2477
482.6982, 959.5876
483.1803, 962.3182
483.6624, 974.1394
484.1445, 1005.371
484.6266, 1024.626
485.1088, 1026.200
485.5909, 1018.649
486.0730, 1015.140
486.5551, 1017.840
487.0372, 1019.331
487.5193, 1016.561
488.0014, 1010.048
488.4836, 1008.600
488.9657, 1013.391
489.4478, 1018.611
489.9299, 1018.079
490.4120, 1012.589
490.8941, 1010.661
491.3763, 1015.300
491.8584, 1021.149
492.3405, 1018.630
492.8226, 1009.282
493.3047, 1000.137
493.7868, 993.5666
494.2690, 990.2632
494.7511, 994.1131
495.2332, 1006.333
495.7153, 1013.353
496.1974, 998.7772
496.6795, 976.4820
497.1617, 962.8043
497.6438, 973.5630
498.1259, 983.4261
498.6080, 978.8861
499.0901, 963.7801
499.5722, 959.4507
500.0544, 983.0479
500.5365, 1007.767
501.0186, 1021.146
501.5007, 1020.098
501.9828, 1013.843
502.4649, 996.7408
502.9471, 978.1590
503.4292, 973.4762
503.9113, 989.3820
504.3934, 1000.526
504.8755, 998.1237
505.3576, 985.0433
505.8398, 979.4322
506.3219, 982.0586
506.8040, 988.2360
507.2861, 997.0006
507.7682, 1006.951
508.2503, 1009.808
508.7325, 1002.553
509.2146, 992.7950
509.6967, 990.9954
510.1788, 995.1546
510.6609, 998.9572
511.1430, 1000.584
511.6252, 999.4699
512.1072, 993.0612
512.5894, 981.3098
513.0715, 972.4591
513.5536, 970.7549
514.0357, 974.0001
514.5178, 980.3675
514.9999, 999.5210
515.4821, 1009.814
515.9642, 998.5359
516.4463, 974.0985
516.9284, 963.0734
517.4105, 979.7943
517.8926, 994.8002
518.3748, 997.6816
518.8569, 985.6835
519.3390, 978.1934
519.8211, 977.5607
520.3032, 977.8793
520.7853, 971.3439
521.2675, 956.5372
521.7496, 946.9144
522.2317, 945.9913
522.7138, 950.8120
523.1959, 954.2429
523.6780, 956.3993
524.1602, 959.4077
524.6423, 966.5629
525.1244, 974.9792
525.6065, 978.6543
526.0886, 976.6831
526.5707, 973.7025
527.0529, 974.3513
527.5350, 976.3174
528.0171, 976.1572
528.4992, 970.5381
528.9813, 964.5361
529.4634, 960.5694
529.9456, 958.3045
530.4277, 955.8409
530.9098, 952.6029
531.3919, 949.1152
531.8740, 945.3301
532.3561, 939.8159
532.8383, 937.6193
533.3204, 941.7936
533.8025, 947.2028
534.2846, 946.9953
534.7667, 939.1464
535.2488, 931.0894
535.7310, 923.4164
536.2131, 916.8864
536.6952, 915.0790
537.1773, 918.4031
537.6594, 922.9448
538.1415, 927.8309
538.6237, 932.0242
539.1058, 930.0816
539.5879, 920.3493
540.0700, 910.0112
540.5521, 906.5120
541.0342, 907.9956
541.5164, 910.4550
541.9985, 916.5235
542.4806, 919.5350
542.9627, 911.2186
543.4448, 893.7751
543.9269, 881.0864
544.4091, 880.3541
544.8912, 884.6997
545.3733, 890.2873
545.8554, 896.6635
546.3375, 904.2432
546.8196, 916.2668
547.3018, 928.1459
547.7839, 933.6807
548.2660, 930.0444
548.7481, 925.6485
549.2302, 921.6105
549.7123, 918.1428
550.1945, 917.1838
550.6766, 919.4016
551.1587, 921.0518
551.6408, 920.7728
552.1229, 918.1488
552.6050, 908.2267
553.0872, 888.7162
553.5693, 870.8287
554.0514, 872.3198
554.5335, 885.9485
555.0156, 893.4252
555.4977, 880.8253
555.9799, 865.2772
556.4620, 860.3779
556.9441, 864.6956
557.4262, 871.3068
557.9083, 880.5518
558.3904, 888.5054
558.8726, 892.5867
559.3547, 891.4229
559.8368, 889.1954
560.3189, 883.3463
560.8010, 878.1011
561.2831, 878.8406
561.7653, 891.6329
562.2474, 898.8026
562.7295, 895.7902
563.2116, 884.9985
563.6937, 877.1518
564.1758, 872.5952
564.6580, 869.0608
565.1401, 864.2616
565.6222, 858.9695
566.1043, 858.4576
566.5864, 863.4689
567.0685, 869.7093
567.5507, 874.0176
568.0327, 875.9776
568.5148, 874.3173
568.9969, 865.0181
569.4791, 856.3902
569.9612, 856.4012
570.4433, 862.7567
570.9254, 868.3694
571.4075, 869.9414
571.8896, 870.2174
572.3718, 870.7087
572.8539, 871.9442
573.3360, 871.3594
573.8181, 864.9940
574.3002, 859.2914
574.7823, 860.7525
575.2645, 875.8953
575.7466, 882.0351
576.2287, 874.1908
576.7108, 858.0352
577.1929, 845.0644
577.6750, 834.9557
578.1572, 831.9742
578.6393, 842.1418
579.1214, 861.0743
579.6035, 872.9955
580.0856, 877.9773
580.5677, 878.7399
581.0499, 874.1709
581.5320, 867.8518
582.0141, 865.9481
582.4962, 872.2738
582.9783, 877.4153
583.4604, 874.5134
583.9426, 866.7601
584.4247, 859.7106
584.9068, 850.7418
585.3889, 846.9692
585.8710, 855.1487
586.3531, 875.0650
586.8353, 882.4527
587.3174, 866.4878
587.7995, 851.1323
588.2816, 851.4995
588.7637, 873.3211
589.2458, 885.7487
589.7280, 887.5428
590.2101, 881.2940
590.6922, 865.0770
591.1743, 840.6548
591.6564, 828.0444
592.1385, 838.9973
592.6207, 858.9969
593.1028, 863.4029
593.5849, 855.0347
594.0670, 847.6802
594.5491, 849.0367
595.0313, 855.4858
595.5134, 866.4529
595.9955, 882.9579
596.4776, 893.4047
596.9597, 887.5629
597.4418, 876.5906
597.9240, 870.6766
598.4061, 876.6783
598.8882, 880.8920
599.3703, 883.1830
599.8524, 883.0438
600.3345, 878.1508
600.8167, 865.8312
601.2988, 856.3834
601.7809, 854.5071
602.2630, 859.0165
602.7451, 861.5894
603.2272, 862.2517
603.7094, 860.6384
604.1915, 853.1907
604.6736, 843.5217
605.1557, 841.5701
605.6378, 850.8448
606.1199, 860.0157
606.6021, 856.4381
607.0842, 846.5194
607.5663, 840.4127
608.0484, 843.2598
608.5305, 849.1221
609.0126, 858.6931
609.4948, 870.5567
609.9769, 876.2709
610.4590, 865.7910
610.9411, 857.9908
611.4232, 861.9981
611.9053, 882.0638
612.3875, 887.5275
612.8696, 871.7784
613.3517, 854.2338
613.8338, 859.1902
614.3159, 885.7703
614.7980, 900.5201
615.2802, 895.7785
615.7623, 881.6664
616.2444, 871.2029
616.7265, 864.2001
617.2086, 859.8696
617.6907, 857.7560
618.1729, 858.3084
618.6550, 864.1606
619.1371, 874.4173
619.6192, 881.0478
620.1013, 880.8170
620.5834, 875.9188
621.0656, 866.3073
621.5477, 845.6525
622.0298, 835.6064
