##NAMES=Finnemanite
##RRUFFID=R140329
##IDEAL CHEMISTRY=Pb^2+^_5_(As^3+^O_3_)_3_Cl
##LOCALITY=LÃ¥ngban, Varmland, Sweden
##OWNER=RRUFF
##SOURCE=Benjamin N. Schumer
##DESCRIPTION=Dark grey prismatic crystals, associated with hematite
##STATUS=The identification of this mineral has been confirmed by single-crystal X-ray diffraction.
##URL=rruff.info/R140329
173.1594, 461.8015
173.6415, 461.5034
174.1236, 460.3862
174.6057, 458.4977
175.0878, 456.1457
175.5699, 453.5530
176.0521, 450.1032
176.5342, 445.4355
177.0163, 439.8397
177.4984, 433.8642
177.9805, 427.8900
178.4626, 421.9071
178.9448, 415.4214
179.4269, 407.7435
179.9090, 400.2309
180.3911, 393.5388
180.8732, 387.4023
181.3553, 381.1271
181.8375, 374.0475
182.3196, 366.0151
182.8017, 358.7074
183.2838, 352.3194
183.7659, 346.2936
184.2480, 340.4854
184.7301, 334.8414
185.2123, 329.2606
185.6944, 323.6393
186.1765, 317.9538
186.6586, 312.7274
187.1407, 308.1282
187.6228, 303.8858
188.1050, 299.8239
188.5871, 295.9382
189.0692, 292.2525
189.5513, 288.7744
190.0334, 285.5344
190.5155, 282.6470
190.9977, 280.3646
191.4798, 278.3493
191.9619, 276.2742
192.4440, 274.1199
192.9261, 271.7878
193.4082, 268.8458
193.8904, 265.5371
194.3725, 262.7605
194.8546, 261.1278
195.3367, 260.1483
195.8188, 258.8427
196.3009, 257.0496
196.7831, 255.1037
197.2652, 253.1620
197.7473, 251.2475
198.2294, 249.4836
198.7115, 247.9570
199.1936, 246.6301
199.6758, 245.3491
200.1579, 244.0462
200.6400, 242.8942
201.1221, 242.0224
201.6042, 241.3609
202.0863, 240.7524
202.5685, 240.1376
203.0506, 239.5083
203.5327, 238.7199
204.0148, 237.7022
204.4969, 236.5822
204.9790, 235.3309
205.4612, 234.0169
205.9433, 232.7772
206.4254, 231.7650
206.9075, 230.9995
207.3896, 230.0874
207.8717, 228.6990
208.3539, 227.4582
208.8360, 226.7219
209.3181, 226.3400
209.8002, 225.8982
210.2823, 225.0219
210.7644, 223.6745
211.2466, 222.2490
211.7287, 220.4906
212.2108, 218.8967
212.6929, 217.6747
213.1750, 216.8047
213.6571, 216.1449
214.1393, 215.5877
214.6214, 215.1557
215.1035, 214.6665
215.5856, 214.1617
216.0677, 213.5801
216.5498, 212.8021
217.0320, 211.8839
217.5141, 211.0471
217.9962, 210.5289
218.4783, 210.3887
218.9604, 210.0052
219.4425, 208.8098
219.9247, 207.8517
220.4068, 208.0445
220.8889, 209.2852
221.3710, 210.4732
221.8531, 210.5735
222.3352, 209.5014
222.8174, 209.0269
223.2995, 209.6973
223.7816, 210.5550
224.2637, 210.7540
224.7458, 210.2845
225.2279, 209.9438
225.7100, 210.5043
226.1922, 211.8417
226.6743, 212.8122
227.1564, 212.8896
227.6385, 212.8546
228.1206, 213.5543
228.6027, 215.0495
229.0849, 216.4897
229.5670, 217.1138
230.0491, 217.1955
230.5312, 217.5077
231.0133, 218.3028
231.4954, 219.3122
231.9776, 220.1667
232.4597, 220.8130
232.9418, 221.6923
233.4239, 223.5818
233.9060, 225.8048
234.3881, 227.2369
234.8703, 227.1067
235.3524, 226.4810
235.8345, 226.9314
236.3166, 228.7292
236.7987, 230.4908
237.2808, 231.3904
237.7630, 231.8952
238.2451, 232.5029
238.7272, 233.4053
239.2093, 234.4168
239.6914, 235.2351
240.1735, 235.8220
240.6557, 236.3403
241.1378, 236.9140
241.6199, 237.4287
242.1020, 237.7350
242.5841, 237.7492
243.0662, 237.6346
243.5484, 237.7418
244.0305, 238.2762
244.5126, 238.4550
244.9947, 237.9318
245.4768, 237.0675
245.9589, 236.1738
246.4410, 235.3617
246.9232, 234.4666
247.4053, 233.1349
247.8874, 231.1501
248.3695, 229.2473
248.8516, 227.6120
249.3337, 226.0710
249.8159, 224.5686
250.2980, 223.0722
250.7801, 221.4486
251.2622, 219.4171
251.7443, 216.7789
252.2264, 214.1864
252.7086, 211.7614
253.1907, 209.3542
253.6728, 206.8463
254.1549, 204.2127
254.6370, 201.4940
255.1191, 198.7182
255.6013, 195.8293
256.0834, 193.0245
256.5655, 190.3527
257.0476, 187.7195
257.5297, 184.9691
258.0118, 182.1213
258.4940, 179.3902
258.9761, 177.0812
259.4582, 175.3470
259.9403, 173.6858
260.4224, 172.1859
260.9045, 170.6651
261.3867, 169.0141
261.8688, 167.2187
262.3509, 165.3452
262.8330, 163.4285
263.3151, 161.3756
263.7972, 159.6553
264.2794, 158.3790
264.7615, 157.2734
265.2436, 156.2053
265.7257, 155.1673
266.2078, 154.2262
266.6899, 153.4649
267.1721, 152.9291
267.6542, 152.2871
268.1363, 151.5305
268.6184, 150.7000
269.1005, 149.7465
269.5826, 148.7200
270.0648, 147.7529
270.5469, 146.9406
271.0290, 146.2871
271.5111, 145.8590
271.9932, 145.8988
272.4753, 145.8772
272.9575, 145.5237
273.4396, 144.9155
273.9217, 144.2906
274.4038, 143.8037
274.8859, 143.4458
275.3680, 143.1162
275.8501, 142.8437
276.3322, 142.5619
276.8144, 142.1532
277.2965, 141.7151
277.7786, 141.5063
278.2607, 141.7122
278.7428, 142.1891
279.2249, 142.3010
279.7071, 141.7820
280.1892, 141.2919
280.6713, 140.9990
281.1534, 140.8444
281.6355, 140.7009
282.1176, 140.4977
282.5998, 140.3256
283.0819, 140.4635
283.5640, 141.1412
284.0461, 141.6479
284.5282, 141.7389
285.0103, 141.5979
285.4925, 141.4649
285.9746, 141.4089
286.4567, 141.4391
286.9388, 141.5883
287.4209, 141.8749
287.9030, 142.1956
288.3852, 142.5417
288.8673, 142.9096
289.3494, 143.3416
289.8315, 143.8547
290.3136, 144.2807
290.7957, 144.3321
291.2779, 143.9270
291.7600, 143.8223
292.2421, 144.2432
292.7242, 144.9132
293.2063, 145.6476
293.6884, 146.4184
294.1706, 147.0664
294.6527, 147.3839
295.1348, 147.3691
295.6169, 147.5443
296.0990, 148.0277
296.5811, 148.6353
297.0633, 149.2229
297.5454, 149.7879
298.0275, 150.4215
298.5096, 151.2015
298.9917, 152.1126
299.4738, 153.0076
299.9560, 153.9164
300.4381, 154.7743
300.9202, 155.5122
301.4023, 156.1551
301.8844, 156.8253
302.3665, 157.5781
302.8487, 158.4161
303.3308, 159.3432
303.8129, 160.4377
304.2950, 161.4921
304.7771, 162.3479
305.2592, 163.0889
305.7414, 163.9405
306.2235, 165.0012
306.7056, 166.1853
307.1877, 167.3535
307.6698, 168.5528
308.1519, 169.6007
308.6341, 170.2702
309.1162, 170.7831
309.5983, 171.5528
310.0804, 172.7171
310.5625, 173.9970
311.0446, 174.9415
311.5268, 175.5289
312.0089, 176.3759
312.4910, 178.0720
312.9731, 179.8736
313.4552, 180.6905
313.9373, 180.3255
314.4195, 179.9438
314.9016, 180.7002
315.3837, 182.5378
315.8658, 184.1950
316.3479, 185.6057
316.8300, 186.7735
317.3121, 187.5771
317.7943, 188.0522
318.2764, 188.5950
318.7585, 189.5420
319.2406, 190.7616
319.7227, 191.6448
320.2048, 191.9502
320.6870, 192.1740
321.1691, 192.6282
321.6512, 193.2377
322.1333, 193.7070
322.6154, 193.8256
323.0975, 193.8077
323.5797, 194.2232
324.0618, 195.2798
324.5439, 196.2450
325.0260, 196.7720
325.5081, 197.0482
325.9902, 197.4489
326.4724, 198.1112
326.9545, 198.8591
327.4366, 199.3528
327.9187, 199.4970
328.4008, 199.9496
328.8829, 201.2186
329.3651, 202.6777
329.8472, 203.4810
330.3293, 203.4814
330.8114, 203.3803
331.2935, 203.8955
331.7756, 205.0869
332.2578, 206.1873
332.7399, 207.1171
333.2220, 207.9814
333.7041, 208.8354
334.1862, 209.6850
334.6683, 210.5781
335.1505, 211.5748
335.6326, 212.6398
336.1147, 213.5094
336.5968, 214.0405
337.0789, 214.5636
337.5610, 215.2325
338.0432, 216.0040
338.5253, 216.7908
339.0074, 217.5761
339.4895, 218.3007
339.9716, 218.7489
340.4537, 218.6064
340.9359, 218.7929
341.4180, 219.6559
341.9001, 220.8828
342.3822, 222.1175
342.8643, 223.2543
343.3464, 224.2891
343.8286, 225.2034
344.3107, 225.9479
344.7928, 226.6920
345.2749, 227.2175
345.7570, 227.8864
346.2391, 229.0869
346.7213, 230.7811
347.2034, 232.5684
347.6855, 234.1022
348.1676, 235.3785
348.6497, 236.4006
349.1318, 236.8586
349.6140, 237.4146
350.0961, 238.4418
350.5782, 239.7863
351.0603, 241.1213
351.5424, 242.2790
352.0245, 243.2166
352.5067, 243.7378
352.9888, 243.3382
353.4709, 243.1490
353.9530, 243.4848
354.4351, 244.0315
354.9172, 244.4401
355.3994, 244.5865
355.8815, 244.5491
356.3636, 244.4521
356.8457, 244.2444
357.3278, 244.0824
357.8099, 244.0145
358.2920, 243.9517
358.7741, 243.8200
359.2563, 243.6227
359.7384, 243.4326
360.2205, 243.3328
360.7026, 243.3462
361.1847, 243.2237
361.6668, 242.8366
362.1490, 242.4564
362.6311, 242.1238
363.1132, 241.8671
363.5953, 241.7276
364.0774, 241.7320
364.5595, 241.8653
365.0417, 242.0606
365.5238, 242.2296
366.0059, 242.6062
366.4880, 243.4302
366.9701, 244.3549
367.4522, 245.0352
367.9344, 245.3627
368.4165, 245.4967
368.8986, 245.6655
369.3807, 245.8591
369.8628, 246.1210
370.3449, 246.6796
370.8271, 247.1150
371.3092, 247.0627
371.7913, 246.6206
372.2734, 246.2668
372.7555, 246.5309
373.2376, 247.3794
373.7198, 247.6941
374.2019, 247.1643
374.6840, 246.4295
375.1661, 245.5657
375.6482, 244.6797
376.1303, 243.9514
376.6125, 243.4978
377.0946, 243.1671
377.5767, 242.6262
378.0588, 241.8465
378.5409, 240.9322
379.0230, 239.8128
379.5052, 238.6322
379.9873, 237.4649
380.4694, 236.3287
380.9515, 235.2853
381.4336, 234.4872
381.9157, 233.9246
382.3979, 233.1562
382.8800, 232.0231
383.3621, 230.7813
383.8442, 229.5732
384.3263, 228.4082
384.8084, 227.2794
385.2906, 225.9870
385.7727, 224.7729
386.2548, 224.3477
386.7369, 224.9668
387.2190, 225.4583
387.7011, 225.0338
388.1833, 224.0871
388.6654, 223.1113
389.1475, 222.1354
389.6296, 221.2622
390.1117, 220.5930
390.5938, 220.1137
391.0760, 219.7747
391.5581, 219.6845
392.0402, 219.5679
392.5223, 218.9646
393.0044, 217.8310
393.4865, 216.8548
393.9687, 216.4010
394.4508, 216.2420
394.9329, 216.0353
395.4150, 215.7285
395.8971, 215.4122
396.3792, 215.2392
396.8614, 215.1611
397.3435, 214.7413
397.8256, 213.4830
398.3077, 212.2926
398.7898, 211.7973
399.2719, 211.8869
399.7540, 212.1902
400.2361, 212.6112
400.7183, 212.9844
401.2004, 212.7901
401.6825, 211.9377
402.1646, 210.7910
402.6467, 209.0155
403.1288, 207.1558
403.6110, 205.8534
404.0931, 205.2538
404.5752, 205.0905
405.0573, 205.1193
405.5394, 205.4445
406.0215, 205.3970
406.5037, 204.6544
406.9858, 203.8968
407.4679, 203.5286
407.9500, 203.4263
408.4321, 203.2135
408.9142, 202.6414
409.3964, 201.7971
409.8785, 201.0720
410.3606, 200.4990
410.8427, 200.0200
411.3248, 199.6857
411.8069, 199.4097
412.2891, 199.1811
412.7712, 198.9675
413.2533, 198.6128
413.7354, 197.8361
414.2175, 196.4522
414.6996, 195.3745
415.1818, 194.9323
415.6639, 194.5014
416.1460, 193.7211
416.6281, 192.7496
417.1102, 192.0212
417.5923, 191.8575
418.0745, 192.0913
418.5566, 192.1525
419.0387, 192.0032
419.5208, 191.7608
420.0029, 191.5036
420.4850, 191.1580
420.9672, 190.5780
421.4493, 189.7198
421.9314, 188.9089
422.4135, 188.5588
422.8956, 188.6426
423.3777, 188.5806
423.8599, 188.2596
424.3420, 187.8068
424.8241, 187.2458
425.3062, 186.6269
425.7883, 186.1352
426.2704, 185.9559
426.7526, 185.8987
427.2347, 185.6452
427.7168, 185.1774
428.1989, 184.7696
428.6810, 184.5206
429.1631, 184.4648
429.6453, 184.6636
430.1274, 185.3007
430.6095, 185.7753
431.0916, 185.6174
431.5737, 185.1118
432.0558, 184.8220
432.5380, 184.8924
433.0201, 185.1662
433.5022, 185.4939
433.9843, 185.8836
434.4664, 186.2565
434.9485, 186.7389
435.4307, 187.0927
435.9128, 186.8997
436.3949, 186.3865
436.8770, 186.3884
437.3591, 187.4831
437.8412, 189.2706
438.3234, 190.2020
438.8055, 189.3038
439.2876, 188.7866
439.7697, 188.9814
440.2518, 189.5162
440.7339, 190.0256
441.2160, 190.4453
441.6982, 190.9924
442.1803, 191.9546
442.6624, 193.4256
443.1445, 194.6533
443.6266, 195.5344
444.1087, 196.2739
444.5909, 196.6678
445.0730, 197.0074
445.5551, 197.8042
446.0372, 199.3518
446.5193, 201.3042
447.0014, 202.8892
447.4836, 203.9920
447.9657, 205.0618
448.4478, 206.0748
448.9299, 207.1632
449.4120, 208.6570
449.8941, 210.4533
450.3763, 211.7978
450.8584, 211.9676
451.3405, 211.1767
451.8226, 210.3596
452.3047, 209.6539
452.7868, 208.6243
453.2690, 206.7353
453.7511, 204.4233
454.2332, 202.3062
454.7153, 200.6360
455.1974, 198.9624
455.6795, 196.8328
456.1617, 194.3583
456.6438, 191.9847
457.1259, 189.8445
457.6080, 187.8282
458.0901, 185.7508
458.5722, 183.6034
459.0544, 181.6946
459.5365, 180.1894
460.0186, 178.8754
460.5007, 177.6376
460.9828, 176.4406
461.4649, 175.1528
461.9471, 173.6321
462.4292, 172.0104
462.9113, 170.8134
463.3934, 170.6360
463.8755, 170.0746
464.3576, 168.5383
464.8398, 166.7696
465.3219, 165.5300
465.8040, 164.9576
466.2861, 164.7261
466.7682, 164.5132
467.2503, 164.3326
467.7325, 164.0159
468.2146, 163.5952
468.6967, 162.9973
469.1788, 162.0092
469.6609, 160.8823
470.1430, 159.9737
470.6252, 159.4400
471.1073, 159.1790
471.5894, 159.0730
472.0715, 159.1939
472.5536, 159.1563
473.0357, 158.8797
473.5179, 158.4383
474.0000, 157.7385
474.4821, 156.8751
474.9642, 156.1772
475.4463, 155.9708
475.9284, 156.0195
476.4106, 155.7528
476.8927, 155.1075
477.3748, 154.5530
477.8569, 154.3935
478.3390, 154.4093
478.8211, 154.2701
479.3033, 153.9609
479.7854, 153.5023
480.2675, 152.7357
480.7496, 151.8674
481.2317, 151.3389
481.7138, 151.2410
482.1959, 151.1578
482.6780, 150.6683
483.1602, 149.7868
483.6423, 149.2124
484.1244, 149.2355
484.6065, 149.2323
485.0886, 148.9329
485.5707, 148.4382
486.0529, 147.9267
486.5350, 147.4647
487.0171, 147.0252
487.4992, 146.5515
487.9813, 145.9471
488.4634, 145.5788
488.9456, 145.7500
489.4277, 145.8296
489.9098, 145.4946
490.3919, 144.8200
490.8740, 143.9996
491.3561, 143.1224
491.8383, 142.2611
492.3204, 141.6314
492.8025, 141.3003
493.2846, 141.0179
493.7667, 140.7519
494.2488, 140.5052
494.7310, 140.3169
495.2131, 140.1720
495.6952, 139.9558
496.1773, 139.5994
496.6594, 139.1127
497.1415, 138.5001
497.6237, 137.7386
498.1058, 136.9557
498.5879, 136.1650
499.0700, 135.4151
499.5521, 134.7717
500.0342, 134.1891
500.5164, 133.8293
500.9985, 134.0473
501.4806, 134.4683
501.9627, 134.3276
502.4448, 133.4633
502.9269, 132.4975
503.4091, 132.0497
503.8912, 132.1410
504.3733, 131.9689
504.8554, 131.3850
505.3375, 130.7365
505.8196, 130.0846
506.3018, 129.4647
506.7839, 128.9241
507.2660, 128.4791
507.7481, 128.1124
508.2302, 127.8387
508.7123, 127.7637
509.1945, 127.3952
509.6766, 126.2002
510.1587, 125.2456
510.6408, 125.1898
511.1229, 125.6380
511.6050, 125.7868
512.0872, 125.1928
512.5693, 124.2527
513.0514, 123.7265
513.5335, 123.6889
514.0156, 123.4619
514.4977, 122.7123
514.9799, 121.9129
515.4620, 121.5171
515.9441, 121.4627
516.4262, 121.3144
516.9083, 120.7818
517.3904, 120.1167
517.8726, 119.6496
518.3547, 119.3727
518.8368, 119.1038
519.3189, 118.7529
519.8010, 118.3638
520.2831, 118.0472
520.7653, 117.8204
521.2474, 117.5938
521.7295, 117.3707
522.2116, 117.1303
522.6937, 116.8179
523.1758, 116.4589
523.6580, 116.1701
524.1401, 116.0472
524.6222, 116.0521
525.1043, 115.9951
525.5864, 116.0619
526.0685, 115.7741
526.5507, 114.7779
527.0328, 113.6482
527.5149, 112.8238
527.9970, 112.3671
528.4791, 112.1160
528.9612, 111.9933
529.4434, 111.9635
529.9255, 111.7904
530.4076, 111.4218
530.8897, 111.0326
531.3718, 110.6987
531.8539, 110.3823
532.3361, 110.0111
532.8182, 109.5533
533.3003, 109.1945
533.7824, 109.1240
534.2645, 109.2241
534.7466, 109.2385
535.2288, 109.1300
535.7109, 108.9983
536.1930, 108.9361
536.6751, 108.9146
537.1572, 108.7702
537.6393, 108.4425
538.1215, 108.0777
538.6036, 107.5815
539.0857, 107.1318
539.5678, 107.0706
540.0499, 107.4103
540.5320, 107.6813
541.0142, 107.3494
541.4963, 106.3907
541.9784, 105.6804
542.4604, 105.2551
542.9426, 105.0671
543.4247, 105.4117
543.9068, 105.8426
544.3889, 105.7850
544.8710, 105.1079
545.3531, 104.3182
545.8353, 104.0042
546.3174, 104.1209
546.7995, 104.1340
547.2816, 103.9473
547.7637, 103.7991
548.2458, 103.8985
548.7280, 104.1212
549.2101, 104.2822
549.6922, 104.3695
550.1743, 104.3497
550.6564, 104.1252
551.1385, 103.7918
551.6207, 103.5428
552.1028, 103.4184
552.5849, 103.3757
553.0670, 103.3791
553.5491, 103.4297
554.0313, 103.5243
554.5134, 103.7630
554.9955, 103.9212
555.4776, 103.8969
555.9597, 103.7780
556.4418, 103.6316
556.9240, 103.4937
557.4061, 103.4437
557.8882, 103.5917
558.3703, 103.9444
558.8524, 104.2799
559.3345, 104.5766
559.8167, 104.8836
560.2988, 105.2062
560.7809, 105.5513
561.2630, 105.9655
561.7451, 106.4730
562.2272, 106.8948
562.7094, 106.9160
563.1915, 106.7147
563.6736, 106.9610
564.1557, 107.8108
564.6378, 108.7080
565.1199, 109.2493
565.6021, 109.5056
566.0842, 109.8398
566.5663, 110.2395
567.0484, 110.7321
567.5305, 111.3858
568.0126, 112.1093
568.4948, 112.8209
568.9769, 113.4890
569.4590, 114.0730
569.9411, 114.5057
570.4232, 114.8034
570.9053, 115.2524
571.3875, 115.9809
571.8696, 116.6972
572.3517, 117.4753
572.8338, 118.1516
573.3159, 118.5982
573.7980, 118.7888
574.2802, 118.7390
574.7623, 118.3237
575.2444, 117.6628
575.7265, 117.3085
576.2086, 117.3534
576.6907, 117.3220
577.1729, 117.0135
577.6550, 116.4759
578.1371, 115.7822
578.6192, 114.8927
579.1013, 114.0349
579.5834, 113.4731
580.0656, 112.8826
580.5477, 111.8055
581.0298, 110.2763
581.5119, 108.7032
581.9940, 107.3327
582.4761, 106.1278
582.9583, 104.9558
583.4404, 103.7766
583.9225, 102.6917
584.4046, 101.7838
584.8867, 100.8918
585.3688, 99.82197
585.8510, 98.66148
586.3331, 97.70592
586.8152, 97.18149
587.2973, 96.90044
587.7794, 96.45850
588.2615, 95.84566
588.7437, 95.11430
589.2258, 94.12395
589.7079, 93.18625
590.1900, 92.69876
590.6721, 92.57396
591.1542, 92.23941
591.6364, 91.22494
592.1185, 90.18392
592.6006, 89.79576
593.0827, 89.85705
593.5648, 89.70311
594.0469, 89.07932
594.5291, 88.32593
595.0112, 87.92992
595.4933, 87.99653
595.9754, 87.94687
596.4575, 87.65542
596.9396, 87.40539
597.4218, 87.35411
597.9039, 87.38524
598.3860, 87.33918
598.8681, 87.15968
599.3502, 86.87915
599.8323, 86.48847
600.3145, 85.99384
600.7966, 85.61228
601.2787, 85.36260
601.7608, 85.20832
602.2429, 85.23621
602.7250, 85.31479
603.2072, 85.20853
603.6893, 84.79756
604.1714, 84.47454
604.6535, 84.53125
605.1356, 84.75501
605.6177, 84.83356
606.0999, 84.73610
606.5820, 84.59356
607.0641, 84.48918
607.5462, 84.42744
608.0283, 84.43199
608.5104, 84.67039
608.9926, 84.72972
609.4747, 84.36217
609.9568, 84.00642
610.4389, 84.04646
610.9210, 84.39949
611.4031, 84.68628
611.8853, 84.65659
612.3674, 84.43294
612.8495, 84.20625
613.3316, 83.95506
613.8137, 83.98409
614.2958, 84.55463
614.7780, 85.18308
615.2601, 85.30164
615.7422, 85.00596
616.2243, 84.87200
616.7064, 85.18008
617.1885, 85.52076
617.6707, 85.65285
618.1528, 85.62303
618.6349, 85.47385
619.1170, 85.22903
619.5991, 85.07261
620.0812, 85.24501
620.5634, 85.77502
621.0455, 86.20750
621.5276, 86.42899
622.0097, 86.69292
622.4918, 87.17477
622.9739, 87.65432
623.4561, 87.85664
623.9382, 87.74805
624.4203, 87.60912
624.9023, 87.64111
625.3845, 87.81959
625.8666, 88.08594
626.3487, 88.44100
626.8308, 88.89151
627.3129, 89.53556
627.7950, 90.18786
628.2772, 90.39806
628.7593, 90.00932
629.2414, 89.98136
629.7235, 90.75432
630.2056, 91.66294
630.6877, 92.23495
631.1699, 92.56588
631.6520, 93.01675
632.1341, 93.75172
632.6162, 94.50063
633.0983, 94.75672
633.5804, 94.40546
634.0626, 94.15012
634.5447, 93.97922
635.0268, 93.94467
635.5089, 94.04551
635.9910, 94.28958
636.4731, 94.75136
636.9553, 95.51983
637.4374, 96.17282
637.9195, 96.37871
638.4016, 96.26920
638.8837, 96.08393
639.3658, 95.85015
639.8480, 95.47955
640.3301, 94.87093
640.8122, 94.13238
641.2943, 93.62635
641.7764, 93.70715
642.2585, 93.49516
642.7407, 92.72866
643.2228, 91.90295
643.7049, 91.42785
644.1870, 91.15444
644.6691, 90.61946
645.1512, 89.55202
645.6334, 88.26206
646.1155, 87.22662
646.5976, 86.44460
647.0797, 85.77268
647.5618, 85.20065
648.0439, 84.72368
648.5261, 84.45513
649.0082, 84.28154
649.4903, 83.83957
649.9724, 82.86451
650.4545, 81.98759
650.9366, 81.51050
651.4188, 81.23788
651.9009, 80.96854
652.3830, 80.66566
652.8651, 80.36015
653.3472, 80.07883
653.8293, 79.80479
654.3115, 79.46889
654.7936, 79.05358
655.2757, 78.62082
655.7578, 78.05688
656.2399, 77.58511
656.7220, 77.40749
657.2042, 77.43267
657.6863, 77.37759
658.1684, 77.11869
658.6505, 76.76633
659.1326, 76.41578
659.6147, 76.05560
660.0969, 75.62446
660.5790, 75.10706
661.0611, 74.61875
661.5432, 74.25347
662.0253, 74.00760
662.5074, 73.84574
662.9896, 73.88474
663.4717, 73.85458
663.9538, 73.65839
664.4359, 73.44197
664.9180, 73.34409
665.4001, 73.34285
665.8823, 73.31039
666.3644, 73.17226
666.8465, 72.94965
667.3286, 72.63409
667.8107, 72.23112
668.2928, 71.95977
668.7750, 71.92055
669.2571, 71.89842
669.7392, 71.64964
670.2213, 71.20946
670.7034, 70.95092
