##NAMES=Fizelyite
##RRUFFID=R090068
##IDEAL CHEMISTRY=Ag^1+^_5_Pb^2+^_14_Sb^3+^_21_S^2-^_48_
##LOCALITY=Herja(Kisbanya), Romania
##OWNER=RRUFF
##SOURCE=Mark N. Feinglos
##DESCRIPTION=Dark grey metallic striated prismatic crystals, associated with galena and sphalerite.
##STATUS=The identification of this mineral has been confirmed by single-crystal X-ray diffraction.
##URL=rruff.info/R090068
91.82715, 186.1001
92.30927, 185.0745
92.79138, 185.4604
93.27350, 185.6830
93.75562, 185.0335
94.23773, 183.4985
94.71985, 181.5062
95.20197, 179.6461
95.68408, 178.4295
96.16620, 177.3259
96.64832, 175.9847
97.13043, 174.3816
97.61255, 172.6672
98.09467, 170.9785
98.57678, 169.2442
99.05890, 167.3428
99.54102, 165.8765
100.0231, 164.6231
100.5052, 163.2613
100.9874, 161.5666
101.4695, 159.6496
101.9516, 158.2261
102.4337, 157.4702
102.9158, 157.0322
103.3979, 157.1348
103.8801, 157.5069
104.3622, 157.6749
104.8443, 157.2377
105.3264, 156.1079
105.8085, 155.2366
106.2906, 154.7488
106.7728, 154.3082
107.2549, 153.6363
107.7370, 152.7344
108.2191, 151.9408
108.7012, 151.7722
109.1833, 152.2880
109.6655, 152.3352
110.1476, 151.1872
110.6297, 149.6223
111.1118, 148.8866
111.5939, 149.4429
112.0760, 150.4547
112.5582, 151.1512
113.0403, 151.5530
113.5224, 151.5990
114.0045, 150.9593
114.4866, 149.6844
114.9688, 148.9149
115.4509, 149.3488
115.9330, 150.0411
116.4151, 150.4698
116.8972, 150.5521
117.3793, 150.4312
117.8615, 150.2906
118.3436, 150.1610
118.8257, 149.9238
119.3078, 149.3175
119.7899, 148.7440
120.2720, 148.5596
120.7542, 148.9016
121.2363, 149.5905
121.7184, 150.1183
122.2005, 150.5333
122.6826, 150.6849
123.1647, 150.4708
123.6468, 149.9990
124.1290, 149.3880
124.6111, 148.6796
125.0932, 147.9046
125.5753, 147.3307
126.0574, 147.0049
126.5395, 146.7716
127.0217, 146.6301
127.5038, 146.5529
127.9859, 146.4239
128.4680, 146.1439
128.9501, 145.7303
129.4323, 145.3391
129.9144, 145.0528
130.3965, 144.7490
130.8786, 144.2747
131.3607, 143.5963
131.8428, 142.8849
132.3250, 142.1522
132.8071, 141.4686
133.2892, 141.0264
133.7713, 141.0615
134.2534, 141.4247
134.7355, 141.6090
135.2177, 141.5946
135.6998, 141.3913
136.1819, 140.9603
136.6640, 140.3625
137.1461, 139.7397
137.6282, 139.1374
138.1104, 138.5299
138.5925, 138.2307
139.0746, 138.7236
139.5567, 139.1320
140.0388, 139.0706
140.5209, 138.5622
141.0031, 137.8939
141.4852, 137.3997
141.9673, 137.1567
142.4494, 136.9021
142.9315, 136.6183
143.4136, 136.3393
143.8958, 136.0767
144.3779, 135.8379
144.8600, 135.6384
145.3421, 135.5269
145.8242, 135.7446
146.3063, 135.5579
146.7885, 134.5717
147.2706, 133.2812
147.7527, 132.3196
148.2348, 131.9346
148.7169, 131.8513
149.1990, 131.4635
149.6812, 130.6329
150.1633, 130.0058
150.6454, 129.9188
151.1275, 130.2449
151.6096, 130.6085
152.0917, 130.9461
152.5739, 131.1684
153.0560, 131.1804
153.5381, 130.9455
154.0202, 130.6141
154.5023, 130.2680
154.9844, 129.9047
155.4665, 129.6007
155.9487, 129.4162
156.4308, 129.2947
156.9129, 129.1842
157.3950, 129.0635
157.8771, 128.9924
158.3592, 129.0919
158.8414, 129.4596
159.3235, 129.7501
159.8056, 129.9031
160.2877, 129.9448
160.7698, 129.8832
161.2519, 129.7189
161.7341, 129.4712
162.2162, 129.1726
162.6983, 128.5278
163.1804, 128.2666
163.6625, 128.8558
164.1446, 129.7623
164.6268, 130.2734
165.1089, 129.9596
165.5910, 129.0092
166.0731, 128.6428
166.5552, 129.6126
167.0373, 130.3451
167.5195, 130.2650
168.0016, 129.7157
168.4837, 129.4402
168.9658, 129.9820
169.4479, 131.2539
169.9300, 131.8746
170.4122, 131.4660
170.8943, 130.9207
171.3764, 130.4982
171.8585, 130.2444
172.3406, 130.2792
172.8227, 130.7950
173.3049, 131.7207
173.7870, 132.3399
174.2691, 132.4685
174.7512, 132.4255
175.2333, 132.4371
175.7154, 132.5121
176.1976, 132.6309
176.6797, 132.9064
177.1618, 133.2115
177.6439, 133.2145
178.1260, 132.3619
178.6081, 131.3451
179.0903, 131.2899
179.5724, 132.4683
180.0545, 133.8229
180.5366, 134.8402
181.0187, 135.5725
181.5008, 136.0348
181.9830, 136.1493
182.4651, 136.0102
182.9472, 135.9058
183.4293, 135.8593
183.9114, 135.8154
184.3935, 135.7573
184.8757, 135.6853
185.3578, 135.5885
185.8399, 135.4213
186.3220, 135.2077
186.8041, 135.2107
187.2862, 135.6945
187.7684, 136.1309
188.2505, 136.3067
188.7326, 136.3161
189.2147, 136.3766
189.6968, 136.6893
190.1789, 137.2737
190.6611, 137.5816
191.1432, 137.2879
191.6253, 137.0333
192.1074, 137.0636
192.5895, 137.3184
193.0716, 137.5806
193.5538, 137.6429
194.0359, 137.4541
194.5180, 137.5072
195.0001, 138.0280
195.4822, 138.5280
195.9643, 138.6978
196.4465, 138.5925
196.9286, 138.5398
197.4107, 138.8783
197.8928, 139.6882
198.3749, 140.1762
198.8570, 139.9942
199.3392, 139.7871
199.8213, 140.0382
200.3034, 140.7610
200.7855, 141.5451
201.2676, 141.9667
201.7497, 142.0096
202.2319, 142.3843
202.7140, 143.5635
203.1961, 144.8276
203.6782, 145.4552
204.1603, 145.3560
204.6424, 145.0218
205.1246, 144.7690
205.6067, 144.6166
206.0888, 144.6926
206.5709, 145.0931
207.0530, 145.7107
207.5351, 146.4304
208.0173, 147.2720
208.4994, 148.1289
208.9815, 149.0180
209.4636, 149.8727
209.9457, 150.5051
210.4278, 150.7188
210.9100, 150.6799
211.3921, 150.7035
211.8742, 150.6928
212.3563, 150.9798
212.8384, 152.1006
213.3205, 153.6118
213.8027, 154.6712
214.2848, 154.5769
214.7669, 153.7098
215.2490, 153.4821
215.7311, 154.2675
216.2132, 155.1501
216.6954, 155.7483
217.1775, 156.1565
217.6596, 156.5442
218.1417, 157.0163
218.6238, 157.5528
219.1059, 158.0500
219.5881, 158.7241
220.0702, 159.0472
220.5523, 158.6015
221.0344, 157.7573
221.5165, 157.1039
221.9986, 157.0533
222.4808, 157.5389
222.9629, 157.9331
223.4450, 158.1854
223.9271, 158.3847
224.4092, 158.5201
224.8913, 158.6186
225.3735, 158.7182
225.8556, 158.8444
226.3377, 158.9942
226.8198, 159.1455
227.3019, 159.3714
227.7840, 159.5180
228.2662, 159.6379
228.7483, 159.6468
229.2304, 159.3651
229.7125, 158.6448
230.1946, 157.5470
230.6767, 156.7655
231.1589, 156.3599
231.6410, 156.1697
232.1231, 156.3373
232.6052, 156.6889
233.0873, 156.8990
233.5694, 156.7573
234.0516, 156.3206
234.5337, 155.9967
235.0158, 155.8452
235.4979, 155.7152
235.9800, 155.4809
236.4621, 155.2337
236.9443, 155.1988
237.4264, 155.5374
237.9085, 156.1462
238.3906, 156.5429
238.8727, 156.7036
239.3548, 156.7341
239.8370, 156.5884
240.3191, 156.3315
240.8012, 156.1068
241.2833, 155.9599
241.7654, 155.9250
242.2475, 156.0842
242.7297, 156.4402
243.2118, 156.9358
243.6939, 157.6934
244.1760, 158.5963
244.6581, 159.2771
245.1402, 159.5421
245.6224, 159.5412
246.1045, 159.5592
246.5866, 159.5336
247.0687, 159.6754
247.5508, 160.2605
248.0329, 161.1404
248.5151, 161.7470
248.9972, 161.7430
249.4793, 161.5644
249.9614, 161.8536
250.4435, 162.6565
250.9256, 163.5592
251.4078, 164.4892
251.8899, 165.3752
252.3720, 165.8868
252.8541, 165.7570
253.3362, 165.4366
253.8183, 165.3534
254.3005, 165.5012
254.7826, 165.8982
255.2647, 166.8003
255.7468, 168.0515
256.2289, 168.7836
256.7110, 168.4747
257.1931, 168.1019
257.6753, 168.5645
258.1574, 169.7415
258.6395, 170.8621
259.1216, 171.4025
259.6037, 171.4527
260.0858, 171.5127
260.5680, 171.6383
261.0501, 171.7558
261.5322, 171.8070
262.0143, 171.8115
262.4964, 171.8279
262.9785, 171.8163
263.4607, 171.8187
263.9428, 172.1707
264.4249, 173.3808
264.9070, 174.1739
265.3891, 173.7688
265.8712, 172.5672
266.3534, 171.3698
266.8355, 170.6211
267.3176, 170.2523
267.7997, 170.0181
268.2818, 170.1998
268.7639, 170.0558
269.2461, 169.0245
269.7282, 167.6085
270.2103, 166.5710
270.6924, 166.3837
271.1745, 166.7671
271.6566, 166.7941
272.1388, 166.2190
272.6209, 165.6909
273.1030, 165.4918
273.5851, 165.3889
274.0672, 165.1463
274.5493, 164.6674
275.0315, 163.9481
275.5136, 162.9355
275.9957, 161.3660
276.4778, 159.9968
276.9599, 158.8598
277.4420, 157.9931
277.9242, 157.5436
278.4063, 157.5541
278.8884, 157.7064
279.3705, 157.4023
279.8526, 156.5027
280.3347, 155.4091
280.8169, 153.9782
281.2990, 152.5257
281.7811, 151.3918
282.2632, 150.6189
282.7453, 149.8542
283.2274, 148.4614
283.7096, 145.8995
284.1917, 144.0895
284.6738, 143.7893
285.1559, 143.5928
285.6380, 142.6166
286.1201, 140.8065
286.6023, 138.7325
287.0844, 137.0594
287.5665, 135.9679
288.0486, 134.5914
288.5307, 132.6260
289.0128, 130.6756
289.4950, 129.0519
289.9771, 127.7106
290.4592, 126.4190
290.9413, 124.9829
291.4234, 123.4084
291.9055, 121.6420
292.3877, 119.2752
292.8698, 117.1207
293.3519, 115.5874
293.8340, 114.4804
294.3161, 113.3607
294.7982, 111.9196
295.2804, 110.1768
295.7625, 108.4562
296.2446, 106.5471
296.7267, 104.8932
297.2088, 103.7248
297.6909, 102.8412
298.1731, 101.9683
298.6552, 100.9604
299.1373, 99.85259
299.6194, 98.77898
300.1015, 97.59087
300.5836, 96.64695
301.0658, 96.16019
301.5479, 95.86079
302.0300, 95.44373
302.5121, 94.79306
302.9942, 94.03462
303.4763, 93.42126
303.9585, 93.06173
304.4406, 92.70423
304.9227, 92.32728
305.4048, 91.96268
305.8869, 91.68278
306.3690, 91.48372
306.8512, 91.23100
307.3333, 90.70478
307.8154, 89.68195
308.2975, 88.99179
308.7796, 88.71262
309.2617, 88.63451
309.7439, 88.71671
310.2260, 88.90325
310.7081, 89.08270
311.1902, 89.15958
311.6723, 89.14872
312.1544, 88.90747
312.6366, 87.92908
313.1187, 87.24418
313.6008, 87.48107
314.0829, 88.36865
314.5650, 89.18884
315.0471, 89.39719
315.5293, 89.05749
316.0114, 89.01373
316.4935, 89.77739
316.9756, 90.26620
317.4577, 90.03356
317.9398, 89.42944
318.4220, 89.01951
318.9041, 89.10144
319.3862, 89.47395
319.8683, 89.48938
320.3504, 88.54199
320.8326, 88.00076
321.3147, 88.27273
321.7968, 88.80834
322.2789, 89.08413
322.7610, 88.92530
323.2431, 88.49783
323.7253, 88.07090
324.2074, 87.59619
324.6895, 87.22489
325.1716, 86.95533
325.6537, 86.77066
326.1358, 86.70689
326.6180, 86.73938
327.1001, 86.75086
327.5822, 86.58913
328.0643, 86.17596
328.5464, 86.00139
329.0285, 86.52288
329.5107, 86.81730
329.9928, 86.31091
330.4749, 85.22483
330.9570, 84.20321
331.4391, 83.75649
331.9212, 83.82622
332.4034, 83.53989
332.8855, 82.61559
333.3676, 81.61481
333.8497, 80.53338
334.3318, 79.46791
334.8139, 78.58697
335.2961, 77.98832
335.7782, 77.51305
336.2603, 76.69032
336.7424, 75.05556
337.2245, 73.76704
337.7066, 73.29765
338.1888, 72.95678
338.6709, 72.04140
339.1530, 70.39522
339.6351, 68.52626
340.1172, 67.22021
340.5993, 66.75878
341.0815, 66.16080
341.5636, 65.42122
342.0457, 64.57426
342.5278, 63.57063
343.0099, 62.45477
343.4920, 61.37060
343.9742, 60.47791
344.4563, 59.79551
344.9384, 58.95349
345.4205, 57.72104
345.9026, 56.54625
346.3847, 55.56231
346.8669, 54.71935
347.3490, 53.92443
347.8311, 53.13610
348.3132, 52.33503
348.7953, 51.46954
349.2774, 50.58673
349.7596, 49.53146
350.2417, 47.99459
350.7238, 46.42757
351.2059, 45.32794
351.6880, 44.85700
352.1701, 44.71669
352.6523, 44.42862
353.1344, 43.93711
353.6165, 43.46725
354.0986, 42.95962
354.5807, 42.54161
355.0628, 42.41502
355.5450, 42.52402
356.0271, 42.51774
356.5092, 41.90797
356.9913, 40.66064
357.4734, 39.92548
357.9555, 40.22837
358.4377, 40.48115
358.9198, 40.24925
359.4019, 39.63696
359.8840, 38.85012
360.3661, 37.88525
360.8482, 36.91889
361.3304, 36.52444
361.8125, 36.92108
362.2946, 37.42419
362.7767, 38.02831
363.2588, 38.50769
363.7409, 38.54608
364.2231, 38.00335
364.7052, 37.28816
365.1873, 36.89848
365.6694, 36.85155
366.1515, 36.96854
366.6336, 37.41537
367.1158, 37.84657
367.5979, 38.02888
368.0800, 37.95288
368.5621, 37.71004
369.0442, 37.29263
369.5263, 36.74321
370.0085, 36.26939
370.4906, 35.89943
370.9727, 35.58689
371.4548, 35.25299
371.9369, 34.94535
372.4190, 34.78321
372.9012, 34.85791
373.3833, 35.07359
373.8654, 35.34878
374.3475, 35.70592
374.8296, 35.91864
375.3117, 35.80909
375.7939, 35.50938
376.2760, 35.22827
376.7581, 35.00992
377.2402, 34.73983
377.7223, 34.19025
378.2044, 33.47486
378.6866, 33.14884
379.1687, 33.51720
379.6508, 34.07084
380.1329, 34.13927
380.6150, 33.74494
381.0971, 33.34522
381.5793, 32.95870
382.0614, 32.70151
382.5435, 32.82658
383.0256, 33.38067
383.5077, 33.93778
383.9898, 34.14769
384.4720, 34.04807
384.9541, 34.02508
385.4362, 34.29958
385.9183, 34.46263
386.4004, 34.13623
386.8825, 33.46177
387.3647, 32.93800
387.8468, 32.83047
388.3289, 32.96971
388.8110, 32.91155
389.2931, 32.54043
389.7752, 32.26069
390.2574, 32.14692
390.7395, 32.17129
391.2216, 32.34995
391.7037, 32.67701
392.1858, 33.01322
392.6679, 33.18081
393.1501, 33.12359
393.6322, 33.19672
394.1143, 33.70138
394.5964, 34.05518
395.0785, 33.77576
395.5606, 33.04040
396.0428, 32.40910
396.5249, 32.24605
397.0070, 32.46959
397.4891, 32.63990
397.9712, 32.70043
398.4533, 32.77300
398.9355, 32.82508
399.4176, 32.91637
399.8997, 33.20032
400.3818, 33.69501
400.8639, 34.13344
401.3460, 34.06748
401.8282, 33.22202
402.3103, 32.63620
402.7924, 32.32737
403.2745, 32.21806
403.7566, 32.41920
404.2387, 32.80733
404.7209, 33.06455
405.2030, 32.90979
405.6851, 32.42146
406.1672, 32.21235
406.6493, 32.44399
407.1314, 32.74473
407.6136, 33.08515
408.0957, 33.41652
408.5778, 33.72591
409.0599, 34.00991
409.5420, 34.16430
410.0241, 33.99770
410.5063, 33.45372
410.9884, 32.89204
411.4705, 32.22384
411.9526, 31.67801
412.4347, 31.41169
412.9168, 31.40219
413.3990, 31.50675
413.8811, 31.72435
414.3632, 31.98733
414.8453, 32.01329
415.3274, 31.71679
415.8095, 31.39327
416.2917, 31.11345
416.7738, 30.92843
417.2559, 30.96856
417.7380, 31.38212
418.2201, 31.77891
418.7022, 31.62703
419.1844, 31.00971
419.6665, 30.78860
420.1486, 31.44571
420.6307, 32.29870
421.1128, 32.40583
421.5949, 31.77851
422.0771, 31.26743
422.5592, 31.25234
423.0413, 31.49641
423.5234, 31.73793
424.0055, 31.95031
424.4876, 32.02177
424.9698, 31.80090
425.4519, 31.35174
425.9340, 31.10944
426.4161, 31.18826
426.8982, 31.34476
427.3803, 31.51006
427.8625, 31.67164
428.3446, 31.81842
428.8267, 31.95219
429.3088, 32.02858
429.7909, 31.95480
430.2730, 31.59513
430.7552, 31.40134
431.2373, 31.46038
431.7194, 31.62407
432.2015, 31.90355
432.6836, 32.21937
433.1657, 32.31182
433.6479, 31.93238
434.1300, 31.13439
434.6121, 30.62415
435.0942, 30.54354
435.5763, 30.60079
436.0584, 30.89220
436.5406, 31.23916
437.0227, 31.44881
437.5048, 31.45369
437.9869, 31.32133
438.4690, 31.12041
438.9511, 30.77895
439.4333, 30.60561
439.9154, 30.90215
440.3975, 31.09995
440.8796, 30.71036
441.3617, 29.98237
441.8438, 29.63432
442.3260, 30.28201
442.8081, 31.55557
443.2902, 32.16978
443.7723, 31.89865
444.2544, 31.53557
444.7365, 31.32562
445.2187, 31.16736
445.7008, 30.93410
446.1829, 30.58989
446.6650, 30.35090
447.1471, 30.55452
447.6292, 31.08430
448.1114, 31.22631
448.5935, 30.68244
449.0756, 30.11903
449.5577, 30.24782
450.0398, 30.83643
450.5219, 31.19577
451.0041, 30.97285
451.4862, 30.56558
451.9683, 30.27473
452.4504, 30.11166
452.9325, 30.18710
453.4146, 30.63566
453.8968, 31.24708
454.3789, 31.56707
454.8610, 31.59550
455.3431, 31.43906
455.8252, 30.88191
456.3073, 30.28229
456.7895, 30.09147
457.2716, 30.34065
457.7537, 30.65162
458.2358, 30.68759
458.7179, 30.44829
459.2000, 30.34092
459.6822, 30.56940
460.1643, 30.67346
460.6464, 30.34531
461.1285, 29.87369
461.6106, 29.69767
462.0927, 29.97427
462.5748, 30.46458
463.0569, 30.80633
463.5391, 31.06030
464.0212, 30.98081
464.5033, 30.10476
464.9854, 29.34853
465.4675, 29.19183
465.9496, 29.52017
466.4318, 29.96720
466.9139, 30.32100
467.3960, 30.59889
467.8781, 30.89066
468.3602, 31.29458
468.8423, 31.45411
469.3245, 31.09956
469.8066, 30.56346
470.2887, 30.02115
470.7708, 29.50865
471.2529, 29.18245
471.7350, 29.29475
472.2172, 29.71191
472.6993, 29.92742
473.1814, 29.88005
473.6635, 29.68180
474.1456, 29.27128
474.6277, 28.77595
475.1099, 28.50946
475.5920, 28.71495
476.0741, 28.91108
476.5562, 28.62288
477.0383, 28.04392
477.5204, 27.79327
478.0026, 28.12350
478.4847, 28.65328
478.9668, 28.81397
479.4489, 28.48537
479.9310, 28.39184
480.4131, 28.82056
480.8953, 29.28600
481.3774, 29.44446
481.8595, 29.34386
482.3416, 29.21327
482.8237, 29.18841
483.3058, 29.22779
483.7880, 29.18304
484.2701, 28.86756
484.7522, 28.74399
485.2343, 29.09710
485.7164, 29.44702
486.1985, 29.32261
486.6807, 28.75315
487.1628, 28.21976
487.6449, 28.22042
488.1270, 28.69252
488.6091, 28.69439
489.0912, 27.75414
489.5734, 27.09952
490.0555, 27.35620
490.5376, 27.93631
491.0197, 28.14049
491.5018, 27.76177
491.9839, 27.26509
492.4661, 27.13315
492.9482, 27.32817
493.4303, 27.54696
493.9124, 27.82058
494.3945, 27.97411
494.8766, 27.74796
495.3588, 27.28177
495.8409, 26.94896
496.3230, 26.89427
496.8051, 26.95245
497.2872, 27.03823
497.7693, 27.13197
498.2515, 27.13767
498.7336, 26.99417
499.2157, 26.82309
499.6978, 26.84404
500.1799, 27.14707
500.6620, 27.29204
501.1442, 27.12396
501.6263, 26.89631
502.1084, 26.76167
502.5905, 26.72416
503.0726, 26.75480
503.5547, 26.84731
504.0369, 26.95842
504.5190, 26.92300
505.0011, 26.47396
505.4832, 26.31264
505.9653, 26.78859
506.4474, 27.30169
506.9296, 27.33478
507.4117, 26.92453
507.8938, 26.52966
508.3759, 26.54031
508.8580, 26.88999
509.3401, 27.23005
509.8223, 27.68058
510.3044, 27.85347
510.7865, 27.34041
511.2686, 26.62841
511.7507, 26.19671
512.2328, 26.14258
512.7150, 26.17533
513.1971, 26.07991
513.6792, 25.90107
514.1613, 25.73210
514.6434, 25.55532
515.1255, 25.54804
515.6077, 26.04125
516.0898, 26.82335
516.5719, 27.00207
517.0540, 25.97996
517.5361, 25.03719
518.0182, 24.77403
518.5004, 24.96511
518.9825, 25.32230
519.4646, 25.75944
519.9467, 26.09972
520.4288, 26.11393
520.9109, 25.74406
521.3931, 25.42915
521.8752, 25.01686
522.3573, 24.81072
522.8394, 25.07676
523.3215, 25.56962
523.8036, 25.92947
524.2858, 26.01059
524.7679, 25.93469
525.2500, 25.93378
525.7321, 26.08050
526.2142, 25.92139
526.6964, 25.03019
527.1785, 24.25812
527.6606, 24.07760
528.1427, 24.30869
528.6248, 24.51269
529.1069, 24.43911
529.5891, 24.37045
530.0712, 24.85845
530.5533, 25.84808
531.0354, 26.35051
531.5175, 25.94642
531.9996, 25.18761
532.4818, 24.66405
532.9639, 24.35884
533.4460, 24.19536
533.9281, 24.19305
534.4102, 24.29826
534.8923, 24.62231
535.3745, 25.03897
535.8566, 25.09960
536.3387, 24.55499
536.8208, 23.75105
537.3029, 23.41154
537.7850, 23.83580
538.2672, 24.11884
538.7493, 24.27159
539.2314, 24.28571
539.7135, 24.01672
540.1956, 23.60433
540.6777, 23.38604
541.1599, 23.58178
541.6420, 24.02920
542.1241, 24.30944
542.6062, 24.36221
543.0883, 24.44977
543.5704, 24.89223
544.0526, 25.14747
544.5347, 24.61129
545.0168, 23.47975
545.4989, 22.73788
545.9810, 23.25678
546.4631, 24.26782
546.9453, 24.49732
547.4274, 23.96815
547.9095, 23.46593
548.3916, 23.26735
548.8737, 23.31022
549.3558, 23.58554
549.8380, 24.16268
550.3201, 24.49781
550.8022, 24.32076
551.2843, 23.99127
551.7664, 23.74826
552.2485, 23.61523
552.7307, 23.58214
553.2128, 23.65066
553.6949, 23.78266
554.1770, 23.88007
554.6591, 24.00993
555.1412, 23.97411
555.6234, 23.63070
556.1055, 23.26316
556.5876, 23.00684
557.0697, 22.87598
557.5518, 22.87055
558.0339, 23.03881
558.5161, 23.25234
558.9982, 23.13533
559.4803, 22.59511
559.9624, 22.30010
560.4445, 22.58006
560.9266, 23.03339
561.4088, 23.29911
561.8909, 23.38308
562.3730, 23.39124
562.8551, 23.40751
563.3372, 23.33567
563.8193, 22.99674
564.3015, 22.44715
564.7836, 21.94666
565.2657, 21.57813
565.7478, 21.41612
566.2299, 21.63897
566.7120, 22.53128
567.1942, 23.10673
567.6763, 23.12082
568.1584, 23.04377
568.6405, 23.20188
569.1226, 23.48310
569.6047, 23.57225
570.0869, 23.29776
570.5690, 22.82261
571.0511, 22.44618
571.5332, 22.12870
572.0153, 22.06120
572.4974, 22.49332
572.9796, 22.95502
573.4617, 23.30537
573.9438, 23.48999
574.4259, 23.36553
574.9080, 22.70582
575.3901, 21.96416
575.8723, 21.66581
576.3544, 21.75529
576.8365, 21.93046
577.3186, 22.12011
577.8007, 22.34462
578.2828, 22.66178
578.7650, 23.07920
579.2471, 23.33739
579.7292, 23.31222
580.2113, 23.24832
580.6934, 23.33474
581.1755, 23.43987
581.6577, 23.31751
582.1398, 22.89385
582.6219, 22.32813
583.1040, 21.78419
583.5861, 21.21589
584.0682, 21.04993
584.5504, 21.80557
585.0325, 22.33997
585.5146, 22.14146
585.9967, 21.60353
586.4788, 21.19589
586.9609, 21.04383
587.4431, 21.10248
587.9252, 21.51514
588.4073, 22.12754
