##NAMES=Fizelyite
##RRUFFID=R060175
##IDEAL CHEMISTRY=Ag^1+^_5_Pb^2+^_14_Sb^3+^_21_S^2-^_48_
##LOCALITY=Van Silver mine, Squamish, British Columbia, Canada
##OWNER=RRUFF
##SOURCE=Ty Balacko
##DESCRIPTION=Dark gray deeply-striated single crystals
##STATUS=The identification of this mineral is confirmed by single-crystal X-ray diffraction and chemical analysis.
##URL=rruff.info/R060175
##MEASURED CHEMISTRY=Pb_13.74_Ag_5.94_Sb_20.87_S_48.00_
144.669, 8563.679
145.151, 8871.109
145.633, 9163.748
146.116, 9438.678
146.598, 9692.446
147.080, 9921.159
147.562, 10125.170
148.044, 10309.780
148.526, 10495.110
149.008, 10636.360
149.490, 10712.750
149.973, 10734.960
150.455, 10725.860
150.937, 10702.200
151.419, 10664.270
151.901, 10606.950
152.383, 10528.430
152.865, 10431.520
153.347, 10306.180
153.829, 10160.860
154.312, 10013.600
154.794, 9876.693
155.276, 9750.343
155.758, 9639.517
156.240, 9538.622
156.722, 9456.811
157.204, 9402.323
157.686, 9371.337
158.169, 9351.198
158.651, 9330.024
159.133, 9305.661
159.615, 9295.186
160.097, 9294.546
160.579, 9307.885
161.061, 9341.371
161.543, 9392.208
162.025, 9449.690
162.508, 9502.802
162.990, 9547.773
163.472, 9612.750
163.954, 9722.507
164.436, 9827.012
164.918, 9896.265
165.400, 9932.151
165.883, 9959.376
166.365, 10001.850
166.847, 10063.660
167.329, 10118.390
167.811, 10162.460
168.293, 10203.380
168.775, 10245.120
169.257, 10288.070
169.739, 10331.110
170.221, 10374.490
170.704, 10420.030
171.186, 10451.430
171.668, 10453.700
172.150, 10455.010
172.632, 10475.740
173.114, 10516.190
173.596, 10560.780
174.078, 10593.600
174.561, 10611.230
175.043, 10640.970
175.525, 10686.460
176.007, 10740.500
176.489, 10798.470
176.971, 10860.040
177.453, 10926.070
177.935, 10996.310
178.417, 11070.520
178.900, 11161.940
179.382, 11290.990
179.864, 11423.060
180.346, 11526.110
180.828, 11599.720
181.310, 11675.830
181.792, 11787.710
182.274, 11941.420
182.757, 12068.090
183.239, 12151.390
183.721, 12218.660
184.203, 12286.980
184.685, 12358.330
185.167, 12433.370
185.649, 12515.840
186.131, 12605.690
186.613, 12677.240
187.096, 12722.880
187.578, 12755.470
188.060, 12783.630
188.542, 12808.170
189.024, 12826.830
189.506, 12837.580
189.988, 12839.670
190.470, 12837.600
190.952, 12827.960
191.435, 12816.720
191.917, 12808.580
192.399, 12803.720
192.881, 12800.070
193.363, 12797.260
193.845, 12794.710
194.327, 12788.040
194.809, 12771.640
195.292, 12755.310
195.774, 12740.890
196.256, 12729.750
196.738, 12737.410
197.220, 12783.870
197.702, 12861.760
198.184, 12915.610
198.666, 12923.480
199.148, 12923.330
199.631, 12944.240
200.113, 12984.950
200.595, 13025.080
201.077, 13048.420
201.559, 13060.750
202.041, 13088.980
202.523, 13148.320
203.005, 13210.900
203.488, 13255.860
203.970, 13285.200
204.452, 13316.640
204.934, 13361.380
205.416, 13415.560
205.898, 13463.250
206.380, 13487.720
206.862, 13522.900
207.344, 13598.530
207.827, 13707.540
208.309, 13810.690
208.791, 13882.440
209.273, 13937.910
209.755, 14019.270
210.237, 14134.350
210.719, 14262.050
211.201, 14392.860
211.684, 14526.520
212.166, 14667.600
212.648, 14821.960
213.130, 14980.290
213.612, 15122.850
214.094, 15241.440
214.576, 15360.150
215.058, 15491.580
215.540, 15632.360
216.023, 15773.890
216.505, 15915.740
216.987, 16053.780
217.469, 16177.910
217.951, 16277.070
218.433, 16392.660
218.915, 16555.939
219.397, 16747.520
219.880, 16922.619
220.362, 17065.920
220.844, 17191.609
221.326, 17327.070
221.808, 17478.529
222.290, 17613.529
222.772, 17712.381
223.254, 17789.840
223.736, 17871.301
224.219, 17963.131
224.701, 18059.920
225.183, 18159.289
225.665, 18267.330
226.147, 18346.270
226.629, 18363.971
227.111, 18356.070
227.593, 18376.449
228.076, 18438.641
228.558, 18504.869
229.040, 18528.689
229.522, 18507.480
230.004, 18478.650
230.486, 18441.080
230.968, 18400.859
231.450, 18370.600
231.932, 18351.910
232.415, 18321.420
232.897, 18255.000
233.379, 18149.029
233.861, 18036.670
234.343, 17908.900
234.825, 17782.039
235.307, 17672.721
235.789, 17580.551
236.271, 17490.080
236.754, 17391.240
237.236, 17282.971
237.718, 17169.580
238.200, 17044.680
238.682, 16920.199
239.164, 16805.859
239.646, 16699.529
240.128, 16586.289
240.611, 16450.320
241.093, 16299.540
241.575, 16196.540
242.057, 16162.680
242.539, 16146.810
243.021, 16139.570
243.503, 16135.450
243.985, 16120.610
244.467, 16084.980
244.950, 16037.200
245.432, 16013.090
245.914, 16016.320
246.396, 16034.200
246.878, 16059.570
247.360, 16098.990
247.842, 16160.900
248.324, 16247.980
248.807, 16362.960
249.289, 16512.080
249.771, 16710.199
250.253, 16923.891
250.735, 17148.869
251.217, 17389.891
251.699, 17649.641
252.181, 17929.730
252.663, 18234.439
253.146, 18568.240
253.628, 18928.119
254.110, 19330.789
254.592, 19788.039
255.074, 20278.881
255.556, 20788.850
256.038, 21314.289
256.520, 21856.789
257.003, 22415.770
257.485, 22994.170
257.967, 23580.150
258.449, 24191.891
258.931, 24793.240
259.413, 25354.260
259.895, 25882.850
260.377, 26411.891
260.859, 26976.430
261.342, 27583.061
261.824, 28113.039
262.306, 28520.670
262.788, 28905.590
263.270, 29317.449
263.752, 29730.350
264.234, 30086.699
264.716, 30347.141
265.198, 30523.779
265.681, 30686.080
266.163, 30867.211
266.645, 30989.529
267.127, 31024.520
267.609, 31000.939
268.091, 30950.301
268.573, 30886.609
269.056, 30810.381
269.538, 30722.641
270.020, 30619.750
270.502, 30512.461
270.984, 30396.480
271.466, 30280.340
271.948, 30165.820
272.430, 30054.359
272.912, 29958.891
273.395, 29897.039
273.877, 29868.939
274.359, 29873.020
274.841, 29921.359
275.323, 29993.051
275.805, 30076.051
276.287, 30170.600
276.769, 30287.301
277.251, 30442.641
277.734, 30637.061
278.216, 30826.670
278.698, 30995.689
279.180, 31176.260
279.662, 31385.789
280.144, 31618.801
280.626, 31859.070
281.108, 32104.141
281.591, 32348.230
282.073, 32572.100
282.555, 32767.320
283.037, 32955.398
283.519, 33174.051
284.001, 33389.070
284.483, 33542.789
284.965, 33604.500
285.447, 33606.441
285.930, 33598.910
286.412, 33586.660
286.894, 33529.352
287.376, 33408.180
287.858, 33227.969
288.340, 32987.391
288.822, 32668.131
289.304, 32335.520
289.786, 32066.980
290.269, 31842.100
290.751, 31542.680
291.233, 31124.570
291.715, 30622.971
292.197, 30088.029
292.679, 29518.570
293.161, 28926.100
293.643, 28305.539
294.125, 27666.600
294.608, 27022.061
295.090, 26376.350
295.572, 25734.381
296.054, 25104.439
296.536, 24487.859
297.018, 23886.961
297.500, 23291.670
297.983, 22719.840
298.465, 22190.270
298.947, 21705.551
299.429, 21261.160
299.911, 20849.000
300.393, 20477.289
300.875, 20201.180
301.357, 20174.910
301.839, 20079.721
302.322, 19723.070
302.804, 19192.240
303.286, 18687.420
303.768, 18308.680
304.250, 18027.500
304.732, 17746.410
305.214, 17475.980
305.696, 17192.301
306.178, 16881.051
306.661, 16561.430
307.143, 16249.140
307.625, 15949.610
308.107, 15668.850
308.589, 15414.490
309.071, 15193.820
309.553, 14985.240
310.035, 14774.140
310.517, 14585.430
311.000, 14426.190
311.482, 14302.160
311.964, 14223.090
312.446, 14204.540
312.928, 14248.500
313.410, 14291.470
313.892, 14316.210
314.374, 14359.570
314.857, 14433.980
315.339, 14533.870
315.821, 14651.410
316.303, 14785.680
316.785, 14928.940
317.267, 15062.870
317.749, 15196.820
318.231, 15299.030
318.714, 15356.960
319.196, 15384.290
319.678, 15389.490
320.160, 15374.150
320.642, 15342.990
321.124, 15293.500
321.606, 15225.040
322.088, 15169.690
322.570, 15133.550
323.052, 15114.730
323.535, 15103.550
324.017, 15101.400
324.499, 15127.810
324.981, 15186.060
325.463, 15281.110
325.945, 15429.950
326.427, 15639.260
326.909, 15883.150
327.392, 16155.350
327.874, 16448.891
328.356, 16745.381
328.838, 17045.109
329.320, 17342.289
329.802, 17634.580
330.284, 17921.859
330.766, 18198.090
331.249, 18464.900
331.731, 18713.590
332.213, 18915.721
332.695, 19081.811
333.177, 19198.740
333.659, 19264.180
334.141, 19278.551
334.623, 19232.500
335.105, 19122.619
335.588, 18981.471
336.070, 18858.029
336.552, 18773.529
337.034, 18649.100
337.516, 18447.010
337.998, 18236.520
338.480, 18065.119
338.962, 17932.539
339.444, 17812.461
339.927, 17684.240
340.409, 17548.189
340.891, 17407.590
341.373, 17284.830
341.855, 17132.131
342.337, 16948.100
342.819, 16724.840
343.301, 16448.301
343.784, 16113.100
344.266, 15729.200
344.748, 15321.650
345.230, 14888.220
345.712, 14431.640
346.194, 13949.110
346.676, 13442.300
347.158, 12905.010
347.641, 12336.710
348.123, 11756.950
348.605, 11180.260
349.087, 10604.750
349.569, 10032.640
350.051, 9451.731
350.533, 8895.831
351.015, 8375.527
351.497, 7890.810
351.979, 7440.844
352.462, 7030.871
352.944, 6652.121
353.426, 6292.462
353.908, 5951.741
354.390, 5633.023
354.872, 5333.049
355.354, 5062.214
355.836, 4831.715
356.319, 4655.539
356.801, 4490.113
357.283, 4308.851
357.765, 4124.010
358.247, 3964.401
358.729, 3838.439
359.211, 3731.471
359.693, 3624.550
360.176, 3514.105
360.658, 3422.088
361.140, 3364.338
361.622, 3312.967
362.104, 3246.006
362.586, 3165.651
363.068, 3089.109
363.550, 3029.301
364.032, 2984.711
364.515, 2937.334
364.997, 2880.998
365.479, 2829.225
365.961, 2785.324
366.443, 2746.759
366.925, 2710.567
367.407, 2675.877
367.889, 2641.772
368.371, 2606.854
368.854, 2571.059
369.336, 2534.969
369.818, 2495.675
370.300, 2458.120
370.782, 2427.307
371.264, 2401.205
371.746, 2372.047
372.228, 2330.842
372.711, 2281.836
373.193, 2244.373
373.675, 2222.539
374.157, 2202.577
374.639, 2179.022
375.121, 2152.736
375.603, 2124.087
376.085, 2091.556
376.568, 2060.003
377.050, 2036.487
377.532, 2018.999
378.014, 1993.459
378.496, 1950.529
378.978, 1906.642
379.460, 1890.800
379.942, 1905.231
380.424, 1908.694
380.906, 1883.467
381.389, 1848.145
381.871, 1819.370
382.353, 1799.100
382.835, 1785.442
383.317, 1778.349
383.799, 1777.139
384.281, 1770.427
384.763, 1755.663
385.246, 1739.387
385.728, 1721.587
386.210, 1703.736
386.692, 1687.753
387.174, 1674.323
387.656, 1662.463
388.138, 1650.120
388.620, 1635.750
389.103, 1624.900
389.585, 1619.232
390.067, 1615.365
390.549, 1611.556
391.031, 1607.985
391.513, 1606.094
391.995, 1608.079
392.477, 1612.223
392.959, 1611.663
393.442, 1605.516
393.924, 1596.626
394.406, 1584.741
394.888, 1571.293
395.370, 1557.337
395.852, 1542.599
396.334, 1528.973
396.816, 1516.440
397.298, 1505.895
397.781, 1503.013
398.263, 1511.748
398.745, 1521.797
399.227, 1520.495
399.709, 1508.466
400.191, 1496.385
400.673, 1483.421
401.155, 1472.868
401.638, 1469.023
402.120, 1470.565
402.602, 1471.964
403.084, 1470.429
403.566, 1465.726
404.048, 1456.661
404.530, 1435.773
405.012, 1420.211
405.495, 1413.233
405.977, 1410.865
406.459, 1410.104
406.941, 1410.026
407.423, 1410.414
407.905, 1411.201
408.387, 1412.516
408.869, 1413.155
409.351, 1416.636
409.833, 1415.151
410.316, 1402.858
410.798, 1384.696
411.280, 1367.813
411.762, 1354.099
412.244, 1345.828
412.726, 1349.799
413.208, 1367.211
413.690, 1378.788
414.173, 1377.407
414.655, 1369.530
415.137, 1361.226
415.619, 1352.381
416.101, 1346.882
416.583, 1349.817
417.065, 1355.339
417.547, 1353.770
418.030, 1344.669
418.512, 1337.846
418.994, 1341.557
419.476, 1353.298
419.958, 1356.643
420.440, 1344.354
420.922, 1333.770
421.404, 1330.342
421.886, 1330.700
422.369, 1330.547
422.851, 1328.656
423.333, 1326.654
423.815, 1327.169
424.297, 1331.704
424.779, 1332.042
425.261, 1322.272
425.743, 1314.245
426.225, 1313.931
426.708, 1318.349
427.190, 1321.645
427.672, 1320.901
428.154, 1317.117
428.636, 1311.803
429.118, 1304.659
429.600, 1297.673
430.082, 1289.990
430.565, 1283.928
431.047, 1281.471
431.529, 1282.674
432.011, 1286.048
432.493, 1295.468
432.975, 1304.825
433.457, 1301.277
433.939, 1283.882
434.422, 1269.740
434.904, 1271.776
435.386, 1286.136
435.868, 1292.576
436.350, 1287.186
436.832, 1279.819
437.314, 1270.031
437.796, 1260.876
438.278, 1257.260
438.760, 1259.977
439.243, 1264.144
439.725, 1263.673
440.207, 1257.653
440.689, 1253.180
441.171, 1248.921
441.653, 1247.771
442.135, 1252.683
442.617, 1260.831
443.100, 1268.009
443.582, 1272.389
444.064, 1274.748
444.546, 1276.908
445.028, 1279.147
445.510, 1277.093
445.992, 1267.206
446.474, 1255.437
446.957, 1246.663
447.439, 1240.727
447.921, 1236.647
448.403, 1234.648
448.885, 1233.969
449.367, 1233.805
449.849, 1234.159
450.331, 1235.646
450.813, 1239.188
451.296, 1243.356
451.778, 1243.850
452.260, 1238.605
452.742, 1233.357
453.224, 1229.698
453.706, 1225.558
454.188, 1216.471
454.670, 1203.892
455.152, 1196.464
455.635, 1203.278
456.117, 1222.406
456.599, 1231.494
457.081, 1222.281
457.563, 1215.374
458.045, 1220.597
458.527, 1227.965
459.009, 1225.385
459.492, 1209.615
459.974, 1193.184
460.456, 1189.086
460.938, 1194.639
461.420, 1196.277
461.902, 1190.738
462.384, 1186.371
462.866, 1192.122
463.349, 1204.812
463.831, 1211.723
464.313, 1209.250
464.795, 1203.339
465.277, 1193.387
465.759, 1182.837
466.241, 1179.445
466.723, 1185.749
467.205, 1195.612
467.688, 1200.621
468.170, 1199.849
468.652, 1197.621
469.134, 1192.062
469.616, 1187.138
470.098, 1185.821
470.580, 1186.035
471.062, 1183.462
471.544, 1175.644
472.027, 1166.007
472.509, 1160.891
472.991, 1160.923
473.473, 1160.574
473.955, 1157.393
474.437, 1155.222
474.919, 1159.981
475.401, 1169.729
475.884, 1172.699
476.366, 1155.716
476.848, 1136.000
477.330, 1136.000
477.812, 1152.155
478.294, 1161.930
478.776, 1154.226
479.258, 1136.615
479.741, 1124.192
480.223, 1119.062
480.705, 1115.539
481.187, 1113.975
481.669, 1113.654
482.151, 1115.148
482.633, 1117.576
483.115, 1118.274
483.597, 1114.950
484.079, 1109.644
484.562, 1109.901
485.044, 1118.952
485.526, 1125.250
486.008, 1125.498
486.490, 1122.458
486.972, 1116.907
487.454, 1109.200
487.936, 1101.719
488.419, 1094.114
488.901, 1088.293
489.383, 1089.375
489.865, 1097.377
490.347, 1103.214
490.829, 1101.474
491.311, 1094.638
491.793, 1089.799
492.276, 1089.658
492.758, 1086.031
493.240, 1071.954
493.722, 1057.879
494.204, 1054.827
494.686, 1061.874
495.168, 1069.249
495.650, 1069.316
496.132, 1063.404
496.615, 1058.330
497.097, 1052.867
497.579, 1050.819
498.061, 1057.792
498.543, 1065.116
499.025, 1064.257
499.507, 1054.737
499.989, 1045.962
500.471, 1045.710
500.954, 1050.123
501.436, 1050.694
501.918, 1046.854
502.400, 1043.658
502.882, 1045.186
503.364, 1048.626
503.846, 1044.817
504.328, 1029.021
504.810, 1016.254
505.293, 1008.909
505.775, 1006.033
506.257, 1009.563
506.739, 1017.682
507.221, 1022.845
507.703, 1018.372
508.185, 1006.663
508.668, 1001.751
509.150, 1008.377
509.632, 1012.698
510.114, 1009.196
510.596, 1004.098
511.078, 1003.584
511.560, 1007.813
512.042, 1009.373
512.524, 999.797
513.006, 985.628
513.489, 979.769
513.971, 982.792
514.453, 987.224
514.935, 990.387
515.417, 991.325
515.899, 986.395
516.381, 969.068
516.864, 959.860
517.346, 966.245
517.828, 978.050
518.310, 990.115
518.792, 1000.188
519.274, 1004.894
519.756, 1001.138
520.238, 991.548
520.720, 985.508
521.203, 984.798
521.685, 982.958
522.167, 977.172
522.649, 970.864
523.131, 965.783
523.613, 962.154
524.095, 960.521
524.577, 963.041
525.059, 966.589
525.542, 968.252
526.024, 967.651
526.506, 961.384
526.988, 946.194
527.470, 928.692
527.952, 921.929
528.434, 932.638
528.916, 939.174
529.398, 938.477
529.881, 936.504
530.363, 938.602
530.845, 942.094
531.327, 940.027
531.809, 928.331
532.291, 911.579
532.773, 897.340
533.255, 885.210
533.737, 879.539
534.220, 885.864
534.702, 892.782
535.184, 888.629
535.666, 877.006
536.148, 871.787
536.630, 882.240
537.112, 895.052
537.594, 901.984
538.077, 903.702
538.559, 900.325
539.041, 891.852
539.523, 882.977
540.005, 880.383
540.487, 885.680
540.969, 886.336
541.451, 877.599
541.933, 869.566
542.416, 864.485
542.898, 861.893
543.380, 861.785
543.862, 864.174
544.344, 866.224
544.826, 864.707
545.308, 860.266
545.791, 855.443
546.273, 850.024
546.755, 846.257
547.237, 846.491
547.719, 849.453
548.201, 850.414
548.683, 848.610
549.165, 846.133
549.647, 843.497
550.130, 840.470
550.612, 835.931
551.094, 830.381
551.576, 826.914
552.058, 828.674
552.540, 833.661
553.022, 831.337
553.504, 816.567
553.987, 806.660
554.469, 809.622
554.951, 816.044
555.433, 821.568
555.915, 825.290
556.397, 823.603
556.879, 807.309
557.361, 789.791
557.843, 789.495
558.326, 803.174
558.808, 813.694
559.290, 813.781
559.772, 809.130
560.254, 809.350
560.736, 817.434
561.218, 820.813
561.700, 818.218
562.182, 812.955
562.665, 802.777
563.147, 791.878
563.629, 787.786
564.111, 793.809
564.593, 801.507
565.075, 798.528
565.557, 786.822
566.039, 783.127
566.521, 792.102
567.004, 799.344
567.486, 793.289
567.968, 777.135
568.450, 765.379
568.932, 758.437
569.414, 755.245
569.896, 756.870
570.378, 761.283
570.860, 768.584
571.343, 777.262
571.825, 781.750
572.307, 777.104
572.789, 765.655
573.271, 757.003
573.753, 751.121
574.235, 748.170
574.718, 752.268
575.200, 755.944
575.682, 751.945
576.164, 741.101
576.646, 732.140
577.128, 728.096
577.610, 727.456
578.092, 731.356
578.574, 737.661
579.057, 739.433
579.539, 734.064
580.021, 726.883
580.503, 725.525
580.985, 731.298
581.467, 734.805
581.949, 736.388
582.431, 735.091
582.914, 727.943
583.396, 718.947
583.878, 712.759
584.360, 710.597
584.842, 710.988
585.324, 714.698
585.806, 719.726
586.288, 720.813
586.770, 717.570
587.253, 713.242
587.735, 709.046
588.217, 705.652
588.699, 705.035
589.181, 711.051
589.663, 712.911
590.145, 705.594
590.627, 698.398
591.109, 698.000
591.592, 702.519
592.074, 706.526
592.556, 707.357
593.038, 706.201
593.520, 705.214
594.002, 704.293
594.484, 700.342
594.966, 691.275
595.448, 683.306
595.931, 681.939
596.413, 686.244
596.895, 689.922
597.377, 695.171
597.859, 696.972
598.341, 689.805
598.823, 680.849
599.305, 678.610
599.787, 683.311
600.270, 689.052
600.752, 691.637
601.234, 691.290
601.716, 687.664
602.198, 679.004
602.680, 674.922
603.162, 680.780
603.644, 688.894
604.127, 692.029
604.609, 690.734
605.091, 689.462
605.573, 692.060
606.055, 692.156
606.537, 682.685
607.019, 668.710
607.501, 659.052
607.984, 656.177
608.466, 656.293
608.948, 630.948
609.430, 659.885
609.912, 675.646
610.394, 678.939
610.876, 632.417
611.358, 650.220
611.841, 642.244
612.323, 633.212
612.805, 660.068
613.287, 620.792
613.769, 647.078
614.251, 647.194
614.733, 659.287
615.215, 645.443
615.697, 638.928
616.180, 638.073
616.662, 638.439
617.144, 639.485
617.626, 641.426
618.108, 642.852
618.590, 646.602
619.072, 645.926
619.554, 633.590
620.036, 618.538
620.519, 612.448
621.001, 617.979
621.483, 624.074
621.965, 624.799
622.447, 621.740
622.929, 615.612
623.411, 607.280
623.893, 600.924
624.375, 598.637
624.858, 599.043
625.340, 599.601
625.822, 600.312
626.304, 601.177
626.786, 606.306
627.268, 607.103
627.750, 596.687
628.232, 581.446
628.714, 570.956
629.197, 567.938
629.679, 567.971
630.161, 567.742
630.643, 568.312
631.125, 573.209
631.607, 582.049
632.089, 588.153
632.571, 587.772
633.054, 582.397
633.536, 574.886
634.018, 561.141
634.500, 554.569
634.982, 562.668
635.464, 569.841
635.946, 568.177
636.428, 561.321
636.911, 556.156
637.393, 555.018
637.875, 555.144
638.357, 554.644
638.839, 553.659
639.321, 552.425
639.803, 550.976
640.285, 549.328
640.768, 547.333
641.250, 545.442
641.732, 544.937
642.214, 546.379
642.696, 548.144
643.178, 552.552
643.660, 554.928
644.142, 552.052
644.624, 545.795
645.107, 539.932
645.589, 535.963
646.071, 531.498
646.553, 521.948
647.035, 511.204
647.517, 508.287
647.999, 513.734
648.481, 521.506
648.963, 528.803
649.446, 533.958
649.928, 531.430
650.410, 513.759
650.892, 503.852
651.374, 508.400
651.856, 513.965
652.338, 514.367
652.820, 511.490
653.302, 509.666
653.785, 510.718
654.267, 511.021
654.749, 506.135
655.231, 499.206
655.713, 496.817
656.195, 498.990
656.677, 499.968
657.159, 496.248
657.641, 489.288
658.124, 482.463
658.606, 474.784
659.088, 469.652
659.570, 470.596
660.052, 470.486
660.534, 464.818
661.016, 456.553
661.498, 450.826
661.981, 449.095
662.463, 449.201
662.945, 451.139
663.427, 453.412
663.909, 453.948
664.391, 452.677
664.873, 449.946
665.355, 445.711
665.838, 441.540
