##NAMES=Fizelyite
##RRUFFID=R060175
##IDEAL CHEMISTRY=Ag^1+^_5_Pb^2+^_14_Sb^3+^_21_S^2-^_48_
##LOCALITY=Van Silver mine, Squamish, British Columbia, Canada
##OWNER=RRUFF
##SOURCE=Ty Balacko
##DESCRIPTION=Dark gray deeply-striated single crystals
##STATUS=The identification of this mineral is confirmed by single-crystal X-ray diffraction and chemical analysis.
##URL=rruff.info/R060175
##MEASURED CHEMISTRY=Pb_13.74_Ag_5.94_Sb_20.87_S_48.00_
178.900, 29691.090
179.382, 29759.801
179.864, 29853.650
180.346, 29951.811
180.828, 30050.461
181.310, 30141.439
181.792, 30205.750
182.274, 30238.730
182.757, 30347.070
183.239, 30538.221
183.721, 30799.211
184.203, 31129.160
184.685, 31524.779
185.167, 31970.930
185.649, 32489.561
186.131, 33080.090
186.613, 33495.090
187.096, 33730.320
187.578, 33792.770
188.060, 33629.699
188.542, 33250.109
189.024, 32817.711
189.506, 32444.961
189.988, 32140.000
190.470, 31872.350
190.952, 31653.490
191.435, 31466.211
191.917, 31290.980
192.399, 31128.330
192.881, 31006.721
193.363, 30957.939
193.845, 30980.010
194.327, 30998.520
194.809, 31012.430
195.292, 31022.600
195.774, 31024.279
196.256, 31018.830
196.738, 31023.039
197.220, 31049.971
197.702, 31098.990
198.184, 31151.051
198.666, 31209.910
199.148, 31268.980
199.631, 31325.609
200.113, 31379.340
200.595, 31425.820
201.077, 31464.529
201.559, 31491.721
202.041, 31501.561
202.523, 31467.061
203.005, 31436.939
203.488, 31461.689
203.970, 31531.631
204.452, 31571.150
204.934, 31522.811
205.416, 31412.211
205.898, 31341.420
206.380, 31324.920
206.862, 31331.350
207.344, 31351.891
207.827, 31382.900
208.309, 31404.170
208.791, 31401.250
209.273, 31383.199
209.755, 31377.580
210.237, 31389.010
210.719, 31405.490
211.201, 31422.301
211.684, 31439.080
212.166, 31455.330
212.648, 31471.449
213.130, 31486.080
213.612, 31495.711
214.094, 31494.920
214.576, 31499.740
215.058, 31514.320
215.540, 31540.230
216.023, 31585.131
216.505, 31658.811
216.987, 31744.650
217.469, 31815.230
217.951, 31880.730
218.433, 31912.170
218.915, 31860.910
219.397, 31768.221
219.880, 31734.109
220.362, 31802.600
220.844, 31917.430
221.326, 31981.100
221.808, 31987.689
222.290, 31991.350
222.772, 32007.930
223.254, 32032.740
223.736, 32057.369
224.219, 32079.029
224.701, 32101.320
225.183, 32137.670
225.665, 32195.619
226.147, 32216.961
226.629, 32148.930
227.111, 32050.330
227.593, 32005.039
228.076, 32032.490
228.558, 32087.811
229.040, 32119.461
229.522, 32124.939
230.004, 32136.221
230.486, 32162.801
230.968, 32194.119
231.450, 32212.109
231.932, 32214.359
232.415, 32229.961
232.897, 32294.631
233.379, 32413.109
233.861, 32505.320
234.343, 32555.029
234.825, 32586.650
235.307, 32608.689
235.789, 32625.051
236.271, 32659.020
236.754, 32736.260
237.236, 32855.820
237.718, 32941.910
238.200, 32964.570
238.682, 32981.988
239.164, 33027.699
239.646, 33099.422
240.128, 33177.219
240.611, 33244.480
241.093, 33307.180
241.575, 33409.090
242.057, 33553.020
242.539, 33726.039
243.021, 33915.410
243.503, 34129.699
243.985, 34391.461
244.467, 34717.199
244.950, 35095.922
245.432, 35487.219
245.914, 35861.000
246.396, 36280.250
246.878, 36813.750
247.360, 37393.391
247.842, 37939.129
248.324, 38422.281
248.807, 38807.840
249.289, 39002.398
249.771, 38970.691
250.253, 38793.738
250.735, 38407.039
251.217, 37905.711
251.699, 37367.840
252.181, 36818.789
252.663, 36285.719
253.146, 35813.430
253.628, 35410.789
254.110, 35065.531
254.592, 34776.309
255.074, 34539.469
255.556, 34363.070
256.038, 34243.461
256.520, 34159.551
257.003, 34092.988
257.485, 34057.340
257.967, 33982.859
258.449, 33807.230
258.931, 33653.879
259.413, 33608.051
259.895, 33652.840
260.377, 33707.559
260.859, 33700.520
261.342, 33627.500
261.824, 33580.660
262.306, 33584.641
262.788, 33588.629
263.270, 33579.570
263.752, 33559.000
264.234, 33528.711
264.716, 33486.570
265.198, 33439.551
265.681, 33433.648
266.163, 33528.148
266.645, 33594.281
267.127, 33600.859
267.609, 33571.801
268.091, 33534.621
268.573, 33501.590
269.056, 33471.961
269.538, 33441.691
270.020, 33396.250
270.502, 33380.328
270.984, 33421.852
271.466, 33476.840
271.948, 33505.738
272.430, 33498.512
272.912, 33478.309
273.395, 33481.281
273.877, 33518.160
274.359, 33538.051
274.841, 33500.711
275.323, 33471.371
275.805, 33495.270
276.287, 33570.012
276.769, 33650.621
277.251, 33686.859
277.734, 33677.500
278.216, 33696.719
278.698, 33769.762
279.180, 33846.910
279.662, 33904.531
280.144, 33945.102
280.626, 33978.422
281.108, 34009.289
281.591, 34037.410
282.073, 34061.379
282.555, 34078.512
283.037, 34096.539
283.519, 34121.602
284.001, 34149.699
284.483, 34172.469
284.965, 34176.031
285.447, 34184.680
285.930, 34250.719
286.412, 34385.551
286.894, 34485.270
287.376, 34481.500
287.858, 34425.410
288.340, 34382.680
288.822, 34361.531
289.304, 34353.359
289.786, 34357.352
290.269, 34371.371
290.751, 34380.730
291.233, 34379.172
291.715, 34374.141
292.197, 34377.609
292.679, 34391.512
293.161, 34401.391
293.643, 34389.820
294.125, 34372.852
294.608, 34388.059
295.090, 34448.520
295.572, 34509.141
296.054, 34507.059
296.536, 34439.980
297.018, 34410.141
297.500, 34457.449
297.983, 34528.500
298.465, 34572.621
298.947, 34588.289
299.429, 34608.941
299.911, 34663.309
300.393, 34747.859
300.875, 34807.469
301.357, 34791.711
301.839, 34803.289
302.322, 34919.629
302.804, 35097.141
303.286, 35236.898
303.768, 35287.660
304.250, 35268.789
304.732, 35244.781
305.214, 35184.328
305.696, 35158.852
306.178, 35207.391
306.661, 35279.109
307.143, 35320.750
307.625, 35316.270
308.107, 35283.500
308.589, 35247.410
309.071, 35200.891
309.553, 35168.949
310.035, 35168.430
310.517, 35166.520
311.000, 35142.520
311.482, 35097.191
311.964, 35044.430
312.446, 34997.059
312.928, 34955.461
313.410, 34910.090
313.892, 34850.801
314.374, 34798.770
314.857, 34752.570
315.339, 34719.320
315.821, 34712.660
316.303, 34744.430
316.785, 34800.500
317.267, 34842.660
317.749, 34872.230
318.231, 34884.672
318.714, 34868.859
319.196, 34842.180
319.678, 34818.180
320.160, 34800.051
320.642, 34788.012
321.124, 34780.719
321.606, 34777.789
322.088, 34784.730
322.570, 34798.230
323.052, 34826.961
323.535, 34878.340
324.017, 34950.930
324.499, 35030.789
324.981, 35124.059
325.463, 35216.871
325.945, 35269.281
326.427, 35266.500
326.909, 35260.191
327.392, 35300.320
327.874, 35371.160
328.356, 35423.320
328.838, 35433.699
329.320, 35432.461
329.802, 35441.172
330.284, 35460.238
330.766, 35492.730
331.249, 35549.289
331.731, 35613.980
332.213, 35635.238
332.695, 35592.430
333.177, 35548.141
333.659, 35525.711
334.141, 35512.922
334.623, 35486.141
335.105, 35438.051
335.588, 35390.680
336.070, 35379.398
336.552, 35431.121
337.034, 35449.719
337.516, 35414.102
337.998, 35364.012
338.480, 35313.750
338.962, 35271.590
339.444, 35253.840
339.927, 35277.379
340.409, 35341.371
340.891, 35393.020
341.373, 35419.160
341.855, 35446.250
342.337, 35482.922
342.819, 35522.801
343.301, 35552.500
343.784, 35564.129
344.266, 35573.789
344.748, 35624.621
345.230, 35748.430
345.712, 35833.781
346.194, 35835.141
346.676, 35815.590
347.158, 35813.699
347.641, 35835.820
348.123, 35870.871
348.605, 35913.820
349.087, 35963.770
349.569, 36004.859
350.051, 36033.449
350.533, 36056.551
351.015, 36073.879
351.497, 36089.391
351.979, 36113.930
352.462, 36162.980
352.944, 36216.691
353.426, 36248.059
353.908, 36256.852
354.390, 36247.602
354.872, 36209.449
355.354, 36161.172
355.836, 36143.359
356.319, 36172.191
356.801, 36197.949
357.283, 36196.820
357.765, 36175.301
358.247, 36141.250
358.729, 36094.301
359.211, 36051.422
359.693, 36037.230
360.176, 36060.809
360.658, 36079.109
361.140, 36097.422
361.622, 36105.449
362.104, 36087.070
362.586, 36048.602
363.068, 36015.500
363.550, 36005.852
364.032, 36018.430
364.515, 36041.379
364.997, 36092.559
365.479, 36133.309
365.961, 36142.148
366.443, 36143.410
366.925, 36167.102
367.407, 36223.578
367.889, 36298.328
368.371, 36370.520
368.854, 36442.898
369.336, 36502.160
369.818, 36546.461
370.300, 36578.180
370.782, 36589.289
371.264, 36585.879
371.746, 36588.660
372.228, 36614.371
372.711, 36658.359
373.193, 36703.871
373.675, 36755.859
374.157, 36797.129
374.639, 36822.949
375.121, 36831.859
375.603, 36813.738
376.085, 36750.941
376.568, 36692.730
377.050, 36687.801
377.532, 36728.301
378.014, 36774.852
378.496, 36821.121
378.978, 36859.730
379.460, 36887.660
379.942, 36911.219
380.424, 36886.961
380.906, 36745.250
381.389, 36587.301
381.871, 36518.551
382.353, 36544.020
382.835, 36611.672
383.317, 36692.129
383.799, 36782.148
384.281, 36827.480
384.763, 36802.570
385.246, 36771.340
385.728, 36743.121
386.210, 36720.449
386.692, 36706.711
387.174, 36703.000
387.656, 36704.809
388.138, 36702.762
388.620, 36688.828
389.103, 36691.578
389.585, 36710.691
390.067, 36745.539
390.549, 36807.102
391.031, 36886.520
391.513, 36956.949
391.995, 36994.148
392.477, 37008.691
392.959, 37046.211
393.442, 37117.379
393.924, 37185.711
394.406, 37231.520
394.888, 37268.371
395.370, 37312.410
395.852, 37369.738
396.334, 37423.609
396.816, 37459.449
397.298, 37479.852
397.781, 37493.539
398.263, 37499.430
398.745, 37505.941
399.227, 37528.422
399.709, 37565.891
400.191, 37584.980
400.673, 37566.449
401.155, 37538.230
401.638, 37520.270
402.120, 37512.551
402.602, 37508.691
403.084, 37504.730
403.566, 37502.371
404.048, 37508.031
404.530, 37541.871
405.012, 37558.641
405.495, 37550.160
405.977, 37527.141
406.459, 37499.172
406.941, 37468.641
407.423, 37430.520
407.905, 37367.621
408.387, 37270.910
408.869, 37252.930
409.351, 37410.129
409.833, 37541.109
410.316, 37550.961
410.798, 37496.090
411.280, 37476.020
411.762, 37541.590
412.244, 37639.539
412.726, 37678.020
413.208, 37650.500
413.690, 37650.762
414.173, 37710.480
414.655, 37802.430
415.137, 37901.051
415.619, 38006.750
416.101, 38095.738
416.583, 38152.859
417.065, 38190.211
417.547, 38217.980
418.030, 38237.801
418.512, 38267.648
418.994, 38326.621
419.476, 38405.891
419.958, 38448.391
420.440, 38416.430
420.922, 38399.430
421.404, 38432.430
421.886, 38488.641
422.369, 38535.500
422.851, 38563.398
423.333, 38581.078
423.815, 38598.109
424.297, 38611.441
424.779, 38638.711
425.261, 38695.590
425.743, 38751.129
426.225, 38793.309
426.708, 38825.891
427.190, 38859.180
427.672, 38901.172
428.154, 38940.250
428.636, 38941.262
429.118, 38890.762
429.600, 38882.820
430.082, 38985.621
430.565, 39106.129
431.047, 39141.039
431.529, 39088.711
432.011, 39075.371
432.493, 39211.809
432.975, 39405.199
433.457, 39499.680
433.939, 39483.289
434.422, 39451.840
434.904, 39460.129
435.386, 39506.609
435.868, 39579.391
436.350, 39675.879
436.832, 39797.949
437.314, 40004.371
437.796, 40212.211
438.278, 40297.859
438.760, 40238.621
439.243, 40137.922
439.725, 40121.629
440.207, 40204.379
440.689, 40272.699
441.171, 40303.539
441.653, 40342.828
442.135, 40406.461
442.617, 40486.781
443.100, 40577.199
443.582, 40678.969
444.064, 40767.781
444.546, 40786.820
445.028, 40726.801
445.510, 40717.621
445.992, 40824.199
446.474, 40948.250
446.957, 41012.352
447.439, 41018.551
447.921, 40979.031
448.403, 40856.660
448.885, 40716.488
449.367, 40646.781
449.849, 40639.738
450.331, 40609.449
450.813, 40502.781
451.296, 40353.320
451.778, 40259.820
452.260, 40264.520
452.742, 40253.461
453.224, 40210.602
453.706, 40152.430
454.188, 40081.488
454.670, 40005.910
455.152, 39952.289
455.635, 39950.840
456.117, 39993.730
456.599, 39989.020
457.081, 39898.230
457.563, 39816.789
458.045, 39749.648
458.527, 39711.289
459.009, 39727.219
459.492, 39804.859
459.974, 39889.148
460.456, 39927.551
460.938, 39928.070
461.420, 39927.730
461.902, 39927.199
462.384, 39936.270
462.866, 39974.488
463.349, 40030.500
463.831, 40059.129
464.313, 40032.770
464.795, 40003.090
465.277, 39999.230
465.759, 40011.281
466.241, 40018.191
466.723, 40013.281
467.205, 40009.012
467.688, 40024.320
468.170, 40067.941
468.652, 40098.430
469.134, 40105.770
469.616, 40112.270
470.098, 40126.211
470.580, 40145.871
471.062, 40168.801
471.544, 40195.148
472.027, 40217.129
472.509, 40214.961
472.991, 40182.949
473.473, 40169.949
473.955, 40199.719
474.437, 40234.590
474.919, 40250.988
475.401, 40247.871
475.884, 40220.230
476.366, 40136.648
476.848, 40047.988
477.330, 40016.578
477.812, 40034.551
478.294, 40049.391
478.776, 40034.980
479.258, 40010.629
479.741, 40016.859
480.223, 40077.590
480.705, 40123.738
481.187, 40150.371
481.669, 40165.891
482.151, 40161.391
482.633, 40149.539
483.115, 40167.762
483.597, 40247.621
484.079, 40362.891
484.562, 40421.988
485.044, 40399.430
485.526, 40386.109
486.008, 40405.891
486.490, 40439.629
486.972, 40474.680
487.454, 40510.250
487.936, 40553.230
488.419, 40630.441
488.901, 40707.789
489.383, 40706.469
489.865, 40625.172
490.347, 40578.949
490.829, 40645.148
491.311, 40775.980
491.793, 40833.539
492.276, 40770.980
492.758, 40737.238
493.240, 40770.840
493.722, 40830.789
494.204, 40904.590
494.686, 40975.422
495.168, 40996.129
495.650, 40919.172
496.132, 40770.719
496.615, 40694.398
497.097, 40726.809
497.579, 40762.711
498.061, 40790.039
498.543, 40804.711
499.025, 40788.410
499.507, 40743.539
499.989, 40725.379
500.471, 40794.629
500.954, 40909.879
501.436, 40984.680
501.918, 41013.930
502.400, 41027.891
502.882, 41044.020
503.364, 41056.238
503.846, 41044.000
504.328, 40992.320
504.810, 40949.379
505.293, 40902.250
505.775, 40882.352
506.257, 40939.359
506.739, 41062.078
507.221, 41181.551
507.703, 41245.000
508.185, 41259.770
508.668, 41265.398
509.150, 41260.238
509.632, 41248.961
510.114, 41205.359
510.596, 41174.680
511.078, 41203.039
511.560, 41291.648
512.042, 41385.090
512.524, 41450.230
513.006, 41495.180
513.489, 41536.539
513.971, 41574.750
514.453, 41601.359
514.935, 41609.910
515.417, 41605.352
515.899, 41601.020
516.381, 41603.980
516.864, 41592.879
517.346, 41543.289
517.828, 41494.609
518.310, 41481.949
518.792, 41501.840
519.274, 41528.910
519.756, 41547.602
520.238, 41555.648
520.720, 41538.102
521.203, 41471.102
521.685, 41440.461
522.167, 41510.211
522.649, 41588.570
523.131, 41616.078
523.613, 41591.750
524.095, 41543.531
524.577, 41459.570
525.059, 41374.328
525.542, 41339.379
526.024, 41349.762
526.506, 41361.238
526.988, 41353.641
527.470, 41339.672
527.952, 41346.531
528.434, 41403.879
528.916, 41412.578
529.398, 41326.680
529.881, 41236.012
530.363, 41190.781
530.845, 41183.359
531.327, 41186.820
531.809, 41188.172
532.291, 41188.250
532.773, 41183.988
533.255, 41172.441
533.737, 41183.641
534.220, 41237.711
534.702, 41296.629
535.184, 41325.129
535.666, 41332.000
536.148, 41351.512
536.630, 41406.641
537.112, 41463.578
537.594, 41489.820
538.077, 41498.879
538.559, 41530.109
539.041, 41595.711
539.523, 41657.309
540.005, 41660.070
540.487, 41589.770
540.969, 41554.270
541.451, 41586.320
541.933, 41615.719
542.416, 41613.898
542.898, 41602.680
543.380, 41618.539
543.862, 41673.070
544.344, 41723.090
544.826, 41721.711
545.308, 41677.281
545.791, 41618.340
546.273, 41538.172
546.755, 41487.641
547.237, 41515.609
547.719, 41598.000
548.201, 41645.160
548.683, 41651.730
549.165, 41633.539
549.647, 41548.031
550.130, 41467.859
550.612, 41488.539
551.094, 41603.898
551.576, 41722.129
552.058, 41773.871
552.540, 41768.238
553.022, 41743.441
553.504, 41676.129
553.987, 41644.730
554.469, 41697.391
554.951, 41771.738
555.433, 41832.809
555.915, 41877.051
556.397, 41901.719
556.879, 41878.789
557.361, 41853.961
557.843, 41891.090
558.326, 41978.660
558.808, 42061.180
559.290, 42118.559
559.772, 42147.410
560.254, 42135.219
560.736, 42053.359
561.218, 42021.801
561.700, 42069.480
562.182, 42129.020
562.665, 42174.672
563.147, 42212.160
563.629, 42261.129
564.111, 42330.469
564.593, 42386.801
565.075, 42375.469
565.557, 42306.941
566.039, 42265.641
566.521, 42265.309
567.004, 42276.840
567.486, 42286.391
567.968, 42291.289
568.450, 42283.398
568.932, 42259.570
569.414, 42228.250
569.896, 42159.012
570.378, 42103.750
570.860, 42143.461
571.343, 42266.980
571.825, 42367.699
572.307, 42354.109
572.789, 42263.602
573.271, 42265.480
573.753, 42409.391
574.235, 42501.840
574.718, 42452.520
575.200, 42374.449
575.682, 42353.641
576.164, 42388.262
576.646, 42435.789
577.128, 42491.512
577.610, 42544.301
578.092, 42588.980
578.574, 42622.340
579.057, 42625.102
579.539, 42588.789
580.021, 42556.000
580.503, 42591.078
580.985, 42710.230
581.467, 42795.980
581.949, 42836.441
582.431, 42853.820
582.914, 42827.461
583.396, 42791.910
583.878, 42790.578
584.360, 42834.660
584.842, 42895.449
585.324, 42963.320
585.806, 43027.379
586.288, 43056.141
586.770, 43047.129
587.253, 43027.859
587.735, 43007.719
588.217, 42994.281
588.699, 43009.211
589.181, 43081.770
589.663, 43130.980
590.145, 43133.230
590.627, 43132.102
591.109, 43156.199
591.592, 43199.762
592.074, 43245.461
592.556, 43286.629
593.038, 43317.840
593.520, 43323.629
594.002, 43305.672
594.484, 43303.020
594.966, 43325.922
595.448, 43353.391
595.931, 43367.270
596.413, 43370.730
596.895, 43382.941
597.377, 43402.852
597.859, 43432.809
598.341, 43477.180
598.823, 43529.660
599.305, 43589.879
599.787, 43653.289
600.270, 43703.461
600.752, 43724.609
601.234, 43727.078
601.716, 43747.871
602.198, 43790.730
602.680, 43838.359
603.162, 43897.238
603.644, 43949.359
604.127, 43968.711
604.609, 43961.359
605.091, 43976.930
605.573, 44067.340
606.055, 44143.738
606.537, 44127.129
607.019, 44063.379
607.501, 44040.469
607.984, 44080.078
608.466, 44132.711
608.948, 44137.719
609.430, 44098.270
609.912, 44113.410
610.394, 44220.539
610.876, 44309.691
611.358, 44351.879
611.841, 44356.738
612.323, 44308.781
612.805, 44209.172
613.287, 44152.762
613.769, 44220.270
614.251, 44320.469
614.733, 44364.102
615.215, 44361.012
615.697, 44354.141
616.180, 44360.699
616.662, 44366.090
617.144, 44342.230
617.626, 44276.820
618.108, 44264.980
618.590, 44355.879
619.072, 44438.430
619.554, 44477.781
620.036, 44490.738
620.519, 44490.469
621.001, 44477.910
621.483, 44478.000
621.965, 44523.039
622.447, 44579.922
622.929, 44590.660
623.411, 44562.039
623.893, 44556.809
624.375, 44608.789
624.858, 44683.020
625.340, 44709.711
625.822, 44667.570
626.304, 44643.969
626.786, 44638.422
627.268, 44653.449
627.750, 44709.359
628.232, 44780.449
628.714, 44826.191
629.197, 44833.801
629.679, 44835.941
630.161, 44863.391
630.643, 44900.039
631.125, 44909.469
631.607, 44892.328
632.089, 44888.910
632.571, 44925.809
633.054, 44979.398
633.536, 44990.871
634.018, 44928.770
634.500, 44893.852
634.982, 44896.230
635.464, 44913.410
635.946, 44936.629
636.428, 44967.629
636.911, 45016.730
637.393, 45092.711
637.875, 45155.012
638.357, 45156.359
638.839, 45123.141
639.321, 45105.121
639.803, 45107.988
640.285, 45137.488
640.768, 45203.031
641.250, 45285.320
641.732, 45331.730
642.214, 45334.488
642.696, 45315.121
643.178, 45228.891
643.660, 45167.391
644.142, 45198.961
644.624, 45280.871
645.107, 45329.531
645.589, 45314.102
646.071, 45277.520
646.553, 45247.539
647.035, 45225.719
647.517, 45209.910
647.999, 45201.898
648.481, 45226.590
648.963, 45307.039
649.446, 45415.391
649.928, 45469.359
650.410, 45428.539
650.892, 45416.730
651.374, 45459.570
651.856, 45505.852
652.338, 45523.340
652.820, 45529.250
653.302, 45564.520
653.785, 45652.449
654.267, 45725.781
654.749, 45719.789
655.231, 45668.191
655.713, 45614.230
656.195, 45568.281
656.677, 45578.930
657.159, 45686.559
657.641, 45833.059
658.124, 45861.500
658.606, 45692.641
659.088, 45601.680
659.570, 45662.539
660.052, 45730.891
660.534, 45742.250
661.016, 45722.660
661.498, 45725.160
661.981, 45772.488
662.463, 45802.180
662.945, 45743.961
663.427, 45661.289
663.909, 45656.879
664.391, 45723.930
664.873, 45780.051
665.355, 45780.699
665.838, 45749.262
666.320, 45731.371
666.802, 45727.730
667.284, 45736.422
667.766, 45762.590
668.248, 45794.500
668.730, 45832.930
669.212, 45871.320
669.695, 45897.078
670.177, 45904.430
670.659, 45917.930
671.141, 45949.090
671.623, 45990.879
672.105, 46046.078
672.587, 46105.738
673.069, 46146.359
673.551, 46156.988
674.034, 46149.551
674.516, 46133.148
