##NAMES=Fizelyite
##RRUFFID=R060175
##IDEAL CHEMISTRY=Ag^1+^_5_Pb^2+^_14_Sb^3+^_21_S^2-^_48_
##LOCALITY=Van Silver mine, Squamish, British Columbia, Canada
##OWNER=RRUFF
##SOURCE=Ty Balacko
##DESCRIPTION=Dark gray deeply-striated single crystals
##STATUS=The identification of this mineral is confirmed by single-crystal X-ray diffraction and chemical analysis.
##URL=rruff.info/R060175
##MEASURED CHEMISTRY=Pb_13.74_Ag_5.94_Sb_20.87_S_48.00_
160.574, 13762.430
161.057, 13708.990
161.539, 13668.250
162.021, 13668.290
162.503, 13782.990
162.985, 13892.710
163.467, 13928.220
163.949, 13868.210
164.431, 13792.250
164.913, 13735.210
165.396, 13688.650
165.878, 13637.100
166.360, 13555.050
166.842, 13476.760
167.324, 13434.450
167.806, 13448.890
168.288, 13462.300
168.770, 13438.080
169.253, 13383.300
169.735, 13316.810
170.217, 13220.310
170.699, 13129.870
171.181, 13090.130
171.663, 13138.930
172.145, 13199.960
172.627, 13196.250
173.109, 13139.980
173.592, 13092.410
174.074, 13112.980
174.556, 13165.530
175.038, 13191.360
175.520, 13152.290
176.002, 13097.770
176.484, 13099.680
176.966, 13153.540
177.449, 13198.030
177.931, 13162.350
178.413, 13078.770
178.895, 13020.410
179.377, 13035.760
179.859, 13082.490
180.341, 13085.790
180.823, 13043.930
181.305, 12993.240
181.788, 12972.390
182.270, 12973.640
182.752, 12968.250
183.234, 12928.810
183.716, 12874.500
184.198, 12859.740
184.680, 12889.480
185.162, 12932.620
185.645, 12972.760
186.127, 13003.780
186.609, 12986.190
187.091, 12845.330
187.573, 12626.550
188.055, 12533.350
188.537, 12596.070
189.019, 12721.480
189.501, 12778.020
189.984, 12767.540
190.466, 12731.490
190.948, 12681.320
191.430, 12620.020
191.912, 12574.040
192.394, 12546.760
192.876, 12533.290
193.358, 12528.190
193.840, 12532.200
194.323, 12534.260
194.805, 12520.650
195.287, 12492.560
195.769, 12487.610
196.251, 12517.830
196.733, 12566.600
197.215, 12585.300
197.697, 12569.400
198.180, 12552.730
198.662, 12563.630
199.144, 12604.490
199.626, 12635.490
200.108, 12650.140
200.590, 12651.210
201.072, 12643.860
201.554, 12622.920
202.036, 12611.260
202.519, 12633.740
203.001, 12696.110
203.483, 12747.520
203.965, 12776.350
204.447, 12785.880
204.929, 12804.070
205.411, 12841.270
205.893, 12860.450
206.376, 12809.700
206.858, 12663.880
207.340, 12566.170
207.822, 12560.580
208.304, 12639.130
208.786, 12689.600
209.268, 12708.300
209.750, 12705.700
210.232, 12689.320
210.714, 12655.890
211.197, 12623.130
211.679, 12598.080
212.161, 12581.440
212.643, 12550.280
213.125, 12498.000
213.607, 12441.410
214.089, 12400.040
214.572, 12377.840
215.054, 12359.900
215.536, 12340.620
216.018, 12318.320
216.500, 12309.810
216.982, 12319.830
217.464, 12337.770
217.946, 12349.260
218.428, 12350.620
218.911, 12352.060
219.393, 12355.300
219.875, 12359.240
220.357, 12371.820
220.839, 12400.050
221.321, 12431.380
221.803, 12446.540
222.285, 12438.720
222.767, 12428.870
223.250, 12424.470
223.732, 12427.930
224.214, 12427.050
224.696, 12416.300
225.178, 12405.390
225.660, 12412.020
226.142, 12445.110
226.624, 12480.000
227.107, 12506.550
227.589, 12519.750
228.071, 12542.050
228.553, 12581.270
229.035, 12625.730
229.517, 12652.890
229.999, 12664.270
230.481, 12655.780
230.963, 12618.420
231.445, 12525.750
231.928, 12479.090
232.410, 12503.150
232.892, 12564.320
233.374, 12583.160
233.856, 12534.470
234.338, 12483.320
234.820, 12453.790
235.303, 12447.590
235.785, 12463.110
236.267, 12519.240
236.749, 12592.290
237.231, 12618.900
237.713, 12576.620
238.195, 12521.100
238.677, 12473.780
239.159, 12431.720
239.641, 12404.980
240.124, 12395.190
240.606, 12400.420
241.088, 12414.130
241.570, 12429.490
242.052, 12462.960
242.534, 12529.640
243.016, 12670.580
243.498, 12750.290
243.981, 12731.610
244.463, 12656.430
244.945, 12655.080
245.427, 12785.080
245.909, 12906.400
246.391, 12947.140
246.873, 12848.990
247.355, 12801.660
247.837, 12836.080
248.320, 12918.310
248.802, 12941.970
249.284, 12866.200
249.766, 12792.500
250.248, 12772.030
250.730, 12835.710
251.212, 12881.240
251.694, 12902.110
252.176, 12904.760
252.659, 12909.230
253.141, 12922.520
253.623, 12928.240
254.105, 12915.140
254.587, 12869.210
255.069, 12842.240
255.551, 12840.580
256.033, 12858.030
256.516, 12877.300
256.998, 12901.740
257.480, 12922.250
257.962, 12934.500
258.444, 12937.850
258.926, 12930.670
259.408, 12899.080
259.890, 12860.480
260.372, 12872.730
260.855, 12963.000
261.337, 13052.940
261.819, 13096.640
262.301, 13069.570
262.783, 13077.470
263.265, 13141.150
263.747, 13233.790
264.229, 13277.410
264.711, 13242.340
265.194, 13221.330
265.676, 13278.200
266.158, 13449.160
266.640, 13543.750
267.122, 13528.880
267.604, 13451.110
268.086, 13429.210
268.569, 13482.280
269.051, 13542.190
269.533, 13575.800
270.015, 13579.240
270.497, 13575.540
270.979, 13561.080
271.461, 13544.010
271.943, 13543.500
272.425, 13562.610
272.908, 13588.380
273.390, 13611.260
273.872, 13628.040
274.354, 13672.630
274.836, 13763.680
275.318, 13862.850
275.800, 13879.970
276.282, 13794.980
276.764, 13719.900
277.247, 13719.120
277.729, 13800.720
278.211, 13847.010
278.693, 13846.890
279.175, 13825.040
279.657, 13821.600
280.139, 13836.810
280.621, 13867.170
281.103, 13913.420
281.586, 13975.330
282.068, 14049.810
282.550, 14146.830
283.032, 14234.460
283.514, 14246.870
283.996, 14179.720
284.478, 14125.510
284.960, 14140.120
285.443, 14215.380
285.925, 14245.300
286.407, 14218.010
286.889, 14183.830
287.371, 14226.220
287.853, 14341.620
288.335, 14439.000
288.817, 14461.680
289.299, 14428.930
289.782, 14444.820
290.264, 14517.150
290.746, 14598.050
291.228, 14621.180
291.710, 14594.480
292.192, 14577.080
292.674, 14598.900
293.156, 14646.900
293.638, 14688.960
294.121, 14725.980
294.603, 14747.750
295.085, 14724.690
295.567, 14671.770
296.049, 14648.760
296.531, 14698.510
297.013, 14785.320
297.496, 14836.710
297.978, 14851.640
298.460, 14858.530
298.942, 14894.400
299.424, 14943.260
299.906, 14961.430
300.388, 14907.430
300.870, 14832.330
301.352, 14820.080
301.835, 14866.950
302.317, 14913.300
302.799, 14897.210
303.281, 14849.150
303.763, 14827.310
304.245, 14878.030
304.727, 14931.860
305.209, 14901.840
305.691, 14796.790
306.174, 14687.240
306.656, 14633.450
307.138, 14598.250
307.620, 14531.540
308.102, 14409.420
308.584, 14267.280
309.066, 14127.800
309.548, 13990.140
310.030, 13858.520
310.513, 13736.690
310.995, 13619.720
311.477, 13503.170
311.959, 13381.840
312.441, 13269.290
312.923, 13182.690
313.405, 13113.170
313.887, 13038.560
314.370, 12925.160
314.852, 12816.040
315.334, 12751.770
315.816, 12768.590
316.298, 12754.880
316.780, 12632.330
317.262, 12446.670
317.744, 12286.700
318.226, 12204.290
318.709, 12142.720
319.191, 12071.220
319.673, 11977.960
320.155, 11903.840
320.637, 11876.430
321.119, 11871.620
321.601, 11854.940
322.083, 11790.020
322.565, 11737.070
323.048, 11722.560
323.530, 11757.080
324.012, 11782.170
324.494, 11798.510
324.976, 11797.370
325.458, 11769.450
325.940, 11681.090
326.422, 11598.500
326.905, 11530.160
327.387, 11475.070
327.869, 11445.850
328.351, 11472.060
328.833, 11507.640
329.315, 11516.990
329.797, 11492.890
330.279, 11450.880
330.762, 11375.560
331.244, 11271.040
331.726, 11218.460
332.208, 11255.530
332.690, 11305.940
333.172, 11317.510
333.654, 11265.670
334.136, 11224.380
334.618, 11201.770
335.100, 11194.590
335.583, 11188.880
336.065, 11186.920
336.547, 11182.450
337.029, 11170.280
337.511, 11146.420
337.993, 11128.780
338.475, 11118.970
338.957, 11114.700
339.440, 11113.490
339.922, 11118.290
340.404, 11114.290
340.886, 11085.510
341.368, 11029.030
341.850, 11006.290
342.332, 11028.700
342.814, 11065.180
343.297, 11064.070
343.779, 11024.100
344.261, 10982.910
344.743, 10960.570
345.225, 10952.290
345.707, 10923.350
346.189, 10870.350
346.671, 10813.490
347.153, 10760.060
347.635, 10715.560
348.118, 10714.700
348.600, 10654.673
349.082, 10699.363
349.564, 10718.636
350.046, 10713.855
350.528, 10612.980
351.010, 10636.191
351.492, 10609.672
351.975, 10581.116
352.457, 10621.792
352.939, 10534.894
353.421, 10574.472
353.903, 10563.562
354.385, 10575.757
354.867, 10537.919
355.349, 10514.220
355.832, 10464.150
356.314, 10385.080
356.796, 10304.500
357.278, 10242.130
357.760, 10195.390
358.242, 10158.210
358.724, 10130.750
359.206, 10109.160
359.688, 10095.690
360.171, 10096.380
360.653, 10080.330
361.135, 10017.200
361.617, 9930.747
362.099, 9857.375
362.581, 9816.603
363.063, 9783.533
363.545, 9744.754
364.027, 9697.557
364.510, 9665.086
364.992, 9663.756
365.474, 9674.836
365.956, 9681.130
366.438, 9687.673
366.920, 9680.997
367.402, 9652.244
367.884, 9603.031
368.366, 9561.889
368.849, 9534.376
369.331, 9512.467
369.813, 9493.160
370.295, 9496.323
370.777, 9470.900
371.259, 9389.302
371.741, 9278.163
372.224, 9227.272
372.706, 9286.830
373.188, 9333.095
373.670, 9297.318
374.152, 9131.996
374.634, 9050.702
375.116, 9080.042
375.598, 9168.291
376.080, 9235.720
376.562, 9283.684
377.045, 9302.547
377.527, 9281.852
378.009, 9222.822
378.491, 9167.534
378.973, 9116.108
379.455, 9069.129
379.937, 9020.790
380.419, 8971.492
380.902, 8956.225
381.384, 9004.484
381.866, 9082.315
382.348, 9078.170
382.830, 8991.646
383.312, 8915.359
383.794, 8961.403
384.276, 9080.693
384.759, 9117.454
385.241, 9011.129
385.723, 8873.785
386.205, 8879.233
386.687, 8993.937
387.169, 9088.627
387.651, 9053.968
388.133, 8967.747
388.615, 8931.910
389.098, 8966.311
389.580, 9002.599
390.062, 8979.195
390.544, 8922.688
391.026, 8877.824
391.508, 8880.125
391.990, 8887.454
392.472, 8867.339
392.954, 8818.974
393.437, 8785.847
393.919, 8795.194
394.401, 8824.947
394.883, 8855.837
395.365, 8924.442
395.847, 8949.974
396.329, 8865.674
396.811, 8703.928
397.293, 8619.132
397.776, 8708.445
398.258, 8826.895
398.740, 8907.053
399.222, 8934.520
399.704, 8940.047
400.186, 8920.755
400.668, 8880.182
401.151, 8820.464
401.633, 8698.246
402.115, 8619.296
402.597, 8632.143
403.079, 8756.385
403.561, 8813.101
404.043, 8775.474
404.525, 8705.203
405.007, 8670.432
405.490, 8682.135
405.972, 8683.757
406.454, 8654.922
406.936, 8608.480
407.418, 8605.270
407.900, 8650.173
408.382, 8713.432
408.864, 8777.805
409.346, 8843.014
409.828, 8910.580
410.311, 8986.145
410.793, 9050.980
411.275, 9066.467
411.757, 9038.608
412.239, 9010.557
412.721, 8998.296
413.203, 9002.897
413.685, 9032.541
414.168, 9089.115
414.650, 9147.837
415.132, 9183.142
415.614, 9204.698
416.096, 9229.062
416.578, 9265.460
417.060, 9304.864
417.542, 9347.712
418.025, 9390.813
418.507, 9413.792
418.989, 9364.277
419.471, 9313.839
419.953, 9325.480
420.435, 9456.481
420.917, 9574.843
421.399, 9624.956
421.881, 9630.751
422.364, 9643.026
422.846, 9678.150
423.328, 9717.704
423.810, 9754.861
424.292, 9788.614
424.774, 9824.442
425.256, 9859.167
425.738, 9898.335
426.220, 9947.396
426.703, 10017.340
427.185, 10079.100
427.667, 10119.740
428.149, 10144.440
428.631, 10202.070
429.113, 10314.860
429.595, 10420.720
430.077, 10469.860
430.560, 10449.260
431.042, 10460.430
431.524, 10519.510
432.006, 10599.770
432.488, 10647.970
432.970, 10662.650
433.452, 10678.680
433.934, 10715.640
434.417, 10767.520
434.899, 10808.370
435.381, 10837.260
435.863, 10865.790
436.345, 10913.760
436.827, 10971.330
437.309, 11010.660
437.791, 11016.440
438.273, 11008.680
438.755, 11003.370
439.238, 11002.190
439.720, 11012.780
440.202, 11070.700
440.684, 11126.030
441.166, 11119.990
441.648, 11023.270
442.130, 10937.070
442.612, 10912.860
443.095, 10932.560
443.577, 10968.690
444.059, 11031.360
444.541, 11091.360
445.023, 11151.010
445.505, 11211.210
445.987, 11221.240
446.469, 11110.800
446.952, 10988.150
447.434, 10926.110
447.916, 10984.700
448.398, 11022.140
448.880, 11035.550
449.362, 11024.060
449.844, 10979.190
450.326, 10876.650
450.808, 10786.620
451.290, 10735.920
451.773, 10726.730
452.255, 10748.710
452.737, 10820.470
453.219, 10884.970
453.701, 10856.150
454.183, 10730.150
454.665, 10639.650
455.147, 10629.800
455.630, 10667.420
456.112, 10670.250
456.594, 10638.940
457.076, 10592.430
457.558, 10532.560
458.040, 10469.210
458.522, 10427.900
459.004, 10416.510
459.487, 10406.940
459.969, 10367.430
460.451, 10309.400
460.933, 10255.230
461.415, 10210.210
461.897, 10177.920
462.379, 10168.100
462.861, 10179.340
463.343, 10183.300
463.826, 10147.630
464.308, 10110.570
464.790, 10104.100
465.272, 10183.330
465.754, 10225.530
466.236, 10183.220
466.718, 10087.390
467.200, 10013.130
467.682, 9979.455
468.165, 9953.854
468.647, 9924.466
469.129, 9886.831
469.611, 9873.674
470.093, 9896.979
470.575, 9929.920
471.057, 9951.953
471.539, 9967.510
472.022, 9948.313
472.504, 9872.510
472.986, 9769.784
473.468, 9737.716
473.950, 9782.396
474.432, 9832.818
474.914, 9852.517
475.396, 9844.463
475.878, 9813.577
476.361, 9756.162
476.843, 9702.396
477.325, 9700.903
477.807, 9730.379
478.289, 9736.455
478.771, 9669.352
479.253, 9598.478
479.735, 9611.585
480.217, 9691.063
480.700, 9750.469
481.182, 9717.950
481.664, 9658.812
482.146, 9627.021
482.628, 9644.813
483.110, 9649.022
483.592, 9592.229
484.074, 9515.505
484.556, 9475.818
485.039, 9537.535
485.521, 9581.460
486.003, 9561.867
486.485, 9483.033
486.967, 9450.449
487.449, 9486.030
487.931, 9543.617
488.414, 9605.288
488.896, 9690.157
489.378, 9717.731
489.860, 9673.036
490.342, 9585.948
490.824, 9496.124
491.306, 9399.696
491.788, 9335.515
492.270, 9329.632
492.753, 9365.250
493.235, 9375.604
493.717, 9359.870
494.199, 9339.588
494.681, 9328.698
495.163, 9326.777
495.645, 9332.558
496.127, 9345.162
496.609, 9366.651
497.092, 9416.146
497.574, 9475.530
498.056, 9506.187
498.538, 9468.406
499.020, 9412.880
499.502, 9355.883
499.984, 9299.189
500.466, 9288.099
500.948, 9383.130
501.431, 9503.204
501.913, 9590.377
502.395, 9630.846
502.877, 9645.085
503.359, 9605.414
503.841, 9544.962
504.323, 9530.935
504.805, 9593.489
505.288, 9655.763
505.770, 9697.729
506.252, 9719.403
506.734, 9728.795
507.216, 9721.747
507.698, 9712.426
508.180, 9723.468
508.662, 9754.296
509.145, 9739.002
509.627, 9653.564
510.109, 9550.136
510.591, 9522.181
511.073, 9558.526
511.555, 9597.593
512.037, 9603.754
512.519, 9597.089
513.001, 9618.343
513.484, 9665.405
513.966, 9683.929
514.448, 9602.983
514.930, 9490.273
515.412, 9416.574
515.894, 9413.817
516.376, 9422.742
516.858, 9428.197
517.341, 9428.003
517.823, 9418.140
518.305, 9402.918
518.787, 9372.604
519.269, 9316.684
519.751, 9233.457
520.233, 9165.677
520.715, 9127.394
521.197, 9090.179
521.680, 9031.128
522.162, 8936.877
522.644, 8870.931
523.126, 8847.414
523.608, 8841.546
524.090, 8808.369
524.572, 8746.476
525.054, 8677.910
525.536, 8601.337
526.019, 8526.196
526.501, 8489.774
526.983, 8490.624
527.465, 8480.923
527.947, 8396.083
528.429, 8285.222
528.911, 8233.587
529.393, 8147.947
529.875, 8206.821
530.358, 8230.616
530.840, 8221.216
531.322, 8079.199
531.804, 8108.423
532.286, 8069.027
532.768, 8026.814
533.250, 8080.147
533.732, 7957.417
534.214, 8009.237
534.697, 7991.373
535.179, 8005.406
535.661, 7950.383
536.143, 7914.871
536.625, 7873.245
537.107, 7807.831
537.589, 7779.316
538.071, 7796.487
538.554, 7804.063
539.036, 7782.005
539.518, 7746.061
540.000, 7744.425
540.482, 7777.151
540.964, 7825.326
541.446, 7891.351
541.928, 7962.062
542.411, 8004.189
542.893, 8013.471
543.375, 8018.362
543.857, 8055.011
544.339, 8099.162
544.821, 8115.363
545.303, 8067.698
545.785, 8021.492
546.268, 8015.653
546.750, 8037.010
547.232, 8050.217
547.714, 8026.561
548.196, 8010.806
548.678, 8029.117
549.160, 8093.027
549.642, 8118.413
550.124, 8077.467
550.606, 8026.398
551.089, 8006.654
551.571, 8023.244
552.053, 8056.182
552.535, 8108.554
553.017, 8169.972
553.499, 8228.773
553.981, 8285.140
554.463, 8309.734
554.945, 8266.624
555.428, 8193.000
555.910, 8185.767
556.392, 8240.784
556.874, 8306.853
557.356, 8354.898
557.838, 8389.061
558.320, 8411.713
558.802, 8420.135
559.284, 8430.400
559.767, 8459.893
560.249, 8494.212
560.731, 8515.240
561.213, 8492.219
561.695, 8483.120
562.177, 8504.902
562.659, 8554.191
563.141, 8611.770
563.624, 8704.266
564.106, 8768.892
564.588, 8767.319
565.070, 8684.248
565.552, 8668.978
566.034, 8745.110
566.516, 8836.366
566.998, 8854.663
567.481, 8803.939
567.963, 8790.944
568.445, 8841.787
568.927, 8920.947
569.409, 8984.655
569.891, 9032.072
570.373, 9062.359
570.855, 9043.142
571.338, 9026.877
571.820, 9076.008
572.302, 9185.117
572.784, 9294.296
573.266, 9400.513
573.748, 9478.296
574.230, 9502.857
574.712, 9438.145
575.194, 9398.651
575.677, 9406.575
576.159, 9447.968
576.641, 9509.508
577.123, 9617.410
577.605, 9698.429
578.087, 9733.041
578.569, 9735.877
579.051, 9756.804
579.533, 9797.574
580.016, 9848.067
580.498, 9901.646
580.980, 9960.193
581.462, 10044.200
581.944, 10155.450
582.426, 10251.770
582.908, 10264.770
583.390, 10241.130
583.872, 10266.840
584.355, 10370.440
584.837, 10496.770
585.319, 10618.260
585.801, 10734.680
586.283, 10846.660
586.765, 10974.090
587.247, 11076.990
587.729, 11121.450
588.211, 11116.540
588.694, 11156.620
589.176, 11281.530
589.658, 11410.160
590.140, 11502.980
590.622, 11546.380
591.104, 11639.080
591.586, 11802.820
592.068, 11967.380
592.551, 12040.960
593.033, 12028.920
593.515, 12059.400
593.997, 12161.220
594.479, 12303.040
594.961, 12447.140
595.443, 12593.090
595.925, 12737.490
596.407, 12891.190
596.890, 13034.340
597.372, 13137.240
597.854, 13206.580
598.336, 13285.870
598.818, 13409.750
599.300, 13539.210
599.782, 13648.230
600.265, 13725.270
600.747, 13810.190
601.229, 13899.400
601.711, 14001.050
602.193, 14125.660
602.675, 14283.500
603.157, 14436.800
603.639, 14588.420
604.121, 14727.690
604.604, 14818.350
605.086, 14858.210
605.568, 14926.260
606.050, 15039.240
606.532, 15210.980
607.014, 15524.840
607.496, 15961.160
607.978, 16344.380
608.460, 16542.471
608.943, 16623.850
609.425, 16636.471
609.907, 16572.670
610.389, 16527.270
610.871, 16543.660
611.353, 16599.471
611.835, 16672.320
612.317, 16780.779
612.799, 16878.400
613.282, 16945.381
613.764, 17004.830
614.246, 17112.449
614.728, 17290.750
615.210, 17460.439
615.692, 17605.820
616.174, 17723.930
616.656, 17774.820
617.138, 17754.670
617.621, 17739.580
618.103, 17780.689
618.585, 17865.910
619.067, 17977.551
619.549, 18116.270
620.031, 18250.029
620.513, 18364.561
620.995, 18456.080
621.477, 18520.180
621.960, 18549.820
622.442, 18560.330
622.924, 18545.539
623.406, 18516.930
623.888, 18495.301
624.370, 18486.760
624.852, 18480.340
625.334, 18473.461
625.817, 18466.850
626.299, 18466.131
626.781, 18473.020
627.263, 18480.471
627.745, 18487.881
628.227, 18494.141
628.709, 18490.301
629.191, 18476.910
629.674, 18448.330
630.156, 18393.789
630.638, 18322.711
631.120, 18252.561
631.602, 18189.311
632.084, 18120.010
632.566, 18026.170
633.048, 17923.600
633.531, 17834.090
634.013, 17768.520
634.495, 17714.600
634.977, 17686.160
635.459, 17669.510
635.941, 17614.461
636.423, 17498.561
636.905, 17381.180
637.387, 17279.779
637.870, 17194.320
638.352, 17117.381
638.834, 17046.301
639.316, 16994.539
639.798, 16987.900
640.280, 17009.199
640.762, 17000.631
641.244, 16955.520
641.726, 16894.051
642.209, 16821.869
642.691, 16749.080
643.173, 16692.279
643.655, 16668.461
644.137, 16642.150
644.619, 16602.990
645.101, 16551.000
645.583, 16485.930
646.065, 16417.270
646.548, 16321.510
647.030, 16175.240
647.512, 15993.120
647.994, 15882.930
648.476, 15874.340
648.958, 15838.680
649.440, 15695.810
649.922, 15461.280
650.404, 15226.340
650.887, 14987.270
651.369, 14782.360
651.851, 14694.280
652.333, 14646.190
652.815, 14501.330
653.297, 14217.710
653.779, 13932.230
654.261, 13735.650
654.744, 13586.250
655.226, 13435.350
655.708, 13243.870
656.190, 13081.290
656.672, 12985.100
657.154, 12919.510
657.636, 12811.270
658.118, 12644.600
658.601, 12470.580
659.083, 12293.820
659.565, 12123.260
660.047, 12010.160
660.529, 11956.270
661.011, 11902.200
661.493, 11810.810
661.975, 11694.620
662.458, 11576.510
662.940, 11457.600
663.422, 11335.520
663.904, 11187.670
664.386, 11047.520
664.868, 10950.030
665.350, 10911.390
