##NAMES=Fizelyite
##RRUFFID=R060175
##IDEAL CHEMISTRY=Ag^1+^_5_Pb^2+^_14_Sb^3+^_21_S^2-^_48_
##LOCALITY=Van Silver mine, Squamish, British Columbia, Canada
##OWNER=RRUFF
##SOURCE=Ty Balacko
##DESCRIPTION=Dark gray deeply-striated single crystals
##STATUS=The identification of this mineral is confirmed by single-crystal X-ray diffraction and chemical analysis.
##URL=rruff.info/R060175
##MEASURED CHEMISTRY=Pb_13.74_Ag_5.94_Sb_20.87_S_48.00_
92.02539, 541.6340
92.50751, 541.7688
92.98962, 545.7558
93.47174, 548.0999
93.95386, 550.4189
94.43597, 550.0336
94.91809, 546.5905
95.40021, 541.0663
95.88232, 534.3744
96.36444, 525.7838
96.84656, 517.1058
97.32867, 508.9203
97.81078, 501.3444
98.29290, 494.4758
98.77502, 488.1392
99.25713, 481.6573
99.73925, 475.0699
100.2214, 468.6709
100.7035, 462.0997
101.1856, 454.6516
101.6677, 446.4795
102.1498, 438.7220
102.6320, 432.7917
103.1141, 429.3053
103.5962, 426.3537
104.0783, 423.7381
104.5604, 421.6393
105.0425, 420.5152
105.5247, 420.6419
106.0068, 421.1431
106.4889, 420.4541
106.9710, 418.6232
107.4531, 416.1310
107.9352, 412.6732
108.4173, 408.4821
108.8995, 404.8503
109.3816, 402.2593
109.8637, 400.4691
110.3458, 399.1091
110.8279, 398.1006
111.3100, 397.6383
111.7922, 398.0538
112.2743, 399.5466
112.7564, 401.2923
113.2385, 403.2667
113.7206, 405.2633
114.2027, 407.0755
114.6849, 408.5828
115.1670, 409.8986
115.6491, 411.3925
116.1312, 413.1891
116.6133, 415.0590
117.0954, 417.1218
117.5776, 419.2134
118.0597, 421.0532
118.5418, 422.4081
119.0239, 423.2646
119.5060, 424.6750
119.9881, 426.7888
120.4703, 429.1744
120.9524, 431.8822
121.4345, 434.7858
121.9166, 437.5510
122.3987, 439.9490
122.8808, 441.9108
123.3630, 442.9440
123.8451, 442.3285
124.3272, 441.1502
124.8093, 440.4696
125.2914, 440.4866
125.7735, 440.7552
126.2557, 440.8684
126.7378, 440.8492
127.2199, 440.6571
127.7020, 440.1536
128.1841, 439.4446
128.6662, 438.9257
129.1483, 438.9200
129.6305, 438.7711
130.1126, 437.9785
130.5947, 436.5783
131.0768, 434.9623
131.5589, 433.4311
132.0410, 431.9958
132.5232, 430.5684
133.0053, 429.0471
133.4874, 427.5874
133.9695, 426.3198
134.4516, 425.2523
134.9337, 424.2581
135.4159, 423.1572
135.8980, 421.9911
136.3801, 420.5897
136.8622, 418.7446
137.3443, 416.8040
137.8264, 415.1435
138.3086, 413.8921
138.7907, 412.8044
139.2728, 411.2325
139.7549, 408.6616
140.2370, 406.1616
140.7191, 403.7083
141.2013, 401.3831
141.6834, 399.3201
142.1655, 397.6196
142.6476, 396.2108
143.1297, 394.8014
143.6118, 393.5867
144.0939, 392.1888
144.5761, 390.3651
145.0582, 388.1895
145.5403, 386.0019
146.0224, 384.0880
146.5045, 382.2704
146.9866, 380.0474
147.4688, 377.0350
147.9509, 373.9196
148.4330, 371.3140
148.9151, 369.2372
149.3972, 367.5358
149.8793, 366.5850
150.3615, 365.8516
150.8436, 364.6247
151.3257, 362.5128
151.8078, 359.8199
152.2899, 357.2103
152.7720, 354.5387
153.2542, 352.2071
153.7363, 350.4488
154.2184, 349.0476
154.7005, 347.6520
155.1826, 346.0259
155.6647, 344.2060
156.1469, 342.6097
156.6290, 341.4203
157.1111, 340.3092
157.5932, 339.2627
158.0753, 338.2289
158.5574, 337.1121
159.0396, 335.7820
159.5217, 334.1638
160.0038, 333.0494
160.4859, 332.8290
160.9680, 332.6833
161.4501, 332.1865
161.9323, 331.3929
162.4144, 330.7093
162.8965, 330.6124
163.3786, 331.3531
163.8607, 331.5280
164.3428, 330.6303
164.8250, 329.5693
165.3071, 329.0276
165.7892, 329.1039
166.2713, 329.4117
166.7534, 329.5139
167.2355, 329.3820
167.7177, 329.2460
168.1998, 329.0774
168.6819, 328.9359
169.1640, 328.8841
169.6461, 328.9249
170.1282, 329.0940
170.6104, 329.4281
171.0925, 329.9028
171.5746, 330.5705
172.0567, 331.6720
172.5388, 333.0065
173.0209, 333.9459
173.5031, 334.1988
173.9852, 334.2580
174.4673, 334.5186
174.9494, 334.9748
175.4315, 335.6018
175.9136, 336.3468
176.3958, 337.2150
176.8779, 338.3609
177.3600, 340.0207
177.8421, 341.8103
178.3242, 343.6719
178.8063, 345.5436
179.2885, 347.1156
179.7706, 347.8637
180.2527, 347.4536
180.7348, 347.7048
181.2169, 349.4565
181.6990, 351.3564
182.1812, 352.6849
182.6633, 353.3421
183.1454, 353.6934
183.6275, 354.2026
184.1096, 354.7704
184.5917, 355.7618
185.0738, 357.5762
185.5560, 359.4660
186.0381, 360.9095
186.5202, 361.7747
187.0023, 362.2766
187.4844, 362.7743
187.9665, 363.3635
188.4487, 363.7752
188.9308, 363.8142
189.4129, 363.7766
189.8950, 363.9308
190.3771, 364.3649
190.8592, 364.9922
191.3414, 365.6510
191.8235, 366.2781
192.3056, 367.0562
192.7877, 368.3244
193.2698, 369.6635
193.7519, 370.4398
194.2341, 370.3711
194.7162, 369.8706
195.1983, 369.6806
195.6804, 369.6216
196.1625, 370.1691
196.6446, 371.8818
197.1268, 374.3112
197.6089, 376.4103
198.0910, 377.7272
198.5731, 378.7277
199.0552, 380.1859
199.5373, 382.1773
200.0195, 384.1662
200.5016, 385.8477
200.9837, 387.2787
201.4658, 388.7073
201.9479, 390.1150
202.4300, 391.6704
202.9122, 393.5716
203.3943, 395.8661
203.8764, 398.1471
204.3585, 399.9857
204.8406, 401.3905
205.3227, 403.0447
205.8048, 405.1744
206.2870, 407.5905
206.7691, 410.2016
207.2512, 412.9888
207.7333, 415.8453
208.2154, 418.7064
208.6975, 421.6136
209.1797, 424.2722
209.6618, 426.4227
210.1439, 428.4464
210.6260, 430.4677
211.1081, 432.5300
211.5902, 434.6998
212.0724, 437.0573
212.5545, 439.5794
213.0366, 442.3320
213.5187, 445.5895
214.0008, 448.8553
214.4829, 451.7388
214.9651, 454.1977
215.4472, 456.6166
215.9293, 459.6454
216.4114, 463.9394
216.8935, 467.4534
217.3756, 469.8730
217.8578, 471.8916
218.3399, 473.8911
218.8220, 475.9919
219.3041, 478.2314
219.7862, 480.7048
220.2683, 483.9044
220.7505, 486.3002
221.2326, 487.3344
221.7147, 488.0162
222.1968, 489.1935
222.6789, 491.0413
223.1610, 493.0575
223.6432, 494.4793
224.1253, 494.8486
224.6074, 495.5323
225.0895, 497.0068
225.5716, 498.5304
226.0537, 499.3087
226.5358, 499.1786
227.0180, 498.7641
227.5001, 499.0225
227.9822, 500.3959
228.4643, 500.9556
228.9464, 500.0825
229.4285, 498.5705
229.9107, 497.2346
230.3928, 496.2595
230.8749, 495.4010
231.3570, 494.4586
231.8391, 493.4860
232.3212, 491.9856
232.8034, 489.4761
233.2855, 486.5549
233.7676, 484.0314
234.2497, 482.1019
234.7318, 480.2687
235.2139, 477.7948
235.6961, 474.7800
236.1782, 472.1416
236.6603, 470.3727
237.1424, 469.0423
237.6245, 467.4471
238.1066, 465.4198
238.5888, 463.3668
239.0709, 461.6939
239.5530, 460.3028
240.0351, 458.9019
240.5172, 457.0689
240.9993, 455.2207
241.4815, 454.2120
241.9636, 454.2361
242.4457, 454.7349
242.9278, 455.4355
243.4099, 456.2814
243.8920, 457.1753
244.3742, 457.9071
244.8563, 458.6814
245.3384, 459.9641
245.8205, 461.7903
246.3026, 464.0792
246.7847, 466.8046
247.2668, 469.8990
247.7490, 473.2987
248.2311, 476.9932
248.7132, 480.9553
249.1953, 485.2437
249.6774, 490.0046
250.1595, 494.7896
250.6417, 499.1755
251.1238, 503.5144
251.6059, 508.2577
252.0880, 513.6346
252.5701, 519.5122
253.0522, 525.5727
253.5344, 531.5184
254.0165, 538.2513
254.4986, 546.3134
254.9807, 555.0497
255.4628, 563.8483
255.9449, 572.4172
256.4271, 580.8648
256.9092, 589.4595
257.3913, 597.9832
257.8734, 607.0879
258.3555, 617.4662
258.8376, 628.0927
259.3198, 637.9799
259.8019, 646.7007
260.2840, 654.8133
260.7661, 663.5554
261.2482, 673.5985
261.7303, 682.9557
262.2125, 691.6065
262.6946, 699.5759
263.1767, 706.7260
263.6588, 713.0823
264.1409, 718.9250
264.6230, 724.8722
265.1052, 731.4110
265.5873, 737.0144
266.0694, 741.6290
266.5515, 745.4492
267.0336, 748.6381
267.5157, 751.2111
267.9979, 753.0027
268.4800, 753.5760
268.9621, 751.8442
269.4442, 751.2909
269.9263, 753.1942
270.4084, 755.1107
270.8906, 755.1409
271.3727, 753.2214
271.8548, 750.9197
272.3369, 750.2123
272.8190, 751.7950
273.3011, 752.7101
273.7833, 752.2831
274.2654, 751.8888
274.7475, 752.3347
275.2296, 753.6149
275.7117, 755.2665
276.1938, 756.9330
276.6760, 758.7838
277.1581, 759.5214
277.6402, 758.1199
278.1223, 756.8248
278.6044, 756.7726
279.0865, 757.8035
279.5686, 759.1322
280.0508, 760.2040
280.5329, 761.0267
281.0150, 761.0461
281.4971, 760.0078
281.9792, 758.5998
282.4613, 757.1115
282.9435, 755.4549
283.4256, 753.3953
283.9077, 750.7905
284.3898, 747.6316
284.8719, 743.9808
285.3540, 739.8248
285.8362, 735.2641
286.3183, 730.4468
286.8004, 725.2260
287.2825, 719.2922
287.7646, 712.4409
288.2467, 704.8781
288.7289, 697.1722
289.2110, 689.3495
289.6931, 681.4034
290.1752, 673.3141
290.6573, 665.1441
291.1394, 657.2268
291.6216, 649.7304
292.1037, 642.1268
292.5858, 633.0916
293.0679, 621.8314
293.5500, 610.7640
294.0321, 600.2660
294.5143, 590.0137
294.9964, 579.5207
295.4785, 568.6150
295.9606, 557.8828
296.4427, 548.1591
296.9248, 539.7691
297.4070, 531.5305
297.8891, 523.0729
298.3712, 514.9478
298.8533, 507.6129
299.3354, 501.1683
299.8175, 495.4304
300.2997, 490.2851
300.7818, 485.8351
301.2639, 481.6078
301.7460, 477.6601
302.2281, 473.9129
302.7102, 470.3659
303.1924, 466.9897
303.6745, 463.5806
304.1566, 459.9662
304.6387, 456.1522
305.1208, 452.2956
305.6029, 447.8969
306.0851, 443.9087
306.5672, 440.8998
307.0493, 438.7186
307.5314, 436.8377
308.0135, 434.9550
308.4956, 433.1568
308.9778, 431.8513
309.4599, 431.0051
309.9420, 430.5683
310.4241, 430.4901
310.9062, 430.8129
311.3883, 431.6220
311.8705, 432.9449
312.3526, 434.7788
312.8347, 437.1187
313.3168, 439.7556
313.7989, 443.2367
314.2810, 448.4070
314.7632, 454.2288
315.2453, 459.2571
315.7274, 463.0566
316.2095, 466.4916
316.6916, 470.8908
317.1737, 476.6836
317.6559, 481.5243
318.1380, 485.2561
318.6201, 487.9413
319.1022, 489.2870
319.5843, 489.3495
320.0664, 489.1420
320.5485, 489.6443
321.0306, 490.9273
321.5128, 491.7524
321.9949, 491.5711
322.4770, 491.4096
322.9591, 491.9063
323.4412, 493.0285
323.9233, 494.4055
324.4055, 495.7257
324.8876, 497.1147
325.3697, 499.2908
325.8518, 502.0126
326.3339, 505.6222
326.8160, 510.9140
327.2982, 517.1804
327.7803, 522.9211
328.2624, 527.4052
328.7445, 531.0536
329.2266, 535.0258
329.7087, 539.7836
330.1909, 544.0076
330.6730, 547.5614
331.1551, 550.3964
331.6372, 552.5967
332.1193, 554.1964
332.6014, 554.7672
333.0836, 553.6434
333.5657, 550.4554
334.0478, 546.2725
334.5299, 541.0476
335.0120, 534.9177
335.4941, 527.6517
335.9763, 519.3915
336.4584, 510.9036
336.9405, 503.0516
337.4226, 495.9082
337.9047, 487.7761
338.3868, 477.9166
338.8690, 467.8067
339.3511, 458.0748
339.8332, 448.6910
340.3153, 439.5498
340.7974, 430.6239
341.2795, 421.8505
341.7617, 412.9166
342.2438, 403.9680
342.7259, 394.7463
343.2080, 385.2950
343.6901, 375.4972
344.1722, 365.1974
344.6544, 354.3683
345.1365, 343.1232
345.6186, 331.7350
346.1007, 320.1384
346.5828, 308.4492
347.0649, 296.6938
347.5471, 284.9141
348.0292, 273.1231
348.5113, 261.4032
348.9934, 249.6521
349.4755, 237.8259
349.9576, 225.5835
350.4398, 214.6595
350.9219, 205.8430
351.4040, 197.4004
351.8861, 188.2915
352.3682, 178.7878
352.8503, 169.8652
353.3325, 162.3327
353.8146, 156.1311
354.2967, 150.1449
354.7788, 144.2083
355.2609, 138.6873
355.7430, 133.6870
356.2252, 129.1550
356.7073, 124.9901
357.1894, 121.1560
357.6715, 117.6693
358.1536, 114.5347
358.6357, 111.8640
359.1179, 109.4274
359.5999, 107.3748
360.0821, 105.4284
360.5642, 103.2973
361.0463, 100.9545
361.5284, 98.71231
362.0105, 96.99099
362.4926, 95.97079
362.9748, 94.77740
363.4569, 93.31582
363.9390, 91.78691
364.4211, 90.20987
364.9032, 88.62542
365.3853, 87.13087
365.8675, 85.79078
366.3496, 84.60240
366.8317, 83.54323
367.3138, 82.65598
367.7959, 81.86034
368.2780, 81.29841
368.7602, 80.76029
369.2423, 79.93184
369.7244, 78.66854
370.2065, 77.24293
370.6886, 76.22535
371.1707, 75.82049
371.6529, 75.31514
372.1350, 74.59899
372.6171, 73.76353
373.0992, 72.79456
373.5813, 71.72402
374.0634, 70.68386
374.5456, 69.79443
375.0277, 69.05673
375.5098, 68.48293
375.9919, 68.21913
376.4740, 67.96492
376.9561, 67.50219
377.4383, 66.93826
377.9204, 66.55915
378.4025, 66.67960
378.8846, 67.00880
379.3667, 66.63258
379.8488, 65.22433
380.3310, 63.95685
380.8131, 63.46766
381.2952, 63.28339
381.7773, 62.92260
382.2594, 62.23590
382.7415, 61.48437
383.2237, 60.96605
383.7058, 60.67828
384.1879, 60.39452
384.6700, 60.06789
385.1521, 59.72073
385.6342, 59.35609
386.1164, 58.98024
386.5985, 58.64152
387.0806, 58.33787
387.5627, 58.09659
388.0448, 58.04667
388.5269, 58.28545
389.0091, 58.42139
389.4912, 58.00463
389.9733, 57.26765
390.4554, 56.72387
390.9375, 56.61663
391.4196, 56.61105
391.9018, 56.32394
392.3839, 55.80190
392.8660, 55.52093
393.3481, 55.81970
393.8302, 56.35621
394.3123, 56.38762
394.7945, 55.69105
395.2766, 55.24994
395.7587, 55.84658
396.2408, 56.85108
396.7229, 57.11352
397.2050, 56.33857
397.6872, 55.20271
398.1693, 54.37792
398.6514, 53.89291
399.1335, 53.59278
399.6156, 53.69068
400.0977, 53.79180
400.5798, 53.51022
401.0620, 52.93607
401.5441, 52.53475
402.0262, 52.63286
402.5083, 53.10159
402.9904, 53.28562
403.4725, 53.05735
403.9547, 52.75128
404.4368, 52.32948
404.9189, 51.90121
405.4010, 51.63005
405.8831, 51.56208
406.3652, 51.57360
406.8474, 51.48262
407.3295, 51.24377
407.8116, 51.03100
408.2937, 50.75909
408.7758, 50.58345
409.2579, 50.69283
409.7401, 50.99446
410.2222, 51.19588
410.7043, 51.06669
411.1864, 50.65272
411.6685, 50.35506
412.1506, 50.21870
412.6328, 50.15783
413.1149, 50.27321
413.5970, 50.40577
414.0791, 50.35574
414.5612, 50.06120
415.0433, 49.67356
415.5255, 49.44264
416.0076, 49.43391
416.4897, 49.35165
416.9718, 49.03308
417.4539, 48.76224
417.9360, 48.71189
418.4182, 48.84060
418.9003, 48.97176
419.3824, 48.94270
419.8645, 48.81698
420.3466, 48.92686
420.8287, 49.45948
421.3109, 49.83117
421.7930, 49.68563
422.2751, 49.31421
422.7572, 49.04836
423.2393, 49.00002
423.7214, 48.97008
424.2036, 48.66963
424.6857, 48.11672
425.1678, 47.77942
425.6499, 47.84212
426.1320, 48.05854
426.6141, 48.24689
427.0963, 48.39865
427.5784, 48.43120
428.0605, 48.20795
428.5426, 47.88565
429.0247, 47.69272
429.5068, 47.64066
429.9890, 47.70157
430.4711, 47.90602
430.9532, 48.20424
431.4353, 48.44579
431.9174, 48.76961
432.3995, 48.82949
432.8817, 48.16040
433.3638, 47.13000
433.8459, 46.56643
434.3280, 46.76129
434.8101, 47.27201
435.2922, 47.50335
435.7744, 47.38246
436.2565, 47.23908
436.7386, 47.08802
437.2207, 46.91370
437.7028, 46.65887
438.1849, 46.35858
438.6671, 46.14903
439.1492, 46.13566
439.6313, 46.27438
440.1134, 46.30662
440.5955, 46.15657
441.0776, 45.99136
441.5598, 45.79815
442.0418, 45.61438
442.5240, 45.44220
443.0061, 45.29818
443.4882, 45.27013
443.9703, 45.52422
444.4524, 46.18398
444.9345, 46.54792
445.4167, 46.41753
445.8988, 46.18140
446.3809, 45.85219
446.8630, 45.53048
447.3451, 45.38954
447.8272, 45.55599
448.3094, 45.89925
448.7915, 46.10680
449.2736, 46.17852
449.7557, 46.11102
450.2378, 45.67931
450.7199, 45.25628
451.2021, 45.14518
451.6842, 45.36730
452.1663, 45.65950
452.6484, 45.83476
453.1305, 45.91056
453.6126, 45.96659
454.0948, 46.02830
454.5769, 46.02047
455.0590, 45.82671
455.5411, 45.53610
456.0232, 45.30636
456.5053, 45.21970
456.9875, 45.13930
457.4696, 44.89827
457.9517, 44.54660
458.4338, 44.32543
458.9159, 44.34604
459.3980, 44.46839
459.8802, 44.47134
460.3623, 44.34132
460.8444, 44.26036
461.3265, 44.28938
461.8086, 44.36122
462.2907, 44.45778
462.7729, 44.55559
463.2550, 44.55221
463.7371, 44.35632
464.2192, 44.01369
464.7013, 43.78479
465.1834, 43.64400
465.6656, 43.63919
466.1477, 43.89289
466.6298, 44.22858
467.1119, 44.47287
467.5940, 44.57989
468.0761, 44.58848
468.5583, 44.55518
469.0404, 44.49950
469.5225, 44.26881
470.0046, 43.46791
470.4867, 42.90376
470.9688, 42.96135
471.4510, 43.39523
471.9331, 43.82483
472.4152, 44.08065
472.8973, 44.17797
473.3794, 44.08726
473.8615, 43.72509
474.3437, 43.53472
474.8258, 43.87099
475.3079, 44.17918
475.7900, 44.01798
476.2721, 43.45986
476.7542, 42.98956
477.2364, 43.01439
477.7185, 43.31377
478.2006, 43.38630
478.6827, 43.20883
479.1648, 42.92185
479.6469, 42.49133
480.1291, 42.04548
480.6112, 41.82721
481.0933, 41.92818
481.5754, 42.02916
482.0575, 41.94645
482.5396, 41.75970
483.0217, 41.61451
483.5038, 41.54021
483.9860, 41.49195
484.4681, 41.42334
484.9502, 41.33410
485.4323, 41.28967
485.9144, 41.44091
486.3965, 41.47520
486.8787, 41.08600
487.3608, 40.51776
487.8429, 40.27298
488.3250, 40.55117
488.8071, 41.02515
489.2892, 41.08596
489.7714, 40.44137
490.2535, 40.10369
490.7356, 40.33992
491.2177, 40.58202
491.6998, 40.50157
492.1819, 40.18394
492.6641, 39.89775
493.1462, 39.81648
493.6283, 39.87321
494.1104, 39.87006
494.5925, 39.77910
495.0746, 39.70432
495.5568, 39.65290
496.0389, 39.63903
496.5210, 39.74128
497.0031, 39.93805
497.4852, 40.00792
497.9673, 39.66903
498.4495, 39.09330
498.9316, 38.75477
499.4137, 38.68684
499.8958, 38.77998
500.3779, 39.07067
500.8600, 39.45306
501.3422, 39.71741
501.8243, 39.86061
502.3064, 39.87097
502.7885, 39.68698
503.2706, 39.38100
503.7527, 39.05737
504.2349, 38.73820
504.7170, 38.46478
505.1991, 38.27516
505.6812, 38.17188
506.1633, 38.14740
506.6454, 38.36331
507.1276, 38.47116
507.6097, 38.22774
508.0918, 37.82648
508.5739, 37.59217
509.0560, 37.64044
509.5381, 37.79296
510.0203, 37.74810
510.5024, 37.40610
510.9845, 37.20929
511.4666, 37.22198
511.9487, 37.31759
512.4308, 37.55279
512.9130, 37.82303
513.3951, 37.90902
513.8772, 37.65517
514.3593, 37.29757
514.8414, 37.35247
515.3235, 37.90827
515.8057, 38.18581
516.2878, 37.79758
516.7699, 37.28064
517.2520, 37.11650
517.7341, 37.26168
518.2162, 37.37020
518.6984, 37.22230
519.1805, 37.00115
519.6626, 36.99113
520.1447, 37.17482
520.6268, 37.25695
521.1089, 37.07926
521.5911, 36.73637
522.0732, 36.41782
522.5553, 36.06020
523.0374, 35.88588
523.5195, 36.17895
524.0016, 36.49940
524.4838, 36.38395
524.9659, 35.87654
525.4480, 35.39009
525.9301, 35.23248
526.4122, 35.33016
526.8943, 35.29103
527.3765, 34.85143
527.8586, 34.66286
528.3407, 35.02049
528.8228, 35.46886
529.3049, 35.61301
529.7870, 35.43139
530.2692, 35.20028
530.7513, 35.21144
531.2334, 35.38881
531.7155, 35.18598
532.1976, 34.30256
532.6797, 33.74457
533.1619, 34.38493
533.6440, 35.34932
534.1261, 35.70868
534.6082, 35.26515
535.0903, 34.71967
535.5724, 34.54448
536.0546, 34.58850
536.5367, 34.53282
537.0188, 34.33612
537.5009, 34.06669
537.9830, 33.71653
538.4651, 33.33767
538.9473, 33.20045
539.4294, 33.48274
539.9115, 33.75791
540.3936, 33.98606
540.8757, 34.10596
541.3578, 33.96386
541.8400, 33.56813
542.3221, 33.18976
542.8042, 33.12635
543.2863, 33.38494
543.7684, 33.51863
544.2505, 33.32289
544.7326, 33.24839
545.2147, 33.54891
545.6968, 33.92826
546.1790, 34.03699
546.6611, 33.79625
547.1432, 33.43984
547.6253, 33.19719
548.1074, 33.06145
548.5895, 32.95823
549.0717, 32.86696
549.5538, 32.84623
550.0359, 33.09827
550.5180, 33.40037
551.0001, 33.36103
551.4822, 32.76751
551.9644, 32.19496
552.4465, 32.10828
552.9286, 32.27748
553.4107, 32.14983
553.8928, 31.60966
554.3749, 31.16219
554.8571, 31.34253
555.3392, 32.12148
555.8213, 32.37830
556.3034, 31.68113
556.7855, 31.07068
557.2676, 30.85336
557.7498, 30.84675
558.2319, 30.84202
558.7140, 30.78419
559.1961, 30.73135
559.6782, 30.74772
560.1603, 30.83368
560.6425, 30.96054
561.1246, 31.35926
561.6067, 31.43847
562.0888, 30.62612
562.5709, 29.62950
563.0530, 29.36009
563.5352, 30.05902
564.0173, 30.83351
564.4994, 30.82988
564.9815, 30.28591
565.4636, 30.00134
565.9457, 30.08837
566.4279, 30.24257
566.9100, 30.30803
567.3921, 30.27015
567.8742, 30.09881
568.3563, 29.61771
568.8384, 29.29637
569.3206, 29.41207
569.8027, 29.71482
570.2848, 29.93972
570.7669, 30.02930
571.2490, 29.99152
571.7311, 29.81125
572.2133, 29.50964
572.6954, 29.33139
573.1775, 29.44290
573.6596, 29.44785
574.1417, 29.14372
574.6238, 28.81836
575.1060, 28.77702
575.5881, 29.01926
576.0702, 29.24277
576.5523, 29.15260
577.0344, 28.84650
577.5165, 28.70002
577.9987, 28.74775
578.4808, 28.80792
578.9629, 28.84171
579.4450, 28.81877
579.9271, 28.66459
580.4092, 28.34387
580.8914, 28.13782
581.3735, 28.24047
581.8556, 28.45630
582.3377, 28.56997
582.8198, 28.57969
583.3019, 28.60439
583.7841, 28.72956
584.2662, 28.87175
584.7483, 28.79587
585.2304, 28.29292
585.7125, 27.90969
586.1946, 27.65173
586.6768, 27.49811
587.1589, 27.47980
587.6410, 27.55459
