##NAMES=Fluellite
##RRUFFID=R070473
##IDEAL CHEMISTRY=Al_2_(PO_4_)F_2_(OH)&#183;7H_2_O
##LOCALITY=Gold Quarry mine (Maggie claims), Maggie Creek District, Eureka County, Nevada, USA
##OWNER=RRUFF
##SOURCE=Michael Scott
##DESCRIPTION=Colorless to pale green blocky prismatic crystals
##STATUS=The identification of this mineral has been confirmed by single-crystal X-ray diffraction.
##URL=rruff.info/R070473
143.0946, 9506.183
143.5767, 9775.520
144.0588, 10022.92
144.5410, 10256.78
145.0231, 10456.86
145.5052, 10653.77
145.9873, 10886.32
146.4694, 11169.53
146.9515, 11474.31
147.4337, 11730.78
147.9158, 11916.45
148.3979, 12072.41
148.8800, 12182.95
149.3621, 12271.59
149.8442, 12367.55
150.3264, 12484.07
150.8085, 12609.38
151.2906, 12709.84
151.7727, 12776.89
152.2548, 12827.84
152.7369, 12872.01
153.2191, 12898.57
153.7012, 12886.32
154.1833, 12823.11
154.6654, 12727.16
155.1475, 12660.29
155.6296, 12633.39
156.1118, 12619.27
156.5939, 12613.05
157.0760, 12617.00
157.5581, 12636.92
158.0402, 12653.86
158.5223, 12736.71
159.0045, 12807.43
159.4866, 12866.63
159.9687, 12879.88
160.4508, 12952.47
160.9329, 13001.28
161.4150, 13049.11
161.8972, 13130.06
162.3793, 13150.00
162.8614, 13230.41
163.3435, 13367.55
163.8256, 13517.37
164.3077, 13629.98
164.7899, 13722.88
165.2720, 13838.87
165.7541, 14001.91
166.2362, 14194.01
166.7183, 14364.28
167.2004, 14507.94
167.6826, 14646.57
168.1647, 14788.22
168.6468, 14932.88
169.1289, 15080.49
169.6110, 15232.83
170.0931, 15387.41
170.5753, 15544.69
171.0574, 15729.72
171.5395, 15875.72
172.0216, 15936.20
172.5037, 15927.36
172.9858, 15907.00
173.4680, 15903.75
173.9501, 15894.08
174.4322, 15837.40
174.9143, 15726.60
175.3964, 15589.36
175.8785, 15422.28
176.3607, 15234.18
176.8428, 15062.58
177.3249, 14916.42
177.8070, 14802.11
178.2891, 14724.19
178.7712, 14691.48
179.2534, 14666.81
179.7355, 14624.75
180.2176, 14568.85
180.6997, 14518.40
181.1818, 14471.34
181.6639, 14443.18
182.1461, 14457.40
182.6282, 14527.43
183.1103, 14589.57
183.5924, 14582.64
184.0745, 14520.32
184.5566, 14497.33
185.0388, 14565.22
185.5209, 14665.34
186.0030, 14725.80
186.4851, 14742.08
186.9672, 14740.76
187.4493, 14728.29
187.9315, 14708.09
188.4136, 14709.42
188.8957, 14758.13
189.3778, 14812.58
189.8599, 14833.36
190.3420, 14819.03
190.8242, 14779.63
191.3063, 14704.60
191.7884, 14601.29
192.2705, 14526.38
192.7526, 14502.66
193.2347, 14501.86
193.7169, 14494.75
194.1990, 14480.97
194.6811, 14472.60
195.1632, 14479.48
195.6453, 14500.06
196.1274, 14526.78
196.6096, 14580.91
197.0917, 14612.00
197.5738, 14580.43
198.0559, 14489.27
198.5380, 14376.34
199.0201, 14264.67
199.5023, 14152.56
199.9844, 14024.52
200.4665, 13866.89
200.9486, 13707.81
201.4307, 13563.43
201.9128, 13433.73
202.3950, 13322.66
202.8771, 13239.64
203.3592, 13179.02
203.8413, 13110.46
204.3234, 13013.95
204.8055, 12936.47
205.2877, 12918.88
205.7698, 12946.32
206.2519, 12968.41
206.7340, 12940.41
207.2161, 12880.29
207.6982, 12863.14
208.1804, 12912.50
208.6625, 12970.02
209.1446, 13004.02
209.6267, 13017.98
210.1088, 13019.08
210.5909, 13000.98
211.0731, 12972.65
211.5552, 12965.55
212.0373, 12995.97
212.5194, 13014.24
213.0015, 12985.89
213.4836, 12928.33
213.9658, 12870.40
214.4479, 12826.28
214.9300, 12789.91
215.4121, 12747.85
215.8942, 12698.06
216.3763, 12648.21
216.8584, 12613.37
217.3406, 12578.64
217.8227, 12519.59
218.3048, 12415.75
218.7869, 12294.25
219.2690, 12204.52
219.7511, 12155.82
220.2333, 12104.99
220.7154, 12025.17
221.1975, 11934.95
221.6796, 11855.07
222.1617, 11793.90
222.6438, 11739.71
223.1260, 11676.51
223.6081, 11603.10
224.0902, 11527.40
224.5723, 11450.01
225.0544, 11372.68
225.5365, 11297.38
226.0187, 11225.31
226.5008, 11153.67
226.9829, 11075.15
227.4650, 10988.76
227.9471, 10918.21
228.4292, 10879.05
228.9114, 10854.69
229.3935, 10834.99
229.8756, 10821.28
230.3577, 10794.84
230.8398, 10728.58
231.3219, 10625.82
231.8041, 10542.09
232.2862, 10496.73
232.7683, 10470.49
233.2504, 10448.40
233.7325, 10430.29
234.2146, 10403.74
234.6968, 10353.62
235.1789, 10285.68
235.6610, 10225.88
236.1431, 10173.24
236.6252, 10138.27
237.1073, 10135.42
237.5895, 10160.20
238.0716, 10180.46
238.5537, 10182.31
239.0358, 10167.72
239.5179, 10138.45
240.0000, 10088.40
240.4822, 10038.25
240.9643, 10002.18
241.4464, 9978.571
241.9285, 9966.760
242.4106, 9976.256
242.8927, 9994.380
243.3749, 9997.914
243.8570, 9982.847
244.3391, 9967.562
244.8212, 9975.476
245.3033, 9992.825
245.7854, 9987.310
246.2676, 9925.584
246.7497, 9854.147
247.2318, 9828.959
247.7139, 9851.794
248.1960, 9877.384
248.6781, 9880.877
249.1603, 9868.893
249.6424, 9858.438
250.1245, 9855.012
250.6066, 9848.127
251.0887, 9820.795
251.5708, 9777.846
252.0530, 9753.958
252.5351, 9770.151
253.0172, 9811.077
253.4993, 9843.171
253.9814, 9865.469
254.4635, 9881.933
254.9457, 9890.293
255.4278, 9893.869
255.9099, 9899.626
256.3920, 9906.646
256.8741, 9922.902
257.3563, 9969.462
257.8384, 10053.39
258.3205, 10123.55
258.8026, 10154.85
259.2847, 10165.82
259.7668, 10182.92
260.2490, 10211.78
260.7311, 10250.15
261.2132, 10296.38
261.6953, 10350.45
262.1774, 10411.90
262.6595, 10483.12
263.1417, 10560.92
263.6238, 10645.36
264.1059, 10736.12
264.5880, 10825.01
265.0701, 10904.57
265.5522, 10974.22
266.0344, 11043.59
266.5165, 11108.92
266.9986, 11177.32
267.4807, 11255.50
267.9628, 11341.26
268.4449, 11422.30
268.9271, 11483.74
269.4092, 11532.80
269.8913, 11643.73
270.3734, 11842.79
270.8555, 12058.46
271.3376, 12265.74
271.8198, 12473.42
272.3019, 12704.59
272.7840, 12970.44
273.2661, 13258.59
273.7482, 13531.88
274.2303, 13773.98
274.7125, 14021.69
275.1946, 14301.18
275.6767, 14576.18
276.1588, 14819.95
276.6409, 15020.98
277.1230, 15164.16
277.6052, 15227.92
278.0873, 15215.53
278.5694, 15098.45
279.0515, 14851.07
279.5336, 14532.42
280.0157, 14158.92
280.4979, 13746.99
280.9800, 13325.76
281.4621, 12922.47
281.9442, 12531.70
282.4263, 12185.60
282.9084, 11881.14
283.3906, 11622.47
283.8727, 11423.95
284.3548, 11273.91
284.8369, 11149.26
285.3190, 11036.27
285.8011, 10933.88
286.2833, 10836.65
286.7654, 10730.33
287.2475, 10649.16
287.7296, 10605.74
288.2117, 10588.51
288.6938, 10584.48
289.1760, 10588.27
289.6581, 10599.03
290.1402, 10617.20
290.6223, 10650.10
291.1044, 10672.43
291.5865, 10674.37
292.0687, 10668.22
292.5508, 10660.40
293.0329, 10652.82
293.5150, 10648.91
293.9971, 10652.63
294.4792, 10664.21
294.9614, 10680.37
295.4435, 10699.77
295.9256, 10725.18
296.4077, 10765.14
296.8898, 10815.40
297.3719, 10855.07
297.8541, 10867.04
298.3362, 10855.92
298.8183, 10839.92
299.3004, 10817.06
299.7825, 10794.00
300.2646, 10771.77
300.7468, 10752.19
301.2289, 10740.41
301.7110, 10749.17
302.1931, 10758.79
302.6752, 10736.99
303.1573, 10680.80
303.6395, 10627.54
304.1216, 10600.74
304.6037, 10586.30
305.0858, 10557.31
305.5679, 10502.51
306.0500, 10452.05
306.5322, 10429.31
307.0143, 10428.39
307.4964, 10429.26
307.9785, 10427.34
308.4606, 10421.44
308.9427, 10409.20
309.4249, 10390.99
309.9070, 10368.58
310.3891, 10336.28
310.8712, 10302.56
311.3533, 10285.09
311.8354, 10287.00
312.3176, 10281.59
312.7997, 10239.63
313.2818, 10155.23
313.7639, 10080.83
314.2460, 10028.57
314.7281, 9975.908
315.2103, 9903.959
315.6924, 9818.008
316.1745, 9737.779
316.6566, 9674.614
317.1387, 9628.312
317.6208, 9596.217
318.1030, 9594.486
318.5851, 9586.396
319.0672, 9561.674
319.5493, 9527.771
320.0314, 9491.017
320.5135, 9453.990
320.9957, 9423.709
321.4778, 9414.226
321.9599, 9439.136
322.4420, 9461.503
322.9241, 9483.513
323.4063, 9501.525
323.8884, 9511.620
324.3705, 9514.491
324.8526, 9514.983
325.3347, 9516.877
325.8168, 9519.864
326.2990, 9529.551
326.7811, 9570.375
327.2632, 9591.240
327.7453, 9561.539
328.2274, 9502.328
328.7095, 9451.945
329.1917, 9432.936
329.6738, 9434.379
330.1559, 9429.888
330.6380, 9420.324
331.1201, 9402.498
331.6022, 9372.397
332.0844, 9335.548
332.5665, 9293.511
333.0486, 9245.971
333.5307, 9202.661
334.0128, 9176.950
334.4949, 9167.531
334.9771, 9125.100
335.4592, 9143.031
335.9413, 9146.905
336.4234, 9137.479
336.9055, 9074.913
337.3876, 9080.966
337.8698, 9059.517
338.3519, 9036.942
338.8340, 9052.653
339.3161, 8997.816
339.7982, 9012.921
340.2803, 9000.104
340.7624, 9000.067
341.2445, 8972.360
341.7267, 8953.197
342.2088, 8961.715
342.6909, 8954.908
343.1730, 8924.016
343.6551, 8924.791
344.1372, 8868.987
344.6194, 8862.830
345.1015, 8878.096
345.5836, 8848.596
346.0657, 8808.343
346.5478, 8767.338
347.0299, 8727.804
347.5121, 8701.402
347.9942, 8689.513
348.4763, 8685.088
348.9584, 8683.009
349.4405, 8686.683
349.9226, 8669.002
350.4048, 8609.053
350.8869, 8552.621
351.3690, 8517.422
351.8511, 8499.171
352.3332, 8486.462
352.8153, 8472.818
353.2975, 8459.977
353.7796, 8455.044
354.2617, 8468.811
354.7438, 8471.060
355.2259, 8452.934
355.7080, 8426.159
356.1902, 8400.004
356.6723, 8376.542
357.1544, 8352.458
357.6365, 8321.201
358.1186, 8282.153
358.6007, 8253.076
359.0829, 8243.362
359.5650, 8234.083
360.0471, 8213.382
360.5292, 8184.049
361.0113, 8154.630
361.4934, 8125.966
361.9756, 8101.127
362.4577, 8089.427
362.9398, 8093.309
363.4219, 8090.540
363.9040, 8066.326
364.3861, 8029.781
364.8683, 7998.700
365.3504, 7975.244
365.8325, 7953.943
366.3146, 7926.958
366.7967, 7900.191
367.2788, 7890.839
367.7610, 7906.046
368.2431, 7926.973
368.7252, 7928.596
369.2073, 7906.015
369.6894, 7891.477
370.1715, 7896.754
370.6537, 7902.830
371.1358, 7896.589
371.6179, 7878.509
372.1000, 7853.467
372.5821, 7823.047
373.0642, 7789.991
373.5464, 7772.339
374.0285, 7782.960
374.5106, 7794.095
374.9927, 7804.293
375.4748, 7812.620
375.9569, 7819.198
376.4391, 7823.802
376.9212, 7824.508
377.4033, 7815.616
377.8854, 7790.696
378.3675, 7779.933
378.8496, 7802.101
379.3318, 7822.227
379.8139, 7824.581
380.2960, 7812.778
380.7781, 7799.153
381.2602, 7791.113
381.7423, 7786.613
382.2245, 7780.211
382.7066, 7771.359
383.1887, 7755.581
383.6708, 7758.455
384.1529, 7757.756
384.6350, 7753.758
385.1172, 7732.015
385.5993, 7736.678
386.0814, 7732.894
386.5635, 7730.225
387.0456, 7742.962
387.5277, 7731.643
388.0099, 7747.209
388.4920, 7754.176
388.9741, 7760.552
389.4562, 7776.653
389.9383, 7807.903
390.4204, 7836.757
390.9026, 7847.706
391.3847, 7843.987
391.8668, 7837.948
392.3489, 7834.673
392.8310, 7837.203
393.3131, 7856.132
393.7953, 7917.098
394.2774, 7961.255
394.7595, 7980.829
395.2416, 7985.630
395.7237, 7978.068
396.2058, 7962.148
396.6880, 7951.333
397.1701, 7961.985
397.6522, 7996.467
398.1343, 8023.989
398.6164, 8030.863
399.0985, 8046.154
399.5807, 8088.856
400.0628, 8143.056
400.5449, 8183.129
401.0270, 8196.399
401.5091, 8195.351
401.9912, 8200.985
402.4734, 8214.770
402.9555, 8221.466
403.4376, 8197.604
403.9197, 8184.101
404.4018, 8224.721
404.8839, 8318.005
405.3661, 8405.244
405.8482, 8455.439
406.3303, 8482.538
406.8124, 8509.297
407.2945, 8537.553
407.7766, 8559.678
408.2588, 8567.845
408.7409, 8565.728
409.2230, 8571.647
409.7051, 8596.450
410.1872, 8615.978
410.6693, 8638.820
411.1515, 8646.242
411.6336, 8597.518
412.1157, 8481.917
412.5978, 8347.311
413.0799, 8260.598
413.5620, 8236.688
414.0442, 8206.622
414.5263, 8173.237
415.0084, 8132.199
415.4905, 8075.034
415.9726, 8009.128
416.4547, 7947.573
416.9369, 7897.209
417.4190, 7858.171
417.9011, 7832.979
418.3832, 7828.581
418.8653, 7819.313
419.3474, 7789.079
419.8296, 7759.557
420.3117, 7751.688
420.7938, 7765.212
421.2759, 7771.833
421.7580, 7740.413
422.2401, 7687.247
422.7223, 7664.330
423.2044, 7681.726
423.6865, 7697.560
424.1686, 7678.715
424.6507, 7639.112
425.1328, 7618.963
425.6150, 7637.243
426.0971, 7652.676
426.5792, 7640.347
427.0613, 7610.885
427.5434, 7583.929
428.0255, 7564.952
428.5077, 7551.510
428.9898, 7539.366
429.4719, 7525.446
429.9540, 7527.665
430.4361, 7556.682
430.9182, 7589.364
431.4004, 7619.624
431.8825, 7644.379
432.3646, 7658.707
432.8467, 7659.104
433.3288, 7651.454
433.8109, 7651.320
434.2931, 7663.361
434.7752, 7671.032
435.2573, 7668.863
435.7394, 7664.213
436.2215, 7662.777
436.7036, 7663.981
437.1858, 7661.653
437.6679, 7647.370
438.1500, 7626.926
438.6321, 7618.035
439.1142, 7623.366
439.5963, 7626.391
440.0785, 7614.636
440.5606, 7596.630
441.0427, 7590.049
441.5248, 7598.698
442.0069, 7611.209
442.4890, 7625.296
442.9712, 7639.103
443.4533, 7647.948
443.9354, 7651.105
444.4175, 7655.710
444.8996, 7669.805
445.3817, 7694.271
445.8639, 7711.839
446.3460, 7718.224
446.8281, 7723.501
447.3102, 7723.912
447.7923, 7727.284
448.2744, 7747.654
448.7566, 7789.943
449.2387, 7838.563
449.7208, 7868.240
450.2029, 7874.362
450.6850, 7883.653
451.1671, 7894.619
451.6493, 7912.732
452.1314, 7942.784
452.6135, 7981.932
453.0956, 8023.057
453.5777, 8062.989
454.0598, 8103.153
454.5420, 8149.313
455.0241, 8200.738
455.5062, 8239.063
455.9883, 8252.432
456.4704, 8256.904
456.9525, 8275.935
457.4347, 8308.368
457.9168, 8353.104
458.3989, 8414.360
458.8810, 8484.449
459.3631, 8560.919
459.8452, 8640.748
460.3274, 8717.504
460.8095, 8787.024
461.2916, 8849.275
461.7737, 8901.896
462.2558, 8940.572
462.7379, 8975.072
463.2201, 9010.952
463.7022, 9039.640
464.1843, 9061.894
464.6664, 9073.029
465.1485, 9056.121
465.6306, 8988.047
466.1128, 8879.554
466.5949, 8785.217
467.0770, 8712.284
467.5591, 8636.144
468.0412, 8537.441
468.5233, 8433.779
469.0055, 8345.192
469.4876, 8275.994
469.9697, 8216.441
470.4518, 8162.271
470.9339, 8113.769
471.4160, 8071.023
471.8982, 8034.042
472.3803, 8003.630
472.8624, 7984.017
473.3445, 7973.619
473.8266, 7943.703
474.3087, 7864.841
474.7909, 7805.145
475.2730, 7798.950
475.7551, 7812.770
476.2372, 7802.118
476.7193, 7757.604
477.2014, 7708.776
477.6836, 7693.957
478.1657, 7716.230
478.6478, 7726.981
479.1299, 7717.561
479.6120, 7707.813
480.0941, 7705.229
480.5763, 7707.118
481.0584, 7709.200
481.5405, 7709.578
482.0226, 7712.193
482.5047, 7724.375
482.9868, 7742.731
483.4690, 7749.444
483.9511, 7736.386
484.4332, 7729.587
484.9153, 7759.257
485.3974, 7824.770
485.8795, 7870.533
486.3617, 7875.187
486.8438, 7882.294
487.3259, 7917.461
487.8080, 7966.875
488.2901, 8002.738
488.7722, 8016.405
489.2544, 8029.419
489.7365, 8075.759
490.2186, 8166.404
490.7007, 8240.368
491.1828, 8283.199
491.6649, 8323.403
492.1471, 8370.188
492.6292, 8420.977
493.1113, 8467.089
493.5934, 8501.400
494.0755, 8545.335
494.5576, 8635.507
495.0398, 8765.447
495.5219, 8873.621
496.0040, 8940.399
496.4861, 8999.108
496.9682, 9079.363
497.4503, 9179.920
497.9325, 9287.733
498.4146, 9412.161
498.8967, 9533.523
499.3788, 9635.707
499.8609, 9728.163
500.3430, 9827.737
500.8252, 9940.466
501.3073, 10062.38
501.7894, 10187.51
502.2715, 10313.22
502.7536, 10450.39
503.2357, 10606.21
503.7179, 10766.15
504.2000, 10927.22
504.6821, 11088.25
505.1642, 11249.17
505.6463, 11411.31
506.1284, 11566.92
506.6106, 11698.36
507.0927, 11809.62
507.5748, 11947.39
508.0569, 12126.60
508.5390, 12317.91
509.0211, 12488.50
509.5033, 12646.95
509.9854, 12837.70
510.4675, 13093.43
510.9496, 13353.41
511.4317, 13584.80
511.9138, 13800.59
512.3960, 14025.60
512.8781, 14266.32
513.3602, 14508.98
513.8423, 14730.91
514.3245, 14927.88
514.8066, 15141.96
515.2887, 15379.95
515.7708, 15628.92
516.2529, 15883.51
516.7350, 16147.41
517.2172, 16435.81
517.6993, 16753.76
518.1814, 17064.19
518.6635, 17321.20
519.1456, 17533.36
519.6277, 17743.97
520.1099, 17959.38
520.5920, 18166.51
521.0741, 18366.76
521.5562, 18549.84
522.0383, 18684.23
522.5204, 18775.17
523.0026, 18809.95
523.4847, 18775.10
523.9668, 18686.13
524.4489, 18563.66
524.9310, 18410.47
525.4131, 18213.48
525.8953, 17959.00
526.3774, 17648.24
526.8595, 17301.31
527.3416, 16908.38
527.8237, 16492.55
528.3058, 16043.24
528.7880, 15584.70
529.2701, 15134.58
529.7522, 14697.46
530.2343, 14278.31
530.7164, 13879.52
531.1985, 13500.46
531.6807, 13136.12
532.1628, 12787.08
532.6449, 12450.16
533.1270, 12121.67
533.6091, 11805.42
534.0912, 11521.20
534.5734, 11267.25
535.0555, 11043.50
535.5376, 10873.80
536.0197, 10714.50
536.5018, 10526.53
536.9839, 10316.88
537.4661, 10121.84
537.9482, 9964.415
538.4303, 9834.886
538.9124, 9706.216
539.3945, 9574.749
539.8766, 9457.322
540.3588, 9352.669
540.8409, 9268.387
541.3230, 9220.627
541.8051, 9201.379
542.2872, 9165.338
542.7693, 9079.331
543.2515, 8983.343
543.7336, 8913.577
544.2157, 8864.954
544.6978, 8821.699
545.1799, 8779.082
545.6620, 8732.360
546.1442, 8671.874
546.6263, 8566.312
547.1084, 8587.750
547.5905, 8595.132
548.0726, 8589.213
548.5547, 8530.152
549.0369, 8539.709
549.5190, 8521.771
550.0011, 8502.702
550.4832, 8521.920
550.9653, 8470.590
551.4474, 8489.199
551.9296, 8479.888
552.4117, 8483.357
552.8938, 8459.156
553.3759, 8443.502
553.8580, 8455.526
554.3401, 8452.225
554.8223, 8424.835
555.3044, 8429.117
555.7865, 8376.819
556.2686, 8374.170
556.7507, 8392.942
557.2328, 8347.726
557.7150, 8330.595
558.1971, 8321.545
558.6792, 8319.557
559.1613, 8320.317
559.6434, 8324.310
560.1255, 8330.230
560.6077, 8346.817
561.0898, 8358.333
561.5719, 8350.583
562.0540, 8326.469
562.5361, 8304.542
563.0182, 8291.975
563.5004, 8287.052
563.9825, 8288.721
564.4646, 8296.552
564.9467, 8309.906
565.4288, 8329.020
565.9109, 8350.593
566.3931, 8370.714
566.8752, 8389.919
567.3573, 8404.106
567.8394, 8402.715
568.3215, 8408.648
568.8036, 8428.384
569.2858, 8460.375
569.7679, 8506.508
570.2500, 8566.249
570.7321, 8624.729
571.2142, 8660.486
571.6964, 8679.606
572.1785, 8715.399
572.6606, 8771.614
573.1427, 8835.958
573.6248, 8904.354
574.1069, 8975.505
574.5891, 9047.999
575.0712, 9126.227
575.5533, 9195.356
576.0354, 9247.760
576.5175, 9292.951
576.9996, 9334.205
577.4818, 9375.232
577.9639, 9424.296
578.4460, 9486.620
578.9281, 9558.383
579.4102, 9629.871
579.8923, 9699.492
580.3745, 9779.107
580.8566, 9888.309
581.3387, 9985.759
581.8208, 10034.78
582.3029, 10052.26
582.7850, 10085.25
583.2672, 10156.23
583.7493, 10231.63
584.2314, 10300.11
584.7135, 10353.88
585.1956, 10374.82
585.6777, 10359.98
586.1598, 10320.90
586.6419, 10264.67
587.1240, 10193.73
587.6061, 10136.69
588.0883, 10106.96
588.5704, 10070.73
589.0525, 10026.31
589.5346, 9971.854
590.0167, 9898.967
590.4988, 9811.464
590.9810, 9731.582
591.4631, 9681.279
591.9452, 9640.722
592.4273, 9579.903
592.9094, 9500.981
593.3915, 9422.147
593.8737, 9351.964
594.3558, 9275.150
594.8379, 9168.942
595.3200, 9023.768
595.8021, 8900.936
596.2842, 8806.451
596.7664, 8723.803
597.2485, 8652.291
597.7306, 8586.783
598.2127, 8523.846
598.6948, 8461.860
599.1769, 8396.516
599.6591, 8319.764
600.1412, 8236.086
600.6233, 8160.985
601.1054, 8095.437
601.5875, 8034.122
602.0696, 7974.385
602.5518, 7918.012
603.0339, 7869.840
603.5160, 7834.592
603.9981, 7788.754
604.4802, 7726.174
604.9623, 7656.391
605.4445, 7572.109
605.9266, 7487.460
606.4087, 7431.561
606.8908, 7416.401
607.3729, 7412.315
607.8550, 7375.917
608.3372, 7308.079
608.8193, 7247.281
609.3014, 7195.177
609.7835, 7150.604
610.2656, 7112.405
610.7477, 7082.024
611.2299, 7063.761
611.7120, 7065.115
612.1941, 7057.855
612.6762, 7033.795
613.1583, 6997.628
613.6404, 6942.661
614.1226, 6878.693
614.6047, 6834.229
615.0868, 6825.605
615.5689, 6834.952
616.0510, 6824.880
616.5331, 6790.626
617.0153, 6770.609
617.4974, 6779.436
617.9795, 6785.011
618.4616, 6764.343
618.9437, 6727.869
619.4258, 6694.142
619.9080, 6664.740
620.3901, 6640.775
620.8722, 6631.583
621.3543, 6623.243
621.8364, 6592.260
622.3185, 6542.585
622.8007, 6502.012
623.2828, 6488.014
623.7649, 6494.970
624.2470, 6511.722
624.7291, 6546.498
625.2112, 6561.523
625.6934, 6538.862
626.1755, 6512.005
626.6576, 6503.242
627.1397, 6504.583
627.6218, 6495.704
628.1039, 6463.417
628.5861, 6437.375
629.0682, 6444.125
629.5503, 6464.110
630.0324, 6463.932
630.5145, 6442.988
630.9966, 6430.711
631.4788, 6450.574
631.9609, 6487.936
632.4430, 6490.159
632.9251, 6436.766
633.4072, 6403.357
633.8893, 6416.261
634.3715, 6433.212
634.8536, 6430.219
635.3357, 6412.975
635.8178, 6396.475
636.2999, 6380.363
636.7820, 6374.523
637.2642, 6389.813
637.7463, 6418.118
638.2284, 6454.520
638.7105, 6494.252
639.1926, 6513.486
639.6747, 6492.496
