##NAMES=Fluorite
##RRUFFID=R050045
##IDEAL CHEMISTRY=CaF_2_
##LOCALITY=Hunan Province, China
##OWNER=RRUFF
##SOURCE=Eugene Schlepp
##DESCRIPTION=Pale green colored cubes
##STATUS=The identification of this mineral has been confirmed by X-ray diffraction and chemical analysis
##URL=rruff.info/R050045
##MEASURED CHEMISTRY=Ca_1.000_ F_2.000_
126.0381, 230.3821
126.5202, 253.7652
127.0023, 280.7553
127.4844, 308.6642
127.9666, 332.9316
128.4487, 353.5881
128.9308, 373.2132
129.4129, 394.3308
129.8950, 416.5865
130.3772, 437.0458
130.8593, 454.7560
131.3414, 470.1463
131.8235, 483.1321
132.3056, 492.5034
132.7877, 504.1759
133.2699, 526.5602
133.7520, 560.1560
134.2341, 595.9604
134.7162, 632.0251
135.1983, 668.5278
135.6804, 700.0633
136.1626, 725.8839
136.6447, 747.2742
137.1268, 765.8543
137.6089, 780.8818
138.0910, 795.2181
138.5731, 812.0489
139.0553, 834.4496
139.5374, 844.7484
140.0195, 837.0048
140.5016, 817.1263
140.9837, 809.2430
141.4658, 818.8008
141.9480, 831.6647
142.4301, 837.7560
142.9122, 832.6932
143.3943, 830.1135
143.8764, 831.5436
144.3585, 836.9327
144.8407, 844.8668
145.3228, 854.8207
145.8049, 867.6864
146.2870, 884.6089
146.7691, 910.2787
147.2512, 933.5554
147.7334, 951.3288
148.2155, 962.0532
148.6976, 975.0076
149.1797, 992.9974
149.6618, 1012.451
150.1439, 1028.498
150.6261, 1032.319
151.1082, 1040.469
151.5903, 1058.823
152.0724, 1095.248
152.5545, 1124.307
153.0366, 1140.441
153.5188, 1147.983
154.0009, 1155.425
154.4830, 1169.423
154.9651, 1179.586
155.4472, 1180.626
155.9293, 1162.250
156.4115, 1149.007
156.8936, 1148.503
157.3757, 1157.602
157.8578, 1165.342
158.3399, 1168.537
158.8221, 1169.370
159.3042, 1169.298
159.7863, 1168.077
160.2684, 1166.572
160.7505, 1165.736
161.2326, 1165.276
161.7148, 1162.954
162.1969, 1153.162
162.6790, 1142.821
163.1611, 1138.706
163.6432, 1149.792
164.1253, 1162.223
164.6075, 1167.264
165.0896, 1164.552
165.5717, 1163.902
166.0538, 1173.989
166.5359, 1189.042
167.0180, 1200.830
167.5002, 1202.832
167.9823, 1202.337
168.4644, 1204.593
168.9465, 1210.100
169.4286, 1217.538
169.9107, 1229.140
170.3929, 1242.064
170.8750, 1250.619
171.3571, 1247.736
171.8392, 1240.702
172.3213, 1236.931
172.8034, 1237.366
173.2856, 1241.125
173.7677, 1249.375
174.2498, 1260.922
174.7319, 1271.520
175.2140, 1277.302
175.6961, 1280.825
176.1783, 1285.744
176.6604, 1292.336
177.1425, 1301.093
177.6246, 1313.690
178.1067, 1329.547
178.5888, 1345.762
179.0710, 1360.603
179.5531, 1374.033
180.0352, 1385.762
180.5173, 1395.861
180.9994, 1403.942
181.4815, 1406.480
181.9637, 1403.774
182.4458, 1404.451
182.9279, 1419.644
183.4100, 1445.435
183.8921, 1466.927
184.3742, 1476.863
184.8564, 1481.131
185.3385, 1494.065
185.8206, 1516.327
186.3027, 1540.575
186.7848, 1560.487
187.2669, 1576.212
187.7491, 1589.520
188.2312, 1598.829
188.7133, 1606.051
189.1954, 1619.036
189.6775, 1638.326
190.1596, 1660.649
190.6418, 1682.751
191.1239, 1704.554
191.6060, 1726.682
192.0881, 1747.852
192.5702, 1768.737
193.0524, 1797.581
193.5345, 1837.084
194.0166, 1877.361
194.4987, 1898.619
194.9808, 1899.309
195.4629, 1904.432
195.9451, 1927.935
196.4272, 1969.693
196.9093, 2008.498
197.3914, 2043.799
197.8735, 2075.973
198.3556, 2103.605
198.8378, 2125.256
199.3199, 2150.765
199.8020, 2189.022
200.2841, 2241.214
200.7662, 2283.474
201.2483, 2313.953
201.7305, 2334.198
202.2126, 2348.175
202.6947, 2356.351
203.1768, 2356.515
203.6589, 2346.220
204.1410, 2324.635
204.6232, 2299.345
205.1053, 2271.403
205.5874, 2240.015
206.0695, 2199.685
206.5516, 2145.481
207.0337, 2095.288
207.5159, 2062.315
207.9980, 2050.209
208.4801, 2041.051
208.9622, 2033.587
209.4443, 2027.419
209.9264, 2019.976
210.4086, 2009.753
210.8907, 2001.261
211.3728, 1998.631
211.8549, 2003.527
212.3370, 2008.711
212.8191, 2013.957
213.3013, 2018.871
213.7834, 2021.871
214.2655, 2026.593
214.7476, 2023.476
215.2297, 2001.590
215.7118, 1952.186
216.1940, 1907.581
216.6761, 1873.686
217.1582, 1850.013
217.6403, 1830.034
218.1224, 1815.070
218.6045, 1802.332
219.0867, 1789.396
219.5688, 1776.577
220.0509, 1762.886
220.5330, 1747.511
221.0151, 1730.131
221.4972, 1717.327
221.9794, 1711.772
222.4615, 1707.681
222.9436, 1698.116
223.4257, 1679.235
223.9078, 1662.737
224.3899, 1652.376
224.8721, 1648.700
225.3542, 1641.575
225.8363, 1627.674
226.3184, 1613.414
226.8005, 1607.988
227.2827, 1620.420
227.7648, 1623.978
228.2469, 1607.039
228.7290, 1564.451
229.2111, 1543.311
229.6932, 1555.452
230.1754, 1579.684
230.6575, 1588.024
231.1396, 1572.892
231.6217, 1554.884
232.1038, 1537.749
232.5859, 1519.992
233.0681, 1512.020
233.5502, 1519.036
234.0323, 1532.088
234.5144, 1537.753
234.9965, 1530.699
235.4786, 1525.262
235.9608, 1526.918
236.4429, 1538.369
236.9250, 1543.530
237.4071, 1537.186
237.8892, 1527.760
238.3713, 1530.091
238.8535, 1554.327
239.3356, 1573.302
239.8177, 1577.372
240.2998, 1562.395
240.7819, 1547.672
241.2640, 1529.951
241.7462, 1514.131
242.2283, 1509.609
242.7104, 1523.599
243.1925, 1536.978
243.6746, 1542.450
244.1567, 1536.021
244.6389, 1535.846
245.1210, 1545.172
245.6031, 1558.792
246.0852, 1567.053
246.5673, 1566.488
247.0494, 1566.477
247.5316, 1570.563
248.0137, 1580.171
248.4958, 1588.726
248.9779, 1593.984
249.4600, 1599.426
249.9421, 1612.454
250.4243, 1638.829
250.9064, 1662.541
251.3885, 1675.482
251.8706, 1670.643
252.3527, 1679.619
252.8348, 1707.928
253.3170, 1746.530
253.7991, 1778.159
254.2812, 1799.673
254.7633, 1819.616
255.2454, 1841.538
255.7275, 1866.607
256.2097, 1888.901
256.6918, 1909.204
257.1739, 1925.953
257.6560, 1935.835
258.1381, 1936.629
258.6202, 1935.126
259.1024, 1933.661
259.5845, 1932.324
260.0666, 1930.585
260.5487, 1927.918
261.0308, 1925.257
261.5129, 1924.912
261.9951, 1928.793
262.4772, 1930.404
262.9593, 1926.157
263.4414, 1913.987
263.9235, 1906.020
264.4056, 1903.873
264.8878, 1904.337
265.3699, 1900.363
265.8520, 1888.677
266.3341, 1881.849
266.8162, 1886.514
267.2983, 1905.088
267.7805, 1919.092
268.2626, 1927.030
268.7447, 1931.914
269.2268, 1940.483
269.7089, 1955.466
270.1910, 1964.203
270.6732, 1957.792
271.1553, 1933.348
271.6374, 1923.549
272.1195, 1931.498
272.6016, 1949.556
273.0837, 1966.070
273.5659, 1981.062
274.0480, 1994.703
274.5301, 2004.948
275.0122, 2011.346
275.4943, 2028.582
275.9764, 2059.925
276.4586, 2095.959
276.9407, 2121.507
277.4228, 2134.885
277.9049, 2149.905
278.3870, 2176.977
278.8691, 2214.745
279.3513, 2229.761
279.8334, 2218.378
280.3155, 2193.622
280.7976, 2170.376
281.2798, 2148.773
281.7619, 2130.264
282.2440, 2116.568
282.7261, 2106.962
283.2082, 2095.488
283.6903, 2081.572
284.1725, 2067.897
284.6546, 2055.509
285.1367, 2044.753
285.6188, 2042.358
286.1009, 2055.021
286.5830, 2078.406
287.0652, 2093.310
287.5473, 2098.752
288.0294, 2100.757
288.5115, 2106.223
288.9936, 2114.569
289.4757, 2120.809
289.9579, 2123.023
290.4400, 2122.039
290.9221, 2120.184
291.4042, 2117.495
291.8863, 2113.449
292.3684, 2104.360
292.8506, 2092.425
293.3327, 2087.108
293.8148, 2093.373
294.2969, 2106.888
294.7790, 2118.435
295.2611, 2128.069
295.7433, 2141.320
296.2254, 2164.930
296.7075, 2196.535
297.1896, 2228.233
297.6717, 2256.780
298.1538, 2285.876
298.6360, 2317.745
299.1181, 2353.205
299.6002, 2398.411
300.0823, 2465.876
300.5644, 2546.039
301.0465, 2619.615
301.5287, 2672.413
302.0108, 2727.981
302.4929, 2811.031
302.9750, 2920.332
303.4571, 3044.016
303.9392, 3178.475
304.4214, 3321.907
304.9035, 3473.932
305.3856, 3626.516
305.8677, 3795.075
306.3498, 3996.505
306.8319, 4224.080
307.3141, 4459.060
307.7962, 4675.787
308.2783, 4897.941
308.7604, 5152.783
309.2425, 5443.989
309.7246, 5761.122
310.2068, 6096.760
310.6889, 6454.207
311.1710, 6845.169
311.6531, 7270.211
312.1352, 7734.616
312.6173, 8240.451
313.0995, 8784.528
313.5816, 9363.285
314.0637, 9971.602
314.5458, 10616.60
315.0279, 11315.89
315.5100, 12081.37
315.9922, 12899.04
316.4743, 13767.79
316.9564, 14694.93
317.4385, 15642.23
317.9206, 16637.14
318.4027, 17635.60
318.8849, 18576.00
319.3670, 19571.11
319.8491, 20391.65
320.3312, 20978.73
320.8133, 21341.09
321.2954, 21390.46
321.7776, 21067.48
322.2597, 20443.21
322.7418, 19593.36
323.2239, 18363.82
323.7060, 17074.21
324.1881, 15763.89
324.6703, 14427.13
325.1524, 13164.80
325.6345, 11966.80
326.1166, 10869.66
326.5987, 9891.896
327.0808, 9046.861
327.5630, 8306.441
328.0451, 7684.731
328.5272, 7178.425
329.0093, 6712.384
329.4914, 6295.977
329.9735, 5921.731
330.4557, 5588.862
330.9378, 5307.809
331.4199, 5048.941
331.9020, 4805.256
332.3841, 4580.077
332.8662, 4392.100
333.3484, 4258.236
333.8305, 4138.716
334.3126, 4009.343
334.7947, 3863.852
335.2768, 3731.623
335.7589, 3614.213
336.2411, 3511.087
336.7232, 3419.592
337.2053, 3343.282
337.6874, 3270.145
338.1695, 3192.095
338.6516, 3108.192
339.1338, 3033.928
339.6159, 2971.791
340.0980, 2916.845
340.5801, 2862.633
341.0622, 2808.360
341.5443, 2756.152
342.0265, 2705.979
342.5086, 2658.154
342.9907, 2611.614
343.4728, 2567.007
343.9549, 2522.677
344.4370, 2472.811
344.9192, 2419.245
345.4013, 2378.422
345.8834, 2366.032
346.3655, 2368.354
346.8476, 2345.395
347.3297, 2296.437
347.8119, 2246.268
348.2940, 2222.658
348.7761, 2217.375
349.2582, 2205.924
349.7403, 2177.825
350.2225, 2143.645
350.7046, 2117.510
351.1867, 2098.703
351.6688, 2083.527
352.1509, 2069.552
352.6331, 2057.375
353.1152, 2048.920
353.5973, 2047.699
354.0794, 2044.467
354.5615, 2029.206
355.0436, 2004.764
355.5258, 1979.802
356.0079, 1955.960
356.4900, 1935.409
356.9721, 1920.108
357.4542, 1910.622
357.9363, 1905.497
358.4185, 1909.137
358.9006, 1916.043
359.3827, 1916.703
359.8648, 1902.375
360.3469, 1884.834
360.8290, 1869.218
361.3112, 1855.767
361.7933, 1845.608
362.2754, 1841.081
362.7575, 1839.174
363.2396, 1836.601
363.7217, 1831.751
364.2039, 1827.076
364.6860, 1823.743
365.1681, 1821.767
365.6502, 1818.295
366.1323, 1810.138
366.6144, 1802.087
367.0966, 1797.405
367.5787, 1794.100
368.0608, 1796.974
368.5429, 1811.711
369.0250, 1834.627
369.5071, 1846.499
369.9893, 1843.184
370.4714, 1833.706
370.9535, 1821.239
371.4356, 1801.867
371.9177, 1788.504
372.3998, 1780.893
372.8820, 1779.604
373.3641, 1787.796
373.8462, 1809.971
374.3283, 1829.902
374.8104, 1841.054
375.2925, 1843.065
375.7747, 1841.090
376.2568, 1834.452
376.7389, 1825.145
377.2210, 1814.391
377.7031, 1801.804
378.1852, 1793.406
378.6674, 1791.292
379.1495, 1794.788
379.6316, 1802.866
380.1137, 1816.129
380.5958, 1827.891
381.0779, 1830.339
381.5601, 1825.223
382.0422, 1820.832
382.5243, 1818.380
383.0064, 1818.287
383.4885, 1822.583
383.9706, 1830.706
384.4528, 1838.195
384.9349, 1843.283
385.4170, 1845.487
385.8991, 1842.314
386.3812, 1830.847
386.8633, 1822.248
387.3455, 1832.359
387.8276, 1853.539
388.3097, 1868.452
388.7918, 1860.288
389.2739, 1847.345
389.7560, 1845.011
390.2382, 1855.212
390.7203, 1866.983
391.2024, 1879.187
391.6845, 1888.079
392.1666, 1889.437
392.6487, 1875.398
393.1309, 1859.483
393.6130, 1844.419
394.0951, 1830.766
394.5772, 1824.178
395.0593, 1831.857
395.5414, 1843.396
396.0236, 1852.239
396.5057, 1859.467
396.9878, 1861.627
397.4699, 1856.064
397.9520, 1844.830
398.4341, 1834.247
398.9163, 1818.943
399.3984, 1809.966
399.8805, 1813.629
400.3626, 1838.417
400.8447, 1849.548
401.3268, 1838.035
401.8090, 1819.494
402.2911, 1817.911
402.7732, 1841.971
403.2553, 1859.970
403.7374, 1860.719
404.2195, 1845.596
404.7017, 1841.946
405.1838, 1854.107
405.6659, 1865.989
406.1480, 1857.564
406.6301, 1828.272
407.1122, 1814.898
407.5944, 1828.647
408.0765, 1857.386
408.5586, 1871.625
409.0407, 1871.685
409.5228, 1870.074
410.0049, 1876.133
410.4871, 1886.913
410.9692, 1893.775
411.4513, 1895.249
411.9334, 1895.267
412.4155, 1899.058
412.8976, 1905.226
413.3798, 1909.614
413.8619, 1910.621
414.3440, 1908.830
414.8261, 1902.713
415.3082, 1892.324
415.7903, 1885.402
416.2725, 1888.549
416.7546, 1897.309
417.2367, 1906.755
417.7188, 1914.255
418.2009, 1923.119
418.6830, 1939.215
419.1652, 1959.130
419.6473, 1969.702
420.1294, 1954.262
420.6115, 1937.490
421.0937, 1933.907
421.5758, 1953.980
422.0579, 1968.907
422.5400, 1969.960
423.0221, 1964.714
423.5042, 1965.692
423.9864, 1980.440
424.4685, 1993.429
424.9506, 2001.806
425.4327, 2005.407
425.9148, 2004.135
426.3969, 1992.866
426.8791, 1982.561
427.3612, 1984.022
427.8433, 2001.792
428.3254, 2016.911
428.8075, 2026.089
429.2896, 2031.068
429.7718, 2038.258
430.2539, 2048.502
430.7360, 2056.631
431.2181, 2058.476
431.7002, 2054.510
432.1823, 2050.923
432.6645, 2047.405
433.1466, 2046.324
433.6287, 2052.174
434.1108, 2063.830
434.5929, 2075.870
435.0750, 2085.974
435.5572, 2095.010
436.0393, 2104.672
436.5214, 2114.909
437.0035, 2124.641
437.4856, 2129.253
437.9677, 2133.844
438.4499, 2146.997
438.9320, 2177.840
439.4141, 2205.883
439.8962, 2213.113
440.3783, 2205.778
440.8604, 2200.193
441.3426, 2202.890
441.8247, 2209.923
442.3068, 2220.466
442.7889, 2235.764
443.2710, 2248.044
443.7531, 2256.721
444.2353, 2260.713
444.7174, 2258.969
445.1995, 2243.228
445.6816, 2230.604
446.1637, 2225.619
446.6458, 2227.421
447.1280, 2226.477
447.6101, 2221.390
448.0922, 2215.071
448.5743, 2209.438
449.0564, 2205.828
449.5385, 2198.960
450.0207, 2187.812
450.5028, 2174.206
450.9849, 2160.642
451.4670, 2146.532
451.9491, 2136.224
452.4312, 2133.536
452.9134, 2136.945
453.3955, 2134.171
453.8776, 2124.827
454.3597, 2112.264
454.8418, 2099.691
455.3239, 2086.680
455.8061, 2070.937
456.2882, 2048.687
456.7703, 2028.278
457.2524, 2027.598
457.7345, 2041.271
458.2166, 2047.242
458.6988, 2022.033
459.1809, 1987.392
459.6630, 1970.061
460.1451, 1975.287
460.6272, 1977.601
461.1093, 1955.631
461.5915, 1922.996
462.0736, 1897.037
462.5557, 1889.036
463.0378, 1883.203
463.5199, 1873.641
464.0020, 1860.960
464.4842, 1850.132
464.9663, 1845.312
465.4484, 1840.396
465.9305, 1831.836
466.4126, 1814.993
466.8947, 1802.221
467.3769, 1793.882
467.8590, 1789.465
468.3411, 1788.948
468.8232, 1796.047
469.3053, 1799.674
469.7874, 1797.067
470.2696, 1788.341
470.7517, 1773.593
471.2338, 1750.140
471.7159, 1729.014
472.1980, 1722.722
472.6801, 1730.806
473.1623, 1734.263
473.6444, 1730.646
474.1265, 1720.883
474.6086, 1702.442
475.0907, 1677.156
475.5728, 1656.886
476.0550, 1652.605
476.5371, 1655.679
477.0192, 1651.199
477.5013, 1638.550
477.9834, 1626.414
478.4655, 1623.362
478.9477, 1624.244
479.4298, 1622.316
479.9119, 1614.024
480.3940, 1604.381
480.8761, 1593.903
481.3582, 1583.866
481.8404, 1578.126
482.3225, 1583.146
482.8046, 1588.463
483.2867, 1588.990
483.7688, 1582.790
484.2509, 1577.031
484.7331, 1573.344
485.2152, 1569.839
485.6973, 1564.373
486.1794, 1554.000
486.6615, 1546.707
487.1436, 1543.844
487.6258, 1544.881
488.1079, 1548.387
488.5900, 1556.226
489.0721, 1561.284
489.5542, 1557.186
490.0363, 1543.782
490.5185, 1537.042
491.0006, 1537.356
491.4827, 1544.597
491.9648, 1565.357
492.4470, 1595.794
492.9291, 1613.372
493.4112, 1602.562
493.8933, 1581.190
494.3754, 1575.565
494.8575, 1584.336
495.3397, 1599.305
495.8218, 1619.818
496.3039, 1641.627
496.7860, 1660.240
497.2681, 1675.424
497.7502, 1686.883
498.2324, 1690.941
498.7145, 1692.271
499.1966, 1697.304
499.6787, 1710.089
500.1608, 1724.648
500.6429, 1737.125
501.1251, 1748.114
501.6072, 1767.399
502.0893, 1803.659
502.5714, 1841.497
503.0535, 1873.620
503.5356, 1896.758
504.0178, 1921.756
504.4999, 1948.749
504.9820, 1977.293
505.4641, 2008.093
505.9462, 2041.997
506.4283, 2073.263
506.9105, 2099.947
507.3926, 2122.564
507.8747, 2140.228
508.3568, 2152.460
508.8389, 2170.211
509.3210, 2209.976
509.8032, 2261.833
510.2853, 2296.120
510.7674, 2305.839
511.2495, 2312.118
511.7316, 2343.528
512.2137, 2387.264
512.6959, 2416.859
513.1780, 2414.036
513.6601, 2399.808
514.1422, 2385.119
514.6243, 2370.221
515.1064, 2355.472
515.5886, 2345.260
516.0707, 2332.190
516.5528, 2310.726
517.0349, 2272.757
517.5170, 2241.549
517.9991, 2225.537
518.4813, 2215.238
518.9634, 2198.576
519.4455, 2170.475
519.9276, 2145.340
520.4097, 2130.254
520.8918, 2121.742
521.3740, 2090.503
521.8561, 2028.959
522.3382, 1969.784
522.8203, 1937.481
523.3024, 1930.478
523.7845, 1916.288
524.2667, 1891.810
524.7488, 1864.843
525.2309, 1846.409
525.7130, 1833.355
526.1951, 1814.545
526.6772, 1778.916
527.1594, 1742.217
527.6415, 1727.095
528.1236, 1729.000
528.6057, 1727.573
529.0878, 1708.629
529.5699, 1683.646
530.0521, 1660.392
530.5342, 1639.114
531.0163, 1622.099
531.4984, 1613.587
531.9805, 1608.025
532.4626, 1599.465
532.9448, 1580.807
533.4269, 1566.780
533.9090, 1560.536
534.3911, 1560.281
534.8732, 1559.449
535.3553, 1558.144
535.8375, 1556.055
536.3196, 1553.427
536.8017, 1550.329
537.2838, 1543.343
537.7659, 1530.828
538.2480, 1519.642
538.7302, 1516.609
539.2123, 1521.346
539.6944, 1532.829
540.1765, 1554.337
540.6586, 1576.055
541.1407, 1583.671
541.6229, 1579.737
542.1050, 1573.654
542.5871, 1565.423
543.0692, 1560.596
543.5513, 1565.811
544.0334, 1581.289
544.5156, 1598.047
544.9977, 1613.570
545.4798, 1627.680
545.9619, 1640.207
546.4440, 1653.272
546.9261, 1661.566
547.4083, 1659.713
547.8904, 1653.543
548.3725, 1653.709
548.8546, 1663.874
549.3367, 1674.374
549.8188, 1682.959
550.3010, 1689.791
550.7831, 1696.430
551.2652, 1702.496
551.7473, 1709.675
552.2294, 1722.070
552.7115, 1738.414
553.1937, 1741.959
553.6758, 1728.197
554.1579, 1714.873
554.6400, 1731.695
555.1221, 1767.670
555.6042, 1790.425
556.0864, 1777.935
556.5685, 1758.196
557.0506, 1757.526
557.5327, 1772.409
558.0148, 1789.946
558.4969, 1809.895
558.9791, 1826.048
559.4612, 1833.437
559.9433, 1829.991
560.4254, 1825.997
560.9075, 1813.676
561.3896, 1807.251
561.8718, 1819.517
562.3539, 1866.246
562.8360, 1905.196
563.3181, 1933.052
563.8002, 1951.047
564.2823, 1959.137
564.7645, 1953.498
565.2466, 1955.301
565.7287, 1977.558
566.2108, 2014.426
566.6929, 2036.023
567.1750, 2041.765
567.6572, 2041.499
568.1393, 2040.417
568.6214, 2039.648
569.1035, 2043.414
569.5856, 2054.657
570.0677, 2061.146
570.5499, 2047.102
571.0320, 2022.807
571.5141, 2004.461
571.9962, 2007.216
572.4783, 2007.863
572.9604, 1995.219
573.4426, 1971.745
573.9247, 1950.331
574.4068, 1937.762
574.8889, 1923.389
575.3710, 1902.671
575.8531, 1874.420
576.3353, 1846.990
576.8174, 1819.120
577.2995, 1794.335
577.7816, 1778.069
578.2637, 1771.765
578.7458, 1757.944
579.2280, 1731.369
579.7101, 1701.185
580.1922, 1684.730
580.6743, 1680.040
581.1564, 1676.021
581.6385, 1668.240
582.1207, 1657.837
582.6028, 1645.274
583.0849, 1631.013
583.5670, 1617.794
584.0491, 1606.820
584.5313, 1597.832
585.0134, 1590.800
585.4955, 1586.073
585.9776, 1582.181
586.4597, 1582.460
586.9418, 1581.816
587.4240, 1573.931
587.9061, 1547.661
588.3882, 1531.433
588.8703, 1530.766
589.3524, 1541.406
589.8345, 1553.059
590.3167, 1568.090
590.7988, 1574.490
591.2809, 1560.151
591.7630, 1531.842
592.2451, 1528.500
592.7272, 1550.947
593.2094, 1578.292
593.6915, 1595.043
594.1736, 1603.948
594.6557, 1610.147
595.1378, 1614.385
595.6199, 1615.785
596.1021, 1608.912
596.5842, 1600.010
597.0663, 1597.979
597.5485, 1607.616
598.0306, 1622.699
598.5127, 1649.468
598.9948, 1682.275
599.4769, 1696.763
599.9590, 1673.279
600.4412, 1653.973
600.9233, 1655.205
601.4054, 1678.952
601.8875, 1690.926
602.3696, 1687.857
602.8517, 1680.800
603.3339, 1678.287
603.8160, 1680.095
604.2981, 1684.125
604.7802, 1690.216
605.2623, 1698.121
605.7444, 1706.673
606.2266, 1716.745
606.7087, 1730.293
607.1908, 1750.645
607.6729, 1772.309
608.1550, 1793.239
608.6371, 1812.335
609.1193, 1826.741
609.6014, 1831.008
610.0835, 1833.855
610.5656, 1839.089
611.0477, 1847.187
611.5298, 1856.274
612.0120, 1870.120
612.4941, 1881.042
612.9762, 1883.513
613.4583, 1875.792
613.9404, 1865.488
614.4225, 1851.948
614.9047, 1837.600
615.3868, 1825.848
615.8689, 1816.442
616.3510, 1807.199
616.8331, 1796.731
617.3152, 1787.089
617.7974, 1781.356
618.2795, 1779.199
618.7616, 1778.959
619.2437, 1781.230
619.7258, 1783.956
620.2079, 1782.236
620.6901, 1776.111
621.1722, 1780.823
621.6543, 1814.734
622.1364, 1852.131
622.6185, 1874.836
623.1006, 1871.150
623.5828, 1877.664
624.0649, 1900.855
