##NAMES=Fluocerite-(Ce)
##RRUFFID=R110058
##IDEAL CHEMISTRY=Ce^3+^F_3_
##LOCALITY=Little Patsy pegmatite, South Platte Pegmatite District, Jefferson County, Colorado, USA
##OWNER=RRUFF
##SOURCE=Rudy Bolona and Don Doell
##DESCRIPTION=Tan colored massive
##STATUS=The identification of this mineral has been confirmed only by single crystal X-ray diffraction.
##URL=rruff.info/R110058
182.5765, 1214.582
183.0586, 1217.384
183.5407, 1218.164
184.0228, 1219.255
184.5049, 1220.604
184.9871, 1222.740
185.4692, 1227.227
185.9513, 1233.516
186.4334, 1238.440
186.9155, 1239.033
187.3976, 1236.930
187.8798, 1238.078
188.3619, 1243.134
188.8440, 1249.500
189.3261, 1253.095
189.8082, 1254.187
190.2903, 1255.974
190.7725, 1260.933
191.2546, 1268.384
191.7367, 1273.696
192.2188, 1276.256
192.7009, 1277.790
193.1830, 1281.245
193.6652, 1286.607
194.1473, 1291.935
194.6294, 1295.878
195.1115, 1298.579
195.5936, 1301.944
196.0757, 1306.171
196.5579, 1310.926
197.0400, 1315.755
197.5221, 1320.698
198.0042, 1325.279
198.4863, 1329.372
198.9684, 1332.968
199.4506, 1335.803
199.9327, 1337.719
200.4148, 1339.038
200.8969, 1340.361
201.3790, 1341.706
201.8611, 1343.086
202.3433, 1344.269
202.8254, 1345.148
203.3075, 1347.248
203.7896, 1350.990
204.2717, 1355.702
204.7538, 1359.883
205.2360, 1363.669
205.7181, 1366.373
206.2002, 1366.858
206.6823, 1364.429
207.1644, 1364.419
207.6465, 1368.230
208.1287, 1374.147
208.6108, 1376.724
209.0929, 1374.807
209.5750, 1372.713
210.0571, 1373.364
210.5392, 1377.484
211.0214, 1380.766
211.5035, 1382.268
211.9856, 1382.889
212.4677, 1386.298
212.9498, 1393.927
213.4319, 1401.252
213.9140, 1405.168
214.3962, 1404.406
214.8783, 1404.991
215.3604, 1407.840
215.8425, 1412.369
216.3246, 1416.108
216.8067, 1418.884
217.2889, 1421.252
217.7710, 1423.561
218.2531, 1425.850
218.7352, 1427.835
219.2173, 1429.139
219.6994, 1430.100
220.1816, 1432.451
220.6637, 1436.936
221.1458, 1441.510
221.6279, 1444.742
222.1100, 1446.031
222.5921, 1447.670
223.0743, 1450.199
223.5564, 1453.248
224.0385, 1455.008
224.5206, 1454.718
225.0027, 1454.348
225.4848, 1455.343
225.9670, 1458.852
226.4491, 1460.876
226.9312, 1460.224
227.4133, 1457.795
227.8954, 1458.112
228.3775, 1462.681
228.8597, 1467.804
229.3418, 1471.096
229.8239, 1471.517
230.3060, 1472.448
230.7881, 1473.994
231.2702, 1476.189
231.7524, 1479.481
232.2345, 1485.045
232.7166, 1489.907
233.1987, 1492.009
233.6808, 1489.655
234.1629, 1488.253
234.6451, 1488.577
235.1272, 1490.108
235.6093, 1490.535
236.0914, 1489.132
236.5735, 1487.623
237.0556, 1486.914
237.5378, 1487.030
238.0199, 1488.026
238.5020, 1490.501
238.9841, 1493.927
239.4662, 1495.842
239.9483, 1495.030
240.4305, 1494.464
240.9126, 1496.043
241.3947, 1501.786
241.8768, 1505.229
242.3589, 1505.248
242.8410, 1502.849
243.3232, 1501.569
243.8053, 1501.987
244.2874, 1502.722
244.7695, 1502.916
245.2516, 1501.634
245.7337, 1501.882
246.2159, 1504.380
246.6980, 1508.344
247.1801, 1511.309
247.6622, 1513.185
248.1443, 1514.187
248.6264, 1514.131
249.1086, 1511.881
249.5907, 1511.410
250.0728, 1513.771
250.5549, 1517.682
251.0370, 1519.563
251.5191, 1518.263
252.0013, 1516.819
252.4834, 1516.653
252.9655, 1518.467
253.4476, 1519.816
253.9297, 1520.670
254.4118, 1521.098
254.8940, 1521.167
255.3761, 1520.526
255.8582, 1520.139
256.3403, 1520.536
256.8224, 1522.142
257.3046, 1522.977
257.7867, 1522.682
258.2688, 1521.790
258.7509, 1521.372
259.2330, 1521.636
259.7151, 1521.896
260.1973, 1521.887
260.6794, 1521.557
261.1615, 1521.226
261.6436, 1521.162
262.1257, 1520.891
262.6078, 1519.399
263.0900, 1516.075
263.5721, 1513.114
264.0542, 1511.398
264.5363, 1511.127
265.0184, 1510.930
265.5005, 1510.989
265.9827, 1510.974
266.4648, 1510.126
266.9469, 1507.845
267.4290, 1506.578
267.9111, 1507.650
268.3932, 1511.315
268.8754, 1512.489
269.3575, 1510.302
269.8396, 1506.903
270.3217, 1505.051
270.8038, 1505.061
271.2859, 1505.262
271.7681, 1505.146
272.2502, 1504.717
272.7323, 1504.811
273.2144, 1505.760
273.6965, 1506.529
274.1786, 1505.757
274.6608, 1503.085
275.1429, 1500.820
275.6250, 1499.613
276.1071, 1499.330
276.5892, 1498.831
277.0714, 1498.000
277.5535, 1497.310
278.0356, 1497.646
278.5177, 1499.236
278.9998, 1499.245
279.4819, 1496.518
279.9641, 1491.866
280.4462, 1489.006
280.9283, 1488.171
281.4104, 1488.071
281.8925, 1488.064
282.3746, 1488.173
282.8568, 1487.130
283.3389, 1484.548
283.8210, 1480.890
284.3031, 1477.000
284.7852, 1472.764
285.2673, 1469.502
285.7495, 1468.736
286.2316, 1470.253
286.7137, 1470.884
287.1958, 1470.048
287.6779, 1468.449
288.1600, 1467.314
288.6422, 1466.633
289.1243, 1466.537
289.6064, 1467.594
290.0885, 1469.459
290.5706, 1470.193
291.0527, 1469.347
291.5349, 1467.892
292.0170, 1467.347
292.4991, 1467.635
292.9812, 1468.095
293.4633, 1468.226
293.9454, 1468.221
294.4276, 1468.932
294.9097, 1470.576
295.3918, 1472.158
295.8739, 1472.196
296.3560, 1470.970
296.8381, 1469.790
297.3203, 1469.620
297.8024, 1469.880
298.2845, 1469.255
298.7666, 1467.661
299.2487, 1465.825
299.7308, 1463.761
300.2130, 1461.922
300.6951, 1461.647
301.1772, 1464.611
301.6593, 1468.865
302.1414, 1471.933
302.6235, 1473.785
303.1057, 1474.497
303.5878, 1473.104
304.0699, 1470.692
304.5520, 1469.322
305.0341, 1470.193
305.5162, 1471.912
305.9984, 1473.544
306.4805, 1474.961
306.9626, 1475.376
307.4447, 1473.223
307.9268, 1470.050
308.4089, 1467.956
308.8911, 1467.949
309.3732, 1468.434
309.8553, 1467.981
310.3374, 1466.909
310.8195, 1466.284
311.3016, 1466.826
311.7838, 1468.024
312.2659, 1469.440
312.7480, 1470.975
313.2301, 1472.730
313.7122, 1475.606
314.1943, 1478.776
314.6765, 1480.432
315.1586, 1477.598
315.6407, 1474.524
316.1228, 1474.035
316.6049, 1476.948
317.0870, 1480.534
317.5692, 1484.620
318.0513, 1488.406
318.5334, 1490.737
319.0155, 1490.120
319.4976, 1488.943
319.9797, 1487.892
320.4619, 1486.953
320.9440, 1487.010
321.4261, 1489.057
321.9082, 1491.884
322.3903, 1494.341
322.8724, 1496.053
323.3546, 1497.464
323.8367, 1498.717
324.3188, 1499.802
324.8009, 1500.489
325.2830, 1499.778
325.7651, 1499.266
326.2473, 1499.997
326.7294, 1504.570
327.2115, 1507.568
327.6936, 1506.885
328.1757, 1503.677
328.6578, 1503.594
329.1400, 1510.414
329.6221, 1517.319
330.1042, 1521.505
330.5863, 1521.946
331.0684, 1521.275
331.5505, 1517.996
332.0327, 1513.854
332.5148, 1512.878
332.9969, 1516.909
333.4790, 1521.580
333.9611, 1525.740
334.4432, 1529.646
334.9254, 1531.569
335.4075, 1530.348
335.8896, 1528.020
336.3717, 1527.509
336.8538, 1529.542
337.3359, 1531.605
337.8180, 1533.044
338.3001, 1533.871
338.7823, 1534.637
339.2644, 1535.396
339.7465, 1536.054
340.2286, 1536.798
340.7107, 1537.892
341.1928, 1537.551
341.6750, 1535.010
342.1571, 1530.963
342.6392, 1528.022
343.1213, 1526.167
343.6034, 1525.459
344.0855, 1526.683
344.5677, 1529.703
345.0498, 1531.128
345.5319, 1530.264
346.0140, 1528.098
346.4961, 1526.355
346.9782, 1525.029
347.4604, 1523.836
347.9425, 1522.319
348.4246, 1520.760
348.9067, 1520.525
349.3888, 1521.900
349.8709, 1523.517
350.3531, 1523.310
350.8352, 1521.808
351.3173, 1520.977
351.7994, 1522.578
352.2815, 1525.053
352.7636, 1525.472
353.2458, 1523.822
353.7279, 1522.084
354.2100, 1521.385
354.6921, 1521.797
355.1742, 1523.596
355.6563, 1528.153
356.1385, 1532.751
356.6206, 1533.959
357.1027, 1532.531
357.5848, 1532.200
358.0669, 1536.278
358.5490, 1541.978
359.0312, 1546.716
359.5133, 1549.994
359.9954, 1552.378
360.4775, 1554.218
360.9596, 1555.441
361.4417, 1555.850
361.9239, 1553.015
362.4060, 1551.189
362.8881, 1553.406
363.3702, 1560.859
363.8523, 1567.609
364.3344, 1571.379
364.8166, 1573.558
365.2987, 1575.750
365.7808, 1578.155
366.2629, 1580.726
366.7450, 1583.182
367.2271, 1585.532
367.7093, 1588.895
368.1914, 1594.810
368.6735, 1600.870
369.1556, 1605.528
369.6377, 1606.698
370.1198, 1608.848
370.6020, 1612.460
371.0841, 1617.192
371.5662, 1621.877
372.0483, 1626.385
372.5304, 1630.901
373.0125, 1635.491
373.4947, 1640.091
373.9768, 1644.864
374.4589, 1650.043
374.9410, 1655.259
375.4231, 1659.848
375.9052, 1663.746
376.3874, 1667.367
376.8695, 1670.791
377.3516, 1674.089
377.8337, 1677.086
378.3158, 1679.503
378.7979, 1682.597
379.2801, 1687.976
379.7622, 1695.828
380.2443, 1703.201
380.7264, 1709.506
381.2085, 1715.089
381.6906, 1720.952
382.1728, 1727.061
382.6549, 1733.080
383.1370, 1738.421
383.6191, 1743.351
384.1012, 1748.647
384.5833, 1754.295
385.0655, 1760.703
385.5476, 1769.078
386.0297, 1778.880
386.5118, 1787.753
386.9939, 1794.458
387.4760, 1799.702
387.9582, 1804.135
388.4403, 1807.820
388.9224, 1811.881
389.4045, 1817.762
389.8866, 1824.439
390.3687, 1830.498
390.8509, 1835.127
391.3330, 1839.332
391.8151, 1843.634
392.2972, 1848.091
392.7793, 1852.963
393.2614, 1860.094
393.7436, 1866.571
394.2257, 1869.825
394.7078, 1867.317
395.1899, 1866.615
395.6720, 1872.786
396.1541, 1882.015
396.6363, 1888.179
397.1184, 1886.062
397.6005, 1884.093
398.0826, 1885.587
398.5647, 1891.244
399.0468, 1895.683
399.5290, 1898.335
400.0111, 1899.592
400.4932, 1899.721
400.9753, 1896.667
401.4574, 1895.338
401.9395, 1897.296
402.4217, 1901.568
402.9038, 1903.307
403.3859, 1900.871
403.8680, 1898.327
404.3501, 1897.756
404.8322, 1899.875
405.3144, 1901.540
405.7965, 1902.780
406.2786, 1903.503
406.7607, 1903.355
407.2428, 1902.142
407.7249, 1901.035
408.2071, 1900.075
408.6892, 1899.469
409.1713, 1901.182
409.6534, 1905.611
410.1355, 1910.027
410.6176, 1911.336
411.0998, 1910.147
411.5819, 1909.971
412.0640, 1911.434
412.5461, 1914.287
413.0282, 1918.571
413.5103, 1924.097
413.9925, 1929.857
414.4746, 1935.274
414.9567, 1940.602
415.4388, 1946.289
415.9209, 1952.490
416.4030, 1958.436
416.8852, 1963.835
417.3673, 1968.569
417.8494, 1972.467
418.3315, 1974.329
418.8136, 1976.350
419.2957, 1979.937
419.7779, 1984.982
420.2600, 1990.846
420.7421, 1997.309
421.2242, 2004.472
421.7063, 2012.340
422.1884, 2021.596
422.6706, 2030.558
423.1527, 2038.270
423.6348, 2045.545
424.1169, 2053.926
424.5990, 2064.469
425.0811, 2075.433
425.5633, 2086.450
426.0454, 2097.568
426.5275, 2108.115
427.0096, 2117.042
427.4917, 2126.271
427.9738, 2137.655
428.4560, 2152.847
428.9381, 2166.580
429.4202, 2178.062
429.9023, 2187.534
430.3844, 2195.914
430.8665, 2202.296
431.3487, 2210.039
431.8308, 2221.454
432.3129, 2236.727
432.7950, 2251.140
433.2771, 2264.767
433.7592, 2277.136
434.2414, 2286.615
434.7235, 2293.618
435.2056, 2303.168
435.6877, 2318.136
436.1698, 2335.734
436.6519, 2350.117
437.1341, 2361.435
437.6162, 2372.173
438.0983, 2383.795
438.5804, 2396.307
439.0625, 2409.698
439.5446, 2423.954
440.0268, 2439.161
440.5089, 2455.792
440.9910, 2473.484
441.4731, 2491.211
441.9552, 2509.015
442.4373, 2526.463
442.9195, 2543.571
443.4016, 2560.298
443.8837, 2576.199
444.3658, 2589.987
444.8479, 2603.487
445.3300, 2617.969
445.8122, 2634.400
446.2943, 2651.000
446.7764, 2668.570
447.2585, 2686.194
447.7406, 2701.523
448.2227, 2712.049
448.7049, 2722.638
449.1870, 2735.266
449.6691, 2750.571
450.1512, 2763.638
450.6333, 2774.352
451.1154, 2782.878
451.5976, 2788.968
452.0797, 2791.809
452.5618, 2795.125
453.0439, 2800.279
453.5260, 2805.911
454.0081, 2807.922
454.4903, 2806.079
454.9724, 2802.219
455.4545, 2796.353
455.9366, 2788.948
456.4187, 2783.847
456.9008, 2781.787
457.3830, 2778.667
457.8651, 2769.196
458.3472, 2754.608
458.8293, 2739.393
459.3114, 2725.067
459.7935, 2710.523
460.2757, 2694.250
460.7578, 2676.336
461.2399, 2657.047
461.7220, 2636.604
462.2041, 2614.800
462.6862, 2591.386
463.1684, 2566.094
463.6505, 2540.709
464.1326, 2516.024
464.6147, 2492.206
465.0968, 2469.373
465.5789, 2447.474
466.0611, 2426.295
466.5432, 2406.260
467.0253, 2387.048
467.5074, 2364.249
467.9895, 2332.116
468.4716, 2300.524
468.9538, 2274.608
469.4359, 2258.200
469.9180, 2239.526
470.4001, 2216.757
470.8822, 2192.741
471.3643, 2171.938
471.8465, 2155.624
472.3286, 2138.673
472.8107, 2119.422
473.2928, 2098.553
473.7749, 2078.237
474.2570, 2058.467
474.7392, 2039.769
475.2213, 2023.076
475.7034, 2008.056
476.1855, 1992.187
476.6676, 1974.932
477.1497, 1957.737
477.6319, 1943.292
478.1140, 1930.801
478.5961, 1917.832
479.0782, 1902.874
479.5603, 1887.182
480.0424, 1871.915
480.5246, 1857.043
481.0067, 1842.906
481.4888, 1829.683
481.9709, 1817.270
482.4530, 1805.642
482.9352, 1794.818
483.4173, 1784.673
483.8994, 1775.918
484.3815, 1767.582
484.8636, 1758.285
485.3457, 1746.653
485.8279, 1735.138
486.3100, 1724.315
486.7921, 1714.187
487.2742, 1704.597
487.7563, 1695.925
488.2384, 1687.350
488.7206, 1678.336
489.2027, 1668.260
489.6848, 1659.658
490.1669, 1652.854
490.6490, 1647.246
491.1311, 1641.834
491.6133, 1636.681
492.0954, 1631.592
492.5775, 1626.315
493.0596, 1621.092
493.5417, 1616.870
494.0238, 1613.655
494.5060, 1610.747
494.9881, 1607.865
495.4702, 1604.864
495.9523, 1601.235
496.4344, 1596.809
496.9165, 1592.197
497.3987, 1587.681
497.8808, 1583.426
498.3629, 1579.849
498.8450, 1577.658
499.3271, 1575.752
499.8092, 1573.559
500.2914, 1571.081
500.7735, 1568.486
501.2556, 1565.333
501.7377, 1562.437
502.2198, 1560.356
502.7019, 1559.471
503.1841, 1558.582
503.6662, 1557.608
504.1483, 1556.549
504.6304, 1555.439
505.1125, 1554.608
505.5946, 1553.139
506.0768, 1550.239
506.5589, 1546.507
507.0410, 1545.227
507.5231, 1547.201
508.0052, 1549.318
508.4873, 1549.794
508.9695, 1548.593
509.4516, 1547.836
509.9337, 1547.519
510.4158, 1547.645
510.8979, 1548.568
511.3800, 1550.043
511.8622, 1550.927
512.3443, 1550.727
512.8264, 1550.075
513.3085, 1549.828
513.7906, 1549.867
514.2728, 1549.757
514.7549, 1548.999
515.2370, 1548.170
515.7191, 1547.768
516.2012, 1547.853
516.6833, 1548.178
517.1655, 1548.865
517.6476, 1549.643
518.1297, 1550.279
518.6118, 1550.516
519.0939, 1550.892
519.5760, 1551.327
520.0582, 1551.970
520.5403, 1553.230
521.0224, 1556.086
521.5045, 1558.124
521.9866, 1558.294
522.4688, 1556.591
522.9509, 1556.145
523.4330, 1557.091
523.9151, 1558.904
524.3972, 1561.329
524.8793, 1564.354
525.3615, 1567.573
525.8436, 1571.051
526.3257, 1574.445
526.8078, 1577.295
527.2899, 1579.607
527.7720, 1581.371
528.2542, 1582.472
528.7363, 1583.075
529.2184, 1582.916
529.7005, 1582.243
530.1826, 1582.409
530.6647, 1585.387
531.1469, 1588.888
531.6290, 1590.905
532.1111, 1590.929
532.5932, 1590.626
533.0753, 1590.264
533.5574, 1590.107
534.0396, 1590.433
534.5217, 1592.492
535.0038, 1593.656
535.4859, 1592.648
535.9680, 1590.446
536.4501, 1590.261
536.9323, 1593.306
537.4144, 1596.301
537.8965, 1597.865
538.3786, 1597.932
538.8607, 1598.932
539.3428, 1601.038
539.8250, 1603.458
540.3071, 1605.649
540.7892, 1607.538
541.2713, 1608.726
541.7534, 1609.044
542.2355, 1608.874
542.7177, 1608.486
543.1998, 1608.004
543.6819, 1607.847
544.1640, 1608.464
544.6461, 1609.313
545.1282, 1610.053
545.6104, 1610.644
546.0925, 1610.859
546.5746, 1610.226
547.0567, 1609.440
547.5388, 1608.854
548.0209, 1608.380
548.5031, 1608.621
548.9852, 1610.458
549.4673, 1612.707
549.9494, 1614.119
550.4315, 1614.312
550.9136, 1614.203
551.3958, 1613.828
551.8779, 1613.199
552.3600, 1612.308
552.8421, 1611.005
553.3242, 1609.932
553.8063, 1609.635
554.2885, 1609.908
554.7706, 1608.912
555.2527, 1606.547
555.7348, 1604.011
556.2169, 1602.247
556.6990, 1601.143
557.1812, 1600.427
557.6633, 1600.133
558.1454, 1599.975
558.6275, 1600.098
559.1096, 1600.119
559.5917, 1599.351
560.0739, 1596.144
560.5560, 1593.407
561.0381, 1593.107
561.5202, 1594.683
562.0023, 1595.618
562.4844, 1594.880
562.9666, 1593.677
563.4487, 1592.329
563.9308, 1590.638
564.4129, 1589.912
564.8950, 1591.120
565.3771, 1592.206
565.8593, 1591.095
566.3414, 1586.904
566.8235, 1584.386
567.3056, 1584.401
567.7877, 1585.626
568.2698, 1585.734
568.7520, 1584.781
569.2341, 1583.586
569.7162, 1582.320
570.1983, 1581.133
570.6804, 1580.288
571.1625, 1579.786
571.6447, 1579.480
572.1268, 1579.593
572.6089, 1579.703
573.0910, 1579.052
573.5731, 1577.335
574.0552, 1576.708
574.5374, 1579.603
575.0195, 1583.320
575.5016, 1585.342
575.9837, 1583.143
576.4658, 1581.710
576.9479, 1581.986
577.4301, 1583.132
577.9122, 1583.399
578.3943, 1581.815
578.8764, 1581.255
579.3585, 1582.955
579.8406, 1586.411
580.3228, 1587.953
580.8049, 1587.313
581.2870, 1586.450
581.7691, 1586.925
582.2512, 1588.337
582.7333, 1589.046
583.2155, 1588.968
583.6975, 1588.377
584.1796, 1586.949
584.6617, 1585.353
585.1439, 1584.741
585.6260, 1585.872
586.1081, 1587.307
586.5902, 1588.581
587.0723, 1589.505
587.5544, 1589.687
588.0366, 1587.809
588.5187, 1586.375
589.0008, 1586.408
589.4829, 1587.817
589.9650, 1588.763
590.4471, 1588.868
590.9293, 1588.915
591.4114, 1589.356
591.8935, 1590.313
592.3756, 1590.511
592.8577, 1589.707
593.3398, 1588.773
593.8220, 1589.028
594.3041, 1590.212
594.7862, 1589.907
595.2683, 1587.152
595.7504, 1584.223
596.2325, 1584.711
596.7147, 1587.441
597.1968, 1589.315
597.6789, 1588.527
598.1610, 1586.811
598.6431, 1585.052
599.1252, 1583.350
599.6074, 1582.043
600.0895, 1581.474
600.5716, 1581.117
601.0537, 1580.959
601.5358, 1581.268
602.0179, 1580.233
602.5001, 1576.301
602.9822, 1572.545
603.4643, 1571.625
603.9464, 1574.699
604.4285, 1575.871
604.9106, 1574.348
605.3928, 1571.650
605.8749, 1569.834
606.3570, 1568.878
606.8391, 1568.615
607.3212, 1569.227
607.8033, 1570.187
608.2855, 1571.032
608.7676, 1571.606
609.2497, 1571.391
609.7318, 1569.160
610.2139, 1566.688
610.6960, 1565.521
611.1782, 1565.680
611.6603, 1565.716
612.1424, 1565.716
612.6245, 1565.000
613.1066, 1562.919
613.5887, 1558.072
614.0709, 1555.123
614.5530, 1555.143
615.0351, 1556.119
615.5172, 1555.983
615.9993, 1554.586
616.4814, 1552.681
616.9636, 1550.088
617.4457, 1547.476
617.9278, 1546.257
618.4099, 1546.314
618.8920, 1546.473
619.3741, 1546.067
619.8563, 1545.574
620.3384, 1546.260
620.8205, 1547.725
621.3026, 1548.032
621.7847, 1544.656
622.2668, 1540.686
622.7490, 1538.853
623.2311, 1539.651
623.7132, 1539.472
624.1953, 1536.070
624.6774, 1532.287
625.1595, 1530.147
625.6417, 1530.616
626.1238, 1531.020
626.6059, 1531.546
627.0880, 1531.861
627.5701, 1531.453
628.0522, 1530.277
628.5344, 1528.846
629.0165, 1527.043
629.4986, 1525.374
629.9807, 1525.098
630.4628, 1525.963
630.9449, 1526.654
631.4271, 1526.094
631.9092, 1525.270
632.3913, 1525.492
632.8734, 1526.539
633.3555, 1527.117
633.8376, 1525.604
634.3198, 1524.152
634.8019, 1524.277
635.2840, 1526.530
635.7661, 1528.171
636.2482, 1528.925
636.7303, 1529.005
637.2125, 1528.428
637.6946, 1526.802
638.1767, 1525.733
638.6588, 1525.408
639.1409, 1525.477
639.6230, 1525.631
640.1052, 1525.851
640.5873, 1525.553
641.0694, 1524.373
641.5515, 1523.021
642.0336, 1522.682
642.5157, 1523.087
642.9979, 1523.437
643.4800, 1523.059
643.9621, 1522.708
644.4442, 1523.213
644.9263, 1524.351
645.4084, 1524.812
645.8906, 1523.586
646.3727, 1522.099
646.8548, 1520.973
647.3369, 1520.247
647.8190, 1519.685
648.3011, 1519.230
648.7833, 1519.038
649.2654, 1519.212
649.7475, 1519.758
650.2296, 1520.909
650.7117, 1522.920
651.1938, 1524.610
651.6760, 1523.808
652.1581, 1521.390
652.6402, 1520.272
653.1223, 1521.830
653.6044, 1523.576
654.0865, 1522.489
654.5687, 1520.065
655.0508, 1519.183
655.5329, 1523.580
656.0150, 1526.955
656.4971, 1526.115
656.9792, 1521.941
657.4614, 1519.269
657.9435, 1519.234
658.4256, 1519.352
658.9077, 1518.476
659.3898, 1516.719
659.8719, 1517.529
660.3541, 1521.519
660.8362, 1525.173
661.3183, 1525.926
661.8004, 1524.279
662.2825, 1521.853
662.7646, 1518.665
663.2468, 1516.047
663.7289, 1515.427
664.2110, 1515.998
664.6931, 1516.892
665.1752, 1518.327
665.6573, 1519.016
666.1395, 1517.679
666.6216, 1515.590
667.1037, 1514.309
667.5858, 1515.047
668.0679, 1515.350
668.5500, 1514.842
669.0322, 1513.878
669.5143, 1513.385
669.9964, 1513.571
670.4785, 1513.018
670.9606, 1510.681
671.4427, 1507.721
671.9249, 1507.845
672.4070, 1510.706
672.8891, 1513.603
673.3712, 1514.882
673.8533, 1515.352
674.3354, 1515.417
674.8176, 1515.246
675.2997, 1516.197
675.7818, 1521.613
676.2639, 1526.343
676.7460, 1526.597
677.2281, 1520.366
677.7103, 1515.982
678.1924, 1514.061
678.6745, 1513.745
679.1566, 1514.846
679.6387, 1518.007
