##NAMES=Fluorcalciopyrochlore
##RRUFFID=R110198
##IDEAL CHEMISTRY=(Ca,Na)_2_(Nb^5+^,Ti^4+^)_2_O_6_F
##LOCALITY=St Lawrence Columbium mine, Oka complex, Oka, Quebec, Canada
##OWNER=RRUFF
##SOURCE=Donald Doell
##DESCRIPTION=Dark brownish-red octahedra
##STATUS=The identification of this mineral is confirmed by single-crystal X-ray diffraction and chemical analysis.
##URL=rruff.info/R110198
##MEASURED CHEMISTRY=(Ca_1.17_Na_0.49_Ce_0.19_Mn_0.03_La_0.03_Pr_0.01_Th_0.01_)(Nb_1.55_Ti_0.31_Fe_0.09_Zr_0.04_Ta_0.01_)O_6_[F_0.63_(OH)_0.37_]
217.2889, 546.6580
217.7710, 545.5787
218.2531, 545.0266
218.7352, 544.6324
219.2173, 544.3753
219.6994, 544.2332
220.1816, 544.0741
220.6637, 543.6667
221.1458, 543.6002
221.6279, 544.4694
222.1100, 547.0778
222.5921, 548.4521
223.0743, 548.0168
223.5564, 546.1622
224.0385, 544.5817
224.5206, 543.1414
225.0027, 542.2499
225.4848, 542.3326
225.9670, 544.0484
226.4491, 545.1586
226.9312, 545.3490
227.4133, 544.8047
227.8954, 544.3710
228.3775, 544.0304
228.8597, 543.8442
229.3418, 544.0013
229.8239, 545.1066
230.3060, 545.0305
230.7881, 542.8384
231.2702, 539.2328
231.7524, 537.8849
232.2345, 540.2218
232.7166, 542.7782
233.1987, 543.3373
233.6808, 540.5075
234.1629, 538.7600
234.6451, 538.6808
235.1272, 539.9013
235.6093, 540.8853
236.0914, 541.8230
236.5735, 542.2686
237.0556, 541.7975
237.5378, 539.4930
238.0199, 538.3934
238.5020, 539.4146
238.9841, 541.7972
239.4662, 542.2239
239.9483, 539.2906
240.4305, 536.3572
240.9126, 535.3646
241.3947, 537.7151
241.8768, 538.8932
242.3589, 538.2039
242.8410, 536.2464
243.3232, 535.1199
243.8053, 535.1100
244.2874, 535.5433
244.7695, 536.1608
245.2516, 537.2633
245.7337, 537.8248
246.2159, 537.5667
246.6980, 536.7601
247.1801, 536.2604
247.6622, 535.9864
248.1443, 536.1099
248.6264, 536.8710
249.1086, 538.9756
249.5907, 539.9730
250.0728, 539.3851
250.5549, 537.7982
251.0370, 536.8314
251.5191, 536.9910
252.0013, 536.9867
252.4834, 536.0490
252.9655, 533.3060
253.4476, 532.0268
253.9297, 532.7534
254.4118, 534.7093
254.8940, 536.2040
255.3761, 537.1295
255.8582, 537.7811
256.3403, 538.1268
256.8224, 537.8187
257.3046, 538.4512
257.7867, 540.6726
258.2688, 543.3985
258.7509, 544.3965
259.2330, 542.9844
259.7151, 541.1943
260.1973, 539.6260
260.6794, 538.1796
261.1615, 537.6281
261.6436, 538.4669
262.1257, 539.7830
262.6078, 539.8841
263.0900, 538.1738
263.5721, 536.7136
264.0542, 536.3635
264.5363, 537.3689
265.0184, 537.8575
265.5005, 537.6536
265.9827, 537.1755
266.4648, 537.0549
266.9469, 537.4468
267.4290, 537.7521
267.9111, 537.7357
268.3932, 537.3627
268.8754, 537.2179
269.3575, 537.4358
269.8396, 537.6518
270.3217, 537.2875
270.8038, 536.1177
271.2859, 535.2006
271.7681, 534.8814
272.2502, 535.1322
272.7323, 535.2870
273.2144, 535.2580
273.6965, 535.2972
274.1786, 535.7387
274.6608, 536.6758
275.1429, 537.5715
275.6250, 538.4446
276.1071, 539.2097
276.5892, 538.9833
277.0714, 537.4435
277.5535, 535.8459
278.0356, 535.5504
278.5177, 536.7085
278.9998, 537.5617
279.4819, 537.7255
279.9641, 537.3148
280.4462, 536.8010
280.9283, 536.1790
281.4104, 535.4584
281.8925, 534.6617
282.3746, 533.7932
282.8568, 532.7208
283.3389, 531.3215
283.8210, 529.8052
284.3031, 528.6993
284.7852, 528.0129
285.2673, 527.7523
285.7495, 528.3525
286.2316, 529.6918
286.7137, 529.9091
287.1958, 528.4988
287.6779, 526.2749
288.1600, 524.7662
288.6422, 523.9729
289.1243, 523.6775
289.6064, 524.0448
290.0885, 524.8935
290.5706, 525.1984
291.0527, 524.7191
291.5349, 523.9955
292.0170, 524.0452
292.4991, 524.7781
292.9812, 525.2781
293.4633, 524.8183
293.9454, 523.7067
294.4276, 522.9207
294.9097, 522.5384
295.3918, 522.4053
295.8739, 522.4501
296.3560, 522.6274
296.8381, 522.7144
297.3203, 522.7409
297.8024, 522.5856
298.2845, 521.8632
298.7666, 520.5160
299.2487, 519.1035
299.7308, 517.9320
300.2130, 517.0982
300.6951, 516.9051
301.1772, 518.0499
301.6593, 519.6141
302.1414, 520.2802
302.6235, 520.0523
303.1057, 519.4299
303.5878, 518.7837
304.0699, 518.0378
304.5520, 517.0362
305.0341, 515.4237
305.5162, 513.8231
305.9984, 513.0422
306.4805, 512.9727
306.9626, 512.8174
307.4447, 511.8997
307.9268, 510.6162
308.4089, 509.4676
308.8911, 508.5171
309.3732, 507.8369
309.8553, 507.3954
310.3374, 507.2479
310.8195, 507.5820
311.3016, 509.6143
311.7838, 511.5988
312.2659, 511.7548
312.7480, 509.0223
313.2301, 506.1352
313.7122, 504.7106
314.1943, 504.2927
314.6765, 503.9583
315.1586, 503.2563
315.6407, 502.5342
316.1228, 502.0253
316.6049, 501.8079
317.0870, 501.6163
317.5692, 501.6036
318.0513, 501.4913
318.5334, 500.8862
319.0155, 499.2843
319.4976, 497.4900
319.9797, 495.6342
320.4619, 493.6677
320.9440, 492.4260
321.4261, 492.8143
321.9082, 493.7633
322.3903, 494.2598
322.8724, 494.1036
323.3546, 493.4477
323.8367, 491.9901
324.3188, 489.7827
324.8009, 488.1284
325.2830, 487.8398
325.7651, 487.8193
326.2473, 487.3612
326.7294, 486.1189
327.2115, 484.7846
327.6936, 483.0594
328.1757, 481.1817
328.6578, 480.2287
329.1400, 481.2329
329.6221, 482.3242
330.1042, 482.7382
330.5863, 482.3300
331.0684, 481.4736
331.5505, 480.0015
332.0327, 478.1088
332.5148, 476.1666
332.9969, 473.5353
333.4790, 471.6880
333.9611, 471.2654
334.4432, 472.7271
334.9254, 473.7484
335.4075, 474.3868
335.8896, 474.5009
336.3717, 473.7083
336.8538, 471.4498
337.3359, 469.6545
337.8180, 469.0152
338.3001, 469.5112
338.7823, 469.5655
339.2644, 469.0786
339.7465, 468.3714
340.2286, 467.7591
340.7107, 467.2873
341.1928, 466.7432
341.6750, 466.1468
342.1571, 465.4511
342.6392, 464.4379
343.1213, 463.0565
343.6034, 461.6086
344.0855, 460.4162
344.5677, 459.4646
345.0498, 457.9545
345.5319, 455.5868
346.0140, 452.9764
346.4961, 451.3813
346.9782, 450.7733
347.4604, 450.3352
347.9425, 449.6910
348.4246, 448.8568
348.9067, 447.7460
349.3888, 446.2407
349.8709, 445.0216
350.3531, 445.4055
350.8352, 446.9199
351.3173, 447.8101
351.7994, 446.8166
352.2815, 444.8939
352.7636, 443.6883
353.2458, 443.1956
353.7279, 442.7075
354.2100, 441.2150
354.6921, 439.3720
355.1742, 438.4019
355.6563, 439.4928
356.1385, 440.7201
356.6206, 439.8947
357.1027, 437.4047
357.5848, 435.2189
358.0669, 435.1062
358.5490, 435.5444
359.0312, 434.9763
359.5133, 432.6415
359.9954, 430.3066
360.4775, 429.1440
360.9596, 428.7235
361.4417, 428.1460
361.9239, 426.8675
362.4060, 425.4713
362.8881, 424.1955
363.3702, 423.0184
363.8523, 422.2330
364.3344, 422.5574
364.8166, 423.1083
365.2987, 422.8753
365.7808, 420.1483
366.2629, 418.0970
366.7450, 418.2424
367.2271, 420.5722
367.7093, 421.4306
368.1914, 418.9600
368.6735, 415.7839
369.1556, 413.5923
369.6377, 413.6721
370.1198, 413.2453
370.6020, 411.7084
371.0841, 409.5137
371.5662, 408.3638
372.0483, 409.1020
372.5304, 409.8680
373.0125, 409.9530
373.4947, 409.3409
373.9768, 407.9581
374.4589, 405.1954
374.9410, 402.1334
375.4231, 400.7333
375.9052, 401.6893
376.3874, 402.3369
376.8695, 401.7488
377.3516, 399.9618
377.8337, 398.7788
378.3158, 398.4103
378.7979, 398.0490
379.2801, 396.7366
379.7622, 394.4059
380.2443, 392.4347
380.7264, 391.0820
381.2085, 390.2402
381.6906, 389.6985
382.1728, 389.4597
382.6549, 389.2594
383.1370, 388.9321
383.6191, 388.4883
384.1012, 387.9135
384.5833, 387.1053
385.0655, 386.4580
385.5476, 386.9120
386.0297, 388.0930
386.5118, 388.6266
386.9939, 387.4825
387.4760, 385.4503
387.9582, 383.4991
388.4403, 381.6372
388.9224, 380.1331
389.4045, 379.3375
389.8866, 379.0175
390.3687, 378.8636
390.8509, 379.0280
391.3330, 379.0688
391.8151, 378.6806
392.2972, 377.9058
392.7793, 376.9079
393.2614, 375.4738
393.7436, 374.0395
394.2257, 372.8404
394.7078, 371.8379
395.1899, 371.2945
395.6720, 371.9706
396.1541, 373.0439
396.6363, 373.1951
397.1184, 370.9902
397.6005, 368.8443
398.0826, 367.7093
398.5647, 367.7865
399.0468, 367.5247
399.5290, 366.6046
400.0111, 365.3834
400.4932, 364.1236
400.9753, 362.1269
401.4574, 361.0775
401.9395, 361.7823
402.4217, 363.6943
402.9038, 364.0980
403.3859, 362.0391
403.8680, 359.8762
404.3501, 358.9120
404.8322, 359.7990
405.3144, 359.4783
405.7965, 357.4063
406.2786, 354.7784
406.7607, 353.5966
407.2428, 354.0816
407.7249, 354.8322
408.2071, 355.5497
408.6892, 356.1708
409.1713, 356.2271
409.6534, 355.6761
410.1355, 354.7820
410.6176, 353.6162
411.0998, 352.2479
411.5819, 351.0825
412.0640, 350.1230
412.5461, 349.5245
413.0282, 350.0376
413.5103, 351.3852
413.9925, 351.9637
414.4746, 350.0067
414.9567, 346.9561
415.4388, 345.1887
415.9209, 344.9765
416.4030, 345.1030
416.8852, 344.6346
417.3673, 343.8027
417.8494, 342.9854
418.3315, 342.5341
418.8136, 341.9761
419.2957, 340.8665
419.7779, 339.3081
420.2600, 337.8913
420.7421, 336.7971
421.2242, 336.0159
421.7063, 335.6191
422.1884, 335.9043
422.6706, 336.0172
423.1527, 335.5233
423.6348, 334.7443
424.1169, 334.2834
424.5990, 334.7888
425.0811, 335.0764
425.5633, 334.6247
426.0454, 333.2541
426.5275, 332.3872
427.0096, 332.3847
427.4917, 332.5811
427.9738, 332.4234
428.4560, 331.7451
428.9381, 331.0375
429.4202, 330.3014
429.9023, 329.5881
430.3844, 329.1947
430.8665, 329.4177
431.3487, 329.1172
431.8308, 327.2370
432.3129, 323.6317
432.7950, 321.7153
433.2771, 321.7747
433.7592, 322.8900
434.2414, 324.3844
434.7235, 326.1565
435.2056, 326.8563
435.6877, 325.5560
436.1698, 323.2763
436.6519, 322.3806
437.1341, 322.7893
437.6162, 323.0205
438.0983, 321.4829
438.5804, 319.1437
439.0625, 317.6922
439.5446, 317.4975
440.0268, 317.9089
440.5089, 318.9088
440.9910, 320.0726
441.4731, 320.5224
441.9552, 319.2433
442.4373, 317.6166
442.9195, 316.4674
443.4016, 315.8192
443.8837, 315.3222
444.3658, 315.3053
444.8479, 315.1070
445.3300, 314.1585
445.8122, 310.7085
446.2943, 308.6340
446.7764, 309.8340
447.2585, 312.9106
447.7406, 314.2841
448.2227, 312.1002
448.7049, 309.7813
449.1870, 308.1900
449.6691, 307.3748
450.1512, 307.1258
450.6333, 307.7017
451.1154, 308.5710
451.5976, 309.3324
452.0797, 310.1232
452.5618, 310.3118
453.0439, 309.6502
453.5260, 308.4107
454.0081, 307.3797
454.4903, 306.5832
454.9724, 305.8129
455.4545, 304.7196
455.9366, 303.4444
456.4187, 303.0204
456.9008, 303.5491
457.3830, 304.5497
457.8651, 305.9909
458.3472, 307.5288
458.8293, 307.8838
459.3114, 305.8897
459.7935, 303.2863
460.2757, 302.3130
460.7578, 302.7307
461.2399, 303.3036
461.7220, 303.1825
462.2041, 302.9006
462.6862, 303.1121
463.1684, 304.1097
463.6505, 304.7057
464.1326, 303.8241
464.6147, 302.3244
465.0968, 301.3033
465.5789, 301.2964
466.0611, 301.6353
466.5432, 302.5473
467.0253, 303.8949
467.5074, 304.2846
467.9895, 302.6127
468.4716, 300.7081
468.9538, 299.3541
469.4359, 298.3382
469.9180, 298.4499
470.4001, 300.4524
470.8822, 303.0526
471.3643, 304.2281
471.8465, 303.4997
472.3286, 302.7154
472.8107, 302.3153
473.2928, 302.2476
473.7749, 302.2319
474.2570, 302.2852
474.7392, 302.2910
475.2213, 301.9271
475.7034, 301.3312
476.1855, 301.6037
476.6676, 303.0411
477.1497, 304.7500
477.6319, 305.6060
478.1140, 305.7406
478.5961, 305.5511
479.0782, 304.9817
479.5603, 304.3222
480.0424, 303.9085
480.5246, 303.7204
481.0067, 303.6078
481.4888, 303.4912
481.9709, 303.3958
482.4530, 303.2906
482.9352, 303.0199
483.4173, 303.1100
483.8994, 304.1673
484.3815, 305.6281
484.8636, 306.6247
485.3457, 306.8401
485.8279, 306.6938
486.3100, 306.0782
486.7921, 305.0012
487.2742, 304.3647
487.7563, 304.1479
488.2384, 304.3965
488.7206, 305.3304
489.2027, 307.7040
489.6848, 308.5911
490.1669, 307.3156
490.6490, 305.2446
491.1311, 304.7168
491.6133, 306.0065
492.0954, 306.9533
492.5775, 306.7426
493.0596, 305.7191
493.5417, 305.0401
494.0238, 304.6998
494.5060, 304.8398
494.9881, 306.2226
495.4702, 308.1251
495.9523, 308.4540
496.4344, 306.6003
496.9165, 304.6963
497.3987, 305.3983
497.8808, 307.5255
498.3629, 308.8393
498.8450, 307.4995
499.3271, 305.8190
499.8092, 305.2849
500.2914, 305.7506
500.7735, 306.3813
501.2556, 306.8375
501.7377, 307.3824
502.2198, 308.2808
502.7019, 309.9532
503.1841, 310.9877
503.6662, 310.9175
504.1483, 310.2430
504.6304, 309.5054
505.1125, 308.4152
505.5946, 307.7533
506.0768, 307.7334
506.5589, 308.2408
507.0410, 308.7137
507.5231, 309.1411
508.0052, 309.5534
508.4873, 310.0252
508.9695, 310.5504
509.4516, 310.7607
509.9337, 310.5888
510.4158, 310.3602
510.8979, 310.4918
511.3800, 310.9054
511.8622, 311.2577
512.3443, 311.4683
512.8264, 311.5589
513.3085, 311.5115
513.7906, 311.3600
514.2728, 311.2235
514.7549, 311.1969
515.2370, 311.2007
515.7191, 311.1944
516.2012, 311.1809
516.6833, 311.0742
517.1655, 310.4613
517.6476, 309.9400
518.1297, 310.0338
518.6118, 311.7972
519.0939, 313.0054
519.5760, 313.1237
520.0582, 312.4560
520.5403, 311.7191
521.0224, 310.4452
521.5045, 309.7886
521.9866, 310.3394
522.4688, 312.0944
522.9509, 312.8376
523.4330, 312.1903
523.9151, 311.4145
524.3972, 311.6689
524.8793, 312.9830
525.3615, 313.5126
525.8436, 312.8608
526.3257, 312.0292
526.8078, 312.8609
527.2899, 314.9712
527.7720, 316.5230
528.2542, 316.6302
528.7363, 315.9002
529.2184, 314.9232
529.7005, 313.7593
530.1826, 312.6891
530.6647, 311.5200
531.1469, 310.7497
531.6290, 310.9347
532.1111, 312.3370
532.5932, 313.7963
533.0753, 314.9720
533.5574, 315.9335
534.0396, 316.7327
534.5217, 317.6410
535.0038, 318.0953
535.4859, 317.7534
535.9680, 316.8940
536.4501, 316.3828
536.9323, 316.3276
537.4144, 316.4403
537.8965, 316.6334
538.3786, 316.9043
538.8607, 317.2981
539.3428, 317.8898
539.8250, 318.3506
540.3071, 318.0885
540.7892, 317.2394
541.2713, 317.2422
541.7534, 318.5065
542.2355, 320.1450
542.7177, 320.9266
543.1998, 321.0499
543.6819, 321.1255
544.1640, 321.7579
544.6461, 322.2463
545.1282, 321.6265
545.6104, 320.1071
546.0925, 318.9651
546.5746, 319.2719
547.0567, 319.8984
547.5388, 319.9615
548.0209, 318.9899
548.5031, 318.6590
548.9852, 320.0695
549.4673, 321.9278
549.9494, 322.8391
550.4315, 321.8797
550.9136, 321.3948
551.3958, 321.8266
551.8779, 322.8335
552.3600, 323.3190
552.8421, 323.0808
553.3242, 323.0356
553.8063, 323.6667
554.2885, 324.8676
554.7706, 325.8693
555.2527, 326.6864
555.7348, 327.1662
556.2169, 326.8217
556.6990, 326.0502
557.1812, 325.9702
557.6633, 326.9012
558.1454, 327.9943
558.6275, 328.4510
559.1096, 328.4951
559.5917, 328.5287
560.0739, 328.8525
560.5560, 329.0746
561.0381, 328.6625
561.5202, 327.8760
562.0023, 327.8361
562.4844, 329.9416
562.9666, 331.8944
563.4487, 332.4363
563.9308, 331.1080
564.4129, 330.6657
564.8950, 331.7748
565.3771, 333.0364
565.8593, 333.0704
566.3414, 331.3346
566.8235, 330.7446
567.3056, 331.7599
567.7877, 333.7613
568.2698, 336.1211
568.7520, 338.7745
569.2341, 340.1986
569.7162, 339.1789
570.1983, 337.0291
570.6804, 336.1571
571.1625, 336.4287
571.6447, 336.8452
572.1268, 336.3670
572.6089, 335.9470
573.0910, 336.8677
573.5731, 339.5349
574.0552, 341.4853
574.5374, 340.6550
575.0195, 339.0627
575.5016, 338.5926
575.9837, 340.8972
576.4658, 342.7215
576.9479, 343.5893
577.4301, 343.8330
577.9122, 344.1081
578.3943, 344.5055
578.8764, 344.6797
579.3585, 344.2188
579.8406, 343.3791
580.3228, 344.4095
580.8049, 347.6459
581.2870, 350.5649
581.7691, 351.0255
582.2512, 349.6952
582.7333, 349.4776
583.2155, 350.6540
583.6975, 351.8427
584.1796, 351.5871
584.6617, 350.5181
585.1439, 349.6303
585.6260, 349.0473
586.1081, 348.9900
586.5902, 350.0960
587.0723, 351.7769
587.5544, 352.8761
588.0366, 352.0824
588.5187, 351.6671
589.0008, 352.8895
589.4829, 355.5953
589.9650, 356.6602
590.4471, 354.4047
590.9293, 352.6793
591.4114, 353.6707
591.8935, 357.9658
592.3756, 360.7045
592.8577, 361.6678
593.3398, 361.6631
593.8220, 361.2535
594.3041, 360.5206
594.7862, 360.1101
595.2683, 360.1785
595.7504, 360.5155
596.2325, 361.0031
596.7147, 361.5565
597.1968, 361.9406
597.6789, 361.8694
598.1610, 361.7578
598.6431, 361.9435
599.1252, 362.3671
599.6074, 362.7391
600.0895, 363.0475
600.5716, 363.2050
601.0537, 363.1925
601.5358, 363.0260
602.0179, 362.5182
602.5001, 361.0984
602.9822, 359.9024
603.4643, 359.8375
603.9464, 361.1866
604.4285, 362.6446
604.9106, 364.3080
605.3928, 365.7650
605.8749, 366.2757
606.3570, 365.9039
606.8391, 365.4909
607.3212, 365.3310
607.8033, 365.2131
608.2855, 364.4942
608.7676, 363.4490
609.2497, 363.0712
609.7318, 364.5613
610.2139, 366.4591
610.6960, 367.8039
611.1782, 368.5303
611.6603, 368.5581
612.1424, 366.7201
612.6245, 365.0050
613.1066, 364.8117
613.5887, 367.4194
614.0709, 368.7901
614.5530, 368.4081
615.0351, 367.2737
615.5172, 366.3743
615.9993, 365.7277
616.4814, 365.1770
616.9636, 364.6104
617.4457, 364.2621
617.9278, 364.8683
618.4099, 366.3065
618.8920, 367.3089
619.3741, 366.9222
619.8563, 366.1126
620.3384, 366.5480
620.8205, 367.9573
621.3026, 368.9972
621.7847, 368.8457
622.2668, 368.0600
622.7490, 366.8085
623.2311, 365.0279
623.7132, 363.7983
624.1953, 363.6027
624.6774, 363.9393
625.1595, 364.5206
625.6417, 365.9117
626.1238, 366.3900
626.6059, 365.6064
627.0880, 364.3047
627.5701, 363.4333
628.0522, 363.0242
628.5344, 362.7852
629.0165, 362.7136
629.4986, 362.6909
629.9807, 362.5089
630.4628, 362.1701
630.9449, 361.7081
631.4271, 360.9771
631.9092, 360.2233
632.3913, 359.4929
632.8734, 358.8750
633.3555, 358.9361
633.8376, 361.1005
634.3198, 363.1245
634.8019, 363.3258
635.2840, 360.9964
635.7661, 359.7689
636.2482, 361.0197
636.7303, 362.6413
637.2125, 363.1231
637.6946, 361.8587
638.1767, 361.3259
638.6588, 361.9074
639.1409, 362.7450
639.6230, 362.4450
640.1052, 361.0987
640.5873, 360.1059
641.0694, 359.9705
641.5515, 360.1156
642.0336, 359.7838
642.5157, 359.0314
642.9979, 358.0067
643.4800, 356.1846
643.9621, 354.6200
644.4442, 354.3245
644.9263, 355.0811
645.4084, 355.5921
645.8906, 355.2663
646.3727, 354.7536
646.8548, 354.2978
647.3369, 353.8842
647.8190, 353.7314
648.3011, 354.0679
648.7833, 354.3265
649.2654, 353.9532
649.7475, 352.8560
650.2296, 352.3028
650.7117, 352.4621
651.1938, 352.7783
651.6760, 352.3769
652.1581, 351.5460
652.6402, 351.2827
653.1223, 352.1514
653.6044, 353.0120
654.0865, 352.8623
654.5687, 351.9658
655.0508, 350.8407
655.5329, 349.5612
656.0150, 348.1943
656.4971, 346.3999
656.9792, 344.4195
657.4614, 343.5255
657.9435, 344.7795
658.4256, 345.6618
658.9077, 345.1345
659.3898, 343.2845
659.8719, 342.4164
660.3541, 342.7205
660.8362, 343.1117
661.3183, 342.6471
661.8004, 341.6136
662.2825, 341.2121
662.7646, 341.5376
663.2468, 341.9773
663.7289, 341.8569
664.2110, 341.5804
664.6931, 341.7726
665.1752, 342.8805
665.6573, 343.6457
666.1395, 343.2150
666.6216, 342.2610
667.1037, 341.6111
667.5858, 341.7302
668.0679, 341.7303
668.5500, 341.6162
669.0322, 341.3127
669.5143, 340.6053
669.9964, 339.4084
670.4785, 338.1766
670.9606, 336.9293
671.4427, 335.8169
671.9249, 335.3686
672.4070, 335.5204
672.8891, 335.7954
673.3712, 336.0213
673.8533, 336.1525
674.3354, 336.1298
674.8176, 335.9565
675.2997, 335.6738
675.7818, 335.5715
676.2639, 335.1675
676.7460, 333.8750
677.2281, 331.1071
677.7103, 329.7424
678.1924, 330.6740
678.6745, 332.2072
679.1566, 333.1594
679.6387, 333.4508
680.1208, 333.5532
680.6030, 333.5149
681.0851, 333.2197
681.5672, 332.2387
682.0493, 330.8015
682.5314, 329.8510
683.0135, 329.6273
683.4957, 329.9518
683.9778, 331.1607
684.4599, 332.7267
684.9420, 333.6188
685.4241, 333.4586
685.9063, 332.5777
686.3884, 330.1315
686.8705, 326.9279
687.3526, 325.8109
687.8347, 328.8221
688.3168, 331.0913
688.7990, 331.0407
689.2811, 329.0961
689.7632, 328.0156
690.2453, 327.8580
690.7274, 328.1754
691.2095, 329.1105
691.6917, 330.2925
692.1738, 330.4349
692.6559, 329.5631
693.1380, 328.6738
693.6201, 328.2284
694.1022, 328.2723
694.5844, 329.1222
695.0665, 331.0161
695.5486, 332.2479
696.0307, 331.9645
696.5128, 330.9452
696.9949, 329.7341
697.4771, 327.8794
697.9592, 326.9077
698.4413, 327.2020
698.9234, 327.9062
699.4055, 327.8195
699.8876, 326.9210
700.3698, 326.8406
700.8519, 328.1571
701.3340, 329.5980
701.8161, 329.1844
702.2982, 327.4740
702.7803, 325.8321
703.2625, 324.5291
703.7446, 323.7525
704.2267, 323.5931
704.7088, 324.0565
705.1909, 325.1709
705.6730, 327.5612
706.1552, 329.9037
706.6373, 332.0099
707.1194, 333.8262
707.6015, 335.1212
708.0836, 335.8539
708.5657, 336.0939
709.0479, 335.5407
709.5300, 334.5485
710.0121, 335.0202
710.4942, 336.8800
