##NAMES=Fluorcalciomicrolite
##RRUFFID=R080146
##IDEAL CHEMISTRY=(Ca,Na)_2_Ta^5+^_2_O_6_F
##LOCALITY= Ip√© mine, Governador, Valadares, Minas Gerias, Brazil
##OWNER=RRUFF
##SOURCE=Luiz Menezes
##DESCRIPTION=Small transparent orange octahedrons on muscovite and albite matrix.
##STATUS=The identification of this mineral is confirmed by single-crystal X-ray diffraction and chemical analysis.
##URL=rruff.info/R080146
##MEASURED CHEMISTRY=(Ca_1.32_Na_0.37_Mn_0.02_Fe_0.01_)(Ta_1.51_Nb_0.33_Ti_0.15_Sn_0.01_)_2_O_6_[F_0.50_(OH)_0.41_]
90.52570, 0.0000000E+00
91.00781, 120.0552
91.48993, 122.9779
91.97205, 124.1502
92.45416, 121.7636
92.93628, 117.7044
93.41840, 116.4609
93.90051, 119.5305
94.38263, 124.3012
94.86475, 125.9133
95.34686, 124.4065
95.82898, 123.5697
96.31110, 126.9038
96.79321, 134.0582
97.27533, 141.2598
97.75745, 147.3757
98.23956, 152.8596
98.72168, 159.3133
99.20380, 166.6493
99.68591, 175.0196
100.1680, 183.9146
100.6501, 192.5961
101.1323, 205.1084
101.6144, 223.2417
102.0965, 247.4412
102.5786, 271.4083
103.0607, 294.0339
103.5428, 317.5722
104.0250, 346.1945
104.5071, 379.8098
104.9892, 418.2489
105.4713, 460.6638
105.9534, 504.4117
106.4355, 557.6287
106.9177, 621.1220
107.3998, 694.0190
107.8819, 776.1653
108.3640, 870.0831
108.8461, 970.2579
109.3282, 1075.641
109.8104, 1190.778
110.2925, 1303.492
110.7746, 1411.249
111.2567, 1514.282
111.7388, 1618.980
112.2209, 1731.259
112.7031, 1841.354
113.1852, 1943.783
113.6673, 2034.381
114.1494, 2119.059
114.6315, 2196.054
115.1136, 2265.685
115.5958, 2341.215
116.0779, 2426.437
116.5600, 2519.948
117.0421, 2619.734
117.5242, 2725.760
118.0063, 2838.531
118.4885, 2960.548
118.9706, 3092.915
119.4527, 3229.355
119.9348, 3368.031
120.4169, 3507.755
120.8990, 3648.653
121.3812, 3786.625
121.8633, 3926.940
122.3454, 4074.652
122.8275, 4234.893
123.3096, 4394.158
123.7917, 4542.135
124.2739, 4679.590
124.7560, 4809.342
125.2381, 4928.346
125.7202, 5042.065
126.2023, 5159.451
126.6844, 5288.555
127.1666, 5415.840
127.6487, 5517.870
128.1308, 5596.400
128.6129, 5672.446
129.0950, 5769.875
129.5771, 5881.458
130.0593, 5980.981
130.5414, 6055.212
131.0235, 6113.796
131.5056, 6173.728
131.9877, 6212.423
132.4698, 6226.169
132.9520, 6242.224
133.4341, 6260.764
133.9162, 6284.997
134.3983, 6316.170
134.8804, 6353.841
135.3625, 6396.926
135.8447, 6446.849
136.3268, 6499.325
136.8089, 6547.697
137.2910, 6590.749
137.7731, 6638.492
138.2552, 6696.579
138.7374, 6765.937
139.2195, 6835.307
139.7016, 6906.532
140.1837, 6976.819
140.6658, 7038.416
141.1479, 7089.062
141.6301, 7137.227
142.1122, 7187.363
142.5943, 7241.380
143.0764, 7292.506
143.5585, 7342.086
144.0406, 7388.748
144.5228, 7429.243
145.0049, 7460.949
145.4870, 7489.421
145.9691, 7517.334
146.4512, 7546.215
146.9333, 7572.939
147.4155, 7597.954
147.8976, 7621.388
148.3797, 7641.038
148.8618, 7649.069
149.3439, 7659.212
149.8260, 7680.195
150.3082, 7727.029
150.7903, 7768.077
151.2724, 7797.922
151.7545, 7815.945
152.2366, 7839.463
152.7188, 7875.199
153.2009, 7913.405
153.6830, 7945.835
154.1651, 7967.518
154.6472, 7987.350
155.1293, 8007.208
155.6115, 8027.591
156.0936, 8045.073
156.5757, 8059.067
157.0578, 8070.071
157.5399, 8078.442
158.0220, 8083.936
158.5042, 8087.508
158.9863, 8089.272
159.4684, 8089.131
159.9505, 8088.860
160.4326, 8090.192
160.9147, 8091.756
161.3969, 8091.436
161.8790, 8089.244
162.3611, 8084.581
162.8432, 8077.005
163.3253, 8066.337
163.8074, 8053.257
164.2896, 8037.119
164.7717, 8018.616
165.2538, 7999.222
165.7359, 7979.016
166.2180, 7958.221
166.7001, 7936.994
167.1823, 7915.768
167.6644, 7893.365
168.1465, 7868.632
168.6286, 7842.019
169.1107, 7814.886
169.5928, 7787.263
170.0750, 7759.888
170.5571, 7733.225
171.0392, 7708.310
171.5213, 7683.347
172.0034, 7656.846
172.4855, 7628.989
172.9677, 7601.108
173.4498, 7573.927
173.9319, 7547.094
174.4140, 7519.991
174.8961, 7491.803
175.3782, 7464.032
175.8604, 7437.810
176.3425, 7412.868
176.8246, 7388.167
177.3067, 7361.398
177.7888, 7333.997
178.2709, 7309.696
178.7531, 7292.065
179.2352, 7275.779
179.7173, 7251.337
180.1994, 7218.956
180.6815, 7186.382
181.1636, 7162.189
181.6458, 7143.666
182.1279, 7123.530
182.6100, 7098.368
183.0921, 7070.432
183.5742, 7042.348
184.0563, 7014.440
184.5385, 6989.141
185.0206, 6971.597
185.5027, 6959.972
185.9848, 6946.491
186.4669, 6928.109
186.9490, 6905.796
187.4312, 6880.661
187.9133, 6852.652
188.3954, 6824.884
188.8775, 6802.253
189.3596, 6784.325
189.8417, 6766.013
190.3239, 6745.560
190.8060, 6723.177
191.2881, 6699.938
191.7702, 6675.504
192.2523, 6652.710
192.7344, 6637.156
193.2166, 6628.951
193.6987, 6618.049
194.1808, 6598.742
194.6629, 6572.021
195.1450, 6547.937
195.6271, 6526.408
196.1093, 6507.714
196.5914, 6493.705
197.0735, 6484.846
197.5556, 6474.499
198.0377, 6458.910
198.5198, 6437.860
199.0020, 6418.990
199.4841, 6402.644
199.9662, 6387.636
200.4483, 6371.355
200.9304, 6353.336
201.4125, 6336.618
201.8947, 6323.306
202.3768, 6313.811
202.8589, 6302.024
203.3410, 6286.926
203.8231, 6270.838
204.3052, 6258.703
204.7874, 6251.289
205.2695, 6244.443
205.7516, 6236.729
206.2337, 6228.325
206.7158, 6217.812
207.1979, 6204.440
207.6801, 6189.655
208.1622, 6176.892
208.6443, 6166.795
209.1264, 6156.531
209.6085, 6143.490
210.0906, 6125.579
210.5728, 6115.052
211.0549, 6114.399
211.5370, 6119.635
212.0191, 6121.833
212.5012, 6120.203
212.9833, 6117.673
213.4655, 6115.455
213.9476, 6113.444
214.4297, 6112.061
214.9118, 6110.614
215.3939, 6110.216
215.8760, 6114.367
216.3581, 6125.441
216.8403, 6136.047
217.3224, 6142.010
217.8045, 6141.193
218.2866, 6142.204
218.7687, 6145.361
219.2508, 6150.221
219.7330, 6155.550
220.2151, 6160.847
220.6972, 6167.141
221.1793, 6174.877
221.6614, 6184.466
222.1435, 6194.120
222.6257, 6203.502
223.1078, 6212.970
223.5899, 6224.282
224.0720, 6239.645
224.5541, 6253.460
225.0362, 6263.154
225.5184, 6266.944
226.0005, 6270.731
226.4826, 6272.740
226.9647, 6275.473
227.4468, 6286.968
227.9289, 6312.989
228.4111, 6339.121
228.8932, 6358.132
229.3753, 6365.239
229.8574, 6377.004
230.3395, 6395.427
230.8216, 6418.168
231.3038, 6439.203
231.7859, 6457.759
232.2680, 6475.439
232.7501, 6492.357
233.2322, 6506.008
233.7143, 6524.667
234.1965, 6551.407
234.6786, 6582.587
235.1607, 6608.007
235.6428, 6623.819
236.1249, 6639.250
236.6070, 6658.611
237.0892, 6684.627
237.5713, 6708.083
238.0534, 6727.256
238.5355, 6744.220
239.0176, 6764.592
239.4997, 6791.196
239.9819, 6817.534
240.4640, 6840.384
240.9461, 6857.856
241.4282, 6876.838
241.9103, 6898.562
242.3924, 6921.461
242.8746, 6941.838
243.3567, 6959.556
243.8388, 6975.092
244.3209, 6988.031
244.8030, 6995.905
245.2851, 7007.888
245.7673, 7025.703
246.2494, 7047.037
246.7315, 7067.051
247.2136, 7086.030
247.6957, 7103.333
248.1778, 7118.558
248.6600, 7130.937
249.1421, 7143.206
249.6242, 7154.934
250.1063, 7166.832
250.5884, 7180.432
251.0705, 7196.630
251.5527, 7212.936
252.0348, 7228.134
252.5169, 7241.806
252.9990, 7255.919
253.4811, 7269.378
253.9632, 7284.063
254.4454, 7303.962
254.9275, 7333.290
255.4096, 7359.886
255.8917, 7378.814
256.3738, 7387.677
256.8560, 7399.368
257.3381, 7414.564
257.8202, 7432.118
258.3023, 7450.771
258.7844, 7470.619
259.2665, 7491.056
259.7487, 7512.249
260.2308, 7534.360
260.7129, 7555.436
261.1950, 7575.291
261.6771, 7594.193
262.1592, 7611.820
262.6414, 7626.385
263.1235, 7643.888
263.6056, 7666.766
264.0877, 7695.753
264.5698, 7721.983
265.0519, 7744.440
265.5341, 7765.460
266.0162, 7787.966
266.4983, 7812.042
266.9804, 7837.064
267.4625, 7863.964
267.9446, 7892.458
268.4268, 7917.678
268.9089, 7938.763
269.3910, 7957.245
269.8731, 7973.055
270.3552, 7983.818
270.8373, 8001.397
271.3195, 8030.563
271.8016, 8069.826
272.2837, 8104.992
272.7658, 8135.861
273.2479, 8163.928
273.7300, 8189.640
274.2122, 8211.821
274.6943, 8238.737
275.1764, 8273.030
275.6585, 8313.300
276.1406, 8352.237
276.6227, 8389.857
277.1049, 8426.376
277.5870, 8462.696
278.0691, 8499.181
278.5512, 8531.183
279.0333, 8556.042
279.5154, 8576.931
279.9976, 8604.734
280.4797, 8640.337
280.9618, 8678.653
281.4439, 8718.604
281.9260, 8760.019
282.4081, 8796.605
282.8903, 8826.603
283.3724, 8852.256
283.8545, 8878.401
284.3366, 8904.988
284.8187, 8932.543
285.3008, 8961.280
285.7830, 8991.374
286.2651, 9021.915
286.7472, 9053.314
287.2293, 9084.599
287.7114, 9114.096
288.1935, 9141.772
288.6757, 9168.106
289.1578, 9192.923
289.6399, 9216.448
290.1220, 9239.379
290.6041, 9262.431
291.0862, 9283.002
291.5684, 9294.958
292.0505, 9299.358
292.5326, 9305.814
293.0147, 9321.656
293.4968, 9343.280
293.9789, 9360.557
294.4611, 9372.987
294.9432, 9381.886
295.4253, 9388.558
295.9074, 9392.978
296.3895, 9394.739
296.8716, 9392.851
297.3538, 9388.487
297.8359, 9383.088
298.3180, 9376.510
298.8001, 9371.421
299.2822, 9374.215
299.7643, 9380.787
300.2465, 9380.074
300.7286, 9362.404
301.2107, 9339.272
301.6928, 9328.173
302.1749, 9328.408
302.6570, 9327.585
303.1392, 9314.983
303.6213, 9294.828
304.1034, 9274.440
304.5855, 9254.806
305.0676, 9236.878
305.5497, 9223.455
306.0319, 9213.337
306.5140, 9199.553
306.9961, 9173.493
307.4782, 9142.840
307.9603, 9116.788
308.4424, 9099.505
308.9246, 9083.564
309.4067, 9064.353
309.8888, 9042.013
310.3709, 9016.646
310.8530, 8984.807
311.3351, 8952.057
311.8173, 8923.562
312.2994, 8900.785
312.7815, 8879.231
313.2636, 8856.832
313.7457, 8834.028
314.2278, 8811.386
314.7100, 8790.125
315.1921, 8768.819
315.6742, 8746.494
316.1563, 8723.027
316.6384, 8699.629
317.1205, 8675.868
317.6027, 8653.176
318.0848, 8633.491
318.5669, 8622.318
319.0490, 8609.861
319.5311, 8590.589
320.0132, 8563.889
320.4954, 8539.746
320.9775, 8520.831
321.4596, 8505.787
321.9417, 8493.799
322.4238, 8486.707
322.9059, 8480.464
323.3881, 8474.379
323.8702, 8468.474
324.3523, 8462.594
324.8344, 8457.443
325.3165, 8451.942
325.7986, 8445.436
326.2808, 8434.027
326.7629, 8426.301
327.2450, 8427.167
327.7271, 8433.333
328.2092, 8431.622
328.6913, 8411.664
329.1735, 8392.919
329.6556, 8383.303
330.1377, 8389.980
330.6198, 8392.179
331.1019, 8390.137
331.5840, 8383.412
332.0662, 8370.926
332.5483, 8350.667
333.0304, 8327.008
333.5125, 8301.184
333.9946, 8272.346
334.4767, 8244.212
334.9589, 8218.521
335.4410, 8192.132
335.9231, 8160.973
336.4052, 8124.380
336.8873, 8085.570
337.3694, 8045.540
337.8515, 8004.502
338.3336, 7961.775
338.8158, 7917.151
339.2979, 7871.418
339.7800, 7825.995
340.2621, 7782.484
340.7442, 7730.534
341.2263, 7666.635
341.7085, 7594.819
342.1906, 7532.510
342.6727, 7480.409
343.1548, 7430.130
343.6369, 7376.048
344.1190, 7318.606
344.6012, 7256.929
345.0833, 7189.864
345.5654, 7121.188
346.0475, 7057.150
346.5296, 6997.841
347.0117, 6941.147
347.4939, 6889.170
347.9760, 6839.744
348.4581, 6783.039
348.9402, 6717.305
349.4223, 6652.410
349.9044, 6600.568
350.3866, 6558.323
350.8687, 6513.182
351.3508, 6455.582
351.8329, 6393.583
352.3150, 6340.174
352.7971, 6294.942
353.2793, 6251.369
353.7614, 6203.426
354.2435, 6153.013
354.7256, 6102.602
355.2077, 6051.333
355.6898, 6002.476
356.1720, 5960.154
356.6541, 5922.894
357.1362, 5884.721
357.6183, 5841.298
358.1004, 5795.444
358.5826, 5748.985
359.0647, 5700.868
359.5468, 5655.774
360.0289, 5617.439
360.5110, 5583.820
360.9931, 5550.883
361.4753, 5518.953
361.9574, 5486.227
362.4395, 5451.479
362.9216, 5414.248
363.4037, 5377.396
363.8858, 5339.971
364.3680, 5304.115
364.8501, 5271.946
365.3322, 5249.715
365.8143, 5225.845
366.2964, 5196.458
366.7785, 5161.588
367.2607, 5128.942
367.7428, 5098.222
368.2249, 5070.444
368.7070, 5046.271
369.1891, 5031.643
369.6712, 5012.933
370.1534, 4988.214
370.6355, 4958.948
371.1176, 4929.362
371.5997, 4896.202
372.0818, 4866.663
372.5639, 4843.873
373.0461, 4829.798
373.5282, 4815.454
374.0103, 4800.807
374.4924, 4785.468
374.9745, 4769.023
375.4566, 4751.163
375.9388, 4732.822
376.4209, 4714.429
376.9030, 4695.800
377.3851, 4677.099
377.8672, 4657.942
378.3493, 4639.566
378.8315, 4624.056
379.3136, 4611.432
379.7957, 4597.788
380.2778, 4582.027
380.7599, 4565.164
381.2420, 4548.700
381.7242, 4532.900
382.2063, 4518.103
382.6884, 4505.333
383.1705, 4493.838
383.6526, 4481.184
384.1347, 4466.696
384.6169, 4452.456
385.0990, 4443.173
385.5811, 4436.911
386.0632, 4427.932
386.5453, 4411.918
387.0274, 4392.325
387.5096, 4372.572
387.9917, 4352.878
388.4738, 4336.243
388.9559, 4328.726
389.4380, 4325.083
389.9201, 4318.184
390.4023, 4303.720
390.8844, 4287.961
391.3665, 4274.846
391.8486, 4263.837
392.3307, 4253.367
392.8128, 4243.112
393.2950, 4232.791
393.7771, 4222.125
394.2592, 4211.160
394.7413, 4199.516
395.2234, 4184.694
395.7055, 4169.583
396.1877, 4158.670
396.6698, 4160.645
397.1519, 4159.577
397.6340, 4148.926
398.1161, 4127.136
398.5982, 4108.426
399.0804, 4096.461
399.5625, 4086.362
400.0446, 4074.669
400.5267, 4060.338
401.0088, 4046.037
401.4909, 4031.565
401.9731, 4017.389
402.4552, 4005.980
402.9373, 3999.671
403.4194, 3992.371
403.9015, 3979.827
404.3836, 3958.828
404.8658, 3946.217
405.3479, 3945.206
405.8300, 3948.279
406.3121, 3943.589
406.7942, 3929.938
407.2763, 3916.493
407.7585, 3906.581
408.2406, 3899.236
408.7227, 3889.063
409.2048, 3875.734
409.6869, 3862.311
410.1690, 3851.734
410.6512, 3843.594
411.1333, 3835.563
411.6154, 3827.349
412.0975, 3818.829
412.5796, 3809.829
413.0617, 3800.322
413.5439, 3789.970
414.0260, 3777.380
414.5081, 3764.204
414.9902, 3753.206
415.4723, 3744.703
415.9544, 3736.681
416.4366, 3727.501
416.9187, 3717.845
417.4008, 3708.754
417.8829, 3701.253
418.3650, 3693.797
418.8471, 3685.544
419.3293, 3676.554
419.8114, 3666.796
420.2935, 3654.382
420.7756, 3642.424
421.2577, 3633.659
421.7398, 3630.724
422.2220, 3626.401
422.7041, 3618.292
423.1862, 3607.909
423.6683, 3597.957
424.1504, 3588.113
424.6325, 3579.235
425.1147, 3572.232
425.5968, 3567.431
426.0789, 3560.603
426.5610, 3549.754
427.0431, 3538.693
427.5252, 3530.715
428.0074, 3527.006
428.4895, 3523.737
428.9716, 3521.199
429.4537, 3518.601
429.9358, 3513.113
430.4179, 3504.005
430.9001, 3494.563
431.3822, 3486.551
431.8643, 3479.989
432.3464, 3473.195
432.8285, 3466.075
433.3106, 3459.036
433.7928, 3453.050
434.2749, 3447.891
434.7570, 3441.408
435.2391, 3431.635
435.7212, 3421.180
436.2033, 3416.024
436.6855, 3415.749
437.1676, 3415.525
437.6497, 3410.741
438.1318, 3404.189
438.6139, 3401.001
439.0960, 3403.249
439.5782, 3404.293
440.0603, 3396.177
440.5424, 3383.129
441.0245, 3373.188
441.5066, 3370.207
441.9887, 3370.836
442.4709, 3375.187
442.9530, 3382.894
443.4351, 3387.313
443.9172, 3383.190
444.3993, 3376.341
444.8814, 3370.994
445.3636, 3368.241
445.8457, 3366.391
446.3278, 3366.007
446.8099, 3366.370
447.2920, 3365.615
447.7741, 3360.336
448.2563, 3357.817
448.7384, 3361.616
449.2205, 3373.263
449.7026, 3379.458
450.1847, 3378.792
450.6668, 3374.483
451.1490, 3368.256
451.6311, 3358.367
452.1132, 3353.860
452.5953, 3357.521
453.0774, 3366.276
453.5595, 3372.548
454.0417, 3376.327
454.5238, 3377.664
455.0059, 3375.606
455.4880, 3370.821
455.9701, 3366.678
456.4522, 3363.274
456.9344, 3360.497
457.4165, 3357.572
457.8986, 3355.093
458.3807, 3355.007
458.8628, 3359.349
459.3449, 3364.741
459.8271, 3367.464
460.3092, 3367.893
460.7913, 3367.711
461.2734, 3367.147
461.7555, 3366.871
462.2376, 3367.968
462.7198, 3371.175
463.2019, 3372.895
463.6840, 3368.288
464.1661, 3362.260
464.6482, 3360.745
465.1303, 3371.249
465.6125, 3380.129
466.0946, 3382.050
466.5767, 3377.969
467.0588, 3377.272
467.5409, 3385.390
468.0230, 3392.850
468.5052, 3395.019
468.9873, 3388.265
469.4694, 3385.342
469.9515, 3387.015
470.4336, 3391.889
470.9157, 3398.552
471.3979, 3407.707
471.8800, 3416.105
472.3621, 3422.136
472.8442, 3426.834
473.3263, 3435.715
473.8084, 3449.109
474.2906, 3464.078
474.7727, 3479.552
475.2548, 3495.038
475.7369, 3507.944
476.2190, 3517.706
476.7011, 3526.071
477.1833, 3532.680
477.6654, 3539.429
478.1475, 3551.601
478.6296, 3575.285
479.1117, 3602.745
479.5938, 3626.701
480.0760, 3647.540
480.5581, 3667.026
481.0402, 3682.833
481.5223, 3699.962
482.0044, 3723.065
482.4865, 3754.541
482.9687, 3787.139
483.4508, 3818.041
483.9329, 3848.819
484.4150, 3881.258
484.8971, 3915.258
485.3792, 3951.694
485.8614, 3991.617
486.3435, 4034.817
486.8256, 4078.490
487.3077, 4121.131
487.7898, 4165.396
488.2719, 4212.409
488.7541, 4259.970
489.2362, 4314.868
489.7183, 4378.998
490.2004, 4448.093
490.6825, 4516.739
491.1646, 4584.925
491.6468, 4655.268
492.1289, 4729.497
492.6110, 4806.252
493.0931, 4885.143
493.5752, 4966.542
494.0573, 5052.111
494.5395, 5145.634
495.0216, 5244.247
495.5037, 5344.896
495.9858, 5445.367
496.4679, 5547.796
496.9500, 5650.167
497.4322, 5755.399
497.9143, 5866.519
498.3964, 5987.356
498.8785, 6112.331
499.3606, 6237.617
499.8427, 6364.739
500.3249, 6491.946
500.8070, 6616.623
501.2891, 6744.451
501.7712, 6878.275
502.2533, 7020.986
502.7354, 7161.296
503.2176, 7296.989
503.6997, 7429.746
504.1818, 7561.200
504.6639, 7691.178
505.1460, 7820.005
505.6281, 7947.500
506.1103, 8074.194
506.5924, 8198.667
507.0745, 8322.044
507.5566, 8438.795
508.0387, 8544.765
508.5208, 8640.334
509.0030, 8735.473
509.4851, 8831.276
509.9672, 8920.483
510.4493, 8993.938
510.9314, 9054.239
511.4135, 9110.700
511.8957, 9166.792
512.3778, 9217.286
512.8599, 9254.941
513.3420, 9281.729
513.8242, 9303.041
514.3063, 9323.480
514.7884, 9338.763
515.2705, 9346.861
515.7526, 9347.689
516.2347, 9337.405
516.7169, 9304.560
517.1990, 9265.671
517.6811, 9233.426
518.1632, 9218.855
518.6453, 9198.485
519.1274, 9166.847
519.6096, 9128.147
520.0917, 9090.665
520.5738, 9057.116
521.0559, 9020.215
521.5380, 8976.801
522.0201, 8927.447
522.5023, 8881.853
522.9844, 8840.156
523.4665, 8801.581
523.9486, 8766.324
524.4307, 8734.126
524.9128, 8701.622
525.3950, 8668.427
525.8771, 8636.479
526.3592, 8609.473
526.8413, 8586.369
527.3234, 8562.445
527.8055, 8535.675
528.2877, 8507.813
528.7698, 8479.011
529.2519, 8450.247
529.7340, 8424.691
530.2161, 8407.984
530.6982, 8392.692
531.1804, 8371.991
531.6625, 8344.313
532.1446, 8318.689
532.6267, 8298.573
533.1088, 8282.010
533.5909, 8267.513
534.0731, 8256.379
534.5552, 8245.575
535.0373, 8235.507
535.5194, 8225.645
536.0015, 8213.730
536.4836, 8198.589
536.9658, 8183.950
537.4479, 8171.539
537.9300, 8161.179
538.4121, 8148.634
538.8942, 8133.359
539.3763, 8117.972
539.8585, 8104.354
540.3406, 8092.393
540.8227, 8082.336
541.3048, 8074.681
541.7869, 8066.658
542.2690, 8055.669
542.7512, 8041.611
543.2333, 8024.243
543.7154, 8002.699
544.1975, 7978.485
544.6796, 7953.387
545.1617, 7926.789
545.6439, 7896.877
546.1260, 7858.390
546.6081, 7819.738
547.0902, 7786.351
547.5723, 7760.712
548.0544, 7733.940
548.5366, 7705.650
549.0187, 7674.983
549.5008, 7641.058
549.9829, 7602.250
550.4650, 7563.181
550.9471, 7523.982
551.4293, 7485.000
551.9114, 7446.592
552.3935, 7409.330
552.8756, 7369.826
553.3577, 7325.033
553.8398, 7276.979
554.3220, 7236.850
554.8041, 7204.795
555.2862, 7171.655
555.7683, 7127.206
556.2504, 7076.841
556.7325, 7030.715
557.2147, 6990.600
557.6968, 6952.375
558.1789, 6912.692
558.6610, 6872.445
559.1431, 6833.368
559.6252, 6798.691
560.1074, 6762.627
560.5895, 6721.039
561.0716, 6675.722
561.5537, 6633.658
562.0358, 6598.417
562.5179, 6563.966
563.0001, 6528.655
563.4822, 6492.675
563.9643, 6455.342
564.4464, 6414.772
564.9285, 6375.504
565.4106, 6341.146
565.8928, 6312.495
566.3749, 6282.495
566.8570, 6249.469
567.3391, 6216.810
567.8212, 6190.694
568.3033, 6170.042
568.7855, 6148.601
569.2676, 6123.552
569.7497, 6096.952
570.2318, 6069.905
570.7139, 6043.409
571.1960, 6019.614
571.6782, 6002.678
572.1603, 5987.336
572.6424, 5969.418
573.1245, 5948.242
573.6066, 5927.215
574.0887, 5906.653
574.5709, 5887.165
575.0530, 5869.038
575.5351, 5853.189
576.0172, 5837.131
576.4993, 5819.091
576.9814, 5801.610
577.4636, 5789.509
577.9457, 5784.800
578.4278, 5780.122
578.9099, 5773.479
579.3920, 5765.754
579.8741, 5760.208
580.3563, 5756.897
580.8384, 5755.226
581.3205, 5755.632
581.8026, 5757.334
582.2847, 5757.839
582.7668, 5757.029
583.2490, 5756.492
583.7311, 5757.200
