##NAMES=Fluorapatite
##RRUFFID=R050529
##IDEAL CHEMISTRY=Ca_5_(PO_4_)_3_F
##LOCALITY=Limburg de an Lahn, Germany
##OWNER=RRUFF
##SOURCE=University of Arizona Mineral Museum
##DESCRIPTION=Botryoidal aggregate
##STATUS=The identification of this mineral has been confirmed by X-ray diffraction and chemical analysis
##URL=rruff.info/R050529
##MEASURED CHEMISTRY=(Ca_4.68_[box]_0.32_)_Σ=5_((PO_4_)_2.36_(CO_3_)_0.64_)_Σ=3_F_1.00_
90.92609, 0.0000000E+00
91.40820, 12.76770
91.89032, 12.75200
92.37244, 12.74870
92.85455, 12.75929
93.33667, 12.79252
93.81879, 12.92166
94.30090, 13.08862
94.78302, 13.09286
95.26514, 12.79764
95.74725, 12.39184
96.22937, 12.32283
96.71149, 12.61011
97.19360, 13.01862
97.67572, 13.41942
98.15784, 13.80280
98.63995, 13.95477
99.12207, 13.72134
99.60419, 13.16388
100.0863, 12.81835
100.5684, 12.71982
101.0505, 12.76315
101.5327, 12.80595
102.0148, 12.82144
102.4969, 12.92959
102.9790, 13.21446
103.4611, 13.73362
103.9432, 14.06831
104.4253, 14.06709
104.9075, 13.96195
105.3896, 14.23709
105.8717, 15.14542
106.3538, 16.09462
106.8359, 16.85366
107.3180, 17.13053
107.8002, 17.71420
108.2823, 18.70694
108.7644, 20.02289
109.2465, 21.39126
109.7286, 22.62290
110.2107, 24.02538
110.6929, 25.75526
111.1750, 27.93533
111.6571, 30.28882
112.1392, 32.74105
112.6213, 35.31720
113.1034, 38.25985
113.5856, 41.55092
114.0677, 45.29533
114.5498, 49.53273
115.0319, 54.11456
115.5140, 59.37127
115.9961, 65.31951
116.4783, 71.96407
116.9604, 79.39966
117.4425, 87.78588
117.9246, 97.04578
118.4067, 107.0055
118.8888, 118.4538
119.3710, 130.0534
119.8531, 141.0871
120.3352, 151.4453
120.8173, 161.4593
121.2994, 171.2282
121.7815, 180.7085
122.2637, 189.8642
122.7458, 198.5094
123.2279, 206.8083
123.7100, 214.7272
124.1921, 222.1292
124.6742, 229.7102
125.1564, 238.0776
125.6385, 247.1482
126.1206, 256.7002
126.6027, 265.8125
127.0848, 275.3688
127.5669, 287.0135
128.0491, 301.3120
128.5312, 317.1052
129.0133, 332.7559
129.4954, 348.2352
129.9775, 364.5838
130.4596, 383.2862
130.9418, 403.5525
131.4239, 422.9516
131.9060, 440.8361
132.3881, 457.8333
132.8702, 475.4414
133.3523, 493.8618
133.8345, 511.3695
134.3166, 526.3154
134.7987, 538.8242
135.2808, 550.3672
135.7629, 561.2754
136.2450, 571.6662
136.7272, 582.0105
137.2093, 592.5968
137.6914, 602.4479
138.1735, 610.4258
138.6556, 616.2368
139.1377, 621.4753
139.6199, 626.8473
140.1020, 632.3000
140.5841, 635.5316
141.0662, 635.6020
141.5483, 634.6659
142.0304, 635.4681
142.5126, 638.5615
142.9947, 641.8332
143.4768, 642.7585
143.9589, 639.7569
144.4410, 637.2072
144.9231, 634.8082
145.4053, 633.0022
145.8874, 632.5410
146.3695, 634.3099
146.8516, 636.1542
147.3337, 637.3265
147.8158, 637.3510
148.2980, 638.0385
148.7801, 639.9297
149.2622, 642.3912
149.7443, 644.0919
150.2264, 644.2713
150.7085, 644.4205
151.1907, 645.0664
151.6728, 646.8235
152.1549, 648.0496
152.6370, 648.4890
153.1191, 648.3649
153.6012, 648.2180
154.0834, 647.5697
154.5655, 647.2688
155.0476, 647.7480
155.5297, 650.5714
156.0118, 652.0763
156.4939, 650.9266
156.9761, 647.8854
157.4582, 645.5272
157.9403, 644.6085
158.4224, 644.3979
158.9045, 644.4736
159.3866, 644.7513
159.8688, 645.3053
160.3509, 646.3864
160.8330, 647.8583
161.3151, 649.0667
161.7972, 649.6318
162.2793, 649.9353
162.7615, 650.2668
163.2436, 650.6082
163.7257, 651.0900
164.2078, 651.8469
164.6899, 652.8368
165.1720, 653.7777
165.6541, 654.3741
166.1363, 654.9037
166.6184, 655.6407
167.1005, 657.0713
167.5826, 658.4141
168.0647, 659.0671
168.5468, 659.0795
169.0290, 659.1387
169.5111, 659.7250
169.9932, 660.5975
170.4753, 661.4424
170.9574, 662.2372
171.4395, 662.8883
171.9217, 663.2480
172.4038, 663.3228
172.8859, 663.4120
173.3680, 663.9958
173.8501, 664.7394
174.3322, 665.0588
174.8144, 663.9521
175.2965, 662.6406
175.7786, 662.7275
176.2607, 664.2559
176.7428, 666.2873
177.2249, 668.4235
177.7071, 670.4414
178.1892, 671.8509
178.6713, 671.9146
179.1534, 671.3653
179.6355, 671.6373
180.1176, 672.8820
180.5998, 673.9172
181.0819, 673.1985
181.5640, 671.1298
182.0461, 669.1386
182.5282, 668.0065
183.0103, 667.4260
183.4925, 666.7084
183.9746, 665.8085
184.4567, 664.8965
184.9388, 664.5325
185.4209, 664.5342
185.9030, 663.7972
186.3852, 661.2035
186.8673, 657.3773
187.3494, 654.4337
187.8315, 652.5660
188.3136, 651.2842
188.7957, 650.1034
189.2779, 649.0098
189.7600, 647.5802
190.2421, 645.0614
190.7242, 641.8215
191.2063, 640.0794
191.6884, 640.1786
192.1706, 641.1779
192.6527, 641.7668
193.1348, 641.9314
193.6169, 641.8157
194.0990, 641.2457
194.5811, 640.2767
195.0633, 639.8570
195.5454, 640.0619
196.0275, 640.7328
196.5096, 641.8232
196.9917, 643.4174
197.4738, 644.5692
197.9560, 644.4365
198.4381, 643.0218
198.9202, 642.5320
199.4023, 643.2200
199.8844, 644.6858
200.3665, 646.1509
200.8487, 647.6078
201.3308, 649.2191
201.8129, 651.0789
202.2950, 653.1999
202.7771, 655.5319
203.2592, 658.2475
203.7414, 661.0147
204.2235, 663.0472
204.7056, 664.1478
205.1877, 665.1718
205.6698, 666.5000
206.1519, 668.1356
206.6341, 670.0762
207.1162, 672.5110
207.5983, 675.0414
208.0804, 676.7064
208.5625, 677.3189
209.0446, 677.5838
209.5268, 677.7861
210.0089, 677.9049
210.4910, 678.0671
210.9731, 678.2584
211.4552, 678.5195
211.9373, 679.0410
212.4195, 680.0504
212.9016, 680.7694
213.3837, 680.7167
213.8658, 679.6057
214.3479, 678.7687
214.8300, 678.1979
215.3121, 677.9247
215.7943, 678.1603
216.2764, 679.2703
216.7585, 680.0930
217.2406, 679.9626
217.7227, 678.4078
218.2048, 677.4259
218.6870, 677.2782
219.1691, 677.5695
219.6512, 677.2908
220.1333, 675.9993
220.6154, 674.9393
221.0975, 674.6495
221.5797, 675.3292
222.0618, 676.2321
222.5439, 677.4519
223.0260, 678.8640
223.5081, 680.2267
223.9902, 681.5468
224.4724, 682.8311
224.9545, 684.0261
225.4366, 685.0463
225.9187, 686.3441
226.4008, 688.0891
226.8829, 690.0573
227.3651, 691.8053
227.8472, 693.4297
228.3293, 694.6939
228.8114, 695.3185
229.2935, 694.7388
229.7757, 695.2914
230.2578, 697.5059
230.7399, 700.5684
231.2220, 702.9114
231.7041, 704.1865
232.1862, 705.2458
232.6684, 706.4993
233.1505, 708.3123
233.6326, 709.0314
234.1147, 708.1180
234.5968, 706.3969
235.0789, 705.4324
235.5611, 705.7680
236.0432, 705.9760
236.5253, 705.3914
237.0074, 703.4821
237.4895, 702.9098
237.9716, 704.6286
238.4538, 707.1104
238.9359, 707.8318
239.4180, 705.9752
239.9001, 703.6909
240.3822, 701.4939
240.8643, 699.3184
241.3465, 697.6584
241.8286, 696.7054
242.3107, 696.1290
242.7928, 695.4910
243.2749, 694.8580
243.7570, 694.0230
244.2392, 692.7776
244.7213, 690.9334
245.2034, 689.8304
245.6855, 689.7064
246.1676, 690.1174
246.6497, 690.5532
247.1319, 691.1262
247.6140, 691.5416
248.0961, 691.7258
248.5782, 691.6717
249.0603, 691.4876
249.5424, 690.9810
250.0246, 690.5400
250.5067, 690.5812
250.9888, 691.1859
251.4709, 692.1397
251.9530, 693.5569
252.4351, 695.4889
252.9173, 696.8114
253.3994, 697.1255
253.8815, 697.2803
254.3636, 698.1563
254.8457, 700.1140
255.3278, 701.9269
255.8100, 703.3261
256.2921, 704.3217
256.7742, 705.3600
257.2563, 706.3995
257.7384, 707.5309
258.2205, 708.8625
258.7026, 710.5660
259.1848, 712.0576
259.6669, 713.0853
260.1490, 713.7723
260.6311, 715.0833
261.1132, 717.2289
261.5953, 719.6768
262.0775, 722.0247
262.5596, 724.2731
263.0417, 726.4863
263.5238, 728.6523
264.0059, 730.7841
264.4880, 733.1501
264.9702, 735.9670
265.4523, 738.5358
265.9344, 740.2841
266.4165, 740.9206
266.8986, 741.7937
267.3807, 742.9362
267.8629, 744.4174
268.3450, 746.6805
268.8271, 750.2208
269.3092, 753.4024
269.7913, 755.2374
270.2734, 755.3969
270.7556, 755.8103
271.2377, 756.5442
271.7198, 757.6406
272.2019, 759.3577
272.6840, 761.9621
273.1661, 764.3357
273.6483, 765.8361
274.1304, 766.3303
274.6125, 767.0111
275.0946, 767.8919
275.5767, 768.9333
276.0588, 770.0457
276.5410, 771.1829
277.0231, 772.5090
277.5052, 774.1907
277.9873, 776.2307
278.4694, 777.7679
278.9515, 778.7012
279.4337, 779.2872
279.9158, 779.8558
280.3979, 780.4008
280.8800, 780.9264
281.3621, 781.6244
281.8442, 782.4019
282.3264, 782.1243
282.8085, 780.6042
283.2906, 778.7360
283.7727, 777.5350
284.2548, 777.0174
284.7369, 776.6643
285.2191, 776.4220
285.7012, 776.2324
286.1833, 775.9388
286.6654, 775.5964
287.1475, 774.8021
287.6296, 772.8997
288.1118, 770.0024
288.5939, 767.3958
289.0760, 765.4424
289.5581, 763.9029
290.0402, 762.1160
290.5223, 760.0598
291.0045, 758.0307
291.4866, 756.4793
291.9687, 755.2150
292.4508, 753.2153
292.9329, 750.0027
293.4150, 746.4410
293.8972, 744.2067
294.3793, 743.1761
294.8614, 741.8217
295.3435, 738.5533
295.8256, 734.1658
296.3077, 731.0251
296.7899, 729.6788
297.2720, 728.9695
297.7541, 727.3235
298.2362, 724.9484
298.7183, 722.7308
299.2004, 721.2081
299.6826, 720.1677
300.1647, 719.3668
300.6468, 718.8805
301.1289, 718.0311
301.6110, 715.3948
302.0931, 711.7418
302.5753, 709.0388
303.0574, 709.2259
303.5395, 710.4483
304.0216, 710.0400
304.5037, 707.9047
304.9858, 705.8403
305.4680, 705.8229
305.9501, 706.8506
306.4322, 707.1926
306.9143, 705.4365
307.3964, 703.3151
307.8785, 702.5863
308.3607, 703.1259
308.8428, 703.6442
309.3249, 703.3756
309.8070, 702.5811
310.2891, 701.5410
310.7712, 700.1393
311.2534, 698.7327
311.7355, 697.5721
312.2176, 696.5968
312.6997, 695.6418
313.1818, 694.6017
313.6639, 693.5536
314.1461, 692.5768
314.6282, 691.7751
315.1103, 690.8586
315.5924, 689.6215
316.0745, 688.1710
316.5566, 686.7086
317.0388, 685.5538
317.5209, 684.2598
318.0030, 682.5130
318.4851, 680.1848
318.9672, 677.8142
319.4493, 676.0011
319.9315, 674.1641
320.4136, 671.4987
320.8957, 666.1924
321.3778, 661.4852
321.8599, 658.8560
322.3420, 658.5778
322.8242, 657.9430
323.3063, 656.0617
323.7884, 653.7346
324.2705, 651.6607
324.7526, 650.5089
325.2347, 649.0073
325.7169, 646.6844
326.1990, 643.6136
326.6811, 640.9732
327.1632, 638.9787
327.6453, 637.3427
328.1274, 635.9073
328.6096, 634.5717
329.0917, 633.5631
329.5738, 633.3638
330.0559, 633.5553
330.5380, 632.7260
331.0201, 629.9000
331.5023, 627.1158
331.9844, 625.1980
332.4665, 624.5150
332.9486, 623.8412
333.4307, 623.2028
333.9128, 622.5595
334.3950, 621.8654
334.8771, 621.1348
335.3592, 620.3005
335.8413, 619.2468
336.3234, 617.8954
336.8055, 617.1366
337.2877, 617.3206
337.7698, 617.6175
338.2519, 617.0016
338.7340, 615.1989
339.2161, 613.5516
339.6982, 612.3030
340.1803, 611.4453
340.6624, 611.1504
341.1446, 611.6180
341.6267, 611.9843
342.1088, 611.3149
342.5909, 609.5569
343.0730, 608.6262
343.5551, 609.0658
344.0373, 610.1425
344.5194, 610.0458
345.0015, 608.7222
345.4836, 607.3137
345.9657, 606.4257
346.4478, 606.0161
346.9300, 605.9995
347.4121, 606.4924
347.8942, 606.9421
348.3763, 606.3551
348.8584, 604.9332
349.3405, 603.8304
349.8227, 603.9640
350.3048, 604.7028
350.7869, 604.5212
351.2690, 603.4026
351.7511, 602.3779
352.2332, 602.6346
352.7154, 603.6959
353.1975, 604.5237
353.6796, 604.6728
354.1617, 604.5605
354.6438, 604.5815
355.1259, 604.7228
355.6081, 604.9503
356.0902, 605.3176
356.5723, 605.7096
357.0544, 605.9445
357.5365, 605.8412
358.0186, 605.8805
358.5008, 606.5494
358.9829, 607.5999
359.4650, 608.5068
359.9471, 609.1119
360.4292, 609.4388
360.9113, 609.4156
361.3935, 608.9864
361.8756, 608.6331
362.3577, 608.6855
362.8398, 608.8892
363.3219, 608.9539
363.8040, 608.6673
364.2862, 608.3812
364.7683, 608.2164
365.2504, 608.1758
365.7325, 608.1639
366.2146, 608.0803
366.6967, 608.0773
367.1789, 608.2490
367.6610, 608.9552
368.1431, 609.4236
368.6252, 609.4336
369.1073, 609.1461
369.5894, 609.0627
370.0716, 609.0228
370.5537, 609.3513
371.0358, 610.2691
371.5179, 612.1251
372.0000, 613.5139
372.4821, 614.4246
372.9643, 614.8563
373.4464, 614.6738
373.9285, 613.3759
374.4106, 612.5168
374.8927, 612.5253
375.3748, 613.3685
375.8570, 614.2334
376.3391, 615.1410
376.8212, 616.0212
377.3033, 616.8519
377.7854, 617.6409
378.2675, 618.2410
378.7497, 618.5510
379.2318, 618.7455
379.7139, 619.3568
380.1960, 620.4233
380.6781, 621.4474
381.1602, 622.1305
381.6424, 622.5158
382.1245, 622.7805
382.6066, 622.8937
383.0887, 623.0969
383.5708, 623.8372
384.0529, 624.9953
384.5351, 626.0098
385.0172, 626.5363
385.4993, 626.8228
385.9814, 627.2706
386.4635, 627.8742
386.9456, 628.6373
387.4278, 629.6137
387.9099, 630.7246
388.3920, 631.8738
388.8741, 633.0712
389.3562, 634.2128
389.8383, 635.2790
390.3205, 636.2369
390.8026, 636.9713
391.2847, 637.1924
391.7668, 637.3098
392.2489, 637.6097
392.7310, 638.1213
393.2132, 638.8472
393.6953, 639.9387
394.1774, 641.1893
394.6595, 642.3585
395.1416, 643.6465
395.6237, 644.5713
396.1059, 644.5861
396.5880, 643.7923
397.0701, 643.7658
397.5522, 645.5040
398.0343, 647.6591
398.5164, 649.4417
398.9986, 650.7827
399.4807, 651.7545
399.9628, 652.0009
400.4449, 651.9128
400.9270, 652.3861
401.4091, 653.5222
401.8913, 655.0837
402.3734, 657.0067
402.8555, 659.2947
403.3376, 661.8768
403.8197, 664.5448
404.3018, 667.7429
404.7840, 672.4363
405.2661, 679.6348
405.7482, 684.6827
406.2303, 686.0886
406.7124, 684.8165
407.1945, 684.8948
407.6767, 686.3904
408.1588, 688.8607
408.6409, 692.1379
409.1230, 696.1865
409.6051, 700.7849
410.0872, 706.0426
410.5694, 711.5660
411.0515, 716.4476
411.5336, 720.8807
412.0157, 725.9413
412.4978, 732.1494
412.9799, 739.3152
413.4621, 747.2926
413.9442, 756.1400
414.4263, 765.1103
414.9084, 773.5319
415.3905, 781.7631
415.8727, 790.4963
416.3548, 799.8691
416.8369, 809.9396
417.3190, 820.9948
417.8011, 832.7899
418.2832, 844.8920
418.7654, 856.0777
419.2475, 868.0689
419.7296, 882.0881
420.2117, 898.6208
420.6938, 915.6779
421.1759, 932.2194
421.6581, 948.9168
422.1402, 966.7006
422.6223, 986.1288
423.1044, 1006.104
423.5865, 1025.712
424.0686, 1045.133
424.5508, 1066.630
425.0329, 1091.760
425.5150, 1117.771
425.9971, 1143.536
426.4792, 1169.387
426.9613, 1194.266
427.4435, 1218.303
427.9256, 1241.154
428.4077, 1262.484
428.8898, 1283.546
429.3719, 1300.841
429.8540, 1313.406
430.3362, 1321.354
430.8183, 1326.972
431.3004, 1330.620
431.7825, 1330.761
432.2646, 1325.829
432.7467, 1315.865
433.2289, 1302.789
433.7110, 1286.711
434.1931, 1268.279
434.6752, 1248.350
435.1573, 1226.997
435.6394, 1205.066
436.1216, 1182.093
436.6036, 1158.913
437.0858, 1137.646
437.5679, 1118.229
438.0500, 1100.572
438.5321, 1085.174
439.0142, 1071.383
439.4963, 1058.029
439.9785, 1044.275
440.4606, 1031.495
440.9427, 1020.861
441.4248, 1012.183
441.9069, 1005.052
442.3890, 1000.310
442.8712, 996.3261
443.3533, 992.0613
443.8354, 987.3136
444.3175, 982.7044
444.7996, 978.2448
445.2817, 974.1531
445.7639, 970.6175
446.2460, 968.5400
446.7281, 966.0377
447.2102, 962.9706
447.6923, 959.2498
448.1744, 954.4895
448.6566, 948.0846
449.1387, 941.2043
449.6208, 934.3138
450.1029, 927.2921
450.5850, 920.5427
451.0671, 914.5134
451.5493, 908.3832
452.0314, 900.7509
452.5135, 891.2536
452.9956, 882.1964
453.4777, 874.5084
453.9598, 867.7809
454.4420, 859.7670
454.9241, 850.3885
455.4062, 841.1042
455.8883, 833.3193
456.3704, 826.6914
456.8525, 819.6955
457.3347, 812.2125
457.8168, 804.6935
458.2989, 797.9005
458.7810, 791.6332
459.2631, 785.5209
459.7452, 779.2605
460.2274, 773.0530
460.7095, 766.9669
461.1916, 761.0032
461.6737, 755.8287
462.1558, 752.6658
462.6379, 749.9658
463.1201, 746.1171
463.6022, 740.0046
464.0843, 734.5227
464.5664, 731.5681
465.0485, 729.8381
465.5306, 727.2571
466.0128, 722.1615
466.4949, 717.3098
466.9770, 713.5807
467.4591, 711.0313
467.9412, 708.7203
468.4233, 706.8964
468.9055, 705.0466
469.3876, 702.8203
469.8697, 699.9074
470.3518, 697.3450
470.8339, 695.2551
471.3160, 693.4482
471.7982, 691.5264
472.2803, 689.4307
472.7624, 687.4631
473.2445, 685.7229
473.7266, 684.1991
474.2087, 682.9851
474.6909, 682.1232
475.1730, 681.1883
475.6551, 679.5868
476.1372, 677.5468
476.6193, 676.0748
477.1014, 675.3893
477.5836, 675.1004
478.0657, 675.1075
478.5478, 675.1723
479.0299, 674.6288
479.5120, 672.4737
479.9941, 670.0203
480.4763, 668.6627
480.9584, 668.3070
481.4405, 667.8930
481.9226, 666.4422
482.4047, 664.9318
482.8868, 664.2689
483.3690, 665.2747
483.8511, 665.8149
484.3332, 664.9279
484.8153, 663.2748
485.2974, 661.9135
485.7795, 661.1009
486.2617, 660.5035
486.7438, 660.0323
487.2259, 659.6904
487.7080, 659.6386
488.1901, 660.1015
488.6722, 660.5666
489.1544, 660.6756
489.6365, 660.2666
490.1186, 660.2360
490.6007, 660.8792
491.0828, 661.5164
491.5649, 660.7678
492.0471, 658.5532
492.5292, 656.9122
493.0113, 656.7358
493.4934, 657.4838
493.9755, 657.7196
494.4576, 657.4547
494.9398, 657.1244
495.4219, 657.0306
495.9040, 657.0873
496.3861, 657.2318
496.8682, 657.5151
497.3503, 657.5410
497.8325, 656.7283
498.3146, 655.5021
498.7967, 654.5054
499.2788, 653.9865
499.7609, 653.7886
500.2430, 654.1337
500.7252, 654.8456
501.2073, 655.1239
501.6894, 654.4625
502.1715, 653.5499
502.6536, 652.5768
503.1357, 651.2576
503.6179, 650.8251
504.1000, 651.9050
504.5821, 653.4767
505.0642, 654.5798
505.5463, 655.2411
506.0284, 655.2713
506.5106, 654.2562
506.9927, 652.7029
507.4748, 652.4667
507.9569, 653.7993
508.4390, 655.1796
508.9211, 655.7746
509.4033, 655.6895
509.8854, 655.7975
510.3675, 656.0935
510.8496, 656.6021
511.3317, 657.2402
511.8138, 658.1135
512.2960, 659.7570
512.7781, 663.0045
513.2602, 665.6055
513.7423, 664.3704
514.2244, 660.6052
514.7065, 657.4883
515.1887, 656.9794
515.6708, 657.2924
516.1529, 657.3517
516.6350, 657.1171
517.1171, 656.9800
517.5992, 657.1452
518.0814, 657.4124
518.5635, 657.6690
519.0456, 658.0645
519.5277, 658.1708
520.0098, 657.6745
520.4919, 657.0041
520.9741, 656.8149
521.4562, 657.3338
521.9383, 657.8683
522.4204, 658.2283
522.9025, 658.4634
523.3846, 659.0222
523.8668, 660.0313
524.3489, 660.7862
524.8310, 660.5953
525.3131, 659.6141
525.7952, 659.2770
526.2773, 659.6957
526.7595, 660.4369
527.2416, 661.1548
527.7237, 661.8065
528.2058, 662.3074
528.6879, 662.7123
529.1700, 662.8466
529.6522, 662.1339
530.1343, 660.9582
530.6164, 660.4003
531.0985, 661.7333
531.5806, 663.2917
532.0627, 664.0266
532.5449, 663.8225
533.0270, 663.5110
533.5091, 663.0297
533.9912, 662.6976
534.4733, 662.7469
534.9554, 663.4246
535.4376, 664.1625
535.9197, 665.0548
536.4018, 665.9432
536.8839, 666.5067
537.3660, 666.6299
537.8481, 666.7260
538.3303, 666.9089
538.8124, 667.1490
539.2945, 667.2356
539.7766, 667.1324
540.2587, 667.1923
540.7408, 667.8024
541.2230, 668.8014
541.7051, 669.5712
542.1872, 670.0690
542.6693, 670.4008
543.1514, 670.7299
543.6335, 670.9693
544.1157, 670.9324
544.5978, 670.3378
545.0799, 669.7804
545.5620, 669.4430
546.0441, 669.4558
546.5262, 670.1391
547.0084, 671.8981
547.4905, 674.0833
547.9726, 677.0184
548.4547, 680.8672
548.9368, 682.7325
549.4189, 680.1044
549.9011, 677.2621
550.3832, 676.7433
550.8653, 679.8712
551.3474, 682.1630
551.8295, 683.1952
552.3116, 683.7697
552.7938, 685.2923
553.2759, 687.9404
553.7580, 689.7340
554.2401, 689.9285
554.7222, 689.1246
555.2043, 688.6686
555.6865, 688.5649
556.1686, 688.7868
556.6507, 689.3239
557.1328, 690.1855
557.6149, 691.4107
558.0970, 693.0084
558.5792, 694.9099
559.0613, 697.6470
559.5434, 700.3787
560.0255, 702.1215
560.5076, 701.7643
560.9897, 701.9874
561.4719, 703.7921
561.9540, 706.7086
562.4361, 709.9189
562.9182, 713.7172
563.4003, 717.3626
563.8824, 720.6674
564.3646, 723.6664
564.8467, 726.7921
565.3288, 729.8953
565.8109, 733.4221
566.2930, 737.8290
566.7751, 743.1371
567.2573, 747.8174
567.7394, 751.7357
568.2215, 755.7824
568.7036, 761.0592
569.1857, 767.2923
569.6678, 773.7275
570.1500, 780.2236
570.6321, 786.6824
571.1142, 792.3297
571.5963, 797.7866
572.0784, 804.4208
572.5605, 813.5123
573.0427, 823.4464
573.5248, 833.3268
574.0069, 843.1771
574.4890, 853.8909
574.9711, 865.4172
575.4532, 877.9353
575.9354, 891.5692
576.4175, 906.5924
576.8996, 921.6910
577.3817, 936.6788
577.8638, 951.7451
578.3459, 967.4376
578.8281, 983.8303
579.3102, 999.7520
579.7923, 1015.290
580.2744, 1029.926
580.7565, 1043.112
581.2386, 1054.712
581.7208, 1062.356
582.2029, 1064.694
582.6850, 1062.882
583.1671, 1058.006
583.6492, 1050.486
584.1313, 1042.836
584.6134, 1035.951
585.0955, 1030.031
585.5776, 1024.776
586.0598, 1019.976
586.5419, 1017.952
