##NAMES=Fluorapatite
##RRUFFID=R050194
##IDEAL CHEMISTRY=Ca_5_(PO_4_)_3_F
##LOCALITY=Siglo XX mine, Llallagua, Bolivia
##OWNER=RRUFF
##SOURCE=Dave Bunk Minerals
##DESCRIPTION=Purple crystal fragments
##STATUS=The identification of this mineral has been confirmed by X-ray diffraction and chemical analysis
##URL=rruff.info/R050194
##MEASURED CHEMISTRY=Ca_5.00_(P_1.00_O_4_)_3_F_1.00_
92.81116, 0.0000000E+00
93.29327, 0.0000000E+00
93.77539, 736.7036
94.25751, 707.3324
94.73962, 723.2412
95.22174, 776.3052
95.70386, 837.3239
96.18597, 898.7253
96.66809, 959.7145
97.15021, 1013.529
97.63232, 1056.927
98.11444, 1107.832
98.59656, 1190.169
99.07867, 1304.500
99.56079, 1436.645
100.0429, 1584.927
100.5250, 1748.953
101.0071, 1905.401
101.4893, 2045.099
101.9714, 2184.369
102.4535, 2359.426
102.9356, 2579.904
103.4177, 2812.757
103.8998, 3037.079
104.3820, 3252.097
104.8641, 3468.342
105.3462, 3686.711
105.8283, 3907.463
106.3104, 4145.882
106.7925, 4408.281
107.2747, 4679.273
107.7568, 4944.934
108.2389, 5210.800
108.7210, 5467.438
109.2031, 5699.720
109.6852, 5905.919
110.1674, 6161.524
110.6495, 6496.226
111.1316, 6869.185
111.6137, 7245.207
112.0958, 7603.963
112.5779, 7989.705
113.0601, 8420.174
113.5422, 8909.586
114.0243, 9393.962
114.5064, 9845.425
114.9885, 10290.28
115.4706, 10767.80
115.9528, 11311.89
116.4349, 11868.75
116.9170, 12410.93
117.3991, 12944.70
117.8812, 13463.66
118.3633, 13972.51
118.8455, 14465.58
119.3276, 14929.80
119.8097, 15350.48
120.2918, 15752.53
120.7739, 16160.00
121.2560, 16613.06
121.7382, 17011.09
122.2203, 17260.66
122.7024, 17394.52
123.1845, 17522.16
123.6666, 17717.86
124.1487, 17938.23
124.6309, 18132.74
125.1130, 18260.25
125.5951, 18381.26
126.0772, 18553.71
126.5593, 18775.19
127.0414, 19023.94
127.5236, 19272.48
128.0057, 19534.58
128.4878, 19848.58
128.9699, 20245.61
129.4520, 20689.04
129.9341, 21116.52
130.4162, 21527.52
130.8984, 21934.89
131.3805, 22342.72
131.8626, 22754.35
132.3447, 23189.94
132.8268, 23667.57
133.3089, 24177.23
133.7911, 24623.02
134.2732, 24934.57
134.7553, 25137.74
135.2374, 25309.37
135.7195, 25451.27
136.2016, 25572.31
136.6838, 25681.40
137.1659, 25778.37
137.6480, 25836.00
138.1301, 25847.47
138.6122, 25833.72
139.0943, 25838.54
139.5765, 25872.04
140.0586, 25882.27
140.5407, 25834.18
141.0228, 25710.98
141.5049, 25615.08
141.9870, 25552.17
142.4692, 25514.15
142.9513, 25480.90
143.4334, 25452.74
143.9155, 25426.82
144.3976, 25398.61
144.8797, 25358.77
145.3619, 25338.45
145.8440, 25344.63
146.3261, 25372.20
146.8082, 25392.92
147.2903, 25380.69
147.7724, 25388.96
148.2546, 25456.18
148.7367, 25659.34
149.2188, 25805.16
149.7009, 25848.04
150.1830, 25795.88
150.6651, 25789.93
151.1473, 25869.28
151.6294, 25970.63
152.1115, 26048.51
152.5936, 26080.75
153.0757, 26114.68
153.5578, 26160.48
154.0400, 26219.15
154.5221, 26261.78
155.0042, 26255.66
155.4863, 26246.72
155.9684, 26274.44
156.4505, 26419.66
156.9327, 26527.46
157.4148, 26538.09
157.8969, 26434.06
158.3790, 26363.00
158.8611, 26372.53
159.3432, 26421.92
159.8254, 26465.89
160.3075, 26501.95
160.7896, 26524.11
161.2717, 26523.43
161.7538, 26493.60
162.2359, 26476.67
162.7181, 26502.30
163.2002, 26547.07
163.6823, 26578.28
164.1644, 26566.60
164.6465, 26551.74
165.1286, 26555.46
165.6108, 26582.55
166.0929, 26618.56
166.5750, 26665.08
167.0571, 26714.79
167.5392, 26754.60
168.0213, 26759.63
168.5035, 26762.81
168.9856, 26793.07
169.4677, 26863.24
169.9498, 26933.06
170.4319, 26973.66
170.9140, 26993.00
171.3962, 27009.50
171.8783, 27025.95
172.3604, 27047.58
172.8425, 27082.21
173.3246, 27136.78
173.8067, 27192.57
174.2889, 27235.98
174.7710, 27268.37
175.2531, 27292.56
175.7352, 27305.53
176.2173, 27312.87
176.6994, 27323.74
177.1816, 27344.67
177.6637, 27361.06
178.1458, 27339.18
178.6279, 27289.68
179.1100, 27266.45
179.5921, 27331.61
180.0743, 27445.52
180.5564, 27529.51
181.0385, 27562.14
181.5206, 27566.20
182.0027, 27574.07
182.4848, 27583.96
182.9670, 27581.21
183.4491, 27530.20
183.9312, 27455.00
184.4133, 27430.10
184.8954, 27492.30
185.3775, 27590.09
185.8596, 27627.38
186.3418, 27604.86
186.8239, 27574.23
187.3060, 27578.82
187.7881, 27612.03
188.2702, 27645.08
188.7523, 27672.45
189.2345, 27695.38
189.7166, 27715.17
190.1987, 27732.03
190.6808, 27751.06
191.1629, 27783.68
191.6451, 27827.21
192.1272, 27854.53
192.6093, 27851.74
193.0914, 27832.43
193.5735, 27840.38
194.0556, 27878.44
194.5378, 27926.52
195.0199, 27964.27
195.5020, 27992.31
195.9841, 28027.56
196.4662, 28080.89
196.9483, 28143.19
197.4305, 28164.41
197.9126, 28133.36
198.3947, 28107.24
198.8768, 28160.34
199.3589, 28296.68
199.8410, 28402.47
200.3232, 28438.51
200.8053, 28418.00
201.2874, 28427.08
201.7695, 28474.27
202.2516, 28524.64
202.7337, 28528.88
203.2159, 28476.79
203.6980, 28467.16
204.1801, 28545.88
204.6622, 28698.66
205.1443, 28775.56
205.6264, 28759.02
206.1086, 28710.17
206.5907, 28695.52
207.0728, 28723.71
207.5549, 28742.97
208.0370, 28740.15
208.5191, 28716.43
209.0013, 28684.70
209.4834, 28635.59
209.9655, 28596.07
210.4476, 28603.13
210.9297, 28672.63
211.4118, 28727.48
211.8940, 28739.36
212.3761, 28710.46
212.8582, 28736.54
213.3403, 28845.53
213.8224, 28966.66
214.3045, 29009.34
214.7867, 28936.07
215.2688, 28903.29
215.7509, 28964.33
216.2330, 29117.60
216.7151, 29210.89
217.1972, 29224.21
217.6794, 29204.32
218.1615, 29200.35
218.6436, 29218.61
219.1257, 29234.71
219.6078, 29242.70
220.0899, 29242.33
220.5721, 29234.65
221.0542, 29201.29
221.5363, 29182.88
222.0184, 29231.81
222.5005, 29389.42
222.9826, 29519.07
223.4648, 29588.18
223.9469, 29597.25
224.4290, 29585.47
224.9111, 29528.57
225.3932, 29479.20
225.8753, 29499.66
226.3575, 29638.74
226.8396, 29741.39
227.3217, 29760.90
227.8038, 29696.12
228.2859, 29677.13
228.7680, 29723.62
229.2502, 29793.65
229.7323, 29845.20
230.2144, 29863.32
230.6965, 29895.41
231.1786, 29956.12
231.6607, 30045.47
232.1429, 30117.77
232.6250, 30167.64
233.1071, 30206.65
233.5892, 30247.67
234.0713, 30306.88
234.5534, 30333.41
235.0356, 30299.83
235.5177, 30209.88
235.9998, 30175.33
236.4819, 30214.84
236.9640, 30288.52
237.4461, 30366.18
237.9283, 30456.06
238.4104, 30533.67
238.8925, 30601.82
239.3746, 30658.84
239.8567, 30664.47
240.3388, 30579.94
240.8210, 30489.13
241.3031, 30460.14
241.7852, 30525.31
242.2673, 30586.20
242.7494, 30627.02
243.2315, 30650.44
243.7137, 30687.14
244.1958, 30750.55
244.6779, 30811.32
245.1600, 30846.33
245.6421, 30839.12
246.1242, 30840.62
246.6064, 30858.01
247.0885, 30889.35
247.5706, 30921.64
248.0527, 30957.10
248.5348, 30990.83
249.0169, 31017.88
249.4990, 31031.54
249.9812, 31055.80
250.4633, 31099.05
250.9454, 31155.46
251.4275, 31194.69
251.9096, 31204.88
252.3917, 31215.01
252.8739, 31244.09
253.3560, 31306.08
253.8381, 31351.10
254.3202, 31363.02
254.8023, 31356.90
255.2844, 31393.88
255.7666, 31503.28
256.2487, 31606.07
256.7308, 31652.17
257.2129, 31606.66
257.6950, 31601.75
258.1772, 31658.33
258.6593, 31752.09
259.1414, 31820.32
259.6235, 31858.46
260.1056, 31879.25
260.5877, 31883.75
261.0699, 31859.83
261.5520, 31859.61
262.0341, 31892.93
262.5162, 31944.37
262.9983, 31980.76
263.4804, 31994.93
263.9626, 32009.86
264.4447, 32036.96
264.9268, 32081.77
265.4089, 32113.59
265.8910, 32123.98
266.3731, 32130.27
266.8553, 32169.04
267.3374, 32256.77
267.8195, 32331.58
268.3016, 32364.35
268.7837, 32349.16
269.2658, 32352.09
269.7480, 32376.93
270.2301, 32414.96
270.7122, 32453.53
271.1943, 32491.42
271.6764, 32533.29
272.1585, 32580.18
272.6407, 32631.74
273.1228, 32690.00
273.6049, 32766.03
274.0870, 32825.28
274.5691, 32810.89
275.0512, 32701.62
275.5334, 32624.20
276.0155, 32617.91
276.4976, 32676.42
276.9797, 32734.78
277.4618, 32793.56
277.9439, 32850.79
278.4260, 32912.06
278.9081, 32981.02
279.3903, 33015.14
279.8724, 32985.10
280.3545, 32915.24
280.8366, 32929.55
281.3187, 33045.02
281.8008, 33172.33
282.2830, 33232.99
282.7651, 33226.18
283.2472, 33214.25
283.7293, 33205.77
284.2114, 33200.98
284.6935, 33202.00
285.1757, 33209.30
285.6578, 33216.62
286.1399, 33212.16
286.6220, 33198.05
287.1041, 33206.82
287.5862, 33245.43
288.0684, 33304.20
288.5505, 33367.93
289.0326, 33436.73
289.5147, 33499.05
289.9968, 33548.49
290.4789, 33585.43
290.9611, 33610.81
291.4432, 33623.85
291.9253, 33628.09
292.4074, 33613.49
292.8895, 33584.53
293.3716, 33588.36
293.8538, 33675.59
294.3359, 33816.84
294.8180, 33923.71
295.3001, 33992.23
295.7822, 34022.85
296.2643, 33996.47
296.7465, 33924.80
297.2286, 33860.89
297.7107, 33818.64
298.1928, 33801.73
298.6749, 33830.45
299.1570, 33907.53
299.6392, 33986.80
300.1213, 34018.58
300.6034, 34015.78
301.0855, 34008.89
301.5676, 33997.76
302.0497, 33995.64
302.5319, 34027.27
303.0140, 34091.19
303.4961, 34161.38
303.9782, 34217.29
304.4603, 34265.25
304.9424, 34320.07
305.4246, 34393.12
305.9067, 34464.78
306.3888, 34511.98
306.8709, 34537.36
307.3530, 34555.43
307.8351, 34575.87
308.3173, 34593.65
308.7994, 34598.50
309.2815, 34576.73
309.7636, 34566.21
310.2457, 34612.42
310.7278, 34696.51
311.2100, 34766.20
311.6921, 34800.79
312.1742, 34805.82
312.6563, 34770.58
313.1384, 34675.67
313.6205, 34613.21
314.1027, 34660.69
314.5848, 34774.77
315.0669, 34879.96
315.5490, 34943.31
316.0311, 34990.08
316.5132, 35032.59
316.9954, 35072.14
317.4775, 35106.38
317.9596, 35128.12
318.4417, 35145.23
318.9238, 35166.89
319.4059, 35201.27
319.8881, 35234.45
320.3702, 35264.89
320.8523, 35291.61
321.3344, 35300.87
321.8165, 35257.04
322.2986, 35210.74
322.7808, 35200.46
323.2629, 35283.72
323.7450, 35349.97
324.2271, 35361.21
324.7092, 35330.78
325.1913, 35326.86
325.6735, 35404.59
326.1556, 35479.76
326.6377, 35508.36
327.1198, 35438.70
327.6019, 35393.91
328.0840, 35393.64
328.5662, 35424.45
329.0483, 35451.86
329.5304, 35466.57
330.0125, 35486.51
330.4946, 35518.52
330.9767, 35568.13
331.4589, 35613.83
331.9410, 35648.42
332.4231, 35682.03
332.9052, 35731.64
333.3873, 35824.29
333.8694, 35890.35
334.3516, 35900.76
334.8337, 35849.01
335.3158, 35835.61
335.7979, 35879.81
336.2800, 35939.42
336.7621, 35971.07
337.2443, 35957.64
337.7264, 35963.34
338.2085, 36004.59
338.6906, 36074.30
339.1727, 36134.15
339.6548, 36184.83
340.1370, 36225.00
340.6191, 36248.05
341.1012, 36248.96
341.5833, 36273.78
342.0654, 36336.21
342.5475, 36414.78
343.0297, 36460.18
343.5118, 36470.21
343.9939, 36462.05
344.4760, 36430.84
344.9581, 36380.71
345.4402, 36362.55
345.9224, 36377.95
346.4045, 36424.30
346.8866, 36527.88
347.3687, 36680.66
347.8508, 36774.67
348.3329, 36728.72
348.8151, 36599.77
349.2972, 36558.52
349.7793, 36608.05
350.2614, 36675.95
350.7435, 36689.61
351.2256, 36665.96
351.7078, 36653.45
352.1899, 36667.82
352.6720, 36697.89
353.1541, 36728.99
353.6362, 36762.15
354.1183, 36801.62
354.6005, 36860.34
355.0826, 36923.91
355.5647, 36970.10
356.0468, 36989.14
356.5289, 37005.06
357.0110, 37041.43
357.4932, 37090.91
357.9753, 37136.61
358.4574, 37190.23
358.9395, 37223.77
359.4216, 37192.60
359.9037, 37083.80
360.3859, 37009.76
360.8680, 37062.59
361.3501, 37178.26
361.8322, 37278.86
362.3143, 37338.04
362.7964, 37375.96
363.2786, 37389.08
363.7607, 37381.00
364.2428, 37387.82
364.7249, 37436.16
365.2070, 37494.67
365.6891, 37541.95
366.1713, 37568.88
366.6534, 37591.07
367.1355, 37617.32
367.6176, 37641.66
368.0997, 37646.47
368.5818, 37588.29
369.0640, 37546.35
369.5461, 37557.63
370.0282, 37661.65
370.5103, 37726.68
370.9924, 37729.77
371.4745, 37705.20
371.9567, 37696.10
372.4388, 37695.26
372.9209, 37721.93
373.4030, 37790.91
373.8851, 37903.88
374.3672, 37990.60
374.8494, 38050.31
375.3315, 38085.07
375.8136, 38084.98
376.2957, 38025.89
376.7778, 38014.80
377.2599, 38080.99
377.7421, 38195.15
378.2242, 38257.24
378.7063, 38253.81
379.1884, 38248.18
379.6705, 38280.82
380.1526, 38352.21
380.6348, 38406.93
381.1169, 38439.06
381.5990, 38464.57
382.0811, 38524.09
382.5632, 38613.01
383.0453, 38656.82
383.5275, 38596.56
384.0096, 38474.91
384.4917, 38420.51
384.9738, 38435.38
385.4559, 38469.49
385.9380, 38476.25
386.4202, 38467.95
386.9023, 38479.06
387.3844, 38531.95
387.8665, 38587.25
388.3486, 38582.85
388.8307, 38533.50
389.3129, 38498.71
389.7950, 38525.89
390.2771, 38580.39
390.7592, 38623.23
391.2413, 38646.18
391.7234, 38670.66
392.2056, 38717.50
392.6877, 38773.63
393.1698, 38819.59
393.6519, 38823.99
394.1340, 38836.19
394.6161, 38899.82
395.0983, 39012.95
395.5804, 39090.32
396.0625, 39075.87
396.5446, 39028.17
397.0267, 38990.75
397.5089, 38955.41
397.9910, 38951.24
398.4731, 39003.79
398.9552, 39094.01
399.4373, 39164.94
399.9194, 39207.82
400.4016, 39232.85
400.8837, 39238.35
401.3658, 39210.39
401.8479, 39206.43
402.3300, 39248.54
402.8121, 39300.80
403.2942, 39317.66
403.7763, 39275.50
404.2585, 39241.85
404.7406, 39223.67
405.2227, 39223.06
405.7048, 39272.93
406.1869, 39395.63
406.6690, 39518.17
407.1512, 39578.91
407.6333, 39567.54
408.1154, 39586.61
408.5975, 39657.01
409.0796, 39746.28
409.5617, 39788.19
410.0439, 39781.38
410.5260, 39775.36
411.0081, 39794.79
411.4902, 39834.08
411.9723, 39874.70
412.4544, 39917.53
412.9366, 39951.90
413.4187, 39960.70
413.9008, 39952.18
414.3829, 39951.19
414.8650, 39968.21
415.3471, 39991.87
415.8293, 40006.21
416.3114, 40013.68
416.7935, 40024.97
417.2756, 40058.90
417.7577, 40094.75
418.2398, 40105.73
418.7220, 40082.14
419.2041, 40063.50
419.6862, 40081.66
420.1683, 40119.93
420.6504, 40151.69
421.1325, 40159.73
421.6147, 40167.81
422.0968, 40180.16
422.5789, 40198.13
423.0610, 40238.50
423.5431, 40348.50
424.0252, 40454.89
424.5074, 40509.78
424.9895, 40422.67
425.4716, 40390.64
425.9537, 40467.48
426.4358, 40604.43
426.9179, 40693.43
427.4001, 40706.21
427.8822, 40704.93
428.3643, 40702.16
428.8464, 40694.16
429.3285, 40708.01
429.8106, 40742.38
430.2928, 40800.07
430.7749, 40900.08
431.2570, 41065.46
431.7391, 41169.73
432.2212, 41175.19
432.7033, 41114.82
433.1855, 41097.51
433.6676, 41129.21
434.1497, 41153.84
434.6318, 41116.66
435.1139, 41034.74
435.5960, 41021.56
436.0782, 41092.26
436.5603, 41183.39
437.0424, 41198.95
437.5245, 41165.38
438.0066, 41175.67
438.4887, 41301.63
438.9709, 41459.77
439.4530, 41537.73
439.9351, 41543.05
440.4172, 41525.91
440.8993, 41495.31
441.3814, 41471.41
441.8636, 41480.45
442.3457, 41537.85
442.8278, 41596.28
443.3099, 41628.52
443.7920, 41643.68
444.2741, 41657.20
444.7563, 41668.48
445.2384, 41684.30
445.7205, 41713.11
446.2026, 41754.91
446.6847, 41782.36
447.1668, 41783.93
447.6490, 41773.11
448.1311, 41757.82
448.6132, 41710.82
449.0953, 41696.73
449.5774, 41726.94
450.0595, 41787.54
450.5417, 41852.62
451.0238, 41935.68
451.5059, 41997.64
451.9880, 42020.97
452.4701, 42003.59
452.9522, 41994.95
453.4344, 41997.18
453.9165, 42002.59
454.3986, 41997.09
454.8807, 41978.81
455.3628, 41993.55
455.8449, 42059.30
456.3271, 42145.80
456.8092, 42192.93
457.2913, 42202.76
457.7734, 42198.57
458.2555, 42174.70
458.7376, 42149.16
459.2198, 42170.13
459.7019, 42241.41
460.1840, 42317.57
460.6661, 42366.37
461.1482, 42392.25
461.6303, 42399.91
462.1125, 42381.84
462.5946, 42359.25
463.0767, 42339.69
463.5588, 42327.03
464.0409, 42332.91
464.5230, 42379.21
465.0052, 42432.37
465.4873, 42466.51
465.9694, 42471.37
466.4515, 42499.80
466.9336, 42599.29
467.4157, 42710.93
467.8979, 42779.16
468.3800, 42757.65
468.8621, 42738.83
469.3442, 42730.86
469.8263, 42731.95
470.3084, 42735.18
470.7906, 42738.27
471.2727, 42747.84
471.7548, 42766.10
472.2369, 42793.09
472.7190, 42837.17
473.2011, 42908.71
473.6833, 42980.15
474.1654, 43015.80
474.6475, 43014.32
475.1296, 43010.41
475.6117, 43009.48
476.0938, 43012.54
476.5760, 43017.63
477.0581, 43025.31
477.5402, 43049.02
478.0223, 43119.06
478.5044, 43205.25
478.9865, 43240.97
479.4687, 43217.77
479.9508, 43187.64
480.4329, 43189.16
480.9150, 43215.50
481.3971, 43258.11
481.8792, 43336.61
482.3614, 43406.95
482.8435, 43435.54
483.3256, 43433.56
483.8077, 43434.10
484.2898, 43454.00
484.7719, 43477.05
485.2541, 43495.80
485.7362, 43508.88
486.2183, 43520.15
486.7004, 43518.84
487.1825, 43521.43
487.6646, 43544.93
488.1468, 43620.05
488.6289, 43664.55
489.1110, 43656.45
489.5931, 43612.54
490.0752, 43584.46
490.5573, 43560.36
491.0395, 43582.62
491.5216, 43697.78
492.0037, 43910.68
492.4858, 44018.87
492.9679, 44007.83
493.4500, 43958.29
493.9322, 43957.85
494.4143, 43998.34
494.8964, 44025.86
495.3785, 44025.01
495.8606, 44012.72
496.3427, 44008.56
496.8249, 44013.20
497.3070, 44030.29
497.7891, 44064.16
498.2712, 44109.41
498.7533, 44162.45
499.2354, 44223.28
499.7176, 44283.58
500.1997, 44353.63
500.6818, 44413.56
501.1639, 44443.83
501.6460, 44425.61
502.1281, 44399.86
502.6103, 44378.43
503.0924, 44358.01
503.5745, 44331.30
504.0566, 44257.23
504.5387, 44220.58
505.0208, 44258.08
505.5030, 44374.33
505.9851, 44453.37
506.4672, 44472.19
506.9493, 44484.20
507.4314, 44536.63
507.9135, 44650.78
508.3957, 44698.12
508.8778, 44645.84
509.3599, 44563.03
509.8420, 44584.50
510.3241, 44707.34
510.8062, 44804.86
511.2884, 44819.12
511.7705, 44779.93
512.2526, 44746.46
512.7347, 44719.96
513.2168, 44718.74
513.6989, 44779.06
514.1810, 44864.50
514.6631, 44924.67
515.1453, 44951.03
515.6274, 44960.10
516.1095, 44941.44
516.5916, 44919.34
517.0737, 44926.18
517.5558, 45015.20
518.0380, 45091.98
518.5201, 45105.36
519.0022, 45071.90
519.4843, 45071.91
519.9664, 45164.74
520.4485, 45252.38
520.9307, 45293.32
521.4128, 45274.89
521.8949, 45261.47
522.3770, 45252.06
522.8591, 45248.42
523.3412, 45247.05
523.8234, 45240.44
524.3055, 45278.25
524.7876, 45390.42
525.2697, 45525.95
525.7518, 45545.18
526.2339, 45449.16
526.7161, 45371.33
527.1982, 45394.62
527.6803, 45481.98
528.1624, 45533.72
528.6445, 45551.29
529.1266, 45570.06
529.6088, 45637.03
530.0909, 45716.51
530.5730, 45751.83
531.0551, 45716.59
531.5372, 45679.55
532.0193, 45676.52
532.5015, 45700.30
532.9836, 45739.54
533.4657, 45829.91
533.9478, 45895.10
534.4299, 45891.51
534.9120, 45828.06
535.3942, 45794.86
535.8763, 45819.54
536.3584, 45857.71
536.8405, 45898.55
537.3226, 45955.07
537.8047, 45954.68
538.2869, 45858.82
538.7690, 45760.90
539.2511, 45789.77
539.7332, 45962.36
540.2153, 46084.85
540.6974, 46114.46
541.1796, 46084.11
541.6617, 46046.30
542.1438, 46003.29
542.6259, 45975.98
543.1080, 45970.15
543.5901, 45988.68
544.0723, 46053.88
544.5544, 46161.71
545.0365, 46250.17
545.5186, 46252.32
546.0007, 46222.48
546.4828, 46222.34
546.9650, 46284.65
547.4471, 46323.20
547.9292, 46269.15
548.4113, 46180.06
548.8934, 46135.34
549.3755, 46179.73
549.8577, 46237.52
550.3398, 46295.83
550.8219, 46356.00
551.3040, 46426.55
551.7861, 46525.04
552.2682, 46606.86
552.7504, 46645.98
553.2325, 46637.13
553.7146, 46652.21
554.1967, 46700.85
554.6788, 46743.46
555.1609, 46719.70
555.6431, 46642.91
556.1252, 46614.71
556.6073, 46663.47
557.0894, 46743.25
557.5715, 46794.82
558.0536, 46825.95
558.5358, 46858.89
559.0179, 46913.39
559.5000, 46967.61
559.9821, 46992.96
560.4642, 46995.58
560.9464, 47015.14
561.4285, 47106.75
561.9106, 47193.50
562.3927, 47215.38
562.8748, 47130.49
563.3569, 47089.46
563.8391, 47164.33
564.3212, 47258.84
564.8033, 47285.75
565.2854, 47204.16
565.7675, 47133.63
566.2496, 47079.42
566.7318, 47047.48
567.2139, 47061.60
567.6960, 47128.98
568.1781, 47195.20
568.6602, 47237.43
569.1423, 47262.87
569.6245, 47295.48
570.1066, 47336.05
570.5887, 47373.95
571.0708, 47401.30
571.5529, 47421.86
572.0350, 47437.06
572.5172, 47444.36
572.9993, 47463.40
573.4814, 47524.29
573.9635, 47598.86
574.4456, 47651.80
574.9277, 47634.66
575.4099, 47635.27
575.8920, 47702.55
576.3741, 47806.71
576.8562, 47865.11
577.3383, 47810.16
577.8204, 47781.32
578.3026, 47828.23
578.7847, 47948.46
579.2668, 48025.26
579.7489, 48048.40
580.2310, 48054.01
580.7131, 48058.68
581.1953, 48062.74
581.6774, 48096.88
582.1595, 48170.55
582.6416, 48240.13
583.1237, 48246.52
583.6058, 48205.20
584.0880, 48159.36
584.5701, 48119.13
585.0522, 48082.08
585.5343, 48032.82
586.0164, 47983.98
586.4985, 47967.25
586.9807, 48017.02
587.4628, 48083.45
587.9449, 48144.89
588.4270, 48200.48
588.9091, 48253.28
589.3912, 48320.52
