##NAMES=Fluoro-richterite
##RRUFFID=R040019
##IDEAL CHEMISTRY=Na(NaCa)Mg_5_Si_8_O_22_F_2_
##LOCALITY=Wilberforce, Ontario, Canada
##OWNER=RRUFF
##SOURCE=University of Arizona Mineral Museum
##DESCRIPTION=Brown prismatic crystals
##STATUS=The identification of this mineral has been confirmed by X-ray diffraction and chemical analysis
##URL=rruff.info/R040019
##MEASURED CHEMISTRY=(Na_0.59_K_0.27_[box]_0.14_)_Σ=1_(Ca_1.30_Na_0.70_)_Σ=2_(Mg_4.67_Fe_0.17_Fe^3+^_0.10_Ti_0.03_Mn_0.02_Al_0.01_)_Σ=5_(Si_7.67_Al_0.33_)_Σ=8_(F_1.12_(OH)_0.88_)_Σ=2_; OH estimated by charge balance
190.7938, 417.6345
191.2759, 414.8340
191.7580, 413.8340
192.2401, 415.8201
192.7223, 419.6903
193.2044, 422.0837
193.6865, 422.8582
194.1686, 423.4368
194.6507, 425.0643
195.1328, 427.6974
195.6150, 430.7082
196.0971, 434.0665
196.5792, 437.6412
197.0613, 440.7637
197.5434, 443.2748
198.0255, 446.0250
198.5077, 449.7899
198.9898, 454.6026
199.4719, 459.8758
199.9540, 465.7055
200.4361, 471.8759
200.9182, 477.1790
201.4004, 481.3129
201.8825, 485.4182
202.3646, 490.7767
202.8467, 497.4834
203.3288, 504.2721
203.8109, 510.8809
204.2931, 517.3207
204.7752, 523.5709
205.2573, 529.4962
205.7394, 535.5601
206.2215, 542.4833
206.7036, 550.4605
207.1858, 557.9159
207.6679, 564.3295
208.1500, 569.7780
208.6321, 575.3743
209.1142, 581.0358
209.5963, 586.9968
210.0785, 593.5824
210.5606, 600.8646
211.0427, 608.3623
211.5248, 616.1003
212.0069, 624.0698
212.4890, 631.6941
212.9712, 638.7559
213.4533, 645.8499
213.9354, 653.3290
214.4175, 660.9311
214.8996, 669.9650
215.3817, 681.2137
215.8639, 694.5851
216.3460, 707.3359
216.8281, 719.1336
217.3102, 730.7980
217.7923, 743.0206
218.2744, 755.8378
218.7565, 769.3892
219.2387, 783.3904
219.7208, 797.9429
220.2029, 813.4966
220.6850, 830.0814
221.1671, 847.4694
221.6492, 865.1676
222.1314, 883.3738
222.6135, 901.7840
223.0956, 919.6152
223.5777, 936.9975
224.0598, 956.5173
224.5419, 979.2365
225.0241, 1003.101
225.5062, 1026.411
225.9883, 1048.887
226.4704, 1071.109
226.9525, 1093.121
227.4346, 1115.298
227.9168, 1135.196
228.3989, 1152.920
228.8810, 1168.264
229.3631, 1180.833
229.8452, 1191.021
230.3273, 1198.002
230.8095, 1202.312
231.2916, 1204.105
231.7737, 1198.955
232.2558, 1185.551
232.7379, 1166.606
233.2200, 1144.769
233.7022, 1119.657
234.1843, 1092.482
234.6664, 1063.118
235.1485, 1031.791
235.6306, 1000.460
236.1127, 968.8353
236.5949, 937.0873
237.0770, 904.9479
237.5591, 871.0996
238.0412, 839.5292
238.5233, 811.3262
239.0054, 786.3863
239.4876, 762.9542
239.9697, 740.7048
240.4518, 720.0928
240.9339, 701.5677
241.4160, 685.5385
241.8981, 670.8810
242.3803, 657.7521
242.8624, 646.0674
243.3445, 634.7014
243.8266, 623.2930
244.3087, 612.4946
244.7908, 603.0285
245.2730, 595.9227
245.7551, 588.0531
246.2372, 578.7684
246.7193, 568.1769
247.2014, 557.8576
247.6835, 548.3726
248.1657, 538.5739
248.6478, 527.4951
249.1299, 513.8134
249.6120, 501.5745
250.0941, 491.3634
250.5762, 483.0558
251.0584, 475.7573
251.5405, 470.0961
252.0226, 464.6982
252.5047, 458.6465
252.9868, 451.4952
253.4689, 444.6507
253.9511, 438.1497
254.4332, 432.0323
254.9153, 426.6481
255.3974, 421.9814
255.8795, 418.0888
256.3616, 415.3806
256.8438, 414.8954
257.3259, 412.6965
257.8080, 407.5612
258.2901, 400.5703
258.7722, 395.9883
259.2543, 394.9959
259.7365, 394.3984
260.2186, 392.4044
260.7007, 388.6973
261.1828, 384.5212
261.6649, 379.6650
262.1470, 374.4699
262.6292, 369.8747
263.1113, 366.1735
263.5934, 362.5196
264.0755, 358.3454
264.5576, 353.2088
265.0397, 349.1094
265.5219, 346.4918
266.0040, 344.6558
266.4861, 341.7386
266.9682, 337.2289
267.4503, 332.9781
267.9324, 330.0361
268.4146, 328.6938
268.8967, 327.0703
269.3788, 324.9606
269.8609, 322.7823
270.3430, 321.4817
270.8251, 321.3410
271.3073, 321.1431
271.7894, 320.2925
272.2715, 318.6882
272.7536, 317.5381
273.2357, 316.9597
273.7178, 316.6716
274.2000, 316.2325
274.6821, 315.5925
275.1642, 315.0130
275.6463, 314.5737
276.1284, 314.2727
276.6105, 314.0349
277.0927, 313.7880
277.5748, 313.7587
278.0569, 314.3872
278.5390, 315.7753
279.0211, 316.9786
279.5032, 317.6940
279.9854, 317.9562
280.4675, 318.0570
280.9496, 317.9586
281.4317, 317.8366
281.9138, 317.6904
282.3959, 317.4945
282.8781, 318.0529
283.3602, 319.8285
283.8423, 322.4925
284.3244, 324.5468
284.8065, 325.9334
285.2886, 327.1465
285.7708, 328.6535
286.2529, 330.4323
286.7350, 332.0510
287.2171, 333.2551
287.6992, 334.3568
288.1813, 336.2870
288.6635, 339.0820
289.1456, 342.0973
289.6277, 344.9284
290.1098, 347.5822
290.5919, 349.9545
291.0740, 351.9024
291.5562, 353.7886
292.0383, 356.4151
292.5204, 359.7679
293.0025, 363.0797
293.4846, 365.7662
293.9667, 368.0160
294.4489, 370.4346
294.9310, 373.0144
295.4131, 375.9333
295.8952, 379.8599
296.3773, 384.5771
296.8594, 388.7632
297.3416, 391.3521
297.8237, 392.9499
298.3058, 394.7896
298.7879, 396.9358
299.2700, 399.5229
299.7521, 402.9156
300.2343, 406.9172
300.7164, 410.7323
301.1985, 413.8038
301.6806, 416.5551
302.1627, 419.5198
302.6448, 422.7289
303.1270, 426.2677
303.6091, 430.5481
304.0912, 435.2072
304.5733, 439.6978
305.0554, 443.7098
305.5375, 447.4398
306.0197, 450.9953
306.5018, 454.3668
306.9839, 457.6856
307.4660, 460.9539
307.9481, 464.2170
308.4302, 467.5473
308.9124, 471.2891
309.3945, 474.8358
309.8766, 477.9000
310.3587, 480.4499
310.8408, 482.1507
311.3229, 482.3457
311.8051, 481.8071
312.2872, 481.3402
312.7693, 481.3483
313.2514, 481.1100
313.7335, 480.2485
314.2156, 478.8079
314.6978, 476.9166
315.1799, 474.8880
315.6620, 472.2570
316.1441, 468.4570
316.6262, 462.6943
317.1083, 457.6111
317.5905, 455.2105
318.0726, 454.1574
318.5547, 452.0862
319.0368, 446.7980
319.5189, 441.3845
320.0010, 437.5870
320.4832, 435.8880
320.9653, 433.9684
321.4474, 430.8414
321.9295, 427.2633
322.4116, 424.1197
322.8937, 421.9223
323.3759, 419.8867
323.8580, 417.7176
324.3401, 415.4059
324.8222, 413.4344
325.3043, 411.8372
325.7864, 410.6303
326.2686, 409.8256
326.7507, 409.7462
327.2328, 409.7111
327.7149, 409.6446
328.1970, 409.5473
328.6791, 409.4471
329.1613, 409.0526
329.6434, 408.8767
330.1255, 409.1949
330.6076, 410.5784
331.0897, 411.6087
331.5718, 411.8971
332.0540, 411.8256
332.5361, 412.5448
333.0182, 414.7342
333.5003, 416.8344
333.9824, 418.1798
334.4645, 418.5190
334.9467, 418.8590
335.4288, 418.9831
335.9109, 419.2644
336.3930, 420.3418
336.8751, 422.4406
337.3572, 424.8439
337.8394, 427.4475
338.3215, 430.2450
338.8036, 432.9002
339.2857, 435.4630
339.7678, 437.8036
340.2499, 439.6598
340.7320, 440.8383
341.2141, 442.5206
341.6963, 445.0932
342.1784, 448.3472
342.6605, 451.3977
343.1426, 454.2781
343.6247, 456.6643
344.1068, 457.9547
344.5890, 458.1967
345.0711, 458.9605
345.5532, 460.5421
346.0353, 462.6504
346.5174, 464.8582
346.9995, 467.1750
347.4817, 469.0705
347.9638, 470.0496
348.4459, 470.3222
348.9280, 470.5854
349.4101, 470.8550
349.8922, 471.2679
350.3744, 471.9760
350.8565, 472.9652
351.3386, 474.2042
351.8207, 475.9032
352.3028, 477.7586
352.7849, 479.1343
353.2671, 480.0271
353.7492, 481.1452
354.2313, 483.2052
354.7134, 485.8950
355.1955, 488.6874
355.6776, 491.1619
356.1598, 493.8782
356.6419, 497.6839
357.1240, 502.3760
357.6061, 506.8525
358.0882, 509.8099
358.5703, 512.5326
359.0525, 516.2667
359.5346, 521.4833
360.0167, 527.3682
360.4988, 533.8216
360.9809, 540.5659
361.4630, 546.9337
361.9452, 552.6176
362.4273, 557.8557
362.9094, 562.8157
363.3915, 567.5655
363.8736, 571.7782
364.3557, 575.3735
364.8379, 578.3221
365.3200, 580.5682
365.8021, 581.7337
366.2842, 582.5573
366.7663, 583.0599
367.2484, 583.2521
367.7306, 583.7579
368.2127, 585.4376
368.6948, 586.9801
369.1769, 587.5317
369.6590, 586.1273
370.1411, 584.8922
370.6233, 583.6642
371.1054, 582.6334
371.5875, 582.6141
372.0696, 584.7278
372.5517, 586.4861
373.0338, 586.7101
373.5160, 584.5852
373.9981, 583.2499
374.4802, 582.8672
374.9623, 583.1251
375.4444, 583.6017
375.9265, 584.4216
376.4087, 585.1219
376.8908, 585.5754
377.3729, 585.7863
377.8550, 585.7225
378.3371, 585.2392
378.8192, 584.8677
379.3014, 585.0970
379.7835, 585.9363
380.2656, 587.3573
380.7477, 589.6998
381.2298, 592.2949
381.7119, 593.4140
382.1941, 593.0275
382.6762, 592.0115
383.1583, 590.5933
383.6404, 588.9509
384.1225, 587.9261
384.6046, 587.6971
385.0868, 587.7297
385.5689, 587.5923
386.0510, 587.2042
386.5331, 586.2738
387.0152, 584.1346
387.4973, 581.5890
387.9795, 579.7630
388.4616, 578.6775
388.9437, 577.9863
389.4258, 577.9177
389.9079, 577.9576
390.3900, 577.3380
390.8722, 575.4701
391.3543, 573.3057
391.8364, 571.2382
392.3185, 569.3903
392.8006, 568.1378
393.2827, 568.6245
393.7649, 569.1486
394.2470, 568.4387
394.7291, 565.9475
395.2112, 563.1523
395.6933, 560.3730
396.1754, 557.6400
396.6576, 555.0035
397.1397, 552.5103
397.6218, 550.0709
398.1039, 547.8512
398.5860, 545.9281
399.0681, 543.2873
399.5503, 539.6638
400.0324, 535.3700
400.5145, 530.6618
400.9966, 524.8044
401.4787, 519.5750
401.9608, 515.6818
402.4430, 512.5706
402.9251, 507.9448
403.4072, 500.7933
403.8893, 493.6452
404.3714, 487.8238
404.8535, 483.7626
405.3357, 478.8947
405.8178, 472.7145
406.2999, 466.4642
406.7820, 462.3955
407.2641, 461.0343
407.7462, 458.7520
408.2284, 454.0677
408.7105, 447.6182
409.1926, 442.2461
409.6747, 438.0604
410.1568, 434.1577
410.6389, 429.5226
411.1211, 424.4161
411.6032, 420.0435
412.0853, 416.5366
412.5674, 413.9744
413.0495, 412.7648
413.5316, 412.6743
414.0138, 412.5334
414.4959, 411.7517
414.9780, 410.4907
415.4601, 408.6924
415.9422, 406.2707
416.4243, 404.4364
416.9065, 404.5084
417.3886, 405.7150
417.8707, 406.9195
418.3528, 407.8983
418.8349, 408.5838
419.3170, 408.6491
419.7992, 408.2770
420.2813, 408.3199
420.7634, 409.4026
421.2455, 410.8568
421.7276, 412.2325
422.2097, 413.3918
422.6919, 414.6576
423.1740, 416.5771
423.6561, 418.5530
424.1382, 419.7136
424.6203, 419.1887
425.1024, 418.5431
425.5846, 418.0841
426.0667, 417.8177
426.5488, 417.7674
427.0309, 418.3206
427.5130, 418.7477
427.9951, 418.5014
428.4773, 417.2094
428.9594, 416.0983
429.4415, 415.4723
429.9236, 414.9849
430.4057, 413.6157
430.8878, 411.0969
431.3700, 408.5674
431.8521, 406.7803
432.3342, 405.7390
432.8163, 403.3453
433.2984, 399.3629
433.7805, 394.8646
434.2627, 391.0139
434.7448, 387.7591
435.2269, 384.6130
435.7090, 381.4890
436.1911, 378.2975
436.6732, 374.9818
437.1554, 371.5010
437.6375, 367.6414
438.1196, 362.6575
438.6017, 357.3676
439.0838, 353.3175
439.5659, 350.8694
440.0480, 348.5502
440.5302, 344.8649
441.0123, 340.4620
441.4944, 336.4315
441.9765, 333.2711
442.4586, 330.5801
442.9407, 328.1645
443.4229, 326.0364
443.9050, 324.1343
444.3871, 322.5898
444.8692, 321.1904
445.3513, 319.8229
445.8334, 318.5750
446.3156, 317.1624
446.7977, 315.2426
447.2798, 313.1800
447.7619, 311.6314
448.2440, 311.3204
448.7261, 310.7930
449.2083, 309.6327
449.6904, 307.7881
450.1725, 306.1381
450.6546, 304.1557
451.1367, 303.0410
451.6188, 304.2580
452.1010, 309.2047
452.5831, 311.4038
453.0652, 309.2129
453.5473, 305.0390
454.0294, 304.9549
454.5115, 309.5765
454.9937, 313.2881
455.4758, 312.9405
455.9579, 309.3423
456.4400, 307.0499
456.9221, 306.1078
457.4042, 305.8513
457.8864, 305.7116
458.3685, 305.7265
458.8506, 306.0281
459.3327, 306.7125
459.8148, 307.5836
460.2969, 308.7055
460.7791, 309.8940
461.2612, 310.5049
461.7433, 309.4667
462.2254, 308.1455
462.7075, 307.8581
463.1896, 308.8011
463.6718, 309.7768
464.1539, 310.1643
464.6360, 310.2736
465.1181, 310.4044
465.6002, 310.3490
466.0823, 310.6403
466.5645, 311.7840
467.0466, 313.4748
467.5287, 314.5407
468.0108, 314.4307
468.4929, 314.0418
468.9750, 313.6320
469.4572, 313.1334
469.9393, 312.8811
470.4214, 313.0890
470.9035, 313.3425
471.3856, 313.1182
471.8677, 312.1724
472.3499, 311.5338
472.8320, 311.4776
473.3141, 311.8025
473.7962, 311.7894
474.2783, 311.4027
474.7604, 310.9553
475.2426, 310.7242
475.7247, 310.6305
476.2068, 310.1970
476.6889, 309.3994
477.1710, 308.3268
477.6531, 306.4660
478.1353, 304.3571
478.6174, 303.5869
479.0995, 305.4138
479.5816, 307.9572
480.0637, 309.0956
480.5458, 309.1167
481.0280, 309.0731
481.5101, 309.5991
481.9922, 310.2653
482.4743, 310.6246
482.9564, 310.5173
483.4385, 310.7330
483.9207, 311.7631
484.4028, 313.2024
484.8849, 314.6302
485.3670, 316.7600
485.8491, 317.9658
486.3312, 317.2773
486.8134, 315.1830
487.2955, 314.1916
487.7776, 315.0998
488.2597, 316.1909
488.7418, 316.7979
489.2239, 316.8101
489.7061, 316.8786
490.1882, 317.0552
490.6703, 317.2153
491.1524, 317.0855
491.6345, 316.5616
492.1166, 316.5648
492.5988, 317.3245
493.0809, 318.6568
493.5630, 320.2899
494.0451, 322.2143
494.5272, 323.8187
495.0093, 324.3136
495.4915, 324.3022
495.9736, 325.3659
496.4557, 327.6254
496.9378, 329.9185
497.4199, 331.0206
497.9020, 331.5234
498.3842, 332.2731
498.8663, 333.3724
499.3484, 335.0272
499.8305, 337.9489
500.3126, 341.5728
500.7947, 344.4481
501.2769, 344.9072
501.7590, 345.5138
502.2411, 347.6642
502.7232, 351.7370
503.2053, 355.4409
503.6874, 358.0654
504.1696, 360.4401
504.6517, 363.1299
505.1338, 366.3805
505.6159, 369.4825
506.0980, 372.2578
506.5801, 374.8962
507.0623, 377.9172
507.5444, 381.5665
508.0265, 384.8875
508.5086, 387.2968
508.9907, 388.9990
509.4728, 391.7693
509.9550, 395.6669
510.4371, 400.0622
510.9192, 404.7328
511.4013, 409.4901
511.8834, 413.3307
512.3655, 415.8856
512.8477, 418.3177
513.3298, 422.3490
513.8119, 427.3351
514.2940, 431.7358
514.7761, 434.2780
515.2582, 436.4136
515.7404, 439.5483
516.2225, 443.4926
516.7046, 446.7459
517.1867, 448.1538
517.6688, 448.9846
518.1509, 450.1289
518.6331, 452.1108
519.1152, 453.4118
519.5973, 453.3079
520.0794, 452.5488
520.5615, 452.1134
521.0436, 452.4922
521.5258, 452.3639
522.0079, 451.1689
522.4900, 449.2632
522.9721, 448.7968
523.4542, 450.6148
523.9363, 451.4142
524.4185, 448.8626
524.9006, 442.9778
525.3827, 438.7892
525.8648, 436.5540
526.3469, 434.6353
526.8290, 430.7325
527.3112, 425.5252
527.7933, 421.6967
528.2754, 420.3388
528.7575, 419.7294
529.2396, 417.6421
529.7217, 414.5454
530.2039, 411.8534
530.6860, 410.5580
531.1681, 409.7057
531.6502, 408.6257
532.1323, 407.2766
532.6144, 405.8650
533.0966, 404.4710
533.5787, 403.0226
534.0608, 401.4317
534.5429, 399.4842
535.0250, 397.7293
535.5071, 396.4009
535.9893, 395.2314
536.4714, 393.8303
536.9535, 391.9198
537.4356, 390.3459
537.9177, 389.4457
538.3998, 389.0648
538.8820, 388.2045
539.3641, 386.7614
539.8462, 385.3781
540.3283, 384.6564
540.8104, 384.4530
541.2925, 383.6055
541.7747, 381.9932
542.2568, 380.2501
542.7389, 378.9678
543.2210, 378.0811
543.7031, 377.4782
544.1852, 377.2991
544.6674, 377.1177
545.1495, 376.2830
545.6316, 375.1285
546.1137, 374.4859
546.5958, 375.4654
547.0779, 376.4343
547.5601, 376.4310
548.0422, 375.3815
548.5243, 374.3826
549.0064, 373.1710
549.4885, 372.4360
549.9706, 372.6754
550.4528, 374.8149
550.9349, 376.1506
551.4170, 376.4740
551.8991, 376.1746
552.3812, 375.7759
552.8633, 375.2456
553.3455, 374.7135
553.8276, 374.1230
554.3097, 373.5999
554.7918, 373.6840
555.2739, 374.3748
555.7560, 375.0293
556.2382, 375.2906
556.7203, 375.2337
557.2024, 375.0245
557.6845, 374.6749
558.1666, 374.1205
558.6487, 372.8086
559.1309, 371.4483
559.6130, 371.0827
560.0951, 372.5556
560.5772, 373.8893
561.0593, 374.1645
561.5414, 373.6557
562.0236, 372.8504
562.5057, 371.2275
562.9878, 369.9746
563.4699, 369.5441
563.9520, 369.8565
564.4341, 370.0792
564.9163, 370.0077
565.3984, 370.1360
565.8805, 370.9626
566.3626, 372.8271
566.8447, 372.9879
567.3268, 370.9364
567.8090, 368.6035
568.2911, 368.3478
568.7732, 369.9542
569.2553, 371.6168
569.7374, 373.1720
570.2195, 374.2284
570.7017, 373.6454
571.1838, 372.0224
571.6659, 371.2614
572.1480, 373.5292
572.6301, 376.1445
573.1122, 376.4033
573.5944, 374.5962
574.0765, 373.5086
574.5586, 375.4384
575.0407, 377.6781
575.5228, 378.3978
576.0049, 376.4722
576.4871, 375.5947
576.9692, 376.9297
577.4513, 378.8796
577.9334, 379.9672
578.4155, 379.8020
578.8976, 379.6601
579.3798, 379.7119
579.8619, 379.8579
580.3440, 379.7631
580.8261, 379.3876
581.3082, 379.3161
581.7903, 380.0704
582.2725, 381.2343
582.7546, 381.5150
583.2367, 380.9633
583.7188, 380.1857
584.2009, 379.6596
584.6830, 379.1602
585.1652, 378.3759
585.6473, 377.2374
586.1294, 375.9705
586.6115, 374.7468
587.0936, 373.4278
587.5757, 371.8823
588.0578, 369.7933
588.5399, 367.7998
589.0220, 366.3442
589.5042, 365.0252
589.9863, 362.8919
590.4684, 359.3647
590.9505, 355.9872
591.4326, 353.1114
591.9147, 350.7198
592.3969, 348.7234
592.8790, 347.1964
593.3611, 345.7593
593.8432, 344.1695
594.3253, 342.4776
594.8074, 340.7914
595.2896, 339.1192
595.7717, 337.4506
596.2538, 335.5569
596.7359, 333.7052
597.2180, 332.4046
597.7001, 331.9634
598.1823, 331.7776
598.6644, 331.5739
599.1465, 331.3355
599.6286, 331.0313
600.1107, 330.4230
600.5928, 329.9853
601.0750, 329.8779
601.5571, 330.0887
602.0392, 330.4468
602.5213, 331.1841
603.0034, 331.7412
603.4855, 331.7612
603.9677, 331.1644
604.4498, 331.2006
604.9319, 331.9982
605.4140, 333.0161
605.8961, 333.7723
606.3782, 334.3026
606.8604, 334.8292
607.3425, 335.4277
607.8246, 335.8404
608.3067, 335.2903
608.7888, 334.3442
609.2709, 334.2603
609.7531, 335.9898
610.2352, 338.1320
610.7173, 340.1743
611.1994, 341.9436
611.6815, 342.9939
612.1636, 342.4966
612.6458, 341.9331
613.1279, 341.7413
613.6100, 341.9547
614.0921, 342.7767
614.5742, 344.8336
615.0563, 346.6915
615.5385, 347.2644
616.0206, 346.0743
616.5027, 346.7242
616.9848, 349.6743
617.4669, 353.0759
617.9490, 354.5341
618.4312, 354.4421
618.9133, 354.8100
619.3954, 356.1458
619.8775, 357.8110
620.3596, 359.1350
620.8417, 360.2062
621.3239, 361.1979
621.8060, 362.1239
622.2881, 363.0703
622.7702, 364.1430
623.2523, 365.2924
623.7344, 366.3213
624.2166, 366.6514
624.6987, 367.3537
625.1808, 368.9964
625.6629, 371.6667
626.1450, 373.9537
626.6271, 375.9034
627.1093, 377.4204
627.5914, 378.2902
628.0735, 378.4462
628.5556, 378.9196
629.0377, 379.7786
629.5198, 380.8664
630.0020, 382.0787
630.4841, 383.3859
630.9662, 384.7068
631.4483, 386.0682
631.9304, 387.3543
632.4125, 388.1231
632.8947, 388.7647
633.3768, 390.0810
633.8589, 393.2450
634.3410, 396.3013
634.8231, 398.0190
635.3052, 398.7348
635.7874, 400.5414
636.2695, 404.8426
636.7516, 408.9179
637.2337, 411.6960
637.7158, 413.1189
638.1979, 414.9443
638.6801, 417.2708
639.1622, 419.7055
639.6443, 421.8736
640.1264, 423.8076
640.6085, 426.0411
641.0906, 428.6119
641.5728, 431.3756
642.0549, 434.2615
642.5370, 437.2288
643.0191, 440.2521
643.5012, 443.3036
643.9833, 446.4682
644.4655, 449.8478
644.9476, 453.3844
645.4297, 457.1080
645.9118, 461.2233
646.3939, 465.2802
646.8760, 468.8792
647.3582, 472.2890
647.8403, 476.4147
648.3224, 481.4699
648.8045, 486.9362
649.2866, 492.6361
649.7687, 498.6346
650.2509, 505.1510
650.7330, 512.2805
651.2151, 519.5032
651.6972, 526.4267
652.1793, 533.2247
652.6614, 539.8307
653.1436, 546.2098
653.6257, 553.1975
654.1078, 561.1176
654.5899, 570.0378
655.0720, 580.2524
655.5541, 592.2742
656.0363, 604.5518
656.5184, 616.0646
657.0005, 627.6276
657.4826, 640.4415
657.9647, 654.7715
658.4468, 669.7253
658.9290, 684.9540
659.4111, 700.8805
659.8932, 718.4529
660.3753, 737.6622
660.8574, 758.5265
661.3395, 780.8401
661.8217, 804.9346
662.3038, 832.1521
662.7859, 862.2003
663.2680, 893.1176
663.7501, 923.3024
664.2322, 953.9484
664.7144, 986.2811
665.1965, 1020.391
665.6786, 1056.776
666.1607, 1096.535
666.6428, 1137.982
667.1249, 1179.895
667.6071, 1221.545
668.0892, 1265.957
668.5713, 1314.064
669.0534, 1364.477
669.5355, 1415.402
670.0176, 1466.957
670.4998, 1519.794
670.9819, 1573.788
671.4640, 1629.605
671.9461, 1689.189
672.4282, 1751.068
672.9103, 1813.828
673.3925, 1877.301
673.8746, 1941.010
674.3567, 2004.093
674.8388, 2066.553
675.3209, 2128.100
675.8030, 2192.471
676.2852, 2251.082
676.7673, 2301.714
677.2494, 2344.258
677.7315, 2378.216
678.2136, 2405.249
678.6957, 2422.442
679.1779, 2429.291
679.6600, 2425.649
680.1421, 2408.302
680.6242, 2376.637
681.1063, 2334.067
681.5884, 2281.723
682.0706, 2219.875
682.5527, 2149.606
683.0348, 2069.982
