##NAMES=Fluor-liddicoatite
##RRUFFID=R060635
##IDEAL CHEMISTRY=Ca(Li_2_Al)Al_6_(Si_6_O_18_)(BO_3_)_3_(OH)_3_F
##LOCALITY=unknown
##OWNER=RRUFF
##SOURCE=Gemological Institute of America
##DESCRIPTION=Rootbeer brown cut gemstone
##STATUS=The identification of this mineral has been confirmed by X-ray diffraction and chemical analysis
##URL=rruff.info/R060635
##MEASURED CHEMISTRY=(Li_1.84_Al_1.05_Mn_0.11_)_Σ=3_(Ca_0.82_Na_0.15_[box]_0.03_)_Σ=1_Al_6.00_(BO_3_)_3_[Si_6.00_O_18_]((OH)_3.16_F_0.84_)_Σ=4_
91.72394, 0.0000000E+00
92.20605, 57.91846
92.68817, 59.05691
93.17029, 59.96050
93.65240, 59.52674
94.13452, 58.64329
94.61664, 57.71355
95.09875, 56.98904
95.58087, 56.31390
96.06299, 55.05621
96.54510, 52.52416
97.02721, 50.43490
97.50933, 49.37476
97.99145, 48.88118
98.47356, 48.31335
98.95568, 47.18340
99.43780, 45.41192
99.91991, 43.98431
100.4020, 42.80663
100.8841, 41.94088
101.3663, 41.59359
101.8484, 41.65269
102.3305, 41.69610
102.8126, 41.27023
103.2947, 40.20373
103.7768, 39.41616
104.2590, 38.96033
104.7411, 38.74123
105.2232, 38.72441
105.7053, 38.93813
106.1874, 39.19086
106.6695, 39.19959
107.1517, 38.98499
107.6338, 38.75840
108.1159, 38.60918
108.5980, 38.52454
109.0801, 38.43696
109.5622, 38.29152
110.0444, 38.17524
110.5265, 38.15272
111.0086, 38.22971
111.4907, 38.37200
111.9728, 38.53289
112.4549, 38.69006
112.9371, 38.94604
113.4192, 39.51002
113.9013, 40.06750
114.3834, 40.36290
114.8655, 40.29738
115.3476, 39.99731
115.8298, 39.79089
116.3119, 39.63442
116.7940, 39.65337
117.2761, 39.98140
117.7582, 40.45771
118.2403, 40.88100
118.7225, 41.13152
119.2046, 41.22378
119.6867, 41.31496
120.1688, 41.19658
120.6509, 41.27439
121.1330, 41.85291
121.6152, 42.81321
122.0973, 43.71587
122.5794, 44.21142
123.0615, 44.27699
123.5436, 44.35012
124.0257, 44.28175
124.5079, 44.30386
124.9900, 44.66655
125.4721, 45.41871
125.9542, 46.32515
126.4363, 47.29878
126.9184, 48.28434
127.4006, 49.10617
127.8827, 49.54039
128.3648, 49.73854
128.8469, 50.18053
129.3290, 51.06128
129.8111, 51.98284
130.2932, 52.74757
130.7754, 53.36062
131.2575, 53.84782
131.7396, 54.13538
132.2217, 54.17153
132.7038, 54.48081
133.1859, 55.21149
133.6681, 56.13641
134.1502, 57.30315
134.6323, 58.65064
135.1144, 59.94853
135.5965, 60.85263
136.0786, 61.01288
136.5608, 61.49849
137.0429, 62.47169
137.5250, 63.60836
138.0071, 64.67295
138.4892, 65.59232
138.9713, 66.43986
139.4535, 67.34599
139.9356, 68.24025
140.4177, 69.31121
140.8998, 70.75709
141.3819, 72.34653
141.8640, 73.72396
142.3462, 74.69117
142.8283, 75.44827
143.3104, 76.59328
143.7925, 78.41820
144.2746, 80.04929
144.7567, 80.92380
145.2388, 81.22308
145.7210, 81.75575
146.2031, 83.06197
146.6852, 84.75410
147.1673, 86.07143
147.6494, 86.92520
148.1315, 87.48357
148.6137, 87.88539
149.0958, 88.13256
149.5779, 88.20925
150.0600, 88.07696
150.5421, 87.77413
151.0242, 87.27905
151.5064, 86.53282
151.9885, 85.66293
152.4706, 84.98730
152.9527, 84.74125
153.4348, 84.21199
153.9169, 83.13832
154.3991, 81.72421
154.8812, 80.19606
155.3633, 78.68342
155.8454, 77.16908
156.3275, 75.56082
156.8096, 73.75510
157.2918, 71.96164
157.7739, 70.11541
158.2560, 68.31300
158.7381, 66.73952
159.2202, 65.55383
159.7023, 64.76979
160.1845, 63.85285
160.6666, 62.74056
161.1487, 61.57666
161.6308, 60.38725
162.1129, 59.18866
162.5950, 57.99245
163.0772, 56.79684
163.5593, 55.58390
164.0414, 54.61241
164.5235, 54.07044
165.0056, 53.60917
165.4877, 52.89864
165.9698, 51.92855
166.4520, 51.11076
166.9341, 50.98479
167.4162, 51.55278
167.8983, 51.81884
168.3804, 51.32305
168.8625, 50.61269
169.3447, 50.43085
169.8268, 50.96708
170.3089, 51.66697
170.7910, 51.90289
171.2731, 51.80263
171.7552, 51.83919
172.2374, 52.25614
172.7195, 52.95243
173.2016, 53.69741
173.6837, 54.64465
174.1658, 55.33415
174.6479, 55.28728
175.1301, 54.68551
175.6122, 54.22914
176.0943, 54.49823
176.5764, 55.45938
177.0585, 56.31109
177.5406, 57.03211
178.0228, 57.59034
178.5049, 57.92535
178.9870, 58.06815
179.4691, 58.12985
179.9512, 58.26543
180.4333, 58.55307
180.9155, 58.54120
181.3976, 57.93679
181.8797, 57.27651
182.3618, 56.80842
182.8439, 56.54698
183.3260, 56.34817
183.8082, 55.98313
184.2903, 55.18491
184.7724, 54.96993
185.2545, 55.66563
185.7366, 56.57361
186.2187, 57.27157
186.7009, 57.67333
187.1830, 57.94275
187.6651, 58.29765
188.1472, 58.70288
188.6293, 59.31663
189.1114, 60.33191
189.5936, 61.43481
190.0757, 62.25033
190.5578, 62.68703
191.0399, 63.12764
191.5220, 64.23625
192.0041, 66.30968
192.4863, 68.22293
192.9684, 69.85802
193.4505, 71.26328
193.9326, 72.41033
194.4147, 73.23470
194.8968, 74.03979
195.3790, 75.37888
195.8611, 77.23633
196.3432, 79.25823
196.8253, 81.56947
197.3074, 83.96668
197.7895, 85.98059
198.2717, 87.39510
198.7538, 88.53367
199.2359, 89.82259
199.7180, 91.27253
200.2001, 92.68465
200.6822, 93.92137
201.1644, 95.02410
201.6465, 96.18125
202.1286, 97.46007
202.6107, 98.78981
203.0928, 100.0983
203.5749, 101.3892
204.0571, 102.6521
204.5392, 103.9149
205.0213, 105.1788
205.5034, 106.3031
205.9855, 107.3063
206.4676, 108.0963
206.9497, 108.5385
207.4319, 108.6543
207.9140, 108.6894
208.3961, 108.8800
208.8782, 109.2465
209.3603, 109.6403
209.8424, 109.9023
210.3246, 110.3015
210.8067, 111.1085
211.2888, 112.2849
211.7709, 113.4592
212.2530, 114.0896
212.7351, 113.8514
213.2173, 114.0957
213.6994, 115.0394
214.1815, 116.2658
214.6636, 117.6227
215.1457, 119.0529
215.6278, 120.5390
216.1100, 122.0392
216.5921, 123.4752
217.0742, 125.1513
217.5563, 127.3002
218.0384, 129.4702
218.5205, 131.2596
219.0027, 132.6618
219.4848, 134.1163
219.9669, 136.2271
220.4490, 139.3586
220.9311, 142.2816
221.4132, 144.7030
221.8954, 147.1457
222.3775, 150.2552
222.8596, 154.0479
223.3417, 157.6878
223.8238, 160.0354
224.3059, 160.3665
224.7881, 161.3006
225.2702, 163.5764
225.7523, 166.0081
226.2344, 167.5235
226.7165, 167.9391
227.1986, 167.8475
227.6807, 167.8931
228.1629, 168.0879
228.6450, 168.4177
229.1271, 168.9738
229.6092, 169.6192
230.0913, 170.1703
230.5734, 170.5878
231.0556, 171.0673
231.5377, 171.8954
232.0198, 173.0668
232.5019, 174.0978
232.9840, 174.7742
233.4661, 175.3265
233.9483, 176.0141
234.4304, 176.8692
234.9125, 177.8727
235.3946, 179.3120
235.8767, 181.0128
236.3588, 182.0529
236.8410, 181.7244
237.3231, 180.7573
237.8052, 180.4168
238.2873, 181.0594
238.7694, 181.3778
239.2515, 180.2495
239.7337, 178.0194
240.2158, 175.1768
240.6979, 171.4675
241.1800, 167.3412
241.6621, 163.7814
242.1442, 161.0700
242.6264, 158.1362
243.1085, 153.9185
243.5906, 149.0659
244.0727, 144.6540
244.5548, 141.3964
245.0369, 138.7477
245.5191, 135.4651
246.0012, 131.2392
246.4833, 127.1228
246.9654, 123.6882
247.4475, 120.6526
247.9296, 117.6586
248.4117, 114.5294
248.8939, 111.3816
249.3760, 108.3657
249.8581, 105.3486
250.3402, 102.8079
250.8223, 101.2518
251.3044, 100.0787
251.7866, 98.57833
252.2687, 96.37537
252.7508, 93.86640
253.2329, 91.95033
253.7150, 90.89175
254.1971, 89.93796
254.6793, 88.98296
255.1614, 87.98808
255.6435, 86.83804
256.1256, 85.47330
256.6077, 84.10963
257.0898, 83.23804
257.5720, 83.17022
258.0541, 83.00510
258.5362, 82.46908
259.0183, 81.86430
259.5004, 81.46423
259.9825, 81.36123
260.4647, 81.41050
260.9468, 81.33448
261.4289, 81.03248
261.9110, 80.80215
262.3931, 80.76203
262.8752, 80.72886
263.3574, 80.47742
263.8395, 79.97844
264.3216, 79.49156
264.8037, 79.46111
265.2858, 80.19995
265.7679, 80.78493
266.2501, 81.23489
266.7322, 81.53787
267.2143, 81.64735
267.6964, 81.57384
268.1785, 81.39820
268.6606, 81.19935
269.1428, 80.86685
269.6249, 80.83089
270.1070, 81.26138
270.5891, 81.79237
271.0712, 82.22807
271.5533, 82.53762
272.0355, 82.78248
272.5176, 83.02712
272.9997, 83.26974
273.4818, 83.51154
273.9639, 83.57784
274.4460, 83.78848
274.9282, 84.44762
275.4103, 85.45886
275.8924, 86.40893
276.3745, 86.89433
276.8566, 86.83858
277.3387, 87.06224
277.8208, 87.70189
278.3029, 88.41871
278.7851, 89.14529
279.2672, 89.83797
279.7493, 90.41273
280.2314, 90.79500
280.7135, 90.99248
281.1956, 91.25105
281.6778, 91.55447
282.1599, 91.92213
282.6420, 92.56131
283.1241, 93.27475
283.6062, 93.60625
284.0883, 93.24426
284.5705, 92.32989
285.0526, 91.70208
285.5347, 91.71252
286.0168, 91.55313
286.4989, 90.84165
286.9810, 89.85988
287.4632, 89.14583
287.9453, 88.98330
288.4274, 89.10862
288.9095, 88.74664
289.3916, 87.51709
289.8737, 86.40628
290.3559, 85.52007
290.8380, 84.85475
291.3201, 84.52073
291.8022, 84.57769
292.2843, 84.70576
292.7664, 84.27435
293.2486, 82.94852
293.7307, 81.87556
294.2128, 81.32242
294.6949, 81.00340
295.1770, 80.54424
295.6591, 79.85894
296.1413, 79.28867
296.6234, 79.34490
297.1055, 80.28491
297.5876, 80.79588
298.0697, 80.37000
298.5518, 79.78874
299.0340, 79.79774
299.5161, 80.45803
299.9982, 81.22084
300.4803, 81.56067
300.9624, 81.42381
301.4445, 81.46878
301.9267, 81.89426
302.4088, 82.33541
302.8909, 82.49775
303.3730, 82.41544
303.8551, 82.41011
304.3372, 82.77163
304.8194, 83.41841
305.3015, 83.65842
305.7836, 83.01647
306.2657, 82.48170
306.7478, 82.68616
307.2299, 83.41043
307.7121, 83.91564
308.1942, 83.71971
308.6763, 83.15006
309.1584, 83.38773
309.6405, 85.01248
310.1227, 86.39990
310.6048, 86.79463
311.0869, 86.62086
311.5690, 86.69868
312.0511, 87.36456
312.5332, 88.29745
313.0154, 88.84737
313.4975, 88.91470
313.9796, 88.99474
314.4617, 89.13960
314.9438, 89.36588
315.4259, 89.71374
315.9081, 90.19526
316.3902, 90.75518
316.8723, 91.41293
317.3544, 92.24746
317.8365, 92.59349
318.3186, 91.95150
318.8007, 91.07524
319.2828, 90.69438
319.7650, 90.86484
320.2471, 91.10258
320.7292, 90.99362
321.2113, 90.52129
321.6934, 90.07254
322.1755, 89.65833
322.6577, 89.25515
323.1398, 88.81197
323.6219, 88.35405
324.1040, 87.98807
324.5861, 87.79789
325.0682, 87.74855
325.5504, 87.65932
326.0325, 87.80406
326.5146, 87.62222
326.9967, 86.66343
327.4788, 85.24711
327.9609, 84.00127
328.4431, 83.17844
328.9252, 82.70761
329.4073, 82.49302
329.8894, 82.76123
330.3715, 82.76245
330.8536, 82.11430
331.3358, 81.21523
331.8179, 80.56567
332.3000, 80.29808
332.7821, 80.23769
333.2642, 80.16481
333.7463, 80.06539
334.2285, 80.01578
334.7106, 80.17949
335.1927, 80.28598
335.6748, 80.00975
336.1569, 79.37170
336.6390, 78.78047
337.1212, 78.60429
337.6033, 78.86770
338.0854, 79.12455
338.5675, 79.41738
339.0496, 79.66759
339.5317, 79.75710
340.0139, 79.76103
340.4960, 79.90648
340.9781, 80.35128
341.4602, 81.01644
341.9423, 81.49882
342.4244, 81.59977
342.9066, 81.78426
343.3887, 82.27797
343.8708, 82.87802
344.3529, 83.20823
344.8350, 83.11498
345.3171, 82.92361
345.7993, 83.27312
346.2814, 84.76721
346.7635, 85.76901
347.2456, 85.93616
347.7277, 85.80430
348.2098, 85.80907
348.6920, 86.02762
349.1741, 86.29091
349.6562, 86.39790
350.1383, 86.29329
350.6204, 86.31802
351.1025, 86.48769
351.5847, 86.74731
352.0668, 87.17285
352.5489, 87.67785
353.0310, 88.03622
353.5131, 88.06294
353.9952, 87.80122
354.4774, 87.70467
354.9595, 87.57807
355.4416, 87.83855
355.9237, 88.83591
356.4058, 90.19125
356.8879, 91.36987
357.3701, 92.12916
357.8522, 92.69949
358.3343, 93.63277
358.8164, 95.24023
359.2985, 96.75133
359.7806, 97.99152
360.2627, 99.24338
360.7448, 100.6503
361.2270, 102.2789
361.7091, 104.1974
362.1912, 106.5555
362.6733, 109.5069
363.1554, 112.2196
363.6375, 114.2598
364.1197, 116.4832
364.6018, 119.1494
365.0839, 122.3020
365.5660, 125.8918
366.0481, 129.9079
366.5302, 134.3286
367.0124, 138.9939
367.4945, 144.0105
367.9766, 149.1580
368.4587, 154.0197
368.9408, 159.0997
369.4229, 165.0628
369.9051, 172.1587
370.3872, 179.9663
370.8693, 187.7357
371.3514, 195.3515
371.8335, 203.2108
372.3156, 211.9920
372.7978, 220.5703
373.2799, 228.4949
373.7620, 235.5809
374.2441, 241.7959
374.7262, 247.2139
375.2083, 251.8606
375.6905, 254.9430
376.1726, 255.8495
376.6547, 255.7051
377.1368, 255.1443
377.6189, 253.9752
378.1010, 251.7646
378.5832, 248.2164
379.0653, 243.4933
379.5474, 237.9207
380.0295, 231.3085
380.5116, 224.3294
380.9937, 217.1344
381.4759, 209.7480
381.9580, 202.0777
382.4401, 194.0457
382.9222, 186.0715
383.4043, 178.6687
383.8864, 171.8193
384.3686, 165.1092
384.8507, 158.2474
385.3328, 151.7626
385.8149, 145.9294
386.2970, 140.7788
386.7791, 136.2134
387.2613, 132.4535
387.7434, 129.2592
388.2255, 125.9539
388.7076, 122.3703
389.1897, 119.1426
389.6718, 116.8742
390.1540, 115.2757
390.6361, 113.8460
391.1182, 112.6315
391.6003, 111.4031
392.0824, 109.8084
392.5645, 107.9119
393.0467, 106.3459
393.5288, 105.4038
394.0109, 104.9229
394.4930, 104.5968
394.9751, 104.4537
395.4572, 104.3341
395.9394, 104.0228
396.4215, 103.7356
396.9036, 103.8939
397.3857, 104.6121
397.8678, 105.5267
398.3499, 106.2875
398.8321, 106.8809
399.3142, 107.4615
399.7963, 107.7037
400.2784, 108.2112
400.7605, 109.5918
401.2426, 111.6830
401.7247, 113.7449
402.2068, 115.3172
402.6890, 116.5389
403.1711, 118.0032
403.6532, 119.9035
404.1353, 121.7653
404.6174, 123.5432
405.0995, 125.2251
405.5817, 126.8102
406.0638, 128.2876
406.5459, 129.6114
407.0280, 130.7363
407.5101, 131.7311
407.9922, 132.2159
408.4744, 132.1876
408.9565, 131.7289
409.4386, 130.9043
409.9207, 129.6931
410.4028, 127.9949
410.8849, 125.6828
411.3671, 122.8361
411.8492, 120.0086
412.3313, 117.3513
412.8134, 114.5208
413.2955, 111.4422
413.7776, 108.1850
414.2598, 104.7441
414.7419, 101.1360
415.2240, 97.54808
415.7061, 94.28316
416.1882, 91.40162
416.6703, 88.58164
417.1525, 85.72089
417.6346, 83.01225
418.1167, 80.59254
418.5988, 78.40893
419.0809, 76.32520
419.5630, 74.18516
420.0452, 72.06978
420.5273, 70.33249
421.0094, 69.18359
421.4915, 67.99098
421.9736, 66.36027
422.4557, 64.63433
422.9379, 63.20559
423.4200, 62.19654
423.9021, 61.39868
424.3842, 60.66020
424.8663, 59.97626
425.3484, 59.18309
425.8306, 58.17574
426.3127, 57.14001
426.7948, 56.18604
427.2769, 55.32388
427.7590, 54.62772
428.2411, 54.20436
428.7233, 53.93354
429.2054, 53.64223
429.6875, 53.31925
430.1696, 53.01111
430.6517, 52.79040
431.1339, 52.58913
431.6160, 52.21261
432.0981, 51.49391
432.5802, 50.86344
433.0623, 50.67706
433.5444, 50.72083
434.0266, 50.51672
434.5087, 49.90633
434.9908, 49.13344
435.4729, 48.49916
435.9550, 48.01387
436.4371, 47.67760
436.9193, 47.64960
437.4014, 47.64228
437.8835, 47.41500
438.3656, 47.01207
438.8477, 46.66442
439.3298, 46.53568
439.8120, 46.57113
440.2941, 46.47863
440.7762, 46.16676
441.2583, 45.83645
441.7404, 45.40091
442.2225, 45.01152
442.7046, 44.88039
443.1867, 45.03426
443.6689, 45.24989
444.1510, 45.23407
444.6331, 44.93285
445.1152, 44.66970
445.5973, 44.30939
446.0794, 44.12551
446.5616, 44.38985
447.0437, 44.88416
447.5258, 45.18951
448.0079, 45.04290
448.4900, 44.63915
448.9721, 44.49657
449.4543, 44.76471
449.9364, 44.86276
450.4185, 44.41240
450.9006, 43.90665
451.3827, 43.71122
451.8648, 43.85495
452.3470, 44.07360
452.8291, 44.12837
453.3112, 44.07660
453.7933, 44.20324
454.2754, 44.60838
454.7575, 44.98498
455.2397, 45.03391
455.7218, 44.92818
456.2039, 44.97879
456.6860, 45.38097
457.1681, 45.77372
457.6502, 45.75284
458.1324, 45.42660
458.6145, 45.30931
459.0966, 45.61018
459.5787, 46.10594
460.0608, 46.50732
460.5429, 46.82835
461.0251, 47.01526
461.5072, 46.92263
461.9893, 46.78444
462.4714, 46.86592
462.9535, 47.13803
463.4356, 47.32048
463.9178, 47.20568
464.3999, 46.86121
464.8820, 46.65740
465.3641, 46.63663
465.8462, 46.69021
466.3283, 46.86775
466.8105, 47.08008
467.2926, 47.25099
467.7747, 47.35531
468.2568, 47.38001
468.7389, 47.30350
469.2210, 47.11158
469.7032, 46.90540
470.1853, 46.61665
470.6674, 46.38543
471.1495, 46.31393
471.6316, 46.31620
472.1137, 46.24778
472.5959, 46.03584
473.0780, 45.75502
473.5601, 45.52697
474.0422, 45.33886
474.5243, 45.26229
475.0064, 45.46405
475.4886, 45.65706
475.9707, 45.68763
476.4528, 45.55104
476.9349, 45.29209
477.4170, 44.82130
477.8991, 44.27128
478.3813, 43.96834
478.8634, 43.95039
479.3455, 43.94922
479.8276, 43.69268
480.3097, 43.44559
480.7918, 43.73011
481.2740, 44.80980
481.7561, 45.72822
482.2382, 45.83892
482.7203, 45.49773
483.2024, 45.39100
483.6845, 45.66273
484.1666, 45.97652
484.6487, 45.99169
485.1309, 45.69539
485.6130, 45.56486
486.0951, 45.64109
486.5772, 45.82661
487.0593, 46.17200
487.5414, 46.58148
488.0236, 46.84747
488.5057, 46.88885
488.9878, 46.89136
489.4699, 47.20507
489.9520, 48.05468
490.4341, 48.66729
490.9163, 49.00028
491.3984, 49.17807
491.8805, 49.15593
492.3626, 49.02983
492.8447, 49.00218
493.3268, 49.21761
493.8090, 49.57951
494.2911, 49.75950
494.7732, 49.59936
495.2553, 49.68814
495.7374, 50.38369
496.2195, 51.22463
496.7017, 51.92493
497.1838, 52.45324
497.6659, 52.89750
498.1480, 53.32458
498.6301, 53.71003
499.1122, 53.96903
499.5944, 54.08120
500.0765, 54.14323
500.5586, 54.14325
501.0407, 54.15539
501.5228, 54.33837
502.0049, 54.78172
502.4871, 55.21751
502.9692, 55.47080
503.4513, 55.63848
503.9334, 55.92279
504.4155, 56.36852
504.8976, 56.81966
505.3798, 57.10722
505.8619, 57.21974
506.3440, 57.43536
506.8261, 57.91565
507.3082, 58.30951
507.7903, 58.38652
508.2725, 58.32347
508.7546, 58.43506
509.2367, 58.83115
509.7188, 59.29612
510.2009, 59.47300
510.6830, 59.26928
511.1652, 59.09191
511.6473, 58.82579
512.1294, 58.70145
512.6115, 58.94849
513.0936, 59.39048
513.5757, 59.69817
514.0579, 59.71429
514.5400, 59.48385
515.0221, 59.01746
515.5042, 58.26493
515.9863, 57.65186
516.4684, 57.37477
516.9506, 57.16920
517.4327, 56.79951
517.9148, 56.28515
518.3969, 55.79065
518.8790, 55.49292
519.3611, 55.18898
519.8433, 54.55291
520.3254, 53.60611
520.8075, 52.67788
521.2896, 51.87197
521.7717, 51.24137
522.2538, 51.02129
522.7360, 51.46990
523.2181, 51.52791
523.7002, 50.63858
524.1823, 49.55094
524.6644, 49.00759
525.1465, 48.97314
525.6287, 48.84164
526.1108, 48.12875
526.5929, 47.01512
527.0750, 46.45854
527.5571, 46.97998
528.0392, 47.34281
528.5214, 47.30723
529.0035, 47.16768
529.4856, 47.19844
529.9677, 47.40696
530.4498, 47.56480
530.9319, 47.40137
531.4141, 47.00068
531.8962, 46.94104
532.3783, 47.44722
532.8604, 47.77169
533.3425, 47.41879
533.8246, 46.80058
534.3068, 46.27717
534.7889, 45.88688
535.2710, 45.70298
535.7531, 45.92124
536.2352, 46.35003
536.7173, 46.55816
537.1995, 46.47902
537.6816, 46.34925
538.1637, 46.36611
538.6458, 46.48277
539.1279, 46.42504
539.6100, 45.97735
540.0922, 45.63586
540.5743, 45.59854
541.0564, 45.71564
541.5385, 45.86026
542.0206, 45.97982
542.5027, 45.96164
542.9849, 45.63996
543.4670, 45.00021
543.9491, 44.70363
544.4312, 45.06300
544.9133, 45.40969
545.3954, 45.70830
545.8775, 45.88096
546.3596, 45.77014
546.8417, 45.35783
547.3239, 44.94841
547.8060, 44.93582
548.2881, 45.27672
548.7702, 45.45351
549.2523, 45.38828
549.7344, 45.27461
550.2166, 45.26990
550.6987, 45.28316
551.1808, 45.12579
551.6629, 44.63210
552.1450, 44.27976
552.6271, 44.51775
553.1093, 45.08302
553.5914, 45.45317
554.0735, 45.52427
554.5556, 45.39163
555.0377, 45.10527
555.5198, 44.66774
556.0020, 44.32016
556.4841, 44.11988
556.9662, 43.92545
557.4483, 43.60776
557.9304, 43.31652
558.4125, 43.30276
558.8947, 43.59279
559.3768, 43.90089
559.8589, 43.88300
560.3410, 43.52983
560.8231, 43.29129
561.3052, 43.26184
561.7874, 43.21434
562.2695, 43.12571
562.7516, 42.95960
563.2337, 42.63091
563.7158, 42.10898
564.1979, 41.60939
564.6801, 41.39890
565.1622, 41.36436
565.6443, 41.02763
566.1264, 40.23790
566.6085, 39.69649
567.0906, 40.06427
567.5728, 41.05245
568.0549, 41.50797
568.5370, 41.12326
569.0191, 40.69606
569.5012, 40.40623
569.9833, 40.26665
570.4655, 40.38218
570.9476, 40.72099
571.4297, 40.99277
571.9118, 40.90971
572.3939, 40.51215
572.8760, 40.32467
573.3582, 40.45583
573.8403, 40.66309
574.3224, 41.02124
574.8045, 41.36780
575.2866, 41.56917
575.7687, 41.60579
576.2509, 41.52814
576.7330, 41.30622
577.2151, 41.00494
577.6972, 40.91281
578.1793, 41.08995
578.6614, 41.21001
579.1436, 41.04134
579.6257, 40.79387
580.1078, 40.81396
580.5899, 41.16911
581.0720, 41.41938
581.5541, 41.34989
582.0363, 41.12165
582.5184, 40.81837
583.0005, 40.49824
583.4826, 40.41468
583.9647, 40.76731
584.4468, 41.34521
584.9290, 41.51897
585.4111, 40.77598
