##NAMES=Fluorophlogopite
##RRUFFID=R040039
##IDEAL CHEMISTRY=KMg_3_(Si_3_Al)O_10_F_2_
##LOCALITY=Franklin, Sussex County, New Jersey, USA
##OWNER=RRUFF
##SOURCE=University of Arizona Mineral Museum
##DESCRIPTION=Brown hexagonal sheets
##STATUS=The identification of this mineral has been confirmed by X-ray diffraction and chemical analysis
##URL=rruff.info/R040039
##MEASURED CHEMISTRY=(K_0.92_Na_0.06_[box]_0.02_)_Σ=1_(Mg_2.94_Fe_0.04_Ti_0.02_)_Σ=3_(Si_2.98_Al_1.02_)O_10_(F_1.24_(OH)_0.76_)_Σ=2_; OH estimated by charge balance
163.4723, 5215.191
163.9544, 5257.247
164.4365, 5300.486
164.9186, 5350.294
165.4007, 5411.229
165.8829, 5483.270
166.3650, 5563.018
166.8471, 5655.518
167.3292, 5752.745
167.8113, 5834.945
168.2934, 5895.221
168.7756, 5943.287
169.2577, 5987.027
169.7398, 6026.590
170.2219, 6060.423
170.7040, 6084.776
171.1861, 6102.937
171.6683, 6121.961
172.1504, 6140.173
172.6325, 6161.655
173.1146, 6190.253
173.5967, 6226.061
174.0788, 6269.386
174.5610, 6331.698
175.0431, 6400.489
175.5252, 6451.470
176.0073, 6463.072
176.4894, 6466.399
176.9715, 6494.098
177.4537, 6545.418
177.9358, 6626.324
178.4179, 6778.575
178.9000, 6956.644
179.3821, 7085.992
179.8642, 7112.299
180.3464, 7106.568
180.8285, 7161.330
181.3106, 7281.830
181.7927, 7436.945
182.2748, 7623.438
182.7569, 7832.381
183.2391, 8054.071
183.7212, 8278.927
184.2033, 8519.383
184.6854, 8793.440
185.1675, 9102.963
185.6496, 9435.630
186.1318, 9773.444
186.6139, 10131.45
187.0960, 10539.43
187.5781, 11016.18
188.0602, 11536.73
188.5423, 12075.37
189.0245, 12628.59
189.5066, 13200.40
189.9887, 13796.41
190.4708, 14407.40
190.9529, 15036.80
191.4350, 15699.50
191.9172, 16359.12
192.3993, 16978.71
192.8814, 17565.69
193.3635, 18074.98
193.8456, 18513.11
194.3277, 18853.99
194.8099, 19049.15
195.2920, 19082.43
195.7741, 18966.99
196.2562, 18712.79
196.7383, 18310.50
197.2204, 17803.10
197.7026, 17153.62
198.1847, 16425.63
198.6668, 15667.04
199.1489, 14869.45
199.6310, 14072.07
200.1131, 13310.33
200.5953, 12582.92
201.0774, 11911.12
201.5595, 11322.11
202.0416, 10791.40
202.5237, 10314.78
203.0058, 9891.800
203.4880, 9514.355
203.9701, 9171.317
204.4522, 8860.793
204.9343, 8590.276
205.4164, 8385.596
205.8985, 8216.084
206.3807, 8057.342
206.8628, 7903.783
207.3449, 7758.570
207.8270, 7621.777
208.3091, 7491.933
208.7912, 7383.342
209.2734, 7315.437
209.7555, 7265.012
210.2376, 7211.025
210.7197, 7147.938
211.2018, 7087.250
211.6839, 7041.563
212.1661, 7011.326
212.6482, 6986.265
213.1303, 6953.967
213.6124, 6933.061
214.0945, 6942.251
214.5766, 6985.851
215.0588, 7048.431
215.5409, 7140.687
216.0230, 7261.791
216.5051, 7314.382
216.9872, 7227.051
217.4693, 7090.458
217.9515, 6992.413
218.4336, 6942.982
218.9157, 6899.728
219.3978, 6825.425
219.8799, 6723.386
220.3620, 6632.148
220.8442, 6566.246
221.3263, 6508.989
221.8084, 6438.328
222.2905, 6352.456
222.7726, 6279.969
223.2547, 6247.454
223.7369, 6247.793
224.2190, 6239.259
224.7011, 6207.513
225.1832, 6172.670
225.6653, 6155.045
226.1474, 6153.851
226.6296, 6153.158
227.1117, 6141.160
227.5938, 6122.297
228.0759, 6112.989
228.5580, 6121.673
229.0401, 6129.785
229.5223, 6117.699
230.0044, 6088.299
230.4865, 6059.476
230.9686, 6035.078
231.4507, 6017.150
231.9328, 6014.778
232.4150, 6036.623
232.8971, 6054.266
233.3792, 6033.105
233.8613, 5983.684
234.3434, 5943.731
234.8255, 5925.936
235.3077, 5924.735
235.7898, 5937.487
236.2719, 5968.063
236.7540, 5992.088
237.2361, 5981.317
237.7182, 5946.307
238.2004, 5921.794
238.6825, 5922.712
239.1646, 5933.048
239.6467, 5935.914
240.1288, 5930.542
240.6109, 5922.960
241.0931, 5916.812
241.5752, 5911.726
242.0573, 5906.047
242.5394, 5899.212
243.0215, 5892.157
243.5036, 5886.530
243.9858, 5882.038
244.4679, 5875.056
244.9500, 5861.942
245.4321, 5845.218
245.9142, 5833.960
246.3963, 5829.188
246.8785, 5828.607
247.3606, 5833.155
247.8427, 5841.387
248.3248, 5846.797
248.8069, 5843.037
249.2890, 5837.656
249.7712, 5853.683
250.2533, 5907.904
250.7354, 5953.271
251.2175, 5967.331
251.6996, 5960.799
252.1817, 5953.362
252.6639, 5951.343
253.1460, 5955.131
253.6281, 5966.830
254.1102, 5988.824
254.5923, 6011.940
255.0744, 6035.616
255.5566, 6059.253
256.0387, 6081.855
256.5208, 6103.049
257.0029, 6123.526
257.4850, 6143.315
257.9671, 6158.161
258.4492, 6184.470
258.9314, 6225.120
259.4135, 6276.038
259.8956, 6340.645
260.3777, 6417.240
260.8598, 6487.577
261.3419, 6527.787
261.8241, 6521.301
262.3062, 6557.023
262.7883, 6667.088
263.2704, 6787.446
263.7525, 6876.032
264.2346, 6936.534
264.7168, 7004.293
265.1989, 7110.625
265.6810, 7258.714
266.1631, 7399.868
266.6452, 7520.453
267.1273, 7649.807
267.6095, 7795.815
268.0916, 7958.965
268.5737, 8137.182
269.0558, 8328.197
269.5379, 8534.422
270.0201, 8763.628
270.5022, 9038.631
270.9843, 9315.256
271.4664, 9582.941
271.9485, 9850.146
272.4306, 10128.71
272.9128, 10422.98
273.3949, 10731.39
273.8770, 11049.26
274.3591, 11405.40
274.8412, 11721.46
275.3233, 11998.07
275.8055, 12231.95
276.2876, 12432.12
276.7697, 12599.48
277.2518, 12702.89
277.7339, 12690.92
278.2160, 12542.56
278.6982, 12338.64
279.1803, 12077.62
279.6624, 11771.36
280.1445, 11404.09
280.6266, 10984.11
281.1087, 10557.58
281.5909, 10163.91
282.0730, 9802.705
282.5551, 9472.749
283.0372, 9179.755
283.5193, 8912.110
284.0014, 8668.326
284.4836, 8444.984
284.9657, 8233.925
285.4478, 8023.980
285.9299, 7820.839
286.4120, 7657.820
286.8941, 7544.672
287.3763, 7454.724
287.8584, 7383.996
288.3405, 7323.770
288.8226, 7258.910
289.3047, 7177.182
289.7868, 7093.969
290.2690, 7035.297
290.7511, 7004.379
291.2332, 6975.815
291.7153, 6938.611
292.1974, 6896.306
292.6795, 6853.010
293.1617, 6806.315
293.6438, 6764.331
294.1259, 6735.703
294.6080, 6718.759
295.0901, 6701.846
295.5722, 6678.222
296.0544, 6656.148
296.5365, 6648.543
297.0186, 6656.875
297.5007, 6669.967
297.9828, 6681.267
298.4649, 6694.724
298.9471, 6718.361
299.4292, 6754.884
299.9113, 6798.109
300.3934, 6840.637
300.8755, 6881.903
301.3576, 6928.110
301.8398, 6977.282
302.3219, 7033.259
302.8040, 7101.016
303.2861, 7180.269
303.7682, 7264.444
304.2503, 7347.924
304.7325, 7430.520
305.2146, 7524.251
305.6967, 7627.187
306.1788, 7741.020
306.6609, 7874.513
307.1430, 8020.239
307.6252, 8163.479
308.1073, 8295.338
308.5894, 8417.485
309.0715, 8534.126
309.5536, 8633.544
310.0357, 8742.886
310.5179, 8873.732
311.0000, 9012.334
311.4821, 9144.123
311.9642, 9264.407
312.4463, 9377.354
312.9284, 9488.919
313.4106, 9597.218
313.8927, 9708.429
314.3748, 9838.184
314.8569, 9959.625
315.3390, 10047.59
315.8211, 10105.43
316.3033, 10162.87
316.7854, 10257.61
317.2675, 10393.41
317.7496, 10490.48
318.2317, 10515.86
318.7138, 10535.28
319.1960, 10576.42
319.6781, 10631.07
320.1602, 10680.84
320.6423, 10719.09
321.1244, 10742.75
321.6065, 10742.47
322.0887, 10715.09
322.5708, 10671.54
323.0529, 10614.89
323.5350, 10544.92
324.0171, 10459.51
324.4992, 10357.14
324.9814, 10241.71
325.4635, 10116.52
325.9456, 9980.731
326.4277, 9836.138
326.9098, 9679.328
327.3919, 9517.643
327.8741, 9357.149
328.3562, 9196.391
328.8383, 9048.649
329.3204, 8924.229
329.8025, 8815.853
330.2846, 8716.368
330.7668, 8628.153
331.2489, 8528.214
331.7310, 8385.632
332.2131, 8199.775
332.6952, 8037.031
333.1773, 7906.239
333.6595, 7797.013
334.1416, 7712.934
334.6237, 7648.084
335.1058, 7580.276
335.5879, 7493.984
336.0700, 7393.180
336.5522, 7305.804
337.0343, 7237.452
337.5164, 7173.947
337.9985, 7111.125
338.4806, 7051.784
338.9627, 6999.562
339.4449, 6956.011
339.9270, 6919.514
340.4091, 6888.197
340.8912, 6870.738
341.3733, 6841.696
341.8554, 6789.980
342.3376, 6736.807
342.8197, 6690.768
343.3018, 6655.666
343.7839, 6636.324
344.2660, 6641.576
344.7481, 6672.211
345.2303, 6692.316
345.7124, 6694.091
346.1945, 6693.519
346.6766, 6696.995
347.1587, 6701.883
347.6408, 6702.316
348.1230, 6693.142
348.6051, 6681.578
349.0872, 6682.404
349.5693, 6697.399
350.0514, 6717.587
350.5335, 6739.347
351.0157, 6765.632
351.4978, 6800.376
351.9799, 6845.099
352.4620, 6892.972
352.9441, 6942.572
353.4262, 6992.027
353.9084, 7031.052
354.3905, 7053.401
354.8726, 7074.298
355.3547, 7114.309
355.8368, 7170.959
356.3189, 7220.939
356.8011, 7258.204
357.2832, 7287.247
357.7653, 7311.347
358.2474, 7330.983
358.7295, 7346.716
359.2116, 7356.679
359.6938, 7363.145
360.1759, 7383.266
360.6580, 7434.830
361.1401, 7477.225
361.6222, 7490.853
362.1043, 7489.748
362.5865, 7497.856
363.0686, 7524.208
363.5507, 7554.569
364.0328, 7561.738
364.5149, 7527.934
364.9970, 7505.814
365.4792, 7505.325
365.9613, 7506.753
366.4434, 7495.946
366.9255, 7473.909
367.4076, 7452.134
367.8897, 7441.284
368.3719, 7440.522
368.8540, 7434.899
369.3361, 7425.789
369.8182, 7409.007
370.3003, 7391.721
370.7824, 7364.486
371.2646, 7310.077
371.7467, 7216.216
372.2288, 7110.274
372.7109, 7035.429
373.1930, 6994.846
373.6751, 6947.584
374.1573, 6877.512
374.6394, 6800.934
375.1215, 6735.074
375.6036, 6680.768
376.0857, 6626.584
376.5678, 6565.474
377.0500, 6500.984
377.5321, 6436.210
378.0142, 6369.734
378.4963, 6318.039
378.9784, 6302.488
379.4605, 6319.361
379.9427, 6313.957
380.4248, 6269.042
380.9069, 6217.901
381.3890, 6171.061
381.8711, 6131.531
382.3532, 6109.001
382.8354, 6110.162
383.3175, 6119.563
383.7996, 6100.843
384.2817, 6024.228
384.7638, 5961.359
385.2459, 5910.706
385.7281, 5874.543
386.2102, 5858.953
386.6923, 5861.747
387.1744, 5871.576
387.6565, 5878.072
388.1386, 5881.155
388.6208, 5883.964
389.1029, 5891.427
389.5850, 5892.113
390.0671, 5875.928
390.5492, 5852.792
391.0313, 5837.606
391.5135, 5837.591
391.9956, 5845.319
392.4777, 5852.005
392.9598, 5858.507
393.4419, 5854.580
393.9240, 5825.174
394.4062, 5795.402
394.8883, 5794.009
395.3704, 5821.813
395.8525, 5843.379
396.3346, 5837.018
396.8167, 5814.529
397.2989, 5796.537
397.7810, 5785.461
398.2631, 5771.979
398.7452, 5746.389
399.2273, 5711.400
399.7094, 5688.513
400.1916, 5685.619
400.6737, 5686.024
401.1558, 5688.517
401.6379, 5688.506
402.1200, 5676.285
402.6021, 5647.921
403.0843, 5611.425
403.5664, 5580.041
404.0485, 5548.224
404.5306, 5535.350
405.0127, 5559.339
405.4948, 5584.546
405.9770, 5586.742
406.4591, 5569.957
406.9412, 5555.290
407.4233, 5560.438
407.9054, 5580.033
408.3875, 5584.127
408.8697, 5567.527
409.3518, 5544.536
409.8339, 5512.174
410.3160, 5479.564
410.7981, 5455.627
411.2802, 5442.221
411.7624, 5438.559
412.2445, 5449.553
412.7266, 5471.723
413.2087, 5485.263
413.6908, 5484.974
414.1729, 5478.702
414.6551, 5468.659
415.1372, 5456.667
415.6193, 5456.538
416.1014, 5485.822
416.5835, 5516.267
417.0656, 5521.743
417.5478, 5506.958
418.0299, 5494.469
418.5120, 5496.723
418.9941, 5506.444
419.4762, 5503.111
419.9583, 5470.252
420.4405, 5447.664
420.9226, 5440.956
421.4047, 5442.077
421.8868, 5446.754
422.3689, 5453.015
422.8510, 5457.639
423.3332, 5456.388
423.8153, 5449.464
424.2974, 5450.585
424.7795, 5468.356
425.2616, 5482.651
425.7437, 5486.583
426.2259, 5484.318
426.7080, 5479.825
427.1901, 5473.534
427.6722, 5470.451
428.1543, 5477.249
428.6364, 5493.533
429.1186, 5513.627
429.6007, 5540.747
430.0828, 5564.925
430.5649, 5575.378
431.0470, 5573.760
431.5291, 5569.336
432.0113, 5561.611
432.4934, 5554.256
432.9755, 5549.225
433.4576, 5547.219
433.9397, 5547.952
434.4218, 5520.919
434.9040, 5583.716
435.3861, 5623.296
435.8682, 5640.907
436.3503, 5570.751
436.8324, 5613.928
437.3145, 5611.687
437.7967, 5607.584
438.2788, 5666.713
438.7609, 5634.511
439.2430, 5641.807
439.7251, 5647.602
440.2072, 5654.743
440.6894, 5663.750
441.1715, 5673.394
441.6536, 5680.454
442.1357, 5688.922
442.6178, 5705.090
443.0999, 5731.807
443.5821, 5759.913
444.0642, 5776.716
444.5463, 5784.602
445.0284, 5804.531
445.5105, 5848.101
445.9926, 5888.469
446.4748, 5890.609
446.9569, 5862.243
447.4390, 5847.828
447.9211, 5867.980
448.4032, 5893.223
448.8853, 5901.726
449.3675, 5897.591
449.8496, 5893.822
450.3317, 5895.924
450.8138, 5904.278
451.2959, 5920.879
451.7780, 5963.250
452.2602, 5981.461
452.7423, 5962.666
453.2244, 5931.873
453.7065, 5901.213
454.1886, 5873.065
454.6707, 5846.939
455.1529, 5822.938
455.6350, 5800.469
456.1171, 5777.735
456.5992, 5755.690
457.0813, 5730.772
457.5634, 5695.622
458.0455, 5660.234
458.5276, 5634.768
459.0098, 5620.917
459.4919, 5608.566
459.9740, 5591.266
460.4561, 5570.784
460.9382, 5550.162
461.4203, 5529.436
461.9025, 5511.808
462.3846, 5500.882
462.8667, 5495.479
463.3488, 5485.980
463.8309, 5472.748
464.3130, 5455.562
464.7952, 5431.701
465.2773, 5404.972
465.7594, 5381.383
466.2415, 5362.258
466.7236, 5342.906
467.2057, 5316.661
467.6879, 5281.875
468.1700, 5251.850
468.6521, 5234.942
469.1342, 5213.925
469.6163, 5179.725
470.0984, 5138.894
470.5806, 5100.188
471.0627, 5066.190
471.5448, 5040.005
472.0269, 5031.524
472.5090, 5039.092
472.9911, 5034.159
473.4733, 5004.337
473.9554, 4970.849
474.4375, 4960.230
474.9196, 4968.586
475.4017, 4967.802
475.8839, 4942.535
476.3660, 4915.389
476.8481, 4901.108
477.3302, 4898.449
477.8123, 4903.789
478.2944, 4916.076
478.7766, 4931.135
479.2587, 4939.528
479.7408, 4932.958
480.2229, 4937.440
480.7050, 4967.789
481.1871, 4994.396
481.6693, 4998.146
482.1514, 4983.766
482.6335, 4966.919
483.1156, 4956.220
483.5977, 4950.626
484.0798, 4948.560
484.5620, 4950.550
485.0441, 4952.634
485.5262, 4951.261
486.0083, 4951.757
486.4904, 4958.568
486.9725, 4971.697
487.4547, 4991.268
487.9368, 5030.928
488.4189, 5068.579
488.9010, 5072.854
489.3831, 5047.220
489.8652, 5022.964
490.3474, 5017.550
490.8295, 5026.602
491.3116, 5036.876
491.7937, 5049.659
492.2758, 5061.957
492.7579, 5077.357
493.2401, 5089.553
493.7222, 5090.018
494.2043, 5081.680
494.6864, 5078.112
495.1685, 5091.962
495.6506, 5117.186
496.1328, 5129.475
496.6149, 5123.780
497.0970, 5122.098
497.5791, 5142.346
498.0612, 5163.018
498.5433, 5156.515
499.0255, 5118.334
499.5076, 5089.907
499.9897, 5098.343
500.4718, 5123.875
500.9539, 5141.527
501.4360, 5149.465
501.9182, 5154.109
502.4003, 5159.611
502.8824, 5164.821
503.3645, 5165.023
503.8466, 5144.201
504.3287, 5139.883
504.8109, 5166.176
505.2930, 5200.744
505.7751, 5228.303
506.2572, 5246.277
506.7393, 5257.791
507.2214, 5263.027
507.7036, 5264.491
508.1857, 5274.051
508.6678, 5295.330
509.1499, 5313.261
509.6320, 5325.171
510.1141, 5328.940
510.5963, 5317.753
511.0784, 5288.721
511.5605, 5269.264
512.0426, 5281.767
512.5247, 5305.194
513.0068, 5314.856
513.4890, 5308.748
513.9711, 5289.723
514.4532, 5257.071
514.9353, 5216.077
515.4174, 5187.563
515.8995, 5183.807
516.3817, 5175.994
516.8638, 5168.063
517.3459, 5152.333
517.8280, 5115.693
518.3101, 5063.568
518.7922, 5019.163
519.2744, 4974.369
519.7565, 5004.037
520.2386, 5016.820
520.7207, 5013.625
521.2028, 4946.600
521.6849, 4962.000
522.1671, 4944.365
522.6492, 4925.378
523.1313, 4952.378
523.6134, 4894.637
524.0955, 4920.908
524.5776, 4913.643
525.0598, 4921.724
525.5419, 4896.572
526.0240, 4895.079
526.5061, 4897.000
526.9882, 4892.170
527.4703, 4879.084
527.9525, 4847.183
528.4346, 4827.272
528.9167, 4837.917
529.3988, 4843.351
529.8809, 4815.336
530.3630, 4764.265
530.8452, 4722.177
531.3273, 4706.781
531.8094, 4709.877
532.2915, 4727.222
532.7736, 4758.133
533.2557, 4763.450
533.7379, 4719.889
534.2200, 4667.478
534.7021, 4659.168
535.1842, 4695.922
535.6663, 4724.652
536.1484, 4735.144
536.6306, 4740.571
537.1127, 4749.882
537.5948, 4759.592
538.0769, 4761.343
538.5590, 4751.794
539.0411, 4736.153
539.5233, 4721.463
540.0054, 4706.932
540.4875, 4697.683
540.9696, 4698.435
541.4517, 4699.185
541.9338, 4695.121
542.4160, 4688.338
542.8981, 4682.192
543.3802, 4677.321
543.8623, 4674.525
544.3444, 4676.014
544.8265, 4680.059
545.3087, 4682.951
545.7908, 4684.183
546.2729, 4681.308
546.7550, 4671.663
547.2371, 4655.486
547.7192, 4638.798
548.2014, 4612.636
548.6835, 4596.981
549.1656, 4602.910
549.6477, 4617.061
550.1298, 4625.984
550.6119, 4627.492
551.0941, 4628.442
551.5762, 4637.001
552.0583, 4650.475
552.5404, 4655.360
553.0225, 4650.897
553.5046, 4640.581
553.9868, 4621.870
554.4689, 4600.630
554.9510, 4584.146
555.4331, 4571.486
555.9152, 4568.819
556.3973, 4583.897
556.8795, 4605.707
557.3616, 4630.151
557.8437, 4652.751
558.3258, 4660.418
558.8079, 4644.756
559.2900, 4615.140
559.7722, 4593.631
560.2543, 4580.345
560.7364, 4574.855
561.2185, 4587.087
561.7006, 4598.146
562.1827, 4595.353
562.6649, 4584.044
563.1470, 4579.823
563.6291, 4594.487
564.1112, 4609.542
564.5933, 4603.333
565.0754, 4580.639
565.5576, 4558.405
566.0397, 4540.563
566.5218, 4525.035
567.0039, 4508.430
567.4860, 4490.233
567.9681, 4484.802
568.4503, 4501.202
568.9324, 4517.670
569.4145, 4534.387
569.8966, 4545.369
570.3787, 4540.528
570.8608, 4519.829
571.3430, 4498.565
571.8251, 4493.210
572.3072, 4500.090
572.7893, 4502.844
573.2714, 4501.603
573.7535, 4494.950
574.2357, 4477.177
574.7178, 4457.213
575.1999, 4451.547
575.6820, 4462.923
576.1641, 4475.210
576.6462, 4495.581
577.1284, 4506.701
577.6105, 4481.997
578.0926, 4435.483
578.5747, 4408.229
579.0568, 4421.939
579.5389, 4458.791
580.0211, 4485.188
580.5032, 4500.697
580.9853, 4507.161
581.4674, 4498.886
581.9495, 4488.337
582.4316, 4481.685
582.9138, 4478.204
583.3959, 4477.012
583.8780, 4481.784
584.3601, 4481.578
584.8422, 4461.108
585.3243, 4432.905
585.8065, 4419.950
586.2886, 4425.989
586.7707, 4442.312
587.2528, 4463.137
587.7349, 4487.221
588.2170, 4503.753
588.6992, 4515.448
589.1813, 4514.535
589.6634, 4484.440
590.1455, 4454.438
590.6276, 4450.051
591.1097, 4469.416
591.5919, 4489.151
592.0740, 4493.295
592.5561, 4491.737
593.0382, 4501.627
593.5203, 4520.337
594.0024, 4530.960
594.4846, 4527.654
594.9667, 4514.548
595.4488, 4493.384
595.9309, 4458.965
596.4130, 4449.897
596.8951, 4486.585
597.3773, 4521.927
597.8594, 4543.018
598.3415, 4552.770
598.8236, 4553.873
599.3057, 4547.680
599.7878, 4539.964
600.2700, 4534.472
600.7521, 4531.975
601.2342, 4534.831
601.7163, 4542.931
602.1984, 4559.766
602.6805, 4594.222
603.1627, 4632.112
603.6448, 4641.003
604.1269, 4610.712
604.6090, 4586.847
605.0911, 4569.376
605.5732, 4563.698
606.0554, 4577.851
606.5375, 4605.808
607.0196, 4637.772
607.5017, 4669.747
607.9838, 4696.018
608.4659, 4704.586
608.9481, 4695.822
609.4302, 4694.297
609.9123, 4702.103
610.3944, 4717.333
610.8765, 4747.987
611.3586, 4783.313
611.8408, 4792.999
612.3229, 4754.901
612.8050, 4733.858
613.2871, 4764.613
613.7692, 4809.813
614.2513, 4834.216
614.7335, 4838.423
615.2156, 4839.726
615.6977, 4847.917
616.1798, 4864.159
616.6619, 4893.513
617.1440, 4938.721
617.6262, 4980.161
618.1083, 5017.939
618.5904, 5046.993
619.0725, 5053.866
619.5546, 5048.627
620.0367, 5060.876
620.5189, 5108.668
621.0010, 5155.761
621.4831, 5179.339
621.9652, 5195.574
622.4473, 5228.066
622.9294, 5277.650
623.4116, 5324.801
623.8937, 5352.937
624.3758, 5368.935
624.8579, 5400.324
625.3400, 5451.436
625.8221, 5503.374
626.3043, 5553.839
626.7864, 5602.995
627.2685, 5652.706
627.7506, 5701.823
628.2327, 5745.042
628.7148, 5771.861
629.1970, 5801.763
629.6791, 5847.893
630.1612, 5904.567
630.6433, 5965.043
631.1254, 6026.656
631.6075, 6083.979
632.0897, 6132.546
632.5718, 6172.584
633.0539, 6204.590
633.5360, 6226.168
634.0181, 6245.427
634.5002, 6261.305
634.9824, 6277.810
635.4645, 6298.808
635.9466, 6323.661
636.4287, 6347.310
636.9108, 6368.420
637.3929, 6387.433
637.8751, 6404.801
638.3572, 6420.229
638.8393, 6435.860
639.3214, 6451.220
639.8035, 6455.887
640.2856, 6435.954
640.7678, 6395.253
641.2499, 6375.863
641.7320, 6393.763
642.2141, 6396.905
642.6962, 6355.216
643.1783, 6305.930
643.6605, 6275.892
644.1426, 6265.976
644.6247, 6271.567
645.1068, 6306.599
645.5889, 6342.050
646.0710, 6353.063
646.5532, 6349.952
647.0353, 6354.008
647.5174, 6370.474
647.9995, 6389.145
648.4816, 6400.032
648.9637, 6403.234
649.4459, 6397.394
649.9280, 6372.511
650.4101, 6362.889
650.8922, 6390.296
651.3743, 6427.483
651.8564, 6448.349
652.3386, 6453.646
652.8207, 6464.824
653.3028, 6488.517
653.7849, 6519.508
654.2670, 6555.258
654.7491, 6595.381
655.2313, 6641.535
655.7134, 6693.202
656.1955, 6744.071
656.6776, 6786.663
