##NAMES=Fluorapatite
##RRUFFID=R060333
##IDEAL CHEMISTRY=Ca_5_(PO_4_)_3_F
##LOCALITY=Lovozero Massif, Kola Peninsula, U.S.S.R.
##OWNER=RRUFF
##SOURCE=Michael Scott
##DESCRIPTION=Colorless fragment associated with red villiaumite
##STATUS=The identification of this mineral has been confirmed by X-ray diffraction and chemical analysis
##URL=rruff.info/R060333
##MEASURED CHEMISTRY=(Ca_4.29_Sr_0.47_Na_0.12_Ce_0.07_La_0.06_)_Σ=5_((P_0.99_Si_0.01_)_Σ=1_O_4_)_3_F_1.00_
122.486, 44655.441
122.968, 44885.559
123.450, 45095.180
123.932, 45282.512
124.414, 45415.820
124.897, 45542.500
125.379, 45716.391
125.861, 45937.211
126.343, 46187.590
126.825, 46443.359
127.307, 46714.488
127.789, 47030.629
128.271, 47423.660
128.753, 47869.230
129.236, 48311.340
129.718, 48744.539
130.200, 49180.309
130.682, 49642.660
131.164, 50126.000
131.646, 50606.738
132.128, 51071.109
132.610, 51516.172
133.093, 51953.891
133.575, 52393.070
134.057, 52818.359
134.539, 53204.660
135.021, 53551.539
135.503, 53855.590
135.985, 54101.660
136.467, 54288.148
136.949, 54455.961
137.432, 54616.059
137.914, 54767.898
138.396, 54893.359
138.878, 54991.191
139.360, 55064.461
139.842, 55113.949
140.324, 55136.012
140.806, 55147.941
141.288, 55146.539
141.771, 55119.031
142.253, 55147.340
142.735, 55252.410
143.217, 55405.809
143.699, 55533.781
144.181, 55614.891
144.663, 55704.461
145.145, 55833.531
145.628, 56033.629
146.110, 56205.730
146.592, 56326.539
147.074, 56405.531
147.556, 56510.211
148.038, 56648.828
148.520, 56803.941
149.002, 56961.719
149.484, 57124.199
149.967, 57287.430
150.449, 57463.000
150.931, 57658.180
151.413, 57802.762
151.895, 57875.391
152.377, 57909.910
152.859, 57936.852
153.342, 57970.250
153.824, 57992.328
154.306, 58000.359
154.788, 57994.941
155.270, 57987.809
155.752, 57987.250
156.234, 57989.219
156.716, 57985.930
157.198, 57915.039
157.680, 57887.289
158.163, 57960.719
158.645, 58206.609
159.127, 58433.039
159.609, 58564.781
160.091, 58632.328
160.573, 58722.820
161.055, 58848.359
161.538, 59009.391
162.020, 59205.871
162.502, 59476.191
162.984, 59732.820
163.466, 59932.520
163.948, 60079.539
164.430, 60214.789
164.912, 60351.328
165.394, 60485.371
165.876, 60613.039
166.359, 60747.789
166.841, 60866.109
167.323, 60948.352
167.805, 60995.422
168.287, 61040.738
168.769, 61100.531
169.251, 61175.148
169.733, 61264.719
170.216, 61401.852
170.698, 61538.719
171.180, 61624.320
171.662, 61647.898
172.144, 61673.031
172.626, 61754.410
173.108, 61876.852
173.590, 62005.551
174.072, 62126.371
174.555, 62240.910
175.037, 62355.090
175.519, 62472.949
176.001, 62581.109
176.483, 62654.871
176.965, 62701.352
177.447, 62749.988
177.929, 62828.539
178.412, 62920.398
178.894, 62994.340
179.376, 63036.551
179.858, 63066.172
180.340, 63108.949
180.822, 63163.840
181.304, 63220.570
181.786, 63274.602
182.268, 63324.461
182.751, 63363.328
183.233, 63373.160
183.715, 63379.301
184.197, 63435.430
184.679, 63543.020
185.161, 63671.891
185.643, 63811.020
186.125, 63951.762
186.607, 64065.000
187.090, 64121.398
187.572, 64140.410
188.054, 64179.539
188.536, 64236.770
189.018, 64319.609
189.500, 64450.379
189.982, 64623.430
190.464, 64793.051
190.947, 64936.090
191.429, 65057.270
191.911, 65175.762
192.393, 65291.430
192.875, 65407.180
193.357, 65528.441
193.839, 65654.094
194.321, 65787.023
194.803, 65924.523
195.286, 66067.742
195.768, 66243.891
196.250, 66462.852
196.732, 66705.297
197.214, 66931.633
197.696, 67139.102
198.178, 67352.508
198.661, 67583.641
199.143, 67832.703
199.625, 68120.781
200.107, 68467.102
200.589, 68848.352
201.071, 69200.938
201.553, 69528.523
202.035, 69817.773
202.517, 70043.617
202.999, 70193.703
203.482, 70379.680
203.964, 70639.641
204.446, 70947.750
204.928, 71161.352
205.410, 71256.133
205.892, 71307.930
206.374, 71386.539
206.857, 71500.906
207.339, 71592.062
207.821, 71661.273
208.303, 71703.594
208.785, 71643.070
209.267, 71463.406
209.749, 71208.781
210.231, 70912.891
210.713, 70557.508
211.195, 70229.953
211.678, 69960.383
212.160, 69752.570
212.642, 69545.633
213.124, 69331.211
213.606, 69131.453
214.088, 68981.227
214.570, 68892.883
215.052, 68821.727
215.535, 68754.258
216.017, 68688.773
216.499, 68628.047
216.981, 68558.273
217.463, 68500.594
217.945, 68496.000
218.427, 68561.883
218.909, 68634.273
219.391, 68681.570
219.874, 68684.547
220.356, 68733.562
220.838, 68857.969
221.320, 69010.289
221.802, 69079.203
222.284, 69018.891
222.766, 68963.438
223.248, 68977.359
223.731, 69102.422
224.213, 69191.641
224.695, 69234.539
225.177, 69248.422
225.659, 69280.578
226.141, 69346.727
226.623, 69409.609
227.105, 69445.688
227.587, 69429.039
228.070, 69451.492
228.552, 69538.742
229.034, 69665.133
229.516, 69729.680
229.998, 69697.898
230.480, 69649.094
230.962, 69627.297
231.444, 69645.102
231.926, 69659.680
232.409, 69674.852
232.891, 69685.453
233.373, 69665.719
233.855, 69613.047
234.337, 69533.773
234.819, 69426.789
235.301, 69268.078
235.783, 69131.617
236.266, 69030.828
236.748, 68961.641
237.230, 68889.133
237.712, 68810.469
238.194, 68732.219
238.676, 68657.203
239.158, 68573.898
239.640, 68520.039
240.122, 68516.492
240.605, 68557.062
241.087, 68550.523
241.569, 68448.938
242.051, 68353.594
242.533, 68355.750
243.015, 68523.453
243.497, 68651.242
243.980, 68686.141
244.462, 68630.844
244.944, 68646.523
245.426, 68754.547
245.908, 68906.969
246.390, 69069.250
246.872, 69263.289
247.354, 69411.953
247.836, 69484.539
248.318, 69479.781
248.801, 69498.328
249.283, 69546.703
249.765, 69608.938
250.247, 69669.594
250.729, 69721.594
251.211, 69789.930
251.693, 69894.453
252.176, 70040.633
252.658, 70130.867
253.140, 70152.703
253.622, 70139.359
254.104, 70114.250
254.586, 70046.141
255.068, 70046.922
255.550, 70166.773
256.032, 70414.758
256.514, 70595.852
256.997, 70681.594
257.479, 70733.312
257.961, 70818.391
258.443, 70947.703
258.925, 71084.789
259.407, 71226.289
259.889, 71370.398
260.371, 71491.477
260.854, 71567.406
261.336, 71640.531
261.818, 71765.117
262.300, 71953.688
262.782, 72156.141
263.264, 72367.961
263.746, 72592.383
264.228, 72768.773
264.711, 72881.180
265.193, 72966.203
265.675, 73070.320
266.157, 73197.688
266.639, 73329.852
267.121, 73467.109
267.603, 73611.094
268.085, 73714.539
268.567, 73756.641
269.050, 73791.461
269.532, 73892.742
270.014, 74079.406
270.496, 74266.508
270.978, 74430.344
271.460, 74572.219
271.942, 74696.906
272.424, 74798.391
272.906, 74895.078
273.389, 75009.703
273.871, 75143.594
274.353, 75291.094
274.835, 75442.508
275.317, 75599.320
275.799, 75817.023
276.281, 76117.711
276.763, 76426.797
277.246, 76643.094
277.728, 76753.727
278.210, 76860.078
278.692, 76992.461
279.174, 77146.539
279.656, 77293.977
280.138, 77432.188
280.620, 77566.617
281.103, 77711.250
281.585, 77867.133
282.067, 77994.828
282.549, 78071.594
283.031, 78105.344
283.513, 78159.656
283.995, 78241.539
284.477, 78315.367
284.959, 78333.531
285.441, 78297.797
285.924, 78262.797
286.406, 78258.094
286.888, 78270.047
287.370, 78234.031
287.852, 78147.500
288.334, 78034.070
288.816, 77901.703
289.298, 77756.633
289.781, 77642.797
290.263, 77587.922
290.745, 77571.609
291.227, 77537.594
291.709, 77485.023
292.191, 77413.344
292.673, 77320.469
293.155, 77206.539
293.638, 77072.289
294.120, 76909.039
294.602, 76731.156
295.084, 76566.508
295.566, 76416.469
296.048, 76286.156
296.530, 76196.562
297.012, 76134.227
297.494, 76055.547
297.977, 75938.211
298.459, 75806.500
298.941, 75693.258
299.423, 75599.258
299.905, 75530.289
300.387, 75491.562
300.869, 75480.742
301.351, 75493.023
301.833, 75538.742
302.316, 75592.539
302.798, 75615.094
303.280, 75607.867
303.762, 75603.562
304.244, 75624.977
304.726, 75661.117
305.208, 75698.633
305.690, 75745.844
306.173, 75772.352
306.655, 75741.906
307.137, 75659.656
307.619, 75558.094
308.101, 75440.977
308.583, 75323.023
309.065, 75224.969
309.547, 75163.094
310.030, 75109.742
310.512, 75050.008
310.994, 74985.656
311.476, 74917.844
311.958, 74835.383
312.440, 74757.773
312.922, 74706.312
313.404, 74712.852
313.886, 74699.078
314.369, 74601.539
314.851, 74446.977
315.333, 74314.594
315.815, 74252.656
316.297, 74213.812
316.779, 74166.922
317.261, 74101.180
317.743, 74039.273
318.225, 73988.844
318.708, 73949.297
319.190, 73919.703
319.672, 73896.633
320.154, 73887.227
320.636, 73901.203
321.118, 73957.867
321.600, 73993.930
322.082, 73963.820
322.565, 73907.758
323.047, 73894.469
323.529, 73958.773
324.011, 74044.703
324.493, 74139.102
324.975, 74250.711
325.457, 74335.094
325.939, 74370.992
326.422, 74380.477
326.904, 74393.906
327.386, 74404.406
327.868, 74425.797
328.350, 74458.906
328.832, 74501.398
329.314, 74565.562
329.796, 74699.344
330.278, 74829.711
330.760, 74871.383
331.243, 74744.141
331.725, 74646.547
332.207, 74622.547
332.689, 74676.859
333.171, 74737.430
333.653, 74827.672
334.135, 74902.727
334.617, 74913.344
335.100, 74824.273
335.582, 74755.352
336.064, 74734.117
336.546, 74755.047
337.028, 74753.742
337.510, 74710.812
337.992, 74682.523
338.474, 74728.594
338.957, 74872.383
339.439, 74964.633
339.921, 74961.500
340.403, 74897.906
340.885, 74917.758
341.367, 75041.023
341.849, 75157.383
342.331, 75173.023
342.813, 75087.172
343.296, 75055.844
343.778, 75117.242
344.260, 75214.188
344.742, 75215.438
345.224, 75120.953
345.706, 75025.641
346.188, 74988.656
346.670, 75002.453
347.152, 75018.867
347.635, 75031.648
348.117, 75057.602
348.599, 75125.289
349.081, 75229.320
349.563, 75338.969
350.045, 75441.109
350.527, 75534.492
351.009, 75613.398
351.491, 75675.023
351.974, 75723.844
352.456, 75750.023
352.938, 75764.227
353.420, 75795.602
353.902, 75877.148
354.384, 75970.828
354.866, 76039.883
355.349, 76083.742
355.831, 76100.156
356.313, 76066.094
356.795, 76011.906
357.277, 75978.352
357.759, 76003.133
358.241, 76039.156
358.723, 76058.633
359.205, 76063.844
359.688, 76065.477
360.170, 76052.547
360.652, 76046.672
361.134, 76066.977
361.616, 76137.906
362.098, 76209.797
362.580, 76237.523
363.062, 76243.273
363.544, 76308.492
364.027, 76580.438
364.509, 76828.523
364.991, 76912.133
365.473, 76665.969
365.955, 76503.594
366.437, 76557.797
366.919, 76735.906
367.401, 76834.094
367.884, 76751.406
368.366, 76664.219
368.848, 76628.922
369.330, 76659.172
369.812, 76708.352
370.294, 76771.898
370.776, 76858.656
371.258, 76983.906
371.741, 77202.406
372.223, 77374.609
372.705, 77450.227
373.187, 77419.469
373.669, 77434.203
374.151, 77503.453
374.633, 77603.008
375.115, 77721.508
375.597, 77874.047
376.079, 77976.898
376.562, 77997.102
377.044, 77953.906
377.526, 77955.281
378.008, 78007.453
378.490, 78080.688
378.972, 78164.219
379.454, 78257.242
379.936, 78330.719
380.419, 78382.383
380.901, 78413.547
381.383, 78421.656
381.865, 78408.727
382.347, 78387.391
382.829, 78333.906
383.311, 78277.117
383.793, 78325.594
384.276, 78505.383
384.758, 78720.203
385.240, 78842.438
385.722, 78895.859
386.204, 78961.438
386.686, 79078.430
387.168, 79224.633
387.650, 79379.344
388.132, 79539.273
388.615, 79693.859
389.097, 79830.227
389.579, 79955.039
390.061, 80080.406
390.543, 80228.297
391.025, 80360.969
391.507, 80448.789
391.989, 80496.602
392.471, 80536.344
392.954, 80578.219
393.436, 80625.430
393.918, 80682.344
394.400, 80762.883
394.882, 80842.070
395.364, 80900.102
395.846, 80952.039
396.328, 81036.172
396.810, 81208.297
397.293, 81377.094
397.775, 81497.102
398.257, 81531.812
398.739, 81593.383
399.221, 81693.148
399.703, 81818.898
400.185, 81954.703
400.668, 82096.570
401.150, 82250.023
401.632, 82419.703
402.114, 82607.523
402.596, 82778.117
403.078, 82890.961
403.560, 83035.156
404.042, 83320.773
404.524, 83809.227
405.007, 84224.539
405.489, 84496.523
405.971, 84666.641
406.453, 84915.078
406.935, 85254.594
407.417, 85628.273
407.899, 85989.703
408.381, 86342.406
408.863, 86743.938
409.346, 87201.477
409.828, 87707.039
410.310, 88263.344
410.792, 88870.703
411.274, 89505.078
411.756, 90146.547
412.238, 90808.133
412.720, 91512.227
413.203, 92253.000
413.685, 93043.547
414.167, 93923.391
414.649, 94859.773
415.131, 95785.953
415.613, 96638.633
416.095, 97505.297
416.577, 98473.688
417.060, 99531.711
417.542, 100663.797
418.024, 101882.898
418.506, 103154.797
418.988, 104408.297
419.470, 105610.398
419.952, 106854.797
420.434, 108228.602
420.916, 109676.797
421.398, 111105.297
421.881, 112422.898
422.363, 113756.703
422.845, 115162.398
423.327, 116677.203
423.809, 118171.797
424.291, 119690.000
424.773, 121166.500
425.255, 122511.797
425.738, 123841.102
426.220, 124894.000
426.702, 125604.898
427.184, 125972.102
427.666, 126133.703
428.148, 126105.602
428.630, 125844.000
429.112, 125316.398
429.595, 124505.500
430.077, 123442.898
430.559, 122062.203
431.041, 120488.102
431.523, 118964.703
432.005, 117506.797
432.487, 116042.398
432.969, 114510.398
433.451, 112925.797
433.934, 111399.797
434.416, 109928.703
434.898, 108547.797
435.380, 107288.000
435.862, 106152.898
436.344, 105156.703
436.826, 104349.102
437.308, 103658.398
437.790, 102980.000
438.273, 102314.297
438.755, 101695.500
439.237, 101101.203
439.719, 100576.703
440.201, 100184.898
440.683, 99968.258
441.165, 99831.727
441.647, 99729.773
442.129, 99660.656
442.612, 99623.133
443.094, 99656.922
443.576, 99687.641
444.058, 99668.844
444.540, 99582.906
445.022, 99511.047
445.504, 99501.594
445.987, 99503.344
446.469, 99462.539
446.951, 99323.812
447.433, 99201.797
447.915, 99126.898
448.397, 99092.727
448.879, 99031.594
449.361, 98941.844
449.843, 98829.297
450.326, 98698.492
450.808, 98557.820
451.290, 98373.344
451.772, 98134.359
452.254, 97856.758
452.736, 97560.383
453.218, 97233.609
453.700, 96947.938
454.182, 96778.703
454.665, 96688.609
455.147, 96425.133
455.629, 95969.180
456.111, 95476.156
456.593, 95122.156
457.075, 94867.500
457.557, 94574.859
458.039, 94168.328
458.522, 93760.992
459.004, 93539.867
459.486, 93459.930
459.968, 93317.930
460.450, 92908.852
460.932, 92422.109
461.414, 92040.938
461.896, 91803.023
462.379, 91621.906
462.861, 91472.602
463.343, 91344.742
463.825, 91222.461
464.307, 91112.773
464.789, 90998.133
465.271, 90864.656
465.753, 90714.000
466.235, 90576.406
466.717, 90459.867
467.200, 90356.344
467.682, 90262.383
468.164, 90177.859
468.646, 90101.898
469.128, 90032.820
469.610, 89971.070
470.092, 89916.781
470.574, 89866.859
471.057, 89827.008
471.539, 89801.227
472.021, 89788.406
472.503, 89762.188
472.985, 89717.273
473.467, 89670.602
473.949, 89646.039
474.431, 89641.008
474.914, 89617.523
475.396, 89566.680
475.878, 89497.477
476.360, 89421.758
476.842, 89342.102
477.324, 89266.531
477.806, 89187.391
478.288, 89124.578
478.770, 89111.039
479.253, 89155.156
479.735, 89220.656
480.217, 89316.773
480.699, 89409.703
481.181, 89451.047
481.663, 89330.453
482.145, 89238.344
482.627, 89278.531
483.109, 89430.039
483.592, 89582.844
484.074, 89708.648
484.556, 89817.023
485.038, 89913.883
485.520, 90007.773
486.002, 90060.781
486.484, 90013.891
486.966, 89945.406
487.448, 89982.078
487.931, 90239.633
488.413, 90389.047
488.895, 90317.547
489.377, 90047.820
489.859, 89899.781
490.341, 89901.188
490.823, 89953.594
491.306, 89997.656
491.788, 90035.789
492.270, 90051.188
492.752, 90042.617
493.234, 90016.477
493.716, 89953.719
494.198, 89867.977
494.680, 89842.617
495.162, 89976.727
495.645, 90165.680
496.127, 90245.312
496.609, 90215.609
497.091, 90167.523
497.573, 90149.203
498.055, 90153.906
498.537, 90176.078
499.019, 90222.570
499.501, 90272.594
499.984, 90314.773
500.466, 90355.109
500.948, 90404.383
501.430, 90478.508
501.912, 90553.391
502.394, 90597.188
502.876, 90588.258
503.358, 90694.133
503.841, 91050.883
504.323, 91416.297
504.805, 91597.422
505.287, 91510.547
505.769, 91408.594
506.251, 91280.938
506.733, 91169.430
507.215, 91215.844
507.698, 91451.867
508.180, 91673.500
508.662, 91776.312
509.144, 91776.500
509.626, 91782.391
510.108, 91793.094
510.590, 91825.797
511.072, 91934.656
511.554, 92082.273
512.036, 92158.531
512.519, 92101.523
513.001, 92020.367
513.483, 92036.008
513.965, 92124.750
514.447, 92213.023
514.929, 92241.273
515.411, 92271.844
515.893, 92349.258
516.375, 92480.258
516.858, 92621.219
517.340, 92770.438
517.822, 92913.258
518.304, 93038.320
518.786, 93119.477
519.268, 93209.070
519.750, 93303.953
520.232, 93409.070
520.715, 93545.844
521.197, 93752.219
521.679, 93924.219
522.161, 94001.602
522.643, 93975.828
523.125, 94036.469
523.607, 94212.859
524.089, 94398.242
524.571, 94467.578
525.054, 94431.180
525.536, 94403.273
526.018, 94411.273
526.500, 94432.297
526.982, 94412.047
527.464, 94364.203
527.946, 94355.039
528.429, 94448.719
528.911, 94585.102
529.393, 94696.188
529.875, 94777.281
530.357, 94853.844
530.839, 94962.797
531.321, 95063.961
531.803, 95118.727
532.286, 95075.727
532.768, 95040.078
533.250, 95050.156
533.732, 95087.797
534.214, 95104.977
534.696, 95071.203
535.178, 95050.008
535.660, 95059.500
536.142, 95101.758
536.625, 95166.391
537.107, 95272.500
537.589, 95371.531
538.071, 95396.477
538.553, 95333.398
539.035, 95386.469
539.517, 95611.703
539.999, 95902.688
540.481, 96082.977
540.964, 96159.547
541.446, 96203.047
541.928, 96203.547
542.410, 96206.070
542.892, 96256.344
543.374, 96357.656
543.856, 96573.000
544.338, 97149.898
544.820, 97762.719
545.303, 98036.977
545.785, 97763.227
546.267, 97484.047
546.749, 97405.000
547.231, 97461.930
547.713, 97557.109
548.195, 97750.047
548.677, 97896.703
549.159, 97932.547
549.642, 97874.258
550.124, 97896.539
550.606, 98041.844
551.088, 98206.203
551.570, 98326.391
552.052, 98387.891
552.534, 98499.742
553.016, 98687.297
553.499, 98873.898
553.981, 98928.344
554.463, 98868.344
554.945, 98864.703
555.427, 98992.344
555.909, 99172.898
556.391, 99272.023
556.873, 99304.719
557.356, 99345.633
557.838, 99444.406
558.320, 99572.977
558.802, 99711.211
559.284, 99861.000
559.766, 99995.453
560.248, 100064.102
560.730, 100131.203
561.213, 100256.102
561.695, 100513.297
562.177, 100755.500
562.659, 100959.398
563.141, 101133.898
563.623, 101298.000
564.105, 101417.102
564.587, 101581.398
565.069, 101830.102
565.552, 102160.797
566.034, 102450.297
566.516, 102684.797
566.998, 102930.500
567.480, 103248.398
567.962, 103631.398
568.444, 103997.102
568.926, 104326.398
569.408, 104682.102
569.891, 105236.398
570.373, 105889.898
570.855, 106409.203
571.337, 106543.797
571.819, 106616.898
572.301, 106853.602
572.783, 107242.398
573.265, 107723.398
573.747, 108339.898
574.230, 108991.203
574.712, 109616.703
575.194, 110172.102
575.676, 110811.000
576.158, 111585.297
576.640, 112433.297
577.122, 113293.297
577.604, 114184.102
578.086, 115087.203
578.569, 116024.898
579.051, 116962.797
579.533, 117793.000
580.015, 118516.703
580.497, 119137.102
580.979, 119612.898
581.461, 119991.602
581.943, 120384.203
582.426, 120790.398
582.908, 121310.297
583.390, 121980.898
583.872, 122828.203
584.354, 123864.602
584.836, 125073.703
585.318, 126541.203
585.800, 128329.602
586.282, 130406.703
586.765, 132701.094
587.247, 135340.297
587.729, 138035.906
588.211, 140930.703
588.693, 143885.906
589.175, 146297.906
589.657, 148593.000
590.140, 149746.594
590.622, 149207.906
591.104, 146849.297
591.586, 143998.000
592.068, 140529.906
592.550, 136900.500
593.032, 133367.703
593.514, 129995.703
593.996, 127022.703
594.479, 124491.203
594.961, 122377.602
595.443, 120735.898
595.925, 119490.500
596.407, 118455.602
596.889, 117575.398
597.371, 116847.398
597.853, 116278.000
598.335, 115864.797
598.818, 115589.703
599.300, 115433.398
599.782, 115426.898
600.264, 115599.102
600.746, 115988.102
601.228, 116454.000
601.710, 116952.297
602.192, 117561.703
602.674, 118387.898
603.157, 119497.898
603.639, 120640.203
604.121, 121877.297
604.603, 123016.203
605.085, 123630.297
605.567, 123729.703
606.049, 123446.398
606.531, 122748.102
607.013, 121748.398
607.496, 120554.102
607.978, 119190.898
608.460, 117850.500
608.942, 116560.203
609.424, 115406.398
609.906, 114498.500
610.388, 113865.797
610.870, 113377.203
611.353, 112997.203
611.835, 112728.898
612.317, 112567.398
612.799, 112665.500
613.281, 112668.203
