##NAMES=Fluorapophyllite-(K)
##RRUFFID=R050021
##IDEAL CHEMISTRY=KCa_4_Si_8_O_20_F&#183;8H_2_O
##LOCALITY=Poona, Maharashtra State, India
##OWNER=RRUFF
##SOURCE=Eugene Schlepp
##DESCRIPTION=Colorless tetragonal prisms
##STATUS=The identification of this mineral has been confirmed by X-ray diffraction and chemical analysis
##URL=rruff.info/R050021
##MEASURED CHEMISTRY=(K_0.98_Na_0.02_)_Σ=1_Ca_4.00_Si_8.00_O_20_(F_0.84_(OH)_0.16_)_Σ=1_·8H_2_O
134.0366, 535.7659
134.5187, 566.0903
135.0008, 602.1813
135.4829, 645.9886
135.9650, 697.2363
136.4471, 751.2030
136.9293, 804.6273
137.4114, 863.5315
137.8935, 939.5430
138.3756, 1023.600
138.8577, 1097.069
139.3398, 1146.594
139.8220, 1171.917
140.3041, 1180.323
140.7862, 1167.725
141.2683, 1146.621
141.7504, 1116.723
142.2325, 1081.479
142.7147, 1050.059
143.1968, 1029.359
143.6789, 1020.084
144.1610, 1014.282
144.6431, 1009.984
145.1252, 1010.269
145.6074, 1019.653
146.0895, 1036.849
146.5716, 1053.233
147.0537, 1060.072
147.5358, 1057.799
148.0179, 1068.011
148.5001, 1100.476
148.9822, 1137.901
149.4643, 1165.736
149.9464, 1183.957
150.4285, 1206.300
150.9106, 1248.912
151.3928, 1308.573
151.8749, 1351.416
152.3570, 1364.504
152.8391, 1366.610
153.3212, 1376.292
153.8033, 1395.130
154.2855, 1410.012
154.7676, 1406.185
155.2497, 1388.462
155.7318, 1377.775
156.2139, 1377.764
156.6960, 1386.173
157.1782, 1400.861
157.6603, 1421.792
158.1424, 1448.227
158.6245, 1477.168
159.1066, 1510.965
159.5887, 1557.969
160.0709, 1620.063
160.5530, 1696.544
161.0351, 1785.211
161.5172, 1884.655
161.9993, 2000.089
162.4814, 2137.864
162.9636, 2293.300
163.4457, 2465.443
163.9278, 2660.293
164.4099, 2869.100
164.8920, 3088.231
165.3741, 3338.480
165.8563, 3537.408
166.3384, 3630.127
166.8205, 3640.771
167.3026, 3598.314
167.7847, 3510.713
168.2668, 3378.381
168.7490, 3191.877
169.2311, 2925.260
169.7132, 2660.799
170.1953, 2434.745
170.6774, 2239.313
171.1595, 2065.415
171.6417, 1909.572
172.1238, 1772.340
172.6059, 1655.339
173.0880, 1559.331
173.5701, 1484.236
174.0522, 1434.943
174.5344, 1401.984
175.0165, 1373.665
175.4986, 1345.512
175.9807, 1317.365
176.4628, 1288.175
176.9449, 1256.890
177.4271, 1226.519
177.9092, 1197.640
178.3913, 1170.388
178.8734, 1145.062
179.3555, 1121.543
179.8376, 1099.941
180.3197, 1080.096
180.8019, 1061.233
181.2840, 1045.951
181.7661, 1035.826
182.2482, 1028.776
182.7303, 1021.988
183.2124, 1013.591
183.6946, 1005.381
184.1767, 1002.305
184.6588, 1004.354
185.1409, 1012.430
185.6230, 1030.827
186.1051, 1052.764
186.5873, 1070.373
187.0694, 1079.678
187.5515, 1083.466
188.0336, 1088.924
188.5157, 1095.215
188.9978, 1105.029
189.4800, 1117.345
189.9621, 1133.285
190.4442, 1155.182
190.9263, 1184.327
191.4084, 1217.553
191.8905, 1246.521
192.3727, 1266.154
192.8548, 1291.037
193.3369, 1332.214
193.8190, 1375.079
194.3011, 1402.789
194.7832, 1408.397
195.2654, 1404.378
195.7475, 1419.147
196.2296, 1468.339
196.7117, 1507.348
197.1938, 1517.065
197.6759, 1522.996
198.1581, 1553.585
198.6402, 1617.549
199.1223, 1690.022
199.6044, 1720.950
200.0865, 1679.721
200.5686, 1657.480
201.0508, 1675.104
201.5329, 1703.234
202.0150, 1720.570
202.4971, 1720.978
202.9792, 1710.964
203.4613, 1701.335
203.9435, 1695.903
204.4256, 1681.664
204.9077, 1652.447
205.3898, 1619.601
205.8719, 1590.018
206.3540, 1565.353
206.8362, 1543.688
207.3183, 1522.189
207.8004, 1500.271
208.2825, 1480.603
208.7646, 1462.527
209.2467, 1446.817
209.7289, 1435.462
210.2110, 1427.923
210.6931, 1420.798
211.1752, 1411.297
211.6573, 1401.572
212.1395, 1381.135
212.6216, 1337.672
213.1037, 1294.876
213.5858, 1264.668
214.0679, 1246.865
214.5500, 1234.114
215.0322, 1219.742
215.5143, 1203.689
215.9964, 1186.565
216.4785, 1158.738
216.9606, 1138.636
217.4427, 1140.803
217.9249, 1158.331
218.4070, 1170.875
218.8891, 1159.028
219.3712, 1121.695
219.8533, 1099.891
220.3354, 1111.637
220.8176, 1122.188
221.2997, 1117.624
221.7818, 1104.679
222.2639, 1098.748
222.7460, 1111.943
223.2281, 1141.943
223.7103, 1162.383
224.1924, 1158.492
224.6745, 1160.957
225.1566, 1178.421
225.6387, 1205.768
226.1208, 1235.972
226.6030, 1265.485
227.0851, 1293.453
227.5672, 1315.985
228.0493, 1328.454
228.5314, 1341.493
229.0135, 1363.620
229.4957, 1384.833
229.9778, 1392.386
230.4599, 1380.241
230.9420, 1355.503
231.4241, 1336.296
231.9062, 1331.493
232.3884, 1316.391
232.8705, 1283.119
233.3526, 1242.579
233.8347, 1203.169
234.3168, 1167.898
234.7989, 1135.113
235.2811, 1102.166
235.7632, 1068.167
236.2453, 1036.007
236.7274, 1003.113
237.2095, 973.4738
237.6916, 950.6599
238.1738, 934.9525
238.6559, 922.4156
239.1380, 907.4144
239.6201, 887.8550
240.1022, 873.6819
240.5843, 870.3857
241.0665, 868.3386
241.5486, 863.8044
242.0307, 856.2009
242.5128, 846.1609
242.9949, 832.5186
243.4770, 814.3981
243.9592, 803.1823
244.4413, 805.3038
244.9234, 808.6627
245.4055, 809.8611
245.8876, 808.6931
246.3697, 805.5999
246.8519, 800.2928
247.3340, 793.1159
247.8161, 787.4329
248.2982, 783.4024
248.7803, 780.8552
249.2624, 778.6003
249.7446, 777.7552
250.2267, 780.9138
250.7088, 791.1817
251.1909, 804.4941
251.6730, 807.6522
252.1551, 793.3523
252.6373, 783.8531
253.1194, 788.1895
253.6015, 799.6049
254.0836, 811.6630
254.5657, 822.3859
255.0478, 831.6202
255.5300, 838.3121
256.0121, 841.1619
256.4942, 846.3842
256.9763, 859.6940
257.4584, 873.7921
257.9406, 882.7068
258.4227, 885.0344
258.9048, 886.0176
259.3869, 891.5263
259.8690, 901.8076
260.3511, 911.0752
260.8333, 917.0444
261.3154, 922.8419
261.7975, 930.7689
262.2796, 940.8389
262.7617, 951.6589
263.2438, 961.8710
263.7260, 971.8623
264.2081, 984.2429
264.6902, 1001.370
265.1723, 1017.626
265.6544, 1027.650
266.1365, 1033.274
266.6187, 1040.442
267.1008, 1055.381
267.5829, 1073.153
268.0650, 1082.247
268.5471, 1080.249
269.0292, 1076.572
269.5114, 1080.570
269.9935, 1087.085
270.4756, 1086.465
270.9577, 1072.714
271.4398, 1053.689
271.9219, 1036.749
272.4041, 1021.835
272.8862, 1010.576
273.3683, 1005.219
273.8504, 1003.619
274.3325, 1002.217
274.8146, 1004.036
275.2968, 1000.198
275.7789, 978.9769
276.2610, 945.3727
276.7431, 920.2435
277.2252, 912.3770
277.7073, 914.5615
278.1895, 915.0068
278.6716, 913.3856
279.1537, 911.9924
279.6358, 912.2584
280.1179, 913.1516
280.6000, 912.4816
281.0822, 909.5155
281.5643, 906.5101
282.0464, 906.4213
282.5285, 909.5044
283.0106, 912.2258
283.4927, 914.4063
283.9749, 915.9264
284.4570, 916.0800
284.9391, 915.0152
285.4212, 914.5357
285.9033, 915.9358
286.3854, 919.3407
286.8676, 924.5665
287.3497, 932.6877
287.8318, 941.4055
288.3139, 950.3707
288.7960, 959.1266
289.2781, 965.9482
289.7603, 969.3184
290.2424, 970.9688
290.7245, 978.3141
291.2066, 996.8702
291.6887, 1013.889
292.1708, 1026.607
292.6530, 1037.068
293.1351, 1046.422
293.6172, 1055.216
294.0993, 1066.578
294.5814, 1086.799
295.0635, 1126.947
295.5457, 1154.608
296.0278, 1160.946
296.5099, 1162.035
296.9920, 1168.105
297.4741, 1180.773
297.9562, 1196.951
298.4384, 1214.620
298.9205, 1235.222
299.4026, 1247.045
299.8847, 1239.380
300.3668, 1233.893
300.8489, 1237.808
301.3311, 1249.816
301.8131, 1266.074
302.2953, 1284.569
302.7774, 1304.735
303.2595, 1323.431
303.7416, 1337.785
304.2237, 1355.085
304.7058, 1379.656
305.1880, 1406.359
305.6701, 1428.861
306.1522, 1444.668
306.6343, 1458.572
307.1164, 1479.068
307.5985, 1508.105
308.0807, 1536.167
308.5628, 1563.004
309.0449, 1587.233
309.5270, 1605.845
310.0091, 1619.332
310.4912, 1633.380
310.9734, 1655.547
311.4555, 1684.551
311.9376, 1704.598
312.4197, 1707.842
312.9018, 1711.660
313.3839, 1730.902
313.8661, 1759.532
314.3482, 1781.283
314.8303, 1781.778
315.3124, 1774.027
315.7945, 1782.936
316.2766, 1811.281
316.7588, 1839.898
317.2409, 1857.004
317.7230, 1868.175
318.2051, 1883.302
318.6872, 1907.110
319.1693, 1928.540
319.6515, 1935.878
320.1336, 1932.513
320.6157, 1934.873
321.0978, 1950.899
321.5799, 1971.157
322.0620, 1982.166
322.5442, 1985.222
323.0263, 1977.575
323.5084, 1951.633
323.9905, 1917.398
324.4726, 1887.884
324.9547, 1865.148
325.4369, 1843.976
325.9190, 1819.814
326.4011, 1792.350
326.8832, 1762.487
327.3653, 1722.181
327.8474, 1686.721
328.3296, 1669.673
328.8117, 1665.401
329.2938, 1656.271
329.7759, 1631.264
330.2580, 1594.477
330.7401, 1565.283
331.2223, 1544.677
331.7044, 1530.409
332.1865, 1525.792
332.6686, 1525.763
333.1507, 1525.178
333.6328, 1522.427
334.1150, 1518.915
334.5971, 1516.026
335.0792, 1511.297
335.5613, 1514.392
336.0434, 1534.555
336.5255, 1553.432
337.0077, 1559.934
337.4898, 1556.118
337.9719, 1551.806
338.4540, 1555.885
338.9361, 1566.590
339.4182, 1567.470
339.9004, 1551.854
340.3825, 1535.837
340.8646, 1526.429
341.3467, 1518.590
341.8288, 1506.292
342.3109, 1487.322
342.7931, 1462.781
343.2752, 1432.883
343.7573, 1396.651
344.2394, 1361.595
344.7215, 1328.897
345.2036, 1298.516
345.6858, 1269.529
346.1679, 1241.956
346.6500, 1218.217
347.1321, 1201.848
347.6142, 1190.458
348.0963, 1176.336
348.5785, 1157.080
349.0606, 1140.268
349.5427, 1135.475
350.0248, 1138.384
350.5069, 1136.081
350.9890, 1121.270
351.4712, 1104.403
351.9533, 1093.813
352.4354, 1088.726
352.9175, 1085.420
353.3996, 1083.139
353.8817, 1080.421
354.3639, 1072.748
354.8460, 1058.088
355.3281, 1044.052
355.8102, 1031.131
356.2923, 1020.263
356.7744, 1014.297
357.2566, 1013.380
357.7387, 1012.075
358.2208, 1003.363
358.7029, 984.3813
359.1850, 974.4312
359.6671, 983.0727
360.1493, 989.9104
360.6314, 982.7280
361.1135, 966.6769
361.5956, 953.9274
362.0777, 951.7206
362.5598, 957.6768
363.0420, 963.4101
363.5241, 970.8938
364.0062, 974.6697
364.4883, 973.8581
364.9704, 969.7413
365.4525, 961.0331
365.9347, 948.4299
366.4168, 938.1310
366.8989, 938.8199
367.3810, 951.3445
367.8631, 960.8170
368.3452, 965.7638
368.8274, 968.4896
369.3095, 967.7377
369.7916, 965.8381
370.2737, 968.4445
370.7558, 980.4128
371.2379, 996.5786
371.7201, 1008.388
372.2022, 1015.572
372.6843, 1020.766
373.1664, 1024.124
373.6485, 1026.545
374.1306, 1029.153
374.6128, 1031.633
375.0949, 1035.548
375.5770, 1044.359
376.0591, 1054.710
376.5412, 1058.253
377.0233, 1052.468
377.5055, 1046.352
377.9876, 1049.938
378.4697, 1064.515
378.9518, 1075.162
379.4339, 1076.807
379.9160, 1078.869
380.3982, 1087.536
380.8803, 1101.332
381.3624, 1115.185
381.8445, 1126.245
382.3266, 1135.842
382.8087, 1148.240
383.2909, 1164.399
383.7730, 1182.364
384.2551, 1202.426
384.7372, 1223.963
385.2193, 1247.746
385.7014, 1273.165
386.1836, 1297.258
386.6657, 1315.802
387.1478, 1328.117
387.6299, 1346.608
388.1120, 1375.771
388.5941, 1406.511
389.0763, 1433.031
389.5584, 1459.708
390.0405, 1494.869
390.5226, 1544.747
391.0047, 1597.709
391.4868, 1633.701
391.9690, 1650.495
392.4511, 1670.103
392.9332, 1697.370
393.4153, 1730.694
393.8974, 1768.804
394.3795, 1811.719
394.8617, 1855.334
395.3438, 1900.910
395.8259, 1944.770
396.3080, 1981.778
396.7901, 2011.476
397.2722, 2032.595
397.7544, 2042.201
398.2365, 2041.904
398.7186, 2042.806
399.2007, 2048.217
399.6828, 2051.122
400.1649, 2046.922
400.6471, 2038.867
401.1292, 2035.250
401.6113, 2038.824
402.0934, 2038.262
402.5755, 2015.092
403.0576, 1957.766
403.5398, 1913.041
404.0219, 1889.056
404.5040, 1867.835
404.9861, 1842.021
405.4682, 1811.075
405.9503, 1775.601
406.4325, 1735.030
406.9146, 1692.355
407.3967, 1659.342
407.8788, 1640.289
408.3609, 1622.384
408.8430, 1601.471
409.3252, 1581.595
409.8073, 1567.246
410.2894, 1558.683
410.7715, 1549.884
411.2536, 1533.687
411.7357, 1512.168
412.2179, 1496.996
412.7000, 1490.534
413.1821, 1486.650
413.6642, 1479.131
414.1463, 1471.336
414.6284, 1471.092
415.1106, 1483.343
415.5927, 1499.239
416.0748, 1510.532
416.5569, 1519.953
417.0390, 1535.921
417.5211, 1561.299
418.0033, 1594.224
418.4854, 1633.231
418.9675, 1681.332
419.4496, 1724.860
419.9317, 1756.244
420.4138, 1788.464
420.8960, 1829.950
421.3781, 1880.300
421.8602, 1935.174
422.3423, 1991.935
422.8244, 2051.553
423.3065, 2117.136
423.7887, 2181.258
424.2708, 2264.915
424.7529, 2385.145
425.2350, 2513.890
425.7171, 2625.785
426.1992, 2718.936
426.6814, 2811.162
427.1635, 2920.333
427.6456, 3045.746
428.1277, 3170.109
428.6098, 3297.505
429.0919, 3415.462
429.5741, 3524.813
430.0562, 3619.888
430.5383, 3691.514
431.0204, 3742.006
431.5025, 3759.076
431.9846, 3733.069
432.4668, 3665.265
432.9489, 3557.539
433.4310, 3407.503
433.9131, 3226.533
434.3952, 3017.461
434.8773, 2776.539
435.3595, 2562.191
435.8416, 2383.241
436.3237, 2227.495
436.8058, 2090.557
437.2879, 1970.271
437.7701, 1861.727
438.2522, 1762.577
438.7343, 1673.388
439.2164, 1596.609
439.6985, 1537.307
440.1806, 1482.502
440.6628, 1429.805
441.1449, 1381.990
441.6270, 1342.364
442.1091, 1309.673
442.5912, 1278.403
443.0733, 1243.161
443.5555, 1206.814
444.0376, 1181.213
444.5197, 1168.932
445.0018, 1160.219
445.4839, 1155.955
445.9660, 1150.981
446.4482, 1137.955
446.9303, 1114.583
447.4124, 1094.770
447.8945, 1090.104
448.3766, 1094.432
448.8587, 1094.799
449.3409, 1089.284
449.8230, 1082.900
450.3051, 1079.388
450.7872, 1078.546
451.2693, 1077.623
451.7514, 1076.260
452.2336, 1075.239
452.7157, 1075.041
453.1978, 1075.262
453.6799, 1073.969
454.1620, 1071.025
454.6441, 1070.985
455.1263, 1081.008
455.6084, 1104.065
456.0905, 1120.250
456.5726, 1123.428
457.0547, 1125.554
457.5368, 1130.405
458.0190, 1136.496
458.5011, 1139.951
458.9832, 1138.219
459.4653, 1137.823
459.9474, 1149.818
460.4295, 1174.360
460.9117, 1198.424
461.3938, 1223.374
461.8759, 1241.673
462.3580, 1243.418
462.8401, 1231.718
463.3222, 1222.512
463.8044, 1219.040
464.2865, 1220.673
464.7686, 1228.639
465.2507, 1241.661
465.7328, 1254.725
466.2149, 1265.404
466.6971, 1275.798
467.1792, 1289.467
467.6613, 1304.994
468.1434, 1327.890
468.6255, 1359.257
469.1076, 1396.863
469.5898, 1440.390
470.0719, 1488.892
470.5540, 1540.411
471.0361, 1594.359
471.5182, 1649.512
472.0003, 1701.498
472.4825, 1743.912
472.9646, 1799.838
473.4467, 1882.211
473.9288, 1974.171
474.4109, 2064.756
474.8930, 2153.937
475.3752, 2250.305
475.8573, 2358.491
476.3394, 2476.879
476.8215, 2603.309
477.3036, 2737.501
477.7857, 2880.590
478.2679, 3030.804
478.7500, 3191.928
479.2321, 3376.228
479.7142, 3583.053
480.1963, 3805.530
480.6784, 4046.278
481.1606, 4299.438
481.6427, 4569.693
482.1248, 4850.944
482.6069, 5121.060
483.0890, 5368.173
483.5711, 5587.698
484.0533, 5761.892
484.5354, 5911.020
485.0175, 5974.550
485.4996, 5938.176
485.9817, 5829.751
486.4638, 5658.698
486.9460, 5431.919
487.4281, 5176.877
487.9102, 4908.256
488.3923, 4627.936
488.8744, 4334.062
489.3565, 4020.980
489.8387, 3729.887
490.3208, 3485.325
490.8029, 3276.768
491.2850, 3077.865
491.7671, 2885.772
492.2492, 2710.013
492.7314, 2555.891
493.2135, 2420.245
493.6956, 2298.293
494.1777, 2190.884
494.6598, 2105.343
495.1419, 2049.928
495.6241, 2019.711
496.1062, 1980.884
496.5883, 1919.378
497.0704, 1869.554
497.5525, 1837.929
498.0346, 1816.293
498.5168, 1800.714
498.9989, 1789.143
499.4810, 1777.287
499.9631, 1761.130
500.4452, 1741.849
500.9273, 1724.008
501.4095, 1707.625
501.8916, 1692.631
502.3737, 1680.264
502.8558, 1668.435
503.3379, 1652.907
503.8200, 1631.719
504.3022, 1615.136
504.7843, 1609.360
505.2664, 1608.904
505.7485, 1608.830
506.2306, 1608.206
506.7127, 1606.047
507.1949, 1601.602
507.6770, 1595.201
508.1591, 1588.298
508.6412, 1579.733
509.1233, 1572.362
509.6054, 1564.063
510.0876, 1558.658
510.5697, 1559.343
511.0518, 1565.877
511.5339, 1575.983
512.0161, 1589.988
512.4982, 1605.129
512.9803, 1613.006
513.4624, 1612.372
513.9445, 1611.291
514.4266, 1609.524
514.9088, 1611.472
515.3909, 1623.480
515.8730, 1646.280
516.3551, 1669.112
516.8372, 1688.710
517.3193, 1706.970
517.8015, 1723.087
518.2836, 1738.998
518.7657, 1762.044
519.2478, 1796.366
519.7299, 1838.621
520.2120, 1881.253
520.6942, 1927.009
521.1763, 1967.974
521.6584, 1996.033
522.1405, 2027.323
522.6226, 2073.510
523.1047, 2130.291
523.5869, 2184.578
524.0690, 2229.125
524.5511, 2269.302
525.0332, 2307.054
525.5153, 2342.561
525.9974, 2408.388
526.4796, 2527.823
526.9617, 2654.722
527.4438, 2731.167
527.9259, 2764.439
528.4080, 2815.176
528.8901, 2898.745
529.3723, 2995.295
529.8544, 3101.062
530.3365, 3210.020
530.8186, 3307.961
531.3007, 3390.921
531.7828, 3472.058
532.2650, 3572.625
532.7471, 3699.819
533.2292, 3803.580
533.7113, 3864.521
534.1934, 3923.868
534.6755, 3999.432
535.1577, 4078.748
535.6398, 4144.079
536.1219, 4189.922
536.6040, 4228.010
537.0861, 4273.253
537.5682, 4319.632
538.0504, 4346.871
538.5325, 4351.913
539.0146, 4341.688
539.4967, 4316.717
539.9788, 4280.503
540.4609, 4251.421
540.9431, 4244.990
541.4252, 4223.414
541.9073, 4171.241
542.3894, 4105.684
542.8715, 4041.478
543.3536, 3980.681
543.8358, 3918.507
544.3179, 3849.948
544.8000, 3777.937
545.2821, 3716.338
545.7642, 3669.235
546.2463, 3621.505
546.7285, 3567.252
547.2106, 3512.856
547.6927, 3463.928
548.1748, 3420.210
548.6569, 3375.247
549.1390, 3321.983
549.6211, 3269.480
550.1032, 3228.977
550.5853, 3198.646
551.0674, 3170.525
551.5496, 3141.081
552.0317, 3112.763
552.5138, 3089.736
552.9959, 3074.012
553.4780, 3056.572
553.9601, 3027.392
554.4423, 3007.295
554.9244, 3013.159
555.4065, 3030.974
555.8886, 3035.597
556.3707, 3017.316
556.8528, 2998.744
557.3350, 3011.286
557.8171, 3050.664
558.2992, 3082.300
558.7813, 3102.797
559.2634, 3115.843
559.7455, 3117.622
560.2277, 3114.663
560.7098, 3126.566
561.1919, 3157.434
561.6740, 3196.229
562.1561, 3242.162
562.6382, 3292.698
563.1204, 3344.696
563.6025, 3398.411
564.0846, 3456.940
564.5667, 3523.014
565.0488, 3596.295
565.5309, 3676.672
566.0131, 3765.582
566.4952, 3857.784
566.9773, 3952.303
567.4594, 4050.665
567.9415, 4151.163
568.4236, 4255.703
568.9058, 4371.785
569.3879, 4502.192
569.8700, 4646.586
570.3521, 4809.873
570.8342, 4988.189
571.3163, 5167.500
571.7985, 5343.079
572.2806, 5523.038
572.7627, 5715.104
573.2448, 5919.717
573.7269, 6139.261
574.2090, 6388.917
574.6912, 6637.568
575.1733, 6869.362
575.6554, 7100.189
576.1375, 7350.603
576.6196, 7624.710
577.1017, 7907.018
577.5839, 8183.352
578.0660, 8456.988
578.5481, 8743.729
579.0302, 9046.208
579.5123, 9337.818
579.9944, 9611.309
580.4766, 9861.387
580.9587, 10075.14
581.4408, 10256.52
581.9229, 10400.80
582.4050, 10516.81
582.8871, 10585.23
583.3693, 10587.83
583.8514, 10533.06
584.3335, 10441.42
584.8156, 10322.56
585.2977, 10165.42
585.7798, 9947.862
586.2620, 9667.533
586.7441, 9357.459
587.2262, 9009.097
587.7083, 8642.451
588.1904, 8260.330
588.6725, 7868.882
589.1547, 7475.268
589.6368, 7071.391
590.1189, 6684.749
590.6010, 6331.092
591.0831, 5999.735
591.5652, 5677.468
592.0474, 5364.518
592.5295, 5070.980
593.0116, 4804.683
593.4937, 4563.280
593.9758, 4336.243
594.4579, 4125.991
594.9401, 3926.986
595.4222, 3748.666
595.9043, 3574.151
596.3864, 3385.422
596.8685, 3194.769
597.3506, 3034.895
597.8328, 2925.199
598.3149, 2837.025
598.7970, 2750.579
599.2791, 2664.584
599.7612, 2572.607
600.2433, 2472.999
600.7255, 2379.299
601.2076, 2303.351
601.6897, 2243.376
602.1718, 2184.880
602.6539, 2129.303
603.1360, 2073.294
603.6182, 2013.442
604.1003, 1955.590
604.5824, 1903.665
605.0645, 1857.778
605.5466, 1817.078
606.0287, 1783.071
606.5109, 1750.867
606.9930, 1710.940
607.4751, 1664.620
607.9572, 1623.007
608.4393, 1588.599
608.9214, 1559.823
609.4036, 1535.792
609.8857, 1516.511
610.3678, 1497.886
610.8499, 1479.923
611.3320, 1462.622
611.8141, 1445.207
612.2963, 1428.899
612.7784, 1417.176
613.2605, 1408.892
613.7426, 1396.844
614.2247, 1373.202
614.7068, 1343.919
615.1890, 1323.890
615.6711, 1313.404
616.1532, 1306.419
616.6353, 1303.303
617.1174, 1299.373
617.5995, 1287.856
618.0817, 1268.535
618.5638, 1254.176
619.0459, 1249.557
619.5280, 1245.035
620.0101, 1235.838
620.4922, 1225.173
620.9744, 1218.086
621.4565, 1214.926
621.9386, 1210.612
622.4207, 1199.384
622.9028, 1183.846
623.3849, 1174.964
623.8671, 1173.805
624.3492, 1173.276
624.8313, 1172.215
625.3134, 1169.781
625.7955, 1163.693
626.2776, 1154.202
626.7598, 1147.757
627.2419, 1147.495
627.7240, 1148.063
628.2061, 1146.436
628.6882, 1144.094
629.1703, 1143.882
629.6525, 1146.133
