##NAMES=Fluor-liddicoatite
##RRUFFID=R060635
##IDEAL CHEMISTRY=Ca(Li_2_Al)Al_6_(Si_6_O_18_)(BO_3_)_3_(OH)_3_F
##LOCALITY=unknown
##OWNER=RRUFF
##SOURCE=Gemological Institute of America
##DESCRIPTION=Rootbeer brown cut gemstone
##STATUS=The identification of this mineral has been confirmed by X-ray diffraction and chemical analysis
##URL=rruff.info/R060635
##MEASURED CHEMISTRY=(Li_1.84_Al_1.05_Mn_0.11_)_Σ=3_(Ca_0.82_Na_0.15_[box]_0.03_)_Σ=1_Al_6.00_(BO_3_)_3_[Si_6.00_O_18_]((OH)_3.16_F_0.84_)_Σ=4_
92.10938, 3.903059
92.59149, 3.875224
93.07361, 3.917660
93.55573, 4.020482
94.03784, 4.055301
94.51996, 3.820603
95.00208, 3.403387
95.48419, 3.108508
95.96631, 3.057538
96.44843, 3.188775
96.93054, 3.355375
97.41266, 3.565930
97.89478, 3.757529
98.37689, 3.836046
98.85901, 3.798806
99.34113, 3.759472
99.82324, 3.760555
100.3054, 3.802005
100.7875, 3.858320
101.2696, 3.942165
101.7517, 4.024483
102.2338, 4.055085
102.7159, 4.031401
103.1981, 3.961829
103.6802, 3.816773
104.1623, 3.520656
104.6444, 3.403188
105.1265, 3.548388
105.6086, 3.874333
106.0908, 4.072167
106.5729, 4.075346
107.0550, 4.025965
107.5371, 4.000976
108.0192, 3.989172
108.5013, 4.016357
108.9835, 4.047668
109.4656, 4.088049
109.9477, 4.296575
110.4298, 4.898355
110.9119, 5.544636
111.3940, 6.010051
111.8762, 6.150843
112.3583, 6.244425
112.8404, 6.275291
113.3225, 6.222504
113.8046, 6.349141
114.2867, 6.789202
114.7689, 7.399376
115.2510, 8.017768
115.7331, 8.635692
116.2152, 9.238408
116.6973, 9.818213
117.1794, 10.37650
117.6616, 10.90327
118.1437, 11.36485
118.6258, 11.79907
119.1079, 12.25263
119.5900, 12.67572
120.0721, 13.17226
120.5543, 13.82839
121.0364, 14.70146
121.5185, 15.62201
122.0006, 16.44323
122.4827, 17.22250
122.9648, 18.13703
123.4470, 19.46262
123.9291, 20.90659
124.4112, 22.08756
124.8933, 22.73511
125.3754, 23.37123
125.8575, 24.45636
126.3397, 25.97692
126.8218, 27.85788
127.3039, 30.31086
127.7860, 33.06404
128.2681, 35.52936
128.7502, 37.41988
129.2324, 39.03071
129.7145, 40.85640
130.1966, 42.90531
130.6787, 44.93728
131.1608, 46.69040
131.6429, 48.20188
132.1251, 49.74336
132.6072, 51.49391
133.0893, 53.33114
133.5714, 54.83368
134.0535, 55.94921
134.5356, 56.97026
135.0178, 58.30293
135.4999, 59.94963
135.9820, 61.53608
136.4641, 62.81493
136.9462, 63.81096
137.4283, 65.28083
137.9105, 67.38990
138.3926, 69.70426
138.8747, 71.35271
139.3568, 72.14482
139.8389, 73.12228
140.3210, 74.74422
140.8032, 77.10212
141.2853, 79.70109
141.7674, 82.61314
142.2495, 85.70429
142.7316, 88.46791
143.2137, 90.41753
143.6959, 91.94419
144.1780, 93.77364
144.6601, 96.10965
145.1422, 98.29887
145.6243, 100.3169
146.1064, 102.1878
146.5886, 104.0894
147.0707, 106.1884
147.5528, 108.1328
148.0349, 109.7076
148.5170, 110.9224
148.9991, 111.8030
149.4813, 112.3384
149.9634, 112.5420
150.4455, 112.4644
150.9276, 112.2611
151.4097, 111.6774
151.8918, 110.5754
152.3740, 107.9785
152.8561, 105.9395
153.3382, 105.0409
153.8203, 105.2428
154.3024, 104.6854
154.7845, 102.7910
155.2667, 100.3496
155.7488, 97.91942
156.2309, 95.89307
156.7130, 93.61823
157.1951, 90.78625
157.6772, 87.37003
158.1594, 84.23062
158.6415, 81.50077
159.1236, 79.16515
159.6057, 77.20072
160.0878, 75.91901
160.5699, 74.74856
161.0521, 73.53870
161.5342, 72.29922
162.0163, 70.88186
162.4984, 69.04137
162.9805, 67.04344
163.4626, 65.22415
163.9448, 63.71000
164.4269, 62.39677
164.9090, 61.18356
165.3911, 60.03125
165.8732, 59.14074
166.3553, 58.81553
166.8375, 58.79602
167.3196, 58.65353
167.8017, 57.96119
168.2838, 57.22350
168.7659, 56.78032
169.2480, 56.67502
169.7302, 56.84608
170.2123, 57.48450
170.6944, 58.38715
171.1765, 59.08760
171.6586, 59.19637
172.1407, 59.06458
172.6229, 59.02479
173.1050, 59.12166
173.5871, 59.32371
174.0692, 59.68534
174.5513, 60.14786
175.0334, 60.53260
175.5156, 60.57798
175.9977, 60.52715
176.4798, 60.79102
176.9619, 61.58747
177.4440, 62.38129
177.9261, 62.44280
178.4083, 61.91975
178.8904, 61.44312
179.3725, 61.50276
179.8546, 61.89245
180.3367, 62.25467
180.8188, 62.58541
181.3010, 62.76135
181.7831, 62.53396
182.2652, 61.94246
182.7473, 61.27406
183.2294, 60.67275
183.7115, 60.15124
184.1937, 59.77225
184.6758, 59.56532
185.1579, 59.47742
185.6400, 59.40742
186.1221, 59.35724
186.6042, 59.36806
187.0864, 59.46124
187.5685, 59.64012
188.0506, 59.91054
188.5327, 60.26477
189.0148, 60.72067
189.4969, 61.27758
189.9791, 61.92567
190.4612, 62.85012
190.9433, 64.37664
191.4254, 66.41683
191.9075, 68.31531
192.3896, 69.82579
192.8718, 71.13117
193.3539, 72.87644
193.8360, 75.12950
194.3181, 77.41539
194.8002, 79.31664
195.2823, 80.85505
195.7645, 82.21880
196.2466, 83.31164
196.7287, 84.28933
197.2108, 85.88461
197.6929, 88.19704
198.1750, 90.65972
198.6572, 92.78334
199.1393, 94.55273
199.6214, 96.10915
200.1035, 97.39220
200.5856, 98.47259
201.0677, 99.76528
201.5499, 101.3312
202.0320, 102.9305
202.5141, 104.3333
202.9962, 105.5274
203.4783, 106.6372
203.9604, 107.7129
204.4426, 108.7397
204.9247, 109.5733
205.4068, 110.1895
205.8889, 110.6627
206.3710, 111.0382
206.8531, 111.2995
207.3353, 111.5454
207.8174, 111.7323
208.2995, 111.8872
208.7816, 112.4306
209.2637, 113.4813
209.7458, 114.6753
210.2280, 115.5955
210.7101, 116.1287
211.1922, 116.8060
211.6743, 117.7896
212.1564, 119.0579
212.6385, 120.2797
213.1207, 121.4892
213.6028, 122.5752
214.0849, 123.2232
214.5670, 123.0067
215.0491, 123.6713
215.5313, 125.8635
216.0134, 129.5799
216.4955, 132.6593
216.9776, 134.8372
217.4597, 136.7791
217.9418, 139.1141
218.4239, 141.6821
218.9061, 145.0231
219.3882, 149.5038
219.8703, 155.0953
220.3524, 160.2275
220.8345, 164.7005
221.3166, 168.8900
221.7988, 173.2338
222.2809, 177.7894
222.7630, 182.2776
223.2451, 186.5846
223.7272, 190.7454
224.2093, 194.9649
224.6915, 199.6640
225.1736, 204.0198
225.6557, 206.9734
226.1378, 207.8051
226.6199, 208.9010
227.1020, 210.8492
227.5842, 213.6729
228.0663, 215.9771
228.5484, 217.5995
229.0305, 218.9076
229.5126, 220.2466
229.9947, 221.6710
230.4769, 223.0090
230.9590, 224.2576
231.4411, 225.4098
231.9232, 226.3453
232.4053, 226.7706
232.8874, 227.3039
233.3696, 228.5078
233.8517, 230.5951
234.3338, 232.9736
234.8159, 235.7995
235.2980, 239.0714
235.7801, 241.3625
236.2623, 242.3321
236.7444, 242.6982
237.2265, 243.0377
237.7086, 243.4229
238.1907, 243.6891
238.6728, 244.1273
239.1550, 244.6460
239.6371, 243.6114
240.1192, 240.7440
240.6013, 236.6443
241.0834, 231.6758
241.5655, 225.4289
242.0477, 219.2364
242.5298, 213.3600
243.0119, 207.7354
243.4940, 201.6925
243.9761, 195.0380
244.4582, 188.1906
244.9404, 181.4296
245.4225, 174.7096
245.9046, 168.1309
246.3867, 161.6127
246.8688, 155.1926
247.3509, 149.1130
247.8331, 143.3345
248.3152, 137.9490
248.7973, 133.0566
249.2794, 128.8504
249.7615, 124.6764
250.2436, 120.3846
250.7258, 116.0702
251.2079, 112.2943
251.6900, 109.2253
252.1721, 106.4556
252.6542, 103.7460
253.1363, 101.0878
253.6185, 98.55126
254.1006, 96.09426
254.5827, 93.77821
255.0648, 91.91239
255.5469, 90.75737
256.0291, 89.66564
256.5112, 88.24824
256.9933, 86.20861
257.4754, 84.60148
257.9575, 83.58885
258.4396, 82.98702
258.9218, 82.34745
259.4039, 81.74941
259.8860, 80.95972
260.3681, 79.75324
260.8502, 77.78024
261.3323, 76.43963
261.8145, 75.94245
262.2966, 75.96812
262.7787, 75.79488
263.2608, 75.27258
263.7429, 74.86629
264.2250, 74.81740
264.7072, 75.25632
265.1893, 75.51259
265.6714, 75.54224
266.1535, 75.41990
266.6356, 75.25144
267.1177, 74.98613
267.5999, 74.80444
268.0820, 74.80405
268.5641, 75.02106
269.0462, 75.14455
269.5283, 75.14957
270.0104, 75.09645
270.4926, 75.04915
270.9747, 74.97867
271.4568, 75.02930
271.9389, 75.30630
272.4210, 75.82491
272.9031, 76.11393
273.3853, 76.08181
273.8674, 75.98745
274.3495, 76.14477
274.8316, 76.57307
275.3137, 77.15080
275.7958, 77.88826
276.2780, 78.76817
276.7601, 79.61292
277.2422, 80.42736
277.7243, 81.19029
278.2064, 81.84472
278.6885, 82.36906
279.1707, 82.96530
279.6528, 83.68105
280.1349, 84.50640
280.6170, 85.45319
281.0991, 86.57851
281.5812, 87.60303
282.0634, 88.28651
282.5455, 88.63841
283.0276, 88.67435
283.5097, 88.22156
283.9918, 87.55929
284.4739, 87.76070
284.9561, 88.95696
285.4382, 90.05186
285.9203, 90.12255
286.4024, 89.22469
286.8845, 88.30127
287.3666, 87.50960
287.8488, 86.74228
288.3309, 85.73132
288.8130, 84.46973
289.2951, 83.21633
289.7772, 82.05802
290.2593, 81.02927
290.7415, 80.32982
291.2236, 80.06563
291.7057, 79.94802
292.1878, 79.48409
292.6699, 78.70149
293.1520, 77.92993
293.6342, 77.42147
294.1163, 77.07994
294.5984, 76.58021
295.0805, 75.87671
295.5626, 75.12461
296.0447, 74.47440
296.5269, 73.92520
297.0090, 73.47083
297.4911, 73.06074
297.9732, 72.75153
298.4553, 72.69858
298.9374, 72.91113
299.4196, 73.27670
299.9017, 73.70289
300.3838, 74.19053
300.8659, 74.74306
301.3480, 75.39185
301.8301, 76.08613
302.3123, 76.71662
302.7944, 77.29308
303.2765, 77.94019
303.7586, 78.99699
304.2407, 80.17156
304.7228, 80.92609
305.2050, 80.80558
305.6871, 80.47522
306.1692, 80.61832
306.6513, 81.19540
307.1334, 81.97644
307.6155, 82.88442
308.0977, 83.88892
308.5798, 84.99617
309.0619, 86.37013
309.5440, 87.57925
310.0261, 88.04184
310.5082, 88.00468
310.9904, 88.21690
311.4725, 89.18834
311.9546, 90.53669
312.4367, 91.96852
312.9188, 93.47740
313.4009, 94.92067
313.8831, 96.17962
314.3652, 97.29562
314.8473, 98.36839
315.3294, 99.53083
315.8115, 100.6091
316.2936, 101.4772
316.7758, 102.1022
317.2579, 102.6661
317.7400, 103.1284
318.2221, 103.6139
318.7042, 104.2890
319.1863, 105.7037
319.6685, 106.8746
320.1506, 107.3250
320.6327, 107.0279
321.1148, 106.6142
321.5969, 106.0845
322.0790, 105.6116
322.5612, 105.3283
323.0433, 105.3949
323.5254, 105.5192
324.0075, 105.6934
324.4896, 105.8971
324.9717, 105.9868
325.4539, 105.8640
325.9360, 105.6728
326.4181, 105.4980
326.9002, 105.5184
327.3823, 105.3372
327.8644, 104.8337
328.3466, 104.0981
328.8287, 103.4056
329.3108, 102.7674
329.7929, 102.1638
330.2750, 101.6195
330.7571, 101.2254
331.2393, 100.6633
331.7214, 99.80037
332.2035, 98.81442
332.6856, 97.99362
333.1677, 97.30299
333.6498, 96.82211
334.1320, 96.65100
334.6141, 96.86259
335.0962, 96.79245
335.5783, 96.21107
336.0604, 95.58679
336.5425, 95.44964
337.0247, 96.02792
337.5068, 96.52101
337.9889, 96.77038
338.4710, 96.80032
338.9531, 96.83035
339.4352, 96.87399
339.9173, 96.89001
340.3994, 96.79379
340.8816, 96.53426
341.3637, 96.48473
341.8458, 96.69017
342.3279, 97.13169
342.8100, 97.86130
343.2921, 98.92471
343.7743, 99.93154
344.2564, 100.5003
344.7385, 100.6767
345.2206, 101.3522
345.7027, 102.7018
346.1848, 104.2519
346.6670, 105.3004
347.1491, 105.8660
347.6312, 106.2365
348.1133, 106.5463
348.5954, 106.7614
349.0775, 106.6860
349.5597, 106.2874
350.0418, 105.9260
350.5239, 105.9867
351.0060, 106.3907
351.4881, 106.9197
351.9702, 107.6577
352.4524, 108.3546
352.9345, 108.5227
353.4166, 108.2129
353.8987, 107.8789
354.3808, 107.8318
354.8629, 107.9819
355.3451, 108.1560
355.8272, 108.2069
356.3093, 108.5096
356.7914, 109.4670
357.2735, 110.9616
357.7556, 112.6563
358.2378, 114.2099
358.7199, 115.9622
359.2020, 118.2533
359.6841, 121.1818
360.1662, 124.2881
360.6483, 127.2334
361.1305, 130.2125
361.6126, 133.4998
362.0947, 137.2228
362.5768, 141.2523
363.0589, 145.5365
363.5410, 150.0759
364.0232, 154.9859
364.5053, 160.6020
364.9874, 166.4458
365.4695, 172.1459
365.9516, 176.8131
366.4337, 182.2340
366.9159, 188.7979
367.3980, 196.4181
367.8801, 204.7785
368.3622, 213.6983
368.8443, 223.3673
369.3264, 233.8995
369.8086, 245.7577
370.2907, 257.7330
370.7728, 269.4922
371.2549, 281.4392
371.7370, 294.2076
372.2191, 308.5147
372.7013, 322.7232
373.1834, 336.4413
373.6655, 349.7986
374.1476, 362.1465
374.6297, 373.2552
375.1118, 383.3038
375.5940, 392.6805
376.0761, 401.9434
376.5582, 408.4794
377.0403, 411.6996
377.5224, 411.8753
378.0045, 410.1580
378.4867, 406.5112
378.9688, 401.2783
379.4509, 394.5176
379.9330, 386.2779
380.4151, 377.0600
380.8972, 367.0382
381.3794, 355.9315
381.8615, 343.0284
382.3436, 328.2088
382.8257, 313.6572
383.3078, 299.9557
383.7899, 287.1446
384.2721, 274.8366
384.7542, 263.0724
385.2363, 252.0688
385.7184, 242.0437
386.2005, 232.9700
386.6826, 224.1782
387.1648, 215.4674
387.6469, 207.1121
388.1290, 199.2200
388.6111, 191.8692
389.0932, 185.3109
389.5753, 179.7587
390.0575, 175.0205
390.5396, 170.8366
391.0217, 167.2159
391.5038, 163.8507
391.9859, 160.3445
392.4680, 156.9582
392.9502, 154.1186
393.4323, 152.2137
393.9144, 150.7795
394.3965, 149.5985
394.8786, 148.6463
395.3607, 147.9362
395.8429, 147.5154
396.3250, 147.3102
396.8071, 147.2519
397.2892, 147.4512
397.7713, 147.6605
398.2534, 147.5474
398.7356, 147.2959
399.2177, 147.8088
399.6998, 149.6164
400.1819, 151.8533
400.6640, 154.1844
401.1461, 156.7186
401.6283, 159.1216
402.1104, 161.4337
402.5925, 163.5910
403.0746, 165.4430
403.5567, 166.4778
404.0388, 168.1572
404.5210, 171.0955
405.0031, 175.2942
405.4852, 178.8524
405.9673, 181.7574
406.4494, 184.0601
406.9315, 185.7435
407.4137, 186.7731
407.8958, 187.5595
408.3779, 188.2118
408.8600, 188.6083
409.3421, 188.4849
409.8242, 187.8447
410.3064, 186.6252
410.7885, 184.8904
411.2706, 182.5588
411.7527, 179.1480
412.2348, 174.5212
412.7169, 169.4096
413.1991, 164.7483
413.6812, 160.3349
414.1633, 155.6401
414.6454, 150.2934
415.1275, 144.7036
415.6096, 139.3647
416.0918, 134.3103
416.5739, 129.4418
417.0560, 124.6711
417.5381, 120.0662
418.0202, 115.6971
418.5023, 111.6320
418.9845, 107.6915
419.4666, 103.6501
419.9487, 99.68274
420.4308, 96.21436
420.9129, 93.63883
421.3951, 91.37151
421.8772, 89.10497
422.3593, 86.85242
422.8414, 84.68776
423.3235, 82.69926
423.8056, 80.78790
424.2878, 78.89647
424.7699, 76.71353
425.2520, 74.90076
425.7341, 73.76897
426.2162, 73.13051
426.6983, 72.22866
427.1805, 70.64505
427.6626, 69.29457
428.1447, 68.62218
428.6268, 68.95875
429.1089, 68.74851
429.5910, 67.77651
430.0732, 66.47763
430.5553, 65.38512
431.0374, 64.56615
431.5195, 63.66358
432.0016, 62.47278
432.4837, 61.14250
432.9659, 60.45343
433.4480, 60.49487
433.9301, 60.61532
434.4122, 60.34813
434.8943, 59.73739
435.3764, 59.05605
435.8586, 58.28859
436.3407, 57.59298
436.8228, 57.26601
437.3049, 57.22954
437.7870, 57.15480
438.2691, 56.83789
438.7513, 56.42098
439.2334, 56.09637
439.7155, 55.86232
440.1976, 55.67492
440.6797, 55.50988
441.1618, 55.37099
441.6440, 55.27509
442.1261, 55.27903
442.6082, 55.22935
443.0903, 54.98727
443.5724, 54.62627
444.0545, 54.30507
444.5367, 54.05687
445.0188, 53.88355
445.5009, 53.81372
445.9830, 53.86753
446.4651, 53.86826
446.9472, 53.72877
447.4294, 53.54914
447.9115, 53.41409
448.3936, 53.13305
448.8757, 53.14889
449.3578, 53.74879
449.8399, 54.67784
450.3221, 55.04307
450.8042, 54.41341
451.2863, 53.91407
451.7684, 54.10543
452.2505, 55.17466
452.7326, 55.69519
453.2148, 55.49739
453.6969, 55.05435
454.1790, 54.92717
454.6611, 55.12838
455.1432, 55.37449
455.6253, 55.58129
456.1075, 55.80383
456.5896, 56.27631
457.0717, 56.99300
457.5538, 57.55298
458.0359, 57.52433
458.5180, 57.16228
459.0002, 57.07066
459.4823, 57.32048
459.9644, 57.70459
460.4465, 57.96854
460.9286, 58.22314
461.4107, 58.68023
461.8929, 59.74370
462.3750, 60.76207
462.8571, 61.14726
463.3392, 61.02378
463.8213, 60.94994
464.3034, 61.40834
464.7856, 61.86302
465.2677, 61.87535
465.7498, 61.12859
466.2319, 60.65232
466.7140, 60.89002
467.1961, 61.47376
467.6783, 61.93567
468.1604, 62.04488
468.6425, 62.22211
469.1246, 62.62671
469.6067, 63.21972
470.0888, 63.55255
470.5710, 63.66892
471.0531, 63.46446
471.5352, 62.74594
472.0173, 61.18306
472.4994, 60.34800
472.9815, 60.46880
473.4637, 61.03383
473.9458, 61.34080
474.4279, 61.39818
474.9100, 61.09084
475.3921, 60.22153
475.8742, 59.03086
476.3564, 58.20224
476.8385, 57.73504
477.3206, 57.56976
477.8027, 57.85515
478.2848, 58.38337
478.7669, 58.70054
479.2491, 58.71578
479.7312, 58.64859
480.2133, 58.69084
480.6954, 58.80103
481.1775, 58.90274
481.6596, 58.87770
482.1418, 58.90311
482.6239, 59.07154
483.1060, 59.38403
483.5881, 59.82759
484.0702, 60.70614
484.5523, 61.49900
485.0345, 61.82573
485.5166, 61.30085
485.9987, 61.05184
486.4808, 61.52018
486.9629, 62.25425
487.4450, 62.62593
487.9272, 62.25185
488.4093, 62.05768
488.8914, 62.22807
489.3735, 62.73526
489.8556, 63.30925
490.3377, 63.99291
490.8199, 64.66729
491.3020, 65.25877
491.7841, 65.76814
492.2662, 66.21725
492.7483, 66.58261
493.2304, 66.94500
493.7126, 67.45200
494.1947, 68.07755
494.6768, 68.57992
495.1589, 68.81746
495.6410, 68.93961
496.1231, 69.18201
496.6053, 69.54066
497.0874, 69.96572
497.5695, 70.42122
498.0516, 70.93253
498.5337, 71.58401
499.0158, 72.41445
499.4980, 73.15836
499.9801, 73.68543
500.4622, 74.02785
500.9443, 74.23366
501.4264, 74.10259
501.9085, 74.05767
502.3907, 74.24541
502.8728, 74.62918
503.3549, 75.04933
503.8370, 75.51946
504.3191, 75.99865
504.8012, 76.49905
505.2834, 77.06402
505.7655, 77.44389
506.2476, 77.51933
506.7297, 77.54383
507.2118, 77.76699
507.6939, 78.22007
508.1761, 78.74801
508.6582, 79.34962
509.1403, 79.99117
509.6224, 80.67666
510.1045, 81.41380
510.5866, 81.87903
511.0688, 81.76299
511.5509, 81.25285
512.0330, 80.84579
512.5151, 80.54015
512.9973, 80.43801
513.4794, 80.87621
513.9615, 81.50725
514.4436, 81.76975
514.9257, 81.47673
515.4078, 80.93282
515.8900, 80.28085
516.3721, 79.54354
516.8542, 78.76315
517.3363, 78.07040
517.8184, 77.22518
518.3005, 76.00948
518.7827, 74.43385
519.2648, 73.06468
519.7469, 72.25993
520.2290, 71.48744
520.7111, 70.41344
521.1932, 68.68777
521.6754, 67.42831
522.1575, 66.83910
522.6396, 66.53722
523.1217, 65.95634
523.6038, 65.00299
524.0859, 64.11018
524.5681, 63.38440
525.0502, 62.80125
525.5323, 62.24942
526.0144, 61.72230
526.4965, 61.31514
526.9786, 61.18209
527.4608, 61.21155
527.9429, 61.08572
528.4250, 60.78395
528.9071, 60.34800
529.3892, 59.58001
529.8713, 58.75343
530.3535, 58.36472
530.8356, 58.84119
531.3177, 59.37273
531.7998, 59.33897
532.2819, 58.95080
532.7640, 58.71577
533.2462, 58.96563
533.7283, 59.25965
534.2104, 59.47644
534.6925, 59.61898
535.1746, 59.49997
535.6567, 58.74828
536.1389, 58.01074
536.6210, 57.69260
537.1031, 57.96322
537.5852, 58.28944
538.0673, 58.77366
538.5494, 59.20027
539.0316, 59.11720
539.5137, 58.42295
539.9958, 57.91682
540.4779, 57.87685
540.9600, 58.16841
541.4421, 58.45429
541.9243, 58.72918
542.4064, 58.88218
542.8885, 58.74129
543.3706, 58.44950
543.8527, 58.29623
544.3348, 58.31851
544.8170, 58.31042
545.2991, 57.93938
545.7812, 57.50337
546.2633, 57.39616
546.7454, 58.11835
547.2275, 58.67452
547.7097, 58.48374
548.1918, 57.82450
548.6739, 57.35010
549.1560, 57.32881
549.6381, 57.37241
550.1202, 57.35085
550.6024, 57.25755
551.0845, 57.28480
551.5666, 57.53220
552.0487, 57.76712
552.5308, 57.83077
553.0129, 57.69588
553.4951, 57.53862
553.9772, 57.36296
554.4593, 57.17187
554.9414, 57.00373
555.4235, 56.84718
555.9056, 56.55847
556.3878, 56.05960
556.8699, 55.45106
557.3520, 54.85798
557.8341, 54.29346
558.3162, 53.82695
558.7983, 53.53326
559.2805, 53.33570
559.7626, 53.22198
560.2447, 53.19362
560.7268, 53.02504
561.2089, 52.42743
561.6910, 51.75195
562.1732, 51.28764
562.6553, 51.30401
563.1374, 51.19989
563.6195, 50.76389
564.1016, 50.20787
564.5837, 49.85757
565.0659, 49.86351
565.5480, 49.79130
566.0301, 49.53585
566.5122, 49.13124
566.9943, 48.71563
567.4764, 48.26631
567.9586, 47.93126
568.4407, 47.86226
568.9228, 48.00588
569.4049, 48.03941
569.8870, 47.94605
570.3691, 47.86213
570.8513, 47.90636
571.3334, 48.05812
571.8155, 48.30169
572.2976, 48.70361
572.7797, 49.03287
573.2618, 49.06231
573.7440, 48.90738
574.2261, 48.77680
574.7082, 48.77794
575.1903, 48.78835
575.6724, 48.72327
576.1545, 48.60204
576.6367, 48.60647
577.1188, 48.93531
577.6009, 49.20824
578.0830, 49.26468
578.5651, 49.06002
579.0472, 48.85195
579.5294, 48.59250
580.0115, 48.41257
580.4936, 48.49395
580.9757, 48.84502
581.4578, 49.05673
581.9399, 49.03067
582.4221, 48.93836
582.9042, 49.10984
583.3863, 49.46649
583.8684, 49.69732
584.3505, 49.60778
584.8326, 49.37362
585.3148, 49.13163
585.7969, 48.89235
586.2789, 48.71602
