##NAMES=Fluorapatite
##RRUFFID=R050122
##IDEAL CHEMISTRY=Ca_5_(PO_4_)_3_F
##LOCALITY=Cruziero mine, San Jose, Minas Gerais, Brazil
##OWNER=RRUFF
##SOURCE=Carlos and Paulo Vasconcelos
##DESCRIPTION=Green fragment
##STATUS=The identification of this mineral has been confirmed by X-ray diffraction and chemical analysis
##URL=rruff.info/R050122
##MEASURED CHEMISTRY=(Ca_4.99_Mn_0.01_)_Î£=5_(P_1.00_O_4_)_3_F_1.00_; trace amounts of Fe
135.7706, 14805.10
136.2527, 14973.17
136.7348, 15202.50
137.2169, 15371.79
137.6991, 15475.81
138.1812, 15555.59
138.6633, 15643.25
139.1454, 15742.47
139.6275, 15824.51
140.1096, 15896.86
140.5918, 15949.86
141.0739, 15909.31
141.5560, 15746.55
142.0381, 15547.90
142.5202, 15382.94
143.0023, 15258.45
143.4845, 15150.04
143.9666, 15050.00
144.4487, 14956.92
144.9308, 14905.72
145.4129, 14917.16
145.8951, 14949.64
146.3772, 14956.90
146.8593, 14910.36
147.3414, 14885.42
147.8235, 14906.27
148.3056, 14987.44
148.7878, 15041.79
149.2699, 15055.25
149.7520, 15048.52
150.2341, 15048.23
150.7162, 15037.96
151.1983, 15050.20
151.6805, 15102.55
152.1626, 15227.10
152.6447, 15307.85
153.1268, 15304.24
153.6089, 15263.47
154.0910, 15262.70
154.5732, 15356.50
155.0553, 15447.82
155.5374, 15500.75
156.0195, 15487.86
156.5016, 15487.30
156.9837, 15526.59
157.4659, 15585.04
157.9480, 15619.12
158.4301, 15594.90
158.9122, 15562.53
159.3943, 15549.31
159.8764, 15589.24
160.3586, 15599.16
160.8407, 15523.18
161.3228, 15395.18
161.8049, 15309.59
162.2870, 15320.47
162.7691, 15370.33
163.2512, 15424.71
163.7334, 15493.27
164.2155, 15541.86
164.6976, 15537.37
165.1797, 15494.35
165.6618, 15470.39
166.1439, 15513.15
166.6261, 15577.07
167.1082, 15622.81
167.5903, 15627.63
168.0724, 15623.80
168.5545, 15626.49
169.0366, 15635.79
169.5188, 15652.02
170.0009, 15688.61
170.4830, 15728.06
170.9651, 15750.88
171.4472, 15740.82
171.9293, 15720.21
172.4115, 15703.53
172.8936, 15691.00
173.3757, 15684.65
173.8578, 15687.17
174.3399, 15696.68
174.8220, 15710.34
175.3042, 15728.78
175.7863, 15749.71
176.2684, 15772.95
176.7505, 15798.31
177.2326, 15819.80
177.7147, 15830.51
178.1969, 15833.26
178.6790, 15833.99
179.1611, 15835.09
179.6432, 15835.41
180.1253, 15830.44
180.6074, 15819.55
181.0896, 15813.01
181.5717, 15823.97
182.0538, 15848.29
182.5359, 15873.39
183.0180, 15893.63
183.5001, 15910.73
183.9823, 15929.77
184.4644, 15951.63
184.9465, 15968.79
185.4286, 15971.06
185.9107, 15960.15
186.3928, 15944.68
186.8750, 15920.02
187.3571, 15893.21
187.8392, 15889.52
188.3213, 15912.53
188.8034, 15944.53
189.2855, 15958.94
189.7677, 15957.85
190.2498, 15963.92
190.7319, 15997.40
191.2140, 16050.50
191.6961, 16077.36
192.1782, 16071.84
192.6603, 16056.77
193.1425, 16070.44
193.6246, 16112.64
194.1067, 16149.63
194.5888, 16159.06
195.0709, 16144.28
195.5530, 16143.74
196.0352, 16161.43
196.5173, 16186.94
196.9994, 16201.78
197.4815, 16204.91
197.9636, 16209.37
198.4457, 16223.38
198.9279, 16246.90
199.4100, 16264.51
199.8921, 16274.31
200.3742, 16280.19
200.8563, 16291.29
201.3384, 16309.33
201.8206, 16321.98
202.3027, 16312.39
202.7848, 16275.81
203.2669, 16284.49
203.7490, 16353.36
204.2311, 16452.54
204.7133, 16523.22
205.1954, 16563.32
205.6775, 16584.65
206.1596, 16587.26
206.6417, 16567.13
207.1238, 16558.50
207.6060, 16565.11
208.0881, 16581.08
208.5702, 16592.83
209.0523, 16598.26
209.5344, 16605.82
210.0165, 16621.77
210.4987, 16649.66
210.9808, 16666.86
211.4629, 16666.42
211.9450, 16659.45
212.4271, 16675.35
212.9092, 16724.42
213.3914, 16770.27
213.8735, 16795.98
214.3556, 16799.23
214.8377, 16786.72
215.3198, 16745.70
215.8019, 16696.66
216.2841, 16697.60
216.7662, 16773.52
217.2483, 16845.69
217.7304, 16872.99
218.2125, 16837.65
218.6946, 16813.63
219.1767, 16803.46
219.6589, 16804.99
220.1410, 16812.54
220.6231, 16825.87
221.1052, 16845.77
221.5873, 16876.69
222.0694, 16930.15
222.5516, 16958.96
223.0337, 16950.18
223.5158, 16921.22
223.9979, 16916.28
224.4800, 16948.04
224.9621, 16981.48
225.4443, 16997.44
225.9264, 16978.79
226.4085, 16989.40
226.8906, 17047.91
227.3727, 17128.38
227.8548, 17167.60
228.3370, 17138.21
228.8191, 17112.19
229.3012, 17121.29
229.7833, 17181.99
230.2654, 17234.81
230.7475, 17278.20
231.2297, 17314.23
231.7118, 17346.72
232.1939, 17372.68
232.6760, 17399.92
233.1581, 17433.10
233.6402, 17477.40
234.1224, 17512.38
234.6045, 17536.09
235.0866, 17551.24
235.5687, 17563.07
236.0508, 17568.83
236.5329, 17575.38
237.0151, 17587.73
237.4972, 17614.26
237.9793, 17618.37
238.4614, 17580.08
238.9435, 17528.28
239.4256, 17523.01
239.9078, 17593.64
240.3899, 17663.77
240.8720, 17706.88
241.3541, 17716.07
241.8362, 17723.63
242.3183, 17732.97
242.8005, 17739.54
243.2826, 17733.13
243.7647, 17701.61
244.2468, 17678.05
244.7289, 17675.96
245.2110, 17703.31
245.6931, 17718.46
246.1753, 17711.88
246.6574, 17699.10
247.1395, 17704.94
247.6216, 17737.38
248.1037, 17774.37
248.5858, 17814.18
249.0680, 17861.44
249.5501, 17879.56
250.0322, 17847.70
250.5143, 17802.66
250.9964, 17797.50
251.4785, 17857.73
251.9607, 17910.70
252.4428, 17933.42
252.9249, 17920.09
253.4070, 17927.36
253.8891, 17968.93
254.3712, 18018.50
254.8534, 18042.66
255.3355, 18026.62
255.8176, 18015.21
256.2997, 18019.19
256.7818, 18039.18
257.2639, 18060.44
257.7461, 18078.42
258.2282, 18102.92
258.7103, 18146.41
259.1924, 18219.74
259.6745, 18287.54
260.1566, 18340.17
260.6388, 18378.64
261.1209, 18420.84
261.6030, 18474.85
262.0851, 18521.91
262.5672, 18542.56
263.0493, 18528.71
263.5315, 18509.24
264.0136, 18480.29
264.4957, 18446.58
264.9778, 18457.79
265.4599, 18536.28
265.9420, 18621.34
266.4242, 18660.44
266.9063, 18639.05
267.3884, 18621.89
267.8705, 18621.50
268.3526, 18632.38
268.8347, 18620.11
269.3169, 18568.94
269.7990, 18528.59
270.2811, 18545.00
270.7632, 18640.44
271.2453, 18690.63
271.7274, 18665.79
272.2096, 18593.30
272.6917, 18569.60
273.1738, 18610.17
273.6559, 18653.40
274.1380, 18654.22
274.6201, 18601.12
275.1023, 18582.13
275.5844, 18613.48
276.0665, 18673.68
276.5486, 18714.79
277.0307, 18734.78
277.5128, 18743.88
277.9950, 18743.24
278.4771, 18731.64
278.9592, 18729.07
279.4413, 18735.68
279.9234, 18752.87
280.4055, 18788.79
280.8877, 18847.14
281.3698, 18897.67
281.8519, 18926.37
282.3340, 18933.24
282.8161, 18926.50
283.2982, 18901.45
283.7804, 18873.24
284.2625, 18866.10
284.7446, 18880.37
285.2267, 18898.02
285.7088, 18912.56
286.1909, 18924.30
286.6730, 18935.64
287.1552, 18946.10
287.6373, 18957.71
288.1194, 18971.32
288.6015, 18987.22
289.0836, 19010.00
289.5657, 19046.33
290.0479, 19090.23
290.5300, 19120.60
291.0121, 19136.96
291.4942, 19142.92
291.9763, 19134.74
292.4584, 19115.99
292.9406, 19107.15
293.4227, 19113.04
293.9048, 19132.59
294.3869, 19169.15
294.8690, 19222.79
295.3511, 19274.83
295.8333, 19310.92
296.3154, 19333.21
296.7975, 19350.20
297.2796, 19363.67
297.7617, 19372.22
298.2438, 19365.35
298.7260, 19346.36
299.2081, 19340.23
299.6902, 19384.58
300.1723, 19452.31
300.6544, 19482.29
301.1365, 19455.63
301.6187, 19415.09
302.1008, 19411.73
302.5829, 19438.87
303.0650, 19471.01
303.5471, 19491.19
304.0292, 19507.87
304.5114, 19538.57
304.9935, 19589.35
305.4756, 19630.83
305.9577, 19624.44
306.4398, 19587.00
306.9219, 19557.85
307.4041, 19545.96
307.8862, 19556.19
308.3683, 19610.25
308.8504, 19711.00
309.3325, 19791.39
309.8146, 19779.85
310.2968, 19719.16
310.7789, 19672.75
311.2610, 19675.99
311.7431, 19696.38
312.2252, 19707.70
312.7073, 19711.44
313.1895, 19728.41
313.6716, 19784.56
314.1537, 19854.91
314.6358, 19913.26
315.1179, 19952.62
315.6000, 19977.51
316.0822, 19986.68
316.5643, 19982.24
317.0464, 19972.77
317.5285, 19944.86
318.0106, 19923.48
318.4927, 19928.67
318.9749, 19980.56
319.4570, 20030.84
319.9391, 20057.08
320.4212, 20068.25
320.9033, 20086.18
321.3854, 20135.28
321.8676, 20178.41
322.3497, 20194.84
322.8318, 20172.21
323.3139, 20151.90
323.7960, 20145.02
324.2781, 20145.17
324.7603, 20143.01
325.2424, 20126.75
325.7245, 20117.94
326.2066, 20128.61
326.6887, 20165.14
327.1708, 20186.43
327.6530, 20163.43
328.1351, 20136.09
328.6172, 20140.79
329.0993, 20207.80
329.5814, 20275.80
330.0635, 20346.42
330.5457, 20418.72
331.0278, 20459.15
331.5099, 20442.46
331.9920, 20414.37
332.4741, 20404.61
332.9562, 20427.74
333.4384, 20443.43
333.9205, 20443.88
334.4026, 20434.59
334.8847, 20436.54
335.3668, 20453.31
335.8489, 20475.73
336.3311, 20501.48
336.8132, 20536.24
337.2953, 20555.63
337.7774, 20549.41
338.2595, 20535.51
338.7416, 20550.53
339.2238, 20604.06
339.7059, 20658.30
340.1880, 20701.03
340.6701, 20732.25
341.1522, 20753.89
341.6343, 20766.51
342.1164, 20769.41
342.5985, 20755.26
343.0807, 20720.88
343.5628, 20703.85
344.0449, 20721.93
344.5270, 20764.22
345.0091, 20782.00
345.4912, 20773.08
345.9734, 20756.49
346.4555, 20745.26
346.9376, 20739.46
347.4197, 20738.88
347.9018, 20742.14
348.3839, 20752.10
348.8661, 20783.09
349.3482, 20832.50
349.8303, 20869.93
350.3124, 20862.23
350.7945, 20828.16
351.2766, 20821.85
351.7588, 20853.71
352.2409, 20891.58
352.7230, 20891.29
353.2051, 20865.24
353.6872, 20849.92
354.1693, 20884.25
354.6515, 20930.29
355.1336, 20935.66
355.6157, 20898.63
356.0978, 20848.48
356.5799, 20776.45
357.0620, 20712.91
357.5442, 20705.10
358.0263, 20821.58
358.5084, 20950.06
358.9905, 21008.64
359.4726, 21005.35
359.9547, 20984.85
360.4369, 20963.36
360.9190, 20939.74
361.4011, 20909.79
361.8832, 20858.89
362.3653, 20827.96
362.8474, 20846.89
363.3296, 20898.46
363.8117, 20946.76
364.2938, 20978.93
364.7759, 21004.96
365.2580, 21027.35
365.7401, 21044.24
366.2223, 21066.63
366.7044, 21111.09
367.1865, 21156.90
367.6686, 21181.46
368.1507, 21147.11
368.6328, 21126.81
369.1150, 21140.46
369.5971, 21188.80
370.0792, 21234.28
370.5613, 21287.30
371.0434, 21328.73
371.5255, 21346.43
372.0077, 21327.93
372.4898, 21303.98
372.9719, 21266.66
373.4540, 21225.41
373.9361, 21210.84
374.4182, 21231.40
374.9004, 21265.22
375.3825, 21308.66
375.8646, 21369.49
376.3467, 21400.74
376.8288, 21389.29
377.3109, 21364.53
377.7931, 21372.31
378.2752, 21420.64
378.7573, 21463.03
379.2394, 21479.46
379.7215, 21476.18
380.2036, 21508.66
380.6858, 21583.88
381.1679, 21658.54
381.6500, 21690.79
382.1321, 21683.59
382.6142, 21668.21
383.0963, 21647.40
383.5785, 21625.94
384.0606, 21610.05
384.5427, 21600.54
385.0248, 21601.53
385.5069, 21626.61
385.9890, 21663.50
386.4712, 21679.85
386.9533, 21670.67
387.4354, 21656.12
387.9175, 21653.82
388.3996, 21662.49
388.8817, 21679.71
389.3639, 21711.78
389.8460, 21746.92
390.3281, 21771.55
390.8102, 21786.29
391.2923, 21803.25
391.7744, 21834.14
392.2566, 21869.78
392.7387, 21901.18
393.2208, 21927.21
393.7029, 21946.73
394.1850, 21957.17
394.6671, 21960.64
395.1493, 21962.73
395.6314, 21961.93
396.1135, 21963.40
396.5956, 21969.65
397.0777, 21981.16
397.5598, 21997.29
398.0419, 22025.17
398.5240, 22054.94
399.0062, 22075.20
399.4883, 22063.92
399.9704, 22064.18
400.4525, 22089.20
400.9346, 22138.12
401.4167, 22183.04
401.8989, 22233.97
402.3810, 22271.53
402.8631, 22282.93
403.3452, 22254.95
403.8273, 22225.47
404.3094, 22192.16
404.7916, 22160.04
405.2737, 22140.17
405.7558, 22131.55
406.2379, 22138.48
406.7200, 22168.72
407.2021, 22224.00
407.6843, 22262.13
408.1664, 22280.80
408.6485, 22287.93
409.1306, 22286.51
409.6127, 22276.54
410.0948, 22280.77
410.5770, 22311.81
411.0591, 22355.24
411.5412, 22369.40
412.0233, 22354.90
412.5054, 22338.45
412.9875, 22330.51
413.4697, 22334.97
413.9518, 22366.31
414.4339, 22429.64
414.9160, 22503.83
415.3981, 22563.73
415.8802, 22614.98
416.3624, 22675.03
416.8445, 22786.87
417.3266, 22888.86
417.8087, 22908.26
418.2908, 22848.09
418.7729, 22784.05
419.2551, 22752.04
419.7372, 22744.95
420.2193, 22757.24
420.7014, 22793.45
421.1835, 22839.51
421.6656, 22900.16
422.1478, 22966.37
422.6299, 23017.39
423.1120, 23036.27
423.5941, 23047.43
424.0762, 23063.51
424.5583, 23090.63
425.0405, 23101.52
425.5226, 23065.92
426.0047, 23025.68
426.4868, 23021.83
426.9689, 23074.94
427.4510, 23137.77
427.9332, 23216.64
428.4153, 23303.46
428.8974, 23347.92
429.3795, 23322.53
429.8616, 23297.56
430.3438, 23315.28
430.8259, 23393.15
431.3080, 23441.13
431.7901, 23447.99
432.2722, 23440.10
432.7543, 23465.06
433.2365, 23528.00
433.7186, 23570.25
434.2007, 23561.64
434.6828, 23519.88
435.1649, 23514.30
435.6470, 23545.99
436.1292, 23592.04
436.6113, 23636.54
437.0934, 23680.19
437.5755, 23725.59
438.0576, 23773.24
438.5397, 23821.77
439.0219, 23879.89
439.5040, 23939.47
439.9861, 23975.64
440.4682, 23940.95
440.9503, 23898.98
441.4324, 23917.24
441.9146, 23998.06
442.3967, 24090.93
442.8788, 24182.12
443.3609, 24263.63
443.8430, 24324.93
444.3251, 24357.24
444.8073, 24379.69
445.2894, 24397.43
445.7715, 24410.21
446.2536, 24417.30
446.7357, 24420.82
447.2178, 24416.01
447.7000, 24391.76
448.1821, 24331.13
448.6642, 24314.93
449.1463, 24400.83
449.6284, 24495.60
450.1105, 24510.14
450.5927, 24384.21
451.0747, 24287.09
451.5569, 24252.26
452.0390, 24261.01
452.5211, 24233.04
453.0032, 24156.36
453.4853, 24077.28
453.9674, 24017.47
454.4496, 23977.08
454.9317, 23961.04
455.4138, 23978.13
455.8959, 23996.05
456.3780, 23964.26
456.8601, 23889.22
457.3423, 23830.30
457.8244, 23812.56
458.3065, 23815.35
458.7886, 23792.43
459.2707, 23747.73
459.7528, 23718.73
460.2350, 23743.76
460.7171, 23793.99
461.1992, 23830.70
461.6813, 23848.45
462.1634, 23851.70
462.6455, 23829.23
463.1277, 23797.16
463.6098, 23780.19
464.0919, 23805.10
464.5740, 23830.94
465.0561, 23829.88
465.5382, 23807.98
466.0204, 23804.98
466.5025, 23857.39
466.9846, 23914.14
467.4667, 23947.09
467.9488, 23949.96
468.4309, 23937.09
468.9131, 23891.67
469.3952, 23838.01
469.8773, 23808.77
470.3594, 23823.50
470.8415, 23830.34
471.3236, 23809.36
471.8058, 23767.82
472.2879, 23774.02
472.7700, 23846.64
473.2521, 23921.58
473.7342, 23956.52
474.2163, 23949.63
474.6985, 23934.38
475.1806, 23908.53
475.6627, 23885.32
476.1448, 23888.15
476.6269, 23913.87
477.1090, 23935.09
477.5912, 23934.28
478.0733, 23927.74
478.5554, 23953.13
479.0375, 24006.77
479.5196, 24053.66
480.0017, 24059.72
480.4839, 24048.68
480.9660, 24052.54
481.4481, 24079.74
481.9302, 24107.11
482.4123, 24117.54
482.8944, 24118.56
483.3766, 24121.44
483.8587, 24136.08
484.3408, 24147.66
484.8229, 24143.84
485.3050, 24127.86
485.7871, 24127.07
486.2693, 24184.07
486.7514, 24228.50
487.2335, 24214.23
487.7156, 24081.02
488.1977, 24026.57
488.6798, 24095.40
489.1620, 24212.66
489.6441, 24279.88
490.1262, 24282.87
490.6083, 24272.49
491.0904, 24255.37
491.5725, 24233.90
492.0547, 24217.54
492.5368, 24206.56
493.0189, 24201.93
493.5010, 24207.65
493.9831, 24222.24
494.4652, 24235.18
494.9474, 24247.12
495.4295, 24252.93
495.9116, 24237.22
496.3937, 24209.73
496.8758, 24197.96
497.3579, 24212.77
497.8401, 24244.37
498.3222, 24294.16
498.8043, 24354.72
499.2864, 24400.01
499.7685, 24394.11
500.2506, 24381.65
500.7328, 24400.99
501.2149, 24462.24
501.6970, 24511.47
502.1791, 24520.33
502.6612, 24511.63
503.1433, 24506.99
503.6255, 24513.53
504.1076, 24520.39
504.5897, 24524.03
505.0718, 24527.49
505.5539, 24540.61
506.0360, 24576.38
506.5181, 24603.69
507.0002, 24610.10
507.4824, 24594.67
507.9645, 24576.87
508.4466, 24550.93
508.9287, 24536.88
509.4108, 24557.09
509.8929, 24611.20
510.3751, 24673.46
510.8572, 24747.99
511.3393, 24814.01
511.8214, 24835.25
512.3035, 24816.15
512.7856, 24781.63
513.2678, 24705.18
513.7499, 24638.31
514.2320, 24681.55
514.7141, 24824.52
515.1962, 24944.40
515.6783, 24947.07
516.1605, 24894.67
516.6426, 24842.06
517.1247, 24793.86
517.6068, 24763.48
518.0889, 24766.76
518.5710, 24788.97
519.0532, 24808.74
519.5353, 24832.29
520.0174, 24842.57
520.4995, 24827.36
520.9816, 24791.36
521.4637, 24767.91
521.9459, 24752.04
522.4280, 24755.38
522.9101, 24790.13
523.3922, 24868.54
523.8743, 24916.62
524.3564, 24926.75
524.8386, 24921.85
525.3207, 24929.27
525.8028, 24948.78
526.2849, 24967.07
526.7670, 24980.62
527.2491, 24991.83
527.7313, 25008.22
528.2134, 25027.85
528.6955, 25038.99
529.1776, 25024.57
529.6597, 25002.50
530.1418, 24993.63
530.6240, 24999.06
531.1061, 25018.94
531.5882, 25088.33
532.0703, 25154.66
532.5524, 25159.88
533.0345, 25040.19
533.5167, 24949.51
533.9988, 24959.22
534.4809, 25027.31
534.9630, 25081.95
535.4451, 25120.56
535.9272, 25136.68
536.4094, 25118.69
536.8915, 25070.68
537.3736, 25045.51
537.8557, 25051.40
538.3378, 25066.36
538.8199, 25080.77
539.3021, 25095.62
539.7842, 25099.43
540.2663, 25087.55
540.7484, 25077.05
541.2305, 25092.70
541.7126, 25131.46
542.1948, 25170.65
542.6769, 25211.32
543.1590, 25238.47
543.6411, 25210.58
544.1232, 25143.50
544.6053, 25096.66
545.0875, 25118.16
545.5696, 25164.72
546.0517, 25195.30
546.5338, 25208.72
547.0159, 25227.40
547.4980, 25280.41
547.9802, 25332.14
548.4623, 25352.53
548.9444, 25309.33
549.4265, 25283.01
549.9086, 25292.92
550.3907, 25323.71
550.8729, 25353.61
551.3550, 25381.19
551.8371, 25408.99
552.3192, 25436.40
552.8013, 25463.59
553.2834, 25495.78
553.7656, 25536.88
554.2477, 25567.07
554.7298, 25566.31
555.2119, 25539.40
555.6940, 25542.35
556.1761, 25578.97
556.6583, 25616.09
557.1404, 25610.85
557.6225, 25581.38
558.1046, 25574.21
558.5867, 25609.79
559.0688, 25647.52
559.5510, 25644.02
560.0331, 25616.80
560.5152, 25600.08
560.9973, 25612.33
561.4794, 25635.05
561.9615, 25668.62
562.4437, 25709.62
562.9258, 25731.07
563.4079, 25699.44
563.8900, 25670.58
564.3721, 25673.94
564.8542, 25723.68
565.3364, 25756.20
565.8185, 25760.18
566.3006, 25759.50
566.7827, 25779.74
567.2648, 25824.03
567.7469, 25869.82
568.2291, 25915.52
568.7112, 25959.14
569.1933, 26000.28
569.6754, 26038.29
570.1575, 26065.43
570.6396, 26068.53
571.1218, 26063.89
571.6039, 26069.35
572.0860, 26087.04
572.5681, 26134.01
573.0502, 26247.49
573.5323, 26378.67
574.0145, 26485.57
574.4966, 26557.08
574.9787, 26622.17
575.4608, 26673.13
575.9429, 26730.20
576.4250, 26812.64
576.9072, 26946.77
577.3893, 27076.51
577.8714, 27192.95
578.3535, 27302.09
578.8356, 27415.52
579.3177, 27539.22
579.7999, 27654.72
580.2820, 27770.35
580.7641, 27876.11
581.2462, 27904.48
581.7283, 27853.10
582.2104, 27751.98
582.6926, 27601.53
583.1747, 27418.73
583.6568, 27251.17
584.1389, 27100.82
584.6210, 26966.11
585.1031, 26841.72
585.5853, 26733.80
586.0674, 26653.44
586.5495, 26612.35
587.0316, 26584.73
587.5137, 26559.02
587.9958, 26537.22
588.4779, 26523.01
588.9600, 26502.85
589.4421, 26505.45
589.9243, 26555.74
590.4064, 26645.30
590.8885, 26700.00
591.3706, 26715.43
591.8527, 26702.78
592.3348, 26657.24
592.8170, 26572.74
593.2991, 26520.98
593.7812, 26503.64
594.2633, 26511.01
594.7454, 26546.79
595.2275, 26602.46
595.7097, 26638.07
596.1918, 26645.96
596.6739, 26633.84
597.1560, 26585.31
597.6381, 26524.65
598.1202, 26504.49
598.6024, 26583.37
599.0845, 26675.16
599.5666, 26733.72
600.0487, 26763.50
600.5308, 26781.80
601.0129, 26763.83
601.4951, 26762.65
601.9772, 26808.49
602.4593, 26908.05
602.9414, 26993.60
603.4235, 27067.36
603.9056, 27124.79
604.3878, 27157.16
604.8699, 27156.85
605.3520, 27180.04
605.8341, 27233.40
606.3162, 27301.00
606.7983, 27374.59
607.2805, 27448.68
607.7626, 27492.95
608.2447, 27492.96
608.7268, 27469.62
609.2089, 27446.47
609.6910, 27421.45
610.1732, 27388.46
610.6553, 27349.31
611.1374, 27296.89
611.6195, 27203.09
612.1016, 27077.33
612.5837, 27007.48
613.0659, 27072.65
613.5480, 27153.93
614.0301, 27184.77
614.5122, 27143.02
614.9943, 27146.47
615.4764, 27226.12
615.9586, 27311.21
616.4407, 27331.26
616.9228, 27275.03
617.4049, 27249.76
617.8870, 27276.80
618.3691, 27312.91
618.8513, 27285.30
619.3334, 27206.10
619.8155, 27128.10
620.2976, 27065.98
620.7797, 27020.05
621.2618, 26998.72
621.7440, 26995.54
622.2261, 26991.07
622.7082, 26966.11
623.1903, 26945.81
623.6724, 26951.95
624.1545, 26984.70
624.6367, 27001.94
625.1188, 26985.73
625.6009, 26960.93
626.0830, 26937.69
626.5651, 26914.08
627.0472, 26898.82
627.5294, 26889.83
628.0115, 26892.57
628.4936, 26918.67
628.9757, 26968.56
629.4578, 27005.09
629.9399, 27021.69
630.4221, 27027.40
630.9042, 27031.61
631.3863, 27035.25
