##NAMES=Fluorapatite
##RRUFFID=R050194
##IDEAL CHEMISTRY=Ca_5_(PO_4_)_3_F
##LOCALITY=Siglo XX mine, Llallagua, Bolivia
##OWNER=RRUFF
##SOURCE=Dave Bunk Minerals
##DESCRIPTION=Purple crystal fragments
##STATUS=The identification of this mineral has been confirmed by X-ray diffraction and chemical analysis
##URL=rruff.info/R050194
##MEASURED CHEMISTRY=Ca_5.00_(P_1.00_O_4_)_3_F_1.00_
92.96582, 85.58879
93.44794, 84.31380
93.93005, 84.40575
94.41217, 86.20016
94.89429, 87.48126
95.37640, 88.28651
95.85852, 88.86198
96.34064, 89.45869
96.82275, 90.23079
97.30487, 91.09953
97.78699, 91.95210
98.26910, 93.49895
98.75122, 94.46513
99.23334, 93.95923
99.71545, 91.99297
100.1976, 89.48573
100.6797, 87.14493
101.1618, 84.91560
101.6439, 82.66731
102.1260, 80.29146
102.6081, 77.85236
103.0903, 75.47460
103.5724, 72.96349
104.0545, 70.81606
104.5366, 69.14153
105.0187, 67.88644
105.5008, 66.96896
105.9830, 66.47070
106.4651, 66.43848
106.9472, 65.98227
107.4293, 64.48058
107.9114, 63.04193
108.3935, 62.01039
108.8757, 61.43033
109.3578, 61.20650
109.8399, 61.25433
110.3220, 61.78619
110.8041, 62.11671
111.2862, 61.99986
111.7684, 61.84600
112.2505, 62.00642
112.7326, 62.59042
113.2147, 63.41702
113.6968, 64.07613
114.1789, 64.16196
114.6611, 64.80569
115.1432, 66.59839
115.6253, 69.09135
116.1074, 71.39546
116.5895, 73.07857
117.0716, 74.34478
117.5538, 75.72844
118.0359, 77.35582
118.5180, 78.88776
119.0001, 80.04203
119.4822, 80.80878
119.9643, 81.47606
120.4465, 82.15410
120.9286, 82.81902
121.4107, 83.40196
121.8928, 83.76685
122.3749, 84.15706
122.8570, 85.06982
123.3392, 86.68924
123.8213, 88.53674
124.3034, 90.75857
124.7855, 92.99242
125.2676, 94.71096
125.7497, 95.42357
126.2319, 95.24784
126.7140, 95.84170
127.1961, 97.73827
127.6782, 100.0107
128.1603, 102.3848
128.6424, 104.9542
129.1246, 108.0155
129.6067, 111.9495
130.0888, 117.0269
130.5709, 121.4921
131.0530, 124.5226
131.5351, 127.7451
132.0173, 132.1111
132.4994, 137.7544
132.9815, 144.1578
133.4636, 150.7733
133.9457, 157.7751
134.4278, 164.5006
134.9100, 170.1159
135.3921, 175.7215
135.8742, 182.3634
136.3563, 190.1400
136.8384, 199.6357
137.3205, 213.0516
137.8027, 230.8421
138.2848, 246.3963
138.7669, 258.7888
139.2490, 267.2749
139.7311, 268.4958
140.2132, 259.0887
140.6954, 243.4105
141.1775, 226.0198
141.6596, 206.8028
142.1417, 188.0282
142.6238, 171.6549
143.1059, 157.6498
143.5881, 145.8736
144.0702, 137.2826
144.5523, 130.4029
145.0344, 124.5130
145.5165, 119.4185
145.9986, 115.2300
146.4807, 112.2400
146.9629, 110.9364
147.4450, 110.0467
147.9271, 109.3870
148.4092, 108.9402
148.8913, 108.6403
149.3734, 108.4453
149.8556, 108.4529
150.3377, 109.0575
150.8198, 111.1537
151.3019, 112.9516
151.7840, 114.0340
152.2661, 114.7118
152.7483, 115.3544
153.2304, 116.1160
153.7125, 117.0769
154.1946, 119.4293
154.6767, 124.0374
155.1588, 128.8044
155.6410, 132.8895
156.1231, 136.4030
156.6052, 139.8980
157.0873, 143.7755
157.5694, 148.0155
158.0515, 152.1521
158.5337, 157.3482
159.0158, 161.6567
159.4979, 163.3335
159.9800, 162.2326
160.4621, 159.7967
160.9442, 156.8292
161.4264, 153.3707
161.9085, 149.5100
162.3906, 144.5219
162.8727, 139.3393
163.3548, 135.4516
163.8369, 133.0448
164.3191, 131.7338
164.8012, 131.4244
165.2833, 131.9015
165.7654, 132.8018
166.2475, 134.0277
166.7296, 135.5430
167.2118, 137.2947
167.6939, 139.9909
168.1760, 141.9870
168.6581, 142.1693
169.1402, 141.0153
169.6223, 139.7920
170.1045, 139.7092
170.5866, 140.9317
171.0687, 141.4170
171.5508, 140.5235
172.0329, 139.3927
172.5150, 138.3451
172.9972, 137.4233
173.4793, 136.5243
173.9614, 135.4855
174.4435, 134.1175
174.9256, 133.3125
175.4077, 133.3083
175.8899, 133.5472
176.3720, 133.6868
176.8541, 133.6980
177.3362, 133.8023
177.8183, 134.2849
178.3004, 135.2639
178.7826, 136.4520
179.2647, 138.1535
179.7468, 139.8755
180.2289, 141.2861
180.7110, 142.2878
181.1931, 142.8894
181.6752, 143.0278
182.1574, 142.5378
182.6395, 142.0668
183.1216, 142.1050
183.6037, 142.0726
184.0858, 141.0919
184.5679, 138.8124
185.0501, 135.8819
185.5322, 133.3519
186.0143, 131.2892
186.4964, 129.0095
186.9785, 125.6447
187.4606, 121.8628
187.9428, 119.4574
188.4249, 119.3785
188.9070, 120.2504
189.3891, 120.3114
189.8712, 119.5352
190.3533, 118.5876
190.8355, 117.8148
191.3176, 117.2056
191.7997, 116.6864
192.2818, 116.1410
192.7639, 115.7919
193.2460, 115.9805
193.7282, 116.7328
194.2103, 117.3316
194.6924, 116.7974
195.1745, 114.9245
195.6566, 113.8872
196.1387, 114.9169
196.6209, 116.4517
197.1030, 117.9204
197.5851, 119.1729
198.0672, 119.9232
198.5493, 119.4964
199.0314, 117.1845
199.5136, 116.0197
199.9957, 116.9736
200.4778, 118.6320
200.9599, 120.4004
201.4420, 122.0515
201.9241, 123.3572
202.4063, 123.7600
202.8884, 122.0319
203.3705, 121.9090
203.8526, 124.5042
204.3347, 127.8597
204.8168, 130.5571
205.2990, 132.1527
205.7811, 133.1349
206.2632, 134.3854
206.7453, 135.9640
207.2274, 137.7708
207.7095, 140.1114
208.1917, 142.5199
208.6738, 144.5454
209.1559, 146.0373
209.6380, 147.1776
210.1201, 148.3172
210.6022, 149.2850
211.0844, 150.5246
211.5665, 152.7814
212.0486, 155.0624
212.5307, 156.1023
213.0128, 155.4334
213.4949, 153.6867
213.9771, 152.0526
214.4592, 150.5018
214.9413, 149.1295
215.4234, 147.9013
215.9055, 146.8775
216.3876, 146.3337
216.8698, 146.5287
217.3519, 146.7659
217.8340, 145.3432
218.3161, 141.7935
218.7982, 138.9541
219.2803, 138.1007
219.7625, 138.6285
220.2446, 139.2467
220.7267, 139.6728
221.2088, 139.8380
221.6909, 139.4889
222.1730, 138.5111
222.6552, 137.8990
223.1373, 138.1067
223.6194, 139.0646
224.1015, 140.6397
224.5836, 143.1649
225.0657, 145.8340
225.5479, 147.6253
226.0300, 148.5165
226.5121, 149.4817
226.9942, 151.3648
227.4763, 153.9861
227.9584, 156.0954
228.4406, 156.8468
228.9227, 157.6392
229.4048, 159.8688
229.8869, 163.4574
230.3690, 166.8448
230.8511, 168.3401
231.3333, 168.0110
231.8154, 169.0046
232.2975, 173.7571
232.7796, 178.0053
233.2617, 179.0172
233.7438, 176.9472
234.2260, 173.8854
234.7081, 171.5104
235.1902, 169.8620
235.6723, 168.3021
236.1544, 167.2647
236.6365, 165.8762
237.1187, 163.6675
237.6008, 160.6970
238.0829, 157.3606
238.5650, 153.9392
239.0471, 150.3982
239.5292, 147.0290
240.0114, 143.6474
240.4935, 140.6137
240.9756, 138.0198
241.4577, 135.8905
241.9398, 134.2759
242.4219, 133.3432
242.9041, 133.2502
243.3862, 132.6769
243.8683, 130.8725
244.3504, 129.2780
244.8325, 128.4555
245.3146, 128.3487
245.7968, 128.6373
246.2789, 129.1152
246.7610, 129.8609
247.2431, 130.0740
247.7252, 129.0425
248.2073, 128.1974
248.6895, 128.1358
249.1716, 128.7434
249.6537, 129.5919
250.1358, 130.3416
250.6179, 130.9897
251.1000, 131.5867
251.5822, 132.1315
252.0643, 132.6354
252.5464, 133.1994
253.0285, 133.7378
253.5106, 133.9798
253.9927, 133.6451
254.4748, 132.7406
254.9570, 132.6506
255.4391, 133.5887
255.9212, 134.9389
256.4033, 136.6870
256.8854, 138.6858
257.3676, 140.6188
257.8497, 142.2234
258.3318, 143.5694
258.8139, 145.6054
259.2960, 148.9393
259.7781, 152.1418
260.2603, 154.3587
260.7424, 156.0569
261.2245, 158.3863
261.7066, 162.0361
262.1887, 166.7924
262.6708, 171.5322
263.1530, 176.3593
263.6351, 181.0902
264.1172, 185.3636
264.5993, 189.5018
265.0814, 194.4012
265.5635, 200.6776
266.0457, 207.7226
266.5278, 213.5669
267.0099, 218.9071
267.4920, 222.4640
267.9741, 223.5592
268.4562, 222.6144
268.9384, 220.2668
269.4204, 216.5751
269.9026, 212.0172
270.3847, 207.5878
270.8668, 203.4117
271.3489, 199.0392
271.8310, 193.7153
272.3131, 188.2026
272.7953, 184.1359
273.2774, 182.2925
273.7595, 181.3404
274.2416, 178.7661
274.7237, 174.2487
275.2058, 170.9076
275.6880, 170.2413
276.1701, 171.2392
276.6522, 172.3040
277.1343, 173.1897
277.6164, 173.7489
278.0985, 173.5551
278.5807, 172.6928
279.0628, 172.0140
279.5449, 171.6971
280.0270, 171.7264
280.5091, 172.1121
280.9912, 172.8844
281.4734, 173.8898
281.9555, 175.0403
282.4376, 176.3181
282.9197, 177.6734
283.4018, 179.2161
283.8839, 180.7786
284.3661, 182.0914
284.8482, 183.0986
285.3303, 184.1011
285.8124, 185.5371
286.2945, 187.1446
286.7766, 188.2361
287.2588, 188.5157
287.7409, 188.2921
288.2230, 187.6107
288.7051, 186.3798
289.1872, 185.7492
289.6693, 187.0540
290.1515, 189.2588
290.6336, 190.4852
291.1157, 190.2078
291.5978, 189.1844
292.0799, 187.8404
292.5620, 186.1654
293.0442, 185.0044
293.5263, 184.9620
294.0084, 185.5634
294.4905, 186.1425
294.9726, 186.6616
295.4547, 187.1216
295.9369, 187.4312
296.4190, 187.6151
296.9011, 188.0187
297.3832, 188.8448
297.8653, 189.8620
298.3474, 190.6858
298.8296, 191.2542
299.3117, 192.1483
299.7938, 194.2494
300.2759, 197.2111
300.7580, 198.9461
301.2401, 198.1139
301.7223, 197.1801
302.2044, 198.4915
302.6865, 201.8424
303.1686, 205.5507
303.6507, 208.8607
304.1328, 211.8493
304.6150, 214.6676
305.0971, 217.1600
305.5792, 219.8208
306.0613, 223.0784
306.5434, 226.7848
307.0255, 230.5414
307.5077, 233.7345
307.9898, 236.9546
308.4719, 241.6418
308.9540, 248.2430
309.4361, 254.9534
309.9182, 261.2100
310.4004, 266.7281
310.8825, 270.8991
311.3646, 273.2818
311.8467, 274.4862
312.3288, 275.3522
312.8109, 275.9572
313.2931, 275.7205
313.7752, 273.6189
314.2573, 270.8241
314.7394, 268.6999
315.2215, 267.6476
315.7036, 266.8675
316.1858, 265.5506
316.6679, 263.7043
317.1500, 261.9489
317.6321, 260.4168
318.1142, 259.1280
318.5963, 258.0466
319.0785, 257.1665
319.5606, 256.5633
320.0427, 256.2336
320.5248, 256.2020
321.0069, 256.7065
321.4890, 258.1366
321.9712, 259.6447
322.4533, 260.1801
322.9354, 259.9535
323.4175, 260.3437
323.8996, 262.6747
324.3817, 266.1436
324.8639, 268.4251
325.3460, 268.9060
325.8281, 269.2816
326.3102, 270.9949
326.7923, 273.5348
327.2744, 275.8412
327.7566, 277.4077
328.2387, 278.5972
328.7208, 280.0219
329.2029, 281.7657
329.6850, 283.2214
330.1671, 283.5089
330.6493, 283.4702
331.1314, 284.4662
331.6135, 287.2388
332.0956, 290.2674
332.5777, 292.1536
333.0598, 292.9216
333.5420, 293.1595
334.0241, 292.4600
334.5062, 291.8511
334.9883, 292.7600
335.4704, 295.4731
335.9525, 298.3458
336.4347, 300.4242
336.9168, 301.8167
337.3989, 302.8199
337.8810, 303.3136
338.3631, 303.7619
338.8452, 305.0455
339.3274, 307.0415
339.8094, 308.0946
340.2916, 306.3434
340.7737, 303.5472
341.2558, 303.0481
341.7379, 305.5626
342.2200, 308.7026
342.7021, 310.5796
343.1843, 311.5175
343.6664, 312.4345
344.1485, 313.3525
344.6306, 314.4248
345.1127, 315.8710
345.5948, 317.6834
346.0770, 319.5253
346.5591, 321.1020
347.0412, 322.6439
347.5233, 324.7022
348.0054, 327.6995
348.4875, 330.5526
348.9697, 332.5859
349.4518, 333.9398
349.9339, 334.8713
350.4160, 335.1152
350.8981, 335.5723
351.3802, 338.1055
351.8624, 343.0118
352.3445, 347.6498
352.8266, 351.4633
353.3087, 354.4232
353.7908, 356.0683
354.2729, 356.1562
354.7551, 356.3839
355.2372, 359.0358
355.7193, 364.1990
356.2014, 367.8421
356.6835, 368.5033
357.1656, 368.2899
357.6478, 368.7080
358.1299, 369.8699
358.6120, 371.6229
359.0941, 374.0765
359.5762, 377.0304
360.0583, 379.2114
360.5405, 379.6419
361.0226, 380.4300
361.5047, 383.6083
361.9868, 387.7645
362.4689, 389.5152
362.9510, 387.1287
363.4332, 382.3301
363.9153, 379.1759
364.3974, 377.7935
364.8795, 377.6009
365.3616, 380.0052
365.8438, 382.8591
366.3259, 383.7818
366.8080, 382.2614
367.2901, 379.3565
367.7722, 376.1959
368.2543, 372.6271
368.7365, 369.5613
369.2186, 367.3832
369.7007, 365.3495
370.1828, 363.0688
370.6649, 360.5341
371.1470, 357.9178
371.6292, 355.3770
372.1113, 352.8700
372.5934, 349.8434
373.0755, 345.3551
373.5576, 341.4810
374.0397, 339.1954
374.5219, 337.6664
375.0040, 335.6997
375.4861, 332.7720
375.9682, 329.3546
376.4503, 326.4887
376.9324, 325.0453
377.4146, 322.7260
377.8967, 319.1761
378.3788, 315.0833
378.8609, 310.4789
379.3430, 305.6380
379.8251, 301.4227
380.3073, 298.9143
380.7894, 298.4186
381.2715, 297.4584
381.7536, 296.4710
382.2357, 294.5613
382.7178, 290.6124
383.2000, 285.5522
383.6821, 281.1061
384.1642, 278.3729
384.6463, 276.9870
385.1284, 275.5444
385.6105, 274.0814
386.0927, 272.4863
386.5748, 270.5731
387.0569, 268.6209
387.5390, 266.9644
388.0211, 265.6830
388.5032, 264.4739
388.9854, 262.9775
389.4675, 261.2188
389.9496, 259.0630
390.4317, 255.5202
390.9138, 252.4309
391.3959, 251.0948
391.8781, 251.1849
392.3602, 251.2401
392.8423, 250.1129
393.3244, 248.0594
393.8065, 246.3269
394.2886, 245.0240
394.7708, 243.8561
395.2529, 242.8322
395.7350, 241.7989
396.2171, 240.4599
396.6992, 238.5380
397.1813, 236.6568
397.6635, 235.6469
398.1456, 235.5383
398.6277, 235.6141
399.1098, 235.8531
399.5919, 236.0054
400.0740, 235.7479
400.5562, 235.0506
401.0383, 234.4106
401.5204, 234.0317
402.0025, 233.9211
402.4846, 234.0914
402.9667, 234.5407
403.4489, 235.2873
403.9310, 236.7444
404.4131, 238.6028
404.8952, 239.6612
405.3773, 238.7802
405.8594, 237.7052
406.3416, 238.0396
406.8237, 239.6487
407.3058, 241.4884
407.7879, 243.0430
408.2700, 244.4831
408.7521, 246.2590
409.2343, 248.4117
409.7164, 250.7166
410.1985, 253.2321
410.6806, 255.8125
411.1627, 258.1043
411.6448, 260.0257
412.1269, 262.0708
412.6090, 264.8356
413.0912, 268.4791
413.5733, 272.1432
414.0554, 276.1138
414.5375, 279.8586
415.0196, 282.8988
415.5017, 285.4231
415.9839, 287.9813
416.4660, 290.8661
416.9481, 294.1445
417.4302, 298.1535
417.9123, 303.4534
418.3944, 308.8328
418.8766, 313.9325
419.3587, 319.1950
419.8408, 325.1328
420.3229, 331.8336
420.8050, 338.9852
421.2871, 346.1172
421.7693, 353.0663
422.2514, 360.6681
422.7335, 368.7383
423.2156, 377.6246
423.6977, 387.3899
424.1798, 398.1506
424.6620, 410.1565
425.1441, 423.7333
425.6262, 438.4720
426.1083, 452.7462
426.5904, 466.1577
427.0725, 479.9868
427.5547, 495.9141
428.0368, 511.5511
428.5189, 524.8850
429.0010, 535.4528
429.4831, 543.6642
429.9652, 550.2261
430.4474, 555.1447
430.9295, 556.4568
431.4116, 553.5775
431.8937, 547.1986
432.3758, 537.0990
432.8579, 524.2443
433.3401, 511.3986
433.8222, 499.5112
434.3043, 488.4334
434.7864, 477.9567
435.2685, 468.0020
435.7506, 458.5683
436.2328, 449.5145
436.7149, 441.1149
437.1970, 433.5453
437.6791, 426.5318
438.1612, 421.2162
438.6433, 418.8760
439.1255, 418.5593
439.6076, 418.1688
440.0897, 417.1945
440.5718, 416.7375
441.0539, 418.2081
441.5360, 421.6258
442.0182, 424.4599
442.5003, 426.1096
442.9824, 427.5794
443.4645, 430.0085
443.9466, 432.8726
444.4287, 434.3757
444.9109, 433.4954
445.3930, 431.0176
445.8751, 429.0546
446.3572, 429.1976
446.8393, 427.4043
447.3214, 423.0357
447.8036, 416.9344
448.2857, 409.2359
448.7678, 400.3124
449.2499, 391.2774
449.7320, 383.4063
450.2141, 376.8158
450.6963, 368.9984
451.1784, 357.8725
451.6605, 347.7032
452.1426, 340.2000
452.6247, 334.0844
453.1068, 327.4887
453.5890, 319.6307
454.0711, 311.3244
454.5532, 304.1619
455.0353, 298.3301
455.5174, 292.9122
455.9995, 288.9364
456.4817, 284.4363
456.9638, 277.6436
457.4459, 269.1629
457.9280, 261.6378
458.4101, 257.1541
458.8922, 254.8487
459.3744, 252.0714
459.8565, 248.6625
460.3386, 245.2909
460.8207, 242.0859
461.3028, 239.1770
461.7849, 237.0264
462.2671, 236.0179
462.7492, 234.5334
463.2313, 230.7152
463.7134, 225.4479
464.1955, 221.5212
464.6776, 219.7287
465.1598, 218.6493
465.6419, 216.8144
466.1240, 214.3384
466.6061, 212.3669
467.0882, 211.5070
467.5703, 210.7934
468.0525, 209.4809
468.5346, 207.7196
469.0167, 206.0411
469.4988, 204.6889
469.9809, 203.5980
470.4630, 202.6193
470.9452, 201.9077
471.4273, 201.0317
471.9094, 199.5061
472.3915, 198.1336
472.8736, 197.9585
473.3557, 198.7652
473.8379, 199.1254
474.3200, 197.7137
474.8021, 194.6900
475.2842, 192.6579
475.7663, 192.5913
476.2484, 192.3799
476.7306, 191.7029
477.2127, 190.7116
477.6948, 189.3573
478.1769, 187.6938
478.6590, 186.3440
479.1411, 186.4595
479.6233, 188.2657
480.1054, 188.9338
480.5875, 187.3242
481.0696, 185.7378
481.5517, 185.6638
482.0338, 186.4346
482.5159, 186.5455
482.9980, 185.0567
483.4802, 183.0440
483.9623, 182.0625
484.4444, 182.1149
484.9265, 182.2450
485.4086, 182.2057
485.8907, 182.0437
486.3729, 181.7580
486.8550, 181.3346
487.3371, 181.1017
487.8192, 181.3565
488.3013, 181.7585
488.7834, 181.7838
489.2656, 181.4431
489.7477, 181.3815
490.2298, 182.1443
490.7119, 183.4677
491.1940, 183.9999
491.6761, 183.2489
492.1583, 182.5241
492.6404, 181.9398
493.1225, 181.5638
493.6046, 181.6314
494.0867, 182.1114
494.5688, 182.4875
495.0510, 182.0990
495.5331, 180.8248
496.0152, 180.4381
496.4973, 181.7465
496.9794, 183.0835
497.4615, 184.1765
497.9437, 185.0274
498.4258, 185.7623
498.9079, 186.4276
499.3900, 186.7062
499.8721, 185.8305
500.3542, 183.5467
500.8364, 182.1264
501.3185, 182.1267
501.8006, 182.7231
502.2827, 183.8725
502.7648, 185.2193
503.2469, 185.8658
503.7291, 185.0314
504.2112, 183.6918
504.6933, 183.1835
505.1754, 183.4859
505.6575, 183.9928
506.1396, 184.5887
506.6218, 185.1785
507.1039, 185.5085
507.5860, 185.5153
508.0681, 185.9470
508.5502, 187.6298
509.0323, 189.4245
509.5145, 189.9768
509.9966, 189.3934
510.4787, 188.7950
510.9608, 188.8214
511.4429, 189.4409
511.9250, 190.5425
512.4072, 193.0127
512.8893, 194.7739
513.3714, 195.4030
513.8535, 195.4656
514.3356, 195.1859
514.8177, 194.7596
515.2999, 194.6692
515.7820, 195.4782
516.2641, 197.0717
516.7462, 197.8835
517.2283, 197.2583
517.7104, 196.8067
518.1926, 197.0686
518.6747, 197.5914
519.1568, 197.8768
519.6389, 197.8124
520.1210, 197.7771
520.6031, 198.2368
521.0853, 199.0949
521.5674, 199.6792
522.0495, 199.8223
522.5316, 199.9690
523.0137, 200.6949
523.4958, 201.6041
523.9780, 201.7886
524.4601, 200.4006
524.9422, 199.4058
525.4243, 200.6267
525.9064, 203.1639
526.3885, 204.9042
526.8707, 205.2900
527.3528, 204.9952
527.8349, 204.7266
528.3170, 204.4960
528.7991, 204.1289
529.2813, 203.5708
529.7634, 202.9482
530.2455, 201.7918
530.7276, 200.7369
531.2097, 201.1333
531.6918, 203.4587
532.1740, 206.2866
532.6561, 207.1480
533.1382, 205.2637
533.6203, 204.0662
534.1024, 204.1617
534.5845, 204.3842
535.0667, 204.3757
535.5488, 204.1735
536.0309, 203.8871
536.5130, 203.5328
536.9951, 203.2132
537.4772, 203.0828
537.9594, 203.1437
538.4415, 203.2757
538.9236, 203.3505
539.4057, 203.6372
539.8878, 204.7680
540.3699, 206.4964
540.8521, 207.3529
541.3342, 206.0384
541.8163, 204.4079
542.2984, 204.1737
542.7805, 205.0544
543.2626, 205.8684
543.7448, 206.1247
544.2269, 206.1314
544.7090, 206.4499
545.1911, 207.3827
545.6732, 207.7925
546.1553, 207.2297
546.6375, 206.5724
547.1196, 206.0179
547.6017, 205.7909
548.0838, 206.4952
548.5659, 208.5374
549.0480, 210.9843
549.5302, 211.5499
550.0123, 209.4504
550.4944, 207.8004
550.9765, 206.6171
551.4586, 206.2567
551.9407, 207.4583
552.4229, 209.7204
552.9050, 211.6317
553.3871, 212.5777
553.8692, 212.6544
554.3513, 211.6192
554.8334, 209.5051
555.3156, 207.9699
555.7977, 207.5944
556.2798, 207.9411
556.7619, 208.7186
557.2440, 209.9447
557.7261, 210.5359
558.2083, 209.5667
558.6904, 208.4931
559.1725, 208.3716
559.6546, 209.1079
560.1367, 210.3791
560.6188, 212.0770
561.1010, 213.7997
561.5831, 214.5839
562.0652, 213.3948
562.5473, 213.6566
563.0294, 216.3000
563.5115, 219.2660
563.9937, 221.6614
564.4758, 223.5525
564.9579, 225.3982
565.4400, 227.4996
565.9221, 229.4001
566.4042, 230.0559
566.8864, 229.2684
567.3685, 228.8488
567.8506, 229.2198
568.3327, 229.9309
568.8148, 230.6355
569.2969, 231.3613
569.7791, 232.2202
570.2612, 232.9870
570.7433, 234.1293
571.2254, 235.7216
571.7075, 237.9919
572.1896, 241.9694
572.6718, 248.1878
573.1539, 255.3125
573.6360, 261.4962
574.1181, 266.4008
574.6002, 272.3641
575.0823, 278.7504
575.5645, 286.7624
576.0466, 296.5308
576.5287, 308.4266
577.0108, 323.2343
577.4929, 341.2032
577.9750, 361.0970
578.4572, 381.4491
578.9393, 402.3226
579.4214, 422.8528
579.9035, 447.1871
580.3856, 465.3336
580.8677, 474.5772
581.3499, 474.9948
581.8320, 465.7888
582.3141, 445.6101
582.7962, 419.7881
583.2783, 389.9617
583.7604, 358.2317
584.2426, 331.1392
584.7247, 309.8496
585.2068, 293.6667
585.6889, 282.6603
586.1710, 276.7393
586.6531, 273.1111
587.1352, 271.5884
587.6173, 272.4487
588.0994, 275.8233
588.5815, 281.5797
589.0637, 290.8475
589.5458, 303.0894
590.0279, 315.0511
