##NAMES=Fluorapatite
##RRUFFID=R050192
##IDEAL CHEMISTRY=Ca_5_(PO_4_)_3_F
##LOCALITY=Fulford, Eagle County, Colorado, USA
##OWNER=RRUFF
##SOURCE=Dave Bunk Minerals
##DESCRIPTION=Pale green hexagonal prism
##STATUS=The identification of this mineral has been confirmed by X-ray diffraction and chemical analysis
##URL=rruff.info/R050192
##MEASURED CHEMISTRY=Ca_5.00_(P_1.00_O_4_)_3_(F_0.86_Cl_0.13_)
92.81116, 0.0000000E+00
93.29327, 0.0000000E+00
93.77539, 332.1857
94.25751, 316.3417
94.73962, 326.0279
95.22174, 356.0886
95.70386, 387.8888
96.18597, 412.4957
96.66809, 433.2139
97.15021, 461.4666
97.63232, 497.9246
98.11444, 539.7953
98.59656, 581.9109
99.07867, 624.3168
99.56079, 672.3261
100.0429, 731.1366
100.5250, 800.6978
101.0071, 862.8655
101.4893, 911.8342
101.9714, 958.1310
102.4535, 1025.097
102.9356, 1116.884
103.4177, 1219.036
103.8998, 1324.183
104.3820, 1436.150
104.8641, 1542.995
105.3462, 1645.037
105.8283, 1741.826
106.3104, 1835.808
106.7925, 1922.126
107.2747, 2010.049
107.7568, 2105.083
108.2389, 2215.107
108.7210, 2322.449
109.2031, 2419.855
109.6852, 2506.689
110.1674, 2612.698
110.6495, 2745.390
111.1316, 2894.878
111.6137, 3052.584
112.0958, 3234.560
112.5779, 3411.015
113.0601, 3569.992
113.5422, 3705.038
114.0243, 3861.863
114.5064, 4066.068
114.9885, 4289.591
115.4706, 4500.341
115.9528, 4664.539
116.4349, 4834.130
116.9170, 5033.629
117.3991, 5283.066
117.8812, 5520.783
118.3633, 5727.046
118.8455, 5906.772
119.3276, 6068.931
119.8097, 6201.946
120.2918, 6329.788
120.7739, 6473.469
121.2560, 6655.752
121.7382, 6820.856
122.2203, 6927.252
122.7024, 6985.876
123.1845, 7033.302
123.6666, 7084.550
124.1487, 7138.094
124.6309, 7192.172
125.1130, 7239.715
125.5951, 7293.392
126.0772, 7370.458
126.5593, 7468.796
127.0414, 7569.342
127.5236, 7641.930
128.0057, 7705.184
128.4878, 7801.739
128.9699, 7952.075
129.4520, 8139.529
129.9341, 8344.150
130.4162, 8566.789
130.8984, 8787.104
131.3805, 8975.419
131.8626, 9138.922
132.3447, 9316.737
132.8268, 9533.879
133.3089, 9779.099
133.7911, 9981.437
134.2732, 10109.34
134.7553, 10188.74
135.2374, 10275.26
135.7195, 10369.73
136.2016, 10449.57
136.6838, 10498.49
137.1659, 10517.19
137.6480, 10554.79
138.1301, 10624.76
138.6122, 10693.29
139.0943, 10694.98
139.5765, 10619.15
140.0586, 10525.29
140.5407, 10438.16
141.0228, 10357.22
141.5049, 10282.00
141.9870, 10212.70
142.4692, 10147.20
142.9513, 10078.22
143.4334, 9996.013
143.9155, 9926.820
144.3976, 9885.934
144.8797, 9884.688
145.3619, 9883.645
145.8440, 9880.789
146.3261, 9876.092
146.8082, 9868.578
147.2903, 9847.257
147.7724, 9834.490
148.2546, 9845.142
148.7367, 9899.744
149.2188, 9946.983
149.7009, 9980.616
150.1830, 10001.45
150.6651, 10020.36
151.1473, 10032.70
151.6294, 10046.15
152.1115, 10065.99
152.5936, 10099.64
153.0757, 10131.65
153.5578, 10160.36
154.0400, 10185.45
154.5221, 10207.91
155.0042, 10227.65
155.4863, 10244.76
155.9684, 10259.31
156.4505, 10284.35
156.9327, 10294.10
157.4148, 10271.60
157.8969, 10210.26
158.3790, 10170.86
158.8611, 10186.02
159.3432, 10221.53
159.8254, 10239.48
160.3075, 10215.54
160.7896, 10185.65
161.2717, 10163.06
161.7538, 10149.91
162.2359, 10139.38
162.7181, 10125.19
163.2002, 10113.27
163.6823, 10111.84
164.1644, 10136.43
164.6465, 10163.23
165.1286, 10177.17
165.6108, 10172.75
166.0929, 10170.76
166.5750, 10184.54
167.0571, 10207.40
167.5392, 10227.25
168.0213, 10232.40
168.5035, 10235.82
168.9856, 10249.55
169.4677, 10279.78
169.9498, 10306.32
170.4319, 10309.56
170.9140, 10298.09
171.3962, 10292.20
171.8783, 10302.51
172.3604, 10323.77
172.8425, 10353.59
173.3246, 10397.13
173.8067, 10436.57
174.2889, 10448.97
174.7710, 10442.53
175.2531, 10442.97
175.7352, 10476.59
176.2173, 10523.57
176.6994, 10556.67
177.1816, 10569.05
177.6637, 10569.12
178.1458, 10561.34
178.6279, 10547.36
179.1100, 10535.77
179.5921, 10528.60
180.0743, 10527.97
180.5564, 10540.98
181.0385, 10577.43
181.5206, 10615.96
182.0027, 10614.55
182.4848, 10578.14
182.9670, 10552.39
183.4491, 10588.28
183.9312, 10663.08
184.4133, 10710.44
184.8954, 10708.05
185.3775, 10679.85
185.8596, 10666.12
186.3418, 10666.81
186.8239, 10673.47
187.3060, 10679.51
187.7881, 10685.74
188.2702, 10696.34
188.7523, 10716.31
189.2345, 10738.71
189.7166, 10744.45
190.1987, 10732.94
190.6808, 10719.13
191.1629, 10713.65
191.6451, 10716.75
192.1272, 10731.27
192.6093, 10765.00
193.0914, 10808.08
193.5735, 10826.80
194.0556, 10818.95
194.5378, 10804.93
195.0199, 10800.98
195.5020, 10806.95
195.9841, 10824.06
196.4662, 10856.23
196.9483, 10899.12
197.4305, 10932.73
197.9126, 10954.59
198.3947, 10976.39
198.8768, 11017.12
199.3589, 11078.52
199.8410, 11114.51
200.3232, 11101.59
200.8053, 11051.69
201.2874, 11039.56
201.7695, 11071.88
202.2516, 11122.28
202.7337, 11168.13
203.2159, 11209.67
203.6980, 11242.18
204.1801, 11264.97
204.6622, 11278.10
205.1443, 11278.55
205.6264, 11262.93
206.1086, 11243.33
206.5907, 11230.55
207.0728, 11224.15
207.5549, 11228.42
208.0370, 11247.12
208.5191, 11279.30
209.0013, 11309.28
209.4834, 11339.01
209.9655, 11362.97
210.4476, 11372.97
210.9297, 11364.76
211.4118, 11358.20
211.8940, 11356.08
212.3761, 11358.59
212.8582, 11376.15
213.3403, 11418.96
213.8224, 11461.19
214.3045, 11469.38
214.7867, 11428.84
215.2688, 11399.81
215.7509, 11397.80
216.2330, 11422.58
216.7151, 11448.54
217.1972, 11478.74
217.6794, 11505.71
218.1615, 11517.41
218.6436, 11502.34
219.1257, 11502.80
219.6078, 11535.75
220.0899, 11601.65
220.5721, 11637.32
221.0542, 11630.27
221.5363, 11607.85
222.0184, 11598.56
222.5005, 11607.93
222.9826, 11616.35
223.4648, 11613.27
223.9469, 11598.07
224.4290, 11619.39
224.9111, 11695.96
225.3932, 11787.65
225.8753, 11857.50
226.3575, 11904.03
226.8396, 11929.99
227.3217, 11928.78
227.8038, 11899.94
228.2859, 11885.76
228.7680, 11889.24
229.2502, 11904.02
229.7323, 11925.32
230.2144, 11958.17
230.6965, 11988.04
231.1786, 12012.49
231.6607, 12031.55
232.1429, 12047.35
232.6250, 12059.55
233.1071, 12068.96
233.5892, 12074.83
234.0713, 12071.11
234.5534, 12076.52
235.0356, 12098.79
235.5177, 12136.79
235.9998, 12160.62
236.4819, 12159.30
236.9640, 12155.98
237.4461, 12171.86
237.9283, 12219.48
238.4104, 12260.64
238.8925, 12286.13
239.3746, 12297.14
239.8567, 12319.22
240.3388, 12364.72
240.8210, 12406.96
241.3031, 12422.95
241.7852, 12396.16
242.2673, 12376.51
242.7494, 12371.25
243.2315, 12379.43
243.7137, 12389.67
244.1958, 12400.20
244.6779, 12415.08
245.1600, 12439.22
245.6421, 12482.90
246.1242, 12514.00
246.6064, 12523.99
247.0885, 12516.86
247.5706, 12520.27
248.0527, 12539.03
248.5348, 12562.24
249.0169, 12581.94
249.4990, 12593.21
249.9812, 12614.32
250.4633, 12657.27
250.9454, 12712.60
251.4275, 12730.64
251.9096, 12688.53
252.3917, 12642.31
252.8739, 12624.81
253.3560, 12644.79
253.8381, 12671.43
254.3202, 12701.66
254.8023, 12737.52
255.2844, 12789.47
255.7666, 12872.51
256.2487, 12946.30
256.7308, 12986.12
257.2129, 12977.69
257.6950, 12974.42
258.1772, 12979.17
258.6593, 12989.67
259.1414, 12997.71
259.6235, 12994.15
260.1056, 13004.93
260.5877, 13048.99
261.0699, 13146.30
261.5520, 13210.26
262.0341, 13228.85
262.5162, 13220.84
262.9983, 13227.36
263.4804, 13255.52
263.9626, 13282.60
264.4447, 13298.64
264.9268, 13301.02
265.4089, 13305.04
265.8910, 13311.33
266.3731, 13318.92
266.8553, 13322.75
267.3374, 13315.33
267.8195, 13326.08
268.3016, 13376.73
268.7837, 13477.67
269.2658, 13526.96
269.7480, 13506.65
270.2301, 13459.42
270.7122, 13447.50
271.1943, 13478.80
271.6764, 13516.36
272.1585, 13552.12
272.6407, 13586.09
273.1228, 13600.10
273.6049, 13587.65
274.0870, 13566.56
274.5691, 13556.03
275.0512, 13556.33
275.5334, 13565.65
276.0155, 13585.30
276.4976, 13614.31
276.9797, 13645.70
277.4618, 13683.25
277.9439, 13712.94
278.4260, 13712.17
278.9081, 13676.13
279.3903, 13661.03
279.8724, 13687.81
280.3545, 13744.97
280.8366, 13776.34
281.3187, 13776.94
281.8008, 13774.66
282.2830, 13797.46
282.7651, 13846.03
283.2472, 13884.55
283.7293, 13905.36
284.2114, 13913.14
284.6935, 13920.32
285.1757, 13926.92
285.6578, 13932.72
286.1399, 13936.08
286.6220, 13937.34
287.1041, 13941.88
287.5862, 13949.75
288.0684, 13961.88
288.5505, 13977.91
289.0326, 13997.73
289.5147, 14028.20
289.9968, 14087.93
290.4789, 14167.85
290.9611, 14208.04
291.4432, 14195.06
291.9253, 14164.66
292.4074, 14175.13
292.8895, 14223.03
293.3716, 14272.54
293.8538, 14305.28
294.3359, 14325.33
294.8180, 14346.91
295.3001, 14371.65
295.7822, 14392.24
296.2643, 14397.11
296.7465, 14388.95
297.2286, 14379.93
297.7107, 14371.93
298.1928, 14367.49
298.6749, 14369.70
299.1570, 14378.25
299.6392, 14399.86
300.1213, 14462.33
300.6034, 14545.12
301.0855, 14591.19
301.5676, 14552.96
302.0497, 14484.26
302.5319, 14466.01
303.0140, 14495.56
303.4961, 14534.08
303.9782, 14548.44
304.4603, 14551.02
304.9424, 14565.39
305.4246, 14606.74
305.9067, 14652.05
306.3888, 14674.52
306.8709, 14677.66
307.3530, 14679.29
307.8351, 14690.01
308.3173, 14705.96
308.7994, 14722.39
309.2815, 14738.02
309.7636, 14754.92
310.2457, 14777.25
310.7278, 14802.77
311.2100, 14824.78
311.6921, 14841.59
312.1742, 14852.67
312.6563, 14853.26
313.1384, 14837.92
313.6205, 14832.07
314.1027, 14856.84
314.5848, 14900.71
315.0669, 14943.63
315.5490, 14979.46
316.0311, 15010.47
316.5132, 15037.44
316.9954, 15060.72
317.4775, 15078.60
317.9596, 15080.73
318.4417, 15079.97
318.9238, 15090.91
319.4059, 15130.16
319.8881, 15170.54
320.3702, 15203.22
320.8523, 15227.81
321.3344, 15243.39
321.8165, 15246.01
322.2986, 15241.24
322.7808, 15233.32
323.2629, 15210.24
323.7450, 15198.01
324.2271, 15206.15
324.7092, 15231.44
325.1913, 15256.81
325.6735, 15287.35
326.1556, 15312.34
326.6377, 15325.72
327.1198, 15312.55
327.6019, 15309.47
328.0840, 15324.23
328.5662, 15351.04
329.0483, 15375.52
329.5304, 15400.24
330.0125, 15419.91
330.4946, 15430.54
330.9767, 15424.30
331.4589, 15430.26
331.9410, 15446.24
332.4231, 15475.34
332.9052, 15525.51
333.3873, 15629.99
333.8694, 15704.17
334.3516, 15715.82
334.8337, 15658.51
335.3158, 15634.17
335.7979, 15658.60
336.2800, 15697.66
336.7621, 15718.07
337.2443, 15710.89
337.7264, 15709.45
338.2085, 15720.36
338.6906, 15741.62
339.1727, 15762.44
339.6548, 15783.18
340.1370, 15803.04
340.6191, 15821.57
341.1012, 15838.30
341.5833, 15854.70
342.0654, 15868.40
342.5475, 15884.43
343.0297, 15921.53
343.5118, 15984.00
343.9939, 16033.65
344.4760, 16041.12
344.9581, 16010.37
345.4402, 15996.02
345.9224, 16002.14
346.4045, 16016.59
346.8866, 16016.88
347.3687, 16005.31
347.8508, 16011.66
348.3329, 16064.46
348.8151, 16140.86
349.2972, 16170.02
349.7793, 16150.45
350.2614, 16119.63
350.7435, 16109.22
351.2256, 16115.80
351.7078, 16128.52
352.1899, 16139.94
352.6720, 16161.26
353.1541, 16222.76
353.6362, 16316.96
354.1183, 16394.71
354.6005, 16410.72
355.0826, 16393.40
355.5647, 16382.00
356.0468, 16384.33
356.5289, 16391.34
357.0110, 16391.04
357.4932, 16388.99
357.9753, 16398.33
358.4574, 16442.06
358.9395, 16489.32
359.4216, 16508.71
359.9037, 16494.22
360.3859, 16488.02
360.8680, 16534.11
361.3501, 16596.00
361.8322, 16629.09
362.3143, 16579.03
362.7964, 16532.51
363.2786, 16530.33
363.7607, 16569.78
364.2428, 16613.56
364.7249, 16659.71
365.2070, 16699.13
365.6891, 16724.80
366.1713, 16714.45
366.6534, 16716.92
367.1355, 16754.44
367.6176, 16812.75
368.0997, 16851.13
368.5818, 16856.45
369.0640, 16848.53
369.5461, 16830.88
370.0282, 16789.86
370.5103, 16773.69
370.9924, 16798.46
371.4745, 16841.29
371.9567, 16871.53
372.4388, 16876.42
372.9209, 16887.41
373.4030, 16913.28
373.8851, 16954.55
374.3672, 16991.46
374.8494, 17025.68
375.3315, 17053.41
375.8136, 17065.93
376.2957, 17051.38
376.7778, 17062.98
377.2599, 17115.21
377.7421, 17193.63
378.2242, 17251.55
378.7063, 17285.25
379.1884, 17310.40
379.6705, 17333.48
380.1526, 17354.59
380.6348, 17381.35
381.1169, 17419.92
381.5990, 17449.15
382.0811, 17421.91
382.5632, 17343.22
383.0453, 17290.23
383.5275, 17309.40
384.0096, 17374.92
384.4917, 17409.49
384.9738, 17412.56
385.4559, 17411.65
385.9380, 17433.16
386.4202, 17470.12
386.9023, 17505.33
387.3844, 17536.91
387.8665, 17562.16
388.3486, 17575.71
388.8307, 17579.32
389.3129, 17580.16
389.7950, 17575.49
390.2771, 17573.42
390.7592, 17585.89
391.2413, 17617.46
391.7234, 17647.53
392.2056, 17645.82
392.6877, 17635.78
393.1698, 17653.99
393.6519, 17759.73
394.1340, 17859.38
394.6161, 17896.74
395.0983, 17871.98
395.5804, 17842.61
396.0625, 17819.12
396.5446, 17805.12
397.0267, 17803.39
397.5089, 17821.06
397.9910, 17843.22
398.4731, 17864.08
398.9552, 17887.08
399.4373, 17922.50
399.9194, 17998.67
400.4016, 18063.18
400.8837, 18092.46
401.3658, 18068.77
401.8479, 18064.66
402.3300, 18090.69
402.8121, 18129.66
403.2942, 18162.92
403.7763, 18196.54
404.2585, 18211.18
404.7406, 18191.08
405.2227, 18142.73
405.7048, 18139.32
406.1869, 18194.08
406.6690, 18264.25
407.1512, 18324.48
407.6333, 18375.91
408.1154, 18404.14
408.5975, 18398.89
409.0796, 18382.36
409.5617, 18405.04
410.0439, 18467.98
410.5260, 18522.08
411.0081, 18533.17
411.4902, 18513.66
411.9723, 18518.40
412.4544, 18548.88
412.9366, 18590.94
413.4187, 18640.77
413.9008, 18692.37
414.3829, 18726.47
414.8650, 18729.99
415.3471, 18722.91
415.8293, 18729.22
416.3114, 18747.32
416.7935, 18769.37
417.2756, 18790.31
417.7577, 18813.09
418.2398, 18844.35
418.7220, 18889.98
419.2041, 18925.06
419.6862, 18920.38
420.1683, 18898.90
420.6504, 18895.74
421.1325, 18940.34
421.6147, 18991.04
422.0968, 19026.32
422.5789, 19046.98
423.0610, 19078.07
423.5431, 19143.49
424.0252, 19210.57
424.5074, 19258.63
424.9895, 19262.83
425.4716, 19274.70
425.9537, 19294.38
426.4358, 19323.76
426.9179, 19368.14
427.4001, 19442.08
427.8822, 19512.70
428.3643, 19567.59
428.8464, 19602.82
429.3285, 19651.98
429.8106, 19729.49
430.2928, 19801.73
430.7749, 19830.54
431.2570, 19803.56
431.7391, 19783.95
432.2212, 19781.29
432.7033, 19793.86
433.1855, 19818.61
433.6676, 19856.65
434.1497, 19897.81
434.6318, 19939.03
435.1139, 19979.18
435.5960, 20008.24
436.0782, 20023.72
436.5603, 20039.55
437.0424, 20076.74
437.5245, 20129.37
438.0066, 20177.12
438.4887, 20213.02
438.9709, 20239.75
439.4530, 20254.54
439.9351, 20260.06
440.4172, 20273.88
440.8993, 20314.88
441.3814, 20366.98
441.8636, 20413.53
442.3457, 20451.09
442.8278, 20484.38
443.3099, 20513.62
443.7920, 20540.71
444.2741, 20569.40
444.7563, 20602.64
445.2384, 20635.69
445.7205, 20676.26
446.2026, 20724.16
446.6847, 20738.99
447.1668, 20664.27
447.6490, 20585.59
448.1311, 20556.97
448.6132, 20644.20
449.0953, 20698.39
449.5774, 20706.31
450.0595, 20683.42
450.5417, 20660.97
451.0238, 20636.68
451.5059, 20617.51
451.9880, 20607.21
452.4701, 20606.28
452.9522, 20601.85
453.4344, 20593.83
453.9165, 20582.27
454.3986, 20564.73
454.8807, 20540.54
455.3628, 20523.36
455.8449, 20517.77
456.3271, 20516.26
456.8092, 20493.83
457.2913, 20453.28
457.7734, 20435.12
458.2555, 20483.75
458.7376, 20566.05
459.2198, 20605.26
459.7019, 20596.90
460.1840, 20581.37
460.6661, 20603.71
461.1482, 20641.13
461.6303, 20652.92
462.1125, 20602.16
462.5946, 20556.34
463.0767, 20577.25
463.5588, 20645.36
464.0409, 20703.59
464.5230, 20718.59
465.0052, 20721.33
465.4873, 20727.60
465.9694, 20739.08
466.4515, 20752.68
466.9336, 20772.54
467.4157, 20791.31
467.8979, 20802.04
468.3800, 20796.14
468.8621, 20790.37
469.3442, 20772.91
469.8263, 20754.43
470.3084, 20783.64
470.7906, 20901.18
471.2727, 21004.74
471.7548, 21044.32
472.2369, 21005.71
472.7190, 20998.11
473.2011, 21030.84
473.6833, 21076.84
474.1654, 21103.46
474.6475, 21109.84
475.1296, 21118.57
475.6117, 21135.96
476.0938, 21157.21
476.5760, 21168.97
477.0581, 21171.86
477.5402, 21176.34
478.0223, 21186.81
478.5044, 21203.42
478.9865, 21231.65
479.4687, 21273.29
479.9508, 21307.55
480.4329, 21304.96
480.9150, 21285.74
481.3971, 21280.78
481.8792, 21316.02
482.3614, 21351.74
482.8435, 21356.06
483.3256, 21340.11
483.8077, 21338.01
484.2898, 21376.44
484.7719, 21421.29
485.2541, 21455.21
485.7362, 21473.11
486.2183, 21493.73
486.7004, 21528.68
487.1825, 21562.30
487.6646, 21579.18
488.1468, 21557.82
488.6289, 21552.93
489.1110, 21575.75
489.5931, 21618.14
490.0752, 21654.40
490.5573, 21685.71
491.0395, 21707.64
491.5216, 21713.01
492.0037, 21701.20
492.4858, 21711.27
492.9679, 21747.53
493.4500, 21788.57
493.9322, 21809.31
494.4143, 21812.91
494.8964, 21818.30
495.3785, 21829.59
495.8606, 21844.53
496.3427, 21852.94
496.8249, 21859.73
497.3070, 21884.56
497.7891, 21970.46
498.2712, 22061.15
498.7533, 22086.70
499.2354, 22043.56
499.7176, 21998.39
500.1997, 21983.19
500.6818, 21988.65
501.1639, 22006.78
501.6460, 22043.37
502.1281, 22081.86
502.6103, 22123.18
503.0924, 22163.48
503.5745, 22193.54
504.0566, 22202.21
504.5387, 22210.87
505.0208, 22226.69
505.5030, 22250.41
505.9851, 22262.92
506.4672, 22247.81
506.9493, 22243.69
507.4314, 22286.16
507.9135, 22393.06
508.3957, 22463.94
508.8778, 22485.36
509.3599, 22479.83
509.8420, 22483.09
510.3241, 22494.81
510.8062, 22507.38
511.2884, 22515.13
511.7705, 22523.01
512.2526, 22544.74
512.7347, 22579.49
513.2168, 22616.68
513.6989, 22654.83
514.1810, 22688.50
514.6631, 22703.89
515.1453, 22693.13
515.6274, 22694.73
516.1095, 22761.02
516.5916, 22848.25
517.0737, 22897.98
517.5558, 22850.44
518.0380, 22803.26
518.5201, 22782.91
519.0022, 22789.50
519.4843, 22821.28
519.9664, 22921.80
520.4485, 23007.81
520.9307, 23042.79
521.4128, 23013.06
521.8949, 22987.53
522.3770, 22960.36
522.8591, 22943.66
523.3412, 22949.91
523.8234, 22981.08
524.3055, 23027.35
524.7876, 23093.09
525.2697, 23167.18
525.7518, 23227.66
526.2339, 23274.89
526.7161, 23300.66
527.1982, 23275.29
527.6803, 23229.09
528.1624, 23259.38
528.6445, 23364.09
529.1266, 23454.78
529.6088, 23435.53
530.0909, 23368.71
530.5730, 23347.36
531.0551, 23406.55
531.5372, 23465.39
532.0193, 23463.37
532.5015, 23430.89
532.9836, 23415.24
533.4657, 23440.28
533.9478, 23475.15
534.4299, 23512.33
534.9120, 23551.07
535.3942, 23590.84
535.8763, 23635.30
536.3584, 23676.58
536.8405, 23711.10
537.3226, 23738.17
537.8047, 23763.06
538.2869, 23790.94
538.7690, 23809.71
539.2511, 23796.50
539.7332, 23746.28
540.2153, 23721.71
540.6974, 23741.24
541.1796, 23783.55
541.6617, 23803.84
542.1438, 23804.28
542.6259, 23807.86
543.1080, 23832.89
543.5901, 23866.23
544.0723, 23880.83
544.5544, 23877.73
545.0365, 23884.02
545.5186, 23934.26
546.0007, 23996.01
546.4828, 24034.50
546.9650, 24035.85
547.4471, 24031.68
547.9292, 24029.15
548.4113, 24030.59
548.8934, 24039.18
549.3755, 24039.48
549.8577, 24065.63
550.3398, 24148.13
550.8219, 24269.75
551.3040, 24333.71
551.7861, 24307.89
552.2682, 24278.74
552.7504, 24288.45
553.2325, 24342.09
553.7146, 24368.55
554.1967, 24359.70
554.6788, 24348.03
555.1609, 24367.90
555.6431, 24416.01
556.1252, 24476.40
556.6073, 24555.73
557.0894, 24623.12
557.5715, 24617.73
558.0536, 24562.72
558.5358, 24525.33
559.0179, 24544.16
559.5000, 24589.86
559.9821, 24645.66
560.4642, 24709.27
560.9464, 24767.38
561.4285, 24820.59
561.9106, 24861.28
562.3927, 24878.40
562.8748, 24856.29
563.3569, 24855.55
563.8391, 24900.03
564.3212, 24959.05
564.8033, 25006.82
565.2854, 25041.31
565.7675, 25067.36
566.2496, 25081.83
566.7318, 25090.91
567.2139, 25109.39
567.6960, 25138.42
568.1781, 25172.08
568.6602, 25207.45
569.1423, 25246.29
569.6245, 25298.33
570.1066, 25364.16
570.5887, 25421.31
571.0708, 25449.25
571.5529, 25460.08
572.0350, 25467.93
572.5172, 25471.58
572.9993, 25491.44
573.4814, 25546.52
573.9635, 25624.48
574.4456, 25709.60
574.9277, 25796.69
575.4099, 25889.67
575.8920, 25999.65
576.3741, 26117.07
576.8562, 26216.13
577.3383, 26270.58
577.8204, 26336.67
578.3026, 26441.79
578.7847, 26583.25
579.2668, 26675.20
579.7489, 26704.56
580.2310, 26716.38
580.7131, 26749.36
581.1953, 26802.69
581.6774, 26809.57
582.1595, 26764.46
582.6416, 26680.57
583.1237, 26549.02
583.6058, 26390.55
584.0880, 26265.86
584.5701, 26200.56
585.0522, 26162.75
585.5343, 26117.55
586.0164, 26074.54
586.4985, 26057.81
586.9807, 26092.20
587.4628, 26142.21
587.9449, 26193.98
588.4270, 26246.56
588.9091, 26295.69
589.3912, 26343.10
