##NAMES=Fluorite
##RRUFFID=R050046
##IDEAL CHEMISTRY=CaF_2_
##LOCALITY=Shangbao, Lei Yang, Hunan Province, China
##OWNER=RRUFF
##SOURCE=Eugene Schlepp
##DESCRIPTION=Pale purple crystal
##STATUS=The identification of this mineral has been confirmed by X-ray diffraction and chemical analysis
##URL=rruff.info/R050046
##MEASURED CHEMISTRY=Ca_1.000_ F_2.000_
134.7162, 553.0800
135.1983, 573.6885
135.6804, 596.1067
136.1626, 620.4713
136.6447, 646.0943
137.1268, 671.8535
137.6089, 697.7149
138.0910, 723.1553
138.5731, 749.4036
139.0553, 779.3773
139.5374, 797.2098
140.0195, 798.3015
140.5016, 787.0801
140.9837, 780.7552
141.4658, 781.2250
141.9480, 783.5070
142.4301, 783.7072
142.9122, 778.8156
143.3943, 778.3127
143.8764, 784.2355
144.3585, 796.4037
144.8407, 809.0990
145.3228, 824.0409
145.8049, 838.1101
146.2870, 848.1440
146.7691, 851.3925
147.2512, 854.0081
147.7334, 855.8351
148.2155, 855.4457
148.6976, 860.9086
149.1797, 877.3714
149.6618, 898.2498
150.1439, 914.6970
150.6261, 919.5051
151.1082, 926.1630
151.5903, 939.0348
152.0724, 963.0681
152.5545, 982.3143
153.0366, 991.8373
153.5188, 995.8519
154.0009, 1002.614
154.4830, 1019.175
154.9651, 1034.420
155.4472, 1043.288
155.9293, 1040.525
156.4115, 1038.157
156.8936, 1039.196
157.3757, 1042.643
157.8578, 1045.047
158.3399, 1044.428
158.8221, 1043.011
159.3042, 1042.229
159.7863, 1041.138
160.2684, 1041.988
160.7505, 1047.238
161.2326, 1056.177
161.7148, 1062.919
162.1969, 1063.119
162.6790, 1060.656
163.1611, 1059.283
163.6432, 1060.873
164.1253, 1063.346
164.6075, 1066.081
165.0896, 1069.074
165.5717, 1071.203
166.0538, 1069.708
166.5359, 1067.332
167.0180, 1067.975
167.5002, 1079.061
167.9823, 1090.151
168.4644, 1091.214
168.9465, 1079.954
169.4286, 1069.542
169.9107, 1071.955
170.3929, 1082.428
170.8750, 1090.984
171.3571, 1089.524
171.8392, 1084.780
172.3213, 1084.614
172.8034, 1091.201
173.2856, 1098.429
173.7677, 1099.754
174.2498, 1096.670
174.7319, 1094.285
175.2140, 1096.065
175.6961, 1100.397
176.1783, 1104.975
176.6604, 1109.525
177.1425, 1113.844
177.6246, 1116.904
178.1067, 1119.018
178.5888, 1122.455
179.0710, 1129.826
179.5531, 1139.667
180.0352, 1149.047
180.5173, 1158.458
180.9994, 1165.742
181.4815, 1165.349
181.9637, 1157.507
182.4458, 1149.476
182.9279, 1148.320
183.4100, 1152.371
183.8921, 1154.899
184.3742, 1151.033
184.8564, 1145.706
185.3385, 1153.471
185.8206, 1175.450
186.3027, 1197.715
186.7848, 1205.609
187.2669, 1200.501
187.7491, 1193.054
188.2312, 1183.830
188.7133, 1175.026
189.1954, 1176.800
189.6775, 1190.864
190.1596, 1207.824
190.6418, 1216.622
191.1239, 1217.338
191.6060, 1215.701
192.0881, 1212.562
192.5702, 1208.358
193.0524, 1207.338
193.5345, 1210.054
194.0166, 1214.503
194.4987, 1218.190
194.9808, 1221.172
195.4629, 1222.539
195.9451, 1221.059
196.4272, 1216.791
196.9093, 1213.490
197.3914, 1210.787
197.8735, 1209.815
198.3556, 1214.822
198.8378, 1227.260
199.3199, 1236.397
199.8020, 1234.427
200.2841, 1220.412
200.7662, 1209.636
201.2483, 1203.273
201.7305, 1200.343
202.2126, 1198.940
202.6947, 1199.458
203.1768, 1200.036
203.6589, 1199.249
204.1410, 1196.766
204.6232, 1195.386
205.1053, 1195.592
205.5874, 1196.956
206.0695, 1197.917
206.5516, 1198.133
207.0337, 1198.845
207.5159, 1202.507
207.9980, 1211.120
208.4801, 1212.221
208.9622, 1201.481
209.4443, 1182.113
209.9264, 1169.689
210.4086, 1164.926
210.8907, 1165.687
211.3728, 1172.744
211.8549, 1190.441
212.3370, 1198.930
212.8191, 1191.185
213.3013, 1170.276
213.7834, 1163.088
214.2655, 1175.507
214.7476, 1192.224
215.2297, 1199.592
215.7118, 1194.375
216.1940, 1188.742
216.6761, 1183.812
217.1582, 1179.716
217.6403, 1180.442
218.1224, 1187.124
218.6045, 1197.080
219.0867, 1208.849
219.5688, 1225.093
220.0509, 1236.498
220.5330, 1240.006
221.0151, 1235.495
221.4972, 1231.343
221.9794, 1227.822
222.4615, 1224.314
222.9436, 1219.683
223.4257, 1212.145
223.9078, 1207.136
224.3899, 1206.027
224.8721, 1208.953
225.3542, 1213.953
225.8363, 1222.208
226.3184, 1231.457
226.8005, 1239.155
227.2827, 1244.712
227.7648, 1249.714
228.2469, 1254.370
228.7290, 1258.542
229.2111, 1263.533
229.6932, 1270.720
230.1754, 1277.554
230.6575, 1280.304
231.1396, 1276.151
231.6217, 1272.854
232.1038, 1272.524
232.5859, 1275.532
233.0681, 1279.218
233.5502, 1281.828
234.0323, 1286.327
234.5144, 1298.475
234.9965, 1325.716
235.4786, 1347.726
235.9608, 1356.384
236.4429, 1347.102
236.9250, 1345.659
237.4071, 1355.399
237.8892, 1370.939
238.3713, 1383.868
238.8535, 1393.078
239.3356, 1401.652
239.8177, 1412.232
240.2998, 1428.476
240.7819, 1431.554
241.2640, 1414.207
241.7462, 1387.968
242.2283, 1373.072
242.7104, 1375.594
243.1925, 1379.555
243.6746, 1380.789
244.1567, 1380.626
244.6389, 1371.924
245.1210, 1348.563
245.6031, 1320.339
246.0852, 1305.900
246.5673, 1313.704
247.0494, 1320.842
247.5316, 1318.046
248.0137, 1300.308
248.4958, 1290.196
248.9779, 1292.179
249.4600, 1299.331
249.9421, 1297.998
250.4243, 1282.808
250.9064, 1268.734
251.3885, 1261.279
251.8706, 1261.872
252.3527, 1264.716
252.8348, 1271.174
253.3170, 1279.030
253.7991, 1283.733
254.2812, 1283.497
254.7633, 1283.453
255.2454, 1285.868
255.7275, 1291.862
256.2097, 1296.206
256.6918, 1299.182
257.1739, 1300.271
257.6560, 1297.803
258.1381, 1289.434
258.6202, 1282.306
259.1024, 1278.471
259.5845, 1277.415
260.0666, 1282.659
260.5487, 1297.437
261.0308, 1316.050
261.5129, 1328.110
261.9951, 1330.979
262.4772, 1333.338
262.9593, 1338.437
263.4414, 1346.800
263.9235, 1355.709
264.4056, 1365.440
264.8878, 1375.568
265.3699, 1385.179
265.8520, 1393.575
266.3341, 1403.755
266.8162, 1419.169
267.2983, 1442.033
267.7805, 1453.340
268.2626, 1447.734
268.7447, 1436.415
269.2268, 1438.862
269.7089, 1457.339
270.1910, 1481.511
270.6732, 1511.375
271.1553, 1548.732
271.6374, 1570.541
272.1195, 1572.352
272.6016, 1565.156
273.0837, 1566.686
273.5659, 1578.395
274.0480, 1591.301
274.5301, 1601.973
275.0122, 1610.244
275.4943, 1619.268
275.9764, 1628.372
276.4586, 1639.498
276.9407, 1655.786
277.4228, 1677.240
277.9049, 1701.786
278.3870, 1728.131
278.8691, 1756.380
279.3513, 1791.538
279.8334, 1836.930
280.3155, 1880.673
280.7976, 1902.541
281.2798, 1901.236
281.7619, 1904.198
282.2440, 1924.962
282.7261, 1960.441
283.2082, 1986.698
283.6903, 2002.650
284.1725, 2013.364
284.6546, 2024.594
285.1367, 2036.189
285.6188, 2046.569
286.1009, 2053.508
286.5830, 2058.605
287.0652, 2070.291
287.5473, 2089.488
288.0294, 2109.119
288.5115, 2119.783
288.9936, 2122.696
289.4757, 2127.905
289.9579, 2143.809
290.4400, 2163.239
290.9221, 2162.508
291.4042, 2140.108
291.8863, 2116.382
292.3684, 2110.544
292.8506, 2120.656
293.3327, 2138.640
293.8148, 2167.594
294.2969, 2199.706
294.7790, 2216.554
295.2611, 2218.172
295.7433, 2221.775
296.2254, 2244.665
296.7075, 2282.014
297.1896, 2318.907
297.6717, 2349.506
298.1538, 2379.666
298.6360, 2415.490
299.1181, 2457.541
299.6002, 2508.513
300.0823, 2573.214
300.5644, 2648.514
301.0465, 2727.915
301.5287, 2804.425
302.0108, 2890.869
302.4929, 3001.650
302.9750, 3135.788
303.4571, 3281.290
303.9392, 3427.285
304.4214, 3581.499
304.9035, 3758.400
305.3856, 3959.769
305.8677, 4181.056
306.3498, 4415.033
306.8319, 4661.820
307.3141, 4927.750
307.7962, 5216.201
308.2783, 5521.840
308.7604, 5844.820
309.2425, 6180.606
309.7246, 6529.172
310.2068, 6877.705
310.6889, 7238.655
311.1710, 7647.511
311.6531, 8128.700
312.1352, 8660.509
312.6173, 9224.213
313.0995, 9809.405
313.5816, 10429.18
314.0637, 11097.09
314.5458, 11806.57
315.0279, 12550.03
315.5100, 13336.86
315.9922, 14147.67
316.4743, 14963.10
316.9564, 15768.03
317.4385, 16631.34
317.9206, 17673.16
318.4027, 18764.94
318.8849, 19727.02
319.3670, 20573.13
319.8491, 21226.95
320.3312, 21683.21
320.8133, 21958.02
321.2954, 21933.61
321.7776, 21550.94
322.2597, 20874.94
322.7418, 19974.80
323.2239, 18698.07
323.7060, 17360.04
324.1881, 15990.33
324.6703, 14579.77
325.1524, 13275.42
325.6345, 12095.38
326.1166, 11036.48
326.5987, 10085.69
327.0808, 9263.486
327.5630, 8525.730
328.0451, 7872.459
328.5272, 7302.925
329.0093, 6798.343
329.4914, 6384.815
329.9735, 6023.704
330.4557, 5693.367
330.9378, 5391.047
331.4199, 5124.219
331.9020, 4896.900
332.3841, 4704.943
332.8662, 4529.192
333.3484, 4376.477
333.8305, 4232.208
334.3126, 4084.577
334.7947, 3927.247
335.2768, 3791.322
335.7589, 3682.144
336.2411, 3593.410
336.7232, 3507.950
337.2053, 3427.693
337.6874, 3346.842
338.1695, 3257.867
338.6516, 3158.641
339.1338, 3078.122
339.6159, 3021.494
340.0980, 2977.353
340.5801, 2929.040
341.0622, 2875.667
341.5443, 2820.581
342.0265, 2760.156
342.5086, 2696.638
342.9907, 2648.285
343.4728, 2617.868
343.9549, 2593.357
344.4370, 2560.343
344.9192, 2519.865
345.4013, 2479.896
345.8834, 2443.294
346.3655, 2409.687
346.8476, 2380.385
347.3297, 2355.603
347.8119, 2332.033
348.2940, 2304.728
348.7761, 2276.034
349.2582, 2254.418
349.7403, 2246.961
350.2225, 2242.267
350.7046, 2220.289
351.1867, 2183.220
351.6688, 2149.496
352.1509, 2136.166
352.6331, 2133.623
353.1152, 2127.207
353.5973, 2112.121
354.0794, 2095.320
354.5615, 2085.005
355.0436, 2078.512
355.5258, 2067.725
356.0079, 2041.745
356.4900, 2013.092
356.9721, 1993.168
357.4542, 1985.400
357.9363, 1980.681
358.4185, 1974.779
358.9006, 1968.383
359.3827, 1962.693
359.8648, 1959.826
360.3469, 1956.474
360.8290, 1948.780
361.3112, 1934.918
361.7933, 1927.936
362.2754, 1942.751
362.7575, 1962.484
363.2396, 1968.814
363.7217, 1940.755
364.2039, 1915.655
364.6860, 1905.711
365.1681, 1911.298
365.6502, 1912.665
366.1323, 1900.554
366.6144, 1887.754
367.0966, 1883.114
367.5787, 1894.750
368.0608, 1905.101
368.5429, 1915.772
369.0250, 1925.166
369.5071, 1924.068
369.9893, 1901.280
370.4714, 1881.030
370.9535, 1876.686
371.4356, 1900.099
371.9177, 1911.637
372.3998, 1904.789
372.8820, 1888.867
373.3641, 1885.237
373.8462, 1897.710
374.3283, 1912.565
374.8104, 1924.419
375.2925, 1933.060
375.7747, 1943.391
376.2568, 1957.401
376.7389, 1969.347
377.2210, 1970.141
377.7031, 1959.110
378.1852, 1946.332
378.6674, 1932.665
379.1495, 1919.811
379.6316, 1915.277
380.1137, 1919.537
380.5958, 1928.179
381.0779, 1940.814
381.5601, 1955.668
382.0422, 1961.892
382.5243, 1952.939
383.0064, 1939.769
383.4885, 1941.913
383.9706, 1957.768
384.4528, 1975.352
384.9349, 1988.617
385.4170, 1997.853
385.8991, 2001.792
386.3812, 1997.512
386.8633, 1997.043
387.3455, 2019.740
387.8276, 2055.195
388.3097, 2079.910
388.7918, 2071.480
389.2739, 2053.994
389.7560, 2048.997
390.2382, 2059.567
390.7203, 2065.279
391.2024, 2049.878
391.6845, 2025.385
392.1666, 2005.434
392.6487, 1999.904
393.1309, 1994.840
393.6130, 1983.123
394.0951, 1965.510
394.5772, 1952.289
395.0593, 1950.408
395.5414, 1950.983
396.0236, 1948.486
396.5057, 1941.030
396.9878, 1931.777
397.4699, 1920.761
397.9520, 1908.127
398.4341, 1894.084
398.9163, 1867.755
399.3984, 1851.434
399.8805, 1856.348
400.3626, 1894.881
400.8447, 1917.185
401.3268, 1916.114
401.8090, 1904.057
402.2911, 1898.331
402.7732, 1901.058
403.2553, 1904.927
403.7374, 1909.293
404.2195, 1913.845
404.7017, 1911.846
405.1838, 1901.439
405.6659, 1889.425
406.1480, 1881.228
406.6301, 1876.799
407.1122, 1876.390
407.5944, 1881.307
408.0765, 1888.987
408.5586, 1892.575
409.0407, 1892.178
409.5228, 1892.588
410.0049, 1898.409
410.4871, 1907.496
410.9692, 1914.092
411.4513, 1917.653
411.9334, 1918.585
412.4155, 1915.840
412.8976, 1910.616
413.3798, 1906.483
413.8619, 1906.414
414.3440, 1907.403
414.8261, 1906.945
415.3082, 1904.939
415.7903, 1900.430
416.2725, 1887.127
416.7546, 1873.076
417.2367, 1867.465
417.7188, 1882.947
418.2009, 1896.850
418.6830, 1895.691
419.1652, 1883.527
419.6473, 1875.284
420.1294, 1880.110
420.6115, 1887.048
421.0937, 1889.793
421.5758, 1884.382
422.0579, 1881.456
422.5400, 1884.561
423.0221, 1890.513
423.5042, 1894.161
423.9864, 1894.517
424.4685, 1893.408
424.9506, 1890.166
425.4327, 1884.391
425.9148, 1882.565
426.3969, 1887.017
426.8791, 1892.759
427.3612, 1895.142
427.8433, 1892.715
428.3254, 1891.146
428.8075, 1890.090
429.2896, 1890.888
429.7718, 1901.056
430.2539, 1923.419
430.7360, 1940.472
431.2181, 1938.275
431.7002, 1918.406
432.1823, 1902.886
432.6645, 1892.089
433.1466, 1888.027
433.6287, 1898.519
434.1108, 1920.267
434.5929, 1936.687
435.0750, 1935.301
435.5572, 1926.616
436.0393, 1933.545
436.5214, 1955.074
437.0035, 1969.673
437.4856, 1952.919
437.9677, 1920.921
438.4499, 1896.152
438.9320, 1886.186
439.4141, 1881.580
439.8962, 1874.851
440.3783, 1868.208
440.8604, 1867.156
441.3426, 1885.952
441.8247, 1902.093
442.3068, 1900.105
442.7889, 1873.869
443.2710, 1851.014
443.7531, 1842.329
444.2353, 1839.475
444.7174, 1833.078
445.1995, 1813.555
445.6816, 1799.594
446.1637, 1796.508
446.6458, 1803.193
447.1280, 1807.953
447.6101, 1810.439
448.0922, 1811.386
448.5743, 1810.773
449.0564, 1807.146
449.5385, 1806.469
450.0207, 1811.292
450.5028, 1816.954
450.9849, 1812.532
451.4670, 1795.365
451.9491, 1781.922
452.4312, 1780.029
452.9134, 1788.023
453.3955, 1792.431
453.8776, 1792.796
454.3597, 1792.747
454.8418, 1796.907
455.3239, 1803.989
455.8061, 1808.363
456.2882, 1808.298
456.7703, 1805.766
457.2524, 1803.002
457.7345, 1800.071
458.2166, 1797.182
458.6988, 1794.140
459.1809, 1791.390
459.6630, 1789.611
460.1451, 1788.965
460.6272, 1788.452
461.1093, 1786.744
461.5915, 1785.013
462.0736, 1784.759
462.5557, 1790.496
463.0378, 1793.858
463.5199, 1788.161
464.0020, 1775.338
464.4842, 1769.734
464.9663, 1785.628
465.4484, 1801.194
465.9305, 1804.294
466.4126, 1783.206
466.8947, 1769.564
467.3769, 1765.582
467.8590, 1768.068
468.3411, 1772.410
468.8232, 1780.297
469.3053, 1786.553
469.7874, 1789.254
470.2696, 1788.667
470.7517, 1789.674
471.2338, 1792.329
471.7159, 1796.379
472.1980, 1802.248
472.6801, 1809.895
473.1623, 1816.130
473.6444, 1820.097
474.1265, 1823.359
474.6086, 1828.711
475.0907, 1835.899
475.5728, 1843.276
476.0550, 1850.234
476.5371, 1856.762
477.0192, 1862.399
477.5013, 1867.137
477.9834, 1872.328
478.4655, 1878.977
478.9477, 1886.747
479.4298, 1894.958
479.9119, 1901.717
480.3940, 1911.140
480.8761, 1927.762
481.3582, 1949.035
481.8404, 1967.428
482.3225, 1982.494
482.8046, 1992.451
483.2867, 1995.530
483.7688, 1989.275
484.2509, 1984.174
484.7331, 1981.843
485.2152, 1980.690
485.6973, 1979.731
486.1794, 1983.224
486.6615, 1979.061
487.1436, 1961.908
487.6258, 1935.611
488.1079, 1920.428
488.5900, 1921.709
489.0721, 1919.511
489.5542, 1898.146
490.0363, 1857.243
490.5185, 1833.107
491.0006, 1829.662
491.4827, 1833.661
491.9648, 1826.914
492.4470, 1811.794
492.9291, 1801.663
493.4112, 1803.578
493.8933, 1810.973
494.3754, 1816.034
494.8575, 1818.422
495.3397, 1815.713
495.8218, 1800.190
496.3039, 1781.638
496.7860, 1772.283
497.2681, 1776.461
497.7502, 1779.151
498.2324, 1767.421
498.7145, 1750.769
499.1966, 1741.892
499.6787, 1750.562
500.1608, 1761.610
500.6429, 1772.714
501.1251, 1783.406
501.6072, 1788.567
502.0893, 1784.798
502.5714, 1778.210
503.0535, 1771.058
503.5356, 1761.317
504.0178, 1756.086
504.4999, 1756.752
504.9820, 1760.738
505.4641, 1764.125
505.9462, 1766.575
506.4283, 1770.493
506.9105, 1778.452
507.3926, 1787.952
507.8747, 1787.228
508.3568, 1775.747
508.8389, 1763.655
509.3210, 1756.623
509.8032, 1754.686
510.2853, 1759.178
510.7674, 1771.598
511.2495, 1784.714
511.7316, 1790.877
512.2137, 1792.282
512.6959, 1793.323
513.1780, 1796.227
513.6601, 1799.097
514.1422, 1802.656
514.6243, 1806.057
515.1064, 1803.777
515.5886, 1785.409
516.0707, 1766.433
516.5528, 1756.982
517.0349, 1763.425
517.5170, 1768.532
517.9991, 1770.584
518.4813, 1770.453
518.9634, 1769.170
519.4455, 1767.113
519.9276, 1763.235
520.4097, 1757.126
520.8918, 1749.033
521.3740, 1738.446
521.8561, 1723.377
522.3382, 1712.401
522.8203, 1714.199
523.3024, 1727.695
523.7845, 1733.845
524.2667, 1730.660
524.7488, 1723.766
525.2309, 1719.241
525.7130, 1716.624
526.1951, 1714.600
526.6772, 1714.688
527.1594, 1713.210
527.6415, 1702.867
528.1236, 1686.092
528.6057, 1673.347
529.0878, 1672.250
529.5699, 1676.534
530.0521, 1682.854
530.5342, 1692.049
531.0163, 1697.635
531.4984, 1695.500
531.9805, 1689.637
532.4626, 1684.301
532.9448, 1682.714
533.4269, 1678.280
533.9090, 1666.917
534.3911, 1651.807
534.8732, 1646.885
535.3553, 1658.598
535.8375, 1668.340
536.3196, 1667.306
536.8017, 1654.946
537.2838, 1642.867
537.7659, 1630.539
538.2480, 1619.881
538.7302, 1611.777
539.2123, 1606.587
539.6944, 1608.082
540.1765, 1619.081
540.6586, 1633.421
541.1407, 1647.659
541.6229, 1659.257
542.1050, 1659.511
542.5871, 1627.707
543.0692, 1592.954
543.5513, 1587.014
544.0334, 1611.268
544.5156, 1629.568
544.9977, 1616.906
545.4798, 1595.980
545.9619, 1584.908
546.4440, 1593.736
546.9261, 1602.619
547.4083, 1610.379
547.8904, 1616.235
548.3725, 1618.797
548.8546, 1618.126
549.3367, 1613.833
549.8188, 1603.783
550.3010, 1588.965
550.7831, 1581.867
551.2652, 1584.247
551.7473, 1588.490
552.2294, 1590.172
552.7115, 1589.260
553.1937, 1582.510
553.6758, 1567.226
554.1579, 1556.252
554.6400, 1575.558
555.1221, 1613.207
555.6042, 1634.072
556.0864, 1614.068
556.5685, 1583.902
557.0506, 1571.690
557.5327, 1574.150
558.0148, 1579.422
558.4969, 1584.597
558.9791, 1588.648
559.4612, 1591.025
559.9433, 1591.725
560.4254, 1590.470
560.9075, 1584.642
561.3896, 1578.284
561.8718, 1574.979
562.3539, 1577.378
562.8360, 1578.271
563.3181, 1576.551
563.8002, 1573.284
564.2823, 1570.923
564.7645, 1569.572
565.2466, 1568.627
565.7287, 1566.731
566.2108, 1564.959
566.6929, 1571.465
567.1750, 1586.695
567.6572, 1598.894
568.1393, 1593.004
568.6214, 1577.704
569.1035, 1571.819
569.5856, 1580.335
570.0677, 1589.772
570.5499, 1587.410
571.0320, 1578.938
571.5141, 1573.364
571.9962, 1577.207
572.4783, 1581.356
572.9604, 1581.218
573.4426, 1577.850
573.9247, 1576.965
574.4068, 1585.306
574.8889, 1590.848
575.3710, 1587.477
575.8531, 1572.278
576.3353, 1563.872
576.8174, 1563.980
577.2995, 1568.454
577.7816, 1575.287
578.2637, 1585.205
578.7458, 1587.658
579.2280, 1578.042
579.7101, 1565.966
580.1922, 1572.781
580.6743, 1594.704
581.1564, 1610.355
581.6385, 1603.597
582.1207, 1588.327
582.6028, 1582.908
583.0849, 1586.321
583.5670, 1590.163
584.0491, 1590.510
584.5313, 1588.656
585.0134, 1584.753
585.4955, 1577.220
585.9776, 1572.990
586.4597, 1577.792
586.9418, 1585.168
587.4240, 1587.554
587.9061, 1579.321
588.3882, 1574.757
588.8703, 1577.206
589.3524, 1583.804
589.8345, 1585.681
590.3167, 1581.606
590.7988, 1577.463
591.2809, 1575.182
591.7630, 1574.873
592.2451, 1578.411
592.7272, 1585.969
593.2094, 1593.133
593.6915, 1597.520
594.1736, 1598.640
594.6557, 1593.844
595.1378, 1580.901
595.6199, 1570.224
596.1021, 1570.324
596.5842, 1577.476
597.0663, 1586.410
597.5485, 1598.717
598.0306, 1608.862
598.5127, 1613.473
598.9948, 1614.001
599.4769, 1617.080
599.9590, 1630.057
600.4412, 1637.296
600.9233, 1631.858
601.4054, 1612.618
601.8875, 1597.490
602.3696, 1585.748
602.8517, 1580.236
603.3339, 1585.868
603.8160, 1601.738
604.2981, 1617.321
604.7802, 1632.812
605.2623, 1642.480
605.7444, 1631.113
606.2266, 1607.245
606.7087, 1594.498
607.1908, 1609.187
607.6729, 1630.041
608.1550, 1642.997
608.6371, 1648.622
609.1193, 1649.214
609.6014, 1637.301
610.0835, 1627.714
610.5656, 1628.472
611.0477, 1641.321
611.5298, 1654.826
612.0120, 1670.805
612.4941, 1684.965
612.9762, 1693.957
613.4583, 1696.333
613.9404, 1699.029
614.4225, 1703.131
614.9047, 1706.104
615.3868, 1701.784
615.8689, 1691.057
616.3510, 1687.114
616.8331, 1697.939
617.3152, 1712.080
617.7974, 1709.098
618.2795, 1693.189
618.7616, 1680.555
619.2437, 1681.304
619.7258, 1687.854
620.2079, 1696.436
620.6901, 1706.676
621.1722, 1714.074
621.6543, 1713.780
622.1364, 1712.455
622.6185, 1714.872
623.1006, 1725.091
623.5828, 1730.535
624.0649, 1729.682
624.5470, 1725.451
625.0291, 1720.296
625.5112, 1713.324
625.9933, 1710.408
626.4755, 1713.135
626.9576, 1719.791
627.4397, 1730.815
627.9218, 1744.684
628.4039, 1749.770
628.8860, 1730.026
629.3682, 1703.567
629.8503, 1697.274
630.3324, 1708.847
630.8145, 1720.680
631.2966, 1721.300
631.7787, 1719.243
632.2609, 1721.296
