##NAMES=Fluor-uvite
##RRUFFID=R100154
##IDEAL CHEMISTRY=CaMg_3_(Al_5_Mg)(Si_6_O_18_)(BO_3_)_3_(OH)_3_F
##LOCALITY=Sri Lanka
##OWNER=RRUFF
##SOURCE=William W. Pinch
##DESCRIPTION=Brown cut gemstone
##STATUS=The identification of this mineral has been confirmed only by single crystal X-ray diffraction.
##URL=rruff.info/R100154
124.3012, 42.65816
124.7834, 42.79475
125.2655, 43.27694
125.7476, 43.93429
126.2297, 44.77900
126.7118, 45.71589
127.1939, 46.68524
127.6761, 47.73234
128.1582, 48.56730
128.6403, 48.83398
129.1224, 48.58171
129.6045, 48.04884
130.0867, 47.04626
130.5688, 45.81599
131.0509, 45.24175
131.5330, 45.50834
132.0151, 46.20472
132.4972, 46.66061
132.9794, 46.87558
133.4615, 47.07306
133.9436, 47.38717
134.4257, 47.81649
134.9078, 48.30301
135.3899, 48.84958
135.8721, 49.44386
136.3542, 50.02676
136.8363, 50.56474
137.3184, 51.24426
137.8005, 52.15773
138.2826, 53.29504
138.7648, 54.82571
139.2469, 56.83010
139.7290, 59.27697
140.2111, 61.79105
140.6932, 64.37798
141.1753, 67.06327
141.6575, 69.81346
142.1396, 72.60012
142.6217, 75.64416
143.1038, 79.21337
143.5859, 83.41211
144.0681, 86.51488
144.5502, 88.09879
145.0323, 88.98943
145.5144, 90.14900
145.9965, 91.68682
146.4786, 93.31664
146.9608, 94.92724
147.4429, 96.50648
147.9250, 98.22137
148.4071, 100.0719
148.8892, 102.0628
149.3713, 104.1644
149.8535, 106.5723
150.3356, 108.9237
150.8177, 110.9793
151.2998, 112.0633
151.7819, 114.3190
152.2640, 118.7544
152.7462, 124.2747
153.2283, 128.8373
153.7104, 131.7664
154.1925, 134.1788
154.6746, 136.4019
155.1567, 138.2717
155.6389, 140.2393
156.1210, 142.4525
156.6031, 144.8157
157.0852, 147.1161
157.5673, 149.6718
158.0495, 151.8935
158.5316, 153.5157
159.0137, 154.4182
159.4958, 154.7925
159.9779, 154.5087
160.4600, 153.6984
160.9422, 152.7917
161.4243, 151.5100
161.9064, 150.4228
162.3885, 149.9359
162.8706, 150.5659
163.3527, 151.3136
163.8349, 151.6333
164.3170, 151.6578
164.7991, 152.0224
165.2812, 153.1482
165.7633, 154.6959
166.2454, 156.3602
166.7276, 158.0396
167.2097, 159.8176
167.6918, 161.8566
168.1739, 164.1030
168.6560, 166.2663
169.1381, 168.0031
169.6203, 169.5444
170.1024, 170.1033
170.5845, 170.3476
171.0666, 170.9368
171.5487, 172.3725
172.0309, 174.5539
172.5130, 176.0188
172.9951, 175.3194
173.4772, 173.3297
173.9593, 171.3955
174.4414, 170.1543
174.9236, 169.1668
175.4057, 167.9881
175.8878, 166.6025
176.3699, 165.1714
176.8520, 163.5281
177.3341, 161.9072
177.8163, 160.8287
178.2984, 160.9938
178.7805, 161.6607
179.2626, 161.7144
179.7447, 161.1118
180.2268, 160.2232
180.7090, 159.0170
181.1911, 157.7349
181.6732, 157.1663
182.1553, 158.0201
182.6374, 159.7832
183.1195, 161.4089
183.6017, 162.8946
184.0838, 164.2326
184.5659, 165.3828
185.0480, 166.3759
185.5301, 167.4281
186.0123, 168.5347
186.4944, 169.7651
186.9765, 171.3587
187.4586, 173.3862
187.9407, 175.5858
188.4228, 177.5707
188.9050, 179.3582
189.3871, 181.2561
189.8692, 183.3965
190.3513, 185.7506
190.8334, 188.2645
191.3155, 190.9359
191.7977, 193.7257
192.2798, 196.6795
192.7619, 199.7995
193.2440, 202.7160
193.7261, 205.1115
194.2082, 207.0449
194.6904, 209.4153
195.1725, 212.4353
195.6546, 215.5950
196.1367, 217.6391
196.6188, 218.4860
197.1009, 219.4682
197.5831, 221.5412
198.0652, 224.7152
198.5473, 227.0851
199.0294, 228.2770
199.5115, 228.9975
199.9937, 230.8071
200.4758, 233.8229
200.9579, 236.9853
201.4400, 239.5536
201.9221, 241.4448
202.4042, 243.9547
202.8864, 247.3623
203.3685, 251.2132
203.8506, 254.4464
204.3327, 256.9474
204.8148, 259.1755
205.2969, 261.1851
205.7791, 262.8526
206.2612, 265.2428
206.7433, 268.5963
207.2254, 272.5652
207.7075, 276.2168
208.1896, 279.4143
208.6718, 282.7233
209.1539, 286.4936
209.6360, 290.7298
210.1181, 295.3048
210.6002, 300.4827
211.0823, 305.8549
211.5645, 310.2035
212.0466, 313.3108
212.5287, 315.9727
213.0108, 318.7344
213.4929, 321.8901
213.9750, 324.1338
214.4572, 325.4898
214.9393, 325.8600
215.4214, 324.8578
215.9035, 322.1460
216.3856, 318.7233
216.8678, 315.2935
217.3499, 312.1609
217.8320, 307.8270
218.3141, 301.9691
218.7962, 294.9629
219.2783, 287.8960
219.7605, 280.5273
220.2426, 273.6271
220.7247, 267.6592
221.2068, 262.7296
221.6889, 258.5261
222.1710, 255.4255
222.6532, 252.9660
223.1353, 249.6748
223.6174, 244.8268
224.0995, 240.3072
224.5816, 237.0769
225.0637, 235.3999
225.5459, 234.3178
226.0280, 234.0467
226.5101, 234.2947
226.9922, 234.1370
227.4743, 233.2675
227.9564, 232.4723
228.4386, 232.1219
228.9207, 232.3217
229.4028, 232.7527
229.8849, 233.6163
230.3670, 234.6540
230.8492, 235.1088
231.3313, 234.6079
231.8134, 234.0811
232.2955, 233.8882
232.7776, 233.8978
233.2597, 234.5970
233.7419, 236.2372
234.2240, 238.5063
234.7061, 240.5696
235.1882, 242.4436
235.6703, 244.0929
236.1524, 245.4531
236.6346, 246.2094
237.1167, 247.4173
237.5988, 249.2644
238.0809, 251.4935
238.5630, 253.5138
239.0451, 255.0813
239.5273, 256.7853
240.0094, 259.0259
240.4915, 262.4930
240.9736, 264.6632
241.4557, 265.2408
241.9378, 264.6656
242.4200, 263.8100
242.9021, 262.5593
243.3842, 261.1858
243.8663, 259.8515
244.3484, 258.7690
244.8306, 257.0702
245.3127, 254.6727
245.7948, 251.7229
246.2769, 248.4553
246.7590, 244.7836
247.2411, 241.0127
247.7233, 237.3210
248.2054, 233.8840
248.6875, 229.8672
249.1696, 225.2633
249.6517, 220.1352
250.1338, 214.4064
250.6160, 207.1828
251.0981, 200.9673
251.5802, 196.9058
252.0623, 195.5722
252.5444, 193.2082
253.0265, 189.2193
253.5087, 184.7061
253.9908, 181.3788
254.4729, 179.7894
254.9550, 178.2061
255.4371, 176.0013
255.9192, 173.0234
256.4014, 170.8501
256.8835, 169.7327
257.3656, 169.1717
257.8477, 168.5477
258.3298, 167.8188
258.8120, 167.1023
259.2941, 166.3281
259.7762, 165.4598
260.2583, 165.1971
260.7404, 165.8522
261.2225, 166.7175
261.7047, 166.9632
262.1868, 166.2364
262.6689, 165.8147
263.1510, 166.0431
263.6331, 166.8977
264.1152, 167.6341
264.5974, 168.2036
265.0795, 168.7216
265.5616, 169.3477
266.0437, 170.2366
266.5258, 170.7095
267.0079, 170.3875
267.4901, 169.4477
267.9722, 169.6572
268.4543, 171.5425
268.9364, 173.5385
269.4185, 174.1378
269.9006, 172.8468
270.3828, 172.3980
270.8649, 173.5474
271.3470, 175.8216
271.8291, 176.8802
272.3112, 176.3752
272.7933, 175.5823
273.2755, 175.5420
273.7576, 176.4284
274.2397, 176.7944
274.7218, 176.3225
275.2039, 175.3003
275.6860, 174.6297
276.1682, 174.3835
276.6503, 174.1918
277.1324, 173.9385
277.6145, 173.6632
278.0966, 172.8262
278.5787, 171.2533
279.0609, 169.2744
279.5430, 167.6088
280.0251, 166.3253
280.5072, 165.0104
280.9893, 163.3414
281.4715, 161.3367
281.9536, 159.6115
282.4357, 158.1961
282.9178, 157.0548
283.3999, 156.2104
283.8820, 155.6772
284.3642, 155.1293
284.8463, 154.2939
285.3284, 153.2180
285.8105, 152.5904
286.2926, 152.4881
286.7747, 152.5663
287.2569, 152.3860
287.7390, 151.9503
288.2211, 151.3823
288.7032, 150.4631
289.1853, 149.4106
289.6674, 149.3053
290.1496, 150.2377
290.6317, 151.5107
291.1138, 152.5292
291.5959, 153.2773
292.0780, 153.5944
292.5602, 153.2842
293.0423, 152.5709
293.5244, 151.9498
294.0065, 151.4220
294.4886, 151.0720
294.9707, 151.0920
295.4529, 151.3787
295.9350, 151.5316
296.4171, 151.3242
296.8992, 151.0447
297.3813, 151.2408
297.8634, 151.8823
298.3456, 152.6538
298.8277, 153.3525
299.3098, 153.9970
299.7919, 154.6797
300.2740, 155.5440
300.7561, 156.2195
301.2383, 155.9694
301.7204, 154.9844
302.2025, 154.1462
302.6846, 154.2192
303.1667, 154.7269
303.6488, 154.8437
304.1310, 154.2703
304.6131, 153.8408
305.0952, 154.6777
305.5773, 156.3717
306.0594, 157.8107
306.5415, 158.1434
307.0237, 158.0625
307.5058, 158.2845
307.9879, 158.8877
308.4700, 159.7065
308.9521, 160.6705
309.4343, 161.7602
309.9164, 162.9594
310.3985, 164.3143
310.8806, 165.7511
311.3627, 167.3093
311.8448, 169.0065
312.3270, 170.4819
312.8091, 171.1128
313.2912, 171.5329
313.7733, 172.4913
314.2554, 174.6366
314.7375, 177.0559
315.2197, 179.4830
315.7018, 181.8852
316.1839, 183.8535
316.6660, 184.8136
317.1481, 185.4739
317.6302, 186.4104
318.1124, 188.0501
318.5945, 189.6315
319.0766, 190.7626
319.5587, 191.6017
320.0408, 192.7135
320.5229, 194.2012
321.0051, 196.0606
321.4872, 198.3710
321.9693, 201.5124
322.4514, 204.3599
322.9335, 206.7491
323.4156, 208.6880
323.8978, 210.1919
324.3799, 210.1479
324.8620, 210.6392
325.3441, 212.5960
325.8262, 216.6314
326.3083, 220.3372
326.7905, 223.4293
327.2726, 226.1407
327.7547, 228.7184
328.2368, 230.9130
328.7189, 233.2706
329.2010, 236.0579
329.6832, 239.3362
330.1653, 242.0971
330.6474, 244.0903
331.1295, 245.7443
331.6116, 247.4110
332.0938, 249.0193
332.5759, 250.7659
333.0580, 252.7227
333.5401, 254.8637
334.0222, 256.8754
334.5043, 258.8312
334.9865, 260.5793
335.4686, 261.9884
335.9507, 262.8578
336.4328, 263.9883
336.9149, 265.6462
337.3970, 267.5003
337.8792, 268.5538
338.3613, 268.6005
338.8434, 268.4815
339.3255, 268.5898
339.8076, 268.9773
340.2898, 269.2241
340.7719, 269.3447
341.2540, 269.3138
341.7361, 268.9153
342.2182, 268.0707
342.7003, 267.7322
343.1825, 268.6849
343.6646, 270.5636
344.1467, 270.5817
344.6288, 268.4598
345.1109, 265.8875
345.5930, 264.5600
346.0752, 264.3884
346.5573, 264.3300
347.0394, 264.2254
347.5215, 263.9946
348.0036, 263.1789
348.4857, 261.8058
348.9679, 260.8703
349.4500, 261.2755
349.9321, 262.7114
350.4142, 264.2888
350.8963, 265.8910
351.3784, 267.5507
351.8606, 269.2393
352.3427, 270.9779
352.8248, 272.8893
353.3069, 275.1212
353.7890, 277.5137
354.2711, 279.6283
354.7533, 281.3080
355.2354, 283.7424
355.7175, 288.7549
356.1996, 295.1144
356.6817, 300.6735
357.1638, 303.7621
357.6460, 306.2606
358.1281, 309.3426
358.6102, 313.0334
359.0923, 317.5763
359.5744, 323.5057
360.0565, 330.1400
360.5387, 336.7956
361.0208, 342.8776
361.5029, 349.4853
361.9850, 357.3107
362.4671, 366.0621
362.9492, 374.7475
363.4314, 383.2285
363.9135, 391.4033
364.3956, 399.1993
364.8777, 406.5722
365.3598, 413.7304
365.8419, 420.5865
366.3241, 427.2870
366.8062, 434.0058
367.2883, 440.7203
367.7704, 447.5001
368.2526, 454.5815
368.7347, 462.2020
369.2168, 468.8490
369.6989, 475.3292
370.1810, 480.3661
370.6631, 482.9215
371.1453, 481.8838
371.6274, 480.0335
372.1095, 478.0147
372.5916, 475.5444
373.0737, 470.7500
373.5558, 462.6269
374.0380, 453.6143
374.5201, 445.0406
375.0022, 437.4526
375.4843, 428.7189
375.9664, 418.5135
376.4485, 407.3620
376.9307, 395.8592
377.4128, 383.9449
377.8949, 372.3414
378.3770, 361.4660
378.8591, 351.3355
379.3412, 341.2722
379.8234, 331.2617
380.3055, 321.6675
380.7876, 313.0851
381.2697, 305.4232
381.7518, 298.4182
382.2339, 292.2321
382.7161, 286.4966
383.1982, 280.0984
383.6803, 273.1187
384.1624, 266.2935
384.6445, 260.1378
385.1266, 254.6159
385.6088, 249.7492
386.0909, 245.6929
386.5730, 241.8504
387.0551, 237.4076
387.5372, 232.6492
388.0193, 228.3067
388.5015, 224.8986
388.9836, 222.0762
389.4657, 219.5815
389.9478, 217.4085
390.4299, 215.2527
390.9120, 212.9908
391.3942, 210.5915
391.8763, 208.0438
392.3584, 204.9277
392.8405, 202.0569
393.3226, 199.9942
393.8047, 198.5905
394.2869, 197.1603
394.7690, 195.4739
395.2511, 193.6542
395.7332, 191.7627
396.2154, 189.7597
396.6975, 187.7990
397.1796, 185.5389
397.6617, 183.3812
398.1438, 182.0224
398.6259, 182.4205
399.1081, 182.7629
399.5902, 182.5726
400.0723, 181.7991
400.5544, 180.7846
401.0365, 179.1432
401.5186, 177.5387
402.0008, 176.5929
402.4829, 176.8889
402.9650, 176.6746
403.4471, 175.4133
403.9292, 173.4948
404.4113, 172.7410
404.8935, 173.6914
405.3756, 174.5537
405.8577, 174.2524
406.3398, 172.5794
406.8219, 171.3685
407.3040, 170.7399
407.7862, 170.3841
408.2683, 169.8188
408.7504, 169.0361
409.2325, 168.3786
409.7146, 168.0075
410.1967, 167.8464
410.6789, 167.6461
411.1610, 167.4104
411.6431, 167.0827
412.1252, 166.5723
412.6073, 165.9307
413.0894, 165.3331
413.5716, 164.8873
414.0537, 164.3611
414.5358, 163.3142
415.0179, 161.9160
415.5000, 160.6865
415.9821, 160.0275
416.4643, 159.6265
416.9464, 159.1986
417.4285, 158.7236
417.9106, 158.1839
418.3927, 157.5036
418.8748, 156.7686
419.3570, 156.0946
419.8391, 155.4874
420.3212, 154.9720
420.8033, 154.6504
421.2854, 154.4626
421.7675, 154.1189
422.2497, 153.4086
422.7318, 152.6147
423.2139, 151.8770
423.6960, 151.1802
424.1781, 150.6182
424.6602, 150.3415
425.1424, 150.1741
425.6245, 149.8500
426.1066, 149.0404
426.5887, 148.4959
427.0709, 148.4178
427.5530, 148.8049
428.0351, 149.2829
428.5172, 150.0177
428.9993, 150.6190
429.4814, 150.6594
429.9636, 149.8169
430.4457, 149.7613
430.9278, 150.9645
431.4099, 152.6930
431.8920, 153.2700
432.3741, 152.5820
432.8563, 151.6475
433.3384, 150.6620
433.8205, 149.7350
434.3026, 149.8812
434.7847, 151.2313
435.2668, 152.6100
435.7490, 152.4440
436.2311, 151.2256
436.7132, 150.7486
437.1953, 151.6772
437.6774, 153.2883
438.1595, 155.0908
438.6417, 156.8894
439.1238, 157.8729
439.6059, 156.7910
440.0880, 155.0363
440.5701, 154.1634
441.0522, 154.4471
441.5344, 154.8467
442.0165, 154.3125
442.4986, 153.6398
442.9807, 153.8084
443.4628, 156.3763
443.9449, 158.6364
444.4271, 159.3591
444.9092, 158.7679
445.3913, 158.2098
445.8734, 158.0929
446.3555, 158.0383
446.8376, 157.8583
447.3198, 157.4746
447.8019, 157.0817
448.2840, 156.4580
448.7661, 155.9233
449.2482, 156.0053
449.7303, 157.3801
450.2125, 158.2243
450.6946, 158.1265
451.1767, 157.1231
451.6588, 155.6210
452.1409, 153.2249
452.6230, 151.2192
453.1052, 150.7728
453.5873, 152.0294
454.0694, 152.8686
454.5515, 153.0742
455.0337, 152.9085
455.5158, 152.8348
455.9979, 152.8299
456.4800, 152.5581
456.9621, 151.5933
457.4442, 150.3421
457.9264, 149.8051
458.4085, 149.9651
458.8906, 150.3453
459.3727, 150.8699
459.8548, 151.2862
460.3369, 151.0526
460.8191, 149.7319
461.3012, 148.5074
461.7833, 148.5177
462.2654, 149.3215
462.7475, 149.9983
463.2296, 150.1542
463.7118, 150.0757
464.1939, 149.7874
464.6760, 149.2841
465.1581, 149.0633
465.6402, 149.5792
466.1223, 150.2507
466.6045, 150.6615
467.0866, 149.9676
467.5687, 149.9856
468.0508, 151.5063
468.5329, 153.7327
469.0150, 154.8385
469.4972, 153.8776
469.9793, 153.2188
470.4614, 153.7305
470.9435, 155.4937
471.4256, 156.8178
471.9077, 157.6640
472.3899, 158.1538
472.8720, 158.1481
473.3541, 157.5454
473.8362, 157.8418
474.3183, 159.5254
474.8004, 161.7628
475.2826, 162.7519
475.7647, 162.5849
476.2468, 162.5792
476.7289, 163.8226
477.2110, 165.6222
477.6931, 166.2629
478.1753, 165.7389
478.6574, 165.0914
479.1395, 165.1218
479.6216, 165.5919
480.1037, 166.1888
480.5858, 166.9529
481.0680, 167.6040
481.5501, 167.8406
482.0322, 167.8305
482.5143, 167.9200
482.9964, 168.5988
483.4786, 169.1065
483.9607, 168.8952
484.4428, 167.8646
484.9249, 167.2487
485.4070, 167.9084
485.8892, 168.6816
486.3713, 168.7107
486.8534, 166.8581
487.3355, 165.9359
487.8176, 166.3138
488.2997, 167.5577
488.7819, 168.8461
489.2640, 170.3739
489.7461, 171.4934
490.2282, 171.8881
490.7103, 171.6089
491.1924, 171.4733
491.6746, 171.4780
492.1567, 171.6271
492.6388, 171.9606
493.1209, 172.4643
493.6030, 173.0208
494.0851, 173.6751
494.5673, 174.2243
495.0494, 174.1835
495.5315, 173.7335
496.0136, 173.5291
496.4957, 174.4001
496.9778, 175.3642
497.4600, 174.9548
497.9421, 173.3483
498.4242, 172.2880
498.9063, 173.4708
499.3884, 175.2803
499.8705, 176.2875
500.3527, 175.9225
500.8348, 175.4529
501.3169, 175.5827
501.7990, 175.8113
502.2811, 175.4275
502.7632, 173.1675
503.2454, 171.5145
503.7275, 171.4085
504.2096, 172.6531
504.6917, 173.0608
505.1738, 172.3562
505.6559, 171.1954
506.1381, 169.8003
506.6202, 167.9819
507.1023, 166.8331
507.5844, 166.6684
508.0665, 166.6153
508.5486, 165.2525
509.0308, 162.5322
509.5129, 160.3737
509.9950, 159.4880
510.4771, 159.2316
510.9592, 158.0310
511.4413, 156.0022
511.9235, 154.2334
512.4056, 153.5835
512.8877, 153.5631
513.3698, 153.5640
513.8519, 153.5611
514.3340, 153.2295
514.8162, 151.9185
515.2983, 150.2935
515.7804, 149.1581
516.2625, 148.9789
516.7446, 149.0435
517.2267, 149.2602
517.7089, 149.5204
518.1910, 149.5499
518.6731, 148.6039
519.1552, 148.0672
519.6373, 148.7366
520.1194, 150.8097
520.6016, 151.9574
521.0837, 151.6892
521.5658, 151.0295
522.0479, 150.6013
522.5300, 150.2904
523.0121, 150.7376
523.4943, 152.2710
523.9764, 154.1950
524.4585, 155.1483
524.9406, 155.0909
525.4227, 155.1798
525.9048, 155.8380
526.3870, 156.9205
526.8691, 158.2696
527.3513, 159.8557
527.8334, 161.1498
528.3155, 161.6187
528.7976, 161.6298
529.2797, 161.6726
529.7618, 161.7927
530.2440, 162.0489
530.7261, 162.7710
531.2082, 163.5619
531.6903, 163.9011
532.1724, 163.0751
532.6545, 162.3522
533.1367, 162.0651
533.6188, 162.1905
534.1009, 162.6248
534.5830, 164.2102
535.0651, 165.2635
535.5472, 165.0843
536.0294, 163.4581
536.5115, 162.1113
536.9936, 161.0384
537.4757, 160.2538
537.9578, 159.8298
538.4399, 159.8234
538.9221, 159.8410
539.4042, 159.9246
539.8863, 159.8728
540.3684, 159.2170
540.8505, 158.0060
541.3326, 156.8321
541.8148, 156.0388
542.2969, 155.3737
542.7790, 154.2376
543.2611, 152.7109
543.7432, 151.3932
544.2253, 150.9895
544.7075, 150.8424
545.1896, 150.2827
545.6717, 149.1921
546.1538, 147.8445
546.6359, 145.8938
547.1180, 143.9539
547.6002, 142.7039
548.0823, 143.0296
548.5644, 143.2164
549.0465, 142.8730
549.5286, 142.1640
550.0107, 141.5858
550.4929, 141.3205
550.9750, 140.9019
551.4571, 140.0989
551.9392, 138.9044
552.4213, 138.0375
552.9034, 137.5446
553.3856, 137.2142
553.8677, 136.9732
554.3498, 136.7964
554.8319, 136.3279
555.3140, 135.4738
555.7961, 134.5368
556.2783, 133.8203
556.7604, 133.3372
557.2425, 133.1732
557.7246, 133.7780
558.2067, 134.2791
558.6888, 133.5437
559.1710, 131.9226
559.6531, 130.6089
560.1352, 130.4596
560.6173, 130.5852
561.0994, 130.4930
561.5815, 130.1195
562.0637, 129.7065
562.5458, 129.3136
563.0279, 128.8883
563.5100, 128.3629
563.9921, 127.3904
564.4742, 126.9536
564.9564, 127.2631
565.4385, 127.9640
565.9206, 128.5868
566.4027, 129.2264
566.8848, 129.2138
567.3669, 128.0789
567.8491, 126.2976
568.3312, 125.4044
568.8133, 125.3826
569.2954, 125.7844
569.7775, 126.7527
570.2596, 127.8297
570.7418, 127.9736
571.2239, 127.0970
571.7060, 126.2611
572.1881, 126.2928
572.6702, 126.7937
573.1523, 127.3562
573.6345, 127.9975
574.1166, 128.4643
574.5987, 128.7730
575.0808, 128.8206
575.5629, 128.4339
576.0450, 126.6705
576.5272, 125.5241
577.0093, 125.6526
577.4914, 126.8164
577.9735, 127.4254
578.4556, 127.2964
578.9377, 126.9809
579.4199, 126.6685
579.9020, 126.3602
580.3841, 126.3227
580.8662, 126.5731
581.3483, 127.0035
581.8304, 127.6831
582.3126, 128.4769
582.7947, 128.8058
583.2768, 128.3914
583.7589, 128.0117
584.2410, 128.7594
584.7231, 130.1278
585.2053, 131.1142
585.6874, 131.0937
586.1696, 130.7608
586.6517, 130.2237
587.1338, 129.6073
587.6159, 129.4457
588.0980, 130.2440
588.5801, 131.1954
589.0623, 132.0008
589.5444, 132.6601
590.0265, 133.1454
590.5086, 133.4676
590.9907, 133.6043
591.4728, 133.4508
591.9550, 132.9195
592.4371, 132.6980
592.9192, 132.8680
593.4013, 133.2961
593.8834, 133.9005
594.3655, 134.6390
594.8477, 135.2160
595.3298, 135.4345
595.8119, 135.5701
596.2940, 136.2183
596.7761, 137.1463
597.2582, 137.5924
597.7404, 136.5847
598.2225, 135.3851
598.7046, 134.9061
599.1867, 135.1959
599.6688, 135.5331
600.1509, 135.6647
600.6331, 135.8002
601.1152, 136.0931
601.5973, 136.7113
602.0794, 137.0925
602.5615, 137.1342
603.0436, 137.0336
603.5258, 137.0042
604.0079, 137.0579
604.4900, 137.1442
604.9721, 137.2966
605.4542, 137.4213
605.9363, 137.1898
606.4185, 136.6684
606.9006, 136.4310
607.3827, 137.0748
607.8648, 137.9492
608.3469, 138.0147
608.8290, 137.3886
609.3112, 136.7247
609.7933, 136.3358
610.2754, 136.1053
610.7575, 135.9613
611.2396, 135.9060
611.7217, 135.8624
612.2039, 135.6233
612.6860, 135.5026
613.1681, 135.7720
613.6502, 136.9612
614.1323, 137.5990
614.6144, 137.4884
615.0966, 136.9745
615.5787, 136.5296
616.0608, 136.1701
616.5429, 135.7924
617.0250, 135.3735
617.5071, 134.9248
617.9893, 134.3288
618.4714, 133.6490
618.9535, 133.3811
619.4356, 134.3138
619.9177, 135.5107
620.3998, 135.6081
620.8820, 134.7123
621.3641, 133.9048
621.8462, 133.9837
622.3283, 134.2393
622.8104, 134.0809
