##NAMES=Fluorapophyllite-(K)
##RRUFFID=R060554
##IDEAL CHEMISTRY=KCa_4_Si_8_O_20_F&#183;8H_2_O
##LOCALITY=unknown
##OWNER=RRUFF
##SOURCE=Gemological Institute of America
##DESCRIPTION=Colorless polished fragment
##STATUS=The identification of this mineral has been confirmed by X-ray diffraction and chemical analysis
##URL=rruff.info/R060554
##MEASURED CHEMISTRY=(K_0.88_Na_0.12_)Ca_4.00_Si_8.00_O_20_F_1.00_Â·8H2O
124.421, 958.029
124.903, 1019.023
125.385, 1085.680
125.867, 1159.256
126.349, 1259.508
126.831, 1393.932
127.313, 1550.945
127.796, 1732.242
128.278, 1934.499
128.760, 2155.256
129.242, 2393.203
129.724, 2651.569
130.206, 2902.162
130.688, 3174.656
131.170, 3416.089
131.652, 3620.822
132.135, 3779.702
132.617, 3872.785
133.099, 3880.413
133.581, 3794.696
134.063, 3640.936
134.545, 3378.857
135.027, 3094.453
135.509, 2826.763
135.992, 2584.181
136.474, 2364.144
136.956, 2165.079
137.438, 1990.131
137.920, 1837.839
138.402, 1710.392
138.884, 1601.954
139.366, 1507.292
139.848, 1426.011
140.331, 1361.807
140.813, 1321.429
141.295, 1314.663
141.777, 1311.764
142.259, 1305.812
142.741, 1306.512
143.223, 1324.388
143.705, 1362.211
144.188, 1413.883
144.670, 1471.233
145.152, 1532.133
145.634, 1604.481
146.116, 1698.999
146.598, 1802.646
147.080, 1895.827
147.562, 1971.675
148.044, 2042.817
148.527, 2132.844
149.009, 2244.508
149.491, 2358.451
149.973, 2475.531
150.455, 2591.916
150.937, 2699.518
151.419, 2795.461
151.901, 2883.593
152.383, 2969.454
152.866, 3050.146
153.348, 3138.120
153.830, 3230.679
154.312, 3333.105
154.794, 3459.448
155.276, 3612.893
155.758, 3795.878
156.240, 4005.304
156.723, 4236.013
157.205, 4499.301
157.687, 4803.792
158.169, 5145.409
158.651, 5520.304
159.133, 5955.357
159.615, 6391.978
160.097, 6766.370
160.579, 7101.977
161.062, 7320.100
161.544, 7367.121
162.026, 7249.026
162.508, 6999.925
162.990, 6573.134
163.472, 6055.138
163.954, 5572.528
164.436, 5130.366
164.919, 4724.568
165.401, 4356.712
165.883, 4025.761
166.365, 3727.183
166.847, 3469.722
167.329, 3242.165
167.811, 3028.800
168.293, 2827.255
168.775, 2644.324
169.258, 2486.731
169.740, 2354.532
170.222, 2245.079
170.704, 2161.873
171.186, 2101.193
171.668, 2056.497
172.150, 2025.645
172.632, 2016.097
173.115, 2040.246
173.597, 2100.152
174.079, 2167.604
174.561, 2227.292
175.043, 2294.966
175.525, 2386.296
176.007, 2506.500
176.489, 2643.712
176.971, 2779.259
177.454, 2908.626
177.936, 3072.535
178.418, 3290.158
178.900, 3548.404
179.382, 3840.195
179.864, 4164.831
180.346, 4523.291
180.828, 4918.522
181.311, 5350.719
181.793, 5814.311
182.275, 6356.803
182.757, 6905.254
183.239, 7420.338
183.721, 7907.495
184.203, 8296.100
184.685, 8503.705
185.167, 8522.769
185.650, 8399.031
186.132, 8062.198
186.614, 7623.404
187.096, 7133.373
187.578, 6593.939
188.060, 6062.419
188.542, 5594.642
189.024, 5192.377
189.507, 4862.022
189.989, 4649.574
190.471, 4490.874
190.953, 4345.604
191.435, 4203.782
191.917, 4079.764
192.399, 3987.470
192.881, 3925.628
193.363, 3903.799
193.846, 3951.953
194.328, 4027.337
194.810, 4103.809
195.292, 4175.210
195.774, 4249.060
196.256, 4330.921
196.738, 4418.708
197.220, 4527.289
197.702, 4680.082
198.185, 4844.344
198.667, 4993.686
199.149, 5122.750
199.631, 5260.467
200.113, 5439.934
200.595, 5663.449
201.077, 5917.895
201.559, 6196.590
202.042, 6513.038
202.524, 6877.993
203.006, 7295.083
203.488, 7757.674
203.970, 8259.970
204.452, 8803.526
204.934, 9384.322
205.416, 10031.600
205.898, 10696.260
206.381, 11365.110
206.863, 12036.080
207.345, 12669.790
207.827, 13249.450
208.309, 13782.100
208.791, 14182.120
209.273, 14452.870
209.755, 14554.420
210.238, 14441.810
210.720, 14116.200
211.202, 13642.040
211.684, 13043.450
212.166, 12316.600
212.648, 11591.520
213.130, 10849.810
213.612, 10155.040
214.094, 9543.721
214.577, 9019.340
215.059, 8563.306
215.541, 8174.548
216.023, 7852.815
216.505, 7570.007
216.987, 7335.102
217.469, 7133.801
217.951, 6957.848
218.434, 6805.794
218.916, 6670.500
219.398, 6544.037
219.880, 6428.028
220.362, 6337.420
220.844, 6275.688
221.326, 6239.516
221.808, 6220.370
222.290, 6220.074
222.773, 6245.265
223.255, 6312.667
223.737, 6413.243
224.219, 6501.875
224.701, 6576.297
225.183, 6639.320
225.665, 6700.035
226.147, 6753.617
226.629, 6786.859
227.112, 6801.685
227.594, 6790.967
228.076, 6729.875
228.558, 6607.520
229.040, 6454.767
229.522, 6289.192
230.004, 6109.320
230.486, 5911.157
230.969, 5688.453
231.451, 5448.391
231.933, 5200.468
232.415, 4942.074
232.897, 4685.285
233.379, 4431.931
233.861, 4186.622
234.343, 3957.845
234.825, 3751.707
235.307, 3562.015
235.790, 3378.508
236.272, 3200.141
236.754, 3032.957
237.236, 2877.095
237.718, 2734.943
238.200, 2610.189
238.682, 2508.229
239.165, 2418.719
239.647, 2332.162
240.129, 2248.153
240.611, 2172.323
241.093, 2111.726
241.575, 2058.471
242.057, 1998.809
242.539, 1927.049
243.021, 1857.681
243.503, 1802.614
243.986, 1760.438
244.468, 1720.458
244.950, 1677.252
245.432, 1636.183
245.914, 1605.502
246.396, 1587.394
246.878, 1572.705
247.361, 1557.040
247.843, 1541.024
248.325, 1525.508
248.807, 1508.706
249.289, 1496.097
249.771, 1498.945
250.253, 1519.953
250.735, 1535.580
251.217, 1535.744
251.699, 1525.230
252.182, 1510.032
252.664, 1489.897
253.146, 1471.967
253.628, 1467.276
254.110, 1476.278
254.592, 1485.989
255.074, 1490.917
255.556, 1496.774
256.039, 1510.264
256.521, 1532.517
257.003, 1560.250
257.485, 1590.881
257.967, 1624.711
258.449, 1660.817
258.931, 1697.452
259.413, 1737.471
259.896, 1781.646
260.378, 1830.760
260.860, 1888.348
261.342, 1959.809
261.824, 2044.796
262.306, 2123.823
262.788, 2192.977
263.270, 2260.065
263.752, 2333.964
264.235, 2410.141
264.717, 2476.200
265.199, 2524.822
265.681, 2556.923
266.163, 2578.679
266.645, 2602.420
267.127, 2604.150
267.609, 2572.232
268.091, 2515.333
268.574, 2444.821
269.056, 2365.588
269.538, 2280.297
270.020, 2198.566
270.502, 2118.527
270.984, 2044.547
271.466, 1976.104
271.948, 1914.088
272.431, 1860.900
272.913, 1816.883
273.395, 1778.061
273.877, 1736.714
274.359, 1687.366
274.841, 1646.671
275.323, 1615.113
275.805, 1590.373
276.288, 1571.164
276.770, 1557.062
277.252, 1548.170
277.734, 1544.340
278.216, 1545.254
278.698, 1553.074
279.180, 1570.544
279.662, 1592.256
280.144, 1614.623
280.626, 1639.124
281.109, 1671.014
281.591, 1716.775
282.073, 1775.473
282.555, 1825.941
283.037, 1858.506
283.519, 1894.877
284.001, 1941.055
284.483, 1995.544
284.966, 2055.292
285.448, 2117.086
285.930, 2184.418
286.412, 2266.763
286.894, 2370.172
287.376, 2476.429
287.858, 2571.033
288.340, 2668.923
288.823, 2785.919
289.305, 2928.521
289.787, 3086.237
290.269, 3246.698
290.751, 3409.511
291.233, 3576.250
291.715, 3745.637
292.197, 3920.311
292.679, 4104.385
293.162, 4298.729
293.644, 4493.439
294.126, 4686.447
294.608, 4875.327
295.090, 5047.777
295.572, 5212.087
296.054, 5341.844
296.536, 5408.347
297.018, 5416.655
297.501, 5399.878
297.983, 5381.964
298.465, 5343.622
298.947, 5248.440
299.429, 5088.222
299.911, 4895.173
300.393, 4686.279
300.875, 4463.460
301.358, 4244.875
301.840, 4027.324
302.322, 3819.287
302.804, 3628.519
303.286, 3454.237
303.768, 3289.976
304.250, 3130.875
304.732, 2978.789
305.215, 2839.510
305.697, 2714.537
306.179, 2598.826
306.661, 2486.526
307.143, 2382.160
307.625, 2295.164
308.107, 2230.548
308.589, 2180.719
309.071, 2130.337
309.553, 2079.315
310.036, 2026.995
310.518, 1969.467
311.000, 1912.632
311.482, 1859.792
311.964, 1812.314
312.446, 1773.259
312.928, 1747.670
313.410, 1739.876
313.893, 1729.807
314.375, 1716.334
314.857, 1701.977
315.339, 1686.756
315.821, 1671.591
316.303, 1658.006
316.785, 1646.722
317.267, 1638.042
317.750, 1636.117
318.232, 1646.910
318.714, 1657.609
319.196, 1665.071
319.678, 1670.529
320.160, 1674.883
320.642, 1677.869
321.124, 1682.403
321.606, 1694.630
322.089, 1715.953
322.571, 1740.917
323.053, 1773.695
323.535, 1806.401
324.017, 1829.394
324.499, 1840.770
324.981, 1856.810
325.463, 1894.226
325.945, 1951.913
326.428, 2012.911
326.910, 2079.662
327.392, 2142.106
327.874, 2188.187
328.356, 2221.106
328.838, 2259.424
329.320, 2316.680
329.802, 2382.794
330.284, 2439.299
330.767, 2483.686
331.249, 2529.403
331.731, 2587.792
332.213, 2655.544
332.695, 2719.302
333.177, 2779.055
333.659, 2833.626
334.142, 2882.020
334.624, 2924.332
335.106, 2960.806
335.588, 2992.456
336.070, 3017.051
336.552, 3027.476
337.034, 3025.980
337.516, 3009.567
337.998, 2972.440
338.480, 2922.603
338.963, 2869.146
339.445, 2814.333
339.927, 2753.518
340.409, 2679.965
340.891, 2589.275
341.373, 2500.382
341.855, 2412.645
342.337, 2326.933
342.819, 2244.558
343.302, 2164.557
343.784, 2084.717
344.266, 2001.739
344.748, 1917.117
345.230, 1839.806
345.712, 1770.495
346.194, 1725.896
346.677, 1693.348
347.159, 1657.880
347.641, 1619.645
348.123, 1570.357
348.605, 1535.341
349.087, 1494.596
349.569, 1453.625
350.051, 1420.618
350.533, 1372.939
351.016, 1339.803
351.498, 1299.791
351.980, 1257.968
352.462, 1236.050
352.944, 1228.908
353.426, 1232.213
353.908, 1230.064
354.390, 1220.247
354.872, 1207.384
355.355, 1192.262
355.837, 1176.565
356.319, 1165.422
356.801, 1160.786
357.283, 1160.519
357.765, 1163.090
358.247, 1168.443
358.729, 1176.206
359.211, 1185.860
359.694, 1198.107
360.176, 1215.807
360.658, 1243.999
361.140, 1267.656
361.622, 1276.004
362.104, 1280.229
362.586, 1295.648
363.069, 1326.026
363.551, 1363.117
364.033, 1395.747
364.515, 1420.066
364.997, 1455.723
365.479, 1507.072
365.961, 1564.202
366.443, 1621.928
366.925, 1681.108
367.408, 1744.874
367.890, 1815.871
368.372, 1893.218
368.854, 1969.753
369.336, 2045.678
369.818, 2120.208
370.300, 2198.100
370.782, 2271.900
371.264, 2335.330
371.747, 2386.257
372.229, 2424.399
372.711, 2451.059
373.193, 2466.739
373.675, 2463.262
374.157, 2443.810
374.639, 2397.310
375.121, 2310.205
375.603, 2189.329
376.086, 2066.261
376.568, 1955.746
377.050, 1853.525
377.532, 1751.553
378.014, 1648.669
378.496, 1553.225
378.978, 1470.480
379.460, 1399.602
379.943, 1335.099
380.425, 1276.612
380.907, 1224.629
381.389, 1177.990
381.871, 1137.814
382.353, 1108.323
382.835, 1091.621
383.317, 1078.866
383.799, 1055.904
384.282, 1014.476
384.764, 984.389
385.246, 968.222
385.728, 961.007
386.210, 964.925
386.692, 975.987
387.174, 982.529
387.656, 974.536
388.138, 954.477
388.621, 944.543
389.103, 955.131
389.585, 962.666
390.067, 958.687
390.549, 951.645
391.031, 950.901
391.513, 959.485
391.996, 973.021
392.478, 986.722
392.960, 1000.848
393.442, 1012.590
393.924, 1020.001
394.406, 1026.553
394.888, 1034.515
395.370, 1043.660
395.852, 1052.778
396.335, 1060.189
396.817, 1067.655
397.299, 1079.176
397.781, 1095.155
398.263, 1109.065
398.745, 1116.301
399.227, 1119.340
399.709, 1125.847
400.191, 1139.316
400.674, 1150.338
401.156, 1151.534
401.638, 1148.991
402.120, 1153.609
402.602, 1168.234
403.084, 1184.523
403.566, 1190.558
404.048, 1180.399
404.530, 1186.010
405.013, 1224.895
405.495, 1260.479
405.977, 1272.401
406.459, 1267.058
406.941, 1261.098
407.423, 1264.237
407.905, 1273.668
408.387, 1279.729
408.870, 1278.145
409.352, 1282.254
409.834, 1299.899
410.316, 1319.919
410.798, 1334.017
411.280, 1340.990
411.762, 1344.546
412.244, 1344.516
412.727, 1342.751
413.209, 1350.208
413.691, 1370.760
414.173, 1393.212
414.655, 1407.271
415.137, 1417.418
415.619, 1434.205
416.101, 1463.173
416.583, 1495.575
417.065, 1520.769
417.548, 1543.263
418.030, 1579.124
418.512, 1636.202
418.994, 1704.228
419.476, 1764.139
419.958, 1802.822
420.440, 1867.820
420.922, 1972.630
421.405, 2095.366
421.887, 2216.318
422.369, 2338.899
422.851, 2481.989
423.333, 2658.563
423.815, 2867.575
424.297, 3095.202
424.779, 3335.698
425.262, 3604.405
425.744, 3897.938
426.226, 4220.657
426.708, 4573.768
427.190, 4956.770
427.672, 5381.400
428.154, 5863.875
428.636, 6400.759
429.118, 6967.778
429.601, 7593.604
430.083, 8197.937
430.565, 8792.387
431.047, 9329.284
431.529, 9664.079
432.011, 9753.043
432.493, 9627.828
432.975, 9267.523
433.457, 8704.064
433.940, 8041.685
434.422, 7300.650
434.904, 6537.508
435.386, 5859.084
435.868, 5270.977
436.350, 4753.367
436.832, 4331.902
437.314, 3964.807
437.797, 3626.200
438.279, 3313.613
438.761, 3040.945
439.243, 2817.101
439.725, 2638.569
440.207, 2477.767
440.689, 2338.177
441.171, 2211.553
441.654, 2092.402
442.136, 1985.467
442.618, 1897.012
443.100, 1827.869
443.582, 1768.509
444.064, 1710.061
444.546, 1653.215
445.028, 1605.322
445.510, 1569.959
445.992, 1536.655
446.475, 1496.786
446.957, 1453.327
447.439, 1413.339
447.921, 1373.613
448.403, 1342.442
448.885, 1329.422
449.367, 1329.026
449.849, 1327.938
450.332, 1321.861
450.814, 1312.169
451.296, 1299.653
451.778, 1279.666
452.260, 1272.796
452.742, 1284.652
453.224, 1303.524
453.706, 1327.132
454.189, 1352.497
454.671, 1374.097
455.153, 1387.831
455.635, 1398.442
456.117, 1419.483
456.599, 1454.660
457.081, 1490.039
457.563, 1525.032
458.045, 1558.083
458.528, 1584.623
459.010, 1605.892
459.492, 1633.411
459.974, 1685.452
460.456, 1745.570
460.938, 1775.956
461.420, 1773.380
461.902, 1770.391
462.384, 1789.930
462.867, 1819.826
463.349, 1823.183
463.831, 1788.099
464.313, 1750.051
464.795, 1720.214
465.277, 1692.048
465.759, 1657.850
466.241, 1616.523
466.724, 1572.022
467.206, 1527.710
467.688, 1483.645
468.170, 1441.812
468.652, 1401.758
469.134, 1364.916
469.616, 1332.604
470.098, 1303.397
470.581, 1275.695
471.063, 1249.206
471.545, 1223.833
472.027, 1198.368
472.509, 1173.148
472.991, 1154.023
473.473, 1141.980
473.955, 1135.116
474.437, 1135.448
474.919, 1140.085
475.402, 1141.095
475.884, 1130.769
476.366, 1122.598
476.848, 1125.518
477.330, 1137.242
477.812, 1152.400
478.294, 1169.266
478.776, 1189.272
479.259, 1215.390
479.741, 1251.828
480.223, 1279.247
480.705, 1283.472
481.187, 1294.412
481.669, 1331.317
482.151, 1383.942
482.633, 1433.585
483.116, 1471.465
483.598, 1497.456
484.080, 1508.148
484.562, 1501.321
485.044, 1494.636
485.526, 1496.615
486.008, 1493.218
486.490, 1470.456
486.972, 1431.662
487.455, 1396.175
487.937, 1375.477
488.419, 1358.019
488.901, 1329.029
489.383, 1291.276
489.865, 1259.708
490.347, 1241.050
490.829, 1231.556
491.311, 1224.596
491.794, 1224.242
492.276, 1217.574
492.758, 1197.071
493.240, 1176.863
493.722, 1164.426
494.204, 1159.847
494.686, 1161.093
495.168, 1167.643
495.651, 1177.241
496.133, 1184.325
496.615, 1189.316
497.097, 1190.258
497.579, 1179.542
498.061, 1170.555
498.543, 1175.515
499.025, 1193.488
499.508, 1210.472
499.990, 1216.556
500.472, 1220.224
500.954, 1234.322
501.436, 1257.598
501.918, 1277.637
502.400, 1287.945
502.882, 1291.829
503.364, 1296.689
503.846, 1302.028
504.329, 1309.373
504.811, 1314.470
505.293, 1325.074
505.775, 1350.704
506.257, 1387.313
506.739, 1421.647
507.221, 1444.371
507.703, 1459.464
508.186, 1479.988
508.668, 1510.462
509.150, 1530.748
509.632, 1524.313
510.114, 1515.244
510.596, 1525.791
511.078, 1555.068
511.560, 1580.363
512.042, 1579.994
512.525, 1577.519
513.007, 1574.545
513.489, 1574.886
513.971, 1579.524
514.453, 1583.120
514.935, 1585.727
515.417, 1584.393
515.899, 1588.149
516.382, 1589.866
516.864, 1591.498
517.346, 1594.848
517.828, 1582.019
518.310, 1576.354
518.792, 1572.509
519.274, 1567.341
519.756, 1561.677
520.239, 1557.641
520.721, 1555.634
521.203, 1552.668
521.685, 1545.656
522.167, 1540.027
522.649, 1542.167
523.131, 1551.151
523.613, 1557.573
524.096, 1554.759
524.578, 1551.058
525.060, 1553.967
525.542, 1562.531
526.024, 1572.277
526.506, 1581.176
526.988, 1591.568
527.470, 1608.164
527.952, 1633.915
528.435, 1657.939
528.917, 1680.990
529.399, 1701.746
529.881, 1718.445
530.363, 1732.606
530.845, 1745.688
531.327, 1757.143
531.809, 1772.914
532.291, 1806.662
532.774, 1857.453
533.256, 1895.680
533.738, 1911.669
534.220, 1922.338
534.702, 1945.082
535.184, 1977.331
535.666, 2001.299
536.148, 2009.736
536.630, 2015.073
537.113, 2023.794
537.595, 2033.617
538.077, 2041.176
538.559, 2045.277
539.041, 2045.119
539.523, 2039.202
540.005, 2027.047
540.487, 2014.892
540.969, 2007.496
541.452, 1993.587
541.934, 1962.247
542.416, 1926.170
542.898, 1902.313
543.380, 1896.307
543.862, 1892.931
544.344, 1879.918
544.826, 1860.428
545.309, 1842.192
545.791, 1826.120
546.273, 1809.449
546.755, 1789.493
547.237, 1767.477
547.719, 1749.968
548.201, 1738.919
548.683, 1729.127
549.166, 1701.396
549.648, 1690.630
550.130, 1694.485
550.612, 1694.792
551.094, 1691.740
551.576, 1680.142
552.058, 1705.616
552.540, 1697.152
553.023, 1687.296
553.505, 1724.689
553.987, 1706.514
554.469, 1705.669
554.951, 1702.522
555.433, 1696.963
555.915, 1699.849
556.397, 1724.254
556.879, 1750.686
557.362, 1760.446
557.844, 1757.507
558.326, 1753.852
558.808, 1754.333
559.290, 1762.788
559.772, 1788.706
560.254, 1842.561
560.736, 1881.377
561.218, 1892.796
561.701, 1901.037
562.183, 1909.476
562.665, 1921.938
563.147, 1943.886
563.629, 1977.720
564.111, 2020.315
564.593, 2073.418
565.075, 2133.265
565.557, 2188.284
566.040, 2237.078
566.522, 2276.976
567.004, 2300.537
567.486, 2311.263
567.968, 2349.620
568.450, 2433.635
568.932, 2518.174
569.414, 2594.892
569.896, 2668.668
570.379, 2740.240
570.861, 2812.906
571.343, 2896.695
571.825, 3001.612
572.307, 3122.685
572.789, 3242.004
573.271, 3357.418
573.753, 3479.228
574.236, 3606.995
574.718, 3745.477
575.200, 3903.096
575.682, 4080.008
576.164, 4253.667
576.646, 4411.204
577.128, 4569.303
577.610, 4740.176
578.093, 4920.911
578.575, 5105.831
579.057, 5292.784
579.539, 5479.555
580.021, 5666.710
580.503, 5860.877
580.985, 6019.372
581.467, 6127.571
581.950, 6218.720
582.432, 6314.152
582.914, 6401.193
583.396, 6464.696
583.878, 6506.297
584.360, 6506.551
584.842, 6442.403
585.324, 6332.735
585.806, 6204.371
586.289, 6062.035
586.771, 5907.310
587.253, 5740.771
587.735, 5563.216
588.217, 5376.476
588.699, 5177.080
589.181, 4974.133
589.663, 4757.783
590.145, 4548.147
590.628, 4359.677
591.110, 4189.789
591.592, 4025.627
592.074, 3861.893
592.556, 3700.283
593.038, 3538.441
593.520, 3379.471
594.002, 3239.392
594.484, 3123.208
594.967, 3018.812
595.449, 2912.806
595.931, 2804.682
596.413, 2708.211
596.895, 2626.105
597.377, 2550.203
597.859, 2481.926
598.341, 2417.264
598.823, 2350.842
599.306, 2282.327
599.788, 2217.367
600.270, 2162.167
600.752, 2113.823
601.234, 2061.416
601.716, 2003.896
602.198, 1954.032
602.680, 1918.491
603.162, 1891.039
603.645, 1863.719
604.127, 1836.923
604.609, 1807.572
605.091, 1769.710
605.573, 1734.799
606.055, 1711.192
606.537, 1694.655
607.019, 1677.649
607.502, 1657.431
607.984, 1636.604
608.466, 1617.172
608.948, 1599.313
609.430, 1587.785
609.912, 1584.949
610.394, 1582.493
610.876, 1577.154
611.359, 1569.172
611.841, 1559.000
612.323, 1546.204
612.805, 1532.788
613.287, 1514.275
613.769, 1499.342
614.251, 1498.408
614.733, 1507.978
615.216, 1515.627
615.698, 1514.873
616.180, 1511.636
616.662, 1518.729
617.144, 1538.781
617.626, 1550.923
618.108, 1549.463
618.590, 1546.612
619.072, 1548.189
619.555, 1553.549
620.037, 1562.516
620.519, 1577.529
621.001, 1590.329
621.483, 1595.635
621.965, 1597.556
622.447, 1601.159
622.929, 1606.465
623.411, 1609.528
623.894, 1607.159
624.376, 1603.207
624.858, 1608.764
625.340, 1626.163
625.822, 1645.216
626.304, 1670.729
626.786, 1690.887
627.268, 1696.543
627.750, 1691.884
628.233, 1687.132
628.715, 1681.324
629.197, 1681.763
629.679, 1698.930
630.161, 1722.575
630.643, 1737.296
631.125, 1741.071
631.607, 1739.005
632.089, 1733.908
632.572, 1727.791
633.054, 1729.590
633.536, 1743.159
634.018, 1754.467
634.500, 1759.531
634.982, 1763.638
635.464, 1768.422
635.946, 1774.806
636.429, 1785.710
636.911, 1804.887
637.393, 1824.888
637.875, 1840.286
638.357, 1853.203
638.839, 1867.223
639.321, 1882.974
639.803, 1898.208
640.286, 1909.880
640.768, 1920.570
641.250, 1945.308
641.732, 1991.708
642.214, 2033.611
642.696, 2065.207
643.178, 2091.913
643.660, 2113.031
644.143, 2131.399
644.625, 2158.083
645.107, 2200.210
645.589, 2247.552
646.071, 2296.959
646.553, 2345.463
647.035, 2387.292
647.517, 2421.784
647.999, 2453.298
648.482, 2483.739
