##NAMES=Fluorapatite
##RRUFFID=R050617
##IDEAL CHEMISTRY=Ca_5_(PO_4_)_3_F
##LOCALITY=Santa Cruz, Sonora, Mexico
##OWNER=RRUFF
##SOURCE=University of Arizona Mineral Museum
##DESCRIPTION=Tan colored hexagonal prism
##STATUS=The identification of this mineral is confirmed by single-crystal X-ray diffraction and chemical analysis.
##URL=rruff.info/R050617
##MEASURED CHEMISTRY=Ca_5.00_(P_1.00_O_4_)_3_(F_0.99_Cl_0.01_)
125.8476, 189.0726
126.3298, 190.5668
126.8119, 191.8036
127.2940, 193.4074
127.7761, 196.1833
128.2582, 199.0183
128.7404, 201.3158
129.2225, 202.9199
129.7046, 203.9239
130.1867, 204.3541
130.6688, 203.5606
131.1509, 203.4631
131.6331, 204.4956
132.1152, 206.1276
132.5973, 207.9101
133.0794, 209.6183
133.5615, 211.3000
134.0436, 213.1236
134.5258, 215.0628
135.0079, 217.1880
135.4900, 220.0465
135.9721, 223.0765
136.4542, 225.2478
136.9363, 225.7717
137.4184, 224.7924
137.9006, 224.7469
138.3827, 227.1142
138.8648, 228.8704
139.3469, 228.2760
139.8290, 225.5334
140.3111, 222.2506
140.7933, 219.5059
141.2754, 217.3275
141.7575, 215.4511
142.2396, 213.7961
142.7217, 212.4787
143.2038, 211.7582
143.6860, 211.7530
144.1681, 211.8638
144.6502, 211.3960
145.1323, 210.6316
145.6144, 210.2510
146.0965, 210.9749
146.5787, 212.3465
147.0608, 212.7824
147.5429, 211.3552
148.0250, 210.1914
148.5071, 210.6471
148.9892, 212.3425
149.4714, 214.1906
149.9535, 215.3283
150.4356, 215.6969
150.9177, 216.1353
151.3998, 216.5974
151.8819, 217.1743
152.3641, 217.8275
152.8462, 218.6055
153.3283, 219.6627
153.8104, 221.3650
154.2925, 224.3875
154.7746, 226.0550
155.2568, 225.5253
155.7389, 224.5613
156.2210, 223.9963
156.7031, 224.1054
157.1852, 224.9330
157.6673, 226.6186
158.1495, 230.1647
158.6316, 232.8472
159.1137, 234.6500
159.5958, 235.6409
160.0779, 235.6772
160.5600, 234.6778
161.0422, 233.1705
161.5243, 232.1793
162.0064, 231.5478
162.4885, 231.6172
162.9706, 233.0232
163.4527, 235.1627
163.9349, 236.8613
164.4170, 237.6561
164.8991, 237.7855
165.3812, 237.6517
165.8633, 237.0470
166.3454, 236.7728
166.8276, 237.1494
167.3097, 238.1881
167.7918, 240.1269
168.2739, 244.0583
168.7560, 248.2167
169.2381, 250.4616
169.7203, 250.2769
170.2024, 249.1620
170.6845, 248.5942
171.1666, 248.6895
171.6487, 248.6635
172.1308, 247.8187
172.6130, 246.9501
173.0951, 246.7452
173.5772, 247.4587
174.0593, 248.6480
174.5414, 249.4475
175.0235, 249.3497
175.5057, 249.9710
175.9878, 252.2238
176.4699, 254.9547
176.9520, 257.0676
177.4341, 258.0366
177.9162, 258.2403
178.3984, 258.8861
178.8805, 260.5933
179.3626, 261.9598
179.8447, 262.5242
180.3268, 262.7475
180.8089, 263.1132
181.2911, 263.8656
181.7732, 265.0589
182.2553, 267.0693
182.7374, 271.4441
183.2195, 274.9454
183.7016, 276.5314
184.1838, 276.8293
184.6659, 276.9843
185.1480, 277.6954
185.6301, 278.8947
186.1122, 279.8655
186.5943, 280.2330
187.0765, 280.7958
187.5586, 282.0325
188.0407, 283.7683
188.5228, 285.4213
189.0049, 286.5939
189.4870, 287.3270
189.9692, 288.1089
190.4513, 288.7812
190.9334, 289.6198
191.4155, 291.0743
191.8976, 293.0764
192.3797, 294.6285
192.8619, 294.5099
193.3440, 293.5162
193.8261, 293.8955
194.3082, 296.9712
194.7903, 300.7914
195.2724, 303.1809
195.7546, 303.9414
196.2367, 304.5647
196.7188, 306.3186
197.2009, 308.4698
197.6830, 309.9770
198.1651, 310.1849
198.6473, 309.8145
199.1294, 310.1664
199.6115, 311.5254
200.0936, 312.9099
200.5757, 313.6821
201.0578, 314.2447
201.5400, 315.1240
202.0221, 316.6082
202.5042, 318.5299
202.9863, 320.5201
203.4684, 322.9841
203.9505, 324.7513
204.4327, 325.1516
204.9148, 324.8164
205.3969, 324.5438
205.8790, 324.7102
206.3611, 325.3448
206.8432, 326.6545
207.3254, 329.5566
207.8075, 332.0640
208.2896, 333.4795
208.7717, 334.2765
209.2538, 335.1660
209.7359, 336.5952
210.2181, 338.5104
210.7002, 340.3572
211.1823, 342.6584
211.6644, 344.3261
212.1465, 344.7017
212.6286, 344.3197
213.1108, 344.0588
213.5929, 344.4941
214.0750, 345.5937
214.5571, 346.8819
215.0392, 348.6811
215.5213, 350.3213
216.0035, 351.3445
216.4856, 352.0445
216.9677, 353.1123
217.4498, 355.0930
217.9319, 357.8638
218.4140, 359.8676
218.8961, 359.9474
219.3783, 360.5834
219.8604, 363.2000
220.3425, 367.2727
220.8246, 371.1520
221.3067, 373.7805
221.7888, 375.2988
222.2710, 377.0168
222.7531, 379.1217
223.2352, 381.2161
223.7173, 382.9150
224.1994, 384.3470
224.6815, 386.2243
225.1637, 389.2354
225.6458, 392.9470
226.1279, 395.6774
226.6100, 396.5484
227.0921, 397.3240
227.5742, 399.0992
228.0564, 401.8236
228.5385, 405.1149
229.0206, 409.0532
229.5027, 413.3230
229.9848, 417.1748
230.4669, 420.6154
230.9491, 423.5923
231.4312, 425.9573
231.9133, 427.7132
232.3954, 429.2892
232.8775, 430.8240
233.3596, 432.3001
233.8418, 433.6181
234.3239, 434.6245
234.8060, 435.7982
235.2881, 437.7381
235.7702, 440.5169
236.2523, 443.3862
236.7345, 445.9234
237.2166, 448.4950
237.6987, 451.6082
238.1808, 455.5300
238.6629, 459.2825
239.1451, 461.4805
239.6272, 461.8354
240.1093, 462.2087
240.5914, 462.5800
241.0735, 463.5014
241.5556, 465.7043
242.0378, 469.3991
242.5199, 473.4465
243.0020, 476.4648
243.4841, 478.3029
243.9662, 479.5457
244.4483, 479.4464
244.9305, 479.3539
245.4126, 480.3651
245.8947, 482.6625
246.3768, 485.2580
246.8589, 486.6326
247.3410, 486.1434
247.8232, 486.4528
248.3053, 489.0740
248.7874, 491.6227
249.2695, 492.3019
249.7516, 490.9592
250.2337, 489.1157
250.7159, 488.8271
251.1980, 490.6650
251.6801, 492.5803
252.1622, 495.1086
252.6443, 497.2758
253.1264, 498.5396
253.6086, 498.8301
254.0907, 498.3841
254.5728, 497.3000
255.0549, 494.9564
255.5370, 493.9316
256.0191, 494.8886
256.5013, 496.3674
256.9834, 497.5717
257.4655, 498.4576
257.9476, 499.5021
258.4297, 501.2865
258.9118, 504.1123
259.3940, 506.4475
259.8761, 508.5976
260.3582, 510.1165
260.8403, 510.1341
261.3224, 509.0623
261.8045, 508.4603
262.2867, 509.9312
262.7688, 513.8978
263.2509, 517.0764
263.7330, 518.3771
264.2151, 520.0383
264.6972, 523.7970
265.1794, 529.0704
265.6615, 533.7098
266.1436, 535.8138
266.6257, 535.2473
267.1078, 535.3834
267.5899, 536.3707
268.0721, 537.7416
268.5542, 539.3699
269.0363, 541.2203
269.5184, 543.2158
270.0005, 545.2267
270.4826, 547.3203
270.9648, 550.3668
271.4469, 555.4115
271.9290, 560.0973
272.4111, 562.9958
272.8932, 564.7995
273.3753, 567.3245
273.8575, 571.7192
274.3396, 577.5587
274.8217, 582.6454
275.3038, 586.8351
275.7859, 590.6327
276.2680, 593.7772
276.7502, 596.6390
277.2323, 599.8848
277.7144, 603.7094
278.1965, 608.3131
278.6786, 614.7148
279.1607, 624.4432
279.6429, 632.8401
280.1250, 637.9103
280.6071, 640.9249
281.0892, 643.8436
281.5713, 647.1880
282.0534, 651.3793
282.5356, 657.7914
283.0177, 667.1993
283.4998, 675.6815
283.9819, 681.1254
284.4640, 685.3254
284.9461, 691.1613
285.4283, 699.5256
285.9104, 709.0267
286.3925, 718.0211
286.8746, 726.5979
287.3567, 734.3698
287.8388, 740.3835
288.3210, 745.9283
288.8031, 752.6610
289.2852, 760.9647
289.7673, 770.0563
290.2494, 779.3248
290.7315, 788.7921
291.2137, 797.8644
291.6958, 805.2642
292.1779, 812.9138
292.6600, 823.4877
293.1421, 837.2938
293.6242, 851.1005
294.1064, 861.5596
294.5885, 869.5455
295.0706, 879.5306
295.5527, 893.6896
296.0348, 908.8046
296.5169, 922.1642
296.9991, 933.7267
297.4812, 944.6136
297.9633, 954.7869
298.4454, 964.9535
298.9275, 976.9510
299.4096, 991.7166
299.8918, 1007.332
300.3739, 1023.112
300.8560, 1038.905
301.3381, 1053.178
301.8202, 1064.478
302.3023, 1074.455
302.7845, 1086.658
303.2666, 1101.457
303.7487, 1117.302
304.2308, 1133.397
304.7129, 1149.772
305.1950, 1166.798
305.6772, 1184.914
306.1593, 1203.309
306.6414, 1220.889
307.1235, 1237.725
307.6056, 1254.132
308.0877, 1269.878
308.5699, 1285.374
309.0520, 1302.019
309.5341, 1320.700
310.0162, 1339.094
310.4983, 1353.336
310.9804, 1364.216
311.4626, 1376.833
311.9447, 1393.862
312.4268, 1413.222
312.9089, 1432.116
313.3910, 1450.437
313.8731, 1467.914
314.3553, 1484.047
314.8374, 1499.139
315.3195, 1514.304
315.8016, 1529.777
316.2837, 1545.420
316.7658, 1561.112
317.2480, 1576.856
317.7301, 1592.391
318.2122, 1607.903
318.6943, 1623.030
319.1764, 1636.954
319.6585, 1649.561
320.1407, 1661.036
320.6228, 1671.119
321.1049, 1679.965
321.5870, 1688.850
322.0691, 1698.365
322.5512, 1708.131
323.0334, 1717.999
323.5155, 1728.782
323.9976, 1737.099
324.4797, 1739.933
324.9618, 1738.693
325.4439, 1737.617
325.9261, 1737.908
326.4082, 1738.639
326.8903, 1738.911
327.3724, 1738.821
327.8545, 1737.459
328.3366, 1733.514
328.8188, 1728.354
329.3009, 1725.048
329.7830, 1724.733
330.2651, 1722.894
330.7472, 1713.510
331.2293, 1698.057
331.7115, 1684.379
332.1936, 1673.674
332.6757, 1665.513
333.1578, 1661.196
333.6399, 1660.723
334.1220, 1657.654
334.6042, 1646.222
335.0863, 1628.762
335.5684, 1615.130
336.0505, 1608.248
336.5326, 1602.557
337.0147, 1594.346
337.4969, 1584.139
337.9790, 1574.218
338.4611, 1565.409
338.9432, 1557.750
339.4253, 1551.325
339.9074, 1546.833
340.3896, 1541.716
340.8717, 1534.106
341.3538, 1525.271
341.8359, 1518.075
342.3180, 1513.625
342.8001, 1509.782
343.2822, 1502.739
343.7643, 1491.996
344.2465, 1483.588
344.7286, 1481.047
345.2107, 1480.172
345.6928, 1475.694
346.1749, 1466.901
346.6570, 1457.964
347.1392, 1452.889
347.6213, 1451.853
348.1034, 1449.427
348.5855, 1444.984
349.0676, 1439.664
349.5497, 1433.826
350.0319, 1427.627
350.5140, 1421.547
350.9961, 1415.704
351.4782, 1410.270
351.9603, 1406.085
352.4424, 1404.885
352.9246, 1402.626
353.4067, 1397.379
353.8888, 1390.327
354.3709, 1383.175
354.8530, 1376.403
355.3351, 1370.840
355.8173, 1368.524
356.2994, 1371.968
356.7815, 1372.755
357.2636, 1368.322
357.7457, 1361.947
358.2278, 1356.376
358.7100, 1352.222
359.1921, 1349.391
359.6742, 1348.338
360.1563, 1349.898
360.6384, 1347.282
361.1205, 1336.458
361.6027, 1325.562
362.0848, 1319.411
362.5669, 1317.187
363.0490, 1315.301
363.5311, 1311.414
364.0132, 1305.693
364.4954, 1299.479
364.9775, 1290.931
365.4596, 1284.085
365.9417, 1280.685
366.4238, 1279.198
366.9059, 1277.920
367.3881, 1276.134
367.8702, 1273.459
368.3523, 1269.061
368.8344, 1261.839
369.3165, 1254.535
369.7986, 1246.892
370.2808, 1239.323
370.7629, 1231.713
371.2450, 1224.286
371.7271, 1217.964
372.2092, 1214.056
372.6913, 1213.151
373.1735, 1210.672
373.6556, 1204.717
374.1377, 1199.207
374.6198, 1196.394
375.1019, 1195.093
375.5840, 1192.801
376.0662, 1187.882
376.5483, 1180.757
377.0304, 1173.446
377.5125, 1165.300
377.9946, 1157.981
378.4767, 1151.101
378.9589, 1145.451
379.4410, 1142.543
379.9231, 1142.730
380.4052, 1143.600
380.8873, 1140.653
381.3694, 1131.608
381.8516, 1126.328
382.3337, 1129.039
382.8158, 1132.804
383.2979, 1134.486
383.7800, 1133.896
384.2621, 1132.167
384.7443, 1129.622
385.2264, 1126.471
385.7085, 1125.402
386.1906, 1128.065
386.6727, 1130.506
387.1548, 1131.020
387.6370, 1130.365
388.1191, 1129.491
388.6012, 1128.514
389.0833, 1128.121
389.5654, 1129.968
390.0475, 1134.678
390.5297, 1138.762
391.0118, 1140.160
391.4939, 1141.060
391.9760, 1143.334
392.4581, 1147.254
392.9402, 1151.344
393.4224, 1154.575
393.9045, 1156.982
394.3866, 1158.375
394.8687, 1157.323
395.3508, 1157.663
395.8329, 1163.837
396.3151, 1174.111
396.7972, 1182.836
397.2793, 1186.474
397.7614, 1188.003
398.2435, 1191.780
398.7256, 1197.963
399.2078, 1204.522
399.6899, 1210.382
400.1720, 1215.794
400.6541, 1221.471
401.1362, 1227.865
401.6183, 1233.688
402.1005, 1238.232
402.5826, 1241.589
403.0647, 1243.608
403.5468, 1243.717
404.0289, 1243.850
404.5110, 1246.960
404.9932, 1253.056
405.4753, 1260.168
405.9574, 1269.657
406.4395, 1278.917
406.9216, 1284.746
407.4037, 1287.180
407.8859, 1289.446
408.3680, 1294.070
408.8501, 1300.861
409.3322, 1306.861
409.8143, 1311.732
410.2964, 1316.377
410.7786, 1321.707
411.2607, 1326.944
411.7428, 1330.389
412.2249, 1331.258
412.7070, 1331.144
413.1891, 1333.231
413.6713, 1339.461
414.1534, 1344.501
414.6355, 1347.452
415.1176, 1349.937
415.5997, 1353.626
416.0818, 1358.269
416.5640, 1361.818
417.0461, 1362.113
417.5282, 1359.084
418.0103, 1358.171
418.4924, 1361.290
418.9745, 1364.521
419.4567, 1367.227
419.9388, 1369.471
420.4209, 1371.569
420.9030, 1373.657
421.3851, 1375.344
421.8672, 1375.507
422.3494, 1372.935
422.8315, 1371.970
423.3136, 1374.512
423.7957, 1377.531
424.2778, 1379.989
424.7599, 1381.396
425.2421, 1380.755
425.7242, 1376.100
426.2063, 1368.053
426.6884, 1363.054
427.1705, 1362.840
427.6526, 1362.850
428.1348, 1361.306
428.6169, 1358.652
429.0990, 1355.600
429.5811, 1352.602
430.0632, 1348.771
430.5453, 1342.636
431.0275, 1334.156
431.5096, 1325.533
431.9917, 1316.987
432.4738, 1308.969
432.9559, 1302.313
433.4380, 1296.991
433.9202, 1290.607
434.4023, 1280.900
434.8844, 1269.730
435.3665, 1260.990
435.8486, 1255.307
436.3307, 1249.071
436.8129, 1238.709
437.2950, 1225.630
437.7771, 1215.869
438.2592, 1212.012
438.7413, 1208.831
439.2234, 1204.035
439.7056, 1197.780
440.1877, 1190.120
440.6698, 1180.854
441.1519, 1171.153
441.6340, 1162.852
442.1161, 1156.507
442.5983, 1150.043
443.0804, 1142.084
443.5625, 1134.953
444.0446, 1131.309
444.5267, 1130.535
445.0089, 1129.231
445.4910, 1124.857
445.9731, 1117.631
446.4552, 1109.619
446.9373, 1097.963
447.4194, 1088.866
447.9016, 1085.398
448.3837, 1083.944
448.8658, 1080.422
449.3479, 1073.664
449.8300, 1065.561
450.3121, 1058.780
450.7943, 1053.570
451.2764, 1048.756
451.7585, 1044.964
452.2406, 1040.974
452.7227, 1036.314
453.2048, 1031.085
453.6870, 1025.495
454.1691, 1019.449
454.6512, 1013.435
455.1333, 1008.826
455.6154, 1006.226
456.0975, 1003.249
456.5797, 998.3679
457.0618, 993.2668
457.5439, 989.6489
458.0260, 987.7497
458.5081, 985.1092
458.9902, 979.0098
459.4724, 970.5648
459.9545, 963.7877
460.4366, 959.3094
460.9187, 955.8885
461.4008, 952.9147
461.8829, 950.2902
462.3651, 947.8513
462.8472, 946.0714
463.3293, 943.9308
463.8114, 940.1344
464.2935, 935.2156
464.7756, 931.1849
465.2578, 928.8983
465.7399, 927.5280
466.2220, 925.9360
466.7041, 924.3670
467.1862, 921.6049
467.6683, 915.8919
468.1505, 910.0895
468.6326, 907.3932
469.1147, 907.2614
469.5968, 906.0588
470.0789, 900.9708
470.5610, 892.7614
471.0432, 886.6796
471.5253, 883.6862
472.0074, 881.6849
472.4895, 881.9513
472.9716, 882.3146
473.4537, 880.0067
473.9359, 874.7238
474.4180, 869.2049
474.9001, 867.2287
475.3822, 869.5376
475.8643, 869.2821
476.3464, 862.9132
476.8286, 857.7495
477.3107, 857.1282
477.7928, 859.0485
478.2749, 860.1868
478.7570, 859.0428
479.2391, 856.6071
479.7213, 854.5745
480.2034, 853.0687
480.6855, 850.7875
481.1676, 846.9584
481.6497, 842.6427
482.1318, 838.2505
482.6140, 833.9367
483.0961, 830.8337
483.5782, 830.6037
484.0603, 831.4271
484.5424, 830.1201
485.0245, 826.5140
485.5067, 823.1174
485.9888, 821.5563
486.4709, 820.9777
486.9530, 819.0249
487.4351, 814.7339
487.9172, 811.2697
488.3994, 810.6959
488.8815, 811.1527
489.3636, 810.0114
489.8457, 806.8124
490.3278, 802.9880
490.8099, 799.7924
491.2921, 797.2489
491.7742, 795.1866
492.2563, 793.7795
492.7384, 792.5750
493.2205, 791.4794
493.7026, 790.4937
494.1848, 789.8741
494.6669, 789.6693
495.1490, 789.1675
495.6311, 786.9840
496.1132, 782.2726
496.5953, 778.6454
497.0775, 776.2424
497.5596, 774.8162
498.0417, 775.3387
498.5238, 776.7208
499.0059, 776.6703
499.4880, 773.6953
499.9702, 769.1468
500.4523, 765.5465
500.9344, 762.9028
501.4165, 761.1298
501.8986, 760.8817
502.3807, 760.9440
502.8629, 760.0755
503.3450, 758.3020
503.8271, 756.7526
504.3092, 755.9890
504.7913, 755.7679
505.2734, 756.2420
505.7556, 757.4014
506.2377, 757.1544
506.7198, 753.7826
507.2019, 748.4042
507.6840, 744.4609
508.1661, 741.7532
508.6482, 740.5861
509.1303, 742.1353
509.6125, 744.7041
510.0946, 746.8039
510.5767, 747.9996
511.0588, 747.7050
511.5409, 745.1839
512.0231, 740.4525
512.5052, 736.2673
512.9873, 733.1107
513.4694, 729.9132
513.9515, 725.3889
514.4337, 721.2343
514.9158, 720.0073
515.3979, 722.2108
515.8800, 725.0592
516.3621, 724.6609
516.8442, 720.5720
517.3264, 717.9979
517.8085, 717.8593
518.2906, 718.1444
518.7727, 718.3684
519.2548, 718.2717
519.7369, 717.3458
520.2191, 715.2168
520.7012, 712.7247
521.1833, 710.9312
521.6654, 709.7021
522.1475, 707.8586
522.6296, 704.8287
523.1118, 701.7086
523.5939, 699.8645
524.0760, 699.1202
524.5581, 698.2825
525.0402, 697.0870
525.5223, 695.7963
526.0045, 694.7578
526.4866, 693.7946
526.9687, 692.2366
527.4508, 689.7360
527.9329, 686.9501
528.4150, 685.2181
528.8972, 685.6675
529.3793, 684.4881
529.8614, 679.8658
530.3435, 675.4033
530.8256, 673.2724
531.3077, 672.9895
531.7899, 673.1302
532.2720, 672.9810
532.7541, 672.1884
533.2362, 669.5314
533.7183, 664.0142
534.2004, 659.4249
534.6826, 656.8463
535.1647, 655.0363
535.6468, 653.4862
536.1289, 652.1108
536.6110, 650.8630
537.0931, 649.4292
537.5753, 648.2476
538.0574, 648.8604
538.5395, 651.4323
539.0216, 652.0452
539.5037, 648.0724
539.9858, 642.1429
540.4680, 638.8499
540.9501, 638.5988
541.4322, 637.9624
541.9143, 635.2101
542.3964, 632.1345
542.8785, 630.7416
543.3607, 630.9096
543.8428, 631.1565
544.3249, 630.5871
544.8070, 629.3099
545.2891, 627.7145
545.7712, 625.4293
546.2534, 623.3260
546.7355, 620.9371
547.2176, 619.1140
547.6997, 618.7956
548.1818, 619.7639
548.6639, 620.9158
549.1461, 621.4370
549.6282, 621.4231
550.1103, 621.2621
550.5924, 620.9533
551.0745, 620.4857
551.5566, 620.3190
552.0388, 619.6649
552.5209, 616.9788
553.0030, 612.3159
553.4851, 609.4550
553.9672, 612.2133
554.4493, 617.6052
554.9315, 620.3026
555.4136, 620.0294
555.8957, 618.5679
556.3778, 616.3611
556.8599, 614.0186
557.3420, 613.3485
557.8242, 614.8578
558.3063, 616.4800
558.7884, 618.3571
559.2705, 619.8127
559.7526, 619.7481
560.2347, 618.4632
560.7169, 617.5725
561.1990, 618.2875
561.6811, 620.2361
562.1632, 621.7556
562.6453, 622.7388
563.1274, 623.4108
563.6096, 623.4811
564.0917, 623.5207
564.5738, 623.9271
565.0559, 624.7137
565.5380, 625.7075
566.0201, 627.1525
566.5023, 628.5459
566.9844, 628.2365
567.4665, 625.8929
567.9486, 624.0238
568.4307, 623.7448
568.9128, 624.3148
569.3950, 624.7013
569.8771, 624.8936
570.3592, 625.1338
570.8413, 625.6867
571.3234, 626.2117
571.8055, 626.2317
572.2877, 625.8403
572.7698, 625.6447
573.2519, 626.0322
573.7340, 626.6523
574.2161, 626.5330
574.6982, 624.1328
575.1804, 623.7593
575.6625, 626.9657
576.1446, 630.6973
576.6267, 633.7919
577.1088, 635.7998
577.5909, 636.0129
578.0731, 633.7208
578.5552, 630.2816
579.0373, 629.0142
579.5194, 630.4902
580.0015, 630.9743
580.4836, 629.6976
580.9658, 627.1830
581.4479, 623.5458
581.9300, 619.0297
582.4121, 614.6609
582.8942, 611.2023
583.3763, 607.7269
583.8585, 602.6234
584.3406, 596.6039
584.8227, 592.5758
585.3048, 591.7550
585.7869, 592.1783
586.2690, 591.1034
586.7512, 588.0172
587.2333, 586.0073
587.7154, 585.5990
588.1975, 585.6129
588.6796, 585.7660
589.1617, 585.9410
589.6438, 586.1518
590.1259, 586.3751
590.6080, 586.2399
591.0901, 584.9846
591.5723, 582.4214
592.0544, 580.6066
592.5365, 580.2376
593.0186, 579.6301
593.5007, 577.8763
593.9828, 575.4552
594.4650, 572.7674
594.9471, 569.5436
595.4292, 567.5072
595.9113, 569.3109
596.3934, 573.1047
596.8755, 574.3721
597.3577, 572.3868
597.8398, 569.2345
598.3219, 566.1018
598.8040, 563.1695
599.2861, 561.6953
599.7682, 562.7626
600.2504, 563.6207
600.7325, 563.8885
601.2146, 563.7433
601.6967, 563.3952
602.1788, 562.8340
602.6609, 561.6962
603.1431, 559.3942
603.6252, 556.5822
604.1073, 556.5361
604.5894, 560.6196
605.0715, 563.9024
605.5536, 565.3980
606.0358, 565.4320
606.5179, 563.7137
607.0000, 560.4640
607.4821, 557.1423
607.9642, 554.2010
608.4464, 551.7191
608.9285, 550.0942
609.4106, 549.1486
609.8927, 547.7707
610.3748, 545.4000
610.8569, 542.8967
611.3391, 541.6735
611.8212, 542.3357
612.3033, 541.8626
612.7854, 538.9417
613.2675, 536.3315
613.7496, 535.3497
614.2318, 535.4796
614.7139, 536.0551
615.1960, 536.7742
615.6781, 537.0153
616.1602, 535.6638
616.6423, 532.6224
617.1245, 530.3057
617.6066, 529.6205
618.0887, 528.1075
618.5708, 522.8790
619.0529, 516.6840
619.5350, 513.6389
620.0172, 515.0299
620.4993, 516.7567
620.9814, 516.3717
621.4635, 514.8906
621.9456, 513.6844
