##NAMES=Fluorophlogopite
##RRUFFID=R040075
##IDEAL CHEMISTRY=KMg_3_(Si_3_Al)O_10_F_2_
##LOCALITY=unknown
##OWNER=RRUFF
##SOURCE=University of Arizona Mineral Museum
##DESCRIPTION=Green hexagonal tablet
##STATUS=The identification of this mineral has been confirmed by X-ray diffraction and chemical analysis
##URL=rruff.info/R040075
##MEASURED CHEMISTRY=(K_0.93_[box]_0.04_Na_0.03_)(Mg_0.66_Fe_0.30_Ti_0.02_)_3_(Si_0.75_Al_0.25_)_4_O_10_(F_0.90_(OH)_0.06_Cl_0.04_)
111.5049, 301.8230
111.9871, 311.0985
112.4692, 320.2744
112.9513, 330.6996
113.4334, 344.7127
113.9155, 358.2352
114.3976, 363.5055
114.8798, 357.0423
115.3619, 353.5474
115.8440, 364.1983
116.3261, 381.4834
116.8082, 395.8730
117.2903, 403.9436
117.7725, 406.1937
118.2546, 402.2662
118.7367, 384.8684
119.2188, 374.1036
119.7009, 380.2087
120.1830, 397.7218
120.6652, 417.0210
121.1473, 431.7456
121.6294, 442.7775
122.1115, 457.7552
122.5936, 476.5539
123.0757, 500.0992
123.5579, 531.5269
124.0400, 568.0944
124.5221, 603.5623
125.0042, 632.0784
125.4863, 652.9750
125.9684, 676.5765
126.4506, 697.6092
126.9327, 726.3425
127.4148, 766.4813
127.8969, 818.0839
128.3790, 880.4157
128.8611, 954.9858
129.3432, 1046.823
129.8254, 1129.318
130.3075, 1209.736
130.7896, 1276.680
131.2717, 1325.292
131.7538, 1354.443
132.2359, 1364.685
132.7181, 1354.343
133.2002, 1311.854
133.6823, 1275.312
134.1644, 1244.434
134.6465, 1218.443
135.1286, 1197.714
135.6108, 1181.948
136.0929, 1169.157
136.5750, 1156.756
137.0571, 1147.977
137.5392, 1133.388
138.0213, 1104.967
138.5035, 1075.418
138.9856, 1052.484
139.4677, 1039.173
139.9498, 1038.622
140.4319, 1057.022
140.9140, 1105.665
141.3962, 1160.345
141.8783, 1224.068
142.3604, 1292.164
142.8425, 1358.158
143.3246, 1419.134
143.8067, 1480.677
144.2889, 1557.354
144.7710, 1665.277
145.2531, 1763.608
145.7352, 1838.354
146.2173, 1877.920
146.6994, 1893.464
147.1816, 1911.596
147.6637, 1925.133
148.1458, 1911.480
148.6279, 1855.638
149.1100, 1805.565
149.5921, 1779.572
150.0743, 1766.064
150.5564, 1741.120
151.0385, 1691.863
151.5206, 1627.966
152.0027, 1576.453
152.4848, 1538.272
152.9670, 1505.878
153.4491, 1477.703
153.9312, 1452.900
154.4133, 1428.367
154.8954, 1400.411
155.3775, 1373.753
155.8597, 1361.870
156.3418, 1375.717
156.8239, 1387.660
157.3060, 1378.318
157.7881, 1352.996
158.2702, 1336.019
158.7524, 1343.170
159.2345, 1364.767
159.7166, 1373.789
160.1987, 1364.935
160.6808, 1351.406
161.1629, 1342.053
161.6451, 1336.219
162.1272, 1327.552
162.6093, 1311.643
163.0914, 1291.609
163.5735, 1274.646
164.0556, 1261.588
164.5378, 1251.118
165.0199, 1242.160
165.5020, 1234.771
165.9841, 1230.402
166.4662, 1232.384
166.9483, 1237.021
167.4305, 1237.222
167.9126, 1230.400
168.3947, 1221.385
168.8768, 1214.839
169.3589, 1210.847
169.8410, 1205.688
170.3232, 1194.588
170.8053, 1182.099
171.2874, 1175.904
171.7695, 1180.259
172.2516, 1187.727
172.7337, 1190.165
173.2159, 1187.017
173.6980, 1184.069
174.1801, 1185.705
174.6622, 1188.791
175.1443, 1189.079
175.6264, 1186.253
176.1086, 1179.621
176.5907, 1166.141
177.0728, 1144.327
177.5549, 1125.181
178.0370, 1117.217
178.5191, 1114.505
179.0013, 1109.913
179.4834, 1100.894
179.9655, 1090.359
180.4476, 1080.445
180.9297, 1070.153
181.4118, 1065.741
181.8940, 1077.449
182.3761, 1094.805
182.8582, 1106.294
183.3403, 1107.880
183.8224, 1103.583
184.3046, 1097.491
184.7867, 1088.901
185.2688, 1081.922
185.7509, 1079.868
186.2330, 1080.109
186.7151, 1080.375
187.1973, 1080.733
187.6794, 1079.878
188.1615, 1076.144
188.6436, 1069.570
189.1257, 1060.118
189.6078, 1042.492
190.0900, 1023.976
190.5721, 1012.927
191.0542, 1014.585
191.5363, 1019.803
192.0184, 1014.017
192.5005, 993.9158
192.9827, 977.3834
193.4648, 974.9996
193.9469, 978.6137
194.4290, 981.3777
194.9111, 981.7244
195.3932, 979.9449
195.8754, 975.8924
196.3575, 969.0248
196.8396, 962.3256
197.3217, 957.1443
197.8038, 952.6063
198.2859, 947.8157
198.7681, 942.2848
199.2502, 937.0582
199.7323, 934.6613
200.2144, 936.3298
200.6965, 934.3840
201.1786, 919.3591
201.6608, 902.4529
202.1429, 894.1406
202.6250, 898.2642
203.1071, 906.3432
203.5892, 908.0993
204.0713, 902.6992
204.5535, 896.3568
205.0356, 888.9687
205.5177, 882.6604
205.9998, 880.1805
206.4819, 882.7432
206.9640, 885.6777
207.4462, 882.8672
207.9283, 873.5261
208.4104, 865.7479
208.8925, 863.9438
209.3746, 863.4005
209.8567, 859.9826
210.3388, 852.7421
210.8210, 845.1030
211.3031, 840.7561
211.7852, 839.8408
212.2673, 838.8802
212.7494, 836.5676
213.2315, 834.2399
213.7137, 833.3384
214.1958, 834.1121
214.6779, 834.6087
215.1600, 832.5894
215.6421, 828.1278
216.1242, 824.6378
216.6064, 823.3516
217.0885, 822.9540
217.5706, 822.1832
218.0527, 820.9803
218.5348, 820.3776
219.0169, 822.1953
219.4991, 826.0198
219.9812, 827.2767
220.4633, 823.8117
220.9454, 818.8771
221.4275, 815.3340
221.9096, 813.1403
222.3918, 810.7744
222.8739, 805.9144
223.3560, 799.4967
223.8381, 797.0670
224.3202, 801.6699
224.8023, 807.2936
225.2845, 809.2310
225.7666, 807.8264
226.2487, 805.1405
226.7308, 801.9086
227.2129, 798.2230
227.6950, 794.0786
228.1772, 788.7786
228.6593, 784.3875
229.1414, 782.3327
229.6235, 782.3625
230.1056, 784.1002
230.5877, 788.7681
231.0699, 794.8134
231.5520, 799.3817
232.0341, 802.6572
232.5162, 803.3840
232.9983, 797.7559
233.4804, 788.4893
233.9626, 782.6530
234.4447, 785.0602
234.9268, 791.2659
235.4089, 794.7370
235.8910, 794.9518
236.3731, 794.2922
236.8553, 794.7202
237.3374, 795.4935
237.8195, 794.7614
238.3016, 790.7977
238.7837, 785.9650
239.2658, 782.8207
239.7480, 781.3976
240.2301, 780.4042
240.7122, 779.1664
241.1943, 777.7954
241.6764, 776.5051
242.1585, 774.0101
242.6407, 772.8608
243.1228, 775.8011
243.6049, 782.4113
244.0870, 789.6571
244.5691, 798.2209
245.0512, 804.8834
245.5334, 802.2152
246.0155, 783.2729
246.4976, 765.4957
246.9797, 758.8563
247.4618, 761.1984
247.9439, 765.5657
248.4261, 769.5216
248.9082, 773.4442
249.3903, 778.7890
249.8724, 787.7613
250.3545, 793.1884
250.8366, 789.9369
251.3188, 781.6306
251.8009, 774.7906
252.2830, 771.3931
252.7651, 770.7836
253.2472, 772.5675
253.7293, 777.8045
254.2115, 781.6791
254.6936, 782.6563
255.1757, 782.0784
255.6578, 780.9500
256.1399, 779.4789
256.6220, 779.2674
257.1042, 783.2567
257.5863, 794.3936
258.0684, 799.0632
258.5505, 790.3352
259.0326, 779.1467
259.5147, 775.8979
259.9969, 781.2376
260.4790, 786.7302
260.9611, 783.0901
261.4432, 767.6727
261.9253, 761.9629
262.4074, 773.4393
262.8896, 786.9357
263.3717, 795.2534
263.8538, 798.1855
264.3359, 798.1978
264.8180, 796.8398
265.3001, 794.1250
265.7823, 792.4371
266.2644, 793.4896
266.7465, 793.5992
267.2286, 790.0619
267.7107, 784.8124
268.1928, 781.4131
268.6750, 781.9269
269.1571, 785.9796
269.6392, 791.6341
270.1213, 805.1742
270.6034, 813.0281
271.0855, 809.3104
271.5677, 800.7097
272.0498, 795.0665
272.5319, 795.7283
273.0140, 800.4397
273.4961, 804.3575
273.9782, 808.4042
274.4604, 809.7941
274.9425, 806.1121
275.4246, 801.4614
275.9067, 799.5040
276.3888, 800.9478
276.8709, 803.3193
277.3531, 802.9136
277.8352, 798.3992
278.3173, 795.4268
278.7994, 799.3197
279.2815, 800.6396
279.7636, 790.1425
280.2458, 770.2025
280.7279, 754.1077
281.2100, 758.3801
281.6921, 784.1006
282.1742, 796.3010
282.6563, 783.4318
283.1385, 769.1483
283.6206, 764.3527
284.1027, 766.2949
284.5848, 767.6113
285.0669, 763.6408
285.5490, 755.6209
286.0312, 747.3072
286.5133, 736.7553
286.9954, 730.1516
287.4775, 732.7278
287.9596, 740.0433
288.4417, 746.3870
288.9239, 750.1809
289.4060, 751.4230
289.8881, 748.4081
290.3702, 740.1479
290.8523, 735.3909
291.3344, 740.0295
291.8166, 749.0790
292.2987, 757.3903
292.7808, 765.3285
293.2629, 769.5805
293.7450, 765.6993
294.2271, 754.9937
294.7093, 744.4204
295.1914, 734.3832
295.6735, 727.5488
296.1556, 728.8140
296.6377, 739.2443
297.1198, 746.9966
297.6020, 745.4203
298.0841, 738.6404
298.5662, 734.1799
299.0483, 733.7307
299.5304, 733.3694
300.0125, 727.1959
300.4947, 714.8976
300.9768, 709.7543
301.4589, 721.6187
301.9410, 735.4015
302.4231, 736.0606
302.9052, 724.2098
303.3874, 713.2330
303.8695, 713.3212
304.3516, 724.0031
304.8337, 732.4928
305.3158, 738.3774
305.7979, 742.8909
306.2801, 746.9726
306.7622, 750.0690
307.2443, 751.0117
307.7264, 749.1818
308.2085, 744.8674
308.6906, 739.0229
309.1728, 723.9689
309.6549, 716.9473
310.1370, 725.0248
310.6191, 738.6225
311.1012, 748.7658
311.5833, 752.6742
312.0655, 752.0992
312.5476, 748.9855
313.0297, 740.3327
313.5118, 736.5204
313.9939, 740.8060
314.4760, 746.4264
314.9582, 749.7310
315.4403, 750.5927
315.9224, 751.1121
316.4045, 754.3721
316.8866, 760.4279
317.3687, 758.2163
317.8509, 736.3253
318.3330, 719.0998
318.8151, 718.2972
319.2972, 727.1765
319.7793, 733.4427
320.2614, 729.6476
320.7436, 720.4767
321.2257, 718.0125
321.7078, 724.8632
322.1899, 730.8839
322.6720, 731.0180
323.1541, 729.2793
323.6363, 729.6746
324.1184, 733.5284
324.6005, 737.5757
325.0826, 738.1673
325.5647, 735.5735
326.0468, 733.5144
326.5290, 731.9960
327.0111, 732.5516
327.4932, 738.0530
327.9753, 748.5991
328.4574, 756.3540
328.9395, 755.4370
329.4217, 750.1494
329.9038, 749.1829
330.3859, 754.3972
330.8680, 758.1702
331.3501, 751.6121
331.8322, 735.8592
332.3144, 726.6485
332.7965, 730.1557
333.2786, 736.3420
333.7607, 738.3701
334.2428, 736.8224
334.7249, 734.9804
335.2070, 734.2459
335.6891, 735.0553
336.1713, 739.6846
336.6534, 755.1536
337.1355, 765.2974
337.6176, 765.0934
338.0997, 758.6586
338.5818, 749.6506
339.0640, 739.5051
339.5461, 730.5151
340.0282, 726.6165
340.5103, 730.4218
340.9924, 733.7155
341.4745, 733.4651
341.9567, 735.2083
342.4388, 746.2861
342.9209, 763.8309
343.4030, 776.1285
343.8851, 770.9875
344.3672, 749.0698
344.8494, 737.2658
345.3315, 746.1285
345.8136, 752.5873
346.2957, 746.8311
346.7778, 735.4772
347.2599, 728.6866
347.7421, 731.4755
348.2242, 739.6706
348.7063, 745.8669
349.1884, 749.7730
349.6705, 753.1758
350.1526, 759.5823
350.6348, 763.6149
351.1169, 757.8040
351.5990, 740.6358
352.0811, 727.2230
352.5632, 733.9893
353.0453, 754.7531
353.5275, 764.0398
354.0096, 754.5593
354.4917, 741.0432
354.9738, 738.4053
355.4559, 744.3549
355.9380, 749.6831
356.4202, 752.0568
356.9023, 753.0837
357.3844, 753.9041
357.8665, 754.6418
358.3486, 755.8485
358.8307, 758.0796
359.3129, 760.9426
359.7950, 762.6720
360.2771, 765.0367
360.7592, 764.4046
361.2413, 756.4866
361.7234, 746.0203
362.2056, 739.6580
362.6877, 739.5578
363.1698, 743.6287
363.6519, 749.0040
364.1340, 757.7429
364.6161, 762.4611
365.0983, 762.6390
365.5804, 759.9059
366.0625, 752.2546
366.5446, 741.9532
367.0267, 735.6984
367.5089, 739.9277
367.9910, 753.0809
368.4731, 759.3292
368.9552, 753.2201
369.4373, 747.7149
369.9194, 747.2284
370.4016, 748.8311
370.8837, 748.8924
371.3658, 745.9869
371.8479, 741.9227
372.3300, 738.7636
372.8121, 736.4645
373.2943, 735.7787
373.7764, 737.7404
374.2585, 740.6427
374.7406, 742.8819
375.2227, 744.4826
375.7048, 746.4574
376.1870, 750.0162
376.6691, 754.0973
377.1512, 757.2278
377.6333, 759.4681
378.1154, 758.9717
378.5975, 752.3682
379.0797, 741.3971
379.5618, 736.3354
380.0439, 742.6890
380.5260, 749.5453
381.0081, 752.2947
381.4902, 751.4393
381.9724, 747.0545
382.4545, 738.5942
382.9366, 729.9569
383.4187, 728.9899
383.9008, 742.6003
384.3829, 751.8998
384.8651, 756.7933
385.3472, 757.5353
385.8293, 752.6400
386.3114, 743.1461
386.7935, 732.5146
387.2756, 722.7013
387.7578, 713.9163
388.2399, 714.9881
388.7220, 736.9207
389.2041, 755.2466
389.6862, 764.1985
390.1683, 766.0264
390.6505, 762.7285
391.1326, 754.4690
391.6147, 745.4263
392.0968, 742.5602
392.5789, 746.6649
393.0610, 748.9600
393.5432, 745.3548
394.0253, 741.6710
394.5074, 743.9597
394.9895, 751.7291
395.4716, 757.5096
395.9537, 755.7332
396.4359, 750.3687
396.9180, 747.5038
397.4001, 747.5218
397.8822, 750.4503
398.3643, 757.6957
398.8464, 767.8915
399.3286, 774.5467
399.8107, 778.1571
400.2928, 777.7866
400.7749, 769.4451
401.2570, 757.6564
401.7391, 750.3847
402.2213, 750.2310
402.7034, 753.9468
403.1855, 756.5856
403.6676, 757.4622
404.1497, 759.1165
404.6318, 762.7383
405.1140, 765.9731
405.5961, 768.5245
406.0782, 769.6363
406.5603, 767.1211
407.0424, 758.4034
407.5245, 746.1409
408.0067, 743.1570
408.4888, 756.0403
408.9709, 760.5505
409.4530, 765.3481
409.9351, 767.6242
410.4172, 767.5141
410.8994, 757.8711
411.3815, 760.5378
411.8636, 758.2715
412.3457, 755.8029
412.8278, 760.2021
413.3099, 751.9458
413.7921, 756.2359
414.2742, 755.5179
414.7563, 757.0921
415.2384, 753.7026
415.7205, 751.8463
416.2026, 754.9551
416.6848, 755.3145
417.1669, 751.3537
417.6490, 753.0736
418.1311, 744.6439
418.6132, 745.1205
419.0953, 749.4399
419.5775, 745.7285
420.0596, 747.5391
420.5417, 747.2467
421.0238, 753.8287
421.5059, 756.4973
421.9880, 750.5549
422.4702, 742.5537
422.9523, 738.1867
423.4344, 737.0964
423.9165, 733.9803
424.3986, 725.2883
424.8807, 719.6721
425.3629, 721.0490
425.8450, 725.5073
426.3271, 728.8069
426.8092, 729.6268
427.2913, 729.0822
427.7734, 728.3515
428.2556, 727.4043
428.7377, 725.3566
429.2198, 720.6228
429.7019, 717.0642
430.1840, 719.2430
430.6661, 725.7749
431.1483, 730.9411
431.6304, 732.3730
432.1125, 732.4263
432.5946, 734.7134
433.0767, 738.0852
433.5588, 735.7018
434.0410, 722.6122
434.5231, 705.1125
435.0052, 698.9235
435.4873, 712.8412
435.9694, 722.7800
436.4515, 726.8630
436.9337, 726.9568
437.4158, 722.7238
437.8979, 715.3747
438.3800, 709.0180
438.8621, 707.6403
439.3442, 710.5670
439.8264, 708.8806
440.3085, 696.4250
440.7906, 688.6737
441.2727, 693.4582
441.7548, 702.3382
442.2369, 705.3869
442.7191, 699.6928
443.2012, 692.9626
443.6833, 693.9817
444.1654, 701.4693
444.6475, 706.6362
445.1296, 708.7959
445.6118, 707.4243
446.0939, 698.9090
446.5760, 685.6473
447.0581, 677.0446
447.5402, 676.7914
448.0223, 679.7917
448.5045, 684.7588
448.9866, 690.2647
449.4687, 692.1678
449.9508, 688.4455
450.4329, 682.0863
450.9150, 678.4466
451.3972, 677.8179
451.8793, 679.6852
452.3614, 687.2982
452.8435, 694.4050
453.3256, 696.9890
453.8077, 695.7151
454.2899, 693.4318
454.7720, 691.9394
455.2541, 690.9739
455.7362, 689.7053
456.2183, 688.1858
456.7004, 686.2254
457.1826, 682.1315
457.6647, 678.6130
458.1468, 678.7754
458.6289, 682.8358
459.1110, 685.9038
459.5931, 682.5638
460.0753, 676.6006
460.5574, 677.1136
461.0395, 685.3218
461.5216, 693.3744
462.0037, 696.6627
462.4858, 695.4517
462.9680, 691.8438
463.4501, 680.7037
463.9322, 673.7552
464.4143, 677.6005
464.8964, 686.0020
465.3785, 691.3692
465.8607, 691.9457
466.3428, 690.2867
466.8249, 688.6848
467.3070, 686.8062
467.7891, 688.7691
468.2712, 699.5074
468.7534, 708.7335
469.2355, 713.5094
469.7176, 715.2720
470.1997, 716.1408
470.6818, 716.8818
471.1639, 716.7565
471.6461, 714.1984
472.1282, 709.4240
472.6103, 705.5621
473.0924, 702.2828
473.5745, 701.4493
474.0566, 706.6376
474.5388, 716.3383
475.0209, 724.1877
475.5030, 728.9301
475.9851, 731.5739
476.4672, 731.8849
476.9493, 730.6411
477.4315, 729.4625
477.9136, 728.9119
478.3957, 729.5076
478.8778, 732.3235
479.3599, 738.6622
479.8420, 743.9664
480.3242, 750.9210
480.8063, 754.5039
481.2884, 749.5750
481.7705, 739.3097
482.2526, 730.6992
482.7347, 727.6224
483.2169, 728.6376
483.6990, 731.3479
484.1811, 736.0922
484.6632, 740.5232
485.1453, 743.7595
485.6274, 746.8334
486.1096, 751.3970
486.5917, 757.2484
487.0738, 760.9671
487.5559, 757.5975
488.0380, 753.9337
488.5201, 759.9568
489.0023, 773.8630
489.4844, 783.5187
489.9665, 782.3044
490.4486, 773.8934
490.9307, 767.0496
491.4128, 759.8873
491.8950, 757.7966
492.3771, 765.0061
492.8592, 773.7831
493.3413, 779.0402
493.8234, 780.9139
494.3055, 782.1725
494.7877, 784.5042
495.2698, 787.9056
495.7519, 792.5056
496.2340, 798.6353
496.7161, 805.1028
497.1982, 814.2878
497.6804, 821.5844
498.1625, 821.5533
498.6446, 813.9364
499.1267, 806.9365
499.6088, 803.9136
500.0909, 803.8936
500.5730, 806.2877
501.0551, 810.8049
501.5373, 815.9569
502.0194, 821.2161
502.5015, 826.0526
502.9836, 828.8054
503.4657, 826.7615
503.9478, 826.4391
504.4300, 830.3095
504.9121, 834.1793
505.3942, 833.9503
505.8763, 830.3945
506.3584, 827.9106
506.8405, 830.2474
507.3227, 835.7318
507.8048, 838.0507
508.2869, 836.1155
508.7690, 834.7034
509.2511, 836.4329
509.7332, 838.4824
510.2154, 836.3223
510.6975, 829.5681
511.1796, 828.3802
511.6617, 845.2108
512.1439, 865.5122
512.6260, 867.7876
513.1081, 853.5383
513.5902, 843.0727
514.0723, 848.7294
514.5544, 864.2028
515.0366, 870.8696
515.5187, 858.4113
516.0008, 851.8648
516.4829, 856.9730
516.9650, 863.2496
517.4471, 863.0469
517.9293, 857.1113
518.4114, 850.5654
518.8935, 846.1412
519.3756, 844.3018
519.8577, 847.2139
520.3398, 855.9789
520.8220, 863.4559
521.3041, 867.6807
521.7862, 869.5204
522.2683, 869.9158
522.7504, 868.8596
523.2325, 867.2827
523.7147, 865.0275
524.1968, 862.7208
524.6789, 860.9072
525.1610, 859.5569
525.6431, 858.3946
526.1252, 857.2601
526.6074, 856.3503
527.0895, 856.4828
527.5716, 860.8838
528.0537, 859.4150
528.5358, 843.9294
529.0179, 831.0112
529.5001, 833.7523
529.9822, 845.7450
530.4643, 850.0581
530.9464, 835.6024
531.4285, 814.9312
531.9106, 809.5106
532.3928, 818.7864
532.8749, 821.4915
533.3570, 809.7059
533.8391, 795.1716
534.3212, 789.8724
534.8033, 793.3533
535.2855, 800.7223
535.7676, 819.7474
536.2497, 834.2635
536.7318, 830.9083
537.2139, 817.6402
537.6960, 808.9297
538.1782, 809.9307
538.6603, 816.2075
539.1424, 822.2260
539.6245, 828.3242
540.1066, 831.6383
540.5887, 829.0760
541.0709, 827.5074
541.5530, 831.7563
542.0351, 837.8175
542.5172, 839.6560
542.9993, 835.1243
543.4814, 827.8973
543.9636, 820.4047
544.4457, 812.5879
544.9278, 802.9187
545.4099, 790.8198
545.8920, 782.9736
546.3741, 786.3546
546.8563, 799.1650
547.3384, 804.1691
547.8205, 797.0340
548.3026, 788.5317
548.7847, 778.1648
549.2668, 768.6447
549.7490, 762.8361
550.2311, 760.8190
550.7132, 760.3702
551.1953, 760.3484
551.6774, 760.1654
552.1595, 756.8124
552.6417, 749.3764
553.1238, 742.7086
553.6059, 739.3814
554.0880, 737.1692
554.5701, 732.2979
555.0522, 724.1548
555.5344, 719.1971
556.0165, 722.5400
556.4986, 727.5745
556.9807, 729.1602
557.4628, 727.1304
557.9449, 722.0651
558.4271, 714.0361
558.9092, 704.5250
559.3913, 696.3649
559.8734, 689.2310
560.3555, 684.3032
560.8376, 681.9292
561.3198, 681.5695
561.8019, 685.8453
562.2840, 691.7042
562.7661, 692.7751
563.2482, 685.9639
563.7303, 675.2177
564.2125, 662.7880
564.6946, 649.5815
565.1767, 639.2941
565.6588, 632.8816
566.1409, 627.7473
566.6230, 620.9734
567.1052, 612.6745
567.5873, 609.4361
568.0694, 614.3248
568.5515, 619.7260
569.0336, 626.0855
569.5157, 630.9182
569.9979, 630.1144
570.4800, 624.0361
570.9621, 618.9652
571.4442, 621.9036
571.9263, 630.2665
572.4084, 633.4224
572.8906, 630.5314
573.3727, 626.5700
573.8548, 622.3865
574.3369, 619.0559
574.8190, 619.0114
575.3011, 623.0720
575.7833, 624.3528
576.2654, 618.9852
576.7475, 612.2534
577.2296, 608.0398
577.7117, 605.8583
578.1938, 603.6883
578.6760, 600.5747
579.1581, 597.2408
579.6402, 594.5843
580.1223, 592.1701
580.6044, 592.9651
581.0865, 601.6410
581.5686, 607.6290
582.0507, 602.7673
582.5328, 592.5512
583.0150, 587.3087
583.4971, 590.7781
583.9792, 596.1991
584.4613, 601.2556
584.9434, 604.5559
585.4255, 601.9880
585.9077, 593.5757
586.3898, 586.5275
586.8719, 586.9177
587.3540, 593.0125
587.8361, 594.9289
588.3182, 589.4979
588.8004, 584.8956
589.2825, 582.4540
589.7646, 580.5529
590.2467, 577.1349
590.7288, 572.9653
591.2109, 571.5635
591.6931, 577.1999
592.1752, 584.2118
592.6573, 583.9852
593.1394, 577.5881
593.6215, 570.6751
594.1036, 564.0754
594.5858, 560.9030
595.0679, 566.0346
595.5500, 580.8674
596.0321, 589.2252
596.5142, 586.1465
596.9963, 583.3425
597.4785, 586.6263
597.9606, 590.7327
598.4427, 587.9218
598.9248, 577.3052
599.4069, 567.2031
599.8890, 566.3188
600.3712, 572.1606
600.8533, 576.0837
601.3354, 577.9891
601.8175, 578.7316
602.2996, 578.3051
602.7817, 577.2969
603.2639, 577.3871
603.7460, 579.8717
604.2281, 577.8664
604.7102, 563.9984
605.1923, 551.8523
605.6744, 551.7635
606.1566, 559.0146
606.6387, 564.1474
