##NAMES=Fluor-uvite
##RRUFFID=R050301
##IDEAL CHEMISTRY=CaMg_3_(Al_5_Mg)(Si_6_O_18_)(BO_3_)_3_(OH)_3_F
##LOCALITY=Brumado, Bahia, Brazil
##OWNER=RRUFF
##SOURCE=Eugene Schlepp
##DESCRIPTION=Short prismatic green crystals
##STATUS=The identification of this mineral has been confirmed by X-ray diffraction and chemical analysis
##URL=rruff.info/R050301
##MEASURED CHEMISTRY=(Ca_0.68_Na_0.22_[box]_0.10_)(Mg_0.77_Al_0.16_Ti_0.03_[box]_0.04_)_3_(Mg_1.00_Al_5.00_)(BO_3_)_3_Si_6.00_O_18_((OH)_3_F)
110.3617, 2005.693
110.8439, 2009.136
111.3260, 2012.955
111.8081, 2015.963
112.2902, 2018.057
112.7723, 2020.010
113.2544, 2022.963
113.7366, 2027.916
114.2187, 2032.032
114.7008, 2035.111
115.1829, 2037.525
115.6650, 2039.536
116.1471, 2041.236
116.6293, 2042.645
117.1114, 2043.751
117.5935, 2044.371
118.0756, 2045.025
118.5577, 2045.945
119.0398, 2046.977
119.5220, 2047.607
120.0041, 2047.159
120.4862, 2046.591
120.9683, 2047.919
121.4504, 2052.036
121.9325, 2056.449
122.4147, 2059.140
122.8968, 2059.991
123.3789, 2060.391
123.8610, 2060.602
124.3431, 2060.825
124.8252, 2061.322
125.3074, 2062.278
125.7895, 2063.404
126.2716, 2064.005
126.7537, 2063.537
127.2358, 2063.522
127.7179, 2064.170
128.2001, 2065.511
128.6822, 2067.836
129.1643, 2071.638
129.6464, 2076.657
130.1285, 2079.294
130.6106, 2076.800
131.0928, 2074.403
131.5749, 2073.526
132.0570, 2073.805
132.5391, 2074.055
133.0212, 2073.156
133.5033, 2070.793
133.9855, 2069.613
134.4676, 2070.336
134.9497, 2071.418
135.4318, 2072.101
135.9139, 2072.281
136.3960, 2072.164
136.8782, 2071.859
137.3603, 2071.254
137.8424, 2071.274
138.3245, 2072.269
138.8066, 2073.799
139.2887, 2075.558
139.7709, 2077.620
140.2530, 2079.326
140.7351, 2079.281
141.2172, 2077.646
141.6993, 2076.777
142.1814, 2077.854
142.6636, 2080.544
143.1457, 2083.886
143.6278, 2088.822
144.1099, 2092.921
144.5920, 2093.883
145.0741, 2091.747
145.5563, 2089.206
146.0384, 2088.694
146.5205, 2090.454
147.0026, 2092.193
147.4847, 2094.049
147.9668, 2095.425
148.4490, 2095.744
148.9311, 2094.943
149.4132, 2093.678
149.8953, 2092.853
150.3774, 2092.331
150.8595, 2092.629
151.3417, 2094.340
151.8238, 2096.387
152.3059, 2098.163
152.7880, 2099.381
153.2701, 2099.831
153.7522, 2098.945
154.2344, 2093.784
154.7165, 2090.637
155.1986, 2091.378
155.6807, 2093.798
156.1628, 2095.056
156.6449, 2093.678
157.1271, 2090.357
157.6092, 2087.897
158.0913, 2086.841
158.5734, 2085.840
159.0555, 2084.605
159.5376, 2083.162
160.0198, 2081.459
160.5019, 2079.230
160.9840, 2076.905
161.4661, 2075.863
161.9482, 2077.117
162.4303, 2078.530
162.9125, 2078.623
163.3946, 2077.442
163.8767, 2075.985
164.3588, 2074.438
164.8409, 2073.130
165.3230, 2072.582
165.8052, 2072.947
166.2873, 2074.060
166.7694, 2076.178
167.2515, 2079.929
167.7336, 2082.522
168.2157, 2081.995
168.6979, 2079.781
169.1800, 2077.303
169.6621, 2074.919
170.1442, 2072.841
170.6263, 2071.794
171.1084, 2072.745
171.5906, 2073.204
172.0727, 2071.910
172.5548, 2069.788
173.0369, 2068.157
173.5190, 2067.901
174.0011, 2068.826
174.4833, 2069.335
174.9654, 2069.350
175.4475, 2068.935
175.9296, 2067.470
176.4117, 2065.587
176.8938, 2064.490
177.3760, 2065.252
177.8581, 2067.964
178.3402, 2068.937
178.8223, 2066.461
179.3044, 2064.141
179.7865, 2063.672
180.2687, 2064.593
180.7508, 2065.154
181.2329, 2063.683
181.7150, 2059.890
182.1971, 2058.114
182.6792, 2059.893
183.1614, 2062.102
183.6435, 2062.791
184.1256, 2061.955
184.6077, 2061.036
185.0898, 2061.297
185.5719, 2062.861
186.0540, 2064.521
186.5362, 2066.591
187.0183, 2068.538
187.5004, 2069.689
187.9825, 2069.932
188.4646, 2070.097
188.9467, 2071.072
189.4289, 2072.646
189.9110, 2074.010
190.3931, 2074.850
190.8752, 2075.417
191.3573, 2076.087
191.8394, 2076.887
192.3216, 2077.813
192.8037, 2078.596
193.2858, 2079.452
193.7679, 2081.004
194.2500, 2084.169
194.7321, 2088.320
195.2143, 2091.441
195.6964, 2093.217
196.1785, 2094.284
196.6606, 2094.717
197.1427, 2094.813
197.6248, 2095.260
198.1070, 2096.981
198.5891, 2099.712
199.0712, 2100.688
199.5533, 2097.945
200.0354, 2095.506
200.5175, 2094.995
200.9997, 2095.993
201.4818, 2097.451
201.9639, 2098.677
202.4460, 2099.682
202.9281, 2100.150
203.4102, 2099.789
203.8924, 2099.106
204.3745, 2097.991
204.8566, 2096.636
205.3387, 2095.369
205.8208, 2094.351
206.3029, 2093.454
206.7851, 2094.172
207.2672, 2098.511
207.7493, 2102.439
208.2314, 2104.004
208.7135, 2103.573
209.1956, 2102.790
209.6778, 2103.114
210.1599, 2104.676
210.6420, 2106.433
211.1241, 2107.090
211.6062, 2108.948
212.0883, 2115.221
212.5705, 2124.728
213.0526, 2132.091
213.5347, 2132.246
214.0168, 2124.121
214.4989, 2116.111
214.9810, 2107.698
215.4632, 2099.753
215.9453, 2092.973
216.4274, 2087.340
216.9095, 2082.170
217.3916, 2076.744
217.8737, 2071.143
218.3559, 2066.833
218.8380, 2064.629
219.3201, 2063.199
219.8022, 2061.425
220.2843, 2059.230
220.7664, 2057.064
221.2486, 2054.969
221.7307, 2053.177
222.2128, 2052.658
222.6949, 2054.949
223.1770, 2057.859
223.6591, 2058.850
224.1413, 2057.691
224.6234, 2055.740
225.1055, 2053.445
225.5876, 2051.055
226.0697, 2049.054
226.5518, 2047.066
227.0340, 2045.786
227.5161, 2047.087
227.9982, 2052.128
228.4803, 2055.644
228.9624, 2052.418
229.4445, 2046.284
229.9267, 2042.240
230.4088, 2042.731
230.8909, 2045.810
231.3730, 2047.919
231.8551, 2048.908
232.3372, 2049.259
232.8194, 2048.621
233.3015, 2047.709
233.7836, 2047.401
234.2657, 2048.160
234.7478, 2049.580
235.2299, 2050.717
235.7121, 2051.365
236.1942, 2052.175
236.6763, 2053.116
237.1584, 2054.374
237.6405, 2056.304
238.1227, 2059.157
238.6048, 2062.434
239.0869, 2064.947
239.5690, 2066.932
240.0511, 2067.568
240.5332, 2066.342
241.0154, 2064.109
241.4975, 2061.407
241.9796, 2058.444
242.4617, 2055.719
242.9438, 2054.721
243.4259, 2057.598
243.9081, 2058.768
244.3902, 2057.847
244.8723, 2055.056
245.3544, 2049.820
245.8365, 2041.997
246.3186, 2033.392
246.8007, 2028.099
247.2829, 2028.345
247.7650, 2029.075
248.2471, 2030.858
248.7292, 2032.563
249.2113, 2033.018
249.6934, 2031.858
250.1756, 2029.785
250.6577, 2028.170
251.1398, 2027.341
251.6219, 2026.527
252.1040, 2025.776
252.5861, 2025.010
253.0683, 2024.216
253.5504, 2023.381
254.0325, 2022.393
254.5146, 2021.041
254.9967, 2018.915
255.4788, 2017.234
255.9610, 2016.703
256.4431, 2016.240
256.9252, 2014.553
257.4073, 2011.431
257.8894, 2008.229
258.3716, 2006.827
258.8537, 2008.204
259.3358, 2009.043
259.8179, 2008.714
260.3000, 2008.239
260.7821, 2008.692
261.2643, 2010.215
261.7464, 2011.850
262.2285, 2012.552
262.7106, 2012.083
263.1927, 2011.518
263.6748, 2010.500
264.1570, 2009.610
264.6391, 2009.688
265.1212, 2010.732
265.6033, 2011.360
266.0854, 2009.722
266.5675, 2005.770
267.0497, 2004.551
267.5318, 2009.291
268.0139, 2014.635
268.4960, 2015.952
268.9781, 2013.116
269.4602, 2009.514
269.9424, 2007.299
270.4245, 2006.583
270.9066, 2006.797
271.3887, 2009.870
271.8708, 2012.426
272.3529, 2011.310
272.8351, 2006.776
273.3172, 2002.195
273.7993, 1999.780
274.2814, 1998.792
274.7635, 1996.545
275.2456, 1991.171
275.7278, 1986.589
276.2099, 1986.404
276.6920, 1990.084
277.1741, 1993.345
277.6562, 1994.505
278.1383, 1993.618
278.6204, 1991.184
279.1025, 1986.227
279.5847, 1981.762
280.0668, 1980.174
280.5489, 1981.026
281.0310, 1981.755
281.5131, 1981.315
281.9952, 1980.495
282.4774, 1980.634
282.9595, 1981.975
283.4416, 1982.821
283.9237, 1981.711
284.4058, 1979.125
284.8879, 1977.071
285.3701, 1976.087
285.8522, 1975.752
286.3343, 1975.625
286.8164, 1975.696
287.2985, 1975.858
287.7806, 1976.405
288.2628, 1977.044
288.7449, 1976.711
289.2270, 1974.880
289.7091, 1972.725
290.1912, 1971.006
290.6733, 1969.718
291.1555, 1968.896
291.6376, 1968.764
292.1197, 1969.096
292.6018, 1969.446
293.0839, 1969.938
293.5660, 1970.095
294.0482, 1969.414
294.5303, 1968.219
295.0124, 1967.033
295.4945, 1965.972
295.9766, 1965.098
296.4587, 1964.658
296.9409, 1964.850
297.4230, 1964.797
297.9051, 1963.606
298.3872, 1962.037
298.8693, 1961.068
299.3514, 1961.234
299.8336, 1961.654
300.3157, 1961.097
300.7978, 1959.412
301.2799, 1957.625
301.7620, 1955.851
302.2441, 1954.296
302.7263, 1953.182
303.2084, 1952.574
303.6905, 1952.247
304.1726, 1952.161
304.6547, 1952.346
305.1368, 1952.021
305.6190, 1950.552
306.1011, 1948.849
306.5832, 1947.308
307.0653, 1946.007
307.5474, 1945.606
308.0295, 1947.363
308.5117, 1951.010
308.9938, 1953.191
309.4759, 1952.679
309.9580, 1951.482
310.4401, 1950.969
310.9222, 1951.000
311.4044, 1950.950
311.8865, 1949.941
312.3686, 1948.407
312.8507, 1948.412
313.3328, 1950.810
313.8149, 1953.338
314.2971, 1954.874
314.7792, 1955.666
315.2613, 1956.158
315.7434, 1956.548
316.2255, 1956.757
316.7076, 1956.556
317.1898, 1955.785
317.6719, 1955.021
318.1540, 1954.557
318.6361, 1954.219
319.1182, 1953.818
319.6003, 1953.277
320.0825, 1952.709
320.5646, 1952.053
321.0467, 1951.163
321.5288, 1951.151
322.0109, 1953.589
322.4930, 1956.318
322.9752, 1957.539
323.4573, 1956.947
323.9394, 1955.807
324.4215, 1955.317
324.9036, 1955.462
325.3857, 1955.203
325.8679, 1953.800
326.3500, 1952.539
326.8321, 1952.599
327.3142, 1953.776
327.7963, 1954.712
328.2784, 1954.139
328.7606, 1952.460
329.2427, 1951.676
329.7248, 1952.269
330.2069, 1953.146
330.6890, 1953.984
331.1711, 1954.597
331.6533, 1954.495
332.1354, 1952.917
332.6175, 1950.762
333.0996, 1949.948
333.5817, 1950.782
334.0638, 1951.955
334.5460, 1953.229
335.0281, 1954.323
335.5102, 1954.868
335.9923, 1954.743
336.4744, 1954.100
336.9565, 1952.944
337.4387, 1951.241
337.9208, 1949.672
338.4029, 1948.529
338.8850, 1947.572
339.3671, 1946.420
339.8492, 1944.993
340.3314, 1944.026
340.8135, 1944.431
341.2956, 1945.947
341.7777, 1946.840
342.2598, 1946.493
342.7419, 1945.894
343.2241, 1945.886
343.7062, 1946.384
344.1883, 1946.987
344.6704, 1947.803
345.1525, 1948.545
345.6346, 1948.596
346.1168, 1947.893
346.5989, 1946.598
347.0810, 1943.981
347.5631, 1940.908
348.0452, 1939.027
348.5273, 1939.327
349.0095, 1940.484
349.4916, 1941.181
349.9737, 1941.420
350.4558, 1941.180
350.9379, 1939.852
351.4200, 1938.423
351.9022, 1938.505
352.3843, 1940.595
352.8664, 1943.026
353.3485, 1945.109
353.8306, 1946.715
354.3127, 1947.103
354.7949, 1945.518
355.2770, 1943.552
355.7591, 1943.094
356.2412, 1944.049
356.7233, 1945.892
357.2054, 1949.325
357.6876, 1953.248
358.1697, 1955.519
358.6518, 1955.615
359.1339, 1955.887
359.6160, 1958.756
360.0981, 1963.732
360.5803, 1967.998
361.0624, 1970.784
361.5445, 1973.067
362.0266, 1975.228
362.5087, 1977.402
362.9908, 1980.606
363.4730, 1986.053
363.9551, 1992.518
364.4372, 1996.316
364.9193, 1995.975
365.4014, 1995.650
365.8835, 1997.587
366.3657, 2000.677
366.8478, 2002.602
367.3299, 2002.497
367.8120, 2001.349
368.2941, 2000.553
368.7762, 2000.052
369.2584, 2000.078
369.7405, 2001.844
370.2226, 2003.466
370.7047, 2002.918
371.1868, 2000.006
371.6689, 1996.257
372.1511, 1993.211
372.6332, 1990.887
373.1153, 1986.252
373.5974, 1977.265
374.0795, 1968.195
374.5616, 1960.994
375.0438, 1955.361
375.5259, 1950.112
376.0080, 1944.597
376.4901, 1939.117
376.9722, 1934.825
377.4543, 1932.909
377.9365, 1930.617
378.4186, 1928.092
378.9007, 1924.847
379.3828, 1919.816
379.8649, 1912.855
380.3470, 1905.689
380.8292, 1900.880
381.3113, 1899.660
381.7934, 1897.072
382.2755, 1891.644
382.7576, 1886.305
383.2397, 1882.849
383.7219, 1881.068
384.2040, 1879.758
384.6861, 1877.977
385.1682, 1875.787
385.6503, 1874.144
386.1324, 1873.620
386.6146, 1873.073
387.0967, 1872.694
387.5788, 1872.072
388.0609, 1870.557
388.5430, 1867.879
389.0251, 1864.650
389.5073, 1862.189
389.9894, 1861.308
390.4715, 1859.424
390.9536, 1854.875
391.4357, 1850.569
391.9178, 1848.680
392.4000, 1849.152
392.8821, 1850.146
393.3642, 1849.985
393.8463, 1848.638
394.3284, 1846.762
394.8105, 1842.785
395.2927, 1840.151
395.7748, 1841.008
396.2569, 1843.757
396.7390, 1845.771
397.2211, 1845.719
397.7032, 1844.235
398.1854, 1842.662
398.6675, 1841.005
399.1496, 1839.246
399.6317, 1837.533
400.1138, 1835.624
400.5959, 1832.953
401.0780, 1829.474
401.5602, 1826.594
402.0423, 1826.375
402.5244, 1828.462
403.0065, 1828.601
403.4886, 1824.932
403.9707, 1821.246
404.4529, 1820.688
404.9350, 1822.266
405.4171, 1823.173
405.8992, 1821.340
406.3813, 1818.588
406.8634, 1818.093
407.3456, 1820.118
407.8277, 1821.973
408.3098, 1822.430
408.7919, 1821.820
409.2740, 1820.702
409.7561, 1818.882
410.2383, 1817.153
410.7204, 1816.012
411.2025, 1815.339
411.6846, 1814.855
412.1667, 1814.603
412.6488, 1814.200
413.1310, 1812.853
413.6131, 1810.577
414.0952, 1809.166
414.5773, 1809.272
415.0594, 1810.142
415.5415, 1811.611
416.0237, 1813.457
416.5058, 1814.357
416.9879, 1813.245
417.4700, 1810.519
417.9521, 1808.395
418.4342, 1807.386
418.9164, 1806.248
419.3985, 1804.065
419.8806, 1801.708
420.3627, 1800.491
420.8448, 1800.823
421.3269, 1802.245
421.8091, 1804.326
422.2912, 1808.111
422.7733, 1809.205
423.2554, 1804.758
423.7375, 1800.310
424.2196, 1799.991
424.7018, 1802.829
425.1839, 1804.781
425.6660, 1802.775
426.1481, 1797.543
426.6302, 1794.046
427.1123, 1794.283
427.5945, 1793.927
428.0766, 1791.191
428.5587, 1788.270
429.0408, 1787.896
429.5229, 1790.719
430.0050, 1794.351
430.4872, 1795.331
430.9693, 1793.028
431.4514, 1790.749
431.9335, 1787.870
432.4156, 1785.678
432.8977, 1785.067
433.3799, 1785.604
433.8620, 1786.158
434.3441, 1786.018
434.8262, 1785.424
435.3083, 1785.230
435.7904, 1785.884
436.2726, 1785.682
436.7547, 1782.449
437.2368, 1778.901
437.7189, 1777.877
438.2010, 1780.052
438.6831, 1782.507
439.1653, 1782.193
439.6474, 1779.779
440.1295, 1779.157
440.6116, 1781.652
441.0937, 1784.603
441.5758, 1785.892
442.0580, 1785.822
442.5401, 1785.043
443.0222, 1783.192
443.5043, 1781.080
443.9864, 1779.417
444.4685, 1778.204
444.9507, 1777.422
445.4328, 1777.287
445.9149, 1777.353
446.3970, 1776.362
446.8791, 1773.554
447.3612, 1771.992
447.8434, 1773.862
448.3255, 1776.807
448.8076, 1777.750
449.2897, 1776.237
449.7718, 1774.079
450.2539, 1773.004
450.7361, 1773.087
451.2182, 1772.576
451.7003, 1770.526
452.1824, 1769.009
452.6645, 1769.443
453.1466, 1770.779
453.6288, 1771.067
454.1109, 1769.450
454.5930, 1766.996
455.0751, 1765.925
455.5572, 1767.538
456.0393, 1767.967
456.5215, 1766.081
457.0036, 1764.162
457.4857, 1763.435
457.9678, 1763.917
458.4499, 1765.159
458.9320, 1767.068
459.4142, 1769.357
459.8963, 1770.261
460.3784, 1768.885
460.8605, 1767.686
461.3426, 1767.316
461.8247, 1767.407
462.3069, 1767.703
462.7890, 1768.141
463.2711, 1768.524
463.7532, 1768.928
464.2353, 1769.285
464.7174, 1768.231
465.1996, 1764.324
465.6817, 1761.084
466.1638, 1761.559
466.6459, 1764.579
467.1280, 1767.323
467.6101, 1769.047
468.0923, 1769.908
468.5744, 1769.674
469.0565, 1768.468
469.5386, 1767.711
470.0207, 1768.211
470.5028, 1769.107
470.9850, 1768.625
471.4671, 1766.411
471.9492, 1765.006
472.4313, 1765.916
472.9134, 1767.438
473.3955, 1767.575
473.8777, 1766.259
474.3598, 1765.012
474.8419, 1765.233
475.3240, 1766.597
475.8061, 1765.763
476.2882, 1759.607
476.7704, 1755.423
477.2525, 1756.163
477.7346, 1759.031
478.2167, 1761.063
478.6988, 1761.330
479.1809, 1760.057
479.6631, 1757.099
480.1452, 1751.663
480.6273, 1748.731
481.1094, 1751.218
481.5915, 1753.229
482.0736, 1752.225
482.5558, 1749.516
483.0379, 1747.661
483.5200, 1747.976
484.0021, 1749.213
484.4842, 1748.946
484.9663, 1746.870
485.4485, 1744.656
485.9306, 1742.346
486.4127, 1740.232
486.8948, 1738.765
487.3769, 1737.785
487.8590, 1736.416
488.3412, 1733.711
488.8233, 1730.436
489.3054, 1728.243
489.7875, 1727.274
490.2696, 1726.174
490.7517, 1723.871
491.2339, 1721.269
491.7160, 1720.182
492.1981, 1721.145
492.6802, 1722.073
493.1623, 1722.222
493.6444, 1721.747
494.1266, 1720.658
494.6087, 1718.981
495.0908, 1717.444
495.5729, 1716.803
496.0550, 1717.035
496.5371, 1716.495
497.0193, 1715.260
497.5014, 1713.307
497.9835, 1709.401
498.4656, 1705.193
498.9477, 1703.249
499.4298, 1704.321
499.9120, 1706.651
500.3941, 1707.950
500.8762, 1708.529
501.3583, 1706.789
501.8404, 1698.693
502.3225, 1692.385
502.8047, 1691.972
503.2868, 1695.296
503.7689, 1698.369
504.2510, 1699.310
504.7331, 1698.826
505.2152, 1698.113
505.6974, 1697.168
506.1795, 1696.003
506.6616, 1694.510
507.1437, 1692.899
507.6258, 1691.147
508.1079, 1689.346
508.5901, 1688.017
509.0722, 1688.409
509.5543, 1688.932
510.0364, 1686.304
510.5185, 1680.599
511.0006, 1676.874
511.4828, 1678.387
511.9649, 1682.531
512.4470, 1683.726
512.9291, 1681.426
513.4112, 1678.734
513.8933, 1675.274
514.3754, 1672.503
514.8575, 1672.662
515.3397, 1675.506
515.8218, 1678.234
516.3039, 1678.762
516.7860, 1677.356
517.2681, 1675.953
517.7502, 1674.198
518.2324, 1672.900
518.7145, 1673.138
519.1966, 1673.248
519.6787, 1670.919
520.1608, 1666.224
520.6429, 1662.067
521.1251, 1661.815
521.6072, 1665.307
522.0893, 1666.764
522.5714, 1664.975
523.0535, 1663.025
523.5356, 1661.999
524.0178, 1661.398
524.4999, 1660.695
524.9820, 1659.763
525.4641, 1658.651
525.9462, 1657.206
526.4283, 1655.577
526.9105, 1654.479
527.3926, 1654.170
527.8747, 1653.952
528.3568, 1653.188
528.8389, 1652.069
529.3210, 1651.255
529.8032, 1651.545
530.2853, 1651.329
530.7674, 1649.297
531.2495, 1646.217
531.7316, 1643.593
532.2137, 1641.853
532.6959, 1640.505
533.1780, 1638.947
533.6601, 1637.100
534.1422, 1635.503
534.6243, 1634.091
535.1064, 1632.932
535.5886, 1632.295
536.0707, 1631.852
536.5528, 1630.934
537.0349, 1629.306
537.5170, 1627.722
537.9991, 1627.745
538.4813, 1629.962
538.9634, 1630.753
539.4455, 1629.119
539.9276, 1626.922
540.4097, 1624.505
540.8918, 1622.247
541.3740, 1621.015
541.8561, 1621.656
542.3382, 1622.369
542.8203, 1620.195
543.3024, 1615.573
543.7845, 1613.089
544.2667, 1614.716
544.7488, 1617.118
545.2309, 1616.112
545.7130, 1612.144
546.1951, 1609.321
546.6772, 1609.319
547.1594, 1609.662
547.6415, 1608.483
548.1236, 1606.362
548.6057, 1604.843
549.0878, 1604.561
549.5699, 1605.042
550.0521, 1605.614
550.5342, 1606.596
551.0163, 1606.650
551.4984, 1605.157
551.9805, 1603.529
552.4626, 1602.414
552.9448, 1601.606
553.4269, 1600.503
553.9090, 1598.782
554.3911, 1597.033
554.8732, 1596.559
555.3553, 1597.670
555.8375, 1597.821
556.3196, 1595.942
556.8017, 1593.861
557.2838, 1592.721
557.7659, 1592.305
558.2480, 1592.026
558.7302, 1591.678
559.2123, 1591.373
559.6944, 1591.342
560.1765, 1591.493
560.6586, 1591.530
561.1407, 1591.501
561.6229, 1590.833
562.1050, 1588.371
562.5871, 1583.637
563.0692, 1580.999
563.5513, 1582.215
564.0334, 1583.831
564.5156, 1584.294
564.9977, 1583.864
565.4798, 1583.060
565.9619, 1582.104
566.4440, 1581.232
566.9261, 1580.869
567.4083, 1581.160
567.8904, 1581.335
568.3725, 1581.124
568.8546, 1581.067
569.3367, 1582.176
569.8188, 1583.348
570.3010, 1582.523
570.7831, 1578.653
571.2652, 1574.078
571.7473, 1571.552
572.2294, 1570.865
572.7115, 1570.242
573.1937, 1569.436
573.6758, 1568.601
574.1579, 1568.033
574.6400, 1567.568
575.1221, 1566.535
575.6042, 1563.883
576.0864, 1561.778
576.5685, 1561.625
577.0506, 1562.646
577.5327, 1564.054
578.0148, 1565.532
578.4969, 1565.709
578.9791, 1562.695
579.4612, 1556.256
579.9433, 1552.604
580.4254, 1554.465
580.9075, 1555.985
581.3896, 1555.704
581.8718, 1554.762
582.3539, 1554.514
582.8360, 1555.230
583.3181, 1556.092
583.8002, 1556.249
584.2823, 1555.799
584.7645, 1555.507
585.2466, 1555.485
585.7287, 1555.276
586.2108, 1554.345
586.6929, 1553.227
587.1750, 1552.964
587.6572, 1554.022
588.1393, 1554.157
588.6214, 1551.002
589.1035, 1547.010
589.5856, 1545.895
590.0677, 1547.703
590.5499, 1549.468
591.0320, 1549.264
591.5141, 1547.585
591.9962, 1546.252
592.4783, 1545.798
592.9604, 1544.961
593.4426, 1543.269
593.9247, 1541.591
594.4068, 1540.485
594.8889, 1539.961
595.3710, 1539.828
595.8531, 1540.059
596.3353, 1540.425
596.8174, 1540.172
597.2995, 1539.051
597.7816, 1538.967
598.2637, 1542.120
598.7458, 1544.459
599.2280, 1541.432
599.7101, 1534.184
600.1922, 1528.967
600.6743, 1528.605
601.1564, 1530.286
601.6385, 1532.244
602.1207, 1534.332
602.6028, 1536.299
603.0849, 1538.078
603.5670, 1539.382
604.0491, 1539.895
604.5313, 1539.674
