##NAMES=Fluor-uvite
##RRUFFID=R050301
##IDEAL CHEMISTRY=CaMg_3_(Al_5_Mg)(Si_6_O_18_)(BO_3_)_3_(OH)_3_F
##LOCALITY=Brumado, Bahia, Brazil
##OWNER=RRUFF
##SOURCE=Eugene Schlepp
##DESCRIPTION=Short prismatic green crystals
##STATUS=The identification of this mineral has been confirmed by X-ray diffraction and chemical analysis
##URL=rruff.info/R050301
##MEASURED CHEMISTRY=(Ca_0.68_Na_0.22_[box]_0.10_)(Mg_0.77_Al_0.16_Ti_0.03_[box]_0.04_)_3_(Mg_1.00_Al_5.00_)(BO_3_)_3_Si_6.00_O_18_((OH)_3_F)
111.6382, 19.06413
112.1203, 19.69205
112.6024, 20.51899
113.0845, 21.24167
113.5667, 21.71943
114.0488, 22.12630
114.5309, 22.58502
115.0130, 23.04696
115.4951, 23.63058
115.9772, 24.40576
116.4594, 25.37512
116.9415, 26.37790
117.4236, 27.46331
117.9057, 28.51741
118.3878, 29.41446
118.8699, 30.00266
119.3521, 30.51008
119.8342, 31.02829
120.3163, 31.55247
120.7984, 32.20702
121.2805, 33.19354
121.7626, 34.35402
122.2448, 35.41827
122.7269, 36.26640
123.2090, 36.95385
123.6911, 37.47880
124.1732, 37.79334
124.6553, 38.14532
125.1375, 38.79583
125.6196, 39.68280
126.1017, 40.60982
126.5838, 41.57482
127.0659, 42.48480
127.5480, 43.10236
128.0302, 43.26502
128.5123, 43.40755
128.9944, 44.22306
129.4765, 45.65314
129.9586, 47.15192
130.4407, 48.31541
130.9229, 49.21453
131.4050, 50.14635
131.8871, 51.15592
132.3692, 52.21646
132.8513, 53.28191
133.3334, 54.27436
133.8156, 54.93872
134.2977, 55.15852
134.7798, 55.13963
135.2619, 55.31758
135.7440, 55.84958
136.2261, 56.64409
136.7083, 57.28527
137.1904, 57.72233
137.6725, 58.18019
138.1546, 58.98966
138.6367, 60.26277
139.1188, 61.28170
139.6010, 61.80609
140.0831, 61.83501
140.5652, 62.03590
141.0473, 62.49047
141.5294, 63.00377
142.0115, 63.29271
142.4937, 63.24734
142.9758, 63.24214
143.4579, 63.39696
143.9400, 63.74657
144.4221, 64.07095
144.9042, 64.36436
145.3864, 64.63387
145.8685, 64.88734
146.3506, 65.13966
146.8327, 65.35621
147.3148, 65.50958
147.7969, 65.50697
148.2791, 65.65686
148.7612, 66.18644
149.2433, 66.84859
149.7254, 67.07233
150.2075, 66.56118
150.6896, 65.87580
151.1718, 65.22702
151.6539, 64.76356
152.1360, 64.12322
152.6181, 63.20332
153.1002, 62.08865
153.5823, 61.03612
154.0645, 60.14950
154.5466, 59.25402
155.0287, 58.26935
155.5108, 57.07733
155.9929, 55.90661
156.4750, 54.76710
156.9572, 53.66775
157.4393, 52.67592
157.9214, 52.01362
158.4035, 51.32694
158.8856, 50.39427
159.3677, 48.64059
159.8499, 47.15819
160.3320, 46.40631
160.8141, 46.27333
161.2962, 46.09829
161.7783, 45.60169
162.2604, 44.98954
162.7426, 44.43174
163.2247, 44.02293
163.7068, 43.63993
164.1889, 43.17671
164.6710, 42.65074
165.1531, 42.25813
165.6353, 42.13898
166.1174, 42.18816
166.5995, 42.29255
167.0816, 42.42695
167.5637, 42.59111
168.0458, 42.75566
168.5280, 42.91944
169.0101, 43.18914
169.4922, 43.80720
169.9743, 44.53761
170.4564, 45.04633
170.9385, 45.03679
171.4207, 44.84378
171.9028, 44.73661
172.3849, 44.72664
172.8670, 44.77975
173.3491, 44.94989
173.8312, 45.16302
174.3134, 45.27741
174.7955, 45.01032
175.2776, 44.70420
175.7597, 44.85019
176.2418, 45.52253
176.7239, 46.23874
177.2061, 46.52672
177.6882, 46.50560
178.1703, 46.49427
178.6524, 46.60263
179.1345, 46.83167
179.6166, 47.17678
180.0988, 47.63864
180.5809, 48.22613
181.0630, 49.05827
181.5451, 50.06955
182.0272, 50.96148
182.5093, 51.37685
182.9915, 51.57668
183.4736, 52.23594
183.9557, 53.47149
184.4378, 54.92434
184.9199, 56.14506
185.4020, 57.14506
185.8842, 58.16960
186.3663, 59.32739
186.8484, 60.61114
187.3305, 61.94390
187.8126, 63.32521
188.2947, 64.77824
188.7769, 66.26900
189.2590, 67.80850
189.7411, 69.62863
190.2232, 71.99968
190.7053, 74.83346
191.1874, 77.60316
191.6696, 80.27052
192.1517, 82.91136
192.6338, 85.66269
193.1159, 88.52380
193.5980, 91.51456
194.0801, 94.69674
194.5623, 98.04166
195.0444, 101.3763
195.5265, 104.6839
196.0086, 107.9367
196.4907, 111.1264
196.9728, 114.2731
197.4550, 117.1874
197.9371, 119.7283
198.4192, 121.8930
198.9013, 123.8489
199.3834, 125.5156
199.8655, 127.0705
200.3477, 129.1171
200.8298, 131.8058
201.3119, 134.2822
201.7940, 135.9173
202.2761, 136.6181
202.7582, 137.5309
203.2404, 138.7546
203.7225, 140.2525
204.2046, 141.9137
204.6867, 143.7203
205.1688, 145.7630
205.6509, 148.0579
206.1331, 150.6044
206.6152, 153.4406
207.0973, 156.4864
207.5794, 159.8657
208.0615, 163.9762
208.5436, 168.8736
209.0258, 174.3780
209.5079, 180.5891
209.9900, 187.7874
210.4721, 194.3200
210.9542, 200.2221
211.4363, 205.3117
211.9185, 209.1474
212.4006, 212.0732
212.8827, 212.9921
213.3648, 211.0988
213.8469, 206.0194
214.3290, 199.4055
214.8112, 190.9031
215.2933, 181.0813
215.7754, 171.6546
216.2575, 162.7206
216.7396, 153.9595
217.2217, 145.0672
217.7038, 135.6100
218.1860, 127.4439
218.6681, 120.9441
219.1502, 115.8284
219.6323, 111.1725
220.1144, 106.9352
220.5965, 103.2980
221.0787, 100.4389
221.5608, 98.50810
222.0429, 96.96529
222.5250, 95.81966
223.0071, 95.04111
223.4892, 94.57729
223.9714, 94.49731
224.4535, 94.61710
224.9356, 94.85918
225.4177, 95.27737
225.8998, 95.67193
226.3819, 95.94698
226.8641, 96.20295
227.3462, 96.78418
227.8283, 97.76362
228.3104, 98.95170
228.7925, 100.2211
229.2746, 101.4914
229.7568, 103.0766
230.2389, 105.0690
230.7210, 107.3828
231.2031, 109.6442
231.6852, 111.6057
232.1673, 113.8727
232.6495, 116.7264
233.1316, 120.2661
233.6137, 124.1689
234.0958, 128.3855
234.5779, 132.9258
235.0600, 137.7191
235.5422, 142.6436
236.0243, 148.0817
236.5064, 154.3676
236.9885, 162.2980
237.4706, 169.3325
237.9527, 175.4273
238.4349, 180.5508
238.9170, 184.4832
239.3991, 186.8620
239.8812, 188.5952
240.3633, 190.2006
240.8454, 192.3552
241.3276, 192.6607
241.8097, 190.6995
242.2918, 187.0406
242.7739, 182.9101
243.2560, 178.3929
243.7381, 173.2712
244.2203, 167.3700
244.7024, 160.3606
245.1845, 153.4954
245.6666, 146.7761
246.1487, 140.2154
246.6308, 133.6608
247.1130, 126.8999
247.5951, 120.4647
248.0772, 114.6052
248.5593, 109.3432
249.0414, 104.4558
249.5235, 99.96297
250.0057, 95.83864
250.4878, 91.94615
250.9699, 88.20799
251.4520, 84.82682
251.9341, 81.91821
252.4162, 79.51093
252.8984, 77.36339
253.3805, 75.53631
253.8626, 73.90856
254.3447, 72.34651
254.8268, 70.79512
255.3089, 69.37225
255.7911, 68.12090
256.2732, 67.03592
256.7553, 66.09902
257.2374, 65.26828
257.7195, 64.62591
258.2017, 64.30545
258.6838, 64.44260
259.1659, 64.58498
259.6480, 64.60743
260.1301, 64.50217
260.6122, 64.49100
261.0944, 64.61007
261.5765, 64.77930
262.0586, 64.91999
262.5407, 65.03309
263.0228, 65.11125
263.5049, 65.12592
263.9871, 65.08387
264.4692, 65.17167
264.9513, 65.47349
265.4334, 65.77247
265.9155, 65.80025
266.3976, 65.39037
266.8798, 65.29345
267.3619, 65.76665
267.8440, 66.71081
268.3261, 67.28126
268.8082, 67.41290
269.2903, 67.30818
269.7725, 67.07800
270.2546, 66.68313
270.7367, 66.35816
271.2188, 66.15047
271.7009, 66.03680
272.1830, 65.96502
272.6652, 66.00759
273.1473, 65.89273
273.6294, 65.35476
274.1115, 64.30185
274.5936, 63.40169
275.0757, 62.76530
275.5579, 62.28292
276.0400, 61.66998
276.5221, 60.91862
277.0042, 60.06664
277.4863, 59.05157
277.9684, 57.84248
278.4506, 56.92271
278.9327, 56.38785
279.4148, 56.07888
279.8969, 55.64166
280.3790, 55.04832
280.8611, 54.52560
281.3433, 54.20197
281.8254, 54.07589
282.3075, 54.05770
282.7896, 54.22054
283.2717, 54.32347
283.7538, 53.82209
284.2360, 52.68465
284.7181, 51.76989
285.2002, 51.62383
285.6823, 52.13512
286.1644, 52.25286
286.6465, 51.91435
287.1287, 51.40670
287.6108, 51.04305
288.0929, 50.82258
288.5750, 50.74237
289.0571, 50.83644
289.5392, 51.07136
290.0214, 51.34477
290.5035, 51.66604
290.9856, 51.94206
291.4677, 52.09269
291.9498, 52.11804
292.4319, 51.99450
292.9141, 51.57748
293.3962, 51.08189
293.8783, 51.07428
294.3604, 51.56147
294.8425, 52.15855
295.3246, 52.52335
295.8068, 52.73006
296.2889, 53.01851
296.7710, 53.45966
297.2531, 53.99969
297.7352, 54.63050
298.2173, 55.32500
298.6995, 55.87052
299.1816, 55.94457
299.6637, 55.76683
300.1458, 55.80653
300.6279, 56.18287
301.1100, 56.72353
301.5922, 57.26478
302.0743, 57.79814
302.5564, 58.28953
303.0385, 58.67702
303.5206, 59.02478
304.0027, 59.40517
304.4849, 59.79955
304.9670, 60.32409
305.4491, 61.15458
305.9312, 62.20293
306.4133, 63.25836
306.8954, 64.08807
307.3776, 64.94457
307.8597, 66.12337
308.3418, 67.67941
308.8239, 69.26479
309.3060, 70.59655
309.7881, 71.80752
310.2703, 73.06324
310.7524, 74.42300
311.2345, 75.87656
311.7166, 77.43877
312.1987, 79.10464
312.6808, 80.74966
313.1630, 82.30885
313.6451, 83.82320
314.1272, 85.35166
314.6093, 87.02552
315.0914, 88.58988
315.5735, 89.98228
316.0557, 91.17464
316.5378, 92.02042
317.0199, 92.35921
317.5020, 92.38419
317.9841, 92.22564
318.4662, 91.84462
318.9484, 91.38741
319.4305, 90.83928
319.9126, 90.24529
320.3947, 89.72343
320.8768, 89.23196
321.3589, 88.87916
321.8411, 88.68863
322.3232, 88.58482
322.8053, 88.84436
323.2874, 89.83366
323.7695, 91.16162
324.2516, 92.20905
324.7338, 92.70879
325.2159, 93.07263
325.6980, 93.39107
326.1801, 93.64461
326.6622, 93.96976
327.1443, 94.34531
327.6265, 94.81135
328.1086, 95.41569
328.5907, 96.70641
329.0728, 97.50786
329.5549, 97.34644
330.0370, 96.20671
330.5192, 95.78464
331.0013, 96.65742
331.4834, 97.75500
331.9655, 98.33645
332.4476, 98.05427
332.9297, 97.85352
333.4119, 97.85942
333.8940, 98.01162
334.3761, 98.01358
334.8582, 97.69065
335.3403, 97.49097
335.8224, 97.69701
336.3046, 98.52012
336.7867, 99.07707
337.2688, 99.18021
337.7509, 99.14008
338.2330, 99.63439
338.7151, 100.7921
339.1973, 102.0731
339.6794, 103.3144
340.1615, 104.5078
340.6436, 105.6724
341.1257, 106.8665
341.6078, 107.8867
342.0899, 108.3193
342.5721, 108.0983
343.0542, 108.1055
343.5363, 108.5937
344.0184, 109.5133
344.5005, 110.7220
344.9826, 112.2295
345.4648, 113.8860
345.9469, 115.6103
346.4290, 117.3991
346.9111, 119.0131
347.3932, 120.3425
347.8753, 121.5794
348.3575, 123.1029
348.8396, 124.8811
349.3217, 126.6609
349.8038, 128.0119
350.2859, 129.2310
350.7680, 131.0943
351.2502, 133.7591
351.7323, 136.8080
352.2144, 139.7146
352.6965, 142.6131
353.1786, 145.8252
353.6607, 149.7189
354.1429, 153.9273
354.6250, 157.9561
355.1071, 161.7774
355.5892, 165.7166
356.0713, 169.8937
356.5534, 174.3813
357.0356, 179.2871
357.5177, 184.7540
357.9998, 190.5957
358.4819, 196.5584
358.9640, 202.6850
359.4461, 209.0809
359.9283, 215.7357
360.4104, 222.7174
360.8925, 230.1042
361.3746, 238.0376
361.8567, 246.1567
362.3388, 254.5090
362.8210, 262.9044
363.3031, 271.1071
363.7852, 278.8686
364.2673, 286.5446
364.7494, 294.4689
365.2315, 302.9797
365.7137, 310.6363
366.1958, 317.1660
366.6779, 322.6127
367.1600, 327.0865
367.6421, 331.2298
368.1242, 333.7492
368.6064, 333.9895
369.0885, 331.8363
369.5706, 329.5966
370.0527, 328.5031
370.5348, 326.3698
371.0169, 321.6517
371.4991, 313.0802
371.9812, 304.1816
372.4633, 295.2666
372.9454, 286.1452
373.4275, 276.2519
373.9096, 264.9868
374.3918, 253.7984
374.8739, 243.6780
375.3560, 234.8439
375.8381, 225.4656
376.3202, 215.2926
376.8023, 205.0360
377.2845, 195.8389
377.7666, 187.8886
378.2487, 180.3385
378.7308, 172.9957
379.2129, 165.8556
379.6950, 159.7134
380.1772, 154.6250
380.6593, 149.9745
381.1414, 145.1267
381.6235, 140.1548
382.1056, 135.2979
382.5877, 130.5805
383.0699, 126.1027
383.5520, 122.0761
384.0341, 118.4571
384.5162, 115.1765
384.9983, 112.2376
385.4804, 109.5657
385.9626, 106.9596
386.4447, 104.3876
386.9268, 101.9448
387.4089, 99.79664
387.8910, 97.84401
388.3731, 95.91462
388.8553, 93.98244
389.3374, 91.99838
389.8195, 89.77915
390.3016, 87.38586
390.7837, 85.31416
391.2658, 84.16451
391.7480, 83.40384
392.2301, 82.47301
392.7122, 81.09942
393.1943, 79.69807
393.6764, 78.46114
394.1585, 77.35386
394.6407, 76.29985
395.1228, 75.21603
395.6049, 74.21630
396.0870, 73.39236
396.5691, 72.85789
397.0512, 72.17786
397.5334, 70.97269
398.0155, 69.66873
398.4976, 68.81406
398.9797, 69.05870
399.4618, 69.10667
399.9439, 68.52834
400.4261, 67.32808
400.9082, 66.66836
401.3903, 66.90298
401.8724, 67.34007
402.3545, 67.54299
402.8366, 67.40015
403.3188, 67.26354
403.8009, 67.17277
404.2830, 67.09078
404.7651, 66.90346
405.2472, 66.56508
405.7293, 66.25758
406.2115, 66.05224
406.6936, 65.95213
407.1757, 65.92674
407.6578, 65.99870
408.1399, 66.08520
408.6220, 66.08199
409.1042, 65.99129
409.5863, 65.92480
410.0684, 65.98363
410.5505, 66.02909
411.0326, 65.63744
411.5147, 64.82098
411.9969, 64.02371
412.4790, 63.60846
412.9611, 63.43797
413.4432, 63.20687
413.9253, 62.88013
414.4074, 62.45850
414.8896, 61.88153
415.3717, 61.20655
415.8538, 60.57137
416.3359, 60.13844
416.8180, 59.71688
417.3001, 59.11606
417.7823, 58.32981
418.2644, 57.54646
418.7465, 56.84098
419.2286, 56.18779
419.7107, 55.56683
420.1928, 54.91925
420.6750, 54.36251
421.1571, 54.09040
421.6392, 53.95242
422.1213, 53.56473
422.6034, 52.55571
423.0855, 51.51040
423.5677, 50.67323
424.0498, 50.13445
424.5319, 49.56990
425.0140, 48.87308
425.4961, 48.17469
425.9782, 47.60170
426.4604, 47.16134
426.9425, 46.83901
427.4246, 46.65252
427.9067, 46.58875
428.3888, 46.58110
428.8709, 46.68444
429.3531, 46.74772
429.8352, 46.66870
430.3173, 46.41342
430.7994, 46.18582
431.2815, 45.98260
431.7636, 45.82117
432.2458, 45.77462
432.7279, 45.85426
433.2100, 45.84237
433.6921, 45.60935
434.1742, 45.23200
434.6563, 44.99829
435.1385, 44.90699
435.6206, 44.88662
436.1027, 44.85597
436.5848, 44.84713
437.0669, 44.96474
437.5490, 45.26197
438.0312, 45.60913
438.5133, 45.89903
438.9954, 46.12757
439.4775, 46.28227
439.9596, 46.27945
440.4417, 46.25018
440.9239, 46.37433
441.4060, 46.66273
441.8881, 46.80991
442.3702, 46.37318
442.8523, 45.83278
443.3344, 45.65477
443.8166, 46.32594
444.2987, 46.95006
444.7808, 47.17205
445.2629, 47.12641
445.7450, 47.20889
446.2271, 47.71623
446.7093, 48.17315
447.1914, 48.39068
447.6735, 48.30304
448.1556, 48.15809
448.6377, 47.86014
449.1198, 47.57024
449.6020, 47.45596
450.0841, 47.57577
450.5662, 47.76481
451.0483, 48.06148
451.5304, 48.40749
452.0125, 48.49730
452.4947, 48.24713
452.9768, 48.00171
453.4589, 47.96726
453.9410, 48.14945
454.4231, 48.30007
454.9052, 48.40061
455.3874, 48.51519
455.8695, 48.72450
456.3516, 49.02487
456.8337, 49.40871
457.3158, 50.04587
457.7979, 50.62551
458.2801, 50.33343
458.7622, 49.31300
459.2443, 48.56700
459.7264, 49.09034
460.2085, 50.18517
460.6906, 50.91917
461.1728, 51.10491
461.6549, 51.18160
462.1370, 51.41257
462.6191, 51.74220
463.1012, 52.08437
463.5833, 52.24805
464.0655, 52.56531
464.5476, 53.31849
465.0297, 54.43757
465.5118, 55.35975
465.9939, 55.54850
466.4760, 55.76227
466.9582, 56.44178
467.4403, 58.03471
467.9224, 59.36090
468.4045, 60.22782
468.8866, 60.88238
469.3687, 61.68679
469.8509, 62.66750
470.3330, 63.74067
470.8151, 64.98025
471.2972, 66.33973
471.7793, 67.23392
472.2614, 67.48868
472.7436, 67.77891
473.2257, 68.73666
473.7078, 70.38424
474.1899, 71.48532
474.6720, 71.87793
475.1541, 71.91758
475.6363, 72.10587
476.1184, 72.41179
476.6005, 72.63672
477.0826, 72.67106
477.5647, 72.59393
478.0468, 72.46896
478.5290, 72.31454
479.0111, 72.29823
479.4932, 72.87423
479.9753, 73.51045
480.4574, 73.51055
480.9395, 72.60030
481.4217, 71.54582
481.9038, 70.63387
482.3859, 69.92988
482.8680, 69.54673
483.3501, 70.16497
483.8322, 70.48396
484.3144, 69.80688
484.7965, 68.21249
485.2786, 66.92939
485.7607, 66.35682
486.2428, 65.98172
486.7249, 65.53392
487.2071, 64.87358
487.6892, 64.46651
488.1713, 64.47161
488.6534, 64.62021
489.1355, 64.52116
489.6176, 64.12077
490.0998, 63.60620
490.5819, 62.91945
491.0640, 62.15546
491.5461, 61.86855
492.0282, 62.10805
492.5103, 62.44860
492.9925, 62.67055
493.4746, 62.76246
493.9567, 62.60879
494.4388, 62.16660
494.9209, 61.65736
495.4030, 61.29382
495.8852, 61.05653
496.3673, 60.89127
496.8494, 60.82061
497.3315, 60.77284
497.8136, 60.66321
498.2957, 60.50969
498.7779, 60.39347
499.2600, 60.48385
499.7421, 60.53708
500.2242, 60.32576
500.7063, 59.73249
501.1884, 59.28133
501.6706, 59.39213
502.1527, 59.60968
502.6348, 59.47183
503.1169, 58.55651
503.5990, 57.71812
504.0811, 57.07652
504.5633, 56.58790
505.0454, 56.07975
505.5275, 55.56886
506.0096, 55.02323
506.4917, 54.41325
506.9738, 53.72144
507.4560, 53.10068
507.9381, 52.53866
508.4202, 52.07951
508.9023, 51.85423
509.3844, 51.84050
509.8665, 51.63081
510.3487, 51.10608
510.8308, 50.43296
511.3129, 49.80952
511.7950, 49.25694
512.2772, 48.87378
512.7593, 48.84156
513.2414, 48.93925
513.7235, 48.87649
514.2056, 48.65524
514.6877, 48.46489
515.1699, 48.56763
515.6520, 48.68295
516.1341, 48.49966
516.6162, 47.66350
517.0983, 47.08705
517.5804, 47.28239
518.0626, 47.88142
518.5447, 48.28058
519.0268, 48.23146
519.5089, 48.13444
519.9910, 48.09686
520.4731, 48.10866
520.9553, 47.99618
521.4374, 47.68703
521.9195, 47.36447
522.4016, 47.12840
522.8837, 46.99212
523.3658, 46.89914
523.8480, 46.87297
524.3301, 46.84026
524.8122, 46.68393
525.2943, 46.41338
525.7764, 46.16541
526.2585, 45.99599
526.7407, 45.84874
527.2228, 45.58052
527.7049, 45.21679
528.1870, 44.91337
528.6691, 44.90065
529.1512, 44.92551
529.6334, 44.55996
530.1155, 43.75174
530.5976, 43.20422
531.0797, 43.66383
531.5618, 44.43124
532.0439, 44.80730
532.5261, 44.43876
533.0082, 43.92944
533.4903, 43.24877
533.9724, 42.54468
534.4545, 42.12141
534.9366, 42.31277
535.4188, 42.43835
535.9009, 42.30930
536.3830, 41.93414
536.8651, 41.68599
537.3472, 41.62607
537.8293, 41.57512
538.3115, 41.38608
538.7936, 41.04179
539.2757, 40.83759
539.7578, 40.81887
540.2399, 40.85783
540.7220, 40.80451
541.2042, 40.66225
541.6863, 40.44665
542.1684, 40.14665
542.6505, 39.79057
543.1326, 39.31584
543.6147, 38.78955
544.0969, 38.46114
544.5790, 38.76290
545.0611, 39.14049
545.5432, 39.06993
546.0253, 38.48664
546.5074, 37.95908
546.9896, 37.76807
547.4717, 37.71324
547.9538, 37.63231
548.4359, 37.42885
548.9180, 37.29573
549.4001, 37.36571
549.8823, 37.47911
550.3644, 37.33091
550.8465, 36.67594
551.3286, 36.22998
551.8107, 36.24866
552.2928, 36.64825
552.7750, 36.78765
553.2571, 36.62479
553.7392, 36.41551
554.2213, 36.31081
554.7034, 36.30091
555.1855, 36.33805
555.6677, 36.42565
556.1498, 36.51623
556.6319, 36.55977
557.1140, 36.56850
557.5961, 36.57650
558.0782, 36.63548
558.5604, 36.62463
559.0425, 36.31332
559.5246, 35.85807
560.0067, 35.61073
560.4888, 36.02576
560.9709, 36.40117
561.4531, 36.35115
561.9352, 35.86527
562.4173, 35.48777
562.8994, 35.38107
563.3815, 35.32900
563.8636, 35.21785
564.3458, 35.00133
564.8279, 34.86422
565.3100, 34.85386
565.7921, 34.86192
566.2742, 34.72538
566.7563, 34.42290
567.2385, 34.17480
567.7206, 34.01775
568.2027, 33.95661
568.6848, 34.10549
569.1669, 34.42217
569.6490, 34.57262
570.1312, 34.13175
570.6133, 33.53011
571.0954, 33.48021
571.5775, 33.96098
572.0596, 34.42405
572.5417, 34.54981
573.0239, 34.48626
573.5060, 34.34742
573.9881, 34.13353
574.4702, 33.89943
574.9523, 33.57789
575.4344, 33.27288
575.9166, 33.12050
576.3987, 33.27279
576.8808, 33.38395
577.3629, 33.42531
577.8450, 33.39899
578.3271, 33.29266
578.8093, 33.06326
579.2914, 32.88348
579.7735, 32.85147
580.2556, 32.94191
580.7377, 32.94115
581.2198, 32.83988
581.7020, 32.74334
582.1841, 32.76483
582.6662, 32.85441
583.1483, 32.85928
583.6304, 32.73051
584.1125, 32.67785
584.5947, 33.01558
585.0768, 33.51534
585.5589, 33.84255
586.0410, 33.81414
586.5231, 33.67063
587.0052, 33.38663
587.4873, 33.05546
587.9694, 32.93049
588.4515, 33.27634
588.9337, 33.61081
589.4158, 33.77548
589.8979, 33.76912
590.3800, 33.84934
590.8621, 34.06551
591.3442, 34.28084
591.8264, 34.37824
592.3085, 34.34280
592.7906, 34.44899
593.2727, 34.73799
593.7548, 35.04862
594.2369, 35.16193
594.7191, 35.13087
595.2012, 35.17530
595.6833, 35.40203
596.1654, 35.61931
596.6475, 35.52322
597.1296, 35.25307
597.6118, 35.12949
598.0939, 35.43449
598.5760, 35.80456
599.0581, 36.03423
599.5402, 36.13260
600.0223, 36.26958
600.5045, 36.66916
600.9866, 36.95052
601.4687, 36.87352
601.9508, 36.27444
602.4329, 36.06556
602.9150, 36.42484
603.3972, 36.93022
603.8793, 37.18464
604.3614, 37.15795
604.8435, 37.23157
605.3256, 37.47874
605.8077, 37.76882
