##NAMES=Fluorapatite
##RRUFFID=R050122
##IDEAL CHEMISTRY=Ca_5_(PO_4_)_3_F
##LOCALITY=Cruziero mine, San Jose, Minas Gerais, Brazil
##OWNER=RRUFF
##SOURCE=Carlos and Paulo Vasconcelos
##DESCRIPTION=Green fragment
##STATUS=The identification of this mineral has been confirmed by X-ray diffraction and chemical analysis
##URL=rruff.info/R050122
##MEASURED CHEMISTRY=(Ca_4.99_Mn_0.01_)_Î£=5_(P_1.00_O_4_)_3_F_1.00_; trace amounts of Fe
114.3488, 506.9430
114.8309, 512.2492
115.3130, 507.2809
115.7952, 499.5735
116.2773, 501.1371
116.7594, 516.0567
117.2415, 530.6805
117.7236, 538.2476
118.2057, 542.5823
118.6879, 548.5591
119.1700, 559.9276
119.6521, 575.3182
120.1342, 584.1109
120.6163, 576.5894
121.0984, 571.7167
121.5805, 576.3604
122.0627, 587.6068
122.5448, 598.2614
123.0269, 601.2118
123.5090, 593.6916
123.9911, 596.0025
124.4732, 615.3635
124.9554, 636.1719
125.4375, 649.9349
125.9196, 655.9848
126.4017, 659.7420
126.8838, 667.7601
127.3659, 682.1627
127.8481, 694.7389
128.3302, 704.0104
128.8123, 711.9352
129.2944, 720.3334
129.7765, 729.4973
130.2586, 740.0281
130.7408, 752.5718
131.2229, 766.5312
131.7050, 783.6854
132.1871, 805.9200
132.6692, 832.2435
133.1513, 859.0413
133.6335, 884.9167
134.1156, 911.4048
134.5977, 938.9355
135.0798, 967.3066
135.5619, 999.3790
136.0440, 1039.609
136.5262, 1089.657
137.0083, 1137.179
137.4904, 1183.845
137.9725, 1224.072
138.4546, 1256.315
138.9367, 1280.230
139.4189, 1289.488
139.9010, 1269.093
140.3831, 1200.379
140.8652, 1133.354
141.3473, 1074.718
141.8294, 1021.795
142.3116, 971.4755
142.7937, 921.7800
143.2758, 874.8223
143.7579, 838.5898
144.2400, 820.7493
144.7221, 806.6188
145.2043, 795.4266
145.6864, 786.5222
146.1685, 779.6002
146.6506, 774.6336
147.1327, 771.4520
147.6148, 767.2004
148.0969, 759.5913
148.5791, 753.2903
149.0612, 750.0259
149.5433, 749.8298
150.0254, 752.2999
150.5075, 757.6817
150.9896, 765.9491
151.4718, 773.9399
151.9539, 781.8374
152.4360, 789.3364
152.9181, 794.9252
153.4002, 797.8999
153.8823, 803.4464
154.3645, 817.3314
154.8466, 837.1226
155.3287, 858.5984
155.8108, 888.0132
156.2929, 917.6505
156.7750, 928.2911
157.2572, 911.9432
157.7393, 888.5873
158.2214, 868.8739
158.7035, 852.3114
159.1856, 837.9398
159.6677, 825.8327
160.1499, 815.8721
160.6320, 805.2670
161.1141, 788.8173
161.5962, 777.3000
162.0783, 776.5552
162.5604, 784.7883
163.0426, 796.3461
163.5247, 807.3352
164.0068, 819.1498
164.4889, 822.5569
164.9710, 808.9168
165.4531, 794.7827
165.9353, 785.9285
166.4174, 783.7856
166.8995, 788.1046
167.3816, 799.8639
167.8637, 826.2303
168.3458, 840.1730
168.8279, 833.1689
169.3101, 821.2090
169.7922, 815.9991
170.2743, 819.9634
170.7564, 827.0122
171.2385, 827.7804
171.7206, 816.6910
172.2028, 812.3533
172.6849, 823.8514
173.1670, 839.4154
173.6491, 843.6077
174.1312, 830.7878
174.6133, 811.7553
175.0955, 806.3325
175.5776, 815.9233
176.0597, 824.7310
176.5418, 827.1199
177.0239, 825.4526
177.5060, 825.2095
177.9882, 828.4314
178.4703, 833.0689
178.9524, 836.7288
179.4345, 839.5845
179.9166, 840.8257
180.3987, 837.8708
180.8809, 831.6030
181.3630, 829.8020
181.8451, 838.3433
182.3272, 849.0247
182.8093, 853.9272
183.2914, 852.2042
183.7736, 849.5490
184.2557, 851.2738
184.7378, 857.7423
185.2199, 865.5945
185.7020, 877.7745
186.1841, 888.8010
186.6663, 894.5665
187.1484, 894.3243
187.6305, 891.5917
188.1126, 891.5811
188.5947, 896.1975
189.0768, 898.3688
189.5589, 892.8413
190.0411, 887.5715
190.5232, 889.1787
191.0053, 899.4326
191.4874, 913.7004
191.9695, 923.1129
192.4516, 923.1571
192.9338, 925.5065
193.4159, 931.9288
193.8980, 940.0580
194.3801, 948.0270
194.8622, 955.1382
195.3443, 961.5469
195.8265, 967.6422
196.3086, 975.0692
196.7907, 980.0347
197.2728, 978.9339
197.7549, 976.5679
198.2370, 979.2511
198.7192, 989.7513
199.2013, 1004.636
199.6834, 1014.354
200.1655, 1015.522
200.6476, 1016.846
201.1297, 1020.875
201.6119, 1025.748
202.0940, 1027.692
202.5761, 1024.413
203.0582, 1018.849
203.5403, 1018.972
204.0224, 1025.493
204.5046, 1034.320
204.9867, 1045.715
205.4688, 1058.475
205.9509, 1069.383
206.4330, 1076.705
206.9151, 1081.793
207.3973, 1087.902
207.8794, 1096.164
208.3615, 1102.502
208.8436, 1102.823
209.3257, 1098.320
209.8078, 1095.894
210.2899, 1098.314
210.7721, 1104.155
211.2542, 1111.712
211.7363, 1121.669
212.2184, 1130.394
212.7005, 1134.173
213.1826, 1132.984
213.6648, 1132.062
214.1469, 1136.300
214.6290, 1138.908
215.1111, 1130.961
215.5932, 1110.160
216.0753, 1091.353
216.5575, 1093.467
217.0396, 1120.383
217.5217, 1142.289
218.0038, 1149.883
218.4859, 1151.181
218.9680, 1148.698
219.4502, 1143.200
219.9323, 1137.733
220.4144, 1136.336
220.8965, 1139.980
221.3786, 1144.618
221.8607, 1151.053
222.3429, 1157.360
222.8250, 1161.900
223.3071, 1164.477
223.7892, 1166.627
224.2713, 1170.140
224.7534, 1173.764
225.2356, 1182.235
225.7177, 1201.631
226.1998, 1221.223
226.6819, 1233.886
227.1640, 1237.946
227.6461, 1236.514
228.1283, 1233.013
228.6104, 1220.126
229.0925, 1220.333
229.5746, 1243.524
230.0567, 1271.005
230.5388, 1290.058
231.0210, 1297.553
231.5031, 1298.222
231.9852, 1298.734
232.4673, 1297.322
232.9494, 1299.776
233.4315, 1306.955
233.9137, 1316.998
234.3958, 1329.162
234.8779, 1343.040
235.3600, 1357.805
235.8421, 1372.497
236.3242, 1387.958
236.8064, 1400.813
237.2885, 1409.829
237.7706, 1417.119
238.2527, 1424.768
238.7348, 1433.151
239.2169, 1440.661
239.6991, 1445.143
240.1812, 1445.803
240.6633, 1445.626
241.1454, 1441.412
241.6275, 1438.203
242.1096, 1441.891
242.5918, 1453.424
243.0739, 1467.165
243.5560, 1476.246
244.0381, 1480.055
244.5202, 1486.511
245.0023, 1501.128
245.4845, 1516.304
245.9666, 1522.442
246.4487, 1517.830
246.9308, 1511.530
247.4129, 1512.073
247.8950, 1518.979
248.3772, 1527.858
248.8593, 1540.712
249.3414, 1553.956
249.8235, 1562.288
250.3056, 1564.712
250.7877, 1567.473
251.2698, 1578.130
251.7520, 1593.690
252.2341, 1604.634
252.7162, 1606.507
253.1983, 1603.888
253.6804, 1601.865
254.1625, 1600.495
254.6447, 1600.078
255.1268, 1601.567
255.6089, 1604.105
256.0910, 1606.227
256.5731, 1607.337
257.0552, 1608.031
257.5374, 1609.780
258.0195, 1613.198
258.5016, 1614.552
258.9837, 1606.641
259.4658, 1596.806
259.9479, 1594.958
260.4301, 1607.060
260.9122, 1623.503
261.3943, 1630.742
261.8764, 1626.963
262.3585, 1622.687
262.8406, 1620.072
263.3228, 1620.272
263.8049, 1626.442
264.2870, 1641.224
264.7691, 1656.330
265.2512, 1659.127
265.7333, 1646.788
266.2155, 1635.949
266.6976, 1630.959
267.1797, 1630.088
267.6618, 1634.817
268.1439, 1645.896
268.6260, 1655.650
269.1082, 1652.162
269.5903, 1631.825
270.0724, 1617.068
270.5545, 1616.928
271.0366, 1621.252
271.5187, 1624.608
272.0009, 1626.073
272.4830, 1627.694
272.9651, 1630.658
273.4472, 1634.188
273.9293, 1643.678
274.4114, 1667.846
274.8936, 1692.236
275.3757, 1709.034
275.8578, 1718.332
276.3399, 1726.584
276.8220, 1742.176
277.3041, 1767.175
277.7863, 1783.863
278.2684, 1780.937
278.7505, 1778.455
279.2326, 1783.049
279.7147, 1794.794
280.1968, 1811.313
280.6789, 1831.647
281.1610, 1856.070
281.6432, 1877.800
282.1253, 1894.380
282.6074, 1910.524
283.0895, 1925.967
283.5716, 1942.078
284.0537, 1961.321
284.5359, 1986.039
285.0180, 2015.635
285.5001, 2043.173
285.9822, 2065.110
286.4643, 2088.769
286.9464, 2118.130
287.4286, 2149.831
287.9107, 2178.775
288.3928, 2202.199
288.8749, 2220.639
289.3570, 2235.767
289.8391, 2236.902
290.3213, 2249.526
290.8034, 2282.978
291.2855, 2327.278
291.7676, 2372.359
292.2497, 2413.554
292.7318, 2451.025
293.2140, 2485.226
293.6961, 2517.070
294.1782, 2543.640
294.6603, 2557.422
295.1424, 2570.219
295.6245, 2594.046
296.1067, 2632.151
296.5888, 2676.473
297.0709, 2712.894
297.5530, 2734.122
298.0351, 2761.162
298.5172, 2799.048
298.9994, 2838.366
299.4815, 2870.849
299.9636, 2896.276
300.4457, 2923.118
300.9278, 2964.111
301.4099, 3028.625
301.8921, 3076.254
302.3742, 3092.128
302.8563, 3107.376
303.3384, 3137.169
303.8205, 3181.912
304.3026, 3234.216
304.7848, 3287.665
305.2669, 3342.836
305.7490, 3397.671
306.2311, 3457.733
306.7132, 3512.066
307.1953, 3553.510
307.6775, 3586.188
308.1596, 3618.662
308.6417, 3657.032
309.1238, 3700.650
309.6059, 3742.649
310.0880, 3777.047
310.5702, 3816.490
311.0523, 3865.142
311.5344, 3919.642
312.0165, 3976.797
312.4986, 4035.285
312.9807, 4092.729
313.4629, 4142.533
313.9450, 4169.507
314.4271, 4208.326
314.9092, 4270.053
315.3913, 4339.822
315.8734, 4402.882
316.3556, 4454.355
316.8377, 4499.573
317.3198, 4547.590
317.8019, 4594.676
318.2840, 4652.320
318.7661, 4734.775
319.2483, 4816.415
319.7304, 4878.079
320.2125, 4917.767
320.6946, 4947.156
321.1767, 4979.431
321.6588, 5015.822
322.1409, 5050.935
322.6230, 5086.312
323.1052, 5119.433
323.5873, 5147.877
324.0694, 5172.853
324.5515, 5197.895
325.0336, 5226.875
325.5157, 5259.703
325.9979, 5283.930
326.4800, 5298.962
326.9621, 5305.852
327.4442, 5302.715
327.9263, 5291.668
328.4084, 5274.155
328.8906, 5250.362
329.3727, 5223.602
329.8548, 5208.166
330.3369, 5225.938
330.8190, 5226.702
331.3011, 5192.763
331.7833, 5145.974
332.2654, 5108.518
332.7475, 5088.617
333.2296, 5078.678
333.7117, 5065.172
334.1938, 5049.149
334.6760, 5026.775
335.1581, 4995.582
335.6402, 4960.977
336.1223, 4925.834
336.6044, 4890.838
337.0865, 4855.900
337.5687, 4820.309
338.0508, 4783.991
338.5329, 4748.436
339.0150, 4713.472
339.4971, 4679.545
339.9792, 4645.406
340.4614, 4612.439
340.9435, 4583.595
341.4256, 4561.840
341.9077, 4546.534
342.3898, 4529.774
342.8719, 4511.897
343.3541, 4491.689
343.8362, 4464.410
344.3183, 4435.963
344.8004, 4415.520
345.2825, 4408.049
345.7646, 4407.403
346.2468, 4396.629
346.7289, 4366.489
347.2110, 4343.600
347.6931, 4334.833
348.1752, 4331.288
348.6573, 4325.794
349.1395, 4316.580
349.6216, 4306.826
350.1037, 4301.167
350.5858, 4301.032
351.0679, 4299.404
351.5500, 4292.917
352.0322, 4287.417
352.5143, 4288.613
352.9964, 4294.231
353.4785, 4295.660
353.9606, 4283.986
354.4427, 4260.050
354.9249, 4240.076
355.4070, 4216.522
355.8891, 4208.305
356.3712, 4234.011
356.8533, 4275.676
357.3354, 4304.531
357.8176, 4304.475
358.2997, 4285.784
358.7818, 4272.526
359.2639, 4264.969
359.7460, 4262.259
360.2281, 4269.288
360.7103, 4277.878
361.1924, 4278.335
361.6745, 4267.956
362.1566, 4259.509
362.6387, 4273.431
363.1208, 4312.898
363.6029, 4337.510
364.0851, 4328.268
364.5672, 4313.253
365.0493, 4311.761
365.5314, 4322.243
366.0135, 4330.617
366.4956, 4325.749
366.9778, 4310.233
367.4599, 4293.789
367.9420, 4270.710
368.4241, 4258.759
368.9062, 4281.863
369.3883, 4320.343
369.8705, 4338.542
370.3526, 4314.766
370.8347, 4272.978
371.3168, 4249.163
371.7989, 4245.803
372.2810, 4240.496
372.7632, 4224.034
373.2453, 4200.292
373.7274, 4172.268
374.2095, 4138.408
374.6916, 4108.049
375.1737, 4092.858
375.6559, 4088.825
376.1380, 4074.124
376.6201, 4037.787
377.1022, 3999.315
377.5843, 3983.452
378.0664, 3987.301
378.5486, 3984.227
379.0307, 3959.294
379.5128, 3923.770
379.9949, 3894.023
380.4770, 3871.538
380.9591, 3851.532
381.4413, 3829.884
381.9234, 3808.040
382.4055, 3791.293
382.8876, 3789.536
383.3697, 3783.686
383.8518, 3752.708
384.3340, 3704.310
384.8161, 3670.906
385.2982, 3670.756
385.7803, 3687.398
386.2624, 3682.738
386.7445, 3649.936
387.2267, 3621.828
387.7088, 3610.889
388.1909, 3608.049
388.6730, 3601.011
389.1551, 3587.080
389.6372, 3571.654
390.1194, 3560.260
390.6015, 3553.557
391.0836, 3548.625
391.5657, 3548.158
392.0478, 3547.103
392.5299, 3541.953
393.0121, 3533.358
393.4942, 3523.618
393.9763, 3513.556
394.4584, 3504.085
394.9405, 3500.226
395.4226, 3509.301
395.9048, 3514.498
396.3869, 3505.279
396.8690, 3494.031
397.3511, 3498.834
397.8332, 3524.579
398.3153, 3556.710
398.7975, 3571.646
399.2796, 3557.755
399.7617, 3557.059
400.2438, 3582.448
400.7259, 3607.840
401.2080, 3617.929
401.6902, 3614.064
402.1723, 3605.189
402.6544, 3597.001
403.1365, 3590.295
403.6186, 3595.325
404.1007, 3627.495
404.5828, 3653.392
405.0649, 3664.113
405.5471, 3666.534
406.0292, 3667.682
406.5113, 3670.360
406.9934, 3675.786
407.4755, 3687.746
407.9576, 3710.531
408.4398, 3726.601
408.9219, 3730.141
409.4040, 3729.976
409.8861, 3730.319
410.3682, 3731.372
410.8503, 3731.304
411.3325, 3728.368
411.8146, 3722.887
412.2967, 3716.965
412.7788, 3708.599
413.2609, 3703.388
413.7430, 3702.465
414.2252, 3706.049
414.7073, 3716.290
415.1894, 3736.732
415.6715, 3757.055
416.1536, 3762.413
416.6357, 3752.135
417.1179, 3740.393
417.6000, 3730.177
418.0821, 3720.828
418.5642, 3710.952
419.0463, 3700.559
419.5284, 3692.275
420.0106, 3686.677
420.4927, 3684.314
420.9748, 3686.758
421.4569, 3694.543
421.9390, 3705.616
422.4211, 3722.817
422.9033, 3742.275
423.3854, 3751.300
423.8675, 3738.023
424.3496, 3723.892
424.8317, 3726.425
425.3138, 3741.193
425.7960, 3751.671
426.2781, 3750.148
426.7602, 3742.953
427.2423, 3742.723
427.7244, 3751.203
428.2065, 3759.040
428.6887, 3768.029
429.1708, 3773.638
429.6529, 3768.023
430.1350, 3751.678
430.6171, 3736.725
431.0992, 3734.905
431.5814, 3746.466
432.0635, 3748.148
432.5456, 3733.206
433.0277, 3718.115
433.5098, 3706.443
433.9919, 3698.402
434.4741, 3696.387
434.9562, 3701.367
435.4383, 3705.808
435.9204, 3693.792
436.4025, 3652.383
436.8846, 3618.210
437.3668, 3591.215
437.8489, 3570.280
438.3310, 3556.030
438.8131, 3547.456
439.2952, 3541.893
439.7773, 3536.795
440.2595, 3532.638
440.7416, 3535.695
441.2237, 3560.480
441.7058, 3570.346
442.1879, 3544.907
442.6700, 3506.208
443.1522, 3478.978
443.6343, 3471.406
444.1164, 3472.783
444.5985, 3472.707
445.0806, 3471.925
445.5627, 3459.141
446.0448, 3425.302
446.5269, 3386.773
447.0091, 3353.631
447.4912, 3325.125
447.9733, 3297.034
448.4554, 3267.558
448.9375, 3236.917
449.4196, 3205.646
449.9018, 3173.720
450.3839, 3140.013
450.8660, 3101.931
451.3481, 3062.779
451.8302, 3028.631
452.3123, 3000.997
452.7945, 2973.950
453.2766, 2944.563
453.7587, 2913.552
454.2408, 2883.421
454.7229, 2855.299
455.2050, 2822.767
455.6872, 2775.991
456.1693, 2713.771
456.6514, 2665.493
457.1335, 2641.551
457.6156, 2621.993
458.0977, 2593.987
458.5799, 2561.129
459.0620, 2535.229
459.5441, 2522.635
460.0262, 2517.076
460.5083, 2503.611
460.9904, 2474.952
461.4726, 2449.242
461.9547, 2429.356
462.4368, 2410.243
462.9189, 2386.676
463.4010, 2359.552
463.8831, 2335.207
464.3653, 2319.855
464.8474, 2312.697
465.3295, 2300.463
465.8116, 2277.158
466.2937, 2256.398
466.7758, 2241.536
467.2580, 2230.298
467.7401, 2220.819
468.2222, 2212.500
468.7043, 2203.961
469.1864, 2192.985
469.6685, 2179.308
470.1507, 2167.112
470.6328, 2158.855
471.1149, 2149.598
471.5970, 2135.673
472.0791, 2118.575
472.5612, 2102.288
473.0434, 2089.083
473.5255, 2077.014
474.0076, 2061.920
474.4897, 2043.620
474.9718, 2029.355
475.4539, 2023.570
475.9361, 2021.832
476.4182, 2018.515
476.9003, 2014.135
477.3824, 2005.059
477.8645, 1983.920
478.3466, 1959.930
478.8288, 1948.087
479.3109, 1949.588
479.7930, 1951.172
480.2751, 1942.650
480.7572, 1925.386
481.2393, 1910.355
481.7215, 1899.977
482.2036, 1888.787
482.6857, 1872.827
483.1678, 1856.060
483.6499, 1844.196
484.1320, 1838.765
484.6142, 1836.233
485.0963, 1832.218
485.5784, 1826.633
486.0605, 1819.867
486.5426, 1807.619
487.0247, 1798.675
487.5068, 1800.094
487.9890, 1806.422
488.4711, 1807.514
488.9532, 1798.072
489.4353, 1783.242
489.9174, 1774.487
490.3995, 1774.693
490.8817, 1771.096
491.3638, 1756.202
491.8459, 1741.358
492.3280, 1733.114
492.8101, 1730.932
493.2922, 1730.027
493.7744, 1725.965
494.2565, 1721.697
494.7386, 1726.627
495.2207, 1743.170
495.7028, 1753.380
496.1849, 1747.906
496.6671, 1731.528
497.1492, 1709.723
497.6313, 1678.834
498.1134, 1658.589
498.5955, 1668.611
499.0776, 1691.561
499.5598, 1698.208
500.0419, 1684.232
500.5240, 1665.494
501.0061, 1653.516
501.4882, 1648.400
501.9703, 1649.192
502.4525, 1663.997
502.9346, 1674.480
503.4167, 1673.272
503.8988, 1665.114
504.3809, 1654.816
504.8630, 1644.283
505.3452, 1636.253
505.8273, 1635.087
506.3094, 1642.930
506.7915, 1646.374
507.2736, 1642.324
507.7557, 1637.198
508.2379, 1632.173
508.7200, 1627.673
509.2021, 1624.474
509.6842, 1623.052
510.1663, 1621.688
510.6484, 1616.625
511.1306, 1606.963
511.6127, 1599.975
512.0948, 1597.292
512.5769, 1597.190
513.0590, 1598.635
513.5411, 1601.552
514.0233, 1605.968
514.5054, 1615.096
514.9875, 1623.436
515.4696, 1620.964
515.9517, 1608.374
516.4338, 1599.229
516.9160, 1600.327
517.3981, 1605.932
517.8802, 1606.007
518.3623, 1599.819
518.8444, 1594.272
519.3265, 1593.112
519.8087, 1591.687
520.2908, 1581.783
520.7729, 1565.922
521.2550, 1559.226
521.7371, 1573.346
522.2192, 1600.824
522.7014, 1611.911
523.1835, 1588.775
523.6656, 1572.024
524.1477, 1565.467
524.6298, 1563.866
525.1119, 1565.702
525.5941, 1569.011
526.0762, 1568.804
526.5583, 1559.730
527.0404, 1543.533
527.5225, 1532.114
528.0046, 1526.436
528.4868, 1523.754
528.9689, 1524.619
529.4510, 1527.099
529.9331, 1529.908
530.4152, 1532.791
530.8973, 1534.898
531.3795, 1535.868
531.8616, 1535.539
532.3437, 1532.953
532.8258, 1527.607
533.3079, 1522.344
533.7900, 1519.707
534.2722, 1518.355
534.7543, 1513.842
535.2364, 1501.776
535.7185, 1493.908
536.2006, 1500.716
536.6827, 1512.511
537.1649, 1513.512
537.6470, 1501.152
538.1291, 1486.607
538.6112, 1480.880
539.0933, 1484.132
539.5754, 1483.079
540.0576, 1472.304
540.5397, 1463.993
541.0218, 1461.747
541.5039, 1462.780
541.9860, 1464.623
542.4681, 1466.287
542.9503, 1466.735
543.4324, 1464.420
543.9145, 1459.228
544.3966, 1453.887
544.8787, 1445.968
545.3608, 1441.813
545.8430, 1447.469
546.3251, 1456.825
546.8072, 1461.495
547.2892, 1458.897
547.7714, 1453.149
548.2535, 1446.158
548.7356, 1438.774
549.2177, 1433.926
549.6998, 1432.356
550.1819, 1432.466
550.6641, 1433.566
551.1462, 1435.390
551.6283, 1435.912
552.1104, 1434.842
552.5925, 1432.778
553.0746, 1426.680
553.5568, 1420.866
554.0389, 1425.066
554.5210, 1440.738
555.0031, 1454.138
555.4852, 1447.383
555.9673, 1417.437
556.4495, 1403.231
556.9316, 1420.132
557.4137, 1436.014
557.8958, 1442.947
558.3779, 1445.291
558.8600, 1449.101
559.3422, 1456.067
559.8243, 1462.336
560.3064, 1461.004
560.7885, 1453.012
561.2706, 1454.058
561.7527, 1468.905
562.2349, 1484.746
562.7170, 1493.198
563.1991, 1497.637
563.6812, 1503.338
564.1633, 1512.490
564.6454, 1519.863
565.1276, 1520.865
565.6097, 1518.092
566.0918, 1516.183
566.5739, 1516.016
567.0560, 1517.359
567.5381, 1520.041
568.0203, 1524.055
568.5024, 1529.509
568.9845, 1535.045
569.4666, 1543.430
569.9487, 1557.573
570.4308, 1573.667
570.9130, 1587.107
571.3951, 1597.368
571.8772, 1607.698
572.3593, 1621.709
572.8414, 1639.088
573.3235, 1653.906
573.8057, 1660.112
574.2878, 1674.890
574.7699, 1706.307
575.2520, 1746.944
575.7341, 1790.982
576.2162, 1837.459
576.6984, 1884.025
577.1805, 1926.557
577.6626, 1968.579
578.1447, 2023.531
578.6268, 2093.409
579.1089, 2150.451
579.5911, 2179.609
580.0732, 2183.603
580.5553, 2169.860
581.0374, 2138.801
581.5195, 2093.020
582.0016, 2025.060
582.4838, 1948.145
582.9659, 1870.440
583.4480, 1795.017
583.9301, 1727.053
584.4122, 1669.603
584.8943, 1622.390
585.3765, 1583.457
585.8586, 1552.626
586.3407, 1531.220
586.8228, 1522.732
587.3049, 1520.438
587.7870, 1522.157
588.2692, 1526.705
588.7513, 1531.409
589.2334, 1533.415
589.7155, 1536.012
590.1976, 1548.940
590.6797, 1571.800
591.1619, 1581.923
591.6440, 1569.198
592.1261, 1545.497
592.6082, 1523.718
593.0903, 1503.606
593.5724, 1488.381
594.0546, 1482.946
594.5367, 1478.256
595.0188, 1465.518
595.5009, 1449.546
595.9830, 1441.321
596.4651, 1445.023
596.9473, 1455.978
597.4294, 1468.968
597.9115, 1487.273
598.3936, 1491.583
598.8757, 1461.392
599.3578, 1438.738
599.8400, 1439.575
600.3221, 1454.174
600.8042, 1468.631
601.2863, 1478.472
601.7684, 1488.846
602.2505, 1505.168
602.7327, 1526.557
603.2148, 1549.490
603.6969, 1574.359
604.1790, 1598.190
604.6611, 1618.775
605.1432, 1636.900
605.6254, 1656.775
606.1075, 1686.173
606.5896, 1703.040
607.0717, 1693.736
607.5538, 1672.432
608.0359, 1655.093
608.5181, 1642.442
609.0002, 1624.344
609.4823, 1592.323
609.9644, 1550.634
