##NAMES=Fluorcalciopyrochlore
##RRUFFID=R061003
##IDEAL CHEMISTRY=(Ca,Na)_2_(Nb^5+^,Ti^4+^)_2_O_6_F
##LOCALITY=Verity property, Blue River, British Columbia, Canada
##OWNER=RRUFF
##SOURCE=Michael Scott
##DESCRIPTION=Reddish-brown octahedron
##STATUS=The identification of this mineral has been confirmed by X-ray diffraction and chemical analysis
##URL=rruff.info/R061003
##MEASURED CHEMISTRY=(Ca_1.03_Na_0.88_Sr_0.03_Ce_0.01_)_Σ1.95_(Nb_1.87_Ti_0.09_Ta_0.04_)_Σ2_O_6_[F_0.93_(OH)_0.01_]_Σ0.94_
110.4335, 4900.544
110.9156, 5620.801
111.3977, 6455.743
111.8798, 7451.640
112.3619, 8632.598
112.8440, 10054.67
113.3262, 11618.60
113.8083, 13298.98
114.2904, 15110.66
114.7725, 16964.82
115.2546, 18940.79
115.7367, 20940.67
116.2189, 22843.61
116.7010, 24561.27
117.1831, 26206.52
117.6652, 27825.84
118.1473, 29400.95
118.6294, 31008.18
119.1116, 32648.63
119.5937, 34341.49
120.0758, 36135.26
120.5579, 38064.69
121.0400, 40128.47
121.5221, 42312.89
122.0043, 44707.33
122.4864, 47155.82
122.9685, 49601.00
123.4506, 52033.47
123.9327, 54309.23
124.4148, 56362.14
124.8969, 58182.30
125.3791, 59756.00
125.8612, 61043.74
126.3433, 62081.43
126.8254, 62892.69
127.3075, 63470.24
127.7896, 63868.50
128.2718, 64099.34
128.7539, 64181.77
129.2360, 64213.51
129.7181, 64241.73
130.2002, 64262.21
130.6823, 64260.48
131.1645, 64229.10
131.6466, 64180.37
132.1287, 64102.39
132.6108, 63989.92
133.0929, 63954.70
133.5750, 64098.52
134.0572, 64419.39
134.5393, 64800.77
135.0214, 65230.05
135.5035, 65703.48
135.9856, 66200.02
136.4677, 66709.83
136.9499, 67258.75
137.4320, 67897.30
137.9141, 68643.09
138.3962, 69369.78
138.8783, 70048.56
139.3604, 70673.91
139.8426, 71263.45
140.3247, 71816.02
140.8068, 72337.00
141.2889, 72866.05
141.7710, 73449.16
142.2531, 73935.85
142.7353, 74246.06
143.2174, 74306.21
143.6995, 74365.72
144.1816, 74448.57
144.6637, 74535.15
145.1458, 74537.36
145.6280, 74430.44
146.1101, 74257.55
146.5922, 74040.65
147.0743, 73737.13
147.5564, 73449.85
148.0385, 73201.25
148.5207, 72995.19
149.0028, 72763.20
149.4849, 72458.59
149.9670, 72154.32
150.4491, 71927.32
150.9312, 71847.59
151.4134, 71783.34
151.8955, 71706.07
152.3776, 71598.59
152.8597, 71556.09
153.3418, 71602.07
153.8239, 71718.59
154.3061, 71877.08
154.7882, 72097.04
155.2703, 72343.51
155.7524, 72600.07
156.2345, 72838.55
156.7166, 73130.18
157.1988, 73480.27
157.6809, 73887.04
158.1630, 74351.34
158.6451, 74956.99
159.1272, 75554.05
159.6093, 76056.95
160.0915, 76350.71
160.5736, 76630.54
161.0557, 76966.55
161.5378, 77345.77
162.0199, 77687.09
162.5020, 77934.13
162.9841, 78135.28
163.4663, 78339.09
163.9484, 78591.27
164.4305, 78827.21
164.9126, 79021.86
165.3947, 79176.38
165.8768, 79289.37
166.3590, 79370.82
166.8411, 79412.67
167.3232, 79403.67
167.8053, 79314.49
168.2874, 79192.08
168.7695, 79075.27
169.2517, 78974.52
169.7338, 78857.61
170.2159, 78707.53
170.6980, 78526.41
171.1801, 78311.18
171.6622, 78028.54
172.1444, 77723.56
172.6265, 77444.49
173.1086, 77199.80
173.5907, 76979.20
174.0728, 76802.36
174.5549, 76650.47
175.0371, 76446.79
175.5192, 76094.70
176.0013, 75664.80
176.4834, 75271.06
176.9655, 74958.90
177.4476, 74682.84
177.9298, 74399.36
178.4119, 74105.09
178.8940, 73794.65
179.3761, 73437.27
179.8582, 73054.32
180.3403, 72690.31
180.8225, 72373.78
181.3046, 72081.51
181.7867, 71761.72
182.2688, 71415.20
182.7509, 71059.80
183.2330, 70705.88
183.7152, 70360.45
184.1973, 70024.97
184.6794, 69729.68
185.1615, 69446.89
185.6436, 69095.73
186.1257, 68659.54
186.6079, 68197.56
187.0900, 67791.68
187.5721, 67437.05
188.0542, 67082.70
188.5363, 66698.95
189.0184, 66293.13
189.5006, 65871.74
189.9827, 65426.07
190.4648, 64992.49
190.9469, 64660.78
191.4290, 64439.66
191.9111, 64181.30
192.3932, 63765.85
192.8754, 63207.93
193.3575, 62661.42
193.8396, 62141.63
194.3217, 61649.31
194.8038, 61208.21
195.2859, 60822.48
195.7681, 60457.34
196.2502, 60069.84
196.7323, 59661.26
197.2144, 59291.11
197.6965, 58985.51
198.1786, 58725.81
198.6608, 58419.11
199.1429, 58054.20
199.6250, 57680.82
200.1071, 57345.18
200.5892, 57050.92
201.0714, 56750.48
201.5535, 56422.26
202.0356, 56070.29
202.5177, 55759.28
202.9998, 55501.58
203.4819, 55252.36
203.9641, 54953.36
204.4462, 54586.06
204.9283, 54246.52
205.4104, 53983.56
205.8925, 53802.20
206.3746, 53546.48
206.8568, 53196.62
207.3389, 52798.40
207.8210, 52424.92
208.3031, 52079.26
208.7852, 51747.86
209.2673, 51434.35
209.7495, 51148.28
210.2316, 50836.69
210.7137, 50493.31
211.1958, 50132.18
211.6779, 49777.17
212.1600, 49426.95
212.6422, 49083.09
213.1243, 48748.10
213.6064, 48430.81
214.0885, 48097.34
214.5706, 47741.59
215.0527, 47366.97
215.5349, 46984.59
216.0170, 46578.30
216.4991, 46193.75
216.9812, 45860.26
217.4633, 45598.64
217.9454, 45329.48
218.4276, 45037.58
218.9097, 44735.12
219.3918, 44465.95
219.8739, 44250.45
220.3560, 44042.02
220.8381, 43805.65
221.3203, 43528.63
221.8024, 43266.14
222.2845, 43033.58
222.7666, 42825.91
223.2487, 42598.49
223.7308, 42320.43
224.2129, 42066.99
224.6951, 41904.91
225.1772, 41880.73
225.6593, 41842.60
226.1414, 41764.12
226.6235, 41646.55
227.1056, 41530.33
227.5878, 41397.76
228.0699, 41282.62
228.5520, 41219.05
229.0341, 41245.71
229.5162, 41245.67
229.9983, 41184.90
230.4805, 41059.34
230.9626, 40972.36
231.4447, 40944.74
231.9268, 40938.00
232.4089, 40910.86
232.8910, 40851.70
233.3732, 40793.83
233.8553, 40746.85
234.3374, 40713.15
234.8195, 40668.77
235.3016, 40596.00
235.7837, 40527.16
236.2659, 40510.49
236.7480, 40593.70
237.2301, 40647.35
237.7122, 40624.60
238.1943, 40502.25
238.6764, 40431.74
239.1586, 40438.02
239.6407, 40480.38
240.1228, 40496.74
240.6049, 40470.00
241.0870, 40445.89
241.5691, 40440.81
242.0513, 40463.70
242.5334, 40468.17
243.0155, 40445.13
243.4976, 40406.41
243.9797, 40370.77
244.4618, 40331.23
244.9440, 40303.17
245.4261, 40298.30
245.9082, 40336.96
246.3903, 40326.83
246.8724, 40235.46
247.3545, 40108.83
247.8367, 40048.86
248.3188, 40116.20
248.8009, 40154.86
249.2830, 40094.00
249.7651, 39881.52
250.2472, 39724.55
250.7294, 39646.41
251.2115, 39617.69
251.6936, 39570.59
252.1757, 39498.00
252.6578, 39422.39
253.1399, 39352.25
253.6220, 39289.84
254.1042, 39229.87
254.5863, 39172.83
255.0684, 39118.92
255.5505, 39068.19
256.0326, 39016.89
256.5147, 38973.07
256.9969, 38934.59
257.4790, 38887.13
257.9611, 38883.77
258.4432, 38946.63
258.9253, 39046.44
259.4074, 39094.81
259.8896, 39071.04
260.3717, 39030.84
260.8538, 38997.30
261.3359, 38964.92
261.8180, 38956.86
262.3001, 38989.56
262.7823, 39041.61
263.2644, 39041.47
263.7465, 38962.69
264.2286, 38884.15
264.7107, 38859.23
265.1928, 38912.52
265.6750, 38926.38
266.1571, 38873.96
266.6392, 38786.31
267.1213, 38766.64
267.6034, 38845.47
268.0855, 38925.30
268.5677, 38941.68
269.0498, 38874.71
269.5319, 38840.51
270.0140, 38860.77
270.4961, 38914.37
270.9782, 38930.59
271.4604, 38899.31
271.9425, 38860.57
272.4246, 38836.06
272.9067, 38826.02
273.3888, 38832.69
273.8709, 38866.27
274.3531, 38910.29
274.8352, 38907.23
275.3173, 38841.59
275.7994, 38779.31
276.2815, 38773.81
276.7636, 38832.93
277.2458, 38857.11
277.7279, 38829.45
278.2100, 38764.04
278.6921, 38698.29
279.1742, 38632.00
279.6563, 38563.17
280.1385, 38485.96
280.6206, 38400.68
281.1027, 38331.14
281.5848, 38290.84
282.0669, 38257.91
282.5490, 38174.62
283.0312, 38037.33
283.5133, 37880.94
283.9954, 37727.68
284.4775, 37576.76
284.9596, 37417.03
285.4417, 37245.94
285.9239, 37066.26
286.4060, 36875.80
286.8881, 36675.25
287.3702, 36488.72
287.8523, 36338.82
288.3344, 36220.46
288.8166, 36102.02
289.2987, 35980.36
289.7808, 35853.37
290.2629, 35718.93
290.7450, 35577.80
291.2271, 35423.52
291.7093, 35251.61
292.1914, 35063.23
292.6735, 34857.42
293.1556, 34631.78
293.6377, 34404.11
294.1198, 34208.77
294.6020, 34043.24
295.0841, 33884.70
295.5662, 33723.27
296.0483, 33557.17
296.5304, 33377.62
297.0125, 33177.81
297.4947, 32983.01
297.9768, 32839.75
298.4589, 32738.85
298.9410, 32636.89
299.4231, 32499.17
299.9052, 32342.45
300.3873, 32203.20
300.8694, 32087.67
301.3516, 31979.49
301.8337, 31852.75
302.3158, 31713.32
302.7979, 31587.60
303.2800, 31505.01
303.7621, 31437.57
304.2443, 31345.22
304.7264, 31222.71
305.2085, 31081.62
305.6906, 30922.74
306.1727, 30753.05
306.6548, 30584.80
307.1370, 30431.10
307.6191, 30281.70
308.1012, 30126.67
308.5833, 29966.54
309.0654, 29808.02
309.5475, 29657.26
310.0297, 29514.38
310.5118, 29376.89
310.9939, 29252.04
311.4760, 29128.93
311.9581, 28993.26
312.4402, 28840.31
312.9224, 28699.27
313.4045, 28592.38
313.8866, 28505.21
314.3687, 28418.22
314.8508, 28326.77
315.3329, 28230.80
315.8151, 28132.64
316.2972, 28032.10
316.7793, 27921.93
317.2614, 27773.37
317.7435, 27620.91
318.2256, 27505.49
318.7078, 27482.30
319.1899, 27461.06
319.6720, 27399.25
320.1541, 27291.84
320.6362, 27197.80
321.1183, 27144.65
321.6005, 27108.76
322.0826, 27067.91
322.5647, 27022.21
323.0468, 26965.37
323.5289, 26886.36
324.0110, 26783.99
324.4932, 26699.75
324.9753, 26657.21
325.4574, 26626.99
325.9395, 26587.07
326.4216, 26534.29
326.9037, 26472.85
327.3859, 26399.20
327.8680, 26313.95
328.3501, 26233.21
328.8322, 26155.11
329.3143, 26084.45
329.7964, 26024.47
330.2786, 25988.88
330.7607, 25945.19
331.2428, 25887.41
331.7249, 25818.86
332.2070, 25756.85
332.6891, 25710.78
333.1713, 25660.98
333.6534, 25593.61
334.1355, 25490.93
334.6176, 25410.75
335.0997, 25362.39
335.5818, 25337.75
336.0640, 25308.63
336.5461, 25270.41
337.0282, 25234.99
337.5103, 25211.18
337.9924, 25205.50
338.4745, 25178.20
338.9567, 25117.86
339.4388, 25043.41
339.9209, 24997.89
340.4030, 24988.46
340.8851, 24979.43
341.3672, 24955.15
341.8494, 24915.47
342.3315, 24868.93
342.8136, 24811.90
343.2957, 24757.24
343.7778, 24730.20
344.2599, 24732.42
344.7421, 24728.28
345.2242, 24687.91
345.7063, 24622.96
346.1884, 24609.65
346.6705, 24655.56
347.1526, 24712.66
347.6348, 24710.51
348.1169, 24660.89
348.5990, 24631.83
349.0811, 24664.47
349.5632, 24729.82
350.0453, 24771.84
350.5275, 24789.48
351.0096, 24789.62
351.4917, 24773.98
351.9738, 24745.31
352.4559, 24709.75
352.9380, 24665.73
353.4202, 24620.07
353.9023, 24577.73
354.3844, 24540.29
354.8665, 24516.97
355.3486, 24528.43
355.8307, 24554.40
356.3129, 24568.36
356.7950, 24558.69
357.2771, 24541.68
357.7592, 24523.56
358.2413, 24506.43
358.7234, 24497.93
359.2056, 24515.80
359.6877, 24535.75
360.1698, 24534.45
360.6519, 24490.09
361.1340, 24458.50
361.6161, 24482.63
362.0982, 24536.29
362.5804, 24563.50
363.0625, 24521.13
363.5446, 24466.23
364.0267, 24425.45
364.5088, 24403.74
364.9909, 24391.08
365.4731, 24397.54
365.9552, 24409.37
366.4373, 24406.93
366.9194, 24381.30
367.4015, 24347.68
367.8836, 24305.40
368.3658, 24249.35
368.8479, 24210.56
369.3300, 24202.01
369.8121, 24204.42
370.2942, 24199.15
370.7763, 24177.10
371.2585, 24159.69
371.7406, 24152.29
372.2227, 24154.14
372.7048, 24147.29
373.1869, 24121.59
373.6690, 24098.57
374.1512, 24098.95
374.6333, 24138.74
375.1154, 24153.77
375.5975, 24133.29
376.0796, 24083.41
376.5617, 24025.45
377.0439, 23956.90
377.5260, 23890.48
378.0081, 23835.55
378.4902, 23792.54
378.9723, 23754.61
379.4544, 23722.96
379.9366, 23694.69
380.4187, 23666.27
380.9008, 23638.46
381.3829, 23602.28
381.8650, 23546.54
382.3471, 23477.01
382.8293, 23420.18
383.3114, 23376.86
383.7935, 23342.62
384.2756, 23311.40
384.7577, 23283.43
385.2398, 23261.34
385.7220, 23255.65
386.2041, 23250.88
386.6862, 23219.10
387.1683, 23159.69
387.6504, 23095.69
388.1325, 23044.63
388.6147, 23000.59
389.0968, 22956.46
389.5789, 22912.22
390.0610, 22864.73
390.5431, 22812.68
391.0252, 22756.66
391.5074, 22697.78
391.9895, 22641.12
392.4716, 22579.77
392.9537, 22505.10
393.4358, 22397.73
393.9179, 22310.22
394.4001, 22277.86
394.8822, 22279.98
395.3643, 22268.94
395.8464, 22229.43
396.3285, 22174.36
396.8106, 22103.52
397.2928, 22003.16
397.7749, 21926.62
398.2570, 21904.98
398.7391, 21902.38
399.2212, 21871.98
399.7033, 21796.83
400.1855, 21710.90
400.6676, 21616.33
401.1497, 21513.18
401.6318, 21416.76
402.1139, 21322.13
402.5960, 21239.79
403.0782, 21181.05
403.5603, 21156.77
404.0424, 21129.64
404.5245, 21093.98
405.0066, 21052.03
405.4887, 21010.70
405.9709, 20968.58
406.4530, 20930.72
406.9351, 20901.33
407.4172, 20880.76
407.8993, 20859.46
408.3814, 20838.21
408.8636, 20812.91
409.3457, 20772.78
409.8278, 20718.34
410.3099, 20666.31
410.7920, 20626.86
411.2741, 20596.61
411.7563, 20562.48
412.2384, 20522.38
412.7205, 20490.96
413.2026, 20495.37
413.6847, 20520.24
414.1668, 20525.05
414.6490, 20468.84
415.1311, 20404.74
415.6132, 20402.55
416.0953, 20455.18
416.5774, 20501.59
417.0595, 20510.24
417.5417, 20489.43
418.0238, 20444.61
418.5059, 20361.84
418.9880, 20282.14
419.4701, 20223.56
419.9522, 20184.81
420.4344, 20163.96
420.9165, 20188.71
421.3986, 20209.51
421.8807, 20198.00
422.3628, 20139.80
422.8449, 20089.01
423.3270, 20073.67
423.8091, 20066.13
424.2913, 20031.01
424.7734, 19910.66
425.2555, 19822.12
425.7376, 19805.59
426.2197, 19863.40
426.7018, 19868.65
427.1840, 19784.62
427.6661, 19685.62
428.1482, 19627.48
428.6303, 19627.11
429.1124, 19621.88
429.5945, 19606.41
430.0767, 19581.64
430.5588, 19546.91
431.0409, 19498.74
431.5230, 19454.72
432.0051, 19432.98
432.4872, 19432.55
432.9694, 19398.85
433.4515, 19323.57
433.9336, 19235.15
434.4157, 19176.83
434.8978, 19144.11
435.3799, 19102.14
435.8621, 19033.01
436.3442, 18947.01
436.8263, 18861.06
437.3084, 18775.07
437.7905, 18699.13
438.2726, 18642.81
438.7548, 18601.30
439.2369, 18571.12
439.7190, 18569.05
440.2011, 18549.09
440.6832, 18450.20
441.1653, 18299.70
441.6475, 18176.57
442.1296, 18129.41
442.6117, 18114.92
443.0938, 18112.42
443.5759, 18127.49
444.0580, 18122.81
444.5402, 18079.48
445.0223, 18012.29
445.5044, 17939.41
445.9865, 17841.88
446.4686, 17761.99
446.9507, 17720.24
447.4329, 17717.57
447.9150, 17695.70
448.3971, 17627.20
448.8792, 17564.06
449.3613, 17539.36
449.8434, 17573.25
450.3256, 17602.75
450.8077, 17628.59
451.2898, 17645.33
451.7719, 17631.41
452.2540, 17574.03
452.7361, 17529.09
453.2183, 17528.17
453.7004, 17570.23
454.1825, 17596.70
454.6646, 17606.39
455.1467, 17604.26
455.6288, 17590.01
456.1110, 17566.31
456.5931, 17550.79
457.0752, 17551.76
457.5573, 17562.17
458.0394, 17564.65
458.5215, 17561.77
459.0037, 17573.99
459.4858, 17641.01
459.9679, 17723.46
460.4500, 17759.66
460.9321, 17726.60
461.4142, 17688.37
461.8964, 17684.85
462.3785, 17708.54
462.8606, 17744.86
463.3427, 17788.37
463.8248, 17843.31
464.3069, 17923.35
464.7891, 18032.45
465.2712, 18109.86
465.7533, 18089.47
466.2354, 18059.70
466.7175, 18088.49
467.1996, 18256.82
467.6818, 18394.54
468.1639, 18475.11
468.6460, 18515.09
469.1281, 18574.45
469.6102, 18655.31
470.0923, 18751.31
470.5745, 18864.95
471.0566, 19001.13
471.5387, 19122.52
472.0208, 19223.33
472.5029, 19319.17
472.9850, 19431.60
473.4672, 19561.47
473.9493, 19696.44
474.4314, 19834.11
474.9135, 19974.91
475.3956, 20116.32
475.8777, 20260.17
476.3599, 20415.84
476.8420, 20595.41
477.3241, 20791.29
477.8062, 20982.35
478.2883, 21159.48
478.7704, 21347.60
479.2526, 21579.70
479.7347, 21841.04
480.2168, 22096.05
480.6989, 22323.04
481.1810, 22544.44
481.6631, 22776.02
482.1453, 23017.30
482.6274, 23254.20
483.1095, 23476.79
483.5916, 23691.65
484.0737, 23900.13
484.5558, 24085.59
485.0379, 24287.56
485.5201, 24527.66
486.0022, 24787.35
486.4843, 25015.30
486.9664, 25193.15
487.4485, 25362.82
487.9306, 25538.71
488.4128, 25721.35
488.8949, 25908.45
489.3770, 26108.00
489.8591, 26304.40
490.3412, 26479.89
490.8233, 26634.96
491.3055, 26776.07
491.7876, 26898.19
492.2697, 27011.14
492.7518, 27143.12
493.2339, 27292.32
493.7160, 27442.84
494.1982, 27587.04
494.6803, 27723.64
495.1624, 27838.81
495.6445, 27929.21
496.1266, 28027.05
496.6087, 28179.67
497.0909, 28359.46
497.5730, 28522.10
498.0551, 28623.05
498.5372, 28725.79
499.0193, 28890.08
499.5014, 29098.79
499.9836, 29270.47
500.4657, 29351.54
500.9478, 29401.77
501.4299, 29450.05
501.9120, 29485.32
502.3941, 29552.92
502.8763, 29670.26
503.3584, 29818.51
503.8405, 29973.73
504.3226, 30145.93
504.8047, 30308.20
505.2868, 30455.49
505.7690, 30587.39
506.2511, 30704.13
506.7332, 30795.11
507.2153, 30894.39
507.6974, 31037.47
508.1795, 31224.61
508.6617, 31371.23
509.1438, 31464.22
509.6259, 31534.10
510.1080, 31625.12
510.5901, 31733.93
511.0722, 31838.48
511.5544, 31916.03
512.0365, 31992.14
512.5186, 32110.29
513.0007, 32267.58
513.4828, 32428.84
513.9650, 32575.75
514.4471, 32710.88
514.9292, 32834.02
515.4113, 32938.24
515.8934, 33047.39
516.3755, 33185.78
516.8576, 33333.63
517.3397, 33462.21
517.8218, 33521.68
518.3040, 33602.96
518.7861, 33740.14
519.2682, 33936.55
519.7503, 34127.34
520.2324, 34324.09
520.7145, 34505.33
521.1967, 34654.08
521.6788, 34758.55
522.1609, 34870.49
522.6430, 34998.99
523.1251, 35128.27
523.6072, 35215.57
524.0894, 35254.29
524.5715, 35327.76
525.0536, 35480.25
525.5357, 35683.93
526.0178, 35857.43
526.4999, 36001.23
526.9821, 36131.60
527.4642, 36265.04
527.9463, 36393.74
528.4284, 36496.39
528.9105, 36563.22
529.3926, 36628.71
529.8748, 36719.25
530.3569, 36827.98
530.8390, 36941.56
531.3211, 37058.66
531.8032, 37176.37
532.2853, 37298.95
532.7675, 37426.11
533.2496, 37540.90
533.7317, 37619.41
534.2138, 37702.05
534.6959, 37815.40
535.1780, 37989.99
535.6602, 38134.66
536.1423, 38243.27
536.6244, 38329.25
537.1065, 38407.02
537.5886, 38464.84
538.0707, 38555.57
538.5529, 38705.64
539.0350, 38896.81
539.5171, 39053.43
539.9992, 39173.65
540.4813, 39275.98
540.9634, 39359.80
541.4456, 39435.31
541.9277, 39530.54
542.4098, 39647.68
542.8919, 39782.38
543.3740, 39953.25
543.8561, 40132.65
544.3383, 40270.52
544.8204, 40316.31
545.3025, 40343.81
545.7846, 40388.29
546.2667, 40449.02
546.7488, 40522.28
547.2310, 40641.49
547.7131, 40744.79
548.1952, 40796.68
548.6773, 40768.99
549.1594, 40763.69
549.6415, 40784.90
550.1237, 40828.66
550.6058, 40895.46
551.0879, 40998.29
551.5700, 41088.73
552.0521, 41158.48
552.5342, 41211.96
553.0164, 41262.82
553.4985, 41311.66
553.9806, 41351.10
554.4627, 41358.84
554.9448, 41352.07
555.4269, 41410.31
555.9091, 41537.96
556.3912, 41667.26
556.8733, 41732.59
557.3554, 41758.05
557.8375, 41783.68
558.3196, 41827.73
558.8018, 41859.86
559.2839, 41833.39
559.7660, 41781.18
560.2481, 41771.40
560.7302, 41858.50
561.2123, 41963.67
561.6945, 42061.01
562.1766, 42147.71
562.6587, 42224.51
563.1408, 42289.99
563.6229, 42344.74
564.1050, 42387.22
564.5872, 42408.70
565.0693, 42439.04
565.5514, 42478.00
566.0335, 42527.38
566.5156, 42593.66
566.9977, 42677.80
567.4799, 42759.62
567.9620, 42833.78
568.4441, 42900.39
568.9262, 42949.21
569.4083, 42983.34
569.8904, 43030.34
570.3726, 43116.51
570.8547, 43223.56
571.3368, 43327.75
571.8189, 43423.51
572.3010, 43533.10
572.7831, 43679.54
573.2653, 43842.84
573.7474, 43998.32
574.2295, 44127.94
574.7116, 44264.87
575.1937, 44419.60
575.6758, 44590.20
576.1580, 44764.97
576.6401, 44963.87
577.1222, 45143.73
577.6043, 45277.66
578.0864, 45363.08
578.5685, 45514.52
579.0507, 45746.19
579.5328, 46007.47
580.0149, 46274.61
580.4970, 46544.02
580.9791, 46770.97
581.4612, 46944.81
581.9434, 47088.24
582.4255, 47192.33
582.9076, 47282.32
583.3897, 47435.03
583.8718, 47750.82
584.3539, 48088.59
584.8361, 48317.36
585.3182, 48453.64
585.8003, 48589.18
586.2824, 48764.79
586.7645, 48952.90
587.2466, 49140.64
587.7288, 49331.30
588.2109, 49505.12
588.6930, 49625.76
589.1751, 49750.13
589.6572, 49934.13
590.1393, 50228.64
590.6215, 50469.65
591.1036, 50628.32
591.5857, 50736.02
592.0678, 50857.95
592.5499, 50992.40
593.0320, 51163.69
593.5142, 51406.58
593.9963, 51691.60
594.4784, 51921.36
594.9605, 52098.95
595.4426, 52251.18
595.9247, 52390.68
596.4069, 52522.74
596.8890, 52651.00
597.3711, 52773.27
597.8532, 52907.18
598.3353, 53072.05
598.8174, 53253.07
599.2996, 53432.54
599.7817, 53613.13
600.2638, 53780.36
600.7459, 53915.04
601.2280, 54031.35
601.7101, 54183.05
602.1923, 54403.59
602.6744, 54602.49
603.1565, 54735.64
603.6386, 54804.03
604.1207, 54899.24
604.6028, 55028.51
