##NAMES=Fluor-uvite
##RRUFFID=R050172
##IDEAL CHEMISTRY=CaMg_3_(Al_5_Mg)(Si_6_O_18_)(BO_3_)_3_(OH)_3_F
##LOCALITY=Pierrepont, New York, USA
##OWNER=RRUFF
##SOURCE=Marcus Origlieri
##DESCRIPTION=Black prismatic crystal
##STATUS=The identification of this mineral has been confirmed by X-ray diffraction and chemical analysis
##URL=rruff.info/R050172
##MEASURED CHEMISTRY=(Ca_0.64_Na_0.36_)(Mg_0.56_Fe^2+^_0.34_Al_0.08_Ti_0.02_)_3_(Mg_1.00_Al_5.00_)(BO_3_)_3_Si_6.00_O_18_((OH)_3.45_F_0.55_)
93.26398, 0.0000000E+00
93.74609, 5.323593
94.22821, 5.166908
94.71033, 5.270329
95.19244, 5.577630
95.67456, 5.885583
96.15668, 6.098138
96.63879, 6.249648
97.12091, 6.452030
97.60303, 6.706634
98.08514, 7.011195
98.56726, 7.371212
99.04938, 7.789363
99.53149, 8.219799
100.0136, 8.595635
100.4957, 8.911440
100.9778, 9.418949
101.4600, 10.18170
101.9421, 11.08493
102.4242, 11.79234
102.9063, 12.21262
103.3884, 12.69893
103.8705, 13.47736
104.3527, 14.65532
104.8348, 15.83344
105.3169, 17.00979
105.7990, 18.16892
106.2811, 19.29642
106.7632, 20.46467
107.2454, 21.51537
107.7275, 22.29810
108.2096, 22.60411
108.6917, 22.94810
109.1738, 23.40111
109.6559, 23.97603
110.1381, 24.57865
110.6202, 25.29107
111.1023, 26.00214
111.5844, 26.60514
112.0665, 26.73738
112.5486, 27.10955
113.0308, 27.92934
113.5129, 29.32065
113.9950, 30.74775
114.4771, 32.16301
114.9592, 33.56200
115.4413, 34.95927
115.9235, 36.41444
116.4056, 37.81890
116.8877, 39.10022
117.3698, 40.24935
117.8519, 41.33046
118.3340, 42.39621
118.8162, 43.41490
119.2983, 44.30709
119.7804, 44.78817
120.2625, 45.27335
120.7446, 46.12017
121.2267, 47.69580
121.7089, 49.25622
122.1910, 50.27382
122.6731, 50.84377
123.1552, 51.41062
123.6373, 52.49075
124.1194, 53.65655
124.6016, 54.37001
125.0837, 54.11311
125.5658, 53.57003
126.0479, 53.38409
126.5300, 53.54990
127.0121, 53.94595
127.4943, 54.48394
127.9764, 55.17364
128.4585, 56.05473
128.9406, 57.17714
129.4227, 58.48547
129.9048, 59.94098
130.3869, 61.56773
130.8691, 63.14961
131.3512, 64.49639
131.8333, 65.39039
132.3154, 65.68408
132.7975, 65.41351
133.2796, 64.82923
133.7618, 64.64670
134.2439, 64.90650
134.7260, 65.46764
135.2081, 66.19596
135.6902, 67.10322
136.1723, 67.94981
136.6545, 68.58418
137.1366, 69.00674
137.6187, 69.45356
138.1008, 69.92265
138.5829, 70.44097
139.0650, 71.21510
139.5472, 72.40492
140.0293, 73.27966
140.5114, 73.28508
140.9935, 72.19561
141.4756, 71.27741
141.9577, 70.59858
142.4399, 70.15997
142.9220, 70.03883
143.4041, 70.36990
143.8862, 70.78145
144.3683, 70.99842
144.8504, 70.90611
145.3326, 70.88773
145.8147, 71.04616
146.2968, 71.36843
146.7789, 71.51118
147.2610, 71.44156
147.7431, 71.23330
148.2253, 70.93002
148.7074, 70.36614
149.1895, 69.94170
149.6716, 69.73535
150.1537, 69.75670
150.6358, 69.87252
151.1180, 70.22703
151.6001, 70.61067
152.0822, 70.79991
152.5643, 70.74654
153.0464, 70.55116
153.5285, 70.19296
154.0107, 69.62158
154.4928, 69.10356
154.9749, 68.67439
155.4570, 68.29539
155.9391, 67.91685
156.4212, 67.52623
156.9034, 67.13668
157.3855, 66.75277
157.8676, 66.38421
158.3497, 66.01172
158.8318, 65.57552
159.3139, 65.13943
159.7961, 64.80776
160.2782, 64.65580
160.7603, 64.57866
161.2424, 64.53886
161.7245, 64.55884
162.2066, 64.55305
162.6888, 64.49491
163.1709, 64.39036
163.6530, 64.25247
164.1351, 64.05753
164.6172, 63.84638
165.0993, 63.63030
165.5815, 63.35118
166.0636, 63.16948
166.5457, 63.28028
167.0278, 63.57605
167.5099, 63.72567
167.9920, 63.40435
168.4742, 62.93614
168.9563, 62.60694
169.4384, 62.50191
169.9205, 62.53496
170.4026, 62.72025
170.8847, 63.02128
171.3669, 63.27851
171.8490, 63.41700
172.3311, 63.45386
172.8132, 63.40297
173.2953, 63.21954
173.7774, 63.00297
174.2596, 62.82722
174.7417, 62.69255
175.2238, 62.60514
175.7059, 62.56443
176.1880, 62.57533
176.6701, 62.64914
177.1523, 62.82548
177.6344, 63.04088
178.1165, 63.21564
178.5986, 63.35273
179.0807, 63.48672
179.5628, 63.65871
180.0450, 63.85112
180.5271, 64.01802
181.0092, 64.09799
181.4913, 64.16405
181.9734, 64.36069
182.4555, 64.69051
182.9377, 65.03682
183.4198, 65.22514
183.9019, 65.32153
184.3840, 65.55926
184.8661, 66.16565
185.3482, 66.94908
185.8304, 67.45276
186.3125, 67.65400
186.7946, 67.74120
187.2767, 67.87866
187.7588, 68.06877
188.2409, 68.31651
188.7231, 68.67286
189.2052, 69.09634
189.6873, 69.42561
190.1694, 69.65209
190.6515, 69.84805
191.1336, 70.08964
191.6158, 70.37762
192.0979, 70.71352
192.5800, 71.09811
193.0621, 71.53218
193.5442, 72.03805
194.0263, 72.63231
194.5085, 73.26525
194.9906, 73.91252
195.4727, 74.57607
195.9548, 75.09725
196.4369, 75.29552
196.9190, 75.20117
197.4012, 75.36395
197.8833, 75.83691
198.3654, 76.44515
198.8475, 76.89812
199.3296, 77.18669
199.8117, 77.44200
200.2939, 77.68619
200.7760, 77.91573
201.2581, 78.28577
201.7402, 78.83904
202.2223, 79.46342
202.7044, 79.92616
203.1866, 80.17973
203.6687, 80.51629
204.1508, 81.16641
204.6329, 82.18887
205.1150, 82.83425
205.5971, 82.98367
206.0793, 82.89308
206.5614, 83.10350
207.0435, 83.71358
207.5256, 84.23374
208.0077, 84.41927
208.4898, 84.22060
208.9720, 84.00161
209.4541, 83.77474
209.9362, 83.51958
210.4183, 83.21128
210.9004, 82.87782
211.3825, 82.41112
211.8647, 81.67859
212.3468, 80.55471
212.8289, 79.78138
213.3110, 79.53323
213.7931, 79.51807
214.2752, 79.02128
214.7574, 77.82679
215.2395, 76.66344
215.7216, 75.91215
216.2037, 75.76977
216.6858, 75.29308
217.1679, 74.29085
217.6500, 73.05681
218.1322, 72.32652
218.6143, 72.27355
219.0964, 72.35007
219.5785, 72.32944
220.0606, 72.19973
220.5427, 71.99629
221.0249, 71.64960
221.5070, 71.26419
221.9891, 71.11632
222.4712, 71.30781
222.9533, 71.54330
223.4354, 71.66353
223.9176, 71.55561
224.3997, 71.67860
224.8818, 72.15087
225.3639, 72.79971
225.8460, 73.20940
226.3281, 73.20704
226.8103, 73.25831
227.2924, 73.56654
227.7745, 74.21955
228.2566, 74.91096
228.7387, 75.65736
229.2208, 76.43800
229.7030, 77.18607
230.1851, 77.91269
230.6672, 78.60378
231.1493, 79.23118
231.6314, 79.71091
232.1135, 80.36686
232.5957, 81.26734
233.0778, 82.31676
233.5599, 83.28624
234.0420, 84.13564
234.5241, 84.96767
235.0062, 85.82307
235.4884, 86.71680
235.9705, 87.56648
236.4526, 88.41164
236.9347, 89.20015
237.4168, 89.85332
237.8989, 90.45412
238.3811, 90.78384
238.8632, 90.74521
239.3453, 90.28014
239.8274, 89.61018
240.3095, 88.72391
240.7916, 87.63628
241.2738, 86.36872
241.7559, 84.90128
242.2380, 83.29160
242.7201, 81.53299
243.2022, 79.52964
243.6843, 77.69769
244.1665, 76.10555
244.6486, 74.63309
245.1307, 73.05664
245.6128, 71.26099
246.0949, 69.55581
246.5770, 68.06181
247.0592, 66.84345
247.5413, 65.55746
248.0234, 64.12051
248.5055, 62.67899
248.9876, 61.51294
249.4697, 60.77325
249.9519, 60.01261
250.4340, 59.04401
250.9161, 57.76691
251.3982, 56.82451
251.8803, 56.35319
252.3624, 56.11356
252.8446, 55.78958
253.3267, 55.34205
253.8088, 54.88512
254.2909, 54.44660
254.7730, 54.02592
255.2551, 53.60830
255.7373, 53.15694
256.2194, 52.74559
256.7015, 52.48565
257.1836, 52.44426
257.6657, 52.39764
258.1478, 52.27269
258.6299, 52.05967
259.1121, 51.95313
259.5942, 52.01820
260.0763, 52.11272
260.5584, 52.07445
261.0405, 51.84922
261.5226, 51.62707
262.0048, 51.43303
262.4869, 51.26971
262.9690, 51.21021
263.4511, 51.32569
263.9332, 51.44292
264.4153, 51.39298
264.8975, 51.13404
265.3796, 50.82817
265.8617, 50.45733
266.3438, 50.04556
266.8259, 49.83876
267.3080, 49.91877
267.7902, 50.05889
268.2723, 50.05819
268.7544, 49.87734
269.2365, 49.70435
269.7186, 49.55455
270.2007, 49.43400
270.6829, 49.41854
271.1650, 49.57512
271.6471, 49.67501
272.1292, 49.50051
272.6113, 48.98711
273.0934, 48.55723
273.5756, 48.26630
274.0577, 48.09572
274.5398, 48.00737
275.0219, 48.03628
275.5040, 48.03421
275.9861, 47.83773
276.4683, 47.39648
276.9504, 47.22196
277.4325, 47.44518
277.9146, 47.88593
278.3967, 48.10073
278.8788, 48.07147
279.3610, 47.91421
279.8431, 47.67373
280.3252, 47.35114
280.8073, 46.98352
281.2894, 46.53104
281.7715, 46.10271
282.2537, 45.94615
282.7358, 46.08633
283.2179, 46.25370
283.7000, 46.32188
284.1821, 46.29408
284.6642, 46.23451
285.1464, 46.13385
285.6285, 46.02678
286.1106, 45.95998
286.5927, 45.93264
287.0748, 45.94175
287.5569, 46.03024
288.0391, 46.17174
288.5212, 46.15023
289.0033, 45.92957
289.4854, 45.70043
289.9675, 45.74011
290.4496, 46.02572
290.9318, 46.28194
291.4139, 46.38852
291.8960, 46.39277
292.3781, 46.42902
292.8602, 46.49447
293.3423, 46.62661
293.8245, 46.96106
294.3066, 47.43255
294.7887, 47.71907
295.2708, 47.60844
295.7529, 47.31330
296.2350, 47.32926
296.7172, 47.65329
297.1993, 47.96085
297.6814, 47.94686
298.1635, 47.69877
298.6456, 47.43932
299.1277, 47.12991
299.6099, 46.94534
300.0920, 47.27540
300.5741, 48.05786
301.0562, 48.82271
301.5383, 49.20675
302.0204, 49.35747
302.5026, 49.55910
302.9847, 49.90725
303.4668, 50.23942
303.9489, 50.33445
304.4310, 50.24314
304.9131, 50.16179
305.3953, 50.19611
305.8774, 50.31163
306.3595, 50.44903
306.8416, 50.58122
307.3237, 50.80333
307.8058, 51.29215
308.2880, 51.93742
308.7701, 52.48993
309.2522, 52.84402
309.7343, 53.04512
310.2164, 53.08429
310.6985, 52.94161
311.1807, 52.83785
311.6628, 52.93616
312.1449, 53.17048
312.6270, 53.43635
313.1091, 53.75800
313.5912, 54.04956
314.0734, 54.24236
314.5555, 54.33442
315.0376, 54.42319
315.5197, 54.63000
316.0018, 54.83342
316.4839, 54.90228
316.9661, 54.67641
317.4482, 54.41894
317.9303, 54.21037
318.4124, 54.05465
318.8945, 53.96997
319.3766, 53.91642
319.8588, 53.96409
320.3409, 54.17308
320.8230, 54.73087
321.3051, 55.22100
321.7872, 55.57461
322.2693, 55.78242
322.7515, 55.81612
323.2336, 55.29057
323.7157, 54.87464
324.1978, 54.94793
324.6799, 55.93142
325.1620, 56.65818
325.6442, 56.71712
326.1263, 56.45521
326.6084, 56.48744
327.0905, 57.26818
327.5726, 57.99205
328.0547, 58.40551
328.5369, 58.40665
329.0190, 58.39202
329.5011, 58.33900
329.9832, 58.28563
330.4653, 58.27535
330.9474, 58.33763
331.4296, 58.40443
331.9117, 58.40490
332.3938, 58.32389
332.8759, 58.54084
333.3580, 59.30967
333.8401, 60.14111
334.3223, 60.61340
334.8044, 60.49541
335.2865, 60.49084
335.7686, 60.69141
336.2507, 61.07541
336.7328, 61.50844
337.2150, 61.97124
337.6971, 62.52089
338.1792, 63.25417
338.6613, 64.26680
339.1434, 65.02569
339.6255, 65.41793
340.1077, 65.60416
340.5898, 65.98681
341.0719, 66.61279
341.5540, 67.21040
342.0361, 67.60473
342.5182, 67.78576
343.0003, 68.09211
343.4825, 68.51914
343.9646, 69.07962
344.4467, 69.84569
344.9288, 70.81016
345.4109, 71.73209
345.8930, 72.48848
346.3752, 73.13230
346.8573, 73.81815
347.3394, 74.54391
347.8215, 75.38094
348.3036, 76.49869
348.7857, 77.82572
349.2679, 79.00241
349.7500, 79.86424
350.2321, 80.60104
350.7142, 81.54337
351.1963, 82.67140
351.6784, 83.84940
352.1606, 84.88289
352.6427, 85.89571
353.1248, 87.19996
353.6069, 88.94664
354.0890, 90.74659
354.5711, 92.13456
355.0533, 93.22233
355.5354, 94.35346
356.0175, 95.86967
356.4996, 97.43129
356.9817, 98.61050
357.4638, 99.32581
357.9460, 100.1166
358.4281, 101.4931
358.9102, 103.1652
359.3923, 104.6886
359.8744, 105.7698
360.3565, 106.7474
360.8387, 107.8595
361.3208, 109.0932
361.8029, 110.1762
362.2850, 111.0057
362.7671, 111.6187
363.2492, 112.0421
363.7314, 112.2108
364.2135, 112.2775
364.6956, 112.3158
365.1777, 112.2938
365.6598, 112.1091
366.1419, 111.6977
366.6241, 111.1463
367.1062, 110.5251
367.5883, 109.9471
368.0704, 109.0548
368.5525, 107.5465
369.0346, 105.7619
369.5168, 104.2035
369.9989, 103.2958
370.4810, 102.1895
370.9631, 100.6438
371.4452, 98.59791
371.9273, 96.56464
372.4095, 94.52469
372.8916, 92.53699
373.3737, 90.63136
373.8558, 88.78382
374.3379, 87.05782
374.8200, 85.44187
375.3022, 83.93806
375.7843, 82.62923
376.2664, 81.58550
376.7485, 80.56337
377.2306, 79.40380
377.7127, 78.06983
378.1949, 76.78817
378.6770, 75.56969
379.1591, 74.42702
379.6412, 73.43742
380.1233, 72.60720
380.6054, 71.79398
381.0876, 70.90617
381.5697, 69.97289
382.0518, 69.18740
382.5339, 68.57597
383.0160, 67.99844
383.4981, 67.28826
383.9803, 66.46884
384.4624, 65.70303
384.9445, 65.03588
385.4266, 64.44868
385.9087, 63.92103
386.3908, 63.44941
386.8730, 62.98362
387.3551, 62.43336
387.8372, 61.87146
388.3193, 61.43663
388.8014, 61.18132
389.2835, 60.96766
389.7657, 60.71511
390.2478, 60.40741
390.7299, 60.01179
391.2120, 59.38976
391.6941, 58.75360
392.1762, 58.29148
392.6584, 58.02633
393.1405, 57.81503
393.6226, 57.63534
394.1047, 57.44958
394.5868, 57.21972
395.0689, 56.88419
395.5511, 56.55198
396.0332, 56.23286
396.5153, 55.93885
396.9974, 55.73149
397.4795, 55.76672
397.9616, 55.79121
398.4438, 55.65988
398.9259, 55.25006
399.4080, 54.87389
399.8901, 54.53051
400.3722, 54.24197
400.8543, 54.05278
401.3365, 54.05604
401.8186, 54.04819
402.3007, 53.98148
402.7828, 53.85247
403.2649, 53.69653
403.7470, 53.52199
404.2292, 53.30999
404.7113, 53.01089
405.1934, 52.52595
405.6755, 52.25950
406.1576, 52.37120
406.6397, 52.70972
407.1219, 52.68603
407.6040, 52.20915
408.0861, 51.72074
408.5682, 51.53290
409.0503, 51.64090
409.5324, 51.52596
410.0146, 51.11283
410.4967, 50.62764
410.9788, 50.44948
411.4609, 50.54187
411.9430, 50.53218
412.4251, 50.19656
412.9073, 49.69500
413.3894, 49.37635
413.8715, 49.23695
414.3536, 49.14363
414.8357, 48.98269
415.3178, 48.79005
415.8000, 48.64019
416.2821, 48.56506
416.7642, 48.50410
417.2463, 48.41325
417.7284, 48.29154
418.2105, 48.13894
418.6927, 47.94052
419.1748, 47.72041
419.6569, 47.47918
420.1390, 47.20859
420.6211, 46.98289
421.1032, 46.89254
421.5854, 46.83898
422.0675, 46.71564
422.5496, 46.31793
423.0317, 46.02853
423.5138, 46.04543
423.9959, 46.30897
424.4781, 46.43613
424.9602, 46.28605
425.4423, 46.04402
425.9244, 45.78373
426.4065, 45.44207
426.8886, 45.20850
427.3708, 45.11306
427.8529, 45.11076
428.3350, 45.14183
428.8171, 45.25556
429.2992, 45.31199
429.7813, 45.27540
430.2635, 45.14747
430.7456, 44.93673
431.2277, 44.58862
431.7098, 44.28032
432.1919, 44.18235
432.6740, 44.31301
433.1562, 44.43875
433.6383, 44.55333
434.1204, 44.61665
434.6025, 44.48310
435.0846, 44.15915
435.5667, 43.92183
436.0489, 43.98338
436.5310, 44.24384
437.0131, 44.40356
437.4952, 44.45719
437.9773, 44.42611
438.4594, 44.25061
438.9415, 44.01070
439.4236, 43.88525
439.9058, 44.00449
440.3879, 44.16706
440.8700, 44.17186
441.3521, 44.05386
441.8342, 43.93528
442.3163, 43.82254
442.7985, 43.77400
443.2806, 43.88428
443.7627, 44.22461
444.2448, 44.44730
444.7269, 44.32616
445.2090, 44.03385
445.6912, 43.77463
446.1733, 43.58020
446.6554, 43.43993
447.1375, 43.31812
447.6196, 43.22480
448.1017, 43.29457
448.5839, 43.82554
449.0660, 44.27795
449.5481, 44.37220
450.0302, 43.84108
450.5123, 43.50071
450.9944, 43.35400
451.4766, 43.39904
451.9587, 43.71479
452.4408, 44.50175
452.9229, 44.98542
453.4050, 44.82365
453.8871, 44.13250
454.3693, 43.91748
454.8514, 44.26894
455.3335, 44.70525
455.8156, 44.79976
456.2977, 44.59357
456.7798, 44.50287
457.2620, 44.61167
457.7441, 44.77367
458.2262, 44.72194
458.7083, 44.51102
459.1904, 44.38891
459.6725, 44.56691
460.1547, 44.86736
460.6368, 45.03201
461.1189, 45.06330
461.6010, 45.08930
462.0831, 45.13269
462.5652, 45.24967
463.0474, 45.52755
463.5295, 46.11900
464.0116, 46.65174
464.4937, 46.91356
464.9758, 46.97838
465.4579, 46.98671
465.9401, 46.86368
466.4222, 46.80155
466.9043, 46.91205
467.3864, 47.23149
467.8685, 47.49757
468.3506, 47.62165
468.8328, 47.71986
469.3149, 47.88008
469.7970, 48.18730
470.2791, 48.40592
470.7612, 48.44333
471.2433, 48.40021
471.7255, 48.57283
472.2076, 49.04847
472.6897, 49.51833
473.1718, 49.85396
473.6539, 50.05354
474.1360, 50.32650
474.6182, 50.69037
475.1003, 51.06492
475.5824, 51.41900
476.0645, 51.73794
476.5466, 51.83730
477.0287, 51.58989
477.5109, 51.26888
477.9930, 51.38284
478.4751, 51.84842
478.9572, 52.26822
479.4393, 52.37159
479.9214, 52.32298
480.4036, 52.28407
480.8857, 52.26136
481.3678, 52.35351
481.8499, 52.77940
482.3320, 53.29673
482.8141, 53.62265
483.2963, 53.52958
483.7784, 53.43223
484.2605, 53.50022
484.7426, 53.68517
485.2247, 53.86856
485.7068, 54.06968
486.1890, 54.22033
486.6711, 54.29369
487.1532, 54.28061
487.6353, 54.22498
488.1174, 54.11441
488.5995, 53.97493
489.0817, 53.81776
489.5638, 53.61206
490.0459, 53.46754
490.5280, 53.39227
491.0101, 53.38543
491.4922, 53.46406
491.9744, 53.64824
492.4565, 53.81788
492.9386, 53.95102
493.4207, 54.03522
493.9028, 53.97182
494.3849, 53.75285
494.8671, 53.46154
495.3492, 53.10511
495.8313, 52.73339
496.3134, 52.50675
496.7955, 52.51333
497.2776, 52.54953
497.7598, 52.39091
498.2419, 52.08652
498.7240, 51.76345
499.2061, 51.37565
499.6882, 51.06956
500.1703, 51.01634
500.6525, 51.21326
501.1346, 51.33201
501.6167, 51.16553
502.0988, 50.91723
502.5809, 50.73952
503.0630, 50.74129
503.5452, 50.67956
504.0273, 50.52450
504.5094, 50.28596
504.9915, 49.97296
505.4736, 49.45518
505.9557, 49.06191
506.4379, 48.93034
506.9200, 49.03850
507.4021, 48.97474
507.8842, 48.68309
508.3663, 48.34550
508.8484, 48.06434
509.3306, 47.83908
509.8127, 47.70221
510.2948, 47.66747
510.7769, 47.68765
511.2590, 47.72166
511.7411, 47.76102
512.2233, 47.75751
512.7054, 47.68471
513.1875, 47.56765
513.6696, 47.40236
514.1517, 47.20758
514.6339, 47.08609
515.1160, 47.23355
515.5981, 47.41090
516.0802, 47.36177
516.5623, 47.00840
517.0444, 46.67154
517.5266, 46.47527
518.0087, 46.38404
518.4908, 46.35904
518.9729, 46.42904
519.4550, 46.52289
519.9371, 46.64793
520.4193, 46.79136
520.9014, 46.89499
521.3835, 46.93850
521.8656, 46.96952
522.3477, 47.00172
522.8298, 47.03393
523.3120, 47.07225
523.7941, 47.10366
524.2762, 47.16552
524.7583, 47.34253
525.2404, 47.64438
525.7225, 47.76777
526.2047, 47.62449
526.6868, 47.36654
527.1689, 47.26049
527.6510, 47.28809
528.1331, 47.33081
528.6152, 47.38311
529.0974, 47.39192
529.5795, 47.21827
530.0616, 46.88198
530.5437, 46.62605
531.0258, 46.71081
531.5079, 46.89725
531.9901, 46.95562
532.4722, 46.80993
532.9543, 46.62759
533.4364, 46.38051
533.9185, 46.16329
534.4006, 46.09953
534.8828, 46.50184
535.3649, 46.74063
535.8470, 46.58941
536.3291, 46.13309
536.8112, 45.85613
537.2933, 45.83668
537.7755, 45.87490
538.2576, 45.90081
538.7397, 45.92329
539.2218, 45.83646
539.7039, 45.60540
540.1860, 45.36267
540.6682, 45.29295
541.1503, 45.37568
541.6324, 45.37091
542.1145, 45.20910
542.5966, 44.97938
543.0787, 44.82336
543.5609, 44.72155
544.0430, 44.60041
544.5251, 44.38261
545.0072, 44.15260
545.4893, 44.02283
545.9714, 43.98537
546.4536, 43.90865
546.9357, 43.69354
547.4178, 43.42925
547.8999, 43.15961
548.3820, 42.81304
548.8641, 42.64553
549.3463, 42.93665
549.8284, 43.35265
550.3105, 43.44453
550.7926, 42.88494
551.2747, 42.49111
551.7568, 42.45548
552.2390, 42.67013
552.7211, 42.64968
553.2032, 42.31872
553.6853, 41.98819
554.1674, 41.82610
554.6495, 41.81908
555.1317, 41.73971
555.6138, 41.57999
556.0959, 41.42560
556.5780, 41.36363
557.0601, 41.37249
557.5422, 41.38587
558.0244, 41.37638
558.5065, 41.40854
558.9886, 41.66524
559.4707, 42.00447
559.9528, 42.13646
560.4349, 41.73389
560.9171, 41.27947
561.3992, 41.03822
561.8813, 40.98535
562.3634, 40.91795
562.8455, 40.63910
563.3276, 40.44874
563.8098, 40.54803
564.2919, 41.09341
564.7740, 41.38469
565.2561, 41.31756
565.7382, 41.09880
566.2203, 40.89123
566.7025, 40.66058
567.1846, 40.59784
567.6667, 40.77014
568.1488, 41.06178
568.6309, 41.27183
569.1130, 41.39982
569.5952, 41.38599
570.0773, 41.08697
570.5594, 40.68924
571.0415, 40.55597
571.5236, 40.66685
572.0057, 40.83270
572.4879, 41.00997
572.9700, 41.13180
573.4521, 41.08628
573.9342, 40.81376
574.4163, 40.62482
574.8984, 40.74566
575.3806, 40.98259
575.8627, 41.14040
576.3448, 41.08591
576.8269, 41.06297
577.3090, 41.13776
577.7911, 41.25666
578.2733, 41.29097
578.7554, 41.18873
579.2375, 41.10302
579.7196, 41.08098
580.2017, 41.11640
580.6838, 41.18124
581.1660, 41.29228
581.6481, 41.33113
582.1302, 41.16336
582.6123, 40.84101
583.0944, 40.54939
583.5765, 40.28814
584.0587, 40.16632
584.5408, 40.47201
585.0229, 40.95976
585.5050, 41.19083
585.9871, 40.88483
586.4692, 40.52919
586.9513, 40.41089
587.4334, 40.45562
