##NAMES=Fluorapatite
##RRUFFID=R050340
##IDEAL CHEMISTRY=Ca_5_(PO_4_)_3_F
##LOCALITY=Buckingham, Quebec, Canada
##OWNER=RRUFF
##SOURCE=California Institute of Technology
##DESCRIPTION=Blue fragment
##STATUS=The identification of this mineral has been confirmed by X-ray diffraction and chemical analysis
##URL=rruff.info/R050340
##MEASURED CHEMISTRY=Ca_5.00_((P_0.98_Si_0.02_)O_4_)_3_F_1.00_
98.13892, 102.5673
98.62103, 106.4443
99.10315, 110.8203
99.58527, 115.6398
100.0674, 120.1028
100.5495, 123.8637
101.0316, 127.9464
101.5137, 133.5244
101.9958, 140.7918
102.4780, 148.9839
102.9601, 157.7191
103.4422, 166.8587
103.9243, 177.5748
104.4064, 190.7311
104.8885, 204.9711
105.3707, 218.1336
105.8528, 229.5630
106.3349, 240.6695
106.8170, 251.8179
107.2991, 262.7421
107.7813, 274.2242
108.2634, 286.4943
108.7455, 299.4150
109.2276, 312.0656
109.7097, 324.8593
110.1918, 337.1945
110.6740, 348.8403
111.1561, 356.6397
111.6382, 367.2882
112.1203, 382.2739
112.6024, 401.1069
113.0845, 419.9828
113.5667, 437.2638
114.0488, 454.8865
114.5309, 474.3651
115.0130, 496.6339
115.4951, 520.0424
115.9772, 544.1852
116.4594, 569.2634
116.9415, 595.3622
117.4236, 623.3994
117.9057, 652.2192
118.3878, 680.4620
118.8699, 706.9664
119.3521, 733.5747
119.8342, 762.7671
120.3163, 795.1202
120.7984, 825.1876
121.2805, 848.5695
121.7626, 867.4852
122.2448, 885.7298
122.7269, 905.8276
123.2090, 925.7526
123.6911, 943.5039
124.1732, 958.7526
124.6553, 972.3215
125.1375, 983.7622
125.6196, 993.8226
126.1017, 1004.870
126.5838, 1018.760
127.0659, 1034.523
127.5480, 1050.029
128.0302, 1064.302
128.5123, 1079.857
128.9944, 1100.365
129.4765, 1125.593
129.9586, 1153.337
130.4407, 1182.911
130.9229, 1213.939
131.4050, 1245.075
131.8871, 1275.235
132.3692, 1305.281
132.8513, 1337.349
133.3334, 1369.537
133.8156, 1394.484
134.2977, 1409.981
134.7798, 1421.099
135.2619, 1432.252
135.7440, 1444.068
136.2261, 1456.625
136.7083, 1472.921
137.1904, 1494.855
137.6725, 1515.012
138.1546, 1527.210
138.6367, 1531.989
139.1188, 1527.056
139.6010, 1509.427
140.0831, 1479.188
140.5652, 1453.112
141.0473, 1432.392
141.5294, 1413.604
142.0115, 1391.761
142.4937, 1363.530
142.9758, 1339.390
143.4579, 1322.531
143.9400, 1314.182
144.4221, 1307.119
144.9042, 1301.548
145.3864, 1297.019
145.8685, 1292.806
146.3506, 1287.838
146.8327, 1284.479
147.3148, 1283.593
147.7969, 1286.121
148.2791, 1288.969
148.7612, 1292.236
149.2433, 1295.806
149.7254, 1299.460
150.2075, 1302.526
150.6896, 1306.264
151.1718, 1311.067
151.6539, 1316.553
152.1360, 1323.648
152.6181, 1332.146
153.1002, 1342.212
153.5823, 1354.312
154.0645, 1371.135
154.5466, 1388.174
155.0287, 1403.315
155.5108, 1415.915
155.9929, 1427.396
156.4750, 1438.851
156.9572, 1449.641
157.4393, 1456.826
157.9214, 1458.177
158.4035, 1456.802
158.8856, 1454.660
159.3677, 1451.838
159.8499, 1448.638
160.3320, 1445.822
160.8141, 1443.093
161.2962, 1438.442
161.7783, 1427.559
162.2604, 1416.190
162.7426, 1409.073
163.2247, 1410.788
163.7068, 1414.238
164.1889, 1416.332
164.6710, 1417.148
165.1531, 1418.530
165.6353, 1422.119
166.1174, 1426.482
166.5995, 1430.071
167.0816, 1431.658
167.5637, 1432.774
168.0458, 1434.396
168.5280, 1436.517
169.0101, 1438.618
169.4922, 1440.729
169.9743, 1442.520
170.4564, 1443.515
170.9385, 1442.037
171.4207, 1440.560
171.9028, 1441.705
172.3849, 1445.673
172.8670, 1449.871
173.3491, 1451.442
173.8312, 1451.863
174.3134, 1453.978
174.7955, 1460.633
175.2776, 1468.970
175.7597, 1475.300
176.2418, 1479.281
176.7239, 1483.127
177.2061, 1490.209
177.6882, 1499.143
178.1703, 1506.025
178.6524, 1508.144
179.1345, 1507.300
179.6166, 1506.522
180.0988, 1506.087
180.5809, 1505.114
181.0630, 1502.714
181.5451, 1498.938
182.0272, 1494.096
182.5093, 1487.955
182.9915, 1480.820
183.4736, 1473.610
183.9557, 1466.386
184.4378, 1458.830
184.9199, 1449.564
185.4020, 1439.084
185.8842, 1429.722
186.3663, 1423.648
186.8484, 1419.939
187.3305, 1415.140
187.8126, 1408.449
188.2947, 1401.907
188.7769, 1399.323
189.2590, 1400.524
189.7411, 1401.876
190.2232, 1400.723
190.7053, 1397.629
191.1874, 1396.166
191.6696, 1396.671
192.1517, 1398.794
192.6338, 1401.963
193.1159, 1406.177
193.5980, 1411.410
194.0801, 1418.280
194.5623, 1426.578
195.0444, 1433.605
195.5265, 1438.700
196.0086, 1442.902
196.4907, 1448.613
196.9728, 1456.014
197.4550, 1463.322
197.9371, 1468.255
198.4192, 1470.704
198.9013, 1477.865
199.3834, 1491.780
199.8655, 1509.216
200.3477, 1521.782
200.8298, 1528.270
201.3119, 1535.250
201.7940, 1547.210
202.2761, 1564.606
202.7582, 1581.808
203.2404, 1598.051
203.7225, 1614.023
204.2046, 1632.004
204.6867, 1652.622
205.1688, 1673.231
205.6509, 1692.410
206.1331, 1710.463
206.6152, 1725.813
207.0973, 1738.037
207.5794, 1747.641
208.0615, 1756.408
208.5436, 1764.877
209.0258, 1771.115
209.5079, 1773.407
209.9900, 1770.976
210.4721, 1768.483
210.9542, 1767.078
211.4363, 1765.580
211.9185, 1759.878
212.4006, 1749.278
212.8827, 1735.823
213.3648, 1720.634
213.8469, 1703.012
214.3290, 1685.368
214.8112, 1666.894
215.2933, 1648.779
215.7754, 1635.249
216.2575, 1628.274
216.7396, 1622.102
217.2217, 1612.658
217.7038, 1597.483
218.1860, 1586.931
218.6681, 1583.447
219.1502, 1584.864
219.6323, 1583.074
220.1144, 1576.439
220.5965, 1569.469
221.0787, 1564.676
221.5608, 1562.358
222.0429, 1561.476
222.5250, 1562.071
223.0071, 1564.080
223.4892, 1567.391
223.9714, 1572.812
224.4535, 1578.346
224.9356, 1582.846
225.4177, 1585.523
225.8998, 1589.075
226.3819, 1593.852
226.8641, 1599.582
227.3462, 1605.300
227.8283, 1611.495
228.3104, 1616.907
228.7925, 1620.399
229.2746, 1619.919
229.7568, 1622.632
230.2389, 1631.276
230.7210, 1642.898
231.2031, 1647.489
231.6852, 1641.818
232.1673, 1633.899
232.6495, 1627.210
233.1316, 1620.896
233.6137, 1618.254
234.0958, 1622.822
234.5779, 1630.439
235.0600, 1628.815
235.5422, 1613.374
236.0243, 1595.287
236.5064, 1579.082
236.9885, 1564.379
237.4706, 1552.664
237.9527, 1545.791
238.4349, 1541.543
238.9170, 1534.179
239.3991, 1521.232
239.8812, 1508.855
240.3633, 1499.952
240.8454, 1496.674
241.3276, 1491.342
241.8097, 1482.375
242.2918, 1472.011
242.7739, 1465.482
243.2560, 1464.931
243.7381, 1464.901
244.2203, 1463.093
244.7024, 1458.141
245.1845, 1455.329
245.6666, 1455.247
246.1487, 1457.033
246.6308, 1459.095
247.1130, 1461.492
247.5951, 1464.080
248.0772, 1466.818
248.5593, 1469.781
249.0414, 1472.656
249.5235, 1475.452
250.0057, 1478.133
250.4878, 1480.721
250.9699, 1483.357
251.4520, 1485.595
251.9341, 1486.830
252.4162, 1486.361
252.8984, 1488.496
253.3805, 1494.273
253.8626, 1501.902
254.3447, 1508.427
254.8268, 1512.931
255.3089, 1518.487
255.7911, 1526.718
256.2732, 1538.422
256.7553, 1545.934
257.2374, 1546.696
257.7195, 1545.814
258.2017, 1549.838
258.6838, 1560.824
259.1659, 1572.054
259.6480, 1581.491
260.1301, 1588.876
260.6122, 1599.703
261.0944, 1615.932
261.5765, 1633.254
262.0586, 1646.553
262.5407, 1653.545
263.0228, 1663.003
263.5049, 1678.121
263.9871, 1698.622
264.4692, 1713.639
264.9513, 1722.207
265.4334, 1727.087
265.9155, 1730.383
266.3976, 1731.384
266.8798, 1733.134
267.3619, 1736.797
267.8440, 1741.882
268.3261, 1743.912
268.8082, 1742.037
269.2903, 1738.893
269.7725, 1736.389
270.2546, 1734.546
270.7367, 1733.349
271.2188, 1732.838
271.7009, 1732.961
272.1830, 1733.687
272.6652, 1735.240
273.1473, 1736.745
273.6294, 1736.811
274.1115, 1734.643
274.5936, 1736.558
275.0757, 1744.675
275.5579, 1756.219
276.0400, 1762.354
276.5221, 1761.817
277.0042, 1760.914
277.4863, 1762.899
277.9684, 1767.788
278.4506, 1776.027
278.9327, 1789.271
279.4148, 1803.839
279.8969, 1811.000
280.3790, 1809.791
280.8611, 1808.035
281.3433, 1809.375
281.8254, 1813.828
282.3075, 1821.021
282.7896, 1832.248
283.2717, 1843.441
283.7538, 1847.122
284.2360, 1843.027
284.7181, 1838.525
285.2002, 1836.850
285.6823, 1837.710
286.1644, 1838.656
286.6465, 1839.763
287.1287, 1840.614
287.6108, 1840.664
288.0929, 1839.919
288.5750, 1838.669
289.0571, 1836.908
289.5392, 1834.703
290.0214, 1832.169
290.5035, 1829.235
290.9856, 1826.633
291.4677, 1825.831
291.9498, 1826.399
292.4319, 1825.541
292.9141, 1821.393
293.3962, 1815.839
293.8783, 1813.552
294.3604, 1814.600
294.8425, 1816.550
295.3246, 1817.882
295.8068, 1818.543
296.2889, 1818.153
296.7710, 1816.134
297.2531, 1813.640
297.7352, 1812.325
298.2173, 1812.187
298.6995, 1813.214
299.1816, 1816.359
299.6637, 1820.580
300.1458, 1823.461
300.6279, 1824.202
301.1100, 1824.278
301.5922, 1825.906
302.0743, 1828.583
302.5564, 1830.342
303.0385, 1829.114
303.5206, 1826.514
304.0027, 1825.230
304.4849, 1826.047
304.9670, 1826.311
305.4491, 1822.743
305.9312, 1816.608
306.4133, 1810.935
306.8954, 1809.237
307.3776, 1807.712
307.8597, 1802.038
308.3418, 1791.638
308.8239, 1780.461
309.3060, 1770.720
309.7881, 1762.182
310.2703, 1754.772
310.7524, 1750.000
311.2345, 1745.118
311.7166, 1737.438
312.1987, 1727.065
312.6808, 1717.820
313.1630, 1713.604
313.6451, 1710.887
314.1272, 1705.811
314.6093, 1694.101
315.0914, 1682.607
315.5735, 1675.406
316.0557, 1671.721
316.5378, 1667.490
317.0199, 1659.658
317.5020, 1651.410
317.9841, 1645.100
318.4662, 1642.901
318.9484, 1640.438
319.4305, 1636.077
319.9126, 1630.360
320.3947, 1624.703
320.8768, 1618.651
321.3589, 1613.430
321.8411, 1609.836
322.3232, 1608.741
322.8053, 1607.455
323.2874, 1604.514
323.7695, 1601.240
324.2516, 1599.731
324.7338, 1603.428
325.2159, 1606.052
325.6980, 1605.176
326.1801, 1599.715
326.6622, 1595.127
327.1443, 1592.115
327.6265, 1589.979
328.1086, 1588.020
328.5907, 1586.696
329.0728, 1585.038
329.5549, 1582.201
330.0370, 1578.152
330.5192, 1576.629
331.0013, 1579.271
331.4834, 1583.043
331.9655, 1585.984
332.4476, 1588.295
332.9297, 1589.391
333.4119, 1588.900
333.8940, 1587.108
334.3761, 1585.107
334.8582, 1582.282
335.3403, 1580.244
335.8224, 1580.085
336.3046, 1582.763
336.7867, 1584.323
337.2688, 1584.286
337.7509, 1583.391
338.2330, 1583.415
338.7151, 1584.963
339.1973, 1585.509
339.6794, 1583.503
340.1615, 1578.779
340.6436, 1575.891
341.1257, 1575.103
341.6078, 1575.703
342.0899, 1577.398
342.5721, 1580.346
343.0542, 1582.175
343.5363, 1581.902
344.0184, 1579.998
344.5005, 1578.178
344.9826, 1576.392
345.4648, 1575.224
345.9469, 1575.486
346.4290, 1577.006
346.9111, 1578.492
347.3932, 1579.730
347.8753, 1580.704
348.3575, 1581.199
348.8396, 1581.234
349.3217, 1581.341
349.8038, 1582.162
350.2859, 1583.268
350.7680, 1583.459
351.2502, 1582.361
351.7323, 1581.157
352.2144, 1581.351
352.6965, 1582.595
353.1786, 1583.844
353.6607, 1584.387
354.1429, 1584.764
354.6250, 1585.710
355.1071, 1587.295
355.5892, 1589.028
356.0713, 1590.846
356.5534, 1592.539
357.0356, 1593.783
357.5177, 1594.574
357.9998, 1594.813
358.4819, 1594.021
358.9640, 1592.411
359.4461, 1591.175
359.9283, 1590.147
360.4104, 1590.168
360.8925, 1592.129
361.3746, 1597.342
361.8567, 1602.533
362.3388, 1607.521
362.8210, 1611.488
363.3031, 1612.727
363.7852, 1606.876
364.2673, 1601.218
364.7494, 1599.324
365.2315, 1602.372
365.7137, 1606.214
366.1958, 1610.912
366.6779, 1615.647
367.1600, 1619.501
367.6421, 1622.655
368.1242, 1624.631
368.6064, 1624.846
369.0885, 1623.192
369.5706, 1622.241
370.0527, 1622.256
370.5348, 1622.786
371.0169, 1623.568
371.4991, 1624.720
371.9812, 1625.915
372.4633, 1626.891
372.9454, 1627.927
373.4275, 1629.990
373.9096, 1633.455
374.3918, 1637.378
374.8739, 1641.680
375.3560, 1647.049
375.8381, 1649.472
376.3202, 1647.439
376.8023, 1644.371
377.2845, 1646.181
377.7666, 1653.866
378.2487, 1660.836
378.7308, 1664.617
379.2129, 1665.711
379.6950, 1666.950
380.1772, 1668.247
380.6593, 1670.130
381.1414, 1673.972
381.6235, 1679.370
382.1056, 1682.488
382.5877, 1681.471
383.0699, 1679.209
383.5520, 1681.690
384.0341, 1688.542
384.5162, 1695.677
384.9983, 1700.787
385.4804, 1704.327
385.9626, 1706.978
386.4447, 1708.588
386.9268, 1710.495
387.4089, 1714.360
387.8910, 1719.581
388.3731, 1724.728
388.8553, 1729.423
389.3374, 1733.585
389.8195, 1736.482
390.3016, 1738.208
390.7837, 1740.895
391.2658, 1747.385
391.7480, 1754.856
392.2301, 1760.415
392.7122, 1763.154
393.1943, 1764.047
393.6764, 1761.928
394.1585, 1758.095
394.6407, 1756.244
395.1228, 1759.936
395.6049, 1764.123
396.0870, 1765.844
396.5691, 1763.408
397.0512, 1762.966
397.5334, 1767.221
398.0155, 1773.621
398.4976, 1778.901
398.9797, 1781.868
399.4618, 1784.627
399.9439, 1787.136
400.4261, 1789.380
400.9082, 1793.020
401.3903, 1798.821
401.8724, 1805.233
402.3545, 1811.374
402.8366, 1817.340
403.3188, 1822.521
403.8009, 1826.161
404.2830, 1829.307
404.7651, 1834.555
405.2472, 1841.916
405.7293, 1851.261
406.2115, 1863.584
406.6936, 1878.955
407.1757, 1890.722
407.6578, 1897.963
408.1399, 1904.215
408.6220, 1913.647
409.1042, 1926.216
409.5863, 1939.483
410.0684, 1952.060
410.5505, 1965.497
411.0326, 1985.563
411.5147, 2012.138
411.9969, 2038.584
412.4790, 2059.235
412.9611, 2076.605
413.4432, 2096.277
413.9253, 2119.306
414.4074, 2144.341
414.8896, 2170.563
415.3717, 2197.769
415.8538, 2225.331
416.3359, 2252.121
416.8180, 2279.460
417.3001, 2307.556
417.7823, 2336.844
418.2644, 2368.312
418.7465, 2403.649
419.2286, 2441.660
419.7107, 2480.564
420.1928, 2518.121
420.6750, 2559.557
421.1571, 2607.645
421.6392, 2661.384
422.1213, 2717.014
422.6034, 2773.592
423.0855, 2831.590
423.5677, 2892.076
424.0498, 2955.444
424.5319, 3018.690
425.0140, 3083.130
425.4961, 3147.234
425.9782, 3209.838
426.4604, 3273.391
426.9425, 3332.168
427.4246, 3386.546
427.9067, 3436.254
428.3888, 3476.930
428.8709, 3511.921
429.3531, 3532.046
429.8352, 3530.629
430.3173, 3504.792
430.7994, 3471.655
431.2815, 3431.688
431.7636, 3384.544
432.2458, 3329.269
432.7279, 3265.530
433.2100, 3198.263
433.6921, 3126.611
434.1742, 3052.828
434.6563, 2986.666
435.1385, 2927.280
435.6206, 2874.099
436.1027, 2826.256
436.5848, 2784.051
437.0669, 2748.726
437.5490, 2721.201
438.0312, 2698.805
438.5133, 2678.279
438.9954, 2660.110
439.4775, 2645.609
439.9596, 2636.509
440.4417, 2630.760
440.9239, 2626.633
441.4060, 2624.043
441.8881, 2623.475
442.3702, 2626.235
442.8523, 2630.695
443.3344, 2635.372
443.8166, 2641.973
444.2987, 2646.225
444.7808, 2645.521
445.2629, 2641.258
445.7450, 2637.542
446.2271, 2636.928
446.7093, 2635.525
447.1914, 2631.708
447.6735, 2624.743
448.1556, 2617.476
448.6377, 2610.949
449.1198, 2603.484
449.6020, 2593.230
450.0841, 2579.557
450.5662, 2564.983
451.0483, 2550.285
451.5304, 2534.908
452.0125, 2516.392
452.4947, 2493.714
452.9768, 2470.580
453.4589, 2448.761
453.9410, 2428.094
454.4231, 2408.389
454.9052, 2389.887
455.3874, 2370.537
455.8695, 2346.041
456.3516, 2317.141
456.8337, 2290.264
457.3158, 2267.203
457.7979, 2247.230
458.2801, 2230.098
458.7622, 2215.440
459.2443, 2199.951
459.7264, 2179.391
460.2085, 2157.601
460.6906, 2140.409
461.1728, 2129.430
461.6549, 2119.601
462.1370, 2107.334
462.6191, 2094.104
463.1012, 2082.347
463.5833, 2074.070
464.0655, 2066.392
464.5476, 2057.492
465.0297, 2047.719
465.5118, 2039.921
465.9939, 2036.172
466.4760, 2033.769
466.9582, 2031.267
467.4403, 2028.093
467.9224, 2025.585
468.4045, 2025.040
468.8866, 2024.635
469.3687, 2021.552
469.8509, 2014.341
470.3330, 2007.158
470.8151, 2000.661
471.2972, 1994.921
471.7793, 1990.708
472.2614, 1988.239
472.7436, 1986.648
473.2257, 1985.780
473.7078, 1985.663
474.1899, 1983.948
474.6720, 1979.902
475.1541, 1975.706
475.6363, 1975.371
476.1184, 1978.231
476.6005, 1980.021
477.0826, 1978.094
477.5647, 1974.622
478.0468, 1973.304
478.5290, 1973.955
479.0111, 1974.902
479.4932, 1972.973
479.9753, 1971.534
480.4574, 1976.242
480.9395, 1991.042
481.4217, 2002.199
481.9038, 1997.546
482.3859, 1984.603
482.8680, 1974.418
483.3501, 1972.275
483.8322, 1971.879
484.3144, 1971.399
484.7965, 1970.751
485.2786, 1969.978
485.7607, 1969.891
486.2428, 1968.994
486.7249, 1966.149
487.2071, 1958.582
487.6892, 1955.150
488.1713, 1957.227
488.6534, 1962.508
489.1355, 1968.747
489.6176, 1978.157
490.0998, 1981.744
490.5819, 1975.422
491.0640, 1961.791
491.5461, 1954.525
492.0282, 1954.255
492.5103, 1955.534
492.9925, 1953.992
493.4746, 1950.552
493.9567, 1950.330
494.4388, 1953.966
494.9209, 1959.208
495.4030, 1964.900
495.8852, 1970.209
496.3673, 1973.131
496.8494, 1971.291
497.3315, 1968.158
497.8136, 1966.209
498.2957, 1965.547
498.7779, 1966.765
499.2600, 1972.530
499.7421, 1978.651
500.2242, 1982.077
500.7063, 1982.024
501.1884, 1981.361
501.6706, 1980.039
502.1527, 1978.984
502.6348, 1979.164
503.1169, 1983.924
503.5990, 1986.078
504.0811, 1983.259
504.5633, 1977.148
505.0454, 1973.956
505.5275, 1974.817
506.0096, 1976.761
506.4917, 1978.684
506.9738, 1980.562
507.4560, 1983.085
507.9381, 1986.668
508.4202, 1989.744
508.9023, 1989.902
509.3844, 1987.387
509.8665, 1986.941
510.3487, 1990.308
510.8308, 1994.547
511.3129, 1993.395
511.7950, 1988.187
512.2772, 1985.128
512.7593, 1990.284
513.2414, 1997.912
513.7235, 2000.605
514.2056, 1998.406
514.6877, 1996.032
515.1699, 1996.900
515.6520, 1998.750
516.1341, 1999.585
516.6162, 1999.115
517.0983, 1997.251
517.5804, 1992.063
518.0626, 1985.804
518.5447, 1982.180
519.0268, 1981.921
519.5089, 1984.293
519.9910, 1990.967
520.4731, 2001.412
520.9553, 2006.594
521.4374, 2003.985
521.9195, 1999.850
522.4016, 1997.693
522.8837, 1998.049
523.3658, 1997.842
523.8480, 1997.095
524.3301, 1995.752
524.8122, 1992.924
525.2943, 1988.841
525.7764, 1987.076
526.2585, 1989.477
526.7407, 1993.761
527.2228, 1994.933
527.7049, 1993.747
528.1870, 1994.518
528.6691, 2003.009
529.1512, 2013.265
529.6334, 2017.827
530.1155, 2016.058
530.5976, 2013.098
531.0797, 2012.187
531.5618, 2011.470
532.0439, 2008.928
532.5261, 2000.735
533.0082, 1995.362
533.4903, 1996.799
533.9724, 2002.275
534.4545, 2005.884
534.9366, 2004.426
535.4188, 2004.196
535.9009, 2007.763
536.3830, 2014.968
536.8651, 2017.494
537.3472, 2013.355
537.8293, 2008.541
538.3115, 2007.044
538.7936, 2009.087
539.2757, 2011.692
539.7578, 2014.832
540.2399, 2018.215
540.7220, 2021.682
541.2042, 2025.116
541.6863, 2028.078
542.1684, 2030.258
542.6505, 2032.118
543.1326, 2034.262
543.6147, 2036.628
544.0969, 2039.092
544.5790, 2041.451
545.0611, 2043.870
545.5432, 2046.572
546.0253, 2049.578
546.5074, 2052.381
546.9896, 2055.123
547.4717, 2057.341
547.9538, 2058.643
548.4359, 2057.917
548.9180, 2057.731
549.4001, 2058.804
549.8823, 2060.407
550.3644, 2061.184
550.8465, 2060.302
551.3286, 2060.194
551.8107, 2061.371
552.2928, 2063.839
552.7750, 2067.962
553.2571, 2074.202
553.7392, 2079.963
554.2213, 2083.184
554.7034, 2084.285
555.1855, 2085.695
555.6677, 2087.455
556.1498, 2089.996
556.6319, 2094.138
557.1140, 2099.325
557.5961, 2104.443
558.0782, 2109.324
558.5604, 2113.770
559.0425, 2116.973
559.5246, 2119.582
560.0067, 2123.042
560.4888, 2128.409
560.9709, 2134.304
561.4531, 2139.518
561.9352, 2144.055
562.4173, 2150.762
562.8994, 2162.454
563.3815, 2174.456
563.8636, 2184.463
564.3458, 2191.446
564.8279, 2199.129
565.3100, 2207.959
565.7921, 2217.058
566.2742, 2224.339
566.7563, 2229.302
567.2385, 2238.093
567.7206, 2252.997
568.2027, 2271.204
568.6848, 2285.245
569.1669, 2295.975
569.6490, 2308.396
570.1312, 2325.769
570.6133, 2346.385
571.0954, 2366.789
571.5775, 2387.405
572.0596, 2411.471
572.5417, 2441.247
573.0239, 2475.608
573.5060, 2513.686
573.9881, 2557.068
574.4702, 2600.279
574.9523, 2639.573
575.4344, 2679.170
575.9166, 2723.917
576.3987, 2779.756
576.8808, 2834.304
577.3629, 2886.434
577.8450, 2936.635
578.3271, 2988.038
578.8093, 3042.350
579.2914, 3092.390
579.7735, 3135.148
580.2556, 3170.339
580.7377, 3199.272
581.2198, 3221.496
581.7020, 3240.208
582.1841, 3254.334
582.6662, 3267.173
583.1483, 3285.133
583.6304, 3307.525
584.1125, 3342.310
584.5947, 3400.960
585.0768, 3475.346
585.5589, 3553.529
586.0410, 3627.374
586.5231, 3708.834
587.0052, 3808.765
587.4873, 3920.523
587.9694, 4024.252
588.4515, 4132.610
588.9337, 4216.469
589.4158, 4271.790
589.8979, 4298.688
590.3800, 4285.606
590.8621, 4230.249
591.3442, 4138.401
591.8264, 4005.534
592.3085, 3827.813
592.7906, 3657.909
593.2727, 3495.242
593.7548, 3346.627
594.2369, 3215.699
594.7191, 3102.788
595.2012, 3012.753
