##NAMES=Fluorapatite
##RRUFFID=R060184
##IDEAL CHEMISTRY=Ca_5_(PO_4_)_3_F
##LOCALITY=Yates mine, Otter Lake, Quebec, Canada
##OWNER=RRUFF
##SOURCE=Lloyd Twaites
##DESCRIPTION=Green colored fragment of a hexagonal prism
##STATUS=The identification of this mineral has been confirmed by X-ray diffraction and chemical analysis
##URL=rruff.info/R060184
##MEASURED CHEMISTRY=(Ca_0.99_Ce_0.01_)_5.00_((P_0.98_Si_0.01_S_0.01_)O_4_)_3_F_1.00_
92.02539, 3862.359
92.50751, 3844.455
92.98962, 3863.964
93.47174, 3888.618
93.95386, 3921.860
94.43597, 3937.073
94.91809, 3927.481
95.40021, 3902.342
95.88232, 3876.666
96.36444, 3849.948
96.84656, 3823.645
97.32867, 3796.071
97.81078, 3771.499
98.29290, 3757.242
98.77502, 3758.858
99.25713, 3774.147
99.73925, 3773.261
100.2214, 3747.499
100.7035, 3719.517
101.1856, 3698.931
101.6677, 3686.175
102.1498, 3675.564
102.6320, 3659.466
103.1141, 3630.631
103.5962, 3615.478
104.0783, 3618.284
104.5604, 3632.119
105.0425, 3652.063
105.5247, 3678.239
106.0068, 3703.959
106.4889, 3715.100
106.9710, 3710.375
107.4531, 3704.386
107.9352, 3699.113
108.4173, 3695.947
108.8995, 3704.282
109.3816, 3737.391
109.8637, 3776.278
110.3458, 3799.404
110.8279, 3801.971
111.3100, 3798.699
111.7922, 3809.354
112.2743, 3840.247
112.7564, 3864.307
113.2385, 3865.608
113.7206, 3860.828
114.2027, 3865.254
114.6849, 3886.462
115.1670, 3918.958
115.6491, 3942.637
116.1312, 3942.688
116.6133, 3951.354
117.0954, 3982.626
117.5776, 4024.826
118.0597, 4059.675
118.5418, 4073.785
119.0239, 4066.746
119.5060, 4067.181
119.9881, 4076.840
120.4703, 4090.411
120.9524, 4106.229
121.4345, 4124.043
121.9166, 4144.812
122.3987, 4171.022
122.8808, 4203.885
123.3630, 4225.948
123.8451, 4230.198
124.3272, 4227.254
124.8093, 4224.546
125.2914, 4222.182
125.7735, 4226.147
126.2557, 4248.381
126.7378, 4284.950
127.2199, 4320.897
127.7020, 4351.758
128.1841, 4377.756
128.6662, 4398.110
129.1483, 4408.127
129.6305, 4418.198
130.1126, 4437.030
130.5947, 4464.019
131.0768, 4492.361
131.5589, 4515.506
132.0410, 4532.488
132.5232, 4552.252
133.0053, 4587.431
133.4874, 4617.914
133.9695, 4627.652
134.4516, 4615.432
134.9337, 4597.925
135.4159, 4601.870
135.8980, 4642.663
136.3801, 4677.046
136.8622, 4706.505
137.3443, 4728.064
137.8264, 4733.840
138.3086, 4721.676
138.7907, 4702.491
139.2728, 4706.704
139.7549, 4767.415
140.2370, 4814.423
140.7191, 4835.953
141.2013, 4841.794
141.6834, 4845.796
142.1655, 4854.728
142.6476, 4867.780
143.1297, 4881.109
143.6118, 4892.078
144.0939, 4905.828
144.5761, 4929.177
145.0582, 4959.184
145.5403, 4981.979
146.0224, 4986.749
146.5045, 4978.212
146.9866, 4973.039
147.4688, 4966.756
147.9509, 4968.251
148.4330, 4989.658
148.9151, 5033.899
149.3972, 5079.987
149.8793, 5119.603
150.3615, 5152.797
150.8436, 5177.652
151.3257, 5190.296
151.8078, 5195.615
152.2899, 5203.631
152.7720, 5212.565
153.2542, 5228.378
153.7363, 5258.046
154.2184, 5294.194
154.7005, 5325.647
155.1826, 5344.143
155.6647, 5351.193
156.1469, 5361.876
156.6290, 5371.250
157.1111, 5390.342
157.5932, 5429.538
158.0753, 5481.400
158.5574, 5530.404
159.0396, 5562.857
159.5217, 5576.496
160.0038, 5594.005
160.4859, 5618.671
160.9680, 5643.693
161.4501, 5666.667
161.9323, 5687.299
162.4144, 5705.670
162.8965, 5720.542
163.3786, 5728.924
163.8607, 5750.839
164.3428, 5800.738
164.8250, 5852.986
165.3071, 5886.181
165.7892, 5897.711
166.2713, 5903.995
166.7534, 5925.413
167.2355, 5964.592
167.7177, 5999.738
168.1998, 6024.556
168.6819, 6045.693
169.1640, 6072.239
169.6461, 6106.860
170.1282, 6143.794
170.6104, 6173.208
171.0925, 6195.945
171.5746, 6225.273
172.0567, 6274.846
172.5388, 6335.878
173.0209, 6380.161
173.5031, 6392.277
173.9852, 6400.688
174.4673, 6432.181
174.9494, 6484.693
175.4315, 6539.918
175.9136, 6586.680
176.3958, 6625.162
176.8779, 6656.701
177.3600, 6668.837
177.8421, 6684.988
178.3242, 6722.266
178.8063, 6779.735
179.2885, 6839.989
179.7706, 6884.148
180.2527, 6907.960
180.7348, 6934.379
181.2169, 6962.895
181.6990, 6995.873
182.1812, 7037.756
182.6633, 7087.961
183.1454, 7138.965
183.6275, 7178.489
184.1096, 7194.657
184.5917, 7225.139
185.0738, 7278.784
185.5560, 7338.125
186.0381, 7391.837
186.5202, 7436.712
187.0023, 7475.830
187.4844, 7513.635
187.9665, 7544.299
188.4487, 7584.102
188.9308, 7638.971
189.4129, 7699.282
189.8950, 7757.537
190.3771, 7810.904
190.8592, 7859.348
191.3414, 7901.528
191.8235, 7929.682
192.3056, 7966.146
192.7877, 8017.420
193.2698, 8076.979
193.7519, 8137.748
194.2341, 8198.023
194.7162, 8255.988
195.1983, 8306.102
195.6804, 8345.735
196.1625, 8388.558
196.6446, 8444.040
197.1268, 8505.858
197.6089, 8558.339
198.0910, 8592.702
198.5731, 8621.060
199.0552, 8662.393
199.5373, 8717.718
200.0195, 8777.650
200.5016, 8849.590
200.9837, 8927.143
201.4658, 8972.417
201.9479, 8950.366
202.4300, 8915.127
202.9122, 8925.901
203.3943, 8986.682
203.8764, 9066.785
204.3585, 9152.090
204.8406, 9242.675
205.3227, 9313.326
205.8048, 9339.427
206.2870, 9356.056
206.7691, 9390.348
207.2512, 9445.029
207.7333, 9500.637
208.2154, 9530.364
208.6975, 9526.682
209.1797, 9542.030
209.6618, 9604.944
210.1439, 9676.527
210.6260, 9732.586
211.1081, 9770.222
211.5902, 9807.734
212.0724, 9875.597
212.5545, 9993.526
213.0366, 10079.39
213.5187, 10105.21
214.0008, 10116.02
214.4829, 10135.04
214.9651, 10168.36
215.4472, 10211.94
215.9293, 10260.85
216.4114, 10318.53
216.8935, 10374.73
217.3756, 10428.17
217.8578, 10481.35
218.3399, 10537.77
218.8220, 10597.33
219.3041, 10656.14
219.7862, 10706.94
220.2683, 10739.86
220.7505, 10784.61
221.2326, 10842.81
221.7147, 10910.44
222.1968, 10990.70
222.6789, 11082.23
223.1610, 11171.22
223.6432, 11235.95
224.1253, 11257.00
224.6074, 11292.81
225.0895, 11348.19
225.5716, 11415.34
226.0537, 11491.00
226.5358, 11573.92
227.0180, 11656.17
227.5001, 11726.19
227.9822, 11779.55
228.4643, 11832.70
228.9464, 11879.60
229.4285, 11929.87
229.9107, 11997.47
230.3928, 12085.99
230.8749, 12177.90
231.3570, 12247.43
231.8391, 12291.99
232.3212, 12343.83
232.8034, 12411.73
233.2855, 12488.00
233.7676, 12564.69
234.2497, 12641.01
234.7318, 12713.93
235.2139, 12775.27
235.6961, 12826.86
236.1782, 12888.71
236.6603, 12967.81
237.1424, 13059.53
237.6245, 13161.40
238.1066, 13277.89
238.5888, 13390.18
239.0709, 13476.32
239.5530, 13543.18
240.0351, 13611.57
240.5172, 13690.82
240.9993, 13775.67
241.4815, 13852.51
241.9636, 13914.82
242.4457, 13985.21
242.9278, 14091.59
243.4099, 14218.39
243.8920, 14332.95
244.3742, 14421.41
244.8563, 14488.04
245.3384, 14535.29
245.8205, 14546.66
246.3026, 14576.80
246.7847, 14664.38
247.2668, 14787.67
247.7490, 14916.05
248.2311, 15045.87
248.7132, 15166.65
249.1953, 15249.29
249.6774, 15272.93
250.1595, 15299.82
250.6417, 15358.31
251.1238, 15434.39
251.6059, 15511.84
252.0880, 15585.17
252.5701, 15653.16
253.0522, 15713.57
253.5344, 15765.38
254.0165, 15810.23
254.4986, 15844.62
254.9807, 15875.14
255.4628, 15907.01
255.9449, 15941.09
256.4271, 15982.33
256.9092, 16046.42
257.3913, 16152.93
257.8734, 16244.49
258.3555, 16294.06
258.8376, 16333.45
259.3198, 16394.96
259.8019, 16491.21
260.2840, 16606.05
260.7661, 16705.84
261.2482, 16782.96
261.7303, 16858.28
262.2125, 16937.21
262.6946, 17014.74
263.1767, 17082.41
263.6588, 17138.87
264.1409, 17195.04
264.6230, 17273.84
265.1052, 17397.37
265.5873, 17499.71
266.0694, 17566.40
266.5515, 17621.88
267.0336, 17676.54
267.5157, 17735.61
267.9979, 17807.50
268.4800, 17908.13
268.9621, 18059.70
269.4442, 18191.16
269.9263, 18307.30
270.4084, 18404.60
270.8906, 18469.63
271.3727, 18506.56
271.8548, 18540.80
272.3369, 18604.34
272.8190, 18707.17
273.3011, 18806.44
273.7833, 18911.89
274.2654, 19006.89
274.7475, 19069.56
275.2296, 19107.26
275.7117, 19153.58
276.1938, 19245.13
276.6760, 19394.06
277.1581, 19514.27
277.6402, 19586.77
278.1223, 19655.59
278.6044, 19733.71
279.0865, 19825.55
279.5686, 19937.84
280.0508, 20080.04
280.5329, 20253.06
281.0150, 20394.78
281.4971, 20471.14
281.9792, 20557.48
282.4613, 20692.43
282.9435, 20860.53
283.4256, 21019.59
283.9077, 21139.42
284.3898, 21228.00
284.8719, 21351.44
285.3540, 21549.93
285.8362, 21732.90
286.3183, 21865.46
286.8004, 21967.08
287.2825, 22071.65
287.7646, 22195.86
288.2467, 22337.53
288.7289, 22492.61
289.2110, 22674.26
289.6931, 22851.52
290.1752, 23016.06
290.6573, 23173.78
291.1394, 23333.18
291.6216, 23498.13
292.1037, 23661.55
292.5858, 23809.28
293.0679, 23924.90
293.5500, 24055.62
294.0321, 24197.70
294.5143, 24360.87
294.9964, 24574.51
295.4785, 24846.81
295.9606, 25116.66
296.4427, 25289.18
296.9248, 25311.84
297.4070, 25396.92
297.8891, 25573.75
298.3712, 25802.56
298.8533, 26071.41
299.3354, 26371.10
299.8175, 26652.56
300.2997, 26858.92
300.7818, 26973.65
301.2639, 27118.33
301.7460, 27314.31
302.2281, 27521.45
302.7102, 27716.39
303.1924, 27897.29
303.6745, 28073.30
304.1566, 28250.80
304.6387, 28429.89
305.1208, 28614.83
305.6029, 28800.09
306.0851, 28996.28
306.5672, 29214.27
307.0493, 29448.89
307.5314, 29684.79
308.0135, 29914.16
308.4956, 30137.37
308.9778, 30352.22
309.4599, 30545.89
309.9420, 30748.52
310.4241, 30972.68
310.9062, 31212.03
311.3883, 31455.08
311.8705, 31698.41
312.3526, 31936.10
312.8347, 32145.98
313.3168, 32306.47
313.7989, 32495.30
314.2810, 32736.12
314.7632, 33010.73
315.2453, 33303.64
315.7274, 33610.91
316.2095, 33919.33
316.6916, 34211.59
317.1737, 34485.04
317.6559, 34756.88
318.1380, 35030.38
318.6201, 35301.78
319.1022, 35554.54
319.5843, 35790.78
320.0664, 36051.68
320.5485, 36386.74
321.0306, 36802.13
321.5128, 37172.46
321.9949, 37478.45
322.4770, 37759.05
322.9591, 38038.13
323.4412, 38314.20
323.9233, 38575.02
324.4055, 38804.22
324.8876, 39011.74
325.3697, 39254.77
325.8518, 39572.01
326.3339, 39877.73
326.8160, 40131.22
327.2982, 40350.08
327.7803, 40579.13
328.2624, 40842.39
328.7445, 41120.46
329.2266, 41359.56
329.7087, 41538.57
330.1909, 41723.34
330.6730, 41946.22
331.1551, 42173.79
331.6372, 42353.27
332.1193, 42468.68
332.6014, 42564.07
333.0836, 42704.93
333.5657, 42911.97
334.0478, 43105.49
334.5299, 43286.11
335.0120, 43449.18
335.4941, 43586.00
335.9763, 43696.99
336.4584, 43799.41
336.9405, 43907.80
337.4226, 44023.18
337.9047, 44136.69
338.3868, 44250.73
338.8690, 44361.97
339.3511, 44471.44
339.8332, 44577.57
340.3153, 44675.40
340.7974, 44762.20
341.2795, 44838.06
341.7617, 44900.85
342.2438, 44959.07
342.7259, 44996.94
343.2080, 44987.65
343.6901, 44961.55
344.1722, 44969.01
344.6544, 45031.54
345.1365, 45121.39
345.6186, 45180.89
346.1007, 45186.67
346.5828, 45195.16
347.0649, 45203.89
347.5471, 45217.04
348.0292, 45244.48
348.5113, 45285.21
348.9934, 45321.88
349.4755, 45333.16
349.9576, 45314.23
350.4398, 45285.71
350.9219, 45230.05
351.4040, 45181.65
351.8861, 45174.96
352.3682, 45194.90
352.8503, 45191.64
353.3325, 45123.44
353.8146, 44996.09
354.2967, 44901.32
354.7788, 44884.62
355.2609, 44848.18
355.7430, 44757.18
356.2252, 44637.75
356.7073, 44529.75
357.1894, 44452.53
357.6715, 44390.18
358.1536, 44299.67
358.6357, 44141.30
359.1179, 44016.52
359.5999, 43962.87
360.0821, 43920.34
360.5642, 43837.60
361.0463, 43706.06
361.5284, 43557.13
362.0105, 43428.17
362.4926, 43323.06
362.9748, 43224.44
363.4569, 43158.89
363.9390, 43075.49
364.4211, 42932.14
364.9032, 42748.82
365.3853, 42585.54
365.8675, 42493.35
366.3496, 42461.43
366.8317, 42384.68
367.3138, 42218.32
367.7959, 42061.65
368.2780, 41925.59
368.7602, 41814.81
369.2423, 41739.35
369.7244, 41705.01
370.2065, 41691.61
370.6886, 41658.90
371.1707, 41598.69
371.6529, 41539.13
372.1350, 41481.03
372.6171, 41426.75
373.0992, 41377.89
373.5813, 41334.73
374.0634, 41294.91
374.5456, 41261.94
375.0277, 41237.19
375.5098, 41188.68
375.9919, 41075.68
376.4740, 40984.17
376.9561, 40971.85
377.4383, 41010.54
377.9204, 41032.86
378.4025, 40988.71
378.8846, 40908.35
379.3667, 40883.56
379.8488, 40940.93
380.3310, 40984.99
380.8131, 40963.36
381.2952, 40915.25
381.7773, 40873.20
382.2594, 40841.79
382.7415, 40834.60
383.2237, 40872.14
383.7058, 40954.17
384.1879, 41049.61
384.6700, 41177.16
385.1521, 41287.05
385.6342, 41330.98
386.1164, 41312.47
386.5985, 41287.70
387.0806, 41263.27
387.5627, 41257.14
388.0448, 41328.62
388.5269, 41505.06
389.0091, 41682.05
389.4912, 41764.56
389.9733, 41790.47
390.4554, 41842.56
390.9375, 41957.64
391.4196, 42086.47
391.9018, 42176.14
392.3839, 42232.66
392.8660, 42309.16
393.3481, 42434.41
393.8302, 42588.63
394.3123, 42729.36
394.7945, 42848.55
395.2766, 42980.74
395.7587, 43153.48
396.2408, 43344.22
396.7229, 43504.49
397.2050, 43621.42
397.6872, 43741.19
398.1693, 43924.98
398.6514, 44180.18
399.1335, 44399.49
399.6156, 44551.76
400.0977, 44690.02
400.5798, 44849.60
401.0620, 45029.73
401.5441, 45214.85
402.0262, 45393.80
402.5083, 45571.32
402.9904, 45768.64
403.4725, 46002.31
403.9547, 46232.32
404.4368, 46439.22
404.9189, 46643.18
405.4010, 46873.46
405.8831, 47137.25
406.3652, 47412.70
406.8474, 47668.91
407.3295, 47903.13
407.8116, 48118.05
408.2937, 48291.78
408.7758, 48467.04
409.2579, 48652.01
409.7401, 48858.57
410.2222, 49115.73
410.7043, 49455.98
411.1864, 49863.77
411.6685, 50211.67
412.1506, 50427.18
412.6328, 50669.14
413.1149, 50980.85
413.5970, 51321.61
414.0791, 51640.75
414.5612, 51922.21
415.0433, 52199.71
415.5255, 52533.70
416.0076, 52951.97
416.4897, 53336.03
416.9718, 53630.10
417.4539, 53928.32
417.9360, 54287.51
418.4182, 54695.15
418.9003, 55088.82
419.3824, 55417.05
419.8645, 55697.15
420.3466, 56015.22
420.8287, 56381.71
421.3109, 56761.47
421.7930, 57174.20
422.2751, 57575.48
422.7572, 57903.40
423.2393, 58132.54
423.7214, 58325.04
424.2036, 58550.43
424.6857, 58806.23
425.1678, 59036.01
425.6499, 59216.71
426.1320, 59380.07
426.6141, 59582.84
427.0963, 59813.20
427.5784, 59971.27
428.0605, 59972.61
428.5426, 59894.01
429.0247, 59862.13
429.5068, 59887.71
429.9890, 59888.75
430.4711, 59823.88
430.9532, 59688.19
431.4353, 59495.63
431.9174, 59234.32
432.3995, 58933.30
432.8817, 58592.96
433.3638, 58225.85
433.8459, 57857.58
434.3280, 57498.75
434.8101, 57133.86
435.2922, 56739.44
435.7744, 56306.98
436.2565, 55877.48
436.7386, 55456.84
437.2207, 55035.17
437.7028, 54613.50
438.1849, 54187.61
438.6671, 53743.88
439.1492, 53272.23
439.6313, 52776.30
440.1134, 52288.89
440.5955, 51803.31
441.0776, 51334.11
441.5598, 50874.98
442.0418, 50439.08
442.5240, 50056.87
443.0061, 49731.63
443.4882, 49416.34
443.9703, 49046.52
444.4524, 48600.11
444.9345, 48199.63
445.4167, 47847.63
445.8988, 47541.56
446.3809, 47317.17
446.8630, 47137.35
447.3451, 46926.02
447.8272, 46633.94
448.3094, 46304.57
448.7915, 46057.77
449.2736, 45931.17
449.7557, 45778.96
450.2378, 45535.84
450.7199, 45272.22
451.2021, 45028.29
451.6842, 44810.87
452.1663, 44621.54
452.6484, 44479.54
453.1305, 44370.82
453.6126, 44231.64
454.0948, 44044.50
454.5769, 43861.64
455.0590, 43737.29
455.5411, 43639.86
456.0232, 43508.13
456.5053, 43294.48
456.9875, 43091.63
457.4696, 43006.23
457.9517, 43008.93
458.4338, 42956.25
458.9159, 42787.27
459.3980, 42569.40
459.8802, 42402.28
460.3623, 42287.63
460.8444, 42179.26
461.3265, 42065.18
461.8086, 41956.84
462.2907, 41880.34
462.7729, 41827.16
463.2550, 41741.19
463.7371, 41574.36
464.2192, 41348.16
464.7013, 41182.89
465.1834, 41131.68
465.6656, 41069.11
466.1477, 40973.74
466.6298, 40859.58
467.1119, 40738.34
467.5940, 40614.20
468.0761, 40493.28
468.5583, 40384.96
469.0404, 40292.49
469.5225, 40186.23
470.0046, 40051.20
470.4867, 39917.65
470.9688, 39782.41
471.4510, 39657.64
471.9331, 39570.21
472.4152, 39536.71
472.8973, 39519.64
473.3794, 39445.15
473.8615, 39301.69
474.3437, 39149.58
474.8258, 38982.63
475.3079, 38824.60
475.7900, 38699.14
476.2721, 38601.13
476.7542, 38495.39
477.2364, 38354.75
477.7185, 38193.46
478.2006, 38038.34
478.6827, 37888.59
479.1648, 37756.08
479.6469, 37657.39
480.1291, 37575.96
480.6112, 37486.28
481.0933, 37394.61
481.5754, 37275.32
482.0575, 37081.24
482.5396, 36858.64
483.0217, 36702.20
483.5038, 36632.84
483.9860, 36584.45
484.4681, 36498.35
484.9502, 36372.15
485.4323, 36227.17
485.9144, 36052.45
486.3965, 35872.02
486.8787, 35679.21
487.3608, 35489.86
487.8429, 35338.41
488.3250, 35237.95
488.8071, 35158.13
489.2892, 35044.84
489.7714, 34877.69
490.2535, 34724.04
490.7356, 34592.54
491.2177, 34464.32
491.6998, 34345.27
492.1819, 34222.07
492.6641, 34062.23
493.1462, 33838.36
493.6283, 33580.55
494.1104, 33380.13
494.5925, 33257.34
495.0746, 33138.44
495.5568, 33018.52
496.0389, 32888.94
496.5210, 32735.57
497.0031, 32560.77
497.4852, 32391.49
497.9673, 32254.63
498.4495, 32138.25
498.9316, 32010.75
499.4137, 31870.06
499.8958, 31721.09
500.3779, 31550.94
500.8600, 31378.50
501.3422, 31244.63
501.8243, 31167.52
502.3064, 31092.77
502.7885, 30989.50
503.2706, 30870.70
503.7527, 30759.69
504.2349, 30662.00
504.7170, 30564.51
505.1991, 30454.93
505.6812, 30331.75
506.1633, 30206.31
506.6454, 30060.42
507.1276, 29932.65
507.6097, 29844.95
508.0918, 29782.24
508.5739, 29726.73
509.0560, 29670.88
509.5381, 29606.91
510.0203, 29518.86
510.5024, 29392.57
510.9845, 29290.67
511.4666, 29238.14
511.9487, 29185.54
512.4308, 29110.88
512.9130, 29021.89
513.3951, 28935.98
513.8772, 28861.74
514.3593, 28794.96
514.8414, 28729.42
515.3235, 28665.47
515.8057, 28597.15
516.2878, 28516.54
516.7699, 28437.18
517.2520, 28366.54
517.7341, 28305.53
518.2162, 28259.92
518.6984, 28270.03
519.1805, 28274.88
519.6626, 28161.98
520.1447, 27942.25
520.6268, 27785.36
521.1089, 27792.14
521.5911, 27886.52
522.0732, 27890.11
522.5553, 27773.70
523.0374, 27672.27
523.5195, 27622.87
524.0016, 27587.63
524.4838, 27535.46
524.9659, 27464.90
525.4480, 27385.50
525.9301, 27301.48
526.4122, 27218.88
526.8943, 27169.62
527.3765, 27204.65
527.8586, 27199.83
528.3407, 27120.59
528.8228, 27016.55
529.3049, 26925.06
529.7870, 26851.70
530.2692, 26782.68
530.7513, 26702.06
531.2334, 26615.00
531.7155, 26557.88
532.1976, 26552.77
532.6797, 26526.47
533.1619, 26416.69
533.6440, 26285.57
534.1261, 26195.24
534.6082, 26157.47
535.0903, 26140.11
535.5724, 26123.67
536.0546, 26112.24
536.5367, 26126.56
537.0188, 26172.80
537.5009, 26192.06
537.9830, 26131.59
538.4651, 26006.37
538.9473, 25908.07
539.4294, 25841.06
539.9115, 25791.92
540.3936, 25776.17
540.8757, 25766.86
541.3578, 25723.12
541.8400, 25640.89
542.3221, 25558.65
542.8042, 25520.16
543.2863, 25526.67
543.7684, 25498.87
544.2505, 25389.10
544.7326, 25302.33
545.2147, 25277.52
545.6968, 25276.24
546.1790, 25248.91
546.6611, 25185.31
547.1432, 25129.26
547.6253, 25150.83
548.1074, 25238.59
548.5895, 25246.10
549.0717, 25125.55
549.5538, 25015.71
550.0359, 25026.97
550.5180, 25095.04
551.0001, 25122.40
551.4822, 25077.36
551.9644, 25029.37
552.4465, 25037.39
552.9286, 25070.28
553.4107, 25055.68
553.8928, 24978.55
554.3749, 24895.63
554.8571, 24860.29
555.3392, 24870.65
555.8213, 24858.32
556.3034, 24787.73
556.7855, 24740.98
557.2676, 24765.76
557.7498, 24812.84
558.2319, 24820.71
558.7140, 24776.95
559.1961, 24716.02
559.6782, 24673.66
560.1603, 24650.21
560.6425, 24634.14
561.1246, 24632.27
561.6067, 24628.19
562.0888, 24613.63
562.5709, 24596.05
563.0530, 24589.25
563.5352, 24597.40
564.0173, 24592.53
564.4994, 24534.93
564.9815, 24444.46
565.4636, 24387.75
565.9457, 24373.96
566.4279, 24379.28
566.9100, 24398.37
567.3921, 24422.55
567.8742, 24422.53
568.3563, 24380.99
568.8384, 24344.29
569.3206, 24337.98
569.8027, 24340.09
570.2848, 24322.96
570.7669, 24283.34
571.2490, 24233.89
571.7311, 24183.91
572.2133, 24134.54
572.6954, 24100.99
573.1775, 24095.70
573.6596, 24089.70
574.1417, 24078.41
574.6238, 24065.46
575.1060, 24055.20
575.5881, 24047.44
576.0702, 24037.17
576.5523, 24016.41
577.0344, 23990.14
577.5165, 23980.02
577.9987, 23991.15
578.4808, 23996.18
578.9629, 23981.02
579.4450, 23954.92
579.9271, 23930.02
580.4092, 23905.98
580.8914, 23886.88
581.3735, 23879.86
581.8556, 23875.07
582.3377, 23862.56
582.8198, 23841.70
583.3019, 23813.00
583.7841, 23775.19
584.2662, 23733.33
584.7483, 23700.99
585.2304, 23675.73
585.7125, 23665.10
586.1946, 23700.65
586.6768, 23722.06
587.1589, 23672.92
587.6410, 23577.21
