##NAMES=Fluorite
##RRUFFID=R050115
##IDEAL CHEMISTRY=CaF_2_
##LOCALITY=Isthak Valley Iskardu, N.A. Gilgit, Pakistan
##OWNER=RRUFF
##SOURCE=Syed Shah
##DESCRIPTION=Colorless fragment
##STATUS=The identification of this mineral has been confirmed by X-ray diffraction and chemical analysis
##URL=rruff.info/R050115
##MEASURED CHEMISTRY=CaF_2_
109.3450, 6396.041
109.8272, 6413.125
110.3093, 6458.747
110.7914, 6527.327
111.2735, 6595.733
111.7556, 6667.773
112.2377, 6733.234
112.7199, 6785.255
113.2020, 6827.422
113.6841, 6868.661
114.1662, 6918.674
114.6483, 6982.620
115.1304, 7032.831
115.6126, 7050.271
116.0947, 7070.417
116.5768, 7113.343
117.0589, 7182.216
117.5410, 7265.005
118.0231, 7342.852
118.5053, 7411.155
118.9874, 7480.269
119.4695, 7561.855
119.9516, 7640.033
120.4337, 7693.601
120.9158, 7711.720
121.3980, 7705.890
121.8801, 7714.868
122.3622, 7748.679
122.8443, 7780.962
123.3264, 7802.208
123.8085, 7814.386
124.2907, 7824.432
124.7728, 7835.611
125.2549, 7847.924
125.7370, 7860.658
126.2191, 7876.776
126.7012, 7891.587
127.1834, 7901.905
127.6655, 7908.367
128.1476, 7907.133
128.6297, 7881.381
129.1118, 7845.243
129.5939, 7827.150
130.0761, 7850.702
130.5582, 7902.677
131.0403, 7938.673
131.5224, 7946.059
132.0045, 7951.535
132.4866, 7970.982
132.9688, 8001.953
133.4509, 8034.796
133.9330, 8062.979
134.4151, 8086.663
134.8972, 8104.569
135.3793, 8106.764
135.8615, 8110.348
136.3436, 8123.591
136.8257, 8147.685
137.3078, 8178.232
137.7899, 8207.751
138.2720, 8230.181
138.7542, 8264.608
139.2363, 8315.008
139.7184, 8373.662
140.2005, 8436.646
140.6826, 8501.861
141.1647, 8567.325
141.6469, 8626.813
142.1290, 8664.993
142.6111, 8713.998
143.0932, 8786.879
143.5753, 8871.381
144.0574, 8945.882
144.5396, 8995.858
145.0217, 9026.367
145.5038, 9084.106
145.9859, 9188.729
146.4680, 9294.870
146.9502, 9378.257
147.4323, 9442.815
147.9144, 9513.854
148.3965, 9613.035
148.8786, 9740.291
149.3607, 9858.173
149.8429, 9957.583
150.3250, 10053.09
150.8071, 10157.72
151.2892, 10273.44
151.7713, 10395.65
152.2534, 10526.16
152.7356, 10662.21
153.2177, 10792.79
153.6998, 10917.74
154.1819, 11034.12
154.6640, 11133.98
155.1461, 11209.53
155.6283, 11277.20
156.1104, 11349.26
156.5925, 11425.63
157.0746, 11504.32
157.5567, 11591.35
158.0388, 11685.88
158.5210, 11759.47
159.0031, 11798.74
159.4852, 11819.73
159.9673, 11831.86
160.4494, 11835.92
160.9315, 11827.45
161.4137, 11798.76
161.8958, 11744.37
162.3779, 11686.54
162.8600, 11623.68
163.3421, 11561.14
163.8242, 11504.55
164.3064, 11455.39
164.7885, 11407.90
165.2706, 11348.94
165.7527, 11269.14
166.2348, 11192.53
166.7169, 11125.73
167.1991, 11062.10
167.6812, 10994.00
168.1633, 10917.11
168.6454, 10834.94
169.1275, 10760.75
169.6096, 10700.58
170.0918, 10642.95
170.5739, 10585.92
171.0560, 10530.49
171.5381, 10478.97
172.0202, 10432.82
172.5023, 10391.87
172.9845, 10350.36
173.4666, 10305.59
173.9487, 10263.00
174.4308, 10224.16
174.9129, 10188.97
175.3951, 10156.81
175.8772, 10127.53
176.3593, 10101.26
176.8414, 10073.64
177.3235, 10050.99
177.8056, 10022.49
178.2878, 9973.287
178.7699, 9903.457
179.2520, 9837.547
179.7341, 9799.930
180.2162, 9790.681
180.6983, 9784.757
181.1805, 9787.612
181.6626, 9789.104
182.1447, 9775.870
182.6268, 9744.628
183.1089, 9704.977
183.5910, 9659.840
184.0732, 9610.719
184.5553, 9575.816
185.0374, 9566.700
185.5195, 9576.107
186.0016, 9589.323
186.4837, 9609.183
186.9659, 9623.383
187.4480, 9619.425
187.9301, 9598.900
188.4122, 9575.449
188.8943, 9555.912
189.3764, 9540.194
189.8586, 9526.127
190.3407, 9508.049
190.8228, 9497.842
191.3049, 9504.961
191.7870, 9529.662
192.2691, 9561.420
192.7513, 9591.661
193.2334, 9620.180
193.7155, 9648.985
194.1976, 9676.290
194.6797, 9705.748
195.1618, 9741.001
195.6440, 9782.551
196.1261, 9825.505
196.6082, 9863.475
197.0903, 9895.428
197.5724, 9925.786
198.0546, 9960.044
198.5367, 9990.269
199.0188, 10005.60
199.5009, 10003.20
199.9830, 9997.886
200.4651, 10019.11
200.9473, 10084.58
201.4294, 10145.49
201.9115, 10204.90
202.3936, 10254.26
202.8757, 10282.00
203.3578, 10283.11
203.8400, 10268.93
204.3221, 10269.99
204.8042, 10300.87
205.2863, 10329.19
205.7684, 10354.22
206.2505, 10374.27
206.7327, 10388.23
207.2148, 10395.55
207.6969, 10395.79
208.1790, 10386.87
208.6611, 10351.59
209.1432, 10325.73
209.6254, 10316.89
210.1075, 10319.87
210.5896, 10325.90
211.0717, 10329.68
211.5538, 10332.98
212.0359, 10348.86
212.5181, 10397.22
213.0002, 10435.42
213.4823, 10448.53
213.9644, 10443.27
214.4465, 10431.62
214.9286, 10418.29
215.4108, 10405.58
215.8929, 10421.21
216.3750, 10491.21
216.8571, 10556.66
217.3392, 10593.19
217.8214, 10605.20
218.3035, 10608.98
218.7856, 10612.89
219.2677, 10618.27
219.7498, 10635.86
220.2319, 10671.76
220.7141, 10712.77
221.1962, 10755.80
221.6783, 10799.36
222.1604, 10836.96
222.6425, 10860.85
223.1246, 10873.06
223.6068, 10898.66
224.0889, 10954.08
224.5710, 11010.26
225.0531, 11040.61
225.5352, 11045.75
226.0173, 11054.89
226.4995, 11089.84
226.9816, 11149.39
227.4637, 11212.91
227.9458, 11289.98
228.4279, 11364.07
228.9100, 11417.88
229.3922, 11450.20
229.8743, 11475.86
230.3564, 11501.43
230.8385, 11528.76
231.3206, 11564.76
231.8027, 11613.77
232.2849, 11670.64
232.7670, 11732.40
233.2491, 11800.55
233.7312, 11863.90
234.2133, 11913.52
234.6954, 11951.50
235.1776, 11980.16
235.6597, 11978.42
236.1418, 11975.23
236.6239, 12018.90
237.1060, 12120.23
237.5881, 12233.58
238.0703, 12334.34
238.5524, 12423.47
239.0345, 12498.15
239.5166, 12552.20
239.9987, 12592.67
240.4808, 12632.00
240.9630, 12669.83
241.4451, 12708.02
241.9272, 12746.75
242.4093, 12786.81
242.8914, 12830.37
243.3735, 12879.70
243.8557, 12933.16
244.3378, 12990.11
244.8199, 13057.32
245.3020, 13112.52
245.7841, 13137.86
246.2662, 13143.43
246.7484, 13146.48
247.2305, 13152.47
247.7126, 13161.98
248.1947, 13178.27
248.6768, 13206.26
249.1589, 13231.19
249.6411, 13246.66
250.1232, 13253.92
250.6053, 13254.44
251.0874, 13243.93
251.5695, 13227.68
252.0517, 13223.38
252.5338, 13236.01
253.0159, 13252.90
253.4980, 13266.94
253.9801, 13280.47
254.4622, 13298.13
254.9444, 13326.12
255.4265, 13359.46
255.9086, 13378.82
256.3907, 13372.88
256.8728, 13371.22
257.3549, 13400.45
257.8370, 13440.33
258.3192, 13454.13
258.8013, 13408.00
259.2834, 13324.61
259.7655, 13290.88
260.2476, 13339.92
260.7297, 13388.47
261.2119, 13403.45
261.6940, 13397.48
262.1761, 13388.91
262.6582, 13385.78
263.1403, 13388.34
263.6224, 13399.65
264.1046, 13431.32
264.5867, 13452.67
265.0688, 13447.65
265.5509, 13428.75
266.0330, 13414.91
266.5151, 13418.73
266.9973, 13432.51
267.4794, 13428.16
267.9615, 13392.75
268.4436, 13359.39
268.9258, 13339.20
269.4079, 13326.67
269.8900, 13314.48
270.3721, 13298.74
270.8542, 13281.26
271.3363, 13268.08
271.8185, 13261.94
272.3006, 13255.89
272.7827, 13250.49
273.2648, 13243.48
273.7469, 13231.59
274.2290, 13212.68
274.7112, 13189.56
275.1933, 13169.54
275.6754, 13153.28
276.1575, 13139.48
276.6396, 13140.64
277.1217, 13138.84
277.6039, 13108.24
278.0860, 13033.56
278.5681, 12942.12
279.0502, 12902.39
279.5323, 12958.69
280.0144, 12979.85
280.4966, 12911.01
280.9787, 12812.81
281.4608, 12744.25
281.9429, 12729.50
282.4250, 12740.82
282.9071, 12719.27
283.3893, 12637.89
283.8714, 12585.45
284.3535, 12594.63
284.8356, 12626.10
285.3177, 12652.04
285.7998, 12663.52
286.2820, 12660.48
286.7641, 12636.67
287.2462, 12574.83
287.7283, 12538.53
288.2104, 12550.29
288.6925, 12580.24
289.1747, 12612.72
289.6568, 12642.87
290.1389, 12666.09
290.6210, 12673.79
291.1031, 12660.24
291.5852, 12649.78
292.0674, 12645.28
292.5495, 12644.60
293.0316, 12645.64
293.5137, 12648.38
293.9958, 12656.09
294.4779, 12674.39
294.9601, 12705.84
295.4422, 12735.10
295.9243, 12751.07
296.4064, 12771.88
296.8885, 12811.29
297.3706, 12868.03
297.8528, 12926.17
298.3349, 12970.26
298.8170, 12998.80
299.2991, 13023.81
299.7812, 13036.93
300.2633, 13054.24
300.7455, 13084.55
301.2276, 13126.62
301.7097, 13172.30
302.1918, 13214.26
302.6739, 13252.28
303.1560, 13295.77
303.6382, 13348.94
304.1203, 13403.63
304.6024, 13459.45
305.0845, 13514.33
305.5666, 13563.74
306.0487, 13602.62
306.5309, 13632.54
307.0130, 13665.40
307.4951, 13708.61
307.9772, 13743.93
308.4593, 13756.39
308.9414, 13756.93
309.4236, 13767.60
309.9057, 13808.32
310.3878, 13866.14
310.8699, 13895.00
311.3520, 13880.03
311.8341, 13863.25
312.3163, 13860.80
312.7984, 13868.03
313.2805, 13879.55
313.7626, 13894.99
314.2447, 13911.30
314.7268, 13919.65
315.2090, 13913.86
315.6911, 13918.04
316.1732, 13948.15
316.6553, 13990.24
317.1374, 14031.26
317.6195, 14067.09
318.1017, 14100.38
318.5838, 14137.53
319.0659, 14180.95
319.5480, 14213.36
320.0301, 14237.96
320.5122, 14242.24
320.9944, 14209.81
321.4765, 14134.46
321.9586, 14039.86
322.4407, 13950.78
322.9228, 13867.54
323.4049, 13767.71
323.8871, 13641.47
324.3692, 13498.61
324.8513, 13342.22
325.3334, 13170.36
325.8155, 13013.64
326.2976, 12899.22
326.7798, 12820.54
327.2619, 12745.18
327.7440, 12667.55
328.2261, 12590.68
328.7082, 12516.79
329.1903, 12445.88
329.6725, 12376.12
330.1546, 12301.79
330.6367, 12228.02
331.1188, 12168.32
331.6009, 12127.60
332.0830, 12093.33
332.5652, 12057.94
333.0473, 12020.68
333.5294, 11976.53
334.0115, 11911.33
334.4936, 11843.90
334.9757, 11803.11
335.4579, 11793.10
335.9400, 11789.54
336.4221, 11778.49
336.9042, 11759.34
337.3863, 11731.05
337.8684, 11685.47
338.3506, 11636.20
338.8327, 11592.22
339.3148, 11553.98
339.7969, 11523.88
340.2791, 11504.85
340.7612, 11495.40
341.2433, 11487.36
341.7254, 11483.56
342.2075, 11478.01
342.6896, 11469.80
343.1718, 11457.80
343.6539, 11438.30
344.1360, 11408.94
344.6181, 11371.96
345.1002, 11330.67
345.5823, 11272.41
346.0645, 11233.35
346.5466, 11245.37
347.0287, 11276.46
347.5108, 11272.40
347.9929, 11214.35
348.4750, 11137.52
348.9572, 11100.88
349.4393, 11129.91
349.9214, 11136.89
350.4035, 11093.76
350.8856, 11040.64
351.3677, 11015.17
351.8499, 11022.58
352.3320, 11041.78
352.8141, 11051.59
353.2962, 11052.34
353.7783, 11037.95
354.2604, 10988.10
354.7426, 10942.65
355.2247, 10929.88
355.7068, 10943.61
356.1889, 10956.14
356.6710, 10944.80
357.1531, 10910.00
357.6353, 10885.70
358.1174, 10884.94
358.5995, 10879.94
359.0816, 10857.73
359.5637, 10827.09
360.0458, 10804.75
360.5280, 10800.37
361.0101, 10807.33
361.4922, 10800.98
361.9743, 10769.33
362.4564, 10740.29
362.9385, 10716.51
363.4207, 10696.55
363.9028, 10678.75
364.3849, 10662.54
364.8670, 10648.55
365.3491, 10637.27
365.8312, 10627.26
366.3134, 10624.13
366.7955, 10639.86
367.2776, 10653.43
367.7597, 10648.32
368.2418, 10624.99
368.7239, 10600.17
369.2061, 10592.02
369.6882, 10601.88
370.1703, 10609.44
370.6524, 10616.93
371.1345, 10618.75
371.6166, 10610.08
372.0988, 10593.61
372.5809, 10576.57
373.0630, 10564.42
373.5451, 10555.03
374.0272, 10540.54
374.5093, 10518.98
374.9915, 10496.44
375.4736, 10477.22
375.9557, 10458.46
376.4378, 10434.28
376.9199, 10396.33
377.4020, 10361.73
377.8842, 10355.38
378.3663, 10378.76
378.8484, 10408.07
379.3305, 10448.21
379.8126, 10479.55
380.2947, 10471.46
380.7769, 10409.26
381.2590, 10353.27
381.7411, 10352.87
382.2232, 10392.39
382.7053, 10416.34
383.1874, 10408.09
383.6696, 10385.22
384.1517, 10371.38
384.6338, 10367.38
385.1159, 10353.50
385.5980, 10309.31
386.0801, 10259.52
386.5623, 10239.18
387.0444, 10252.99
387.5265, 10270.38
388.0086, 10262.81
388.4907, 10228.99
388.9728, 10210.41
389.4550, 10224.51
389.9371, 10237.76
390.4192, 10230.68
390.9013, 10205.91
391.3834, 10173.46
391.8655, 10137.28
392.3477, 10099.95
392.8298, 10075.40
393.3119, 10071.44
393.7940, 10069.57
394.2761, 10073.85
394.7582, 10076.11
395.2404, 10064.31
395.7225, 10034.54
396.2046, 9996.095
396.6867, 9964.672
397.1688, 9943.935
397.6509, 9923.752
398.1331, 9904.806
398.6152, 9885.826
399.0973, 9866.055
399.5794, 9845.463
400.0615, 9824.128
400.5436, 9801.212
401.0258, 9776.397
401.5079, 9757.774
401.9900, 9757.123
402.4721, 9750.163
402.9542, 9722.188
403.4363, 9683.747
403.9185, 9655.940
404.4006, 9654.649
404.8827, 9664.011
405.3648, 9634.917
405.8469, 9540.837
406.3290, 9477.797
406.8112, 9515.510
407.2933, 9576.860
407.7754, 9589.282
408.2575, 9533.286
408.7396, 9458.799
409.2217, 9412.263
409.7039, 9392.373
410.1860, 9376.958
410.6681, 9361.339
411.1502, 9349.741
411.6324, 9349.056
412.1145, 9358.088
412.5966, 9361.744
413.0787, 9355.416
413.5608, 9339.197
414.0429, 9306.469
414.5251, 9254.031
415.0072, 9212.027
415.4893, 9212.030
415.9714, 9244.821
416.4535, 9252.688
416.9356, 9215.839
417.4178, 9169.396
417.8999, 9130.056
418.3820, 9097.621
418.8641, 9069.087
419.3462, 9042.273
419.8283, 9020.289
420.3105, 9013.347
420.7926, 9046.644
421.2747, 9053.629
421.7568, 9000.247
422.2389, 8930.920
422.7210, 8893.480
423.2032, 8896.835
423.6853, 8914.691
424.1674, 8915.267
424.6495, 8891.948
425.1316, 8881.466
425.6137, 8907.868
426.0959, 8922.180
426.5780, 8896.941
427.0601, 8842.579
427.5422, 8784.486
428.0243, 8737.570
428.5064, 8702.134
428.9886, 8679.487
429.4707, 8674.395
429.9528, 8674.743
430.4349, 8688.382
430.9170, 8699.833
431.3991, 8689.525
431.8813, 8651.610
432.3634, 8608.716
432.8455, 8589.273
433.3276, 8594.247
433.8097, 8603.148
434.2918, 8630.751
434.7740, 8640.608
435.2561, 8590.469
435.7382, 8492.475
436.2203, 8418.911
436.7024, 8425.712
437.1845, 8475.021
437.6667, 8497.457
438.1488, 8487.897
438.6309, 8467.650
439.1130, 8445.267
439.5951, 8422.896
440.0772, 8406.603
440.5594, 8403.606
441.0415, 8398.618
441.5236, 8377.906
442.0057, 8348.352
442.4878, 8329.152
442.9699, 8328.435
443.4521, 8335.884
443.9342, 8334.013
444.4163, 8321.757
444.8984, 8301.736
445.3805, 8259.917
445.8626, 8219.932
446.3448, 8204.641
446.8269, 8212.955
447.3090, 8225.665
447.7911, 8226.908
448.2732, 8216.684
448.7553, 8200.305
449.2375, 8159.749
449.7196, 8133.078
450.2017, 8145.785
450.6838, 8171.960
451.1659, 8173.010
451.6480, 8131.447
452.1302, 8071.050
452.6123, 8035.938
453.0944, 8032.990
453.5765, 8032.136
454.0586, 8029.417
454.5407, 8027.287
455.0229, 8030.604
455.5050, 8037.768
455.9871, 8038.052
456.4692, 8020.080
456.9513, 7988.753
457.4334, 7959.578
457.9156, 7931.597
458.3977, 7910.184
458.8798, 7901.782
459.3619, 7902.081
459.8440, 7904.256
460.3261, 7912.481
460.8083, 7915.539
461.2904, 7901.189
461.7725, 7873.746
462.2546, 7849.545
462.7367, 7835.159
463.2188, 7824.545
463.7010, 7806.139
464.1831, 7774.537
464.6652, 7752.977
465.1473, 7751.442
465.6294, 7756.114
466.1115, 7755.507
466.5937, 7748.986
467.0758, 7742.835
467.5579, 7743.354
468.0400, 7749.792
468.5221, 7743.607
469.0042, 7711.262
469.4864, 7681.708
469.9685, 7661.361
470.4506, 7646.418
470.9327, 7632.317
471.4148, 7617.332
471.8969, 7601.991
472.3791, 7587.007
472.8612, 7572.177
473.3433, 7558.383
473.8254, 7542.728
474.3075, 7530.901
474.7896, 7528.809
475.2718, 7533.988
475.7539, 7537.070
476.2360, 7535.100
476.7181, 7526.447
477.2002, 7502.667
477.6823, 7459.539
478.1645, 7425.600
478.6466, 7420.050
479.1287, 7431.140
479.6108, 7437.330
480.0929, 7440.933
480.5751, 7432.555
481.0572, 7395.900
481.5393, 7346.252
482.0214, 7314.019
482.5035, 7307.242
482.9857, 7310.153
483.4678, 7305.136
483.9499, 7290.267
484.4320, 7278.238
484.9141, 7273.069
485.3962, 7266.747
485.8784, 7254.832
486.3605, 7238.544
486.8426, 7220.325
487.3247, 7201.176
487.8068, 7182.825
488.2889, 7170.526
488.7711, 7166.947
489.2532, 7164.816
489.7353, 7167.984
490.2174, 7168.804
490.6995, 7161.976
491.1816, 7146.919
491.6638, 7126.230
492.1459, 7098.360
492.6280, 7065.220
493.1101, 7041.608
493.5922, 7030.863
494.0743, 7022.756
494.5565, 7012.646
495.0386, 7001.360
495.5207, 6989.962
496.0028, 6978.776
496.4849, 6967.454
496.9670, 6955.892
497.4492, 6944.008
497.9313, 6930.814
498.4134, 6915.126
498.8955, 6900.888
499.3776, 6894.583
499.8597, 6898.551
500.3419, 6897.238
500.8240, 6890.761
501.3061, 6877.946
501.7882, 6853.678
502.2703, 6821.760
502.7524, 6793.223
503.2346, 6774.842
503.7167, 6764.351
504.1988, 6754.345
504.6809, 6747.997
505.1630, 6736.862
505.6451, 6710.927
506.1273, 6686.778
506.6094, 6682.284
507.0915, 6696.822
507.5736, 6709.817
508.0557, 6698.473
508.5378, 6666.085
509.0200, 6645.792
509.5021, 6644.783
509.9842, 6642.070
510.4663, 6618.118
510.9484, 6588.151
511.4305, 6576.344
511.9127, 6594.963
512.3948, 6618.187
512.8769, 6627.834
513.3590, 6625.602
513.8411, 6616.603
514.3232, 6601.632
514.8054, 6581.464
515.2875, 6551.757
515.7696, 6507.841
516.2517, 6492.567
516.7338, 6545.074
517.2159, 6591.691
517.6981, 6581.174
518.1802, 6528.965
518.6623, 6476.765
519.1444, 6445.753
519.6265, 6432.726
520.1086, 6430.582
520.5908, 6445.324
521.0729, 6459.850
521.5550, 6484.376
522.0371, 6499.629
522.5192, 6487.035
523.0013, 6450.646
523.4835, 6413.974
523.9656, 6395.856
524.4477, 6390.886
524.9298, 6378.828
525.4119, 6356.376
525.8940, 6338.417
526.3762, 6334.384
526.8583, 6337.645
527.3404, 6339.359
527.8225, 6338.802
528.3046, 6336.716
528.7867, 6334.004
529.2689, 6329.857
529.7510, 6320.196
530.2331, 6304.323
530.7152, 6293.994
531.1973, 6303.821
531.6794, 6334.309
532.1616, 6337.873
532.6437, 6286.097
533.1258, 6244.405
533.6079, 6242.789
534.0900, 6259.363
534.5721, 6262.185
535.0543, 6240.598
535.5364, 6210.708
536.0185, 6196.017
536.5006, 6199.486
536.9827, 6203.458
537.4648, 6210.348
537.9470, 6214.628
538.4291, 6212.790
538.9112, 6206.696
539.3933, 6199.861
539.8754, 6191.417
540.3575, 6186.264
540.8397, 6195.868
541.3218, 6218.053
541.8039, 6228.021
542.2860, 6215.673
542.7681, 6192.405
543.2502, 6171.363
543.7324, 6151.641
544.2145, 6139.714
544.6966, 6138.195
545.1787, 6143.347
545.6608, 6159.849
546.1429, 6181.589
546.6251, 6188.885
547.1072, 6168.855
547.5893, 6133.869
548.0714, 6120.167
548.5535, 6142.671
549.0356, 6160.565
549.5178, 6173.418
549.9999, 6180.141
550.4820, 6180.453
550.9641, 6174.064
551.4462, 6159.255
551.9283, 6125.745
552.4105, 6086.454
552.8926, 6085.484
553.3747, 6132.490
553.8568, 6169.245
554.3389, 6168.088
554.8210, 6145.072
555.3032, 6124.996
555.7853, 6108.108
556.2674, 6093.793
556.7495, 6076.227
557.2316, 6063.865
557.7137, 6074.257
558.1959, 6105.729
558.6780, 6131.065
559.1601, 6129.116
559.6422, 6103.954
560.1243, 6083.951
560.6064, 6072.839
561.0886, 6062.492
561.5707, 6049.168
562.0528, 6038.318
562.5349, 6035.324
563.0170, 6040.740
563.4991, 6050.781
563.9813, 6066.376
564.4634, 6085.183
564.9455, 6085.897
565.4276, 6060.798
565.9097, 6035.974
566.3918, 6021.256
566.8740, 6014.991
567.3561, 6019.013
567.8382, 6039.627
568.3203, 6050.603
568.8024, 6027.030
569.2845, 5987.356
569.7667, 5963.477
570.2488, 5960.459
570.7309, 5965.415
571.2130, 5968.129
571.6951, 5968.795
572.1772, 5972.014
572.6594, 5983.418
573.1415, 5990.179
573.6236, 5989.242
574.1057, 5982.843
574.5878, 5970.163
575.0699, 5952.591
575.5521, 5938.936
576.0342, 5940.393
576.5163, 5956.197
576.9984, 5970.851
577.4805, 5988.028
577.9626, 5996.770
578.4448, 5984.316
578.9269, 5962.634
579.4090, 5948.659
579.8911, 5948.568
580.3732, 5946.316
580.8553, 5926.499
581.3375, 5899.373
581.8196, 5884.756
582.3017, 5886.040
582.7838, 5892.872
583.2659, 5896.566
583.7480, 5897.362
584.2302, 5901.648
584.7123, 5917.592
585.1944, 5926.666
585.6765, 5920.987
586.1587, 5909.217
586.6408, 5901.707
587.1229, 5900.024
587.6050, 5895.823
588.0872, 5873.936
588.5693, 5837.763
589.0514, 5829.504
589.5335, 5862.126
590.0156, 5892.564
590.4977, 5896.807
590.9799, 5886.843
591.4620, 5878.143
591.9441, 5872.280
592.4262, 5867.783
592.9083, 5864.087
593.3904, 5861.232
593.8726, 5859.728
594.3547, 5859.505
594.8368, 5858.666
595.3189, 5855.212
595.8010, 5849.886
596.2831, 5848.932
596.7653, 5860.635
597.2474, 5866.208
597.7295, 5860.137
598.2116, 5849.691
598.6937, 5839.455
599.1758, 5831.005
599.6580, 5825.960
600.1401, 5823.691
600.6222, 5826.013
601.1043, 5844.314
601.5864, 5883.931
602.0685, 5913.684
602.5507, 5916.229
603.0328, 5902.517
603.5149, 5892.551
603.9970, 5887.614
604.4791, 5881.074
604.9612, 5870.454
605.4434, 5857.511
605.9255, 5837.812
606.4076, 5815.538
606.8897, 5810.091
607.3718, 5836.207
