##NAMES=Fluorapophyllite-(K)
##RRUFFID=R050084
##IDEAL CHEMISTRY=KCa_4_Si_8_O_20_F&#183;8H_2_O
##LOCALITY=near Ahmednagar, Maharashtra, India
##OWNER=RRUFF
##SOURCE=Rock Currier
##DESCRIPTION=Greenish-white prismatic single crystal associated with scolecite
##STATUS=The identification of this mineral has been confirmed by X-ray diffraction and chemical analysis
##URL=rruff.info/R050084
##MEASURED CHEMISTRY=(K_0.98_Na_0.02_)Ca_4.00_Si_8.00_O_20_F_1.00_Â·8H_2_O
126.0381, 745.5463
126.5202, 787.0272
127.0023, 846.7054
127.4844, 921.8213
127.9666, 1009.360
128.4487, 1109.291
128.9308, 1219.530
129.4129, 1349.156
129.8950, 1492.525
130.3772, 1614.303
130.8593, 1706.317
131.3414, 1769.463
131.8235, 1807.270
132.3056, 1819.749
132.7877, 1805.440
133.2699, 1754.047
133.7520, 1663.826
134.2341, 1569.405
134.7162, 1479.094
135.1983, 1392.409
135.6804, 1326.394
136.1626, 1284.721
136.6447, 1259.682
137.1268, 1237.057
137.6089, 1215.725
138.0910, 1201.441
138.5731, 1198.450
139.0553, 1208.433
139.5374, 1221.768
140.0195, 1239.108
140.5016, 1259.234
140.9837, 1275.058
141.4658, 1280.734
141.9480, 1291.552
142.4301, 1318.229
142.9122, 1365.358
143.3943, 1418.432
143.8764, 1476.560
144.3585, 1539.230
144.8407, 1607.152
145.3228, 1679.083
145.8049, 1756.803
146.2870, 1841.935
146.7691, 1939.999
147.2512, 2036.686
147.7334, 2125.439
148.2155, 2202.271
148.6976, 2293.093
149.1797, 2401.302
149.6618, 2522.893
150.1439, 2651.388
150.6261, 2775.029
151.1082, 2914.656
151.5903, 3075.941
152.0724, 3264.668
152.5545, 3461.346
153.0366, 3651.372
153.5188, 3848.071
154.0009, 4076.639
154.4830, 4355.642
154.9651, 4658.454
155.4472, 4975.276
155.9293, 5295.858
156.4115, 5641.964
156.8936, 6027.212
157.3757, 6444.662
157.8578, 6875.399
158.3399, 7342.822
158.8221, 7804.434
159.3042, 8237.749
159.7863, 8708.167
160.2684, 9079.717
160.7505, 9335.033
161.2326, 9469.521
161.7148, 9425.901
162.1969, 9134.820
162.6790, 8670.018
163.1611, 8107.916
163.6432, 7361.528
164.1253, 6608.844
164.6075, 5927.970
165.0896, 5321.141
165.5717, 4790.126
166.0538, 4345.334
166.5359, 3975.630
167.0180, 3662.967
167.5002, 3409.673
167.9823, 3201.177
168.4644, 3026.563
168.9465, 2884.565
169.4286, 2779.752
169.9107, 2724.339
170.3929, 2709.350
170.8750, 2714.521
171.3571, 2730.176
171.8392, 2760.528
172.3213, 2810.200
172.8034, 2879.371
173.2856, 2967.499
173.7677, 3075.819
174.2498, 3203.698
174.7319, 3346.599
175.2140, 3491.800
175.6961, 3652.428
176.1783, 3848.651
176.6604, 4083.048
177.1425, 4351.768
177.6246, 4651.658
178.1067, 4980.113
178.5888, 5341.181
179.0710, 5726.368
179.5531, 6140.775
180.0352, 6591.687
180.5173, 7078.186
180.9994, 7600.331
181.4815, 8162.926
181.9637, 8769.307
182.4458, 9367.807
182.9279, 9964.180
183.4100, 10532.86
183.8921, 10994.81
184.3742, 11360.53
184.8564, 11591.64
185.3385, 11573.44
185.8206, 11299.02
186.3027, 10857.08
186.7848, 10276.98
187.2669, 9576.786
187.7491, 8874.532
188.2312, 8184.702
188.7133, 7526.183
189.1954, 6954.364
189.6775, 6474.306
190.1596, 6075.906
190.6418, 5750.215
191.1239, 5498.403
191.6060, 5297.430
192.0881, 5143.701
192.5702, 5035.543
193.0524, 4961.828
193.5345, 4926.263
194.0166, 4915.673
194.4987, 4907.829
194.9808, 4901.385
195.4629, 4918.228
195.9451, 4973.894
196.4272, 5068.358
196.9093, 5164.794
197.3914, 5260.081
197.8735, 5360.454
198.3556, 5478.880
198.8378, 5616.261
199.3199, 5762.838
199.8020, 5903.605
200.2841, 6033.897
200.7662, 6211.093
201.2483, 6444.488
201.7305, 6721.029
202.2126, 7012.129
202.6947, 7319.336
203.1768, 7635.337
203.6589, 7952.027
204.1410, 8262.356
204.6232, 8604.762
205.1053, 8989.329
205.5874, 9405.106
206.0695, 9821.337
206.5516, 10244.56
207.0337, 10651.06
207.5159, 11040.37
207.9980, 11419.43
208.4801, 11716.82
208.9622, 11928.10
209.4443, 12050.63
209.9264, 12066.23
210.4086, 11962.18
210.8907, 11775.69
211.3728, 11526.17
211.8549, 11194.44
212.3370, 10855.90
212.8191, 10510.43
213.3013, 10164.46
213.7834, 9843.270
214.2655, 9540.532
214.7476, 9271.835
215.2297, 9056.962
215.7118, 8905.214
216.1940, 8776.453
216.6761, 8666.614
217.1582, 8574.806
217.6403, 8495.019
218.1224, 8435.289
218.6045, 8378.091
219.0867, 8303.916
219.5688, 8202.054
220.0509, 8109.456
220.5330, 8034.165
221.0151, 7975.203
221.4972, 7931.248
221.9794, 7898.803
222.4615, 7884.754
222.9436, 7901.404
223.4257, 7970.511
223.9078, 8026.479
224.3899, 8057.432
224.8721, 8064.317
225.3542, 8038.555
225.8363, 7972.088
226.3184, 7880.517
226.8005, 7784.064
227.2827, 7700.049
227.7648, 7578.752
228.2469, 7405.687
228.7290, 7178.432
229.2111, 6923.231
229.6932, 6632.804
230.1754, 6323.431
230.6575, 6009.802
231.1396, 5686.458
231.6217, 5372.077
232.1038, 5069.833
232.5859, 4778.066
233.0681, 4508.513
233.5502, 4267.983
234.0323, 4045.749
234.5144, 3821.269
234.9965, 3583.868
235.4786, 3364.986
235.9608, 3173.648
236.4429, 3014.470
236.9250, 2872.547
237.4071, 2753.247
237.8892, 2648.942
238.3713, 2547.478
238.8535, 2446.095
239.3356, 2352.285
239.8177, 2270.076
240.2998, 2203.097
240.7819, 2132.200
241.2640, 2049.893
241.7462, 1966.879
242.2283, 1902.085
242.7104, 1864.558
243.1925, 1830.311
243.6746, 1790.043
244.1567, 1738.216
244.6389, 1699.603
245.1210, 1679.490
245.6031, 1669.456
246.0852, 1654.172
246.5673, 1628.012
247.0494, 1606.184
247.5316, 1594.220
248.0137, 1593.919
248.4958, 1597.615
248.9779, 1605.807
249.4600, 1617.720
249.9421, 1632.342
250.4243, 1652.252
250.9064, 1670.359
251.3885, 1682.323
251.8706, 1683.219
252.3527, 1695.166
252.8348, 1721.173
253.3170, 1756.249
253.7991, 1791.386
254.2812, 1826.443
254.7633, 1861.022
255.2454, 1892.947
255.7275, 1917.398
256.2097, 1956.807
256.6918, 2015.169
257.1739, 2085.272
257.6560, 2154.335
258.1381, 2220.243
258.6202, 2289.841
259.1024, 2367.132
259.5845, 2453.017
260.0666, 2539.263
260.5487, 2624.399
261.0308, 2710.861
261.5129, 2808.756
261.9951, 2922.526
262.4772, 3035.159
262.9593, 3138.847
263.4414, 3233.376
263.9235, 3325.666
264.4056, 3421.831
264.8878, 3511.049
265.3699, 3578.558
265.8520, 3626.584
266.3341, 3648.190
266.8162, 3640.212
267.2983, 3601.725
267.7805, 3538.692
268.2626, 3447.678
268.7447, 3336.307
269.2268, 3215.077
269.7089, 3081.614
270.1910, 2947.240
270.6732, 2812.240
271.1553, 2675.903
271.6374, 2552.790
272.1195, 2444.268
272.6016, 2346.737
273.0837, 2256.603
273.5659, 2172.046
274.0480, 2101.897
274.5301, 2053.350
275.0122, 2027.592
275.4943, 1993.537
275.9764, 1946.421
276.4586, 1899.976
276.9407, 1876.974
277.4228, 1879.918
277.9049, 1886.526
278.3870, 1886.856
278.8691, 1881.554
279.3513, 1886.502
279.8334, 1903.352
280.3155, 1926.207
280.7976, 1945.893
281.2798, 1961.829
281.7619, 1984.141
282.2440, 2017.722
282.7261, 2061.487
283.2082, 2107.673
283.6903, 2156.499
284.1725, 2206.943
284.6546, 2255.604
285.1367, 2302.430
285.6188, 2357.198
286.1009, 2424.177
286.5830, 2501.927
287.0652, 2585.896
287.5473, 2675.901
288.0294, 2768.597
288.5115, 2857.482
288.9936, 2944.227
289.4757, 3038.943
289.9579, 3151.806
290.4400, 3273.826
290.9221, 3379.714
291.4042, 3468.108
291.8863, 3557.371
292.3684, 3674.525
292.8506, 3811.161
293.3327, 3932.397
293.8148, 4024.652
294.2969, 4097.089
294.7790, 4171.900
295.2611, 4249.368
295.7433, 4314.735
296.2254, 4361.561
296.7075, 4387.589
297.1896, 4385.584
297.6717, 4351.456
298.1538, 4290.399
298.6360, 4208.130
299.1181, 4104.437
299.6002, 3985.865
300.0823, 3852.067
300.5644, 3706.377
301.0465, 3552.590
301.5287, 3385.489
302.0108, 3218.671
302.4929, 3069.366
302.9750, 2935.313
303.4571, 2812.036
303.9392, 2697.164
304.4214, 2589.959
304.9035, 2486.234
305.3856, 2385.001
305.8677, 2290.928
306.3498, 2210.998
306.8319, 2143.784
307.3141, 2082.585
307.7962, 2024.081
308.2783, 1970.381
308.7604, 1923.465
309.2425, 1886.665
309.7246, 1852.480
310.2068, 1814.948
310.6889, 1776.035
311.1710, 1740.409
311.6531, 1707.278
312.1352, 1680.085
312.6173, 1663.309
313.0995, 1661.279
313.5816, 1659.545
314.0637, 1648.924
314.5458, 1634.019
315.0279, 1623.408
315.5100, 1622.130
315.9922, 1624.686
316.4743, 1628.081
316.9564, 1631.542
317.4385, 1637.609
317.9206, 1650.109
318.4027, 1665.040
318.8849, 1676.813
319.3670, 1679.595
319.8491, 1682.774
320.3312, 1689.816
320.8133, 1701.394
321.2954, 1714.527
321.7776, 1725.511
322.2597, 1739.016
322.7418, 1760.021
323.2239, 1801.394
323.7060, 1838.203
324.1881, 1861.813
324.6703, 1870.529
325.1524, 1884.980
325.6345, 1908.958
326.1166, 1937.778
326.5987, 1967.918
327.0808, 2001.022
327.5630, 2033.456
328.0451, 2065.059
328.5272, 2095.800
329.0093, 2124.773
329.4914, 2144.841
329.9735, 2168.886
330.4557, 2206.496
330.9378, 2271.738
331.4199, 2325.983
331.9020, 2363.838
332.3841, 2388.210
332.8662, 2413.195
333.3484, 2439.163
333.8305, 2464.813
334.3126, 2492.119
334.7947, 2526.989
335.2768, 2543.463
335.7589, 2535.276
336.2411, 2510.701
336.7232, 2490.669
337.2053, 2477.791
337.6874, 2462.233
338.1695, 2441.245
338.6516, 2416.009
339.1338, 2374.530
339.6159, 2312.707
340.0980, 2241.313
340.5801, 2180.778
341.0622, 2131.665
341.5443, 2081.420
342.0265, 2023.692
342.5086, 1959.534
342.9907, 1891.922
343.4728, 1820.035
343.9549, 1750.156
344.4370, 1693.282
344.9192, 1648.332
345.4013, 1601.791
345.8834, 1545.894
346.3655, 1486.501
346.8476, 1442.587
347.3297, 1414.614
347.8119, 1392.648
348.2940, 1368.730
348.7761, 1343.725
349.2582, 1320.926
349.7403, 1301.784
350.2225, 1284.127
350.7046, 1261.918
351.1867, 1236.252
351.6688, 1217.132
352.1509, 1215.858
352.6331, 1224.615
353.1152, 1232.012
353.5973, 1235.830
354.0794, 1237.110
354.5615, 1233.593
355.0436, 1227.615
355.5258, 1226.282
356.0079, 1236.522
356.4900, 1251.441
356.9721, 1264.562
357.4542, 1273.667
357.9363, 1285.138
358.4185, 1303.899
358.9006, 1327.310
359.3827, 1350.798
359.8648, 1369.052
360.3469, 1389.725
360.8290, 1417.500
361.3112, 1453.661
361.7933, 1491.228
362.2754, 1528.422
362.7575, 1565.983
363.2396, 1604.878
363.7217, 1644.315
364.2039, 1685.590
364.6860, 1728.302
365.1681, 1772.643
365.6502, 1821.021
366.1323, 1878.894
366.6144, 1938.101
367.0966, 1993.204
367.5787, 2039.596
368.0608, 2086.690
368.5429, 2137.691
369.0250, 2190.868
369.5071, 2235.853
369.9893, 2267.340
370.4714, 2296.640
370.9535, 2331.539
371.4356, 2384.631
371.9177, 2413.229
372.3998, 2411.563
372.8820, 2387.698
373.3641, 2361.305
373.8462, 2338.250
374.3283, 2297.721
374.8104, 2229.304
375.2925, 2130.325
375.7747, 2025.146
376.2568, 1909.109
376.7389, 1794.330
377.2210, 1700.429
377.7031, 1628.711
378.1852, 1558.950
378.6674, 1480.852
379.1495, 1399.815
379.6316, 1337.876
380.1137, 1296.851
380.5958, 1263.180
381.0779, 1223.719
381.5601, 1180.351
382.0422, 1145.672
382.5243, 1123.414
383.0064, 1108.874
383.4885, 1095.637
383.9706, 1083.430
384.4528, 1071.161
384.9349, 1055.957
385.4170, 1040.638
385.8991, 1030.310
386.3812, 1026.889
386.8633, 1024.405
387.3455, 1015.710
387.8276, 1003.612
388.3097, 994.3998
388.7918, 990.3951
389.2739, 991.2298
389.7560, 999.7299
390.2382, 1017.178
390.7203, 1029.228
391.2024, 1021.496
391.6845, 1006.363
392.1666, 998.0055
392.6487, 1005.581
393.1309, 1016.712
393.6130, 1026.912
394.0951, 1036.288
394.5772, 1046.915
395.0593, 1059.777
395.5414, 1073.787
396.0236, 1088.156
396.5057, 1105.655
396.9878, 1120.154
397.4699, 1128.516
397.9520, 1133.058
398.4341, 1141.094
398.9163, 1158.302
399.3984, 1173.087
399.8805, 1180.475
400.3626, 1176.733
400.8447, 1176.604
401.3268, 1180.411
401.8090, 1187.602
402.2911, 1197.948
402.7732, 1212.412
403.2553, 1227.120
403.7374, 1240.226
404.2195, 1252.052
404.7017, 1270.095
405.1838, 1297.172
405.6659, 1323.040
406.1480, 1336.419
406.6301, 1337.154
407.1122, 1341.200
407.5944, 1353.092
408.0765, 1368.235
408.5586, 1372.110
409.0407, 1365.034
409.5228, 1363.516
410.0049, 1383.730
410.4871, 1417.990
410.9692, 1444.417
411.4513, 1459.785
411.9334, 1471.650
412.4155, 1487.371
412.8976, 1506.753
413.3798, 1528.456
413.8619, 1548.194
414.3440, 1572.393
414.8261, 1608.786
415.3082, 1657.706
415.7903, 1712.877
416.2725, 1771.240
416.7546, 1833.535
417.2367, 1901.997
417.7188, 1977.444
418.2009, 2057.254
418.6830, 2137.716
419.1652, 2220.849
419.6473, 2310.935
420.1294, 2406.186
420.6115, 2511.853
421.0937, 2632.421
421.5758, 2766.998
422.0579, 2914.846
422.5400, 3086.733
423.0221, 3269.802
423.5042, 3446.124
423.9864, 3577.445
424.4685, 3742.468
424.9506, 3973.861
425.4327, 4275.765
425.9148, 4550.096
426.3969, 4779.972
426.8791, 5001.391
427.3612, 5241.370
427.8433, 5500.523
428.3254, 5775.721
428.8075, 6071.871
429.2896, 6381.090
429.7718, 6683.644
430.2539, 6989.840
430.7360, 7240.504
431.2181, 7417.993
431.7002, 7518.223
432.1823, 7473.498
432.6645, 7271.085
433.1466, 6953.520
433.6287, 6548.584
434.1108, 6070.993
434.5929, 5588.447
435.0750, 5114.006
435.5572, 4662.924
436.0393, 4259.721
436.5214, 3904.297
437.0035, 3593.208
437.4856, 3337.233
437.9677, 3122.867
438.4499, 2934.169
438.9320, 2770.242
439.4141, 2625.688
439.8962, 2500.436
440.3783, 2392.557
440.8604, 2293.382
441.3426, 2195.280
441.8247, 2109.168
442.3068, 2044.406
442.7889, 2005.999
443.2710, 1969.569
443.7531, 1924.781
444.2353, 1880.280
444.7174, 1844.849
445.1995, 1826.303
445.6816, 1810.275
446.1637, 1792.619
446.6458, 1774.267
447.1280, 1764.346
447.6101, 1764.394
448.0922, 1771.228
448.5743, 1783.788
449.0564, 1804.615
449.5385, 1824.947
450.0207, 1844.830
450.5028, 1863.800
450.9849, 1878.003
451.4670, 1884.363
451.9491, 1900.876
452.4312, 1935.601
452.9134, 1987.010
453.3955, 2047.115
453.8776, 2117.102
454.3597, 2185.818
454.8418, 2237.431
455.3239, 2276.874
455.8061, 2323.038
456.2882, 2383.094
456.7703, 2448.209
457.2524, 2506.569
457.7345, 2559.095
458.2166, 2610.959
458.6988, 2666.804
459.1809, 2722.299
459.6630, 2773.063
460.1451, 2819.617
460.6272, 2857.989
461.1093, 2890.470
461.5915, 2911.777
462.0736, 2914.482
462.5557, 2883.823
463.0378, 2846.316
463.5199, 2816.396
464.0020, 2791.298
464.4842, 2747.923
464.9663, 2666.345
465.4484, 2576.758
465.9305, 2495.013
466.4126, 2428.767
466.8947, 2355.945
467.3769, 2269.839
467.8590, 2180.404
468.3411, 2103.315
468.8232, 2044.029
469.3053, 1987.066
469.7874, 1928.036
470.2696, 1867.142
470.7517, 1806.838
471.2338, 1745.724
471.7159, 1689.942
472.1980, 1646.761
472.6801, 1615.815
473.1623, 1587.310
473.6444, 1559.200
474.1265, 1533.729
474.6086, 1513.824
475.0907, 1499.636
475.5728, 1492.149
476.0550, 1498.474
476.5371, 1509.550
477.0192, 1508.982
477.5013, 1496.101
477.9834, 1482.478
478.4655, 1472.980
478.9477, 1469.362
479.4298, 1474.135
479.9119, 1490.636
480.3940, 1512.438
480.8761, 1541.584
481.3582, 1574.081
481.8404, 1598.025
482.3225, 1604.669
482.8046, 1605.863
483.2867, 1607.436
483.7688, 1611.488
484.2509, 1610.321
484.7331, 1600.060
485.2152, 1585.939
485.6973, 1572.646
486.1794, 1562.203
486.6615, 1549.195
487.1436, 1533.399
487.6258, 1514.437
488.1079, 1488.204
488.5900, 1450.417
489.0721, 1417.675
489.5542, 1400.240
490.0363, 1398.105
490.5185, 1399.564
491.0006, 1405.409
491.4827, 1411.174
491.9648, 1410.456
492.4470, 1404.175
492.9291, 1396.950
493.4112, 1388.446
493.8933, 1381.647
494.3754, 1382.879
494.8575, 1391.105
495.3397, 1399.704
495.8218, 1404.004
496.3039, 1406.660
496.7860, 1410.180
497.2681, 1414.735
497.7502, 1421.173
498.2324, 1428.695
498.7145, 1438.734
499.1966, 1453.390
499.6787, 1482.612
500.1608, 1507.021
500.6429, 1516.648
501.1251, 1512.747
501.6072, 1516.874
502.0893, 1542.786
502.5714, 1566.221
503.0535, 1573.462
503.5356, 1548.683
504.0178, 1547.008
504.4999, 1578.376
504.9820, 1623.887
505.4641, 1656.554
505.9462, 1675.398
506.4283, 1685.338
506.9105, 1683.379
507.3926, 1674.440
507.8747, 1681.142
508.3568, 1704.430
508.8389, 1726.478
509.3210, 1732.064
509.8032, 1726.425
510.2853, 1722.824
510.7674, 1722.030
511.2495, 1727.119
511.7316, 1747.734
512.2137, 1776.315
512.6959, 1797.197
513.1780, 1800.903
513.6601, 1797.446
514.1422, 1790.694
514.6243, 1781.418
515.1064, 1774.100
515.5886, 1773.352
516.0707, 1773.084
516.5528, 1769.467
517.0349, 1760.354
517.5170, 1751.300
517.9991, 1738.769
518.4813, 1728.217
518.9634, 1727.680
519.4455, 1746.097
519.9276, 1758.972
520.4097, 1759.518
520.8918, 1749.954
521.3740, 1745.546
521.8561, 1747.902
522.3382, 1750.093
522.8203, 1744.167
523.3024, 1731.274
523.7845, 1732.325
524.2667, 1750.679
524.7488, 1774.793
525.2309, 1793.083
525.7130, 1806.048
526.1951, 1814.364
526.6772, 1810.972
527.1594, 1810.211
527.6415, 1836.537
528.1236, 1883.072
528.6057, 1920.186
529.0878, 1922.249
529.5699, 1913.776
530.0521, 1911.471
530.5342, 1917.206
531.0163, 1930.420
531.4984, 1959.341
531.9805, 1992.168
532.4626, 2016.486
532.9448, 2021.981
533.4269, 2029.178
533.9090, 2040.346
534.3911, 2054.871
534.8732, 2070.540
535.3553, 2089.962
535.8375, 2105.951
536.3196, 2114.669
536.8017, 2115.922
537.2838, 2117.242
537.7659, 2119.621
538.2480, 2118.805
538.7302, 2107.546
539.2123, 2087.565
539.6944, 2071.922
540.1765, 2064.821
540.6586, 2060.729
541.1407, 2052.206
541.6229, 2039.945
542.1050, 2026.361
542.5871, 2012.603
543.0692, 1998.183
543.5513, 1982.445
544.0334, 1965.500
544.5156, 1948.735
544.9977, 1930.060
545.4798, 1913.411
545.9619, 1902.350
546.4440, 1902.097
546.9261, 1900.651
547.4083, 1897.742
547.8904, 1892.289
548.3725, 1881.932
548.8546, 1861.170
549.3367, 1844.378
549.8188, 1835.071
550.3010, 1832.928
550.7831, 1835.100
551.2652, 1842.728
551.7473, 1850.883
552.2294, 1853.909
552.7115, 1852.921
553.1937, 1861.219
553.6758, 1881.915
554.1579, 1903.333
554.6400, 1908.799
555.1221, 1903.022
555.6042, 1899.143
556.0864, 1899.491
556.5685, 1906.131
557.0506, 1925.060
557.5327, 1953.067
558.0148, 1977.947
558.4969, 1989.103
558.9791, 1998.869
559.4612, 2014.359
559.9433, 2036.681
560.4254, 2062.466
560.9075, 2092.855
561.3896, 2125.468
561.8718, 2158.123
562.3539, 2186.012
562.8360, 2223.249
563.3181, 2276.966
563.8002, 2337.349
564.2823, 2377.187
564.7645, 2389.301
565.2466, 2411.825
565.7287, 2461.732
566.2108, 2534.313
566.6929, 2605.725
567.1750, 2675.105
567.6572, 2749.904
568.1393, 2838.856
568.6214, 2936.134
569.1035, 3025.607
569.5856, 3103.321
570.0677, 3182.506
570.5499, 3279.505
571.0320, 3385.103
571.5141, 3485.332
571.9962, 3555.887
572.4783, 3639.185
572.9604, 3758.310
573.4426, 3906.410
573.9247, 4050.877
574.4068, 4181.670
574.8889, 4311.163
575.3710, 4445.634
575.8531, 4587.231
576.3353, 4711.801
576.8174, 4808.421
577.2995, 4902.437
577.7816, 5025.151
578.2637, 5180.363
578.7458, 5317.557
579.2280, 5428.900
579.7101, 5520.121
580.1922, 5598.606
580.6743, 5665.033
581.1564, 5723.234
581.6385, 5783.438
582.1207, 5832.033
582.6028, 5848.392
583.0849, 5834.180
583.5670, 5803.794
584.0491, 5773.464
584.5313, 5725.336
585.0134, 5641.663
585.4955, 5510.537
585.9776, 5375.387
586.4597, 5254.721
586.9418, 5132.774
587.4240, 4992.558
587.9061, 4820.590
588.3882, 4649.362
588.8703, 4479.469
589.3524, 4313.304
589.8345, 4158.695
590.3167, 4017.290
590.7988, 3880.188
591.2809, 3748.398
591.7630, 3619.545
592.2451, 3482.435
592.7272, 3336.320
593.2094, 3200.319
593.6915, 3097.151
594.1736, 3014.036
594.6557, 2924.043
595.1378, 2821.580
595.6199, 2725.116
596.1021, 2649.849
596.5842, 2589.495
597.0663, 2534.875
597.5485, 2487.789
598.0306, 2441.607
598.5127, 2390.562
598.9948, 2337.795
599.4769, 2296.508
599.9590, 2276.430
600.4412, 2256.096
600.9233, 2227.044
601.4054, 2187.963
601.8875, 2160.151
602.3696, 2147.537
602.8517, 2137.021
603.3339, 2116.896
603.8160, 2087.908
604.2981, 2061.005
604.7802, 2037.018
605.2623, 2017.537
605.7444, 2009.413
606.2266, 2007.950
606.7087, 2000.654
607.1908, 1974.820
607.6729, 1949.632
608.1550, 1940.877
608.6371, 1945.418
609.1193, 1952.744
609.6014, 1962.966
610.0835, 1971.301
610.5656, 1973.622
611.0477, 1968.275
611.5298, 1968.568
612.0120, 1977.704
612.4941, 1989.735
612.9762, 2000.461
613.4583, 2008.622
613.9404, 2020.054
614.4225, 2035.502
614.9047, 2053.300
615.3868, 2072.362
615.8689, 2092.584
616.3510, 2110.082
616.8331, 2122.054
617.3152, 2132.880
617.7974, 2152.820
618.2795, 2178.506
618.7616, 2197.949
619.2437, 2197.519
619.7258, 2193.478
620.2079, 2196.737
620.6901, 2207.986
621.1722, 2225.310
