##NAMES=Fluorapatite
##RRUFFID=R060184
##IDEAL CHEMISTRY=Ca_5_(PO_4_)_3_F
##LOCALITY=Yates mine, Otter Lake, Quebec, Canada
##OWNER=RRUFF
##SOURCE=Lloyd Twaites
##DESCRIPTION=Green colored fragment of a hexagonal prism
##STATUS=The identification of this mineral has been confirmed by X-ray diffraction and chemical analysis
##URL=rruff.info/R060184
##MEASURED CHEMISTRY=(Ca_0.99_Ce_0.01_)_5.00_((P_0.98_Si_0.01_S_0.01_)O_4_)_3_F_1.00_
89.78156, 0.0000000E+00
90.26367, 205.7025
90.74579, 205.9455
91.22791, 205.8388
91.71002, 205.4246
92.19214, 205.0743
92.67426, 205.1848
93.15638, 205.6083
93.63850, 205.9489
94.12061, 206.0204
94.60273, 205.9388
95.08485, 205.9984
95.56696, 206.2175
96.04908, 206.4501
96.53120, 206.4345
97.01331, 206.1906
97.49543, 206.1185
97.97755, 206.5612
98.45966, 207.4693
98.94178, 207.9218
99.42390, 207.7900
99.90602, 207.3796
100.3881, 207.2759
100.8703, 207.5392
101.3524, 207.8982
101.8345, 208.2305
102.3166, 208.5289
102.7987, 208.8228
103.2808, 209.1258
103.7630, 209.4251
104.2451, 209.6125
104.7272, 209.5111
105.2093, 209.5345
105.6914, 209.9729
106.1735, 210.9973
106.6557, 212.1356
107.1378, 213.2856
107.6199, 214.4504
108.1020, 215.8823
108.5841, 217.7624
109.0662, 219.8252
109.5484, 221.8549
110.0305, 223.2691
110.5126, 225.2497
110.9947, 227.9590
111.4768, 231.4256
111.9590, 235.6149
112.4411, 240.1752
112.9232, 245.5792
113.4053, 252.2967
113.8874, 260.3448
114.3695, 269.8197
114.8517, 280.7771
115.3338, 293.4118
115.8159, 306.9934
116.2980, 320.6636
116.7801, 335.2372
117.2622, 352.3084
117.7444, 372.4638
118.2265, 395.4579
118.7086, 421.0278
119.1907, 449.4011
119.6728, 480.3927
120.1549, 514.0743
120.6371, 550.3806
121.1192, 589.2143
121.6013, 630.2627
122.0834, 673.5322
122.5655, 718.9939
123.0476, 768.3904
123.5298, 818.4436
124.0119, 866.3757
124.4940, 912.2454
124.9761, 957.0754
125.4582, 1001.229
125.9404, 1044.622
126.4225, 1086.711
126.9046, 1128.016
127.3867, 1167.662
127.8688, 1202.477
128.3509, 1231.851
128.8331, 1262.326
129.3152, 1302.199
129.7973, 1350.207
130.2794, 1398.918
130.7615, 1444.615
131.2436, 1488.339
131.7258, 1532.379
132.2079, 1576.346
132.6900, 1622.024
133.1721, 1672.019
133.6542, 1726.141
134.1364, 1784.066
134.6185, 1847.175
135.1006, 1915.567
135.5827, 1984.196
136.0648, 2053.956
136.5469, 2123.067
137.0291, 2188.386
137.5112, 2250.133
137.9933, 2305.346
138.4754, 2352.347
138.9575, 2390.228
139.4396, 2422.989
139.9218, 2450.594
140.4039, 2473.265
140.8860, 2490.818
141.3681, 2501.583
141.8502, 2509.964
142.3323, 2518.799
142.8145, 2527.917
143.2966, 2538.096
143.7787, 2548.667
144.2608, 2559.790
144.7429, 2575.341
145.2250, 2596.728
145.7072, 2621.488
146.1893, 2647.361
146.6714, 2673.571
147.1535, 2701.980
147.6356, 2732.776
148.1178, 2765.847
148.5999, 2801.194
149.0820, 2838.908
149.5641, 2878.745
150.0462, 2920.094
150.5283, 2965.644
151.0105, 3009.502
151.4926, 3022.878
151.9747, 3028.551
152.4568, 3033.561
152.9389, 3037.721
153.4210, 3041.474
153.9032, 3045.496
154.3853, 3052.927
154.8674, 3057.953
155.3495, 3058.272
155.8316, 3051.666
156.3137, 3045.397
156.7959, 3041.812
157.2780, 3039.179
157.7601, 3034.281
158.2422, 3022.717
158.7243, 3011.323
159.2065, 3003.596
159.6886, 3002.644
160.1707, 3000.629
160.6528, 2993.950
161.1349, 2984.281
161.6170, 2976.105
162.0992, 2971.638
162.5813, 2968.738
163.0634, 2965.884
163.5455, 2961.597
164.0276, 2958.792
164.5097, 2958.726
164.9919, 2961.184
165.4740, 2965.416
165.9561, 2975.039
166.4382, 2984.493
166.9203, 2988.684
167.4024, 2982.142
167.8846, 2974.181
168.3667, 2970.093
168.8488, 2969.567
169.3309, 2970.677
169.8130, 2973.163
170.2952, 2976.332
170.7773, 2979.313
171.2594, 2982.354
171.7415, 2984.662
172.2236, 2985.123
172.7057, 2983.827
173.1879, 2982.519
173.6700, 2982.177
174.1521, 2982.675
174.6342, 2983.810
175.1163, 2987.044
175.5984, 2990.069
176.0806, 2989.692
176.5627, 2985.890
177.0448, 2981.260
177.5269, 2977.927
178.0090, 2975.532
178.4911, 2973.130
178.9733, 2970.204
179.4554, 2967.122
179.9375, 2964.395
180.4196, 2962.073
180.9017, 2960.100
181.3838, 2958.649
181.8660, 2957.620
182.3481, 2956.520
182.8302, 2955.217
183.3123, 2953.763
183.7944, 2952.036
184.2766, 2949.936
184.7587, 2948.245
185.2408, 2947.960
185.7229, 2948.976
186.2050, 2950.563
186.6871, 2952.486
187.1693, 2954.715
187.6514, 2956.998
188.1335, 2959.296
188.6156, 2961.718
189.0977, 2964.357
189.5798, 2967.181
190.0620, 2970.426
190.5441, 2974.405
191.0262, 2978.965
191.5083, 2983.392
191.9904, 2987.814
192.4725, 2991.784
192.9547, 2994.150
193.4368, 2994.879
193.9189, 2995.986
194.4010, 2998.819
194.8831, 3003.282
195.3652, 3007.644
195.8474, 3011.836
196.3295, 3015.871
196.8116, 3019.844
197.2937, 3023.789
197.7758, 3027.336
198.2579, 3029.885
198.7401, 3031.386
199.2222, 3033.844
199.7043, 3037.665
200.1864, 3042.111
200.6685, 3045.433
201.1507, 3047.383
201.6328, 3049.138
202.1149, 3051.375
202.5970, 3054.120
203.0791, 3056.870
203.5612, 3059.415
204.0434, 3062.044
204.5255, 3065.786
205.0076, 3071.047
205.4897, 3076.097
205.9718, 3079.636
206.4539, 3081.325
206.9361, 3083.854
207.4182, 3088.038
207.9003, 3092.982
208.3824, 3095.459
208.8645, 3094.484
209.3466, 3093.686
209.8288, 3095.324
210.3109, 3099.780
210.7930, 3105.229
211.2751, 3112.297
211.7572, 3120.035
212.2393, 3124.819
212.7215, 3125.495
213.2036, 3125.616
213.6857, 3127.457
214.1678, 3131.514
214.6499, 3135.533
215.1320, 3139.210
215.6142, 3142.709
216.0963, 3146.945
216.5784, 3152.598
217.0605, 3157.644
217.5426, 3160.351
218.0247, 3159.345
218.5069, 3160.128
218.9890, 3164.028
219.4711, 3170.145
219.9532, 3173.993
220.4353, 3174.344
220.9175, 3174.551
221.3996, 3176.834
221.8817, 3181.936
222.3638, 3187.219
222.8459, 3192.595
223.3280, 3198.021
223.8102, 3202.712
224.2923, 3206.164
224.7744, 3209.734
225.2565, 3214.324
225.7386, 3220.406
226.2207, 3226.228
226.7029, 3231.545
227.1850, 3236.437
227.6671, 3241.192
228.1492, 3246.083
228.6313, 3250.438
229.1134, 3253.858
229.5956, 3256.337
230.0777, 3257.887
230.5598, 3257.863
231.0419, 3256.860
231.5240, 3257.838
232.0062, 3261.734
232.4883, 3266.414
232.9704, 3270.905
233.4525, 3276.185
233.9346, 3279.003
234.4167, 3277.606
234.8989, 3273.364
235.3810, 3273.076
235.8631, 3279.682
236.3452, 3286.319
236.8273, 3288.636
237.3094, 3283.272
237.7916, 3280.833
238.2737, 3282.933
238.7558, 3288.397
239.2379, 3292.390
239.7200, 3294.208
240.2021, 3295.446
240.6843, 3296.911
241.1664, 3298.577
241.6485, 3300.605
242.1306, 3303.432
242.6127, 3306.677
243.0948, 3308.635
243.5770, 3308.635
244.0591, 3308.426
244.5412, 3308.871
245.0233, 3310.037
245.5054, 3311.859
245.9876, 3314.224
246.4697, 3317.311
246.9518, 3321.872
247.4339, 3328.817
247.9160, 3335.918
248.3981, 3341.911
248.8803, 3345.991
249.3624, 3350.960
249.8445, 3357.306
250.3266, 3364.387
250.8087, 3370.350
251.2908, 3374.103
251.7730, 3378.272
252.2551, 3384.296
252.7372, 3393.765
253.2193, 3400.795
253.7014, 3404.095
254.1835, 3405.442
254.6657, 3408.955
255.1478, 3415.526
255.6299, 3422.731
256.1120, 3429.745
256.5941, 3436.546
257.0763, 3443.154
257.5584, 3449.567
258.0405, 3455.920
258.5226, 3462.391
259.0047, 3469.162
259.4868, 3475.840
259.9690, 3482.118
260.4511, 3487.776
260.9332, 3494.153
261.4153, 3501.621
261.8974, 3509.559
262.3795, 3516.875
262.8617, 3523.664
263.3438, 3529.719
263.8259, 3534.928
264.3080, 3539.144
264.7901, 3543.269
265.2722, 3547.391
265.7544, 3551.277
266.2365, 3554.562
266.7186, 3557.238
267.2007, 3559.296
267.6828, 3560.791
268.1649, 3561.770
268.6471, 3561.490
269.1292, 3559.392
269.6113, 3556.937
270.0934, 3556.091
270.5755, 3557.294
271.0576, 3558.404
271.5398, 3558.727
272.0219, 3558.307
272.5040, 3558.425
272.9861, 3559.183
273.4682, 3560.246
273.9503, 3561.325
274.4325, 3562.425
274.9146, 3563.346
275.3967, 3563.705
275.8788, 3563.724
276.3610, 3565.591
276.8431, 3569.810
277.3252, 3574.284
277.8073, 3576.876
278.2894, 3577.419
278.7715, 3578.222
279.2537, 3579.735
279.7358, 3581.927
280.2179, 3584.858
280.7000, 3588.779
281.1821, 3592.504
281.6642, 3594.981
282.1464, 3596.215
282.6285, 3597.270
283.1106, 3597.882
283.5927, 3598.765
284.0748, 3602.346
284.5569, 3608.877
285.0391, 3615.647
285.5212, 3620.259
286.0033, 3622.952
286.4854, 3627.249
286.9675, 3634.011
287.4496, 3641.812
287.9318, 3648.123
288.4139, 3652.963
288.8960, 3656.376
289.3781, 3657.452
289.8602, 3656.878
290.3423, 3658.211
290.8245, 3661.996
291.3066, 3667.285
291.7887, 3673.022
292.2708, 3679.168
292.7529, 3684.883
293.2350, 3689.138
293.7172, 3692.588
294.1993, 3697.459
294.6814, 3704.208
295.1635, 3710.850
295.6456, 3713.825
296.1277, 3714.078
296.6099, 3715.683
297.0920, 3721.070
297.5741, 3728.893
298.0562, 3737.041
298.5383, 3745.491
299.0204, 3753.074
299.5026, 3757.804
299.9847, 3760.612
300.4668, 3764.123
300.9489, 3769.360
301.4311, 3775.865
301.9132, 3783.465
302.3953, 3792.183
302.8774, 3800.302
303.3595, 3806.396
303.8416, 3811.046
304.3238, 3815.346
304.8059, 3819.079
305.2880, 3823.081
305.7701, 3828.123
306.2522, 3834.173
306.7343, 3840.764
307.2165, 3848.660
307.6986, 3856.596
308.1807, 3862.982
308.6628, 3867.229
309.1449, 3870.198
309.6270, 3871.608
310.1092, 3872.075
310.5913, 3873.605
311.0734, 3879.024
311.5555, 3885.017
312.0376, 3888.018
312.5197, 3885.846
313.0019, 3884.794
313.4840, 3890.294
313.9661, 3899.441
314.4482, 3906.348
314.9303, 3906.371
315.4124, 3904.957
315.8946, 3906.048
316.3767, 3911.012
316.8588, 3914.021
317.3409, 3910.162
317.8230, 3903.675
318.3051, 3900.149
318.7873, 3903.873
319.2694, 3908.637
319.7515, 3911.872
320.2336, 3913.306
320.7157, 3914.944
321.1978, 3917.959
321.6800, 3921.107
322.1621, 3923.247
322.6442, 3922.315
323.1263, 3922.188
323.6084, 3924.011
324.0905, 3927.678
324.5727, 3931.456
325.0548, 3934.662
325.5369, 3938.176
326.0190, 3942.533
326.5012, 3950.397
326.9833, 3956.144
327.4654, 3957.539
327.9475, 3956.024
328.4296, 3957.302
328.9117, 3963.459
329.3939, 3970.570
329.8760, 3977.141
330.3581, 3983.081
330.8402, 3988.504
331.3223, 3992.958
331.8044, 3996.938
332.2866, 4001.578
332.7687, 4007.494
333.2508, 4012.894
333.7329, 4017.139
334.2150, 4019.990
334.6971, 4022.634
335.1793, 4025.163
335.6614, 4027.434
336.1435, 4029.452
336.6256, 4031.792
337.1077, 4032.540
337.5898, 4030.582
338.0720, 4026.212
338.5541, 4024.643
339.0362, 4026.786
339.5183, 4029.974
340.0004, 4031.724
340.4825, 4031.884
340.9647, 4032.188
341.4468, 4032.823
341.9289, 4033.875
342.4110, 4035.781
342.8931, 4038.588
343.3752, 4041.561
343.8574, 4043.838
344.3395, 4045.473
344.8216, 4047.968
345.3037, 4051.461
345.7858, 4055.649
346.2679, 4060.604
346.7501, 4066.212
347.2322, 4070.664
347.7143, 4072.292
348.1964, 4071.952
348.6785, 4072.426
349.1607, 4073.854
349.6428, 4075.943
350.1249, 4079.095
350.6070, 4082.813
351.0891, 4085.516
351.5713, 4085.655
352.0534, 4084.874
352.5355, 4085.967
353.0176, 4088.869
353.4997, 4091.563
353.9818, 4092.004
354.4640, 4091.333
354.9461, 4091.427
355.4282, 4093.717
355.9103, 4095.842
356.3924, 4094.353
356.8745, 4090.457
357.3567, 4088.894
357.8388, 4094.895
358.3209, 4102.962
358.8030, 4108.080
359.2851, 4108.243
359.7672, 4108.359
360.2494, 4111.551
360.7315, 4116.505
361.2136, 4120.743
361.6957, 4120.625
362.1778, 4121.776
362.6599, 4128.287
363.1421, 4141.403
363.6242, 4152.071
364.1063, 4155.729
364.5884, 4156.317
365.0705, 4157.834
365.5526, 4161.474
366.0348, 4165.630
366.5169, 4170.320
366.9990, 4175.438
367.4811, 4179.740
367.9632, 4182.264
368.4453, 4184.501
368.9275, 4187.276
369.4096, 4190.790
369.8917, 4194.576
370.3738, 4199.111
370.8559, 4203.916
371.3380, 4207.530
371.8202, 4209.328
372.3023, 4210.840
372.7844, 4212.466
373.2665, 4213.972
373.7487, 4216.701
374.2308, 4221.394
374.7129, 4226.599
375.1950, 4230.260
375.6771, 4231.846
376.1592, 4233.656
376.6414, 4236.197
377.1235, 4239.493
377.6056, 4244.100
378.0877, 4250.578
378.5698, 4256.763
379.0519, 4260.335
379.5341, 4261.262
380.0162, 4263.280
380.4983, 4267.278
380.9804, 4272.392
381.4625, 4276.235
381.9446, 4278.885
382.4268, 4282.020
382.9089, 4287.460
383.3910, 4294.263
383.8731, 4299.088
384.3552, 4301.232
384.8373, 4303.342
385.3195, 4309.133
385.8016, 4317.502
386.2837, 4325.354
386.7658, 4330.921
387.2479, 4335.303
387.7300, 4340.058
388.2122, 4345.131
388.6943, 4349.696
389.1764, 4352.345
389.6585, 4354.356
390.1406, 4357.366
390.6227, 4362.468
391.1049, 4367.750
391.5870, 4371.950
392.0691, 4375.272
392.5512, 4378.348
393.0333, 4380.700
393.5154, 4383.436
393.9976, 4387.524
394.4797, 4393.630
394.9618, 4399.220
395.4439, 4402.984
395.9260, 4405.919
396.4081, 4409.341
396.8903, 4414.979
397.3724, 4419.781
397.8545, 4422.313
398.3366, 4422.435
398.8188, 4423.964
399.3009, 4428.348
399.7830, 4433.429
400.2651, 4437.810
400.7472, 4440.333
401.2293, 4443.855
401.7115, 4448.610
402.1936, 4454.426
402.6757, 4460.974
403.1578, 4468.955
403.6399, 4476.433
404.1220, 4482.364
404.6042, 4486.450
405.0863, 4490.749
405.5684, 4495.107
406.0505, 4499.814
406.5326, 4505.327
407.0147, 4511.765
407.4969, 4518.298
407.9790, 4524.509
408.4611, 4530.773
408.9432, 4538.788
409.4253, 4548.654
409.9074, 4559.114
410.3896, 4570.100
410.8717, 4581.162
411.3538, 4589.775
411.8359, 4594.737
412.3180, 4599.042
412.8001, 4607.303
413.2823, 4618.604
413.7644, 4629.896
414.2465, 4638.971
414.7286, 4647.288
415.2107, 4656.964
415.6928, 4668.010
416.1750, 4679.724
416.6571, 4692.005
417.1392, 4704.388
417.6213, 4716.663
418.1034, 4728.385
418.5855, 4740.204
419.0677, 4752.371
419.5498, 4764.924
420.0319, 4777.500
420.5140, 4789.694
420.9961, 4802.234
421.4782, 4815.660
421.9604, 4830.225
422.4425, 4845.099
422.9246, 4860.914
423.4067, 4876.556
423.8889, 4890.712
424.3710, 4901.672
424.8531, 4912.656
425.3352, 4924.741
425.8173, 4937.960
426.2994, 4948.782
426.7816, 4955.065
427.2637, 4961.028
427.7458, 4969.709
428.2279, 4983.333
428.7100, 4994.422
429.1921, 5001.889
429.6743, 5006.896
430.1564, 5011.955
430.6385, 5017.365
431.1206, 5021.704
431.6027, 5024.397
432.0848, 5025.487
432.5670, 5024.867
433.0491, 5022.092
433.5312, 5019.469
434.0133, 5019.970
434.4954, 5023.128
434.9775, 5025.514
435.4597, 5025.737
435.9418, 5025.514
436.4239, 5027.257
436.9060, 5031.031
437.3881, 5037.253
437.8702, 5048.834
438.3524, 5062.042
438.8345, 5071.247
439.3166, 5075.489
439.7987, 5077.948
440.2808, 5079.327
440.7629, 5080.877
441.2451, 5084.556
441.7272, 5095.186
442.2093, 5104.445
442.6914, 5106.788
443.1735, 5103.134
443.6556, 5099.890
444.1378, 5101.199
444.6199, 5102.494
445.1020, 5100.757
445.5841, 5093.913
446.0662, 5087.485
446.5483, 5083.249
447.0305, 5079.761
447.5126, 5074.552
447.9947, 5067.266
448.4768, 5058.763
448.9590, 5048.759
449.4411, 5037.233
449.9232, 5026.298
450.4053, 5015.581
450.8874, 5005.686
451.3695, 4997.260
451.8517, 4990.460
452.3338, 4983.943
452.8159, 4977.671
453.2980, 4971.498
453.7801, 4964.953
454.2622, 4958.036
454.7444, 4951.278
455.2265, 4945.072
455.7086, 4939.271
456.1907, 4933.453
456.6728, 4927.554
457.1549, 4921.936
457.6371, 4916.363
458.1192, 4911.263
458.6013, 4907.692
459.0834, 4906.570
459.5655, 4905.941
460.0476, 4903.729
460.5298, 4900.268
461.0119, 4896.673
461.4940, 4891.906
461.9761, 4888.250
462.4582, 4888.306
462.9403, 4892.577
463.4225, 4896.124
463.9046, 4896.131
464.3867, 4894.625
464.8688, 4893.528
465.3509, 4893.689
465.8330, 4893.883
466.3152, 4893.724
466.7973, 4893.404
467.2794, 4893.572
467.7615, 4893.933
468.2436, 4895.157
468.7257, 4897.846
469.2079, 4902.617
469.6900, 4905.583
470.1721, 4905.160
470.6542, 4904.590
471.1363, 4907.836
471.6184, 4916.239
472.1006, 4923.020
472.5827, 4926.744
473.0648, 4928.238
473.5469, 4929.806
474.0291, 4931.451
474.5112, 4933.313
474.9933, 4935.367
475.4754, 4937.712
475.9575, 4940.812
476.4396, 4944.743
476.9218, 4949.081
477.4039, 4953.552
477.8860, 4958.036
478.3681, 4962.186
478.8502, 4965.640
479.3323, 4968.951
479.8145, 4973.099
480.2966, 4977.667
480.7787, 4981.079
481.2608, 4982.042
481.7429, 4981.900
482.2250, 4981.338
482.7072, 4980.280
483.1893, 4979.620
483.6714, 4979.928
484.1535, 4980.697
484.6356, 4981.423
485.1177, 4981.375
485.5999, 4982.150
486.0820, 4984.771
486.5641, 4988.645
487.0462, 4991.534
487.5283, 4993.364
488.0104, 4994.455
488.4926, 4994.788
488.9747, 4994.206
489.4568, 4993.996
489.9389, 4993.962
490.4210, 4994.673
490.9031, 4996.812
491.3853, 5000.401
491.8674, 5004.747
492.3495, 5009.901
492.8316, 5015.365
493.3137, 5020.302
493.7958, 5024.664
494.2780, 5028.017
494.7601, 5029.023
495.2422, 5029.055
495.7243, 5030.487
496.2064, 5033.432
496.6885, 5037.884
497.1707, 5046.294
497.6528, 5055.511
498.1349, 5060.859
498.6170, 5057.499
499.0992, 5055.213
499.5813, 5061.957
500.0634, 5073.938
500.5455, 5081.923
501.0276, 5078.517
501.5097, 5074.431
501.9919, 5074.799
502.4740, 5081.002
502.9561, 5084.174
503.4382, 5079.927
503.9203, 5075.151
504.4024, 5074.851
504.8846, 5082.447
505.3667, 5087.330
505.8488, 5087.619
506.3309, 5085.664
506.8130, 5087.041
507.2951, 5092.740
507.7773, 5097.376
508.2594, 5098.349
508.7415, 5096.482
509.2236, 5096.653
509.7057, 5098.994
510.1878, 5101.812
510.6700, 5103.792
511.1521, 5105.167
511.6342, 5106.896
512.1163, 5109.438
512.5984, 5111.208
513.0806, 5109.031
513.5627, 5104.866
514.0448, 5102.800
514.5269, 5107.142
515.0090, 5112.063
515.4911, 5113.153
515.9733, 5110.922
516.4554, 5109.272
516.9375, 5109.566
517.4196, 5110.904
517.9017, 5113.003
518.3839, 5116.650
518.8660, 5118.922
519.3481, 5118.523
519.8302, 5117.017
520.3123, 5115.983
520.7944, 5115.239
521.2766, 5115.539
521.7587, 5117.971
522.2408, 5121.510
522.7229, 5121.447
523.2050, 5116.745
523.6871, 5112.643
524.1693, 5112.394
524.6514, 5115.694
525.1335, 5117.420
525.6156, 5117.176
526.0977, 5118.190
526.5798, 5126.620
527.0620, 5139.214
527.5441, 5145.438
528.0262, 5140.451
528.5083, 5133.018
528.9904, 5132.362
529.4725, 5136.555
529.9547, 5141.030
530.4368, 5142.313
530.9189, 5143.953
531.4010, 5148.963
531.8831, 5157.350
532.3652, 5164.257
532.8474, 5168.273
533.3295, 5170.258
533.8116, 5170.607
534.2937, 5167.168
534.7758, 5165.938
535.2579, 5168.440
535.7401, 5172.627
536.2222, 5175.576
536.7043, 5177.296
537.1864, 5178.013
537.6685, 5177.282
538.1506, 5175.773
538.6328, 5176.593
539.1149, 5180.069
539.5970, 5184.283
540.0791, 5188.342
540.5612, 5192.240
541.0433, 5195.326
541.5255, 5197.436
542.0076, 5199.883
542.4897, 5204.760
542.9718, 5210.782
543.4539, 5215.367
543.9360, 5217.146
544.4182, 5218.181
544.9003, 5219.388
545.3824, 5220.971
545.8645, 5223.450
546.3466, 5227.172
546.8287, 5231.621
547.3109, 5237.225
547.7930, 5243.948
548.2751, 5248.847
548.7572, 5250.678
549.2393, 5251.178
549.7214, 5251.284
550.2036, 5251.149
550.6857, 5250.197
551.1678, 5247.367
551.6499, 5244.933
552.1320, 5246.890
552.6141, 5254.249
553.0963, 5259.790
553.5784, 5261.670
554.0605, 5260.905
554.5426, 5258.788
555.0247, 5255.535
555.5068, 5254.843
555.9890, 5261.170
556.4711, 5270.779
556.9532, 5276.791
557.4353, 5278.917
557.9174, 5280.321
558.3995, 5283.063
558.8817, 5286.397
559.3638, 5289.438
559.8459, 5291.468
560.3281, 5294.114
560.8102, 5297.338
561.2923, 5301.724
561.7744, 5308.185
562.2565, 5318.983
562.7386, 5329.612
563.2208, 5338.704
563.7029, 5346.641
564.1850, 5356.870
564.6671, 5370.724
565.1492, 5384.373
565.6313, 5395.574
566.1135, 5403.939
566.5956, 5414.474
567.0777, 5427.773
567.5598, 5440.868
568.0419, 5449.570
568.5240, 5454.915
569.0062, 5462.591
569.4883, 5473.395
569.9704, 5487.471
570.4525, 5507.876
570.9346, 5531.970
571.4167, 5551.991
571.8989, 5559.955
572.3810, 5566.782
572.8631, 5580.150
573.3452, 5599.429
573.8273, 5620.286
574.3094, 5641.377
574.7916, 5663.261
575.2737, 5686.390
575.7558, 5711.131
576.2379, 5735.999
576.7200, 5762.766
577.2021, 5787.837
577.6843, 5808.013
578.1664, 5821.808
578.6485, 5835.119
579.1306, 5850.431
579.6127, 5863.491
580.0948, 5866.915
580.5770, 5860.732
581.0591, 5844.934
581.5412, 5815.670
582.0233, 5779.003
582.5054, 5747.622
582.9875, 5721.462
583.4697, 5696.838
583.9518, 5669.419
584.4339, 5643.679
584.9160, 5624.815
585.3981, 5613.756
