##NAMES=Fluorite
##RRUFFID=R060548
##IDEAL CHEMISTRY=CaF_2_
##LOCALITY=unknown
##OWNER=RRUFF
##SOURCE=Gemological Institute of America
##DESCRIPTION=Pale blue fragment
##STATUS=The identification of this mineral has been confirmed by X-ray diffraction and chemical analysis
##URL=rruff.info/R060548
##MEASURED CHEMISTRY=Ca_1.00_F_2.00_
163.466, 14339.610
163.948, 14348.070
164.430, 14359.500
164.912, 14379.050
165.394, 14404.040
165.876, 14431.120
166.359, 14464.620
166.841, 14496.300
167.323, 14520.280
167.805, 14535.660
168.287, 14549.040
168.769, 14564.710
169.251, 14581.940
169.733, 14599.110
170.216, 14612.210
170.698, 14627.190
171.180, 14650.970
171.662, 14687.250
172.144, 14725.500
172.626, 14756.980
173.108, 14783.530
173.590, 14811.320
174.072, 14846.290
174.555, 14883.720
175.037, 14915.920
175.519, 14935.960
176.001, 14959.740
176.483, 15009.840
176.965, 15082.370
177.447, 15153.460
177.929, 15201.910
178.412, 15237.480
178.894, 15278.780
179.376, 15332.140
179.858, 15391.070
180.340, 15446.940
180.822, 15499.560
181.304, 15550.550
181.786, 15596.350
182.268, 15640.810
182.751, 15695.980
183.233, 15775.900
183.715, 15864.270
184.197, 15922.800
184.679, 15950.590
185.161, 15966.470
185.643, 15982.890
186.125, 16001.360
186.607, 16031.970
187.090, 16080.040
187.572, 16142.520
188.054, 16217.180
188.536, 16306.580
189.018, 16391.711
189.500, 16441.570
189.982, 16458.350
190.464, 16476.000
190.947, 16511.789
191.429, 16562.650
191.911, 16605.029
192.393, 16636.369
192.875, 16665.801
193.357, 16681.387
193.839, 16724.463
194.321, 16760.867
194.803, 16790.957
195.286, 16795.826
195.768, 16833.264
196.250, 16857.646
196.732, 16881.494
197.214, 16923.516
197.696, 16932.049
198.178, 16973.789
198.661, 17002.270
199.143, 17036.814
199.625, 17058.227
200.107, 17083.350
200.589, 17131.740
201.071, 17172.869
201.553, 17208.820
202.035, 17229.141
202.517, 17217.529
202.999, 17167.920
203.482, 17143.260
203.964, 17160.061
204.446, 17202.340
204.928, 17214.381
205.410, 17192.109
205.892, 17148.660
206.374, 17085.160
206.857, 16992.939
207.339, 16923.279
207.821, 16884.859
208.303, 16874.881
208.785, 16884.900
209.267, 16928.949
209.749, 16964.131
210.231, 16944.801
210.713, 16850.520
211.195, 16786.150
211.678, 16782.561
212.160, 16833.289
212.642, 16847.180
213.124, 16813.471
213.606, 16762.910
214.088, 16724.631
214.570, 16701.881
215.052, 16681.699
215.535, 16660.350
216.017, 16637.680
216.499, 16623.109
216.981, 16620.170
217.463, 16619.359
217.945, 16608.711
218.427, 16582.039
218.909, 16559.240
219.391, 16545.051
219.874, 16539.381
220.356, 16536.289
220.838, 16538.471
221.320, 16540.010
221.802, 16532.449
222.284, 16510.131
222.766, 16492.100
223.248, 16486.699
223.731, 16497.619
224.213, 16496.480
224.695, 16479.881
225.177, 16455.230
225.659, 16431.461
226.141, 16407.680
226.623, 16387.500
227.105, 16370.210
227.587, 16353.490
228.070, 16353.060
228.552, 16377.030
229.034, 16411.211
229.516, 16432.270
229.998, 16432.340
230.480, 16432.311
230.962, 16442.711
231.444, 16472.869
231.926, 16471.711
232.409, 16416.580
232.891, 16343.030
233.373, 16316.220
233.855, 16369.050
234.337, 16415.619
234.819, 16419.689
235.301, 16354.770
235.783, 16339.210
236.266, 16402.750
236.748, 16501.279
237.230, 16546.881
237.712, 16503.859
238.194, 16464.811
238.676, 16470.699
239.158, 16551.090
239.640, 16586.369
240.122, 16556.211
240.605, 16489.920
241.087, 16448.529
241.569, 16443.641
242.051, 16445.699
242.533, 16442.211
243.015, 16426.301
243.497, 16424.410
243.980, 16445.170
244.462, 16476.529
244.944, 16486.770
245.426, 16448.740
245.908, 16429.961
246.390, 16465.000
246.872, 16589.859
247.354, 16673.330
247.836, 16695.029
248.318, 16681.160
248.801, 16695.900
249.283, 16759.961
249.765, 16818.789
250.247, 16847.109
250.729, 16828.949
251.211, 16820.721
251.693, 16821.289
252.176, 16833.150
252.658, 16865.859
253.140, 16937.510
253.622, 17002.000
254.104, 17037.039
254.586, 17026.279
255.068, 17032.881
255.550, 17064.570
256.032, 17111.230
256.514, 17147.551
256.997, 17169.990
257.479, 17189.029
257.961, 17208.270
258.443, 17225.520
258.925, 17250.029
259.407, 17288.189
259.889, 17329.850
260.371, 17346.680
260.854, 17318.641
261.336, 17303.850
261.818, 17331.070
262.300, 17411.961
262.782, 17496.820
263.264, 17589.830
263.746, 17683.150
264.228, 17756.869
264.711, 17810.131
265.193, 17846.449
265.675, 17859.580
266.157, 17835.369
266.639, 17846.920
267.121, 17904.811
267.603, 17991.000
268.085, 18070.080
268.567, 18141.189
269.050, 18206.760
269.532, 18261.279
270.014, 18297.609
270.496, 18366.820
270.978, 18481.400
271.460, 18615.930
271.942, 18725.340
272.424, 18810.420
272.906, 18866.199
273.389, 18883.850
273.871, 18857.859
274.353, 18833.039
274.835, 18802.930
275.317, 18784.010
275.799, 18812.131
276.281, 18894.869
276.763, 18986.510
277.246, 19060.199
277.728, 19112.949
278.210, 19204.660
278.692, 19351.381
279.174, 19510.260
279.656, 19599.910
280.138, 19610.590
280.620, 19633.650
281.103, 19723.490
281.585, 19877.650
282.067, 19996.391
282.549, 20078.779
283.031, 20126.789
283.513, 20130.750
283.995, 20089.070
284.477, 20056.561
284.959, 20061.439
285.441, 20099.490
285.924, 20128.830
286.406, 20145.170
286.888, 20168.039
287.370, 20241.109
287.852, 20360.660
288.334, 20449.141
288.816, 20461.480
289.298, 20413.801
289.781, 20377.170
290.263, 20353.641
290.745, 20330.189
291.227, 20284.949
291.709, 20221.820
292.191, 20170.939
292.673, 20150.660
293.155, 20149.580
293.638, 20135.080
294.120, 20106.170
294.602, 20075.010
295.084, 20041.029
295.566, 20011.990
296.048, 20017.270
296.530, 20076.801
297.012, 20174.689
297.494, 20296.619
297.977, 20444.980
298.459, 20566.930
298.941, 20600.641
299.423, 20571.141
299.905, 20536.250
300.387, 20490.051
300.869, 20466.570
301.351, 20524.830
301.833, 20661.801
302.316, 20818.260
302.798, 20927.410
303.280, 21024.801
303.762, 21176.840
304.244, 21423.270
304.726, 21709.869
305.208, 21959.461
305.690, 22181.619
306.173, 22452.461
306.655, 22842.529
307.137, 23303.410
307.619, 23776.150
308.101, 24256.211
308.583, 24727.449
309.065, 25152.779
309.547, 25549.490
310.030, 25969.801
310.512, 26432.070
310.994, 26939.869
311.476, 27488.850
311.958, 28047.730
312.440, 28700.039
312.922, 29521.961
313.404, 30483.721
313.886, 31508.650
314.369, 32488.400
314.851, 33568.801
315.333, 34836.988
315.815, 36341.762
316.297, 37973.602
316.779, 39650.129
317.261, 41414.398
317.743, 43382.570
318.225, 45783.430
318.708, 48251.289
319.190, 50622.270
319.672, 52959.781
320.154, 54989.102
320.636, 56944.750
321.118, 58489.891
321.600, 59112.852
322.082, 58345.801
322.565, 56938.281
323.047, 55075.211
323.529, 52685.238
324.011, 50189.441
324.493, 47489.281
324.975, 44765.539
325.457, 42224.039
325.939, 39841.199
326.422, 37685.969
326.904, 35783.648
327.386, 34161.930
327.868, 32698.340
328.350, 31387.510
328.832, 30225.141
329.314, 29210.150
329.796, 28399.881
330.278, 27661.721
330.760, 26987.289
331.243, 26379.000
331.725, 25826.500
332.207, 25336.609
332.689, 24894.840
333.171, 24496.699
333.653, 24143.400
334.135, 23826.051
334.617, 23552.760
335.100, 23316.350
335.582, 23091.109
336.064, 22874.721
336.546, 22675.830
337.028, 22503.330
337.510, 22366.279
337.992, 22226.221
338.474, 22078.240
338.957, 21926.051
339.439, 21771.391
339.921, 21606.961
340.403, 21467.830
340.885, 21386.260
341.367, 21365.600
341.849, 21320.711
342.331, 21245.270
342.813, 21150.391
343.296, 21046.539
343.778, 20933.529
344.260, 20836.100
344.742, 20777.711
345.224, 20750.689
345.706, 20701.500
346.188, 20625.811
346.670, 20548.320
347.152, 20500.480
347.635, 20479.000
348.117, 20462.311
348.599, 20443.381
349.081, 20422.881
349.563, 20401.840
350.045, 20379.750
350.527, 20358.850
351.009, 20343.971
351.491, 20331.430
351.974, 20312.461
352.456, 20275.100
352.938, 20237.869
353.420, 20228.400
353.902, 20242.850
354.384, 20257.230
354.866, 20257.801
355.349, 20247.650
355.831, 20229.590
356.313, 20200.289
356.795, 20171.891
357.277, 20156.850
357.759, 20151.449
358.241, 20144.289
358.723, 20123.141
359.205, 20102.490
359.688, 20094.430
360.170, 20104.141
360.652, 20116.250
361.134, 20128.680
361.616, 20137.939
362.098, 20138.131
362.580, 20108.260
363.062, 20084.189
363.544, 20086.350
364.027, 20121.760
364.509, 20148.400
364.991, 20160.070
365.473, 20156.119
365.955, 20135.910
366.437, 20069.039
366.919, 20017.000
367.401, 19996.930
367.884, 20009.920
368.366, 20027.279
368.848, 20038.840
369.330, 20061.189
369.812, 20107.211
370.294, 20215.520
370.776, 20291.801
371.258, 20314.199
371.741, 20296.141
372.223, 20297.221
372.705, 20324.850
373.187, 20361.109
373.669, 20398.090
374.151, 20437.350
374.633, 20472.359
375.115, 20505.061
375.597, 20531.109
376.079, 20535.631
376.562, 20508.240
377.044, 20495.859
377.526, 20530.891
378.008, 20615.590
378.490, 20650.811
378.972, 20625.561
379.454, 20580.900
379.936, 20569.461
380.419, 20591.000
380.901, 20613.170
381.383, 20624.869
381.865, 20630.551
382.347, 20641.971
382.829, 20659.730
383.311, 20683.600
383.793, 20722.820
384.276, 20769.350
384.758, 20795.811
385.240, 20785.039
385.722, 20765.779
386.204, 20783.131
386.686, 20830.320
387.168, 20870.760
387.650, 20861.070
388.132, 20838.199
388.615, 20856.100
389.097, 20933.170
389.579, 21014.869
390.061, 21058.119
390.543, 21074.340
391.025, 21087.109
391.507, 21128.500
391.989, 21154.471
392.471, 21122.641
392.954, 21023.971
393.436, 20945.391
393.918, 20945.039
394.400, 20977.119
394.882, 20993.580
395.364, 20959.301
395.846, 20931.561
396.328, 20929.301
396.810, 20951.150
397.293, 20972.699
397.775, 20988.051
398.257, 21003.100
398.739, 21021.131
399.221, 21055.980
399.703, 21074.939
400.185, 21064.039
400.668, 21037.000
401.150, 21031.010
401.632, 21057.270
402.114, 21089.260
402.596, 21118.580
403.078, 21145.859
403.560, 21170.150
404.042, 21196.510
404.524, 21215.119
405.007, 21207.619
405.489, 21165.039
405.971, 21133.090
406.453, 21125.939
406.935, 21141.119
407.417, 21153.090
407.899, 21157.061
408.381, 21179.410
408.863, 21269.529
409.346, 21417.920
409.828, 21501.221
410.310, 21482.551
410.792, 21410.990
411.274, 21367.949
411.756, 21353.150
412.238, 21363.490
412.720, 21419.160
413.203, 21494.580
413.685, 21537.660
414.167, 21539.381
414.649, 21529.971
415.131, 21537.211
415.613, 21554.961
416.095, 21570.539
416.577, 21579.350
417.060, 21582.660
417.542, 21577.311
418.024, 21563.760
418.506, 21556.000
418.988, 21570.770
419.470, 21590.430
419.952, 21598.420
420.434, 21579.869
420.916, 21561.910
421.398, 21554.100
421.881, 21554.240
422.363, 21554.180
422.845, 21553.230
423.327, 21551.779
423.809, 21552.289
424.291, 21563.949
424.773, 21557.660
425.255, 21519.820
425.738, 21469.330
426.220, 21430.131
426.702, 21402.311
427.184, 21386.750
427.666, 21385.330
428.148, 21397.961
428.630, 21413.570
429.112, 21434.131
429.595, 21453.391
430.077, 21465.381
430.559, 21468.641
431.041, 21469.609
431.523, 21466.131
432.005, 21463.039
432.487, 21476.641
432.969, 21508.189
433.451, 21536.990
433.934, 21544.750
434.416, 21538.250
434.898, 21551.320
435.380, 21588.039
435.862, 21631.350
436.344, 21662.670
436.826, 21684.730
437.308, 21704.939
437.790, 21715.289
438.273, 21732.971
438.755, 21715.811
439.237, 21744.010
439.719, 21761.199
440.201, 21767.971
440.683, 21733.115
441.165, 21752.010
441.647, 21749.365
442.129, 21745.836
442.612, 21772.299
443.094, 21743.496
443.576, 21769.482
444.058, 21773.598
444.540, 21787.723
445.022, 21780.174
445.504, 21779.318
445.987, 21800.145
446.469, 21808.967
446.951, 21798.922
447.433, 21813.684
447.915, 21784.125
448.397, 21797.061
448.879, 21794.920
449.361, 21809.730
449.843, 21813.619
450.326, 21805.850
450.808, 21788.680
451.290, 21760.359
451.772, 21716.650
452.254, 21679.859
452.736, 21647.250
453.218, 21626.500
453.700, 21640.850
454.182, 21692.400
454.665, 21725.609
455.147, 21712.891
455.629, 21667.830
456.111, 21630.391
456.593, 21600.779
457.075, 21581.150
457.557, 21582.910
458.039, 21596.260
458.522, 21594.910
459.004, 21566.400
459.486, 21537.500
459.968, 21540.580
460.450, 21566.641
460.932, 21590.830
461.414, 21609.090
461.896, 21614.980
462.379, 21596.721
462.861, 21550.830
463.343, 21513.840
463.825, 21506.840
464.307, 21514.270
464.789, 21520.439
465.271, 21523.811
465.753, 21523.230
466.235, 21511.971
466.717, 21493.990
467.200, 21490.051
467.682, 21511.250
468.164, 21537.400
468.646, 21561.109
469.128, 21582.760
469.610, 21600.240
470.092, 21609.721
470.574, 21617.859
471.057, 21636.020
471.539, 21669.051
472.021, 21693.221
472.503, 21704.529
472.985, 21701.750
473.467, 21672.289
473.949, 21611.461
474.431, 21555.750
474.914, 21535.439
475.396, 21545.311
475.878, 21564.199
476.360, 21592.529
476.842, 21621.141
477.324, 21647.529
477.806, 21666.881
478.288, 21662.551
478.770, 21590.439
479.253, 21514.141
479.735, 21512.789
480.217, 21583.910
480.699, 21649.520
481.181, 21647.770
481.663, 21625.359
482.145, 21627.131
482.627, 21680.820
483.109, 21731.510
483.592, 21758.189
484.074, 21768.100
484.556, 21778.080
485.038, 21774.160
485.520, 21784.721
486.002, 21827.330
486.484, 21908.279
486.966, 21963.900
487.448, 21980.320
487.931, 21983.881
488.413, 21996.150
488.895, 22019.680
489.377, 22046.580
489.859, 22077.240
490.341, 22111.180
490.823, 22147.660
491.306, 22188.480
491.788, 22223.520
492.270, 22247.420
492.752, 22261.471
493.234, 22264.770
493.716, 22255.090
494.198, 22253.980
494.680, 22285.529
495.162, 22342.930
495.645, 22409.010
496.127, 22482.160
496.609, 22557.289
497.091, 22636.650
497.573, 22715.520
498.055, 22779.619
498.537, 22798.420
499.019, 22815.369
499.501, 22867.730
499.984, 22966.660
500.466, 23056.811
500.948, 23110.631
501.430, 23149.561
501.912, 23195.980
502.394, 23269.029
502.876, 23331.369
503.358, 23375.221
503.841, 23404.051
504.323, 23430.520
504.805, 23438.211
505.287, 23467.051
505.769, 23542.990
506.251, 23677.580
506.733, 23776.980
507.215, 23830.539
507.698, 23869.869
508.180, 23934.869
508.662, 24025.609
509.144, 24117.289
509.626, 24207.340
510.108, 24292.039
510.590, 24365.801
511.072, 24427.590
511.554, 24462.551
512.036, 24431.039
512.519, 24377.881
513.001, 24380.750
513.483, 24453.631
513.965, 24523.820
514.447, 24526.221
514.929, 24498.029
515.411, 24487.100
515.893, 24532.070
516.375, 24574.260
516.858, 24598.141
517.340, 24601.820
517.822, 24579.189
518.304, 24486.770
518.786, 24403.020
519.268, 24370.430
519.750, 24414.740
520.232, 24415.070
520.715, 24348.410
521.197, 24257.820
521.679, 24185.311
522.161, 24133.330
522.643, 24094.570
523.125, 24071.180
523.607, 24058.211
524.089, 24045.789
524.571, 24035.480
525.054, 24009.471
525.536, 23938.529
526.018, 23842.330
526.500, 23801.971
526.982, 23823.250
527.464, 23841.910
527.946, 23772.699
528.429, 23661.811
528.911, 23596.580
529.393, 23635.461
529.875, 23678.180
530.357, 23602.689
530.839, 23469.961
531.321, 23435.211
531.803, 23369.168
532.286, 23395.164
532.768, 23398.826
533.250, 23381.342
533.732, 23279.389
534.214, 23286.510
534.696, 23249.922
535.178, 23211.531
535.660, 23234.008
536.142, 23144.340
536.625, 23165.848
537.107, 23134.850
537.589, 23102.529
538.071, 23088.779
538.553, 23083.689
539.035, 23087.131
539.517, 23096.750
539.999, 23097.820
540.481, 23089.699
540.964, 23079.850
541.446, 23076.939
541.928, 23076.590
542.410, 23063.221
542.892, 23026.641
543.374, 23000.820
543.856, 23026.510
544.338, 23085.221
544.820, 23141.061
545.303, 23192.070
545.785, 23222.760
546.267, 23205.369
546.749, 23148.000
547.231, 23125.180
547.713, 23198.289
548.195, 23280.660
548.677, 23325.180
549.159, 23314.760
549.642, 23300.020
550.124, 23277.529
550.606, 23253.961
551.088, 23233.730
551.570, 23210.240
552.052, 23215.471
552.534, 23269.930
553.016, 23350.891
553.499, 23371.721
553.981, 23329.910
554.463, 23288.910
554.945, 23294.480
555.427, 23328.650
555.909, 23337.311
556.391, 23316.930
556.873, 23297.119
557.356, 23303.359
557.838, 23327.881
558.320, 23362.619
558.802, 23422.439
559.284, 23463.770
559.766, 23434.881
560.248, 23370.340
560.730, 23344.980
561.213, 23417.080
561.695, 23499.420
562.177, 23568.891
562.659, 23624.650
563.141, 23654.061
563.623, 23635.461
564.105, 23613.199
564.587, 23614.381
565.069, 23643.520
565.552, 23679.189
566.034, 23722.711
566.516, 23767.670
566.998, 23807.760
567.480, 23842.430
567.962, 23860.439
568.444, 23850.119
568.926, 23827.461
569.408, 23826.311
569.891, 23844.141
570.373, 23864.949
570.855, 23885.340
571.337, 23899.980
571.819, 23900.240
572.301, 23883.660
572.783, 23868.811
573.265, 23872.350
573.747, 23879.131
574.230, 23874.510
574.712, 23852.990
575.194, 23822.199
575.676, 23780.301
576.158, 23729.859
576.640, 23676.480
577.122, 23612.551
577.604, 23560.609
578.086, 23531.311
578.569, 23523.279
579.051, 23506.240
579.533, 23476.100
580.015, 23454.461
580.497, 23474.990
580.979, 23525.840
581.461, 23518.230
581.943, 23433.311
582.426, 23342.891
582.908, 23324.811
583.390, 23362.439
583.872, 23420.520
584.354, 23516.730
584.836, 23593.600
585.318, 23592.051
585.800, 23533.689
586.282, 23485.689
586.765, 23489.381
587.247, 23495.789
587.729, 23474.061
588.211, 23412.250
588.693, 23388.480
589.175, 23430.859
589.657, 23487.939
590.140, 23527.430
590.622, 23550.020
591.104, 23547.391
591.586, 23503.080
592.068, 23456.100
592.550, 23486.740
593.032, 23594.311
593.514, 23677.600
593.996, 23693.939
594.479, 23675.891
594.961, 23687.449
595.443, 23723.891
595.925, 23755.789
596.407, 23751.490
596.889, 23740.939
597.371, 23759.609
597.853, 23813.359
598.335, 23857.230
598.818, 23841.930
599.300, 23823.170
599.782, 23848.920
600.264, 24003.461
600.746, 24100.939
601.228, 24102.930
601.710, 24052.869
602.192, 24025.570
602.674, 24027.039
603.157, 24036.029
603.639, 24047.600
604.121, 24062.211
604.603, 24079.631
605.085, 24098.770
605.567, 24132.131
606.049, 24200.410
606.531, 24288.090
607.013, 24346.170
607.496, 24370.811
607.978, 24396.439
608.460, 24466.949
608.942, 24550.301
609.424, 24603.609
609.906, 24597.000
610.388, 24592.289
610.870, 24614.439
611.353, 24656.689
611.835, 24706.320
612.317, 24789.939
612.799, 24848.330
613.281, 24859.520
613.763, 24831.721
614.245, 24825.359
614.727, 24850.660
615.209, 24875.641
615.692, 24882.359
616.174, 24871.480
616.656, 24864.811
617.138, 24862.279
617.620, 24866.660
618.102, 24888.600
618.584, 24919.721
619.067, 24932.320
619.549, 24911.039
620.031, 24897.641
620.513, 24939.000
620.995, 25012.000
621.477, 25076.230
621.959, 25104.230
622.441, 25131.850
622.923, 25181.170
623.406, 25244.801
623.888, 25283.010
624.370, 25261.631
624.852, 25248.881
625.334, 25271.391
625.816, 25332.381
626.298, 25387.391
626.780, 25441.760
627.263, 25476.631
627.745, 25469.869
628.227, 25425.180
628.709, 25372.971
629.191, 25312.520
629.673, 25262.520
630.155, 25252.461
630.637, 25270.131
631.119, 25287.311
631.602, 25291.869
632.084, 25296.311
632.566, 25306.230
633.048, 25322.801
633.530, 25349.080
634.012, 25377.381
634.494, 25424.250
634.976, 25443.992
635.458, 25516.209
635.941, 25575.688
636.423, 25623.115
636.905, 25622.389
637.387, 25683.854
637.869, 25720.385
638.351, 25755.900
638.833, 25826.104
639.315, 25832.385
639.797, 25898.631
640.280, 25917.350
640.762, 25890.570
641.244, 25765.510
641.726, 25635.600
642.208, 25595.051
642.690, 25622.869
643.172, 25673.391
643.654, 25739.930
644.137, 25814.600
644.619, 25898.811
645.101, 25990.539
645.583, 26080.461
646.065, 26176.520
646.547, 26260.779
647.029, 26319.539
647.511, 26349.500
647.994, 26403.279
648.476, 26485.109
648.958, 26577.369
649.440, 26664.051
649.922, 26746.020
650.404, 26836.020
650.886, 26936.100
651.368, 27030.010
651.851, 27102.900
652.333, 27153.471
652.815, 27179.750
653.297, 27175.391
653.779, 27154.391
654.261, 27126.051
654.743, 27088.230
655.225, 27035.840
655.707, 26959.061
656.190, 26878.160
656.672, 26799.881
657.154, 26723.670
657.636, 26637.211
658.118, 26532.439
658.600, 26433.070
659.082, 26344.500
659.564, 26266.330
660.046, 26233.410
660.529, 26252.449
661.011, 26261.410
661.493, 26183.170
