##NAMES=Fluorite
##RRUFFID=R050045
##IDEAL CHEMISTRY=CaF_2_
##LOCALITY=Hunan Province, China
##OWNER=RRUFF
##SOURCE=Eugene Schlepp
##DESCRIPTION=Pale green colored cubes
##STATUS=The identification of this mineral has been confirmed by X-ray diffraction and chemical analysis
##URL=rruff.info/R050045
##MEASURED CHEMISTRY=Ca_1.000_ F_2.000_
111.8592, 57.56635
112.3413, 57.42954
112.8234, 59.17929
113.3055, 62.16875
113.7877, 66.43818
114.2698, 72.55356
114.7519, 82.40839
115.2340, 93.15043
115.7161, 101.3709
116.1982, 106.2987
116.6804, 109.8672
117.1625, 114.2714
117.6446, 119.8429
118.1267, 123.7142
118.6088, 123.5226
119.0909, 121.5853
119.5731, 119.1002
120.0552, 115.8960
120.5373, 113.6460
121.0194, 115.7876
121.5015, 124.5753
121.9836, 131.3015
122.4658, 130.2206
122.9479, 127.2751
123.4300, 128.2635
123.9121, 135.8066
124.3942, 147.6736
124.8763, 158.2769
125.3585, 165.8301
125.8406, 175.5131
126.3227, 188.5307
126.8048, 203.9165
127.2869, 220.8235
127.7690, 238.7610
128.2512, 257.7621
128.7333, 276.9382
129.2154, 290.4151
129.6975, 312.1973
130.1796, 349.6209
130.6617, 395.5038
131.1439, 440.3968
131.6260, 478.8285
132.1081, 511.1371
132.5902, 539.8708
133.0723, 567.0681
133.5544, 588.1145
134.0366, 601.3344
134.5187, 607.6301
135.0008, 608.4418
135.4829, 604.5809
135.9650, 596.1481
136.4471, 584.3781
136.9293, 560.3510
137.4114, 542.3423
137.8935, 538.8757
138.3756, 546.2355
138.8577, 554.8180
139.3398, 557.2560
139.8220, 553.4377
140.3041, 556.5820
140.7862, 566.9538
141.2683, 582.1135
141.7504, 601.9308
142.2325, 625.8367
142.7147, 652.1655
143.1968, 679.4872
143.6789, 707.9189
144.1610, 742.1237
144.6431, 784.2210
145.1252, 829.3662
145.6074, 876.7910
146.0895, 925.6394
146.5716, 972.0876
147.0537, 1011.895
147.5358, 1045.115
148.0179, 1084.266
148.5001, 1135.629
148.9822, 1188.125
149.4643, 1234.768
149.9464, 1275.343
150.4285, 1311.223
150.9106, 1343.359
151.3928, 1371.363
151.8749, 1396.332
152.3570, 1421.296
152.8391, 1441.391
153.3212, 1449.111
153.8033, 1443.494
154.2855, 1438.049
154.7676, 1445.292
155.2497, 1462.260
155.7318, 1475.988
156.2139, 1483.081
156.6960, 1486.654
157.1782, 1488.881
157.6603, 1489.283
158.1424, 1492.156
158.6245, 1501.489
159.1066, 1515.943
159.5887, 1533.216
160.0709, 1553.703
160.5530, 1576.307
161.0351, 1599.016
161.5172, 1621.264
161.9993, 1645.214
162.4814, 1672.805
162.9636, 1703.034
163.4457, 1735.233
163.9278, 1768.821
164.4099, 1804.174
164.8920, 1842.221
165.3741, 1883.829
165.8563, 1925.481
166.3384, 1965.664
166.8205, 2004.375
167.3026, 2041.307
167.7847, 2075.073
168.2668, 2107.526
168.7490, 2143.325
169.2311, 2184.379
169.7132, 2224.823
170.1953, 2261.684
170.6774, 2296.028
171.1595, 2329.540
171.6417, 2364.262
172.1238, 2398.116
172.6059, 2425.849
173.0880, 2446.685
173.5701, 2462.379
174.0522, 2467.436
174.5344, 2469.737
175.0165, 2481.367
175.4986, 2510.835
175.9807, 2551.845
176.4628, 2587.366
176.9449, 2614.888
177.4271, 2641.279
177.9092, 2669.932
178.3913, 2699.053
178.8734, 2726.668
179.3555, 2753.197
179.8376, 2776.686
180.3197, 2789.902
180.8019, 2783.375
181.2840, 2783.566
181.7661, 2803.075
182.2482, 2831.684
182.7303, 2857.268
183.2124, 2874.347
183.6946, 2884.108
184.1767, 2889.925
184.6588, 2892.253
185.1409, 2889.042
185.6230, 2877.279
186.1051, 2861.653
186.5873, 2847.506
187.0694, 2837.448
187.5515, 2829.919
188.0336, 2820.475
188.5157, 2807.989
188.9978, 2795.548
189.4800, 2786.594
189.9621, 2777.052
190.4442, 2761.749
190.9263, 2738.135
191.4084, 2709.831
191.8905, 2686.113
192.3727, 2671.450
192.8548, 2653.168
193.3369, 2622.551
193.8190, 2590.836
194.3011, 2571.289
194.7832, 2569.401
195.2654, 2574.768
195.7475, 2563.915
196.2296, 2525.034
196.7117, 2491.455
197.1938, 2469.175
197.6759, 2452.124
198.1581, 2435.403
198.6402, 2417.264
199.1223, 2399.059
199.6044, 2383.967
200.0865, 2375.904
200.5686, 2362.780
201.0508, 2339.615
201.5329, 2314.341
202.0150, 2293.977
202.4971, 2280.120
202.9792, 2268.415
203.4613, 2250.732
203.9435, 2220.886
204.4256, 2199.446
204.9077, 2192.129
205.3898, 2188.724
205.8719, 2182.093
206.3540, 2170.957
206.8362, 2159.202
207.3183, 2153.063
207.8004, 2157.188
208.2825, 2154.962
208.7646, 2138.837
209.2467, 2122.848
209.7289, 2116.362
210.2110, 2119.720
210.6931, 2125.917
211.1752, 2127.599
211.6573, 2125.145
212.1395, 2116.305
212.6216, 2090.354
213.1037, 2067.583
213.5858, 2061.117
214.0679, 2068.902
214.5500, 2078.419
215.0322, 2077.108
215.5143, 2063.231
215.9964, 2049.870
216.4785, 2033.599
216.9606, 2020.917
217.4427, 2014.462
217.9249, 2013.872
218.4070, 2018.172
218.8891, 2028.605
219.3712, 2045.712
219.8533, 2049.037
220.3354, 2018.945
220.8176, 1993.574
221.2997, 1983.973
221.7818, 1987.124
222.2639, 1996.202
222.7460, 2007.685
223.2281, 2020.763
223.7103, 2025.626
224.1924, 2010.698
224.6745, 1999.842
225.1566, 2002.543
225.6387, 2011.528
226.1208, 2015.026
226.6030, 2005.592
227.0851, 1987.130
227.5672, 1976.335
228.0493, 1980.711
228.5314, 1982.969
229.0135, 1977.748
229.4957, 1969.857
229.9778, 1965.262
230.4599, 1966.742
230.9420, 1971.629
231.4241, 1972.861
231.9062, 1965.698
232.3884, 1963.266
232.8705, 1972.823
233.3526, 1984.088
233.8347, 1986.635
234.3168, 1977.299
234.7989, 1963.576
235.2811, 1959.047
235.7632, 1968.904
236.2453, 1975.713
236.7274, 1975.617
237.2095, 1974.079
237.6916, 1973.938
238.1738, 1976.059
238.6559, 1980.649
239.1380, 1989.513
239.6201, 2005.502
240.1022, 2015.060
240.5843, 2012.120
241.0665, 2007.238
241.5486, 2003.998
242.0307, 2003.292
242.5128, 2005.357
242.9949, 2009.408
243.4770, 2014.980
243.9592, 2028.684
244.4413, 2062.094
244.9234, 2093.114
245.4055, 2112.495
245.8876, 2122.565
246.3697, 2130.268
246.8519, 2139.368
247.3340, 2150.255
247.8161, 2166.142
248.2982, 2191.003
248.7803, 2215.913
249.2624, 2237.258
249.7446, 2256.743
250.2267, 2276.974
250.7088, 2299.381
251.1909, 2323.607
251.6730, 2348.848
252.1551, 2375.637
252.6373, 2402.585
253.1194, 2426.194
253.6015, 2450.814
254.0836, 2482.294
254.5657, 2523.712
255.0478, 2568.917
255.5300, 2608.032
256.0121, 2639.291
256.4942, 2670.755
256.9763, 2703.125
257.4584, 2737.465
257.9406, 2777.364
258.4227, 2823.832
258.9048, 2867.848
259.3869, 2899.359
259.8690, 2917.958
260.3511, 2934.278
260.8333, 2949.506
261.3154, 2963.681
261.7975, 2976.313
262.2796, 2987.559
262.7617, 2999.581
263.2438, 3015.212
263.7260, 3033.531
264.2081, 3049.317
264.6902, 3063.116
265.1723, 3072.250
265.6544, 3074.600
266.1365, 3071.231
266.6187, 3065.195
267.1008, 3054.762
267.5829, 3043.201
268.0650, 3040.259
268.5471, 3050.433
269.0292, 3055.270
269.5114, 3033.611
269.9935, 2998.507
270.4756, 2971.945
270.9577, 2963.370
271.4398, 2962.542
271.9219, 2957.548
272.4041, 2948.173
272.8862, 2942.264
273.3683, 2945.780
273.8504, 2954.433
274.3325, 2959.981
274.8146, 2962.294
275.2968, 2961.033
275.7789, 2950.628
276.2610, 2934.853
276.7431, 2930.510
277.2252, 2946.845
277.7073, 2972.986
278.1895, 2991.454
278.6716, 3002.047
279.1537, 3008.743
279.6358, 3010.856
280.1179, 3010.416
280.6000, 3010.731
281.0822, 3012.508
281.5643, 3015.265
282.0464, 3019.130
282.5285, 3024.362
283.0106, 3027.150
283.4927, 3026.537
283.9749, 3023.623
284.4570, 3016.344
284.9391, 3005.546
285.4212, 3000.959
285.9033, 3013.857
286.3854, 3043.328
286.8676, 3053.992
287.3497, 3031.296
287.8318, 3005.795
288.3139, 2991.187
288.7960, 2985.676
289.2781, 2982.846
289.7603, 2979.170
290.2424, 2975.409
290.7245, 2974.979
291.2066, 2987.339
291.6887, 2991.224
292.1708, 2977.739
292.6530, 2956.050
293.1351, 2935.643
293.6172, 2920.032
294.0993, 2910.691
294.5814, 2911.222
295.0635, 2932.849
295.5457, 2942.780
296.0278, 2932.529
296.5099, 2917.610
296.9920, 2907.006
297.4741, 2902.715
297.9562, 2904.048
298.4384, 2911.023
298.9205, 2924.785
299.4026, 2936.351
299.8847, 2936.766
300.3668, 2943.918
300.8489, 2966.042
301.3311, 2999.914
301.8131, 3038.606
302.2953, 3078.532
302.7774, 3118.617
303.2595, 3152.131
303.7416, 3166.227
304.2237, 3193.528
304.7058, 3246.734
305.1880, 3312.332
305.6701, 3375.098
306.1522, 3429.231
306.6343, 3482.393
307.1164, 3547.726
307.5985, 3627.358
308.0807, 3710.325
308.5628, 3788.172
309.0449, 3873.630
309.5270, 3976.651
310.0091, 4097.493
310.4912, 4223.809
310.9734, 4341.683
311.4555, 4453.225
311.9376, 4579.688
312.4197, 4723.081
312.9018, 4881.597
313.3839, 5051.098
313.8661, 5232.829
314.3482, 5428.536
314.8303, 5627.920
315.3124, 5846.745
315.7945, 6119.184
316.2766, 6451.037
316.7588, 6800.342
317.2409, 7142.724
317.7230, 7487.232
318.2051, 7851.081
318.6872, 8249.439
319.1693, 8640.465
319.6515, 9020.959
320.1336, 9374.332
320.6157, 9637.104
321.0978, 9792.857
321.5799, 9835.959
322.0620, 9742.803
322.5442, 9513.841
323.0263, 9219.661
323.5084, 8865.019
323.9905, 8461.419
324.4726, 8008.378
324.9547, 7504.403
325.4369, 6996.110
325.9190, 6521.293
326.4011, 6083.437
326.8832, 5689.557
327.3653, 5339.400
327.8474, 5029.211
328.3296, 4764.859
328.8117, 4539.094
329.2938, 4334.975
329.7759, 4141.872
330.2580, 3961.361
330.7401, 3806.989
331.2223, 3697.741
331.7044, 3590.476
332.1865, 3473.769
332.6686, 3359.746
333.1507, 3260.501
333.6328, 3180.203
334.1150, 3116.359
334.5971, 3066.774
335.0792, 3038.827
335.5613, 3005.869
336.0434, 2963.855
336.5255, 2921.111
337.0077, 2883.546
337.4898, 2849.661
337.9719, 2812.666
338.4540, 2765.599
338.9361, 2710.515
339.4182, 2666.383
339.9004, 2640.192
340.3825, 2615.617
340.8646, 2586.622
341.3467, 2556.527
341.8288, 2530.031
342.3109, 2509.142
342.7931, 2490.708
343.2752, 2471.923
343.7573, 2453.759
344.2394, 2427.348
344.7215, 2380.109
345.2036, 2332.110
345.6858, 2299.074
346.1679, 2281.616
346.6500, 2270.493
347.1321, 2263.689
347.6142, 2258.731
348.0963, 2246.903
348.5785, 2224.538
349.0606, 2204.051
349.5427, 2198.190
350.0248, 2202.437
350.5069, 2203.747
350.9890, 2199.368
351.4712, 2191.604
351.9533, 2181.236
352.4354, 2168.711
352.9175, 2155.792
353.3996, 2142.479
353.8817, 2130.243
354.3639, 2124.131
354.8460, 2128.865
355.3281, 2128.662
355.8102, 2113.686
356.2923, 2094.792
356.7744, 2085.961
357.2566, 2089.808
357.7387, 2098.233
358.2208, 2102.440
358.7029, 2101.765
359.1850, 2100.219
359.6671, 2094.586
360.1493, 2091.356
360.6314, 2095.149
361.1135, 2103.569
361.5956, 2111.689
362.0777, 2116.833
362.5598, 2118.885
363.0420, 2116.698
363.5241, 2102.344
364.0062, 2096.980
364.4883, 2108.840
364.9704, 2126.005
365.4525, 2138.443
365.9347, 2144.064
366.4168, 2147.941
366.8989, 2155.969
367.3810, 2168.541
367.8631, 2179.770
368.3452, 2189.458
368.8274, 2197.653
369.3095, 2202.935
369.7916, 2206.890
370.2737, 2213.195
370.7558, 2223.862
371.2379, 2237.625
371.7201, 2252.551
372.2022, 2268.650
372.6843, 2285.729
373.1664, 2305.213
373.6485, 2324.562
374.1306, 2340.696
374.6128, 2353.886
375.0949, 2362.510
375.5770, 2363.740
376.0591, 2360.060
376.5412, 2355.999
377.0233, 2352.371
377.5055, 2349.102
377.9876, 2345.623
378.4697, 2341.854
378.9518, 2341.452
379.4339, 2349.684
379.9160, 2356.601
380.3982, 2354.302
380.8803, 2345.537
381.3624, 2339.407
381.8445, 2341.426
382.3266, 2347.390
382.8087, 2344.362
383.2909, 2320.158
383.7730, 2302.739
384.2551, 2300.367
384.7372, 2299.971
385.2193, 2290.501
385.7014, 2270.533
386.1836, 2245.806
386.6657, 2220.339
387.1478, 2193.646
387.6299, 2177.799
388.1120, 2182.842
388.5941, 2187.524
389.0763, 2186.016
389.5584, 2179.382
390.0405, 2169.630
390.5226, 2157.386
391.0047, 2142.820
391.4868, 2124.246
391.9690, 2100.789
392.4511, 2083.000
392.9332, 2080.594
393.4153, 2078.622
393.8974, 2059.866
394.3795, 2024.405
394.8617, 1994.469
395.3438, 1987.577
395.8259, 1990.887
396.3080, 1981.003
396.7901, 1955.231
397.2722, 1929.486
397.7544, 1914.874
398.2365, 1909.844
398.7186, 1903.591
399.2007, 1897.261
399.6828, 1888.568
400.1649, 1873.434
400.6471, 1856.104
401.1292, 1844.545
401.6113, 1841.354
402.0934, 1841.100
402.5755, 1835.758
403.0576, 1823.864
403.5398, 1810.973
404.0219, 1796.193
404.5040, 1781.267
404.9861, 1766.419
405.4682, 1752.118
405.9503, 1739.379
406.4325, 1728.932
406.9146, 1720.291
407.3967, 1711.548
407.8788, 1700.835
408.3609, 1694.063
408.8430, 1697.332
409.3252, 1701.370
409.8073, 1697.672
410.2894, 1685.362
410.7715, 1672.304
411.2536, 1666.096
411.7357, 1665.222
412.2179, 1661.922
412.7000, 1655.007
413.1821, 1647.362
413.6642, 1640.648
414.1463, 1634.641
414.6284, 1629.200
415.1106, 1624.465
415.5927, 1620.038
416.0748, 1615.110
416.5569, 1610.180
417.0390, 1606.833
417.5211, 1605.641
418.0033, 1606.237
418.4854, 1608.741
418.9675, 1614.847
419.4496, 1616.626
419.9317, 1609.389
420.4138, 1601.348
420.8960, 1599.458
421.3781, 1601.996
421.8602, 1601.696
422.3423, 1593.359
422.8244, 1579.606
423.3065, 1572.284
423.7887, 1580.148
424.2708, 1580.552
424.7529, 1566.398
425.2350, 1547.786
425.7171, 1531.690
426.1992, 1519.656
426.6814, 1511.018
427.1635, 1507.626
427.6456, 1508.549
428.1277, 1501.424
428.6098, 1480.035
429.0919, 1462.640
429.5741, 1462.702
430.0562, 1471.492
430.5383, 1476.747
431.0204, 1475.938
431.5025, 1470.296
431.9846, 1458.390
432.4668, 1442.073
432.9489, 1427.932
433.4310, 1417.702
433.9131, 1409.882
434.3952, 1402.748
434.8773, 1396.279
435.3595, 1391.764
435.8416, 1389.783
436.3237, 1389.353
436.8058, 1391.937
437.2879, 1395.602
437.7701, 1395.327
438.2522, 1388.293
438.7343, 1377.384
439.2164, 1369.769
439.6985, 1365.453
440.1806, 1364.825
440.6628, 1372.377
441.1449, 1379.436
441.6270, 1379.835
442.1091, 1374.209
442.5912, 1367.097
443.0733, 1360.700
443.5555, 1355.962
444.0376, 1358.101
444.5197, 1370.976
445.0018, 1379.909
445.4839, 1377.208
445.9660, 1368.741
446.4482, 1358.396
446.9303, 1346.016
447.4124, 1337.096
447.8945, 1338.277
448.3766, 1344.677
448.8587, 1344.469
449.3409, 1335.490
449.8230, 1328.596
450.3051, 1333.320
450.7872, 1348.398
451.2693, 1359.214
451.7514, 1365.992
452.2336, 1368.657
452.7157, 1364.867
453.1978, 1357.751
453.6799, 1350.836
454.1620, 1345.367
454.6441, 1342.121
455.1263, 1342.712
455.6084, 1348.363
456.0905, 1350.900
456.5726, 1344.635
457.0547, 1341.045
457.5368, 1345.573
458.0190, 1354.635
458.5011, 1362.305
458.9832, 1365.987
459.4653, 1367.938
459.9474, 1371.685
460.4295, 1377.261
460.9117, 1381.625
461.3938, 1384.953
461.8759, 1385.765
462.3580, 1380.478
462.8401, 1370.681
463.3222, 1365.141
463.8044, 1367.778
464.2865, 1374.426
464.7686, 1383.629
465.2507, 1394.125
465.7328, 1400.553
466.2149, 1399.773
466.6971, 1396.606
467.1792, 1400.667
467.6613, 1417.329
468.1434, 1430.118
468.6255, 1442.151
469.1076, 1447.774
469.5898, 1437.798
470.0719, 1417.838
470.5540, 1402.839
471.0361, 1402.241
471.5182, 1412.727
472.0003, 1425.113
472.4825, 1439.385
472.9646, 1455.392
473.4467, 1480.581
473.9288, 1501.883
474.4109, 1507.119
474.8930, 1497.551
475.3752, 1489.560
475.8573, 1494.911
476.3394, 1506.851
476.8215, 1513.174
477.3036, 1513.538
477.7857, 1515.618
478.2679, 1524.072
478.7500, 1535.969
479.2321, 1543.963
479.7142, 1546.051
480.1963, 1549.740
480.6784, 1557.035
481.1606, 1566.142
481.6427, 1576.751
482.1248, 1587.973
482.6069, 1596.995
483.0890, 1601.639
483.5711, 1602.496
484.0533, 1602.936
484.5354, 1603.397
485.0175, 1602.627
485.4996, 1597.787
485.9817, 1593.652
486.4638, 1594.033
486.9460, 1599.289
487.4281, 1607.302
487.9102, 1617.112
488.3923, 1628.379
488.8744, 1642.481
489.3565, 1661.408
489.8387, 1670.698
490.3208, 1655.944
490.8029, 1630.426
491.2850, 1623.083
491.7671, 1641.247
492.2492, 1655.984
492.7314, 1655.652
493.2135, 1647.828
493.6956, 1638.467
494.1777, 1629.476
494.6598, 1625.348
495.1419, 1630.767
495.6241, 1643.156
496.1062, 1645.543
496.5883, 1625.518
497.0704, 1612.838
497.5525, 1616.843
498.0346, 1624.541
498.5168, 1624.307
498.9989, 1615.530
499.4810, 1606.687
499.9631, 1605.924
500.4452, 1610.638
500.9273, 1610.132
501.4095, 1602.781
501.8916, 1597.432
502.3737, 1601.986
502.8558, 1608.207
503.3379, 1601.946
503.8200, 1579.306
504.3022, 1559.801
504.7843, 1552.915
505.2664, 1551.779
505.7485, 1547.930
506.2306, 1541.328
506.7127, 1538.143
507.1949, 1542.996
507.6770, 1553.831
508.1591, 1561.713
508.6412, 1567.162
509.1233, 1568.529
509.6054, 1563.614
510.0876, 1556.458
510.5697, 1548.359
511.0518, 1540.515
511.5339, 1535.936
512.0161, 1538.948
512.4982, 1545.403
512.9803, 1541.261
513.4624, 1523.608
513.9445, 1513.983
514.4266, 1526.256
514.9088, 1544.737
515.3909, 1547.698
515.8730, 1533.855
516.3551, 1522.129
516.8372, 1519.319
517.3193, 1520.303
517.8015, 1522.250
518.2836, 1523.962
518.7657, 1522.117
519.2478, 1514.665
519.7299, 1503.931
520.2120, 1495.401
520.6942, 1489.688
521.1763, 1485.078
521.6584, 1483.797
522.1405, 1481.429
522.6226, 1474.479
523.1047, 1464.452
523.5869, 1455.144
524.0690, 1447.863
524.5511, 1443.681
525.0332, 1447.327
525.5153, 1458.704
525.9974, 1460.719
526.4796, 1442.852
526.9617, 1424.981
527.4438, 1434.991
527.9259, 1468.676
528.4080, 1487.486
528.8901, 1474.752
529.3723, 1456.895
529.8544, 1449.322
530.3365, 1447.955
530.8186, 1443.171
531.3007, 1431.795
531.7828, 1420.035
532.2650, 1417.010
532.7471, 1424.500
533.2292, 1429.622
533.7113, 1432.769
534.1934, 1432.845
534.6755, 1427.115
535.1577, 1419.108
535.6398, 1414.241
536.1219, 1414.450
536.6040, 1413.981
537.0861, 1406.020
537.5682, 1393.035
538.0504, 1382.299
538.5325, 1374.417
539.0146, 1371.464
539.4967, 1377.775
539.9788, 1390.130
540.4609, 1392.502
540.9431, 1378.534
541.4252, 1364.550
541.9073, 1351.360
542.3894, 1341.214
542.8715, 1338.444
543.3536, 1341.819
543.8358, 1343.876
544.3179, 1337.965
544.8000, 1326.624
545.2821, 1322.321
545.7642, 1329.891
546.2463, 1331.154
546.7285, 1313.292
547.2106, 1293.552
547.6927, 1286.945
548.1748, 1292.772
548.6569, 1296.418
549.1390, 1285.992
549.6211, 1274.147
550.1032, 1276.486
550.5853, 1290.401
551.0674, 1304.913
551.5496, 1316.580
552.0317, 1322.308
552.5138, 1315.590
552.9959, 1288.847
553.4780, 1275.516
553.9601, 1281.892
554.4423, 1292.821
554.9244, 1308.623
555.4065, 1322.988
555.8886, 1325.125
556.3707, 1310.766
556.8528, 1292.737
557.3350, 1286.802
557.8171, 1291.586
558.2992, 1296.012
558.7813, 1299.075
559.2634, 1301.807
559.7455, 1304.992
560.2277, 1308.337
560.7098, 1311.271
561.1919, 1316.522
561.6740, 1316.606
562.1561, 1304.223
562.6382, 1288.536
563.1204, 1279.443
563.6025, 1277.455
564.0846, 1276.949
564.5667, 1273.566
565.0488, 1268.877
565.5309, 1270.469
566.0131, 1284.391
566.4952, 1289.282
566.9773, 1272.301
567.4594, 1252.382
567.9415, 1241.016
568.4236, 1237.411
568.9058, 1235.064
569.3879, 1233.460
569.8700, 1229.902
570.3521, 1219.943
570.8342, 1205.498
571.3163, 1192.606
571.7985, 1182.990
572.2806, 1176.699
572.7627, 1174.369
573.2448, 1176.614
573.7269, 1176.907
574.2090, 1177.379
574.6912, 1173.467
575.1733, 1160.859
575.6554, 1144.933
576.1375, 1130.253
576.6196, 1118.308
577.1017, 1110.829
577.5839, 1113.650
578.0660, 1122.139
578.5481, 1118.663
579.0302, 1101.466
579.5123, 1085.834
579.9944, 1078.938
580.4766, 1077.496
580.9587, 1076.082
581.4408, 1075.453
581.9229, 1072.023
582.4050, 1059.914
582.8871, 1049.755
583.3693, 1053.106
583.8514, 1063.505
584.3335, 1064.858
584.8156, 1049.696
585.2977, 1029.120
585.7798, 1021.758
586.2620, 1029.045
586.7441, 1032.660
587.2262, 1029.307
587.7083, 1026.263
588.1904, 1029.577
588.6725, 1035.422
589.1547, 1037.231
589.6368, 1032.801
590.1189, 1027.873
590.6010, 1023.356
591.0831, 1020.891
591.5652, 1024.287
592.0474, 1032.627
592.5295, 1039.690
593.0116, 1041.230
593.4937, 1038.869
593.9758, 1038.092
594.4579, 1041.715
594.9401, 1040.220
595.4222, 1025.801
595.9043, 1012.495
596.3864, 1007.410
596.8685, 1009.089
597.3506, 1010.982
597.8328, 1002.911
598.3149, 1009.590
598.7970, 1083.469
599.2791, 1187.099
599.7612, 1211.556
600.2433, 1135.692
600.7255, 1042.714
601.2076, 1001.205
601.6897, 1005.543
602.1718, 1009.893
602.6539, 1014.906
603.1360, 1018.996
603.6182, 1022.881
604.1003, 1025.162
604.5824, 1023.905
605.0645, 1019.852
605.5466, 1016.122
606.0287, 1014.717
606.5109, 1014.283
606.9930, 1012.754
607.4751, 1010.258
607.9572, 1007.632
608.4393, 1004.835
608.9214, 1002.896
609.4036, 1003.033
609.8857, 1005.259
