##NAMES=Fluorapatite
##RRUFFID=R050369
##IDEAL CHEMISTRY=Ca_5_(PO_4_)_3_F
##LOCALITY=Russia
##OWNER=RRUFF
##SOURCE=Eugene Schlepp
##DESCRIPTION=Blueish-green hexagonal prismatic crystal
##STATUS=The identification of this mineral has been confirmed by X-ray diffraction and chemical analysis
##URL=rruff.info/R050369
##MEASURED CHEMISTRY=(Ca_0.99_Na_0.01_)_5_((P_0.98_S_0.02_)O_4_)_3_F_1.00_
92.52344, 275.3930
93.00555, 273.2418
93.48767, 273.7167
93.96979, 283.1396
94.45190, 292.1724
94.93402, 299.4178
95.41614, 301.6553
95.89825, 301.0142
96.38037, 300.2786
96.86249, 299.0940
97.34460, 296.3293
97.82672, 290.5015
98.30884, 285.7850
98.79095, 283.6990
99.27307, 282.8610
99.75519, 281.0280
100.2373, 277.7991
100.7194, 273.5368
101.2015, 269.3203
101.6837, 264.4142
102.1658, 259.9135
102.6479, 256.6334
103.1300, 254.5729
103.6121, 253.2540
104.0942, 252.5992
104.5764, 252.3782
105.0585, 252.3775
105.5406, 252.9840
106.0227, 253.7816
106.5048, 253.3382
106.9869, 250.5777
107.4691, 247.8979
107.9512, 246.3610
108.4333, 245.7891
108.9154, 245.7027
109.3975, 245.7314
109.8796, 245.8489
110.3618, 246.1993
110.8439, 247.2588
111.3260, 248.1504
111.8081, 248.1290
112.2902, 247.2957
112.7723, 246.5553
113.2544, 247.2922
113.7366, 251.0862
114.2187, 253.4039
114.7008, 253.1073
115.1829, 252.0402
115.6650, 251.9248
116.1471, 253.3821
116.6293, 255.7052
117.1114, 257.2128
117.5935, 257.3707
118.0756, 257.8249
118.5577, 259.2756
119.0398, 261.3342
119.5220, 263.0624
120.0041, 263.9334
120.4862, 264.2682
120.9683, 264.8823
121.4504, 265.9429
121.9325, 266.9910
122.4147, 267.4313
122.8968, 267.1733
123.3789, 267.3895
123.8610, 269.2082
124.3431, 271.6479
124.8252, 273.8255
125.3074, 275.4339
125.7895, 276.6764
126.2716, 277.9056
126.7537, 278.8881
127.2358, 280.3089
127.7179, 282.2928
128.2001, 284.7626
128.6822, 287.7257
129.1643, 291.2831
129.6464, 295.3570
130.1285, 298.7481
130.6107, 300.4033
131.0928, 302.3656
131.5749, 305.1708
132.0570, 308.6865
132.5391, 312.5491
133.0212, 316.4501
133.5034, 320.4357
133.9855, 324.2211
134.4676, 327.3449
134.9497, 330.6715
135.4318, 334.7377
135.9139, 339.5614
136.3960, 344.8117
136.8782, 350.2672
137.3603, 356.0918
137.8424, 360.9357
138.3245, 365.0215
138.8066, 367.9617
139.2887, 369.2704
139.7709, 368.8336
140.2530, 366.7425
140.7351, 362.7678
141.2172, 357.1727
141.6993, 350.6321
142.1814, 342.3528
142.6636, 333.1207
143.1457, 325.8204
143.6278, 321.5384
144.1099, 319.1478
144.5920, 317.7743
145.0741, 317.3623
145.5563, 316.9546
146.0384, 315.3813
146.5205, 312.3908
147.0026, 310.4209
147.4847, 310.5302
147.9668, 311.4154
148.4490, 312.6210
148.9311, 313.9954
149.4132, 315.3899
149.8953, 316.4822
150.3774, 316.8055
150.8595, 317.8530
151.3417, 320.0307
151.8238, 322.6534
152.3059, 325.0687
152.7880, 327.0361
153.2701, 328.9623
153.7522, 331.8563
154.2344, 337.2591
154.7165, 341.9046
155.1986, 345.4089
155.6807, 348.1781
156.1628, 350.7596
156.6449, 353.4317
157.1271, 356.0474
157.6092, 357.9349
158.0913, 358.8726
158.5734, 359.5235
159.0555, 360.4620
159.5376, 361.3160
160.0198, 360.9046
160.5019, 358.1113
160.9840, 353.7973
161.4661, 351.2192
161.9482, 351.0976
162.4303, 351.8287
162.9125, 352.6712
163.3946, 353.6089
163.8767, 354.2067
164.3588, 354.0170
164.8409, 353.3464
165.3230, 352.6297
165.8052, 351.4700
166.2873, 350.7244
166.7694, 351.9179
167.2515, 355.7245
167.7336, 359.1751
168.2157, 360.7766
168.6979, 361.2374
169.1800, 361.2809
169.6621, 361.2260
170.1442, 360.9375
170.6263, 359.8598
171.1084, 356.9691
171.5906, 354.9877
172.0727, 355.0863
172.5548, 356.4208
173.0369, 357.7945
173.5190, 358.4335
174.0011, 358.4794
174.4833, 359.1412
174.9654, 361.8436
175.4475, 363.7361
175.9296, 363.3341
176.4117, 361.6858
176.8938, 360.7783
177.3760, 362.2127
177.8581, 366.0739
178.3402, 368.9672
178.8223, 370.0520
179.3044, 371.1089
179.7865, 373.2741
180.2687, 376.0825
180.7508, 377.9394
181.2329, 377.2244
181.7150, 373.5797
182.1971, 372.1778
182.6792, 374.4547
183.1614, 377.4137
183.6435, 379.2855
184.1256, 380.0283
184.6077, 380.8310
185.0898, 382.9510
185.5719, 386.4615
186.0541, 388.8408
186.5362, 388.6143
187.0183, 388.0499
187.5004, 389.6235
187.9825, 393.7034
188.4646, 397.9223
188.9468, 399.9634
189.4289, 400.2647
189.9110, 400.4969
190.3931, 400.8756
190.8752, 401.4435
191.3573, 402.3846
191.8395, 403.8860
192.3216, 405.2680
192.8037, 405.4265
193.2858, 404.9929
193.7679, 405.5338
194.2500, 408.7107
194.7322, 413.5041
195.2143, 416.5858
195.6964, 417.2230
196.1785, 417.0359
196.6606, 416.4785
197.1427, 415.8758
197.6249, 415.9810
198.1070, 417.6293
198.5891, 420.6153
199.0712, 422.8232
199.5533, 423.4758
200.0354, 424.1549
200.5176, 425.6275
200.9997, 427.6100
201.4818, 429.3561
201.9639, 430.0150
202.4460, 429.5182
202.9281, 430.5314
203.4103, 435.4465
203.8924, 439.7569
204.3745, 441.4992
204.8566, 441.3763
205.3387, 441.4389
205.8208, 443.6935
206.3030, 448.6068
206.7851, 451.3595
207.2672, 449.8785
207.7493, 448.4339
208.2314, 448.9178
208.7135, 451.0535
209.1957, 453.4275
209.6778, 454.8321
210.1599, 455.2198
210.6420, 454.7006
211.1241, 452.2086
211.6062, 449.9135
212.0884, 449.0574
212.5705, 449.5601
213.0526, 450.4750
213.5347, 450.9783
214.0168, 451.0008
214.4989, 451.2617
214.9811, 451.3176
215.4632, 451.9149
215.9453, 454.2181
216.4274, 458.0612
216.9095, 461.2406
217.3916, 461.4983
217.8737, 458.7726
218.3559, 457.4767
218.8380, 459.1188
219.3201, 461.2864
219.8022, 461.2616
220.2843, 458.8489
220.7664, 457.3576
221.2486, 460.3428
221.7307, 466.7267
222.2128, 471.6386
222.6949, 473.5754
223.1770, 474.1555
223.6591, 475.1529
224.1413, 476.6951
224.6234, 478.1078
225.1055, 478.3024
225.5876, 478.0511
226.0697, 478.8826
226.5518, 481.7690
227.0340, 485.6500
227.5161, 489.0750
227.9982, 492.0391
228.4803, 494.5423
228.9624, 495.7946
229.4445, 496.7429
229.9267, 498.8590
230.4088, 503.3205
230.8909, 508.6908
231.3730, 512.1385
231.8551, 513.1760
232.3372, 513.4419
232.8194, 512.6061
233.3015, 511.7772
233.7836, 512.4410
234.2657, 515.4940
234.7478, 519.9340
235.2299, 523.5702
235.7121, 526.3344
236.1942, 528.3700
236.6763, 529.7096
237.1584, 530.4969
237.6405, 530.7746
238.1227, 530.5021
238.6048, 529.9538
239.0869, 529.7577
239.5690, 529.6787
240.0511, 530.4777
240.5332, 532.7047
241.0154, 535.5359
241.4975, 538.2926
241.9796, 540.6954
242.4617, 542.6256
242.9438, 543.6846
243.4259, 543.1273
243.9081, 542.8363
244.3902, 542.4052
244.8723, 542.5835
245.3544, 544.1991
245.8365, 547.5630
246.3186, 552.1253
246.8008, 556.7803
247.2829, 562.5972
247.7650, 566.7573
248.2471, 567.9352
248.7292, 568.1430
249.2113, 569.2451
249.6935, 571.8696
250.1756, 575.3015
250.6577, 578.1152
251.1398, 579.0639
251.6219, 581.2396
252.1040, 585.8941
252.5862, 591.0296
253.0683, 594.7399
253.5504, 596.4968
254.0325, 597.3254
254.5146, 598.8790
254.9967, 601.5935
255.4789, 604.3167
255.9610, 606.7653
256.4431, 609.3698
256.9252, 612.3790
257.4073, 615.8924
257.8894, 620.1324
258.3716, 625.5406
258.8537, 632.9304
259.3358, 639.3152
259.8179, 644.0035
260.3000, 648.1309
260.7821, 652.7746
261.2643, 658.1077
261.7464, 663.3634
262.2285, 667.5265
262.7106, 670.1780
263.1927, 674.2156
263.6748, 681.0147
264.1570, 688.3537
264.6391, 694.2500
265.1212, 698.5243
265.6033, 702.4226
266.0854, 707.2690
266.5675, 713.0513
267.0497, 717.2654
267.5318, 718.6801
268.0139, 719.3026
268.4960, 720.6466
268.9781, 722.7920
269.4602, 725.1472
269.9424, 727.3599
270.4245, 729.3994
270.9066, 731.2452
271.3887, 732.9437
271.8708, 734.4226
272.3529, 735.2065
272.8351, 735.4186
273.3172, 736.4957
273.7993, 739.8190
274.2814, 744.5866
274.7635, 748.0208
275.2456, 748.6548
275.7278, 749.5134
276.2099, 753.1656
276.6920, 759.2802
277.1741, 765.1088
277.6562, 769.1567
278.1383, 772.2175
278.6205, 775.9681
279.1026, 780.6239
279.5847, 785.5754
280.0668, 790.2896
280.5489, 794.8942
281.0310, 800.0918
281.5132, 806.3492
281.9953, 813.1217
282.4774, 819.5949
282.9595, 825.7523
283.4416, 831.7032
283.9237, 837.6045
284.4059, 843.3690
284.8880, 848.5646
285.3701, 852.6063
285.8522, 856.6881
286.3343, 862.0825
286.8164, 868.7228
287.2986, 875.6810
287.7807, 882.7814
288.2628, 889.8666
288.7449, 896.1627
289.2270, 901.0366
289.7091, 906.1247
290.1913, 913.2067
290.6734, 921.7390
291.1555, 929.9789
291.6376, 937.1024
292.1197, 943.3105
292.6018, 948.9535
293.0840, 953.5796
293.5661, 958.6831
294.0482, 965.1688
294.5303, 972.7544
295.0124, 981.2420
295.4945, 990.8312
295.9767, 1001.068
296.4588, 1011.084
296.9409, 1020.747
297.4230, 1030.675
297.9051, 1042.011
298.3872, 1053.646
298.8694, 1064.279
299.3515, 1073.518
299.8336, 1081.669
300.3157, 1088.495
300.7978, 1093.539
301.2799, 1100.283
301.7621, 1111.260
302.2442, 1124.059
302.7263, 1137.174
303.2084, 1150.576
303.6905, 1162.935
304.1726, 1172.476
304.6548, 1179.047
305.1369, 1185.896
305.6190, 1193.721
306.1011, 1202.258
306.5832, 1211.407
307.0653, 1221.140
307.5475, 1230.991
308.0296, 1240.334
308.5117, 1249.258
308.9938, 1259.133
309.4759, 1270.406
309.9580, 1282.419
310.4402, 1295.318
310.9223, 1308.651
311.4044, 1320.815
311.8865, 1330.320
312.3686, 1337.642
312.8507, 1344.871
313.3329, 1351.494
313.8150, 1359.009
314.2971, 1367.483
314.7792, 1377.365
315.2613, 1389.885
315.7434, 1407.049
316.2256, 1426.307
316.7077, 1442.192
317.1898, 1454.263
317.6719, 1464.446
318.1540, 1471.417
318.6361, 1477.867
319.1183, 1487.188
319.6004, 1501.111
320.0825, 1516.297
320.5646, 1528.026
321.0467, 1535.750
321.5288, 1543.521
322.0110, 1552.523
322.4931, 1562.158
322.9752, 1572.221
323.4573, 1582.663
323.9394, 1592.749
324.4215, 1601.555
324.9037, 1609.062
325.3858, 1616.914
325.8679, 1626.076
326.3500, 1634.891
326.8321, 1642.164
327.3142, 1648.026
327.7964, 1653.347
328.2785, 1658.659
328.7606, 1663.904
329.2427, 1669.048
329.7248, 1674.809
330.2069, 1679.113
330.6891, 1679.543
331.1712, 1677.782
331.6533, 1677.461
332.1354, 1681.082
332.6175, 1686.729
333.0996, 1690.547
333.5818, 1692.255
334.0639, 1693.080
334.5460, 1693.356
335.0281, 1693.181
335.5102, 1692.395
335.9923, 1690.567
336.4745, 1688.997
336.9566, 1689.692
337.4387, 1692.826
337.9208, 1695.086
338.4029, 1694.531
338.8850, 1693.223
339.3671, 1693.378
339.8492, 1695.274
340.3314, 1697.080
340.8135, 1696.850
341.2956, 1695.057
341.7777, 1694.921
342.2598, 1698.065
342.7419, 1701.473
343.2241, 1702.781
343.7062, 1702.197
344.1883, 1700.505
344.6704, 1697.032
345.1525, 1692.872
345.6346, 1690.839
346.1168, 1691.805
346.5989, 1692.536
347.0810, 1690.182
347.5631, 1686.017
348.0452, 1682.071
348.5273, 1678.781
349.0095, 1676.002
349.4916, 1673.728
349.9737, 1671.983
350.4558, 1670.266
350.9379, 1668.927
351.4200, 1667.083
351.9022, 1663.360
352.3843, 1657.238
352.8664, 1650.557
353.3485, 1643.915
353.8306, 1637.585
354.3127, 1632.822
354.7949, 1630.354
355.2770, 1628.931
355.7591, 1627.520
356.2412, 1626.203
356.7233, 1623.153
357.2054, 1617.032
357.6876, 1608.987
358.1697, 1600.399
358.6518, 1591.268
359.1339, 1582.868
359.6160, 1577.268
360.0981, 1573.669
360.5803, 1567.932
361.0624, 1557.447
361.5445, 1546.258
362.0266, 1537.474
362.5087, 1531.023
362.9908, 1526.201
363.4730, 1523.515
363.9551, 1521.648
364.4372, 1516.559
364.9193, 1506.694
365.4014, 1496.566
365.8835, 1487.612
366.3657, 1479.775
366.8478, 1473.227
367.3299, 1468.285
367.8120, 1463.672
368.2941, 1456.943
368.7762, 1447.254
369.2584, 1439.312
369.7405, 1435.149
370.2226, 1432.238
370.7047, 1428.332
371.1868, 1423.077
371.6689, 1417.029
372.1511, 1410.443
372.6332, 1403.289
373.1153, 1397.054
373.5974, 1391.760
374.0795, 1387.206
374.5616, 1383.078
375.0438, 1379.587
375.5259, 1377.680
376.0080, 1378.227
376.4901, 1379.929
376.9722, 1378.071
377.4543, 1368.427
377.9365, 1360.731
378.4186, 1357.405
378.9007, 1355.848
379.3828, 1352.995
379.8649, 1348.066
380.3470, 1342.814
380.8292, 1339.657
381.3113, 1339.016
381.7934, 1339.494
382.2755, 1342.567
382.7576, 1345.338
383.2397, 1345.651
383.7219, 1344.024
384.2040, 1342.612
384.6861, 1343.179
385.1682, 1345.576
385.6503, 1347.297
386.1324, 1347.031
386.6146, 1347.557
387.0967, 1349.844
387.5788, 1353.033
388.0609, 1356.089
388.5430, 1358.556
389.0251, 1360.626
389.5073, 1362.544
389.9894, 1363.612
390.4715, 1366.075
390.9536, 1370.853
391.4357, 1376.199
391.9178, 1381.412
392.4000, 1386.186
392.8821, 1390.138
393.3642, 1392.441
393.8463, 1392.994
394.3284, 1395.403
394.8105, 1401.047
395.2927, 1407.111
395.7748, 1412.580
396.2569, 1417.797
396.7390, 1423.524
397.2211, 1430.259
397.7032, 1437.469
398.1854, 1443.662
398.6675, 1448.214
399.1496, 1453.755
399.6317, 1462.622
400.1138, 1471.837
400.5959, 1478.483
401.0781, 1482.133
401.5602, 1486.212
402.0423, 1494.881
402.5244, 1507.542
403.0065, 1517.403
403.4886, 1521.780
403.9708, 1525.955
404.4529, 1534.372
404.9350, 1545.609
405.4171, 1555.744
405.8992, 1562.563
406.3813, 1567.535
406.8635, 1572.991
407.3456, 1579.013
407.8277, 1584.758
408.3098, 1589.431
408.7919, 1593.829
409.2740, 1599.162
409.7562, 1605.519
410.2383, 1612.804
410.7204, 1621.698
411.2025, 1631.571
411.6846, 1640.529
412.1667, 1647.942
412.6489, 1654.897
413.1310, 1662.387
413.6131, 1670.389
414.0952, 1679.845
414.5773, 1693.369
415.0594, 1706.782
415.5416, 1715.287
416.0237, 1719.202
416.5058, 1723.252
416.9879, 1730.586
417.4700, 1740.589
417.9521, 1749.858
418.4343, 1757.761
418.9164, 1765.805
419.3985, 1775.437
419.8806, 1785.161
420.3627, 1791.869
420.8448, 1794.635
421.3270, 1796.866
421.8091, 1803.778
422.2912, 1817.374
422.7733, 1830.165
423.2554, 1842.826
423.7375, 1854.146
424.2197, 1862.803
424.7018, 1869.278
425.1839, 1875.100
425.6660, 1881.316
426.1481, 1887.856
426.6302, 1894.476
427.1124, 1902.419
427.5945, 1908.748
428.0766, 1912.143
428.5587, 1914.272
429.0408, 1917.360
429.5229, 1921.896
430.0051, 1925.808
430.4872, 1926.086
430.9693, 1922.194
431.4514, 1916.982
431.9335, 1909.799
432.4156, 1901.808
432.8978, 1892.942
433.3799, 1883.589
433.8620, 1874.498
434.3441, 1866.431
434.8262, 1858.783
435.3083, 1849.705
435.7905, 1838.724
436.2726, 1827.691
436.7547, 1817.575
437.2368, 1807.464
437.7189, 1795.943
438.2010, 1782.560
438.6832, 1770.436
439.1653, 1763.477
439.6474, 1760.560
440.1295, 1755.281
440.6116, 1745.900
441.0938, 1735.512
441.5759, 1726.173
442.0580, 1717.890
442.5401, 1711.051
443.0222, 1707.761
443.5043, 1704.622
443.9865, 1697.326
444.4686, 1686.403
444.9507, 1676.556
445.4328, 1670.281
445.9149, 1666.131
446.3970, 1661.006
446.8792, 1655.155
447.3613, 1648.028
447.8434, 1638.723
448.3255, 1628.405
448.8076, 1618.286
449.2897, 1608.582
449.7719, 1599.380
450.2540, 1590.706
450.7361, 1582.532
451.2182, 1575.429
451.7003, 1570.341
452.1824, 1565.131
452.6646, 1559.224
453.1467, 1552.601
453.6288, 1545.251
454.1109, 1537.147
454.5930, 1528.607
455.0751, 1520.159
455.5573, 1511.714
456.0394, 1503.547
456.5215, 1495.230
457.0036, 1487.494
457.4857, 1480.558
457.9678, 1474.554
458.4500, 1469.787
458.9321, 1466.944
459.4142, 1465.376
459.8963, 1460.850
460.3784, 1450.510
460.8605, 1442.373
461.3427, 1440.276
461.8248, 1440.125
462.3069, 1437.634
462.7890, 1431.740
463.2711, 1425.390
463.7532, 1422.061
464.2354, 1421.467
464.7175, 1419.873
465.1996, 1416.932
465.6817, 1412.767
466.1638, 1406.796
466.6459, 1399.725
467.1281, 1393.316
467.6102, 1388.170
468.0923, 1383.933
468.5744, 1380.122
469.0565, 1376.774
469.5386, 1374.954
470.0208, 1376.021
470.5029, 1377.615
470.9850, 1374.677
471.4671, 1366.055
471.9492, 1360.089
472.4313, 1361.178
472.9135, 1364.596
473.3956, 1365.925
473.8777, 1364.563
474.3598, 1360.560
474.8419, 1353.255
475.3240, 1343.293
475.8062, 1337.262
476.2883, 1338.104
476.7704, 1338.677
477.2525, 1338.082
477.7346, 1336.241
478.2167, 1332.707
478.6989, 1327.513
479.1810, 1321.904
479.6631, 1317.375
480.1452, 1314.085
480.6273, 1311.208
481.1094, 1308.865
481.5916, 1306.820
482.0737, 1305.180
482.5558, 1303.751
483.0379, 1302.314
483.5200, 1300.804
484.0021, 1298.967
484.4843, 1295.910
484.9664, 1291.028
485.4485, 1287.736
485.9306, 1289.027
486.4127, 1290.099
486.8948, 1287.048
487.3770, 1280.480
487.8591, 1274.522
488.3412, 1272.494
488.8233, 1272.368
489.3054, 1269.981
489.7875, 1265.101
490.2697, 1260.062
490.7518, 1255.396
491.2339, 1251.789
491.7160, 1250.776
492.1981, 1253.975
492.6802, 1255.053
493.1624, 1248.927
493.6445, 1239.924
494.1266, 1235.105
494.6087, 1235.559
495.0908, 1236.596
495.5729, 1233.831
496.0551, 1227.334
496.5372, 1222.994
497.0193, 1222.217
497.5014, 1221.610
497.9835, 1220.609
498.4656, 1218.979
498.9478, 1216.001
499.4299, 1211.567
499.9120, 1207.166
500.3941, 1205.225
500.8762, 1206.730
501.3583, 1206.698
501.8405, 1203.897
502.3226, 1200.805
502.8047, 1198.185
503.2868, 1195.923
503.7689, 1193.649
504.2510, 1191.104
504.7331, 1188.722
505.2152, 1187.452
505.6974, 1187.498
506.1795, 1187.341
506.6616, 1186.233
507.1437, 1185.279
507.6258, 1185.858
508.1079, 1187.563
508.5901, 1188.114
509.0722, 1186.005
509.5543, 1182.317
510.0364, 1178.037
510.5185, 1173.219
511.0006, 1169.719
511.4828, 1169.090
511.9649, 1169.706
512.4470, 1167.859
512.9291, 1162.671
513.4113, 1158.443
513.8934, 1156.429
514.3755, 1155.823
514.8576, 1156.380
515.3397, 1157.770
515.8218, 1158.750
516.3040, 1158.439
516.7861, 1156.890
517.2682, 1154.509
517.7503, 1149.324
518.2324, 1145.802
518.7145, 1145.514
519.1967, 1146.340
519.6788, 1146.424
520.1609, 1145.381
520.6430, 1143.785
521.1251, 1142.167
521.6072, 1140.516
522.0894, 1138.746
522.5715, 1136.880
523.0536, 1134.842
523.5357, 1132.275
524.0178, 1129.690
524.4999, 1127.708
524.9821, 1126.506
525.4642, 1125.680
525.9463, 1125.387
526.4284, 1125.286
526.9105, 1123.445
527.3926, 1119.017
527.8748, 1114.649
528.3569, 1112.963
528.8390, 1113.073
529.3211, 1111.849
529.8032, 1107.903
530.2853, 1103.809
530.7675, 1101.217
531.2496, 1099.434
531.7317, 1096.952
532.2138, 1093.309
532.6959, 1089.530
533.1780, 1086.899
533.6602, 1085.590
534.1423, 1084.360
534.6244, 1084.143
535.1065, 1082.975
535.5886, 1079.191
536.0707, 1074.251
536.5529, 1070.595
537.0350, 1069.179
537.5171, 1068.516
537.9992, 1066.297
538.4813, 1062.311
538.9634, 1057.838
539.4456, 1051.755
539.9277, 1046.548
540.4098, 1043.634
540.8919, 1042.387
541.3740, 1041.674
541.8561, 1041.430
542.3383, 1040.750
542.8204, 1038.161
543.3025, 1033.880
543.7846, 1029.857
544.2667, 1026.312
544.7488, 1023.674
545.2310, 1023.149
545.7131, 1024.427
546.1952, 1024.429
546.6773, 1021.660
547.1594, 1018.443
547.6415, 1016.639
548.1237, 1015.588
548.6058, 1013.138
549.0879, 1008.363
549.5700, 1003.121
550.0521, 1000.517
550.5342, 1001.315
551.0164, 1002.593
551.4985, 1006.729
551.9806, 1008.874
552.4627, 1004.894
552.9448, 997.7126
553.4269, 992.9756
553.9091, 993.4468
554.3912, 996.5992
554.8733, 998.2335
555.3554, 998.2073
555.8375, 997.6247
556.3196, 996.4603
556.8018, 994.9035
557.2839, 992.8714
557.7660, 990.5607
558.2481, 988.4901
558.7302, 986.4334
559.2123, 985.1917
559.6945, 986.0305
560.1766, 988.5363
560.6587, 990.8229
561.1408, 992.2711
561.6229, 993.5306
562.1050, 995.7049
562.5872, 999.1122
563.0693, 1000.632
563.5514, 997.3592
564.0335, 995.0807
564.5156, 998.1691
564.9977, 1004.052
565.4799, 1007.861
565.9620, 1007.659
566.4441, 1005.349
566.9262, 1003.598
567.4083, 1002.010
567.8904, 1002.599
568.3726, 1008.086
568.8547, 1012.991
569.3368, 1015.146
569.8189, 1015.545
570.3010, 1015.957
570.7831, 1017.098
571.2653, 1018.129
571.7474, 1017.430
572.2295, 1015.389
572.7116, 1015.374
573.1937, 1018.411
573.6758, 1022.314
574.1580, 1025.301
574.6401, 1027.653
575.1222, 1030.463
575.6043, 1032.516
576.0864, 1036.543
576.5685, 1045.625
577.0507, 1057.050
577.5328, 1066.137
578.0149, 1071.781
578.4970, 1076.349
578.9791, 1082.571
579.4612, 1090.617
579.9434, 1096.112
580.4255, 1099.142
580.9076, 1099.356
581.3897, 1096.113
581.8718, 1090.297
582.3539, 1082.987
582.8361, 1074.349
583.3182, 1063.642
583.8003, 1047.713
584.2824, 1027.969
584.7645, 1015.512
585.2466, 1011.839
585.7288, 1011.240
586.2108, 1012.644
586.6929, 1014.714
587.1750, 1015.272
587.6572, 1013.681
588.1393, 1012.699
588.6214, 1013.864
589.1035, 1016.205
589.5856, 1019.309
