##NAMES=Fluorite
##RRUFFID=R050115
##IDEAL CHEMISTRY=CaF_2_
##LOCALITY=Isthak Valley Iskardu, N.A. Gilgit, Pakistan
##OWNER=RRUFF
##SOURCE=Syed Shah
##DESCRIPTION=Colorless fragment
##STATUS=The identification of this mineral has been confirmed by X-ray diffraction and chemical analysis
##URL=rruff.info/R050115
##MEASURED CHEMISTRY=CaF_2_
80.48071, 1254.076
80.96282, 1271.448
81.44494, 1277.045
81.92706, 1269.720
82.40917, 1260.757
82.89129, 1248.610
83.37341, 1238.054
83.85552, 1236.439
84.33764, 1256.530
84.81976, 1281.433
85.30187, 1297.564
85.78399, 1296.843
86.26611, 1296.133
86.74822, 1307.140
87.23034, 1328.869
87.71246, 1355.612
88.19457, 1388.091
88.67669, 1422.774
89.15881, 1453.932
89.64092, 1481.000
90.12304, 1502.663
90.60516, 1513.649
91.08727, 1512.964
91.56938, 1510.878
92.05150, 1518.869
92.53362, 1535.812
93.01573, 1555.356
93.49785, 1578.140
93.97997, 1602.033
94.46208, 1615.026
94.94420, 1611.952
95.42632, 1602.585
95.90843, 1611.024
96.39055, 1639.409
96.87267, 1672.292
97.35478, 1698.889
97.83690, 1719.645
98.31902, 1731.031
98.80113, 1726.482
99.28325, 1707.312
99.76537, 1710.655
100.2475, 1743.708
100.7296, 1790.127
101.2117, 1826.260
101.6938, 1844.032
102.1759, 1867.891
102.6581, 1906.069
103.1402, 1958.310
103.6223, 2024.974
104.1044, 2107.922
104.5865, 2204.785
105.0686, 2309.388
105.5508, 2419.411
106.0329, 2538.969
106.5150, 2667.173
106.9971, 2795.250
107.4792, 2945.180
107.9613, 3121.136
108.4435, 3325.526
108.9256, 3539.850
109.4077, 3760.122
109.8898, 3992.725
110.3719, 4238.245
110.8540, 4459.180
111.3362, 4727.394
111.8183, 5064.557
112.3004, 5480.179
112.7825, 5942.743
113.2646, 6455.809
113.7467, 7015.673
114.2289, 7608.516
114.7110, 8219.040
115.1931, 8869.457
115.6752, 9581.017
116.1573, 10357.75
116.6394, 11190.46
117.1216, 12064.09
117.6037, 12983.26
118.0858, 13981.67
118.5679, 15038.39
119.0500, 16194.44
119.5321, 17500.53
120.0143, 18962.91
120.4964, 20591.33
120.9785, 22397.63
121.4606, 24384.29
121.9427, 26542.95
122.4248, 28887.41
122.9070, 31390.79
123.3891, 33959.98
123.8712, 36592.05
124.3533, 39248.11
124.8354, 41866.63
125.3175, 44437.80
125.7996, 46970.46
126.2818, 49487.84
126.7639, 52008.18
127.2460, 54450.32
127.7281, 56776.41
128.2102, 59012.91
128.6924, 61254.36
129.1745, 63497.01
129.6566, 65770.23
130.1387, 68174.72
130.6208, 70708.22
131.1029, 73309.18
131.5850, 75961.23
132.0672, 78675.63
132.5493, 81353.86
133.0314, 84051.23
133.5135, 86760.09
133.9956, 89185.94
134.4777, 91291.80
134.9599, 93133.01
135.4420, 94785.41
135.9241, 96260.30
136.4062, 97477.60
136.8883, 98343.69
137.3704, 98794.72
137.8526, 99189.26
138.3347, 99556.38
138.8168, 99890.70
139.2989, 100142.7
139.7810, 100224.5
140.2631, 100363.3
140.7453, 100751.8
141.2274, 101440.9
141.7095, 102261.6
142.1916, 103175.0
142.6737, 104190.8
143.1558, 105334.7
143.6380, 106684.2
144.1201, 108126.0
144.6022, 109535.8
145.0843, 110775.4
145.5664, 111114.9
146.0485, 111506.8
146.5307, 111995.6
147.0128, 112499.0
147.4949, 113066.3
147.9770, 113650.2
148.4591, 114107.8
148.9412, 114425.8
149.4234, 114642.3
149.9055, 114771.2
150.3876, 114829.5
150.8697, 114796.9
151.3518, 114671.6
151.8339, 114460.1
152.3161, 114184.0
152.7982, 113817.4
153.2803, 113406.4
153.7624, 112982.7
154.2445, 112573.0
154.7266, 112131.0
155.2087, 111633.0
155.6909, 111076.4
156.1730, 110530.4
156.6551, 109994.3
157.1372, 109480.8
157.6193, 108997.7
158.1014, 108518.8
158.5836, 108091.2
159.0657, 107737.9
159.5478, 107476.8
160.0299, 107242.0
160.5120, 107004.8
160.9941, 106772.8
161.4763, 106564.9
161.9584, 106413.8
162.4405, 106271.9
162.9226, 106107.7
163.4047, 105915.8
163.8868, 105698.5
164.3690, 105440.3
164.8511, 105151.3
165.3332, 104873.0
165.8153, 104613.8
166.2974, 104383.5
166.7795, 104193.1
167.2617, 104119.9
167.7438, 104036.8
168.2259, 103823.8
168.7080, 103487.0
169.1901, 103153.6
169.6722, 102923.2
170.1544, 102754.1
170.6365, 102576.8
171.1186, 102352.7
171.6007, 102109.4
172.0828, 101865.8
172.5649, 101621.0
173.0471, 101382.7
173.5292, 101152.1
174.0113, 100933.3
174.4934, 100740.7
174.9755, 100607.5
175.4576, 100500.6
175.9397, 100362.1
176.4219, 100167.4
176.9040, 99977.35
177.3861, 99868.26
177.8682, 99831.44
178.3503, 99812.98
178.8324, 99765.21
179.3146, 99706.95
179.7967, 99681.88
180.2788, 99694.15
180.7609, 99747.80
181.2430, 99861.52
181.7251, 100033.2
182.2073, 100229.0
182.6894, 100455.7
183.1715, 100694.1
183.6536, 100848.9
184.1357, 100848.0
184.6178, 100757.8
185.1000, 100756.4
185.5821, 100851.2
186.0642, 100988.3
186.5463, 101110.9
187.0284, 101221.3
187.5105, 101347.6
187.9927, 101494.1
188.4748, 101660.7
188.9569, 101880.4
189.4390, 102169.5
189.9211, 102457.5
190.4032, 102610.2
190.8854, 102621.5
191.3675, 102667.1
191.8496, 102891.2
192.3317, 103272.1
192.8138, 103496.5
193.2959, 103501.0
193.7781, 103400.0
194.2602, 103450.9
194.7423, 103675.4
195.2244, 103897.1
195.7065, 103994.2
196.1886, 103965.4
196.6708, 103933.7
197.1529, 103904.1
197.6350, 103892.0
198.1171, 103955.6
198.5992, 104110.1
199.0813, 104292.2
199.5634, 104437.2
200.0456, 104535.4
200.5277, 104694.2
201.0098, 104944.3
201.4919, 105277.3
201.9740, 105609.1
202.4561, 105932.2
202.9383, 106266.1
203.4204, 106632.1
203.9025, 107033.8
204.3846, 107447.1
204.8667, 107856.8
205.3488, 108262.6
205.8310, 108703.7
206.3131, 109173.3
206.7952, 109684.6
207.2773, 110267.5
207.7594, 110942.2
208.2415, 111626.4
208.7237, 112277.3
209.2058, 112879.1
209.6879, 113543.4
210.1700, 114284.1
210.6521, 115078.3
211.1342, 115878.1
211.6164, 116660.0
212.0985, 117489.0
212.5806, 118404.5
213.0627, 119426.8
213.5448, 120439.9
214.0269, 121418.7
214.5091, 122400.9
214.9912, 123507.5
215.4733, 124762.4
215.9554, 126070.9
216.4375, 127378.4
216.9196, 128623.0
217.4018, 129969.6
217.8839, 131457.1
218.3660, 133049.6
218.8481, 134658.3
219.3302, 136280.7
219.8123, 137902.2
220.2945, 139482.6
220.7766, 140966.0
221.2587, 142539.8
221.7408, 144233.2
222.2229, 146051.2
222.7050, 147842.1
223.1871, 149601.3
223.6693, 151358.7
224.1514, 153172.0
224.6335, 155068.4
225.1156, 156942.5
225.5977, 158807.5
226.0798, 160647.5
226.5620, 162474.8
227.0441, 164285.6
227.5262, 166065.9
228.0083, 167844.0
228.4904, 169704.8
228.9725, 171384.4
229.4547, 172796.8
229.9368, 173911.0
230.4189, 175003.0
230.9010, 176147.8
231.3831, 177226.0
231.8652, 178082.5
232.3474, 178705.3
232.8295, 179138.2
233.3116, 179379.7
233.7937, 179413.4
234.2758, 179328.6
234.7579, 179150.7
235.2401, 178835.2
235.7222, 178293.6
236.2043, 177444.7
236.6864, 176490.7
237.1685, 175491.8
237.6507, 174437.7
238.1328, 173367.3
238.6149, 172295.2
239.0970, 171202.7
239.5791, 170048.7
240.0612, 168838.8
240.5434, 167558.1
241.0255, 166205.1
241.5076, 164729.4
241.9897, 163284.6
242.4718, 161879.0
242.9539, 160506.9
243.4360, 159149.1
243.9182, 157811.2
244.4003, 156483.9
244.8824, 155148.7
245.3645, 153777.2
245.8466, 152494.5
246.3287, 151316.1
246.8109, 150231.9
247.2930, 149197.5
247.7751, 148234.3
248.2572, 147307.7
248.7393, 146399.2
249.2214, 145523.6
249.7036, 144650.9
250.1857, 143771.4
250.6678, 142894.0
251.1499, 142033.1
251.6320, 141208.3
252.1141, 140365.9
252.5963, 139467.7
253.0784, 138457.5
253.5605, 137501.8
254.0426, 136626.0
254.5247, 135825.6
255.0068, 135002.3
255.4890, 134164.0
255.9711, 133291.0
256.4532, 132337.1
256.9353, 131220.0
257.4174, 130221.0
257.8995, 129402.7
258.3817, 128756.6
258.8638, 128051.4
259.3459, 127269.6
259.8280, 126453.0
260.3101, 125621.1
260.7922, 124775.3
261.2744, 123920.4
261.7565, 123056.6
262.2386, 122174.8
262.7207, 121381.9
263.2028, 120699.9
263.6849, 120056.7
264.1671, 119366.8
264.6492, 118621.1
265.1313, 117860.7
265.6134, 117097.2
266.0955, 116331.1
266.5776, 115600.4
267.0598, 114924.1
267.5419, 114265.3
268.0240, 113557.2
268.5061, 112772.8
268.9882, 112068.9
269.4703, 111522.6
269.9525, 111130.8
270.4346, 110642.1
270.9167, 110038.4
271.3988, 109365.9
271.8809, 108663.4
272.3630, 107926.4
272.8452, 107203.0
273.3273, 106514.0
273.8094, 105864.7
274.2915, 105213.6
274.7736, 104555.6
275.2557, 103910.8
275.7379, 103313.8
276.2200, 102766.0
276.7021, 102254.4
277.1842, 101776.9
277.6663, 101336.4
278.1484, 100909.1
278.6305, 100491.2
279.1126, 100096.8
279.5948, 99763.52
280.0769, 99494.83
280.5590, 99221.53
281.0411, 98912.72
281.5232, 98570.06
282.0053, 98244.60
282.4875, 97941.37
282.9696, 97632.01
283.4517, 97251.32
283.9338, 96799.64
284.4159, 96403.28
284.8980, 96143.16
285.3802, 95995.05
285.8623, 95825.38
286.3444, 95632.41
286.8265, 95424.73
287.3086, 95218.45
287.7907, 95012.46
288.2729, 94783.37
288.7550, 94527.57
289.2371, 94243.49
289.7192, 93905.55
290.2013, 93502.62
290.6834, 93109.77
291.1656, 92836.48
291.6477, 92666.59
292.1298, 92517.95
292.6119, 92338.21
293.0940, 92151.52
293.5761, 92022.61
294.0583, 91957.62
294.5404, 91922.60
295.0225, 91883.94
295.5046, 91842.74
295.9867, 91806.32
296.4688, 91794.40
296.9510, 91784.69
297.4331, 91734.22
297.9152, 91639.06
298.3973, 91520.23
298.8794, 91389.98
299.3615, 91252.63
299.8437, 91115.23
300.3258, 90947.07
300.8079, 90796.23
301.2900, 90734.64
301.7721, 90772.58
302.2542, 90849.05
302.7364, 90911.45
303.2185, 90972.37
303.7006, 91058.80
304.1827, 91171.62
304.6648, 91321.36
305.1469, 91528.45
305.6291, 91797.37
306.1112, 92078.38
306.5933, 92372.36
307.0754, 92650.62
307.5575, 92859.44
308.0396, 92980.06
308.5218, 93021.15
309.0039, 92956.53
309.4860, 92778.08
309.9681, 92616.77
310.4502, 92547.91
310.9323, 92546.17
311.4145, 92575.80
311.8966, 92613.03
312.3787, 92686.11
312.8608, 92804.77
313.3429, 92968.89
313.8250, 93192.63
314.3072, 93551.92
314.7893, 93953.16
315.2714, 94288.91
315.7535, 94348.29
316.2356, 94484.58
316.7177, 94901.52
317.1999, 95627.70
317.6820, 96284.13
318.1641, 96735.65
318.6462, 97075.02
319.1283, 97387.76
319.6104, 97719.42
320.0926, 98004.13
320.5747, 98254.71
321.0568, 98477.38
321.5389, 98547.74
322.0210, 98389.60
322.5031, 98099.07
322.9852, 97761.18
323.4673, 97320.74
323.9495, 96904.15
324.4316, 96532.34
324.9137, 96206.80
325.3958, 95910.55
325.8779, 95634.11
326.3600, 95395.11
326.8422, 95207.27
327.3243, 95090.89
327.8064, 95000.59
328.2885, 94935.57
328.7706, 94894.05
329.2527, 94855.38
329.7349, 94796.23
330.2170, 94758.87
330.6991, 94773.09
331.1812, 94855.19
331.6633, 94956.41
332.1454, 95074.74
332.6276, 95208.31
333.1097, 95351.87
333.5918, 95518.46
334.0739, 95672.70
334.5560, 95791.59
335.0381, 95868.23
335.5203, 95928.76
336.0024, 95963.00
336.4845, 95987.42
336.9666, 96072.00
337.4487, 96238.31
337.9308, 96406.31
338.4130, 96509.09
338.8951, 96539.23
339.3772, 96611.07
339.8593, 96746.53
340.3414, 96920.27
340.8235, 97072.33
341.3057, 97197.64
341.7878, 97329.25
342.2699, 97498.18
342.7520, 97698.11
343.2341, 97840.85
343.7162, 97898.02
344.1984, 97933.34
344.6805, 98083.48
345.1626, 98339.80
345.6447, 98562.50
346.1268, 98646.98
346.6089, 98633.71
347.0911, 98634.92
347.5732, 98659.73
348.0553, 98700.72
348.5374, 98746.34
349.0195, 98800.81
349.5016, 98877.88
349.9838, 99042.00
350.4659, 99216.46
350.9480, 99256.43
351.4301, 99138.03
351.9122, 99016.20
352.3943, 99037.65
352.8765, 99160.95
353.3586, 99299.48
353.8407, 99423.38
354.3228, 99537.21
354.8049, 99648.01
355.2870, 99756.21
355.7692, 99838.00
356.2513, 99830.39
356.7334, 99797.35
357.2155, 99823.45
357.6976, 100009.6
358.1797, 100203.3
358.6619, 100328.8
359.1440, 100384.1
359.6261, 100404.3
360.1082, 100340.6
360.5903, 100275.9
361.0724, 100285.3
361.5546, 100488.0
362.0367, 100665.1
362.5188, 100751.5
363.0009, 100752.5
363.4830, 100731.9
363.9651, 100664.9
364.4473, 100603.3
364.9294, 100579.6
365.4115, 100671.6
365.8936, 100716.7
366.3757, 100689.1
366.8578, 100600.4
367.3399, 100504.9
367.8221, 100390.5
368.3042, 100283.2
368.7863, 100195.6
369.2684, 100143.8
369.7505, 100088.8
370.2326, 100035.6
370.7148, 99981.48
371.1969, 99916.63
371.6790, 99836.05
372.1611, 99757.67
372.6432, 99684.52
373.1253, 99610.38
373.6075, 99575.74
374.0896, 99601.13
374.5717, 99641.45
375.0538, 99610.05
375.5359, 99487.95
376.0180, 99374.62
376.5002, 99312.18
376.9823, 99296.82
377.4644, 99261.41
377.9465, 99200.94
378.4286, 99129.91
378.9107, 99064.61
379.3929, 99003.85
379.8750, 98946.84
380.3571, 98904.56
380.8392, 98863.79
381.3213, 98781.70
381.8034, 98658.39
382.2856, 98518.45
382.7677, 98375.70
383.2498, 98235.32
383.7319, 98104.55
384.2140, 97973.83
384.6961, 97869.41
385.1783, 97844.52
385.6604, 97890.14
386.1425, 97928.89
386.6246, 97918.86
387.1067, 97868.69
387.5888, 97782.14
388.0710, 97627.56
388.5531, 97489.76
389.0352, 97429.64
389.5173, 97434.79
389.9994, 97468.75
390.4815, 97538.56
390.9637, 97614.57
391.4458, 97675.55
391.9279, 97713.02
392.4100, 97745.60
392.8921, 97766.04
393.3742, 97784.96
393.8564, 97821.80
394.3385, 97950.13
394.8206, 98033.36
395.3027, 97991.66
395.7848, 97765.15
396.2669, 97627.43
396.7491, 97665.77
397.2312, 97782.65
397.7133, 97866.94
398.1954, 97918.73
398.6775, 97940.02
399.1596, 97922.23
399.6418, 97865.92
400.1239, 97830.84
400.6060, 97809.61
401.0881, 97823.70
401.5702, 97898.48
402.0523, 98056.34
402.5345, 98214.77
403.0166, 98369.06
403.4987, 98513.48
403.9808, 98614.02
404.4629, 98651.80
404.9450, 98697.26
405.4272, 98796.94
405.9093, 98949.74
406.3914, 99115.53
406.8735, 99291.76
407.3556, 99468.91
407.8377, 99644.23
408.3199, 99815.49
408.8020, 99937.28
409.2841, 99961.33
409.7662, 99918.16
410.2483, 99899.13
410.7304, 99914.63
411.2126, 99931.58
411.6946, 99900.34
412.1768, 99842.59
412.6589, 99811.74
413.1410, 99860.71
413.6231, 99935.08
414.1052, 99980.70
414.5873, 99997.98
415.0695, 99998.77
415.5516, 99952.94
416.0337, 99909.33
416.5158, 99925.57
416.9979, 100118.4
417.4800, 100278.6
417.9622, 100270.0
418.4443, 100128.7
418.9264, 100030.3
419.4085, 100043.6
419.8906, 100112.3
420.3727, 100205.9
420.8549, 100347.5
421.3370, 100467.9
421.8191, 100553.7
422.3012, 100608.1
422.7833, 100636.7
423.2654, 100604.9
423.7476, 100578.3
424.2297, 100579.3
424.7118, 100619.9
425.1939, 100637.6
425.6760, 100604.8
426.1581, 100572.0
426.6403, 100612.4
427.1224, 100765.0
427.6045, 100893.7
428.0866, 100958.4
428.5687, 100968.4
429.0508, 101010.0
429.5330, 101092.4
430.0151, 101185.9
430.4972, 101268.9
430.9793, 101341.4
431.4614, 101404.0
431.9435, 101453.8
432.4257, 101494.2
432.9078, 101520.3
433.3899, 101533.0
433.8720, 101569.5
434.3541, 101651.0
434.8362, 101771.9
435.3184, 101928.2
435.8005, 102124.6
436.2826, 102333.1
436.7647, 102538.4
437.2468, 102737.3
437.7289, 102918.4
438.2111, 103052.5
438.6932, 103188.3
439.1753, 103376.1
439.6574, 103621.5
440.1395, 103855.3
440.6216, 104046.3
441.1038, 104207.5
441.5859, 104350.0
442.0680, 104423.7
442.5501, 104533.9
443.0322, 104722.2
443.5143, 104977.3
443.9965, 105234.2
444.4786, 105468.4
444.9607, 105707.8
445.4428, 105972.7
445.9249, 106309.9
446.4070, 106587.9
446.8892, 106776.5
447.3713, 106914.4
447.8534, 107072.9
448.3355, 107240.0
448.8176, 107457.6
449.2997, 107760.7
449.7819, 108158.0
450.2640, 108516.5
450.7461, 108838.0
451.2282, 109127.9
451.7103, 109377.9
452.1924, 109589.1
452.6746, 109804.2
453.1567, 110023.7
453.6388, 110262.3
454.1209, 110581.5
454.6030, 110981.5
455.0851, 111370.9
455.5673, 111670.5
456.0494, 111909.6
456.5315, 112151.7
457.0136, 112389.2
457.4957, 112675.0
457.9778, 113142.0
458.4599, 113709.7
458.9420, 114186.4
459.4242, 114358.9
459.9063, 114476.6
460.3884, 114756.5
460.8705, 115234.0
461.3526, 115670.3
461.8347, 115886.3
462.3169, 116026.3
462.7990, 116240.3
463.2811, 116609.6
463.7632, 117009.5
464.2453, 117462.3
464.7274, 117950.3
465.2096, 118319.4
465.6917, 118384.1
466.1738, 118471.0
466.6559, 118743.9
467.1380, 119362.1
467.6201, 119853.1
468.1023, 120169.5
468.5844, 120384.1
469.0665, 120631.7
469.5486, 120916.6
470.0307, 121210.7
470.5128, 121518.4
470.9950, 121834.9
471.4771, 122076.1
471.9592, 122232.3
472.4413, 122354.1
472.9234, 122482.6
473.4055, 122620.1
473.8877, 122780.9
474.3698, 122985.9
474.8519, 123199.6
475.3340, 123365.6
475.8161, 123488.5
476.2982, 123586.5
476.7804, 123649.2
477.2625, 123705.6
477.7446, 123803.4
478.2267, 123965.1
478.7088, 124103.0
479.1909, 124131.9
479.6731, 124102.2
480.1552, 124094.6
480.6373, 124171.9
481.1194, 124243.9
481.6015, 124269.9
482.0836, 124246.9
482.5658, 124207.3
483.0479, 124149.8
483.5300, 124081.2
484.0121, 124006.2
484.4942, 123930.4
484.9763, 123843.6
485.4585, 123755.4
485.9406, 123658.9
486.4227, 123528.3
486.9048, 123349.8
487.3869, 123174.6
487.8690, 123022.5
488.3512, 122895.6
488.8333, 122796.0
489.3154, 122739.4
489.7975, 122669.8
490.2796, 122506.9
490.7617, 122255.3
491.2439, 122000.3
491.7260, 121748.2
492.2081, 121517.3
492.6902, 121367.4
493.1723, 121289.5
493.6544, 121177.0
494.1366, 120884.4
494.6187, 120538.9
495.1008, 120339.8
495.5829, 120356.5
496.0650, 120391.3
496.5471, 120331.8
497.0293, 120193.8
497.5114, 120004.3
497.9935, 119711.2
498.4756, 119422.0
498.9577, 119196.1
499.4398, 119034.8
499.9220, 118845.6
500.4041, 118545.0
500.8862, 118246.4
501.3683, 118034.9
501.8504, 118019.3
502.3325, 117916.9
502.8146, 117684.5
503.2968, 117366.2
503.7789, 117074.3
504.2610, 116808.6
504.7431, 116563.8
505.2252, 116352.5
505.7073, 116174.8
506.1895, 115954.5
506.6716, 115681.3
507.1537, 115401.5
507.6358, 115172.4
508.1179, 114985.9
508.6000, 114784.6
509.0822, 114543.6
509.5643, 114292.1
510.0464, 114081.5
510.5285, 113902.1
511.0106, 113703.3
511.4927, 113450.9
511.9749, 113164.9
512.4570, 112848.1
512.9391, 112489.0
513.4212, 112174.0
513.9033, 111997.6
514.3854, 111878.0
514.8676, 111711.4
515.3497, 111407.8
515.8318, 111116.6
516.3139, 110883.6
516.7960, 110708.4
517.2781, 110533.9
517.7603, 110375.4
518.2424, 110200.1
518.7245, 109994.1
519.2066, 109768.5
519.6887, 109481.8
520.1708, 109102.0
520.6530, 108690.7
521.1351, 108364.0
521.6172, 108135.6
522.0993, 107898.4
522.5814, 107619.1
523.0635, 107303.0
523.5457, 106971.7
524.0278, 106623.8
524.5099, 106276.6
524.9920, 105956.6
525.4741, 105653.2
525.9562, 105342.0
526.4384, 105013.5
526.9205, 104703.8
527.4026, 104465.6
527.8847, 104273.2
528.3668, 104064.2
528.8489, 103819.3
529.3311, 103546.7
529.8132, 103240.2
530.2953, 102897.3
530.7774, 102572.5
531.2595, 102305.9
531.7416, 102047.2
532.2238, 101762.5
532.7059, 101395.4
533.1880, 101076.5
533.6701, 100836.3
534.1522, 100636.0
534.6343, 100394.0
535.1165, 100092.6
535.5986, 99789.31
536.0807, 99503.20
536.5628, 99231.54
537.0449, 98988.20
537.5270, 98780.10
538.0092, 98554.52
538.4913, 98225.23
538.9734, 97825.83
539.4555, 97499.11
539.9376, 97288.96
540.4197, 97135.93
540.9019, 96971.66
541.3840, 96799.37
541.8661, 96628.03
542.3482, 96503.89
542.8303, 96352.63
543.3124, 96076.56
543.7946, 95661.96
544.2767, 95311.03
544.7588, 95161.18
545.2409, 95074.51
545.7230, 94937.82
546.2051, 94699.99
546.6873, 94443.23
547.1694, 94152.10
547.6515, 93847.20
548.1336, 93583.55
548.6157, 93396.01
549.0978, 93195.85
549.5800, 92956.91
550.0621, 92680.71
550.5442, 92383.11
551.0263, 92068.37
551.5084, 91731.09
551.9905, 91331.95
552.4727, 90892.80
552.9548, 90552.20
553.4369, 90360.41
553.9190, 90234.80
554.4011, 90058.62
554.8832, 89847.17
555.3654, 89646.80
555.8475, 89473.27
556.3296, 89325.39
556.8117, 89211.77
557.2938, 89130.23
557.7759, 89028.29
558.2581, 88859.42
558.7402, 88665.65
559.2223, 88479.72
559.7044, 88264.70
560.1865, 88108.78
560.6686, 88095.93
561.1508, 88135.09
561.6329, 88034.77
562.1150, 87708.03
562.5971, 87387.09
563.0792, 87153.81
563.5613, 87004.84
564.0435, 86809.47
564.5256, 86563.85
565.0077, 86296.75
565.4898, 86008.49
565.9719, 85711.70
566.4540, 85492.88
566.9362, 85388.02
567.4183, 85305.27
567.9004, 85111.27
568.3824, 84837.91
568.8646, 84584.16
569.3467, 84442.35
569.8288, 84302.60
570.3109, 84042.96
570.7930, 83676.17
571.2751, 83349.44
571.7573, 83170.59
572.2394, 83033.70
572.7215, 82872.08
573.2036, 82665.34
573.6857, 82454.14
574.1678, 82212.86
574.6500, 81981.64
575.1321, 81832.36
575.6142, 81836.34
576.0963, 81773.25
576.5784, 81582.90
577.0605, 81284.98
577.5427, 80978.31
578.0248, 80655.99
578.5069, 80348.48
