##NAMES=Fluorite
##RRUFFID=R050046
##IDEAL CHEMISTRY=CaF_2_
##LOCALITY=Shangbao, Lei Yang, Hunan Province, China
##OWNER=RRUFF
##SOURCE=Eugene Schlepp
##DESCRIPTION=Pale purple crystal
##STATUS=The identification of this mineral has been confirmed by X-ray diffraction and chemical analysis
##URL=rruff.info/R050046
##MEASURED CHEMISTRY=Ca_1.000_ F_2.000_
153.8033, 629.9365
154.2855, 635.5191
154.7676, 640.2701
155.2497, 643.7263
155.7318, 643.8679
156.2139, 635.3912
156.6960, 625.8818
157.1782, 625.5951
157.6603, 636.2424
158.1424, 647.6642
158.6245, 651.0399
159.1066, 649.0463
159.5887, 647.7931
160.0709, 646.5010
160.5530, 647.6484
161.0351, 657.2695
161.5172, 678.2888
161.9993, 697.0854
162.4814, 700.4520
162.9636, 694.6782
163.4457, 690.6290
163.9278, 690.4777
164.4099, 694.7589
164.8920, 706.2994
165.3741, 728.1940
165.8563, 748.5486
166.3384, 759.9996
166.8205, 765.0297
167.3026, 766.8306
167.7847, 763.5251
168.2668, 758.8110
168.7490, 761.9545
169.2311, 776.8174
169.7132, 790.8505
170.1953, 796.8469
170.6774, 797.8629
171.1595, 798.1870
171.6417, 798.6750
172.1238, 800.1780
172.6059, 805.9156
173.0880, 819.5215
173.5701, 829.8809
174.0522, 830.5510
174.5344, 825.6215
175.0165, 820.4739
175.4986, 816.8385
175.9807, 815.1865
176.4628, 817.3278
176.9449, 825.5983
177.4271, 833.4534
177.9092, 838.4164
178.3913, 841.4955
178.8734, 843.8869
179.3555, 845.9792
179.8376, 847.9781
180.3197, 851.0878
180.8019, 858.0563
181.2840, 860.8990
181.7661, 853.6984
182.2482, 842.6640
182.7303, 835.4680
183.2124, 835.9891
183.6946, 842.4153
184.1767, 850.1089
184.6588, 860.8014
185.1409, 869.5164
185.6230, 874.8236
186.1051, 877.8198
186.5873, 878.7448
187.0694, 876.9358
187.5515, 875.3141
188.0336, 883.1831
188.5157, 910.3491
188.9978, 929.6907
189.4800, 931.9456
189.9621, 926.1448
190.4442, 921.3487
190.9263, 921.5474
191.4084, 924.7757
191.8905, 926.2301
192.3727, 924.6299
192.8548, 923.4829
193.3369, 921.1372
193.8190, 920.4323
194.3011, 925.4178
194.7832, 937.8131
195.2654, 953.1403
195.7475, 961.1321
196.2296, 956.5803
196.7117, 954.3666
197.1938, 956.5981
197.6759, 961.4531
198.1581, 968.8337
198.6402, 978.5116
199.1223, 987.2721
199.6044, 988.2924
200.0865, 975.8325
200.5686, 966.9733
201.0508, 963.1090
201.5329, 962.6951
202.0150, 964.9850
202.4971, 969.6628
202.9792, 976.2943
203.4613, 985.3651
203.9435, 1001.620
204.4256, 1009.018
204.9077, 999.1523
205.3898, 986.9842
205.8719, 983.3414
206.3540, 990.0071
206.8362, 1000.435
207.3183, 1005.909
207.8004, 1004.956
208.2825, 1002.370
208.7646, 994.9245
209.2467, 988.5348
209.7289, 986.1038
210.2110, 988.2609
210.6931, 994.5673
211.1752, 1006.123
211.6573, 1026.522
212.1395, 1038.406
212.6216, 1035.411
213.1037, 1029.964
213.5858, 1027.688
214.0679, 1028.767
214.5500, 1030.300
215.0322, 1029.198
215.5143, 1024.818
215.9964, 1022.110
216.4785, 1019.688
216.9606, 1020.159
217.4427, 1026.309
217.9249, 1036.611
218.4070, 1046.599
218.8891, 1051.602
219.3712, 1051.271
219.8533, 1058.833
220.3354, 1088.429
220.8176, 1112.398
221.2997, 1121.191
221.7818, 1118.483
222.2639, 1112.257
222.7460, 1107.595
223.2281, 1104.479
223.7103, 1103.117
224.1924, 1105.433
224.6745, 1107.526
225.1566, 1106.323
225.6387, 1104.809
226.1208, 1108.633
226.6030, 1121.951
227.0851, 1140.933
227.5672, 1148.823
228.0493, 1132.651
228.5314, 1122.646
229.0135, 1127.111
229.4957, 1138.891
229.9778, 1150.707
230.4599, 1159.425
230.9420, 1164.708
231.4241, 1164.970
231.9062, 1154.689
232.3884, 1149.021
232.8705, 1152.641
233.3526, 1159.471
233.8347, 1165.571
234.3168, 1169.401
234.7989, 1169.491
235.2811, 1161.485
235.7632, 1138.045
236.2453, 1124.244
236.7274, 1130.400
237.2095, 1139.825
237.6916, 1140.491
238.1738, 1130.573
238.6559, 1117.865
239.1380, 1111.206
239.6201, 1110.773
240.1022, 1116.059
240.5843, 1138.987
241.0665, 1157.869
241.5486, 1159.627
242.0307, 1145.537
242.5128, 1127.487
242.9949, 1116.334
243.4770, 1112.543
243.9592, 1109.946
244.4413, 1108.098
244.9234, 1108.063
245.4055, 1110.887
245.8876, 1115.942
246.3697, 1121.804
246.8519, 1128.285
247.3340, 1134.972
247.8161, 1137.660
248.2982, 1133.982
248.7803, 1129.152
249.2624, 1124.013
249.7446, 1119.206
250.2267, 1115.882
250.7088, 1115.076
251.1909, 1115.662
251.6730, 1113.385
252.1551, 1104.089
252.6373, 1100.725
253.1194, 1113.656
253.6015, 1131.424
254.0836, 1141.042
254.5657, 1136.966
255.0478, 1126.452
255.5300, 1120.828
256.0121, 1121.211
256.4942, 1122.343
256.9763, 1122.544
257.4584, 1123.072
257.9406, 1124.346
258.4227, 1126.402
258.9048, 1130.807
259.3869, 1141.375
259.8690, 1158.600
260.3511, 1170.794
260.8333, 1175.054
261.3154, 1173.736
261.7975, 1166.645
262.2796, 1154.415
262.7617, 1143.466
263.2438, 1138.652
263.7260, 1139.197
264.2081, 1140.647
264.6902, 1142.512
265.1723, 1145.411
265.6544, 1150.363
266.1365, 1156.760
266.6187, 1162.516
267.1008, 1166.452
267.5829, 1169.122
268.0650, 1171.901
268.5471, 1175.165
269.0292, 1177.404
269.5114, 1174.928
269.9935, 1170.892
270.4756, 1171.402
270.9577, 1183.155
271.4398, 1195.898
271.9219, 1195.438
272.4041, 1181.297
272.8862, 1170.509
273.3683, 1173.338
273.8504, 1184.248
274.3325, 1191.982
274.8146, 1195.232
275.2968, 1196.763
275.7789, 1196.742
276.2610, 1196.055
276.7431, 1199.150
277.2252, 1209.450
277.7073, 1221.704
278.1895, 1227.284
278.6716, 1225.887
279.1537, 1221.666
279.6358, 1211.760
280.1179, 1200.952
280.6000, 1198.034
281.0822, 1205.350
281.5643, 1218.050
282.0464, 1231.838
282.5285, 1246.897
283.0106, 1259.764
283.4927, 1269.935
283.9749, 1277.803
284.4570, 1282.363
284.9391, 1284.003
285.4212, 1287.066
285.9033, 1295.984
286.3854, 1310.487
286.8676, 1319.476
287.3497, 1319.332
287.8318, 1317.756
288.3139, 1317.009
288.7960, 1317.719
289.2781, 1320.990
289.7603, 1327.500
290.2424, 1336.905
290.7245, 1347.784
291.2066, 1364.018
291.6887, 1376.888
292.1708, 1381.113
292.6530, 1382.667
293.1351, 1390.048
293.6172, 1406.116
294.0993, 1425.422
294.5814, 1437.498
295.0635, 1431.705
295.5457, 1439.658
296.0278, 1472.687
296.5099, 1510.129
296.9920, 1536.333
297.4741, 1550.451
297.9562, 1562.041
298.4384, 1580.720
298.9205, 1607.019
299.4026, 1637.407
299.8847, 1679.438
300.3668, 1717.891
300.8489, 1738.170
301.3311, 1750.989
301.8131, 1779.074
302.2953, 1838.818
302.7774, 1924.359
303.2595, 2005.765
303.7416, 2079.061
304.2237, 2153.975
304.7058, 2227.708
305.1880, 2305.847
305.6701, 2394.417
306.1522, 2495.695
306.6343, 2607.007
307.1164, 2724.883
307.5985, 2849.430
308.0807, 2978.484
308.5628, 3107.622
309.0449, 3244.153
309.5270, 3391.669
310.0091, 3551.085
310.4912, 3719.610
310.9734, 3892.137
311.4555, 4070.068
311.9376, 4267.376
312.4197, 4492.019
312.9018, 4726.167
313.3839, 4945.983
313.8661, 5164.438
314.3482, 5414.133
314.8303, 5711.644
315.3124, 6048.698
315.7945, 6412.240
316.2766, 6801.808
316.7588, 7217.998
317.2409, 7665.744
317.7230, 8136.981
318.2051, 8623.116
318.6872, 9144.536
319.1693, 9638.117
319.6515, 10076.65
320.1336, 10450.61
320.6157, 10730.10
321.0978, 10911.88
321.5799, 10978.48
322.0620, 10894.81
322.5442, 10669.99
323.0263, 10332.70
323.5084, 9838.129
323.9905, 9256.480
324.4726, 8665.466
324.9547, 8076.070
325.4369, 7497.293
325.9190, 6931.717
326.4011, 6380.360
326.8832, 5877.413
327.3653, 5419.320
327.8474, 5007.864
328.3296, 4646.588
328.8117, 4332.206
329.2938, 4061.007
329.7759, 3831.868
330.2580, 3638.896
330.7401, 3462.969
331.2223, 3307.583
331.7044, 3164.160
332.1865, 3027.144
332.6686, 2903.371
333.1507, 2803.911
333.6328, 2731.194
334.1150, 2672.076
334.5971, 2606.314
335.0792, 2529.100
335.5613, 2459.199
336.0434, 2396.846
336.5255, 2340.691
337.0077, 2292.727
337.4898, 2251.170
337.9719, 2210.716
338.4540, 2166.518
338.9361, 2119.740
339.4182, 2081.814
339.9004, 2062.655
340.3825, 2037.947
340.8646, 1992.495
341.3467, 1940.798
341.8288, 1902.924
342.3109, 1887.837
342.7931, 1881.329
343.2752, 1861.686
343.7573, 1826.897
344.2394, 1792.748
344.7215, 1760.342
345.2036, 1732.173
345.6858, 1711.294
346.1679, 1697.591
346.6500, 1684.701
347.1321, 1669.399
347.6142, 1651.864
348.0963, 1630.350
348.5785, 1601.709
349.0606, 1578.393
349.5427, 1576.528
350.0248, 1588.695
350.5069, 1592.834
350.9890, 1578.906
351.4712, 1560.466
351.9533, 1548.595
352.4354, 1542.152
352.9175, 1535.351
353.3996, 1526.309
353.8817, 1514.268
354.3639, 1495.685
354.8460, 1465.304
355.3281, 1440.798
355.8102, 1428.378
356.2923, 1422.887
356.7744, 1420.125
357.2566, 1418.747
357.7387, 1415.921
358.2208, 1407.713
358.7029, 1392.009
359.1850, 1383.056
359.6671, 1386.849
360.1493, 1390.411
360.6314, 1388.358
361.1135, 1381.493
361.5956, 1372.483
362.0777, 1362.771
362.5598, 1352.336
363.0420, 1340.473
363.5241, 1321.663
364.0062, 1310.868
364.4883, 1316.307
364.9704, 1325.477
365.4525, 1326.734
365.9347, 1318.142
366.4168, 1308.165
366.8989, 1307.739
367.3810, 1317.721
367.8631, 1322.961
368.3452, 1322.795
368.8274, 1317.396
369.3095, 1302.892
369.7916, 1283.628
370.2737, 1270.094
370.7558, 1269.600
371.2379, 1275.636
371.7201, 1276.027
372.2022, 1269.735
372.6843, 1268.288
373.1664, 1281.664
373.6485, 1299.497
374.1306, 1306.223
374.6128, 1299.598
375.0949, 1288.294
375.5770, 1271.281
376.0591, 1253.705
376.5412, 1248.220
377.0233, 1258.586
377.5055, 1271.886
377.9876, 1274.949
378.4697, 1266.456
378.9518, 1258.742
379.4339, 1252.318
379.9160, 1246.376
380.3982, 1239.887
380.8803, 1233.464
381.3624, 1229.380
381.8445, 1229.183
382.3266, 1231.018
382.8087, 1229.167
383.2909, 1218.750
383.7730, 1210.958
384.2551, 1205.758
384.7372, 1203.407
385.2193, 1205.656
385.7014, 1211.866
386.1836, 1217.954
386.6657, 1219.828
387.1478, 1217.391
387.6299, 1212.325
388.1120, 1200.900
388.5941, 1191.118
389.0763, 1185.046
389.5584, 1182.377
390.0405, 1183.007
390.5226, 1187.489
391.0047, 1193.445
391.4868, 1197.847
391.9690, 1200.854
392.4511, 1200.383
392.9332, 1193.271
393.4153, 1184.703
393.8974, 1179.611
394.3795, 1178.026
394.8617, 1177.365
395.3438, 1175.381
395.8259, 1173.841
396.3080, 1177.396
396.7901, 1186.852
397.2722, 1193.606
397.7544, 1189.638
398.2365, 1177.801
398.7186, 1173.570
399.2007, 1186.265
399.6828, 1196.013
400.1649, 1191.561
400.6471, 1179.932
401.1292, 1172.817
401.6113, 1174.049
402.0934, 1179.926
402.5755, 1185.485
403.0576, 1191.873
403.5398, 1193.942
404.0219, 1190.126
404.5040, 1184.120
404.9861, 1175.932
405.4682, 1167.110
405.9503, 1160.820
406.4325, 1159.309
406.9146, 1161.228
407.3967, 1161.466
407.8788, 1157.640
408.3609, 1157.151
408.8430, 1167.790
409.3252, 1177.896
409.8073, 1174.388
410.2894, 1156.544
410.7715, 1142.076
411.2536, 1152.177
411.7357, 1180.625
412.2179, 1193.030
412.7000, 1181.185
413.1821, 1167.648
413.6642, 1170.478
414.1463, 1182.588
414.6284, 1190.026
415.1106, 1186.191
415.5927, 1181.971
416.0748, 1185.944
416.5569, 1196.110
417.0390, 1207.195
417.5211, 1218.117
418.0033, 1226.559
418.4854, 1228.458
418.9675, 1221.415
419.4496, 1215.635
419.9317, 1209.298
420.4138, 1206.132
420.8960, 1212.030
421.3781, 1223.871
421.8602, 1231.410
422.3423, 1227.436
422.8244, 1215.358
423.3065, 1210.190
423.7887, 1218.425
424.2708, 1223.551
424.7529, 1222.351
425.2350, 1218.683
425.7171, 1214.978
426.1992, 1211.926
426.6814, 1209.914
427.1635, 1209.477
427.6456, 1210.524
428.1277, 1212.371
428.6098, 1216.293
429.0919, 1218.512
429.5741, 1216.466
430.0562, 1211.711
430.5383, 1205.855
431.0204, 1197.863
431.5025, 1191.899
431.9846, 1194.220
432.4668, 1201.919
432.9489, 1203.705
433.4310, 1195.580
433.9131, 1184.577
434.3952, 1178.491
434.8773, 1177.734
435.3595, 1179.150
435.8416, 1185.719
436.3237, 1191.618
436.8058, 1193.263
437.2879, 1191.297
437.7701, 1187.197
438.2522, 1181.469
438.7343, 1175.741
439.2164, 1174.400
439.6985, 1180.810
440.1806, 1185.717
440.6628, 1188.501
441.1449, 1190.306
441.6270, 1191.442
442.1091, 1192.217
442.5912, 1193.262
443.0733, 1195.146
443.5555, 1197.629
444.0376, 1200.352
444.5197, 1204.545
445.0018, 1205.492
445.4839, 1196.762
445.9660, 1186.253
446.4482, 1182.069
446.9303, 1185.747
447.4124, 1191.496
447.8945, 1197.896
448.3766, 1203.452
448.8587, 1202.913
449.3409, 1194.946
449.8230, 1190.334
450.3051, 1200.102
450.7872, 1221.894
451.2693, 1231.831
451.7514, 1221.384
452.2336, 1210.013
452.7157, 1203.013
453.1978, 1199.299
453.6799, 1197.842
454.1620, 1198.154
454.6441, 1199.105
455.1263, 1199.736
455.6084, 1200.800
456.0905, 1197.278
456.5726, 1178.957
457.0547, 1166.609
457.5368, 1170.127
458.0190, 1183.005
458.5011, 1195.561
458.9832, 1204.355
459.4653, 1208.343
459.9474, 1202.865
460.4295, 1187.698
460.9117, 1180.316
461.3938, 1187.623
461.8759, 1198.868
462.3580, 1205.648
462.8401, 1208.320
463.3222, 1208.045
463.8044, 1201.864
464.2865, 1195.434
464.7686, 1194.760
465.2507, 1198.517
465.7328, 1200.815
466.2149, 1198.765
466.6971, 1195.148
467.1792, 1195.606
467.6613, 1203.751
468.1434, 1208.331
468.6255, 1207.362
469.1076, 1204.641
469.5898, 1202.132
470.0719, 1199.937
470.5540, 1197.448
471.0361, 1194.182
471.5182, 1190.596
472.0003, 1187.150
472.4825, 1181.715
472.9646, 1182.337
473.4467, 1200.517
473.9288, 1218.275
474.4109, 1222.527
474.8930, 1213.607
475.3752, 1202.924
475.8573, 1196.068
476.3394, 1191.983
476.8215, 1188.312
477.3036, 1185.000
477.7857, 1185.465
478.2679, 1193.024
478.7500, 1204.127
479.2321, 1210.316
479.7142, 1211.444
480.1963, 1209.150
480.6784, 1197.186
481.1606, 1186.322
481.6427, 1187.260
482.1248, 1199.822
482.6069, 1217.943
483.0890, 1238.729
483.5711, 1259.571
484.0533, 1265.492
484.5354, 1245.450
485.0175, 1228.222
485.4996, 1217.235
485.9817, 1210.774
486.4638, 1206.820
486.9460, 1205.531
487.4281, 1209.865
487.9102, 1228.221
488.3923, 1253.712
488.8744, 1263.301
489.3565, 1254.241
489.8387, 1244.296
490.3208, 1243.399
490.8029, 1246.597
491.2850, 1242.137
491.7671, 1224.666
492.2492, 1214.976
492.7314, 1228.854
493.2135, 1249.321
493.6956, 1256.045
494.1777, 1247.995
494.6598, 1237.346
495.1419, 1233.186
495.6241, 1234.491
496.1062, 1234.505
496.5883, 1231.866
497.0704, 1229.816
497.5525, 1229.736
498.0346, 1229.611
498.5168, 1225.343
498.9989, 1217.982
499.4810, 1215.710
499.9631, 1230.799
500.4452, 1256.187
500.9273, 1261.900
501.4095, 1242.593
501.8916, 1226.396
502.3737, 1228.678
502.8558, 1239.334
503.3379, 1240.839
503.8200, 1229.562
504.3022, 1223.298
504.7843, 1235.237
505.2664, 1251.952
505.7485, 1257.183
506.2306, 1250.568
506.7127, 1241.162
507.1949, 1234.670
507.6770, 1230.654
508.1591, 1227.063
508.6412, 1218.876
509.1233, 1218.989
509.6054, 1236.722
510.0876, 1255.919
510.5697, 1265.060
511.0518, 1263.821
511.5339, 1257.986
512.0161, 1249.725
512.4982, 1241.120
512.9803, 1237.965
513.4624, 1240.695
513.9445, 1247.103
514.4266, 1261.516
514.9088, 1274.723
515.3909, 1272.180
515.8730, 1252.150
516.3551, 1239.215
516.8372, 1247.114
517.3193, 1260.655
517.8015, 1265.507
518.2836, 1262.746
518.7657, 1261.280
519.2478, 1266.192
519.7299, 1273.527
520.2120, 1273.256
520.6942, 1257.616
521.1763, 1249.282
521.6584, 1252.699
522.1405, 1258.346
522.6226, 1259.647
523.1047, 1258.949
523.5869, 1264.177
524.0690, 1282.102
524.5511, 1302.261
525.0332, 1306.144
525.5153, 1293.850
525.9974, 1279.765
526.4796, 1262.681
526.9617, 1252.348
527.4438, 1266.357
527.9259, 1301.065
528.4080, 1323.056
528.8901, 1320.081
529.3723, 1310.675
529.8544, 1302.191
530.3365, 1295.884
530.8186, 1294.285
531.3007, 1298.110
531.7828, 1303.804
532.2650, 1306.651
532.7471, 1306.479
533.2292, 1304.541
533.7113, 1299.567
534.1934, 1294.174
534.6755, 1288.252
535.1577, 1282.743
535.6398, 1278.660
536.1219, 1276.232
536.6040, 1275.700
537.0861, 1277.234
537.5682, 1280.832
538.0504, 1287.676
538.5325, 1298.544
539.0146, 1307.617
539.4967, 1310.964
539.9788, 1308.976
540.4609, 1303.889
540.9431, 1290.240
541.4252, 1281.225
541.9073, 1279.672
542.3894, 1283.801
542.8715, 1295.958
543.3536, 1313.501
543.8358, 1325.639
544.3179, 1322.481
544.8000, 1308.280
545.2821, 1302.616
545.7642, 1309.808
546.2463, 1313.716
546.7285, 1308.653
547.2106, 1299.867
547.6927, 1288.382
548.1748, 1275.280
548.6569, 1268.993
549.1390, 1280.142
549.6211, 1295.123
550.1032, 1297.815
550.5853, 1290.555
551.0674, 1284.722
551.5496, 1284.931
552.0317, 1288.027
552.5138, 1288.936
552.9959, 1286.948
553.4780, 1285.135
553.9601, 1282.526
554.4423, 1281.087
554.9244, 1281.944
555.4065, 1284.385
555.8886, 1287.356
556.3707, 1290.494
556.8528, 1293.792
557.3350, 1297.502
557.8171, 1301.496
558.2992, 1304.182
558.7813, 1304.461
559.2634, 1306.763
559.7455, 1317.695
560.2277, 1332.285
560.7098, 1334.918
561.1919, 1317.787
561.6740, 1302.218
562.1561, 1294.212
562.6382, 1291.456
563.1204, 1293.395
563.6025, 1298.638
564.0846, 1302.771
564.5667, 1302.366
565.0488, 1298.765
565.5309, 1297.981
566.0131, 1303.176
566.4952, 1303.188
566.9773, 1292.308
567.4594, 1278.526
567.9415, 1266.263
568.4236, 1255.451
568.9058, 1244.400
569.3879, 1229.293
569.8700, 1216.365
570.3521, 1215.283
570.8342, 1222.051
571.3163, 1221.014
571.7985, 1206.529
572.2806, 1191.982
572.7627, 1194.876
573.2448, 1218.067
573.7269, 1231.703
574.2090, 1235.585
574.6912, 1230.843
575.1733, 1208.147
575.6554, 1181.986
576.1375, 1169.290
576.6196, 1173.221
577.1017, 1181.987
577.5839, 1186.411
578.0660, 1187.095
578.5481, 1186.220
579.0302, 1183.968
579.5123, 1178.191
579.9944, 1164.933
580.4766, 1150.204
580.9587, 1148.308
581.4408, 1164.296
581.9229, 1169.984
582.4050, 1148.672
582.8871, 1127.525
583.3693, 1128.166
583.8514, 1142.949
584.3335, 1152.409
584.8156, 1147.579
585.2977, 1136.529
585.7798, 1132.284
586.2620, 1135.604
586.7441, 1137.084
587.2262, 1136.438
587.7083, 1133.634
588.1904, 1126.713
588.6725, 1118.143
589.1547, 1111.915
589.6368, 1108.669
590.1189, 1107.410
590.6010, 1109.654
591.0831, 1112.533
591.5652, 1111.340
592.0474, 1106.520
592.5295, 1103.179
593.0116, 1104.918
593.4937, 1109.929
593.9758, 1112.642
594.4579, 1112.267
594.9401, 1111.439
595.4222, 1110.732
595.9043, 1109.250
596.3864, 1105.477
596.8685, 1100.587
597.3506, 1097.758
597.8328, 1099.385
598.3149, 1101.059
598.7970, 1097.605
599.2791, 1091.185
599.7612, 1086.720
600.2433, 1085.136
600.7255, 1087.886
601.2076, 1097.570
601.6897, 1112.599
602.1718, 1119.916
602.6539, 1111.366
603.1360, 1106.053
603.6182, 1112.070
604.1003, 1116.538
604.5824, 1106.401
605.0645, 1084.692
605.5466, 1066.617
606.0287, 1060.769
606.5109, 1063.318
606.9930, 1070.993
607.4751, 1082.913
607.9572, 1092.154
608.4393, 1097.193
608.9214, 1098.294
609.4036, 1094.149
609.8857, 1084.741
610.3678, 1082.158
610.8499, 1094.498
611.3320, 1102.742
611.8141, 1099.197
612.2963, 1091.540
612.7784, 1088.213
613.2605, 1089.560
613.7426, 1088.939
614.2247, 1078.306
614.7068, 1064.655
615.1890, 1068.769
615.6711, 1091.727
616.1532, 1107.390
616.6353, 1105.926
617.1174, 1098.628
617.5995, 1098.248
618.0817, 1104.961
618.5638, 1108.731
619.0459, 1109.135
619.5280, 1106.596
620.0101, 1098.792
620.4922, 1089.354
620.9744, 1083.000
621.4565, 1080.400
621.9386, 1078.264
622.4207, 1072.416
622.9028, 1065.177
623.3849, 1067.519
623.8671, 1081.689
624.3492, 1091.989
624.8313, 1091.504
625.3134, 1087.662
625.7955, 1091.153
626.2776, 1101.453
626.7598, 1104.717
627.2419, 1092.758
627.7240, 1080.129
628.2061, 1073.453
628.6882, 1071.070
629.1703, 1069.801
629.6525, 1069.150
630.1346, 1072.311
630.6167, 1085.478
631.0988, 1104.653
631.5809, 1104.327
632.0630, 1077.593
632.5452, 1058.419
633.0273, 1059.014
633.5094, 1069.720
633.9915, 1082.901
634.4736, 1098.177
634.9557, 1105.927
635.4379, 1098.759
635.9200, 1089.267
636.4021, 1085.871
636.8842, 1084.276
637.3663, 1074.718
637.8484, 1056.346
638.3306, 1041.724
638.8127, 1045.530
639.2948, 1063.631
639.7769, 1068.929
640.2590, 1056.499
640.7411, 1049.241
641.2233, 1058.854
641.7054, 1071.299
642.1875, 1070.728
642.6696, 1058.312
643.1517, 1048.425
643.6339, 1044.792
644.1160, 1043.591
644.5981, 1045.431
645.0802, 1047.276
645.5623, 1041.267
646.0444, 1027.669
646.5266, 1020.356
647.0087, 1035.204
647.4908, 1065.348
647.9729, 1076.106
648.4550, 1061.653
648.9371, 1051.011
649.4193, 1053.759
649.9014, 1060.439
650.3835, 1061.250
650.8656, 1057.279
651.3477, 1056.396
