##NAMES=Fluoro-richterite
##RRUFFID=R060290
##IDEAL CHEMISTRY=Na(NaCa)Mg_5_Si_8_O_22_F_2_
##LOCALITY=Koschka Valley, Badakshan Province, Afghanistan
##OWNER=RRUFF
##SOURCE=Herb Obodda
##DESCRIPTION=Tan colored transparent prismatic crystal
##STATUS=The identification of this mineral has been made only by X-ray diffraction.
##URL=rruff.info/R060290
93.97052, 0.0000000E+00
94.45264, 4065.500
94.93475, 7559.000
95.41687, 10284.19
95.89898, 12711.06
96.38110, 14722.75
96.86321, 16216.75
97.34533, 16708.00
97.82745, 15044.44
98.30956, 13404.62
98.79168, 11945.94
99.27380, 10650.69
99.75591, 9297.438
100.2380, 7895.562
100.7201, 6632.625
101.2023, 5498.688
101.6844, 4606.812
102.1665, 4189.688
102.6486, 4509.000
103.1307, 5025.000
103.6128, 5152.250
104.0950, 4750.000
104.5771, 4434.625
105.0592, 4414.438
105.5413, 4606.688
106.0234, 5002.438
106.5055, 5536.375
106.9877, 6165.938
107.4698, 6841.938
107.9519, 7586.562
108.4340, 8320.250
108.9161, 9032.500
109.3982, 9639.688
109.8804, 10034.69
110.3625, 10131.69
110.8446, 9899.000
111.3267, 9779.625
111.8088, 9716.250
112.2909, 9705.938
112.7731, 9771.875
113.2552, 9886.062
113.7373, 9983.125
114.2194, 9779.500
114.7015, 9085.000
115.1836, 8573.562
115.6658, 8458.500
116.1479, 8374.750
116.6300, 8004.375
117.1121, 7292.500
117.5942, 6177.688
118.0763, 5236.875
118.5584, 4596.750
119.0406, 4039.250
119.5227, 3509.062
120.0048, 3027.750
120.4869, 2588.375
120.9690, 2133.688
121.4511, 1836.750
121.9333, 1696.625
122.4154, 1577.688
122.8975, 1452.812
123.3796, 1307.125
123.8617, 1213.312
124.3438, 1159.125
124.8260, 1192.875
125.3081, 1211.625
125.7902, 1119.312
126.2723, 870.0000
126.7544, 537.9375
127.2365, 259.4375
127.7187, 43.00000
128.2008, 130.2500
128.6829, 226.5000
129.1650, 278.3125
129.6471, 337.5000
130.1292, 443.1875
130.6114, 591.3750
131.0935, 729.9375
131.5756, 858.3125
132.0577, 966.1250
132.5398, 1096.938
133.0219, 1214.125
133.5041, 1222.812
133.9862, 1015.938
134.4683, 531.2500
134.9504, 232.1250
135.4325, 199.7500
135.9146, 244.7500
136.3968, 303.0000
136.8789, 359.1250
137.3610, 387.4375
137.8431, 351.8750
138.3252, 232.1875
138.8073, 180.5625
139.2895, 326.0000
139.7716, 495.1875
140.2537, 429.6250
140.7358, 28.56250
141.2179, 431.1875
141.7000, 562.5000
142.1821, 395.3125
142.6643, 206.9375
143.1464, 106.5625
143.6285, 73.18750
144.1106, 56.87500
144.5927, 63.37500
145.0748, 52.87500
145.5570, 2.937500
146.0391, 82.25000
146.5212, 170.5625
147.0033, 213.0625
147.4854, 199.2500
147.9675, 272.3125
148.4497, 605.9375
148.9318, 935.5625
149.4139, 1113.625
149.8960, 1115.688
150.3781, 1017.500
150.8602, 925.2500
151.3424, 815.4375
151.8245, 498.6250
152.3066, 222.3750
152.7887, 14.18750
153.2708, 201.1250
153.7529, 336.8750
154.2351, 447.3750
154.7172, 596.3750
155.1993, 737.7500
155.6814, 990.3125
156.1635, 1383.312
156.6456, 1879.625
157.1278, 2460.000
157.6099, 3121.562
158.0920, 3825.062
158.5741, 4402.062
159.0562, 4835.500
159.5383, 5179.688
160.0205, 5368.750
160.5026, 5467.125
160.9847, 5641.562
161.4668, 6020.250
161.9489, 6524.125
162.4310, 6806.250
162.9131, 6791.000
163.3953, 6652.188
163.8774, 6426.938
164.3595, 6128.188
164.8416, 5883.250
165.3237, 5786.125
165.8058, 5805.188
166.2880, 5846.500
166.7701, 5882.812
167.2522, 5954.312
167.7343, 6140.000
168.2164, 6473.062
168.6985, 6761.062
169.1807, 6834.500
169.6628, 6805.750
170.1449, 6803.250
170.6270, 6865.938
171.1091, 6987.875
171.5912, 7168.812
172.0734, 7453.938
172.5555, 7720.500
173.0376, 7925.000
173.5197, 8087.000
174.0018, 8227.625
174.4839, 8342.062
174.9661, 8444.312
175.4482, 8637.625
175.9303, 9097.188
176.4124, 9462.000
176.8945, 9530.312
177.3766, 9444.438
177.8588, 9463.125
178.3409, 9800.312
178.8230, 10459.44
179.3051, 10929.06
179.7872, 11110.75
180.2693, 11202.94
180.7515, 11201.38
181.2336, 11147.19
181.7157, 11115.94
182.1978, 11176.38
182.6799, 11340.69
183.1620, 11455.38
183.6441, 11505.75
184.1263, 11520.44
184.6084, 11543.75
185.0905, 11556.56
185.5726, 11461.81
186.0547, 11145.50
186.5368, 10573.06
187.0190, 10116.81
187.5011, 9818.500
187.9832, 9599.812
188.4653, 9413.188
188.9474, 9253.438
189.4296, 9128.375
189.9117, 9072.250
190.3938, 9079.500
190.8759, 9021.188
191.3580, 8813.562
191.8401, 8589.250
192.3223, 8553.438
192.8044, 8755.625
193.2865, 8908.812
193.7686, 8581.750
194.2507, 7936.562
194.7328, 7510.500
195.2150, 7631.938
195.6971, 8060.062
196.1792, 8321.188
196.6613, 8339.812
197.1434, 8235.125
197.6255, 8063.312
198.1077, 7858.938
198.5898, 7696.312
199.0719, 7581.875
199.5540, 7506.125
200.0361, 7487.188
200.5182, 7525.625
201.0004, 7632.375
201.4825, 7873.312
201.9646, 8188.062
202.4467, 8421.625
202.9288, 8427.312
203.4109, 8222.188
203.8930, 8087.375
204.3752, 7971.500
204.8573, 8008.938
205.3394, 8368.875
205.8215, 8930.188
206.3036, 9414.062
206.7857, 9584.250
207.2679, 9434.438
207.7500, 9335.438
208.2321, 9339.750
208.7142, 9351.438
209.1963, 9328.375
209.6784, 9298.250
210.1606, 9305.938
210.6427, 9398.562
211.1248, 9578.625
211.6069, 9716.875
212.0890, 9798.375
212.5711, 9855.562
213.0533, 9904.438
213.5354, 9941.562
214.0175, 9945.875
214.4996, 9890.312
214.9817, 9755.438
215.4638, 9720.125
215.9460, 9793.188
216.4281, 9930.688
216.9102, 10123.06
217.3923, 10364.19
217.8744, 10661.62
218.3565, 11009.69
218.8387, 11403.81
219.3208, 11771.75
219.8029, 12092.00
220.2850, 12412.19
220.7671, 12735.44
221.2492, 13071.81
221.7314, 13474.69
222.2135, 14012.88
222.6956, 14695.81
223.1777, 15288.50
223.6598, 15769.75
224.1419, 16164.62
224.6240, 16422.75
225.1062, 16559.06
225.5883, 16765.19
226.0704, 17239.38
226.5525, 17945.25
227.0346, 18557.44
227.5167, 18960.88
227.9989, 19327.19
228.4810, 19835.62
228.9631, 20496.94
229.4452, 21126.25
229.9273, 21634.38
230.4094, 21989.94
230.8916, 22119.25
231.3737, 21841.62
231.8558, 21422.94
232.3379, 21179.00
232.8200, 21138.75
233.3021, 21069.88
233.7843, 20870.44
234.2664, 20535.12
234.7485, 20026.50
235.2306, 19289.06
235.7127, 18404.75
236.1948, 17416.38
236.6770, 16260.62
237.1591, 15263.50
237.6412, 14745.06
238.1233, 14430.50
238.6054, 14024.00
239.0875, 13410.56
239.5697, 12702.31
240.0518, 12055.94
240.5339, 11453.75
241.0160, 10973.06
241.4981, 10738.38
241.9802, 10591.44
242.4624, 10364.81
242.9445, 9974.500
243.4266, 9558.812
243.9087, 9385.375
244.3908, 9556.562
244.8729, 9678.625
245.3550, 9621.188
245.8372, 9480.000
246.3193, 9331.125
246.8014, 9199.500
247.2835, 9058.688
247.7656, 8873.000
248.2477, 8651.312
248.7299, 8349.500
249.2120, 7898.062
249.6941, 7411.125
250.1762, 6992.688
250.6583, 6673.812
251.1404, 6374.500
251.6226, 5952.938
252.1047, 5361.750
252.5868, 4755.812
253.0689, 4061.000
253.5510, 3423.875
254.0331, 2960.812
254.5153, 2696.000
254.9974, 2552.750
255.4795, 2427.250
255.9616, 2355.000
256.4437, 2223.500
256.9258, 2027.938
257.4080, 1791.812
257.8901, 1498.438
258.3722, 1161.562
258.8543, 850.5000
259.3364, 666.4375
259.8185, 675.6875
260.3007, 648.8750
260.7828, 541.4375
261.2649, 438.6250
261.7470, 408.5625
262.2291, 449.3125
262.7112, 494.3125
263.1934, 468.5000
263.6755, 350.0625
264.1576, 221.4375
264.6397, 0.3125000
265.1218, 166.6875
265.6039, 189.4375
266.0861, 74.68750
266.5682, 109.1875
267.0503, 299.3750
267.5324, 492.5625
268.0145, 700.8125
268.4966, 1109.938
268.9788, 1367.938
269.4609, 1186.250
269.9430, 659.6250
270.4251, 144.8125
270.9072, 61.25000
271.3893, 52.43750
271.8715, 141.1875
272.3536, 200.2500
272.8357, 242.6250
273.3178, 291.3125
273.7999, 328.1875
274.2820, 277.7500
274.7642, 55.93750
275.2463, 301.5625
275.7284, 339.3125
276.2105, 211.6250
276.6926, 708.3750
277.1747, 934.0625
277.6568, 944.1250
278.1389, 872.9375
278.6211, 791.0625
279.1032, 688.9375
279.5853, 520.5000
280.0674, 77.93750
280.5495, 177.2500
281.0316, 42.75000
281.5138, 509.9375
281.9959, 810.4375
282.4780, 756.2500
282.9601, 476.3750
283.4422, 287.6875
283.9243, 248.0625
284.4065, 182.4375
284.8886, 23.18750
285.3707, 172.5000
285.8528, 328.3750
286.3349, 421.0625
286.8170, 455.0625
287.2992, 428.0000
287.7813, 337.7500
288.2634, 209.2500
288.7455, 9.625000
289.2276, 239.3750
289.7097, 379.0000
290.1919, 404.6250
290.6740, 351.8125
291.1561, 229.9375
291.6382, 12.00000
292.1203, 63.68750
292.6024, 108.8125
293.0846, 385.6875
293.5667, 668.6250
294.0488, 956.6250
294.5309, 1177.875
295.0130, 1233.562
295.4951, 1105.000
295.9773, 1023.688
296.4594, 984.9375
296.9415, 1012.250
297.4236, 1156.938
297.9057, 1408.375
298.3878, 1659.000
298.8700, 1834.000
299.3521, 1931.188
299.8342, 1997.688
300.3163, 2081.125
300.7984, 2086.188
301.2805, 1902.062
301.7627, 1571.938
302.2448, 1301.938
302.7269, 1216.062
303.2090, 1256.500
303.6911, 1240.375
304.1732, 1145.438
304.6554, 1046.000
305.1375, 1000.625
305.6196, 982.3750
306.1017, 912.3750
306.5838, 753.1875
307.0659, 551.7500
307.5481, 370.8125
308.0302, 177.3125
308.5123, 110.3125
308.9944, 286.3750
309.4765, 604.8125
309.9586, 916.8125
310.4408, 1198.625
310.9229, 1392.875
311.4050, 1349.812
311.8871, 1056.438
312.3692, 872.1250
312.8513, 920.8750
313.3335, 1085.562
313.8156, 1222.688
314.2977, 1306.125
314.7798, 1419.938
315.2619, 1687.375
315.7440, 2087.062
316.2262, 2326.125
316.7083, 2295.500
317.1904, 2152.438
317.6725, 1997.250
318.1546, 1838.875
318.6367, 1692.375
319.1188, 1543.125
319.6010, 1423.938
320.0831, 1447.375
320.5652, 1789.938
321.0473, 2099.062
321.5294, 2184.250
322.0115, 2076.750
322.4937, 1876.188
322.9758, 1602.125
323.4579, 1293.500
323.9400, 1027.688
324.4221, 763.0000
324.9042, 614.5625
325.3864, 673.0625
325.8685, 871.4375
326.3506, 1111.375
326.8327, 1381.125
327.3148, 1616.250
327.7969, 1703.062
328.2791, 1632.375
328.7612, 1527.562
329.2433, 1369.875
329.7254, 1213.562
330.2075, 1115.875
330.6896, 1086.875
331.1718, 1126.000
331.6539, 1255.125
332.1360, 1482.125
332.6181, 1662.250
333.1002, 1766.625
333.5823, 1830.062
334.0645, 1848.000
334.5466, 1825.750
335.0287, 1858.375
335.5108, 1998.875
335.9929, 2252.625
336.4750, 2608.938
336.9572, 3273.062
337.4393, 3815.812
337.9214, 3981.188
338.4035, 3879.750
338.8856, 3797.062
339.3677, 3861.812
339.8499, 4000.188
340.3320, 3995.750
340.8141, 3711.125
341.2962, 3544.938
341.7783, 3700.688
342.2604, 3972.562
342.7426, 4108.250
343.2247, 4030.500
343.7068, 3786.938
344.1889, 3429.500
344.6710, 2902.688
345.1531, 2439.688
345.6353, 2017.188
346.1174, 1686.875
346.5995, 1533.000
347.0816, 1534.188
347.5637, 1568.000
348.0458, 1532.062
348.5280, 1424.125
349.0101, 1255.250
349.4922, 1014.688
349.9743, 737.9375
350.4564, 429.0000
350.9385, 101.2500
351.4207, 244.0625
351.9028, 623.1875
352.3849, 985.1250
352.8670, 1102.000
353.3491, 763.9375
353.8312, 440.4375
354.3134, 213.5625
354.7955, 19.50000
355.2776, 276.0625
355.7597, 710.0625
356.2418, 1101.312
356.7239, 1122.938
357.2061, 441.5000
357.6882, 68.75000
358.1703, 160.1250
358.6524, 413.3750
359.1345, 654.7500
359.6166, 850.4375
360.0987, 1028.812
360.5808, 1214.688
361.0630, 1395.875
361.5451, 1592.062
362.0272, 1905.250
362.5093, 2152.625
362.9914, 2207.062
363.4735, 2154.688
363.9557, 2158.375
364.4378, 2322.562
364.9199, 2608.500
365.4020, 2852.500
365.8841, 3072.812
366.3662, 3222.312
366.8484, 3165.000
367.3305, 3106.688
367.8126, 3301.875
368.2947, 3814.188
368.7768, 4423.812
369.2589, 4787.750
369.7411, 4832.812
370.2232, 4821.875
370.7053, 4742.188
371.1874, 4631.125
371.6695, 4484.688
372.1516, 4316.938
372.6338, 4174.188
373.1159, 4108.500
373.5980, 4114.500
374.0801, 4058.062
374.5622, 3764.938
375.0443, 3631.000
375.5265, 3965.312
376.0086, 4493.312
376.4907, 4777.188
376.9728, 4582.438
377.4549, 4086.812
377.9370, 3642.000
378.4192, 3192.875
378.9013, 2960.625
379.3834, 3182.250
379.8655, 3537.125
380.3476, 3809.000
380.8297, 3954.750
381.3119, 4011.250
381.7940, 3992.938
382.2761, 3896.188
382.7582, 3807.938
383.2403, 3683.625
383.7224, 3628.688
384.2046, 3767.938
384.6867, 4053.375
385.1688, 4320.000
385.6509, 4376.625
386.1330, 4364.375
386.6151, 4674.562
387.0973, 5414.312
387.5794, 6090.375
388.0615, 6401.625
388.5436, 6485.875
389.0257, 6478.375
389.5078, 6297.375
389.9900, 6214.375
390.4721, 6566.500
390.9542, 7291.750
391.4363, 7882.375
391.9184, 8125.250
392.4005, 8217.438
392.8827, 8450.312
393.3648, 8837.625
393.8469, 9184.188
394.3290, 9408.875
394.8111, 9552.188
395.2932, 9635.562
395.7754, 9658.250
396.2575, 9754.688
396.7396, 10126.56
397.2217, 10733.62
397.7038, 11085.75
398.1859, 11091.62
398.6681, 10908.81
399.1501, 10558.62
399.6323, 10089.25
400.1144, 9656.562
400.5965, 9340.500
401.0786, 9104.000
401.5607, 8845.625
402.0428, 8576.875
402.5250, 8262.688
403.0071, 7845.375
403.4892, 7397.062
403.9713, 7030.812
404.4534, 6763.188
404.9355, 6472.625
405.4177, 6003.250
405.8998, 5301.625
406.3819, 4693.750
406.8640, 4118.062
407.3461, 3682.438
407.8282, 3515.000
408.3104, 3536.375
408.7925, 3568.750
409.2746, 3499.000
409.7567, 3316.875
410.2388, 2998.375
410.7209, 2444.938
411.2031, 1933.375
411.6852, 1394.375
412.1673, 944.6875
412.6494, 741.0625
413.1315, 801.0000
413.6136, 947.8125
414.0958, 960.6250
414.5779, 819.8750
415.0600, 629.2500
415.5421, 318.5625
416.0242, 26.00000
416.5063, 233.9375
416.9885, 432.1875
417.4706, 525.6250
417.9527, 491.0625
418.4348, 324.0625
418.9169, 28.00000
419.3990, 683.2500
419.8812, 1257.750
420.3633, 1689.000
420.8454, 1957.188
421.3275, 1976.375
421.8096, 1716.688
422.2917, 1402.500
422.7739, 1264.125
423.2560, 1290.250
423.7381, 1302.438
424.2202, 1227.875
424.7023, 1190.625
425.1844, 1340.938
425.6666, 1615.500
426.1487, 1788.375
426.6308, 1718.688
427.1129, 1513.688
427.5950, 1243.875
428.0771, 893.7500
428.5593, 815.3750
429.0414, 1376.125
429.5235, 2250.375
430.0056, 2713.875
430.4877, 2677.375
430.9698, 2443.750
431.4520, 2059.188
431.9341, 1602.688
432.4162, 1209.812
432.8983, 908.3125
433.3804, 730.8125
433.8625, 756.4375
434.3447, 1023.375
434.8268, 1167.188
435.3089, 1083.062
435.7910, 948.1875
436.2731, 894.0000
436.7552, 893.8125
437.2374, 828.8750
437.7195, 622.5625
438.2016, 314.0000
438.6837, 53.75000
439.1658, 236.3750
439.6479, 371.8750
440.1301, 336.3125
440.6122, 140.5625
441.0943, 344.5000
441.5764, 1073.062
442.0585, 1683.625
442.5406, 1720.688
443.0227, 1093.688
443.5049, 585.6875
443.9870, 115.8750
444.4691, 141.0625
444.9512, 18.00000
445.4333, 335.9375
445.9154, 706.7500
446.3976, 990.0625
446.8797, 1180.875
447.3618, 1236.125
447.8439, 1075.562
448.3260, 1011.875
448.8081, 1187.250
449.2903, 1414.562
449.7724, 1565.375
450.2545, 1637.688
450.7366, 1733.062
451.2187, 1932.750
451.7008, 2218.000
452.1830, 2536.000
452.6651, 2943.250
453.1472, 3223.188
453.6293, 3097.625
454.1114, 2795.000
454.5935, 2640.875
455.0757, 2731.375
455.5578, 2920.812
456.0399, 3117.562
456.5220, 3316.000
457.0041, 3506.938
457.4862, 3691.938
457.9684, 3862.500
458.4505, 4020.688
458.9326, 4172.688
459.4147, 4257.750
459.8968, 4229.312
460.3789, 4161.188
460.8611, 4134.188
461.3432, 4141.000
461.8253, 4092.812
462.3074, 3917.875
462.7895, 3670.875
463.2716, 3574.125
463.7538, 3797.062
464.2359, 3942.688
464.7180, 3879.688
465.2001, 3766.562
465.6822, 3756.188
466.1643, 3880.875
466.6465, 4083.625
467.1286, 4304.688
467.6107, 4544.562
468.0928, 4806.625
468.5749, 5286.188
469.0570, 5565.062
469.5392, 5345.938
470.0213, 4896.562
470.5034, 4632.625
470.9855, 4743.438
471.4676, 5013.312
471.9497, 5041.375
472.4319, 4756.750
472.9140, 4556.188
473.3961, 4625.250
473.8782, 4686.062
474.3603, 4550.562
474.8424, 4254.812
475.3246, 3969.875
475.8067, 3805.250
476.2888, 3734.312
476.7709, 3707.812
477.2530, 3720.438
477.7351, 3700.438
478.2173, 3568.000
478.6994, 3438.125
479.1815, 3442.500
479.6636, 3588.500
480.1457, 3761.812
480.6278, 3904.625
481.1100, 4041.750
481.5920, 4190.312
482.0742, 4352.312
482.5563, 4503.562
483.0384, 4627.000
483.5205, 4717.750
484.0026, 4782.000
484.4847, 4802.188
484.9669, 4831.062
485.4490, 4866.500
485.9311, 4896.250
486.4132, 4899.375
486.8953, 4870.250
487.3774, 4829.750
487.8596, 4814.938
488.3417, 4861.312
488.8238, 4848.125
489.3059, 4695.750
489.7880, 4571.500
490.2701, 4607.625
490.7523, 4743.812
491.2344, 4827.562
491.7165, 4767.188
492.1986, 4591.312
492.6807, 4350.500
493.1628, 3991.625
493.6450, 3764.125
494.1271, 3811.562
494.6092, 3945.688
495.0913, 4113.375
495.5734, 4280.062
496.0555, 4308.562
496.5377, 4014.625
497.0198, 3505.625
497.5019, 3086.562
497.9840, 2773.500
498.4661, 2557.125
498.9482, 2495.625
499.4304, 2491.812
499.9125, 2366.500
500.3946, 2041.188
500.8767, 1772.375
501.3588, 1734.875
501.8409, 1825.312
502.3231, 1859.438
502.8052, 1820.188
503.2873, 1784.000
503.7694, 1813.250
504.2515, 1913.375
504.7336, 2001.438
505.2158, 2020.188
505.6979, 2095.875
506.1800, 2285.062
506.6621, 2548.000
507.1442, 2848.500
507.6263, 3169.625
508.1085, 3456.625
508.5906, 3594.000
509.0727, 3516.188
509.5548, 3513.375
510.0369, 3631.625
510.5190, 3770.812
511.0012, 3940.188
511.4833, 4094.688
511.9654, 4130.312
512.4475, 3962.438
512.9296, 3763.312
513.4117, 3933.438
513.8939, 4560.062
514.3760, 4898.812
514.8581, 4616.750
515.3402, 4166.938
515.8223, 3917.312
516.3044, 3850.250
516.7866, 3814.062
517.2687, 3768.875
517.7508, 3708.875
518.2329, 3648.812
518.7150, 3583.500
519.1971, 3413.062
519.6793, 3026.562
520.1614, 2582.750
520.6435, 2490.750
521.1256, 2896.875
521.6077, 3150.625
522.0898, 3061.438
522.5720, 2831.188
523.0541, 2589.188
523.5362, 2366.250
524.0183, 2171.250
524.5004, 1994.625
524.9825, 1871.188
525.4647, 2011.500
525.9468, 2893.688
526.4289, 3339.438
526.9110, 2996.125
527.3931, 2381.250
527.8752, 1835.625
528.3574, 1445.938
528.8395, 1216.750
529.3216, 1224.750
529.8037, 1410.375
530.2858, 1373.625
530.7679, 1000.375
531.2501, 667.0000
531.7322, 553.0000
532.2143, 553.3125
532.6964, 568.1250
533.1785, 580.2500
533.6606, 622.6875
534.1428, 832.8125
534.6249, 1064.812
535.1070, 932.9375
535.5891, 358.3750
536.0712, 205.5000
536.5533, 441.8750
537.0355, 370.6250
537.5176, 186.4375
537.9997, 303.3125
538.4818, 663.8750
538.9639, 655.7500
539.4460, 508.2500
539.9282, 568.3750
540.4103, 878.0000
540.8924, 1120.750
541.3745, 925.7500
541.8566, 273.1875
542.3387, 127.6250
542.8209, 85.50000
543.3029, 3.375000
543.7850, 96.68750
544.2672, 167.3750
544.7493, 141.0000
545.2314, 5.375000
545.7135, 159.0625
546.1956, 250.3750
546.6777, 278.9375
547.1599, 402.3750
547.6420, 710.5000
548.1241, 940.8125
548.6062, 880.0625
549.0883, 640.6250
549.5704, 370.6875
550.0526, 47.12500
550.5347, 203.5000
551.0168, 277.5000
551.4989, 227.4375
551.9810, 136.9375
552.4631, 20.81250
552.9453, 48.12500
553.4274, 13.81250
553.9095, 206.4375
554.3916, 321.5000
554.8737, 251.3750
555.3558, 237.5625
555.8380, 433.6875
556.3201, 683.8125
556.8022, 770.6875
557.2843, 650.3750
557.7664, 466.0625
558.2485, 392.3750
558.7307, 433.3750
559.2128, 400.3125
559.6949, 231.8750
560.1770, 75.75000
560.6591, 7.000000
561.1412, 54.00000
561.6234, 102.2500
562.1055, 161.5625
562.5876, 224.6250
563.0697, 316.6250
563.5518, 407.7500
564.0339, 387.6875
564.5161, 231.7500
564.9982, 30.75000
565.4803, 153.6250
565.9624, 330.7500
566.4445, 548.3750
566.9266, 874.0625
567.4088, 1142.938
567.8909, 1280.750
568.3730, 1338.812
568.8551, 1364.125
569.3372, 1372.375
569.8193, 1407.125
570.3015, 1518.688
570.7836, 1697.000
571.2657, 1729.938
571.7478, 1430.625
572.2299, 1235.938
572.7120, 1232.688
573.1942, 1345.812
573.6763, 1525.188
574.1584, 1753.062
574.6405, 2001.812
575.1226, 2249.688
575.6047, 2496.125
576.0869, 2774.875
576.5690, 3120.188
577.0511, 3340.188
577.5332, 3287.812
578.0153, 3074.875
578.4974, 2885.625
578.9796, 2726.875
579.4617, 2581.062
579.9438, 2472.000
580.4259, 2358.625
580.9080, 2198.000
581.3901, 1988.375
581.8723, 1727.938
582.3544, 1397.312
582.8365, 1057.375
583.3186, 914.5000
583.8007, 1147.375
584.2828, 1323.188
584.7650, 1538.562
585.2471, 1621.500
585.7292, 1324.125
586.2113, 780.6250
586.6934, 394.6250
587.1755, 434.6875
587.6577, 758.2500
588.1398, 1072.625
588.6219, 1390.562
589.1040, 1603.750
589.5861, 1616.938
590.0682, 1588.625
590.5504, 1704.250
591.0325, 1927.875
591.5146, 2029.000
