##NAMES=Fluor-buergerite
##RRUFFID=R060132
##IDEAL CHEMISTRY=NaFe^3+^_3_Al_6_(Si_6_O_18_)(BO_3_)_3_O_3_F
##LOCALITY=20 km. south of San Luis Potasi, Mexico
##OWNER=RRUFF
##SOURCE=University of Arizona Mineral Museum
##DESCRIPTION=Brown short prismatic
##STATUS=The identification of this mineral has been confirmed by X-ray diffraction and chemical analysis
##URL=rruff.info/R060132
##MEASURED CHEMISTRY=(Na_0.87_Ca_0.03_[box]_0.10_)(Fe^3+^_0.82_Al_0.12_Mg_0.04_Ti_0.02_)_3_Al_6_(BO_3_)_3_(Si_0.98_Al_0.02_)_6_O_18_(O_0.66_F_0.19_(OH)_0.15_)_4_
92.02539, 139.9289
92.50751, 144.0165
92.98962, 146.9634
93.47174, 145.2054
93.95386, 141.7435
94.43597, 138.4158
94.91809, 136.3405
95.40021, 135.1324
95.88232, 132.9951
96.36444, 129.8817
96.84656, 125.9274
97.32867, 120.5721
97.81078, 114.6355
98.29290, 109.4599
98.77502, 106.1824
99.25713, 104.9483
99.73925, 102.6321
100.2214, 98.67568
100.7035, 94.46797
101.1856, 90.33189
101.6677, 86.41364
102.1498, 82.96704
102.6320, 80.31264
103.1141, 78.64503
103.5962, 77.46122
104.0783, 77.16445
104.5604, 77.16772
105.0425, 76.88428
105.5247, 76.16086
106.0068, 75.01162
106.4889, 73.29472
106.9710, 70.90972
107.4531, 68.66234
107.9352, 66.90642
108.4173, 65.59061
108.8995, 64.42202
109.3816, 63.24866
109.8637, 62.24180
110.3458, 61.58977
110.8279, 61.35334
111.3100, 61.30384
111.7922, 61.12481
112.2743, 60.70174
112.7564, 60.53356
113.2385, 61.04050
113.7206, 61.71837
114.2027, 62.11443
114.6849, 62.00580
115.1670, 61.53949
115.6491, 61.23578
116.1312, 61.27515
116.6133, 61.27621
117.0954, 61.21275
117.5776, 61.06539
118.0597, 60.78672
118.5418, 60.31986
119.0239, 59.65734
119.5060, 59.28292
119.9881, 59.30693
120.4703, 59.44507
120.9524, 59.68611
121.4345, 59.97532
121.9166, 60.15030
122.3987, 60.03109
122.8808, 59.55553
123.3630, 59.18788
123.8451, 59.01307
124.3272, 58.90153
124.8093, 58.71929
125.2914, 58.43517
125.7735, 58.13922
126.2557, 57.90238
126.7378, 57.71891
127.2199, 57.65740
127.7020, 57.82341
128.1841, 58.14586
128.6662, 58.41320
129.1483, 58.65717
129.6305, 58.73524
130.1126, 58.50941
130.5947, 58.00702
131.0768, 57.47609
131.5589, 57.10158
132.0410, 56.88672
132.5232, 56.80600
133.0053, 57.06766
133.4874, 57.32141
133.9695, 57.31968
134.4516, 57.03839
134.9337, 56.71052
135.4159, 56.73171
135.8980, 57.44063
136.3801, 57.85537
136.8622, 57.80228
137.3443, 57.55399
137.8264, 57.29881
138.3086, 57.11486
138.7907, 57.00667
139.2728, 56.99263
139.7549, 57.33407
140.2370, 57.46736
140.7191, 57.18487
141.2013, 56.69468
141.6834, 56.31817
142.1655, 56.24046
142.6476, 56.37605
143.1297, 56.34198
143.6118, 55.93554
144.0939, 55.60614
144.5761, 55.57147
145.0582, 55.78724
145.5403, 56.05905
146.0224, 56.32015
146.5045, 56.53286
146.9866, 56.62266
147.4688, 56.48003
147.9509, 56.30065
148.4330, 56.28212
148.9151, 56.44506
149.3972, 56.64022
149.8793, 56.77831
150.3615, 56.89455
150.8436, 57.04265
151.3257, 57.29507
151.8078, 57.56429
152.2899, 57.66007
152.7720, 57.59408
153.2542, 57.29907
153.7363, 56.54856
154.2184, 55.62210
154.7005, 54.96524
155.1826, 54.94719
155.6647, 55.48019
156.1469, 55.65367
156.6290, 55.16467
157.1111, 54.56840
157.5932, 53.88923
158.0753, 53.20894
158.5574, 52.66716
159.0396, 52.40252
159.5217, 52.45750
160.0038, 52.40104
160.4859, 52.22271
160.9680, 51.96222
161.4501, 51.57278
161.9323, 51.09177
162.4144, 50.63506
162.8965, 50.32414
163.3786, 50.18970
163.8607, 50.10379
164.3428, 50.13478
164.8250, 50.16397
165.3071, 50.09767
165.7892, 49.92332
166.2713, 49.70430
166.7534, 49.50515
167.2355, 49.32562
167.7177, 49.18077
168.1998, 49.07907
168.6819, 49.01022
169.1640, 48.95963
169.6461, 48.92234
170.1282, 48.91124
170.6104, 48.95702
171.0925, 49.05216
171.5746, 49.14485
172.0567, 49.26997
172.5388, 49.38336
173.0209, 49.33318
173.5031, 49.00399
173.9852, 48.62217
174.4673, 48.37186
174.9494, 48.24667
175.4315, 48.18845
175.9136, 48.15753
176.3958, 48.15459
176.8779, 48.21169
177.3600, 48.40792
177.8421, 48.60479
178.3242, 48.73888
178.8063, 48.80262
179.2885, 48.79966
179.7706, 48.72781
180.2527, 48.57871
180.7348, 48.39303
181.2169, 48.06048
181.6990, 47.77529
182.1812, 47.68721
182.6633, 47.79854
183.1454, 47.96397
183.6275, 47.96854
184.1096, 47.70023
184.5917, 47.50403
185.0738, 47.38737
185.5560, 47.32392
186.0381, 47.33054
186.5202, 47.39846
187.0023, 47.46013
187.4844, 47.39253
187.9665, 47.01156
188.4487, 46.79902
188.9308, 46.79866
189.4129, 46.93635
189.8950, 47.18613
190.3771, 47.53512
190.8592, 47.91036
191.3414, 48.17376
191.8235, 48.35363
192.3056, 48.36255
192.7877, 48.03792
193.2698, 47.57808
193.7519, 47.22413
194.2341, 47.05198
194.7162, 47.05034
195.1983, 47.27700
195.6804, 47.82947
196.1625, 48.23458
196.6446, 48.22288
197.1268, 47.95955
197.6089, 47.83822
198.0910, 48.03802
198.5731, 48.35916
199.0552, 48.45091
199.5373, 48.26479
200.0195, 48.14186
200.5016, 48.31555
200.9837, 48.73180
201.4658, 49.11715
201.9479, 49.41406
202.4300, 49.61901
202.9122, 49.72959
203.3943, 49.73953
203.8764, 49.72451
204.3585, 49.75113
204.8406, 49.81911
205.3227, 49.85124
205.8048, 49.74147
206.2870, 49.65926
206.7691, 49.74839
207.2512, 50.02256
207.7333, 50.34577
208.2154, 50.55389
208.6975, 50.61386
209.1797, 50.75599
209.6618, 51.21897
210.1439, 51.63942
210.6260, 51.74560
211.1081, 51.51501
211.5902, 51.21166
212.0724, 51.20542
212.5545, 51.63020
213.0366, 51.94599
213.5187, 52.05210
214.0008, 52.09218
214.4829, 52.04088
214.9651, 51.94166
215.4472, 52.00123
215.9293, 52.62368
216.4114, 54.41730
216.8935, 55.47974
217.3756, 55.46590
217.8578, 55.10458
218.3399, 54.75948
218.8220, 54.56904
219.3041, 54.60773
219.7862, 55.02618
220.2683, 56.18842
220.7505, 57.02135
221.2326, 57.35094
221.7147, 57.50294
222.1968, 57.66703
222.6789, 57.90847
223.1610, 58.27408
223.6432, 58.86150
224.1253, 59.95054
224.6074, 60.64595
225.0895, 60.50586
225.5716, 60.22198
226.0537, 60.47274
226.5358, 61.40740
227.0180, 62.60749
227.5001, 63.49670
227.9822, 63.95911
228.4643, 64.44376
228.9464, 64.99357
229.4285, 65.56902
229.9107, 66.15381
230.3928, 66.74769
230.8749, 67.26863
231.3570, 67.56387
231.8391, 67.60855
232.3212, 67.71583
232.8034, 68.05184
233.2855, 68.43075
233.7676, 68.65237
234.2497, 68.69278
234.7318, 68.50734
235.2139, 67.86565
235.6961, 66.83561
236.1782, 66.02323
236.6603, 65.72454
237.1424, 65.69194
237.6245, 65.55167
238.1066, 65.24429
238.5888, 64.87010
239.0709, 64.54649
239.5530, 64.24314
240.0351, 63.82568
240.5172, 63.10614
240.9993, 62.26951
241.4815, 61.68302
241.9636, 61.41124
242.4457, 61.27716
242.9278, 61.22502
243.4099, 61.20997
243.8920, 61.13164
244.3742, 60.89865
244.8563, 60.58142
245.3384, 60.38998
245.8205, 60.45570
246.3026, 60.34084
246.7847, 59.59157
247.2668, 58.54321
247.7490, 57.74681
248.2311, 57.54646
248.7132, 57.71309
249.1953, 57.68198
249.6774, 57.38938
250.1595, 57.01628
250.6417, 56.52887
251.1238, 56.04638
251.6059, 55.76134
252.0880, 55.83035
252.5701, 56.06292
253.0522, 55.92837
253.5344, 55.14812
254.0165, 54.55365
254.4986, 54.60442
254.9807, 54.86572
255.4628, 54.80742
255.9449, 54.15501
256.4271, 53.23164
256.9092, 52.83787
257.3913, 53.35963
257.8734, 53.68791
258.3555, 53.40169
258.8376, 52.94653
259.3198, 52.80175
259.8019, 53.15950
260.2840, 53.70718
260.7661, 53.74329
261.2482, 52.85581
261.7303, 52.23738
262.2125, 52.22390
262.6946, 52.37246
263.1767, 52.28327
263.6588, 51.83809
264.1409, 51.25787
264.6230, 50.94762
265.1052, 51.10679
265.5873, 51.15286
266.0694, 51.13678
266.5515, 50.97140
267.0336, 50.48716
267.5157, 49.69342
267.9979, 48.86104
268.4800, 48.40973
268.9621, 48.54860
269.4442, 48.63931
269.9263, 48.68396
270.4084, 48.69024
270.8906, 48.65066
271.3727, 48.57110
271.8548, 48.47353
272.3369, 48.37382
272.8190, 48.23656
273.3011, 48.23022
273.7833, 48.53498
274.2654, 48.79679
274.7475, 48.77749
275.2296, 48.49743
275.7117, 48.15202
276.1938, 47.92915
276.6760, 47.84187
277.1581, 47.80804
277.6402, 48.03958
278.1223, 48.06054
278.6044, 48.25032
279.0865, 48.37691
279.5686, 48.44370
280.0508, 48.27161
280.5329, 48.40798
281.0150, 48.42074
281.4971, 48.22478
281.9792, 47.95824
282.4613, 47.92507
282.9435, 48.02498
283.4256, 47.94686
283.9077, 47.46020
284.3898, 46.63258
284.8719, 46.10712
285.3540, 46.00836
285.8362, 46.01337
286.3183, 46.14825
286.8004, 46.31892
287.2825, 46.33118
287.7646, 46.06215
288.2467, 45.63547
288.7289, 45.49142
289.2110, 45.96383
289.6931, 46.28505
290.1752, 46.22744
290.6573, 45.97785
291.1394, 45.77973
291.6216, 45.72425
292.1037, 45.78653
292.5858, 45.93093
293.0679, 46.22701
293.5500, 46.46978
294.0321, 46.65525
294.5143, 46.77110
294.9964, 46.76081
295.4785, 46.61065
295.9606, 46.45243
296.4427, 46.48442
296.9248, 46.79687
297.4070, 47.03589
297.8891, 47.15477
298.3712, 47.21631
298.8533, 47.27769
299.3354, 47.34645
299.8175, 47.39705
300.2997, 47.41983
300.7818, 47.41835
301.2639, 47.25903
301.7460, 46.79727
302.2281, 46.29591
302.7102, 45.91142
303.1924, 45.65478
303.6745, 45.48098
304.1566, 45.37667
304.6387, 45.33396
305.1208, 45.21278
305.6029, 44.91895
306.0851, 44.64447
306.5672, 44.57261
307.0493, 44.61934
307.5314, 44.47824
308.0135, 43.91919
308.4956, 43.08616
308.9778, 42.62583
309.4599, 42.74128
309.9420, 42.89835
310.4241, 42.89749
310.9062, 42.82221
311.3883, 42.85094
311.8705, 43.07061
312.3526, 43.38709
312.8347, 43.59406
313.3168, 43.69748
313.7989, 43.70956
314.2810, 43.49273
314.7632, 43.23345
315.2453, 43.21598
315.7274, 43.52625
316.2095, 43.95134
316.6916, 44.20635
317.1737, 44.25356
317.6559, 44.28992
318.1380, 44.24009
318.6201, 44.23955
319.1022, 44.48915
319.5843, 44.99577
320.0664, 45.46279
320.5485, 45.57737
321.0306, 45.30245
321.5128, 45.23759
321.9949, 45.51974
322.4770, 45.88837
322.9591, 46.21473
323.4412, 46.48567
323.9233, 46.69751
324.4055, 46.83009
324.8876, 46.90248
325.3697, 47.04409
325.8518, 47.32213
326.3339, 47.58551
326.8160, 47.76332
327.2982, 47.88543
327.7803, 48.03483
328.2624, 48.26301
328.7445, 48.50887
329.2266, 48.59319
329.7087, 48.41076
330.1909, 48.28172
330.6730, 48.35001
331.1551, 48.47445
331.6372, 48.42921
332.1193, 48.14564
332.6014, 47.82184
333.0836, 47.75794
333.5657, 48.08282
334.0478, 48.29515
334.5299, 48.31007
335.0120, 48.25136
335.4941, 48.23531
335.9763, 48.26815
336.4584, 48.24971
336.9405, 48.06414
337.4226, 47.68774
337.9047, 47.46629
338.3868, 47.46304
338.8690, 47.53229
339.3511, 47.59066
339.8332, 47.65528
340.3153, 47.80461
340.7974, 48.10238
341.2795, 48.51535
341.7617, 48.82365
342.2438, 49.01127
342.7259, 49.13160
343.2080, 49.11262
343.6901, 49.05372
344.1722, 49.11243
344.6544, 49.35508
345.1365, 49.70912
345.6186, 50.02983
346.1007, 50.41957
346.5828, 50.59509
347.0649, 50.33485
347.5471, 49.98643
348.0292, 49.87548
348.5113, 50.05300
348.9934, 50.31869
349.4755, 50.41195
349.9576, 50.22857
350.4398, 50.33123
350.9219, 50.97648
351.4040, 51.62788
351.8861, 51.94678
352.3682, 52.00456
352.8503, 52.11272
353.3325, 52.52657
353.8146, 53.21290
354.2967, 53.65294
354.7788, 53.52226
355.2609, 53.51532
355.7430, 53.92279
356.2252, 54.50376
356.7073, 54.88890
357.1894, 54.89935
357.6715, 54.69582
358.1536, 54.68048
358.6357, 54.93550
359.1179, 55.27734
359.5999, 55.76508
360.0821, 56.28791
360.5642, 56.77467
361.0463, 57.20393
361.5284, 57.56449
362.0105, 57.83101
362.4926, 57.96472
362.9748, 58.15674
363.4569, 58.48285
363.9390, 58.79278
364.4211, 59.01758
364.9032, 59.17025
365.3853, 59.28223
365.8675, 59.35413
366.3496, 59.40810
366.8317, 59.66394
367.3138, 60.27866
367.7959, 60.90995
368.2780, 61.50208
368.7602, 62.05852
369.2423, 62.60973
369.7244, 63.17013
370.2065, 63.67484
370.6886, 63.97598
371.1707, 63.98803
371.6529, 64.00554
372.1350, 64.13593
372.6171, 64.23899
373.0992, 64.21865
373.5813, 64.06379
374.0634, 63.83189
374.5456, 63.56207
375.0277, 63.25204
375.5098, 62.96684
375.9919, 62.72618
376.4740, 62.49169
376.9561, 62.27954
377.4383, 62.05999
377.9204, 61.78102
378.4025, 61.44637
378.8846, 61.01098
379.3667, 60.28705
379.8488, 59.11707
380.3310, 58.06910
380.8131, 57.53472
381.2952, 57.16384
381.7773, 56.56808
382.2594, 55.60697
382.7415, 54.60397
383.2237, 53.91736
383.7058, 53.54393
384.1879, 53.26345
384.6700, 53.10667
385.1521, 52.94210
385.6342, 52.63402
386.1164, 52.19369
386.5985, 51.76172
387.0806, 51.44832
387.5627, 51.19952
388.0448, 50.85951
388.5269, 50.37978
389.0091, 49.93560
389.4912, 49.70518
389.9733, 49.60655
390.4554, 49.45830
390.9375, 49.10767
391.4196, 48.80136
391.9018, 48.87280
392.3839, 49.26832
392.8660, 49.46383
393.3481, 49.12862
393.8302, 48.55656
394.3123, 48.34602
394.7945, 48.59538
395.2766, 48.84089
395.7587, 48.90785
396.2408, 48.85149
396.7229, 48.76120
397.2050, 48.65572
397.6872, 48.51007
398.1693, 48.23711
398.6514, 47.81541
399.1335, 47.68258
399.6156, 48.29225
400.0977, 48.84541
400.5798, 48.64589
401.0620, 47.81996
401.5441, 47.03878
402.0262, 46.72714
402.5083, 46.78167
402.9904, 46.69215
403.4725, 46.34446
403.9547, 46.01743
404.4368, 45.73121
404.9189, 45.50586
405.4010, 45.40978
405.8831, 45.45610
406.3652, 45.51502
406.8474, 45.39294
407.3295, 45.03060
407.8116, 44.64558
408.2937, 44.16174
408.7758, 43.72567
409.2579, 43.43852
409.7401, 43.27655
410.2222, 43.13268
410.7043, 42.91419
411.1864, 42.64822
411.6685, 42.57244
412.1506, 43.07147
412.6328, 43.27965
413.1149, 42.89613
413.5970, 42.24128
414.0791, 41.59797
414.5612, 41.07695
415.0433, 40.74803
415.5255, 40.81762
416.0076, 41.51023
416.4897, 41.82168
416.9718, 41.37412
417.4539, 40.79638
417.9360, 40.29455
418.4182, 39.90660
418.9003, 39.65529
419.3824, 39.59401
419.8645, 39.67643
420.3466, 39.70539
420.8287, 39.70095
421.3109, 39.59536
421.7930, 39.18628
422.2751, 38.74060
422.7572, 38.62097
423.2393, 38.98373
423.7214, 39.41228
424.2036, 39.40081
424.6857, 38.96951
425.1678, 38.65028
425.6499, 38.57474
426.1320, 38.63522
426.6141, 38.79213
427.0963, 39.02100
427.5784, 39.11541
428.0605, 38.82705
428.5426, 38.41704
429.0247, 38.33876
429.5068, 38.63432
429.9890, 38.92467
430.4711, 38.96157
430.9532, 38.81252
431.4353, 38.73089
431.9174, 38.77417
432.3995, 38.80045
432.8817, 38.72840
433.3638, 38.58926
433.8459, 38.42101
434.3280, 38.22327
434.8101, 38.08171
435.2922, 38.13961
435.7744, 38.46710
436.2565, 38.71221
436.7386, 38.85032
437.2207, 38.91275
437.7028, 38.86422
438.1849, 38.74493
438.6671, 38.69159
439.1492, 38.80574
439.6313, 39.05188
440.1134, 39.21864
440.5955, 39.20182
441.0776, 39.23451
441.5598, 39.34894
442.0418, 39.52130
442.5240, 39.79280
443.0061, 40.14462
443.4882, 40.40207
443.9703, 40.28112
444.4524, 39.63575
444.9345, 39.29924
445.4167, 39.47755
445.8988, 39.76793
446.3809, 40.11420
446.8630, 40.45921
447.3451, 40.74205
447.8272, 40.93497
448.3094, 41.01862
448.7915, 40.87901
449.2736, 40.35091
449.7557, 40.07406
450.2378, 40.46205
450.7199, 40.98688
451.2021, 41.32572
451.6842, 41.42968
452.1663, 41.34580
452.6484, 40.93719
453.1305, 40.33104
453.6126, 40.16647
454.0948, 40.65039
454.5769, 41.17414
455.0590, 41.36498
455.5411, 41.30709
456.0232, 40.98729
456.5053, 41.12459
456.9875, 41.19868
457.4696, 41.21299
457.9517, 40.98840
458.4338, 41.07228
458.9159, 41.03255
459.3980, 40.98775
459.8802, 41.11505
460.3623, 40.92521
460.8444, 41.04978
461.3265, 40.93229
461.8086, 40.71814
462.2907, 40.58089
462.7729, 40.51656
463.2550, 40.38331
463.7371, 40.06755
464.2192, 39.61182
464.7013, 39.25292
465.1834, 38.85174
465.6656, 38.71421
466.1477, 39.19349
466.6298, 39.80247
467.1119, 39.97427
467.5940, 39.59996
468.0761, 39.02076
468.5583, 38.62717
469.0404, 38.42846
469.5225, 38.34125
470.0046, 38.52391
470.4867, 38.65477
470.9688, 38.55740
471.4510, 38.35904
471.9331, 38.28575
472.4152, 38.45380
472.8973, 38.73536
473.3794, 38.90322
473.8615, 38.95418
474.3437, 38.90398
474.8258, 38.70742
475.3079, 38.44149
475.7900, 38.10398
476.2721, 37.72304
476.7542, 37.40791
477.2364, 37.22472
477.7185, 37.15648
478.2006, 37.19877
478.6827, 37.37767
479.1648, 37.50959
479.6469, 37.49643
480.1291, 37.37350
480.6112, 37.18839
481.0933, 36.88260
481.5754, 36.68525
482.0575, 36.79698
482.5396, 37.07701
483.0217, 37.27970
483.5038, 37.35772
483.9860, 37.33860
484.4681, 37.23085
484.9502, 37.02993
485.4323, 36.85027
485.9144, 36.64825
486.3965, 36.51159
486.8787, 36.45796
487.3608, 36.49908
487.8429, 36.71844
488.3250, 37.14898
488.8071, 37.57794
489.2892, 37.58742
489.7714, 36.85505
490.2535, 36.50060
490.7356, 36.80957
491.2177, 37.16530
491.6998, 37.21571
492.1819, 37.04889
492.6641, 36.96543
493.1462, 37.17957
493.6283, 37.55050
494.1104, 37.62502
494.5925, 37.24270
495.0746, 37.00010
495.5568, 37.19347
496.0389, 37.46775
496.5210, 37.54331
497.0031, 37.41596
497.4852, 37.33834
497.9673, 37.59437
498.4495, 38.02755
498.9316, 38.14508
499.4137, 37.85232
499.8958, 37.62021
500.3779, 37.82858
500.8600, 38.24044
501.3422, 38.33130
501.8243, 37.88039
502.3064, 37.53388
502.7885, 37.73014
503.2706, 38.21789
503.7527, 38.54625
504.2349, 38.61641
504.7170, 38.58707
505.1991, 38.59733
505.6812, 38.64884
506.1633, 38.75346
506.6454, 39.01326
507.1276, 39.20767
507.6097, 39.16888
508.0918, 39.03731
508.5739, 39.06794
509.0560, 39.34812
509.5381, 39.68202
510.0203, 39.68999
510.5024, 39.12086
510.9845, 39.08999
511.4666, 40.22299
511.9487, 41.27523
512.4308, 41.68097
512.9130, 41.65730
513.3951, 41.71309
513.8772, 42.14013
514.3593, 42.66842
514.8414, 42.73280
515.3235, 42.25021
515.8057, 41.94218
516.2878, 42.04724
516.7699, 42.31069
517.2520, 42.53170
517.7341, 42.71136
518.2162, 42.88089
518.6984, 43.11406
519.1805, 43.31023
519.6626, 43.30017
520.1447, 43.09735
520.6268, 42.91188
521.1089, 42.85058
521.5911, 42.85804
522.0732, 42.78722
522.5553, 42.55377
523.0374, 42.49060
523.5195, 42.84969
524.0016, 43.26484
524.4838, 43.42254
524.9659, 43.31108
525.4480, 43.06043
525.9301, 42.74768
526.4122, 42.39705
526.8943, 42.13003
527.3765, 42.04191
527.8586, 41.90569
528.3407, 41.69817
528.8228, 41.44030
529.3049, 41.08040
529.7870, 40.65757
530.2692, 40.35585
530.7513, 40.36954
531.2334, 40.64735
531.7155, 40.90200
532.1976, 41.15789
532.6797, 41.33121
533.1619, 41.35817
533.6440, 41.29690
534.1261, 41.17878
534.6082, 40.99805
535.0903, 40.84327
535.5724, 40.83324
536.0546, 40.87764
536.5367, 40.75917
537.0188, 40.44169
537.5009, 40.08533
537.9830, 39.75980
538.4651, 39.49824
538.9473, 39.45500
539.4294, 39.91811
539.9115, 40.21667
540.3936, 39.97461
540.8757, 39.55497
541.3578, 39.44603
541.8400, 39.72095
542.3221, 40.06550
542.8042, 40.16573
543.2863, 40.01907
543.7684, 39.78436
544.2505, 39.24320
544.7326, 38.88499
545.2147, 38.89923
545.6968, 39.09395
546.1790, 39.27826
546.6611, 39.39833
547.1432, 39.48232
547.6253, 39.57361
548.1074, 39.66524
548.5895, 39.65171
549.0717, 39.46696
549.5538, 39.31099
550.0359, 39.40068
550.5180, 39.57055
551.0001, 39.54770
551.4822, 39.21209
551.9644, 38.86706
552.4465, 38.66033
552.9286, 38.58646
553.4107, 38.70675
553.8928, 39.03953
554.3749, 39.27618
554.8571, 39.07439
555.3392, 38.45522
555.8213, 38.23540
556.3034, 38.90298
556.7855, 39.31464
557.2676, 38.92091
557.7498, 38.23544
558.2319, 37.88774
558.7140, 38.01272
559.1961, 38.30070
559.6782, 38.42078
560.1603, 38.37060
560.6425, 38.33532
561.1246, 38.37507
561.6067, 38.33736
562.0888, 38.08252
562.5709, 37.78066
563.0530, 37.62972
563.5352, 37.67986
564.0173, 37.80876
564.4994, 37.91777
564.9815, 38.02205
565.4636, 38.20673
565.9457, 38.51307
566.4279, 38.72446
566.9100, 38.66469
567.3921, 38.39444
567.8742, 38.15268
568.3563, 37.86950
568.8384, 37.72913
569.3206, 37.91352
569.8027, 38.21471
570.2848, 38.36130
570.7669, 38.32553
571.2490, 38.27209
571.7311, 38.33506
572.2133, 38.51225
572.6954, 38.78323
573.1775, 39.34776
573.6596, 39.72615
574.1417, 39.78822
574.6238, 39.69663
575.1060, 39.51336
575.5881, 39.29176
576.0702, 39.19257
576.5523, 39.38226
577.0344, 39.79819
577.5165, 40.25575
577.9987, 40.80348
578.4808, 41.17135
578.9629, 41.14080
579.4450, 40.92764
579.9271, 40.84431
580.4092, 40.91412
580.8914, 40.98035
581.3735, 40.92110
581.8556, 40.86769
582.3377, 41.03353
582.8198, 41.37893
583.3019, 41.61274
583.7841, 41.55017
584.2662, 41.30510
584.7483, 41.18911
