##NAMES=Fluorapatite
##RRUFFID=R060070
##IDEAL CHEMISTRY=Ca_5_(PO_4_)_3_F
##LOCALITY=Panasqueira, Portugal
##OWNER=RRUFF
##SOURCE=Dave Bunk
##DESCRIPTION=Green hexagonal tablet
##STATUS=The identification of this mineral has been confirmed by X-ray diffraction and chemical analysis
##URL=rruff.info/R060070
##MEASURED CHEMISTRY=(Ca_0.99_Mn_0.01_)_5_(P_1.00_O_4_)_3_F_1.00_
93.08527, 0.0000000E+00
93.56738, 235.3218
94.04950, 232.4504
94.53162, 232.5958
95.01373, 233.3857
95.49585, 235.9075
95.97797, 239.1126
96.46008, 242.0488
96.94220, 245.3492
97.42432, 247.5628
97.90643, 248.3198
98.38855, 248.3419
98.87067, 247.9256
99.35278, 247.2422
99.83490, 246.4688
100.3170, 245.8889
100.7991, 245.3217
101.2813, 244.5145
101.7634, 243.0315
102.2455, 241.4539
102.7276, 240.5097
103.2097, 240.6174
103.6918, 241.5609
104.1740, 242.2043
104.6561, 242.2610
105.1382, 242.3773
105.6203, 242.8474
106.1024, 243.6045
106.5845, 244.3281
107.0667, 244.7121
107.5488, 244.8648
108.0309, 245.2819
108.5130, 246.0361
108.9951, 247.0317
109.4772, 248.2998
109.9594, 250.0084
110.4415, 251.4305
110.9236, 251.6320
111.4057, 251.1656
111.8878, 251.1223
112.3699, 252.3971
112.8521, 254.7762
113.3342, 256.5445
113.8163, 257.1989
114.2984, 257.7007
114.7805, 258.3960
115.2626, 259.2993
115.7448, 260.3197
116.2269, 261.3678
116.7090, 262.4038
117.1911, 263.6001
117.6732, 265.0862
118.1553, 266.6073
118.6375, 268.0148
119.1196, 269.2764
119.6017, 270.4533
120.0838, 271.6164
120.5659, 272.4539
121.0480, 273.8199
121.5302, 276.2184
122.0123, 278.9426
122.4944, 281.1778
122.9765, 282.5738
123.4586, 283.4696
123.9407, 284.7375
124.4228, 286.4469
124.9050, 288.2552
125.3871, 290.0485
125.8692, 291.8400
126.3513, 293.7152
126.8334, 295.6981
127.3155, 297.8068
127.7977, 300.0214
128.2798, 302.3091
128.7619, 304.7543
129.2440, 307.3813
129.7261, 310.1483
130.2083, 313.3056
130.6904, 317.2758
131.1725, 321.5725
131.6546, 325.8895
132.1367, 330.2091
132.6188, 334.3194
133.1010, 337.7121
133.5831, 340.2823
134.0652, 342.1589
134.5473, 343.1426
135.0294, 343.6386
135.5115, 344.1663
135.9937, 345.0312
136.4758, 346.2267
136.9579, 347.6509
137.4400, 349.6701
137.9221, 351.5844
138.4042, 353.2943
138.8864, 354.7591
139.3685, 356.0016
139.8506, 357.0829
140.3327, 358.0719
140.8148, 358.1452
141.2969, 356.6562
141.7791, 354.9675
142.2612, 353.6854
142.7433, 352.9204
143.2254, 352.6746
143.7075, 353.0917
144.1896, 354.3321
144.6718, 355.2161
145.1539, 355.0425
145.6360, 354.7451
146.1181, 355.5354
146.6002, 357.7925
147.0823, 360.5227
147.5645, 362.7219
148.0466, 364.4622
148.5287, 365.6624
149.0108, 365.5852
149.4929, 364.8089
149.9750, 365.3706
150.4572, 368.3856
150.9393, 371.9482
151.4214, 374.3935
151.9035, 375.7741
152.3856, 376.9372
152.8677, 378.6781
153.3499, 381.0533
153.8320, 383.0151
154.3141, 383.6599
154.7962, 384.3452
155.2783, 385.8503
155.7604, 388.2510
156.2425, 390.9564
156.7247, 393.1681
157.2068, 394.6656
157.6889, 396.2426
158.1710, 397.9028
158.6531, 399.6760
159.1352, 401.8258
159.6174, 404.3529
160.0995, 406.7643
160.5816, 408.0126
161.0637, 406.9693
161.5458, 406.1615
162.0279, 405.4152
162.5101, 404.9972
162.9922, 405.3540
163.4743, 406.6978
163.9564, 408.5865
164.4385, 409.7284
164.9206, 409.4179
165.4028, 409.3307
165.8849, 409.6649
166.3670, 410.4113
166.8491, 411.6590
167.3312, 413.5679
167.8133, 415.8372
168.2955, 417.5238
168.7776, 418.3166
169.2597, 419.0700
169.7418, 420.2114
170.2239, 421.6809
170.7060, 423.1873
171.1882, 424.7307
171.6703, 426.1350
172.1524, 427.1183
172.6345, 427.4958
173.1166, 427.7042
173.5987, 427.8513
174.0809, 427.8383
174.5630, 428.7164
175.0451, 432.0269
175.5272, 436.1288
176.0093, 439.4558
176.4914, 441.4398
176.9736, 442.6951
177.4557, 444.1811
177.9378, 445.9157
178.4199, 447.8634
178.9020, 450.2981
179.3841, 452.8187
179.8663, 454.9855
180.3484, 456.5377
180.8305, 457.7157
181.3126, 459.3146
181.7947, 462.2384
182.2768, 464.2176
182.7590, 464.2007
183.2411, 463.2350
183.7232, 462.7363
184.2053, 463.5845
184.6874, 465.4167
185.1695, 465.9611
185.6517, 463.5887
186.1338, 461.5202
186.6159, 460.3010
187.0980, 459.7197
187.5801, 459.3823
188.0622, 459.0367
188.5444, 458.6957
189.0265, 458.5370
189.5086, 458.5781
189.9907, 458.7460
190.4728, 458.9255
190.9549, 459.2018
191.4371, 459.8195
191.9192, 461.0103
192.4013, 462.7224
192.8834, 464.1841
193.3655, 465.3407
193.8476, 466.3477
194.3298, 467.0971
194.8119, 467.6827
195.2940, 468.5450
195.7761, 470.0154
196.2582, 472.0962
196.7403, 474.3197
197.2225, 477.0416
197.7046, 479.6535
198.1867, 481.5088
198.6688, 482.5948
199.1509, 483.7598
199.6330, 485.7741
200.1152, 488.2587
200.5973, 490.3348
201.0794, 491.3112
201.5615, 492.1579
202.0436, 494.1610
202.5257, 497.4908
203.0079, 501.1693
203.4900, 504.8956
203.9721, 508.5558
204.4542, 511.9340
204.9363, 514.7012
205.4184, 517.3129
205.9006, 520.6861
206.3827, 524.9814
206.8648, 529.6743
207.3469, 534.9507
207.8290, 540.3417
208.3111, 545.2853
208.7933, 549.5299
209.2754, 553.1433
209.7575, 556.3062
210.2396, 558.7624
210.7217, 561.1284
211.2038, 564.1956
211.6860, 567.1408
212.1681, 568.8172
212.6502, 568.4436
213.1323, 566.5325
213.6144, 565.4239
214.0965, 566.0912
214.5787, 566.3798
215.0608, 565.6364
215.5429, 564.3409
216.0250, 563.0696
216.5071, 562.1125
216.9892, 561.5305
217.4714, 561.6678
217.9535, 563.4833
218.4356, 565.0486
218.9177, 565.9828
219.3998, 566.4968
219.8819, 566.7714
220.3641, 566.8442
220.8462, 566.9191
221.3283, 568.3992
221.8104, 572.2953
222.2925, 576.3720
222.7746, 580.2402
223.2568, 583.9781
223.7389, 587.7605
224.2210, 591.7044
224.7031, 595.7644
225.1852, 599.6114
225.6673, 603.4036
226.1495, 606.8906
226.6316, 609.4197
227.1137, 611.5544
227.5958, 614.6660
228.0779, 619.6110
228.5600, 625.8886
229.0422, 631.3557
229.5243, 636.0430
230.0064, 640.1161
230.4885, 643.2128
230.9706, 645.6750
231.4527, 648.7029
231.9349, 653.2603
232.4170, 658.3259
232.8991, 661.3787
233.3812, 661.7737
233.8633, 661.6223
234.3454, 661.9443
234.8276, 662.6150
235.3097, 663.0604
235.7918, 662.8716
236.2739, 662.5107
236.7560, 662.8303
237.2381, 664.0657
237.7203, 665.2598
238.2024, 665.8096
238.6845, 665.7702
239.1666, 665.4571
239.6487, 664.7431
240.1308, 664.0036
240.6130, 663.6700
241.0951, 663.7805
241.5772, 664.0829
242.0593, 664.2986
242.5414, 664.4568
243.0235, 665.1066
243.5057, 667.0452
243.9878, 668.9082
244.4699, 669.6109
244.9520, 669.1038
245.4341, 667.9065
245.9162, 666.1932
246.3984, 663.9691
246.8805, 662.0665
247.3626, 660.8506
247.8447, 659.8128
248.3268, 658.7288
248.8089, 657.5635
249.2911, 656.2466
249.7732, 654.7945
250.2553, 653.2224
250.7374, 651.2267
251.2195, 648.7642
251.7016, 645.8356
252.1838, 641.8379
252.6659, 637.1805
253.1480, 633.1765
253.6301, 631.5665
254.1122, 632.6003
254.5943, 632.0496
255.0765, 627.9583
255.5586, 623.9538
256.0407, 621.5812
256.5228, 620.4626
257.0049, 619.2940
257.4870, 616.8992
257.9691, 613.2404
258.4513, 610.1049
258.9334, 607.9300
259.4155, 605.9072
259.8976, 603.6134
260.3797, 601.2961
260.8618, 599.5110
261.3440, 598.7255
261.8261, 598.9003
262.3082, 599.0217
262.7903, 599.4093
263.2724, 599.3959
263.7545, 598.4772
264.2367, 597.0754
264.7188, 595.8770
265.2009, 595.3252
265.6830, 595.3790
266.1651, 595.7263
266.6472, 597.0448
267.1294, 597.9335
267.6115, 598.0779
268.0936, 597.6613
268.5757, 596.9190
269.0578, 595.9667
269.5399, 594.8708
270.0221, 593.9273
270.5042, 593.4450
270.9863, 592.7765
271.4684, 591.7166
271.9505, 590.4785
272.4326, 589.2659
272.9148, 588.1619
273.3969, 587.2540
273.8790, 586.7847
274.3611, 586.5560
274.8432, 587.0862
275.3253, 589.2387
275.8075, 591.8190
276.2896, 593.3763
276.7717, 593.4023
277.2538, 592.7274
277.7359, 592.9257
278.2180, 594.5923
278.7002, 596.3360
279.1823, 597.9482
279.6644, 599.7304
280.1465, 601.9393
280.6286, 604.6376
281.1107, 607.8473
281.5929, 611.6735
282.0750, 616.7460
282.5571, 620.8170
283.0392, 623.4298
283.5213, 625.3636
284.0034, 626.9841
284.4856, 628.4421
284.9677, 630.2034
285.4498, 632.8511
285.9319, 636.6464
286.4140, 640.0441
286.8961, 642.6160
287.3783, 645.1347
287.8604, 648.1865
288.3425, 651.7560
288.8246, 655.4116
289.3067, 658.7863
289.7888, 661.8680
290.2710, 664.7363
290.7531, 666.8408
291.2352, 669.2411
291.7173, 672.9578
292.1994, 677.6611
292.6815, 681.8727
293.1637, 684.5018
293.6458, 685.8370
294.1279, 687.8322
294.6100, 690.2645
295.0921, 693.4600
295.5742, 697.9870
296.0564, 703.4365
296.5385, 708.6978
297.0206, 713.2076
297.5027, 717.2354
297.9848, 721.6801
298.4669, 726.9290
298.9491, 731.8557
299.4312, 735.3351
299.9133, 738.3603
300.3954, 743.1025
300.8775, 750.5987
301.3596, 759.3585
301.8418, 766.4029
302.3239, 771.3914
302.8060, 776.6893
303.2881, 782.9043
303.7702, 789.7419
304.2523, 796.8436
304.7345, 804.1278
305.2166, 811.4473
305.6987, 818.4009
306.1808, 824.9297
306.6629, 831.9219
307.1451, 839.7913
307.6272, 848.0287
308.1093, 856.0908
308.5914, 863.9089
309.0735, 871.6226
309.5556, 879.3032
310.0378, 886.9580
310.5199, 894.7776
311.0020, 903.0400
311.4841, 911.2434
311.9662, 919.0828
312.4483, 926.5661
312.9305, 933.6720
313.4126, 940.2387
313.8947, 946.4996
314.3768, 953.6347
314.8589, 961.9066
315.3410, 970.6835
315.8232, 980.4355
316.3053, 990.6349
316.7874, 999.1320
317.2695, 1004.502
317.7516, 1008.077
318.2337, 1013.270
318.7159, 1020.800
319.1980, 1028.006
319.6801, 1033.471
320.1622, 1037.969
320.6443, 1043.271
321.1264, 1050.138
321.6086, 1057.222
322.0907, 1062.013
322.5728, 1064.329
323.0549, 1066.812
323.5370, 1070.313
324.0191, 1074.182
324.5013, 1077.878
324.9834, 1081.370
325.4655, 1083.811
325.9476, 1084.111
326.4297, 1082.216
326.9118, 1080.077
327.3940, 1077.634
327.8761, 1075.161
328.3582, 1073.417
328.8403, 1072.257
329.3224, 1069.873
329.8045, 1064.533
330.2867, 1056.767
330.7688, 1050.422
331.2509, 1046.457
331.7330, 1042.899
332.2151, 1039.021
332.6972, 1034.765
333.1794, 1029.922
333.6615, 1024.313
334.1436, 1018.151
334.6257, 1011.904
335.1078, 1005.399
335.5899, 999.1516
336.0721, 993.5580
336.5542, 988.2272
337.0363, 982.5128
337.5184, 976.1307
338.0005, 969.5162
338.4826, 963.2980
338.9648, 957.6635
339.4469, 951.6852
339.9290, 944.8403
340.4111, 937.8553
340.8932, 931.4119
341.3753, 925.6171
341.8575, 920.0823
342.3396, 914.4120
342.8217, 908.5540
343.3038, 903.3535
343.7859, 899.5560
344.2680, 895.7407
344.7502, 890.8867
345.2323, 885.2054
345.7144, 879.6638
346.1965, 874.9001
346.6786, 870.7587
347.1607, 866.3071
347.6429, 861.2598
348.1250, 856.3124
348.6071, 851.1141
349.0892, 846.2313
349.5713, 842.9981
350.0534, 842.0439
350.5356, 841.9919
351.0177, 839.9584
351.4998, 834.3948
351.9819, 829.7834
352.4640, 826.7534
352.9461, 824.5406
353.4283, 822.6415
353.9104, 820.8800
354.3925, 818.9532
354.8746, 816.4614
355.3567, 813.2201
355.8388, 810.3515
356.3210, 807.7770
356.8031, 805.5634
357.2852, 803.9346
357.7673, 802.7259
358.2494, 801.4985
358.7315, 799.9664
359.2137, 798.1277
359.6958, 796.0681
360.1779, 793.0196
360.6600, 790.6446
361.1421, 789.8454
361.6242, 789.7534
362.1064, 789.1130
362.5885, 787.3917
363.0706, 785.0833
363.5527, 783.3079
364.0348, 782.8004
364.5169, 781.7133
364.9991, 779.5498
365.4812, 777.2062
365.9633, 775.3227
366.4454, 774.0179
366.9275, 773.0461
367.4096, 772.1643
367.8918, 771.4241
368.3739, 770.5145
368.8560, 769.0267
369.3381, 767.7833
369.8202, 767.0267
370.3023, 766.7657
370.7845, 767.0927
371.2666, 768.2125
371.7487, 769.7882
372.2308, 769.8545
372.7129, 767.1562
373.1950, 764.5045
373.6772, 762.4351
374.1593, 760.6045
374.6414, 758.4531
375.1235, 755.7995
375.6056, 753.3231
376.0877, 752.3814
376.5699, 753.6986
377.0520, 754.4756
377.5341, 754.7092
378.0162, 754.2115
378.4983, 752.2419
378.9804, 749.1565
379.4626, 746.5301
379.9447, 746.1876
380.4268, 748.0401
380.9089, 748.3836
381.3910, 745.9056
381.8731, 743.5284
382.3553, 742.5797
382.8374, 742.4459
383.3195, 742.0408
383.8016, 740.7119
384.2837, 739.0602
384.7658, 738.5403
385.2480, 739.6744
385.7301, 740.2043
386.2122, 738.5734
386.6943, 736.5009
387.1764, 735.5110
387.6585, 735.8917
388.1407, 736.2902
388.6228, 735.2958
389.1049, 733.0134
389.5870, 730.8664
390.0691, 728.6141
390.5512, 727.2115
391.0334, 727.8295
391.5155, 729.9186
391.9976, 731.4278
392.4797, 730.7354
392.9618, 729.0554
393.4439, 728.8965
393.9261, 730.6306
394.4082, 731.9493
394.8903, 730.9525
395.3724, 728.8553
395.8545, 727.7271
396.3366, 728.0565
396.8188, 728.9116
397.3009, 729.7076
397.7830, 730.4600
398.2651, 731.2363
398.7472, 732.0082
399.2293, 732.8867
399.7115, 734.0892
400.1936, 735.6207
400.6757, 737.0768
401.1578, 738.6067
401.6399, 739.8679
402.1220, 740.1423
402.6042, 739.3600
403.0863, 738.7028
403.5684, 739.1424
404.0505, 740.6423
404.5326, 742.1205
405.0147, 743.3929
405.4969, 744.8241
405.9790, 746.5094
406.4611, 748.4966
406.9432, 751.0316
407.4253, 754.3527
407.9074, 757.8847
408.3896, 760.2551
408.8717, 760.6693
409.3538, 761.4523
409.8359, 762.2168
410.3180, 763.7471
410.8001, 767.3199
411.2823, 772.8026
411.7644, 778.3175
412.2465, 781.8596
412.7286, 783.1798
413.2107, 785.4089
413.6928, 788.8220
414.1750, 792.7101
414.6571, 797.1021
415.1392, 801.7631
415.6213, 806.1461
416.1034, 809.9391
416.5855, 813.6931
417.0677, 819.0639
417.5498, 828.0121
418.0319, 835.1181
418.5140, 838.3535
418.9961, 841.0927
419.4782, 845.7629
419.9604, 852.6415
420.4425, 860.5284
420.9246, 868.1746
421.4067, 875.5457
421.8888, 883.8400
422.3709, 893.6140
422.8531, 903.7596
423.3352, 913.6702
423.8173, 923.7887
424.2994, 935.0736
424.7815, 948.1783
425.2636, 962.0419
425.7458, 974.4750
426.2279, 985.2343
426.7100, 995.8777
427.1921, 1007.510
427.6742, 1018.654
428.1563, 1028.668
428.6385, 1037.431
429.1206, 1043.860
429.6027, 1047.222
430.0848, 1047.631
430.5669, 1045.619
431.0490, 1041.384
431.5312, 1034.316
432.0133, 1022.830
432.4954, 1008.217
432.9775, 992.5092
433.4596, 975.5422
433.9417, 958.2130
434.4239, 941.1791
434.9060, 924.4258
435.3881, 908.2179
435.8702, 892.5101
436.3523, 877.6449
436.8344, 864.2128
437.3166, 852.0928
437.7987, 841.3928
438.2808, 832.9189
438.7629, 825.4629
439.2450, 817.5175
439.7271, 808.9681
440.2093, 801.0547
440.6914, 794.8894
441.1735, 790.4182
441.6556, 785.8214
442.1377, 780.5500
442.6198, 775.8004
443.1020, 772.4050
443.5841, 769.6662
444.0662, 766.3217
444.5483, 761.8584
445.0304, 757.1854
445.5125, 753.9734
445.9947, 753.5934
446.4768, 751.5219
446.9589, 746.1468
447.4410, 740.6985
447.9231, 737.3248
448.4052, 735.6254
448.8874, 733.8795
449.3695, 730.8446
449.8516, 726.6715
450.3337, 722.3246
450.8158, 717.7719
451.2979, 713.0783
451.7801, 708.2114
452.2622, 703.2537
452.7443, 698.1929
453.2264, 693.0432
453.7085, 688.1449
454.1906, 683.9453
454.6728, 680.4650
455.1549, 677.0059
455.6370, 673.8805
456.1191, 670.2592
456.6012, 665.5268
457.0833, 660.0413
457.5655, 654.5917
458.0476, 649.4949
458.5297, 644.6417
459.0118, 639.7153
459.4939, 634.6972
459.9760, 630.6289
460.4582, 628.4190
460.9403, 626.9154
461.4224, 624.4407
461.9045, 620.8983
462.3866, 617.3314
462.8687, 614.0967
463.3508, 611.1147
463.8329, 608.1503
464.3151, 605.1736
464.7972, 602.6892
465.2793, 601.3119
465.7614, 600.8326
466.2435, 599.5676
466.7256, 597.0691
467.2078, 594.3647
467.6899, 591.7122
468.1720, 589.1248
468.6541, 586.5261
469.1362, 583.9019
469.6183, 581.5330
470.1005, 579.8947
470.5826, 579.4130
471.0647, 578.2646
471.5468, 575.9193
472.0289, 573.5109
472.5110, 571.6375
472.9932, 570.1575
473.4753, 568.6389
473.9574, 566.8118
474.4395, 564.7901
474.9216, 562.9348
475.4037, 561.3928
475.8859, 559.7220
476.3680, 557.5062
476.8501, 555.4023
477.3322, 553.9746
477.8143, 553.2034
478.2964, 552.5724
478.7786, 551.6309
479.2607, 550.4357
479.7428, 549.4781
480.2249, 548.9976
480.7070, 548.2171
481.1891, 546.6489
481.6713, 544.6000
482.1534, 542.2836
482.6355, 539.5385
483.1176, 537.1994
483.5997, 536.4005
484.0818, 536.6857
484.5640, 536.0930
485.0461, 533.9418
485.5282, 531.5958
486.0103, 530.6384
486.4924, 530.8890
486.9745, 530.7372
487.4567, 529.9374
487.9388, 528.7103
488.4209, 526.9143
488.9030, 524.7921
489.3851, 523.0529
489.8672, 522.0704
490.3494, 521.4716
490.8315, 520.5092
491.3136, 519.1843
491.7957, 517.4058
492.2778, 514.3615
492.7599, 511.5063
493.2421, 510.1562
493.7242, 510.0211
494.2063, 509.8007
494.6884, 508.5453
495.1705, 506.4358
495.6526, 504.3743
496.1348, 502.0176
496.6169, 500.2969
497.0990, 499.6788
497.5811, 499.4432
498.0632, 499.0712
498.5453, 498.4433
499.0275, 497.6284
499.5096, 496.5735
499.9917, 495.3187
500.4738, 494.4174
500.9559, 494.1934
501.4380, 493.6777
501.9202, 491.8744
502.4023, 489.6475
502.8844, 488.2923
503.3665, 488.3817
503.8486, 488.5412
504.3307, 487.4095
504.8129, 485.3881
505.2950, 483.9940
505.7771, 483.7017
506.2592, 483.5591
506.7413, 482.4400
507.2234, 480.4274
507.7056, 479.0471
508.1877, 479.0722
508.6698, 479.1215
509.1519, 478.3418
509.6340, 476.9724
510.1161, 475.5877
510.5983, 474.4101
511.0804, 473.3528
511.5625, 472.2298
512.0446, 470.8867
512.5267, 469.9059
513.0089, 469.4427
513.4910, 469.1528
513.9731, 469.0582
514.4552, 468.9815
514.9373, 468.5307
515.4194, 467.4345
515.9016, 466.0046
516.3837, 465.1287
516.8658, 465.1014
517.3479, 464.8255
517.8300, 463.9605
518.3121, 462.9098
518.7943, 461.6903
519.2764, 460.4324
519.7585, 459.6259
520.2406, 460.0783
520.7227, 461.0177
521.2048, 460.4056
521.6870, 457.9708
522.1691, 456.2979
522.6512, 457.1946
523.1333, 459.0526
523.6154, 459.1364
524.0975, 457.1050
524.5797, 454.9297
525.0618, 452.8526
525.5439, 451.2875
526.0260, 451.1172
526.5081, 452.2843
526.9902, 453.3776
527.4724, 453.3624
527.9545, 452.4291
528.4366, 451.7255
528.9187, 451.4586
529.4008, 451.1285
529.8829, 450.4942
530.3651, 449.8740
530.8472, 449.8081
531.3293, 450.2257
531.8114, 450.2943
532.2935, 449.0691
532.7756, 446.6427
533.2578, 444.9687
533.7399, 444.1480
534.2220, 443.9949
534.7041, 444.9840
535.1862, 446.2476
535.6683, 446.8515
536.1505, 446.5865
536.6326, 446.0588
537.1147, 445.6839
537.5968, 445.4870
538.0789, 445.7017
538.5610, 446.5260
539.0432, 447.2073
539.5253, 447.4614
540.0074, 447.1564
540.4895, 445.8660
540.9716, 442.6472
541.4537, 440.0513
541.9359, 440.0302
542.4180, 441.3659
542.9001, 441.8887
543.3822, 441.1418
543.8643, 440.0972
544.3464, 439.6580
544.8286, 439.8382
545.3107, 440.2685
545.7928, 441.3536
546.2749, 442.1709
546.7570, 442.5640
547.2391, 442.5258
547.7213, 441.8036
548.2034, 440.4381
548.6855, 439.2260
549.1676, 439.2437
549.6497, 440.5867
550.1318, 441.5756
550.6140, 442.1203
551.0961, 442.4127
551.5782, 442.2095
552.0603, 441.9526
552.5424, 442.2575
553.0245, 443.3301
553.5067, 444.7379
553.9888, 446.5428
554.4709, 448.4232
554.9530, 448.9385
555.4351, 447.5983
555.9172, 445.9992
556.3994, 445.2968
556.8815, 445.4337
557.3636, 445.8315
557.8457, 446.8560
558.3278, 447.6938
558.8099, 447.7859
559.2921, 447.5750
559.7742, 447.7558
560.2563, 448.4705
560.7384, 449.3141
561.2205, 449.8531
561.7026, 450.0759
562.1848, 450.3202
562.6669, 450.6175
563.1490, 450.9030
563.6311, 451.0247
564.1132, 451.2009
564.5953, 451.7729
565.0775, 452.7895
565.5596, 453.7985
566.0417, 454.1722
566.5238, 454.0089
567.0059, 454.4129
567.4880, 455.6837
567.9702, 456.8778
568.4523, 457.2181
568.9344, 457.2603
569.4165, 457.7246
569.8986, 458.6851
570.3807, 460.1160
570.8629, 462.3417
571.3450, 464.9089
571.8271, 466.8313
572.3092, 468.0136
572.7913, 469.4718
573.2734, 471.9943
573.7556, 475.4779
574.2377, 479.2750
574.7198, 483.9919
575.2019, 488.1870
575.6840, 490.7325
576.1661, 493.2906
576.6483, 497.6656
577.1304, 503.8204
577.6125, 510.2168
578.0946, 515.5781
578.5767, 520.0778
579.0588, 524.6035
579.5410, 529.3696
580.0231, 533.6779
580.5052, 538.1095
580.9873, 541.4974
581.4694, 542.3870
581.9515, 540.8170
582.4337, 539.0112
582.9158, 538.0030
583.3979, 537.6456
583.8800, 537.2091
584.3621, 536.7842
584.8442, 538.4345
585.3264, 543.0259
585.8085, 550.3668
586.2906, 560.4281
586.7727, 573.3895
587.2548, 588.1873
587.7369, 606.4296
588.2191, 624.9875
588.7012, 642.9384
589.1833, 659.4151
589.6654, 673.6384
590.1475, 685.3345
