##NAMES=Fluorapatite
##RRUFFID=R040098
##IDEAL CHEMISTRY=Ca_5_(PO_4_)_3_F
##LOCALITY=Cerro de Mercado mine, Durango, Mexico
##OWNER=RRUFF
##SOURCE=Marcus Origlieri
##DESCRIPTION=Pale yellow short hexagonal prism
##STATUS=The identification of this mineral has been confirmed by X-ray diffraction and chemical analysis
##URL=rruff.info/R040098
##MEASURED CHEMISTRY=Ca_5.00_((P_0.98_Si_0.01_S_0.01_)O_4_)_3_F_1.00_
178.9366, 8394.808
179.4187, 8402.447
179.9009, 8390.977
180.3830, 8361.788
180.8651, 8336.745
181.3472, 8338.289
181.8293, 8359.483
182.3114, 8377.661
182.7936, 8381.293
183.2757, 8379.340
183.7578, 8396.273
184.2399, 8433.675
184.7220, 8468.058
185.2041, 8461.292
185.6863, 8421.874
186.1684, 8401.213
186.6505, 8434.824
187.1326, 8505.359
187.6147, 8547.722
188.0968, 8558.001
188.5790, 8554.831
189.0611, 8566.070
189.5432, 8590.616
190.0253, 8606.939
190.5074, 8595.283
190.9895, 8561.703
191.4717, 8551.691
191.9538, 8573.948
192.4359, 8609.035
192.9180, 8616.698
193.4001, 8595.250
193.8822, 8579.185
194.3644, 8595.291
194.8465, 8642.450
195.3286, 8679.849
195.8107, 8701.857
196.2928, 8713.119
196.7749, 8722.409
197.2570, 8728.213
197.7392, 8739.909
198.2213, 8766.542
198.7034, 8809.092
199.1855, 8852.204
199.6676, 8895.835
200.1497, 8937.621
200.6319, 8964.767
201.1140, 8972.951
201.5961, 8979.188
202.0782, 9002.429
202.5603, 9046.766
203.0424, 9081.037
203.5246, 9091.927
204.0067, 9082.971
204.4888, 9098.647
204.9709, 9146.938
205.4530, 9204.183
205.9352, 9243.162
206.4173, 9260.557
206.8994, 9273.101
207.3815, 9283.529
207.8636, 9291.745
208.3457, 9305.467
208.8279, 9326.590
209.3100, 9350.884
209.7921, 9375.134
210.2742, 9404.185
210.7563, 9419.185
211.2384, 9406.862
211.7206, 9359.067
212.2027, 9334.655
212.6848, 9341.063
213.1669, 9364.764
213.6490, 9380.118
214.1311, 9386.008
214.6133, 9386.241
215.0954, 9381.398
215.5775, 9369.887
216.0596, 9357.401
216.5417, 9338.958
217.0238, 9321.654
217.5059, 9327.560
217.9881, 9371.539
218.4702, 9411.985
218.9523, 9424.351
219.4344, 9392.771
219.9165, 9377.403
220.3986, 9384.131
220.8808, 9409.055
221.3629, 9437.908
221.8450, 9472.928
222.3271, 9508.893
222.8092, 9543.140
223.2913, 9574.870
223.7735, 9605.728
224.2556, 9633.727
224.7377, 9660.212
225.2198, 9692.385
225.7019, 9726.957
226.1840, 9770.946
226.6662, 9833.534
227.1483, 9930.941
227.6304, 10011.39
228.1125, 10067.50
228.5946, 10099.65
229.0767, 10122.05
229.5589, 10123.18
230.0410, 10126.78
230.5231, 10158.57
231.0052, 10248.68
231.4873, 10308.15
231.9694, 10311.05
232.4516, 10255.30
232.9337, 10233.46
233.4158, 10263.45
233.8979, 10310.54
234.3800, 10340.07
234.8621, 10348.15
235.3443, 10345.36
235.8264, 10325.00
236.3085, 10281.83
236.7906, 10283.12
237.2727, 10373.33
237.7548, 10471.14
238.2369, 10473.62
238.7191, 10315.81
239.2012, 10170.78
239.6833, 10081.32
240.1654, 10052.57
240.6475, 10047.00
241.1296, 10085.25
241.6118, 10131.87
242.0939, 10133.57
242.5760, 10059.47
243.0581, 9992.103
243.5402, 9955.495
244.0223, 9956.012
244.5045, 9960.866
244.9866, 9972.275
245.4687, 9986.853
245.9508, 9998.389
246.4329, 10002.42
246.9150, 10011.22
247.3972, 10031.15
247.8793, 10068.02
248.3614, 10093.73
248.8435, 10099.69
249.3256, 10099.04
249.8077, 10117.74
250.2899, 10166.30
250.7720, 10216.45
251.2541, 10255.66
251.7362, 10274.20
252.2183, 10310.82
252.7004, 10372.36
253.1826, 10448.04
253.6647, 10514.68
254.1468, 10567.76
254.6289, 10618.94
255.1110, 10673.68
255.5931, 10735.10
256.0753, 10790.43
256.5574, 10833.17
257.0395, 10873.47
257.5216, 10936.70
258.0037, 11033.90
258.4858, 11134.63
258.9680, 11226.18
259.4501, 11311.03
259.9322, 11380.94
260.4143, 11429.75
260.8964, 11466.66
261.3785, 11515.88
261.8607, 11586.35
262.3428, 11652.71
262.8249, 11701.42
263.3070, 11725.26
263.7891, 11757.12
264.2712, 11803.45
264.7534, 11856.05
265.2355, 11889.85
265.7176, 11901.08
266.1997, 11903.19
266.6818, 11906.83
267.1639, 11919.04
267.6461, 11901.08
268.1282, 11840.03
268.6103, 11753.30
269.0924, 11686.92
269.5745, 11642.77
270.0566, 11614.46
270.5387, 11606.60
271.0208, 11628.54
271.5030, 11617.18
271.9851, 11555.15
272.4672, 11465.43
272.9493, 11414.31
273.4314, 11410.25
273.9135, 11416.23
274.3957, 11412.06
274.8778, 11397.13
275.3599, 11376.72
275.8420, 11348.09
276.3241, 11317.18
276.8062, 11302.64
277.2884, 11308.71
277.7705, 11313.33
278.2526, 11299.12
278.7347, 11264.64
279.2168, 11238.40
279.6989, 11219.95
280.1811, 11213.70
280.6632, 11239.36
281.1453, 11302.80
281.6274, 11357.27
282.1095, 11363.34
282.5916, 11321.77
283.0738, 11298.31
283.5559, 11301.18
284.0380, 11322.88
284.5201, 11352.98
285.0022, 11392.75
285.4843, 11422.70
285.9665, 11419.87
286.4486, 11389.19
286.9307, 11381.57
287.4128, 11406.13
287.8949, 11451.00
288.3770, 11499.29
288.8592, 11551.39
289.3413, 11594.10
289.8234, 11615.15
290.3055, 11618.46
290.7876, 11620.74
291.2697, 11621.06
291.7519, 11627.16
292.2340, 11657.70
292.7161, 11710.92
293.1982, 11762.67
293.6803, 11790.01
294.1624, 11803.34
294.6446, 11836.49
295.1267, 11896.27
295.6088, 11969.34
296.0909, 12035.88
296.5730, 12096.69
297.0551, 12165.13
297.5373, 12264.01
298.0194, 12373.70
298.5015, 12444.97
298.9836, 12460.67
299.4657, 12469.96
299.9478, 12540.42
300.4300, 12657.95
300.9121, 12769.79
301.3942, 12835.50
301.8763, 12878.77
302.3584, 12935.41
302.8405, 13012.58
303.3227, 13094.27
303.8048, 13168.39
304.2869, 13234.95
304.7690, 13298.07
305.2511, 13359.42
305.7332, 13417.71
306.2154, 13474.75
306.6975, 13532.30
307.1796, 13578.25
307.6617, 13599.71
308.1438, 13601.43
308.6259, 13593.98
309.1081, 13574.37
309.5901, 13552.33
310.0723, 13538.79
310.5544, 13537.41
311.0365, 13528.78
311.5186, 13491.14
312.0007, 13438.90
312.4828, 13396.73
312.9650, 13388.37
313.4471, 13383.28
313.9292, 13361.85
314.4113, 13321.15
314.8934, 13276.16
315.3755, 13221.87
315.8577, 13170.21
316.3398, 13138.39
316.8219, 13143.69
317.3040, 13159.79
317.7861, 13174.58
318.2682, 13186.59
318.7504, 13205.27
319.2325, 13240.17
319.7146, 13281.09
320.1967, 13316.71
320.6788, 13348.09
321.1609, 13370.25
321.6431, 13375.54
322.1252, 13362.66
322.6073, 13360.34
323.0894, 13382.23
323.5715, 13412.90
324.0536, 13439.23
324.5358, 13437.19
325.0179, 13453.34
325.5000, 13510.88
325.9821, 13609.54
326.4642, 13676.99
326.9464, 13683.70
327.4285, 13673.04
327.9106, 13675.13
328.3927, 13707.42
328.8748, 13731.15
329.3569, 13738.18
329.8391, 13731.24
330.3212, 13733.77
330.8033, 13746.99
331.2854, 13769.46
331.7675, 13802.54
332.2496, 13864.89
332.7318, 13904.77
333.2139, 13910.75
333.6960, 13891.79
334.1781, 13885.91
334.6602, 13899.25
335.1423, 13916.48
335.6245, 13928.82
336.1066, 13933.16
336.5887, 13942.76
337.0708, 13961.33
337.5529, 13983.58
338.0350, 13994.07
338.5172, 13989.03
338.9993, 13982.50
339.4814, 13980.97
339.9635, 13984.55
340.4456, 13994.18
340.9277, 14017.49
341.4099, 14035.27
341.8920, 14000.77
342.3741, 13907.40
342.8562, 13826.55
343.3383, 13802.70
343.8204, 13829.57
344.3026, 13836.59
344.7847, 13822.13
345.2668, 13789.48
345.7489, 13733.95
346.2310, 13657.79
346.7131, 13591.26
347.1953, 13553.00
347.6774, 13533.91
348.1595, 13506.45
348.6416, 13470.42
349.1237, 13434.46
349.6058, 13404.63
350.0880, 13382.49
350.5700, 13372.19
351.0522, 13383.87
351.5343, 13404.39
352.0164, 13416.45
352.4985, 13420.17
352.9806, 13414.39
353.4627, 13386.40
353.9449, 13350.23
354.4270, 13329.19
354.9091, 13337.40
355.3912, 13355.13
355.8733, 13367.22
356.3554, 13373.45
356.8376, 13375.12
357.3197, 13368.39
357.8018, 13358.83
358.2839, 13351.20
358.7660, 13343.47
359.2481, 13342.64
359.7303, 13359.28
360.2124, 13386.95
360.6945, 13407.91
361.1766, 13411.14
361.6587, 13408.39
362.1408, 13407.27
362.6230, 13411.13
363.1051, 13413.32
363.5872, 13403.25
364.0693, 13391.71
364.5514, 13398.23
365.0335, 13455.79
365.5157, 13507.32
365.9978, 13526.43
366.4799, 13496.09
366.9620, 13483.25
367.4441, 13500.46
367.9262, 13535.64
368.4084, 13573.83
368.8905, 13620.51
369.3726, 13662.68
369.8547, 13699.71
370.3368, 13732.69
370.8189, 13745.81
371.3011, 13722.55
371.7832, 13693.17
372.2653, 13684.21
372.7474, 13700.50
373.2295, 13729.32
373.7116, 13776.69
374.1938, 13838.09
374.6759, 13872.89
375.1580, 13872.14
375.6401, 13864.73
376.1222, 13872.56
376.6043, 13898.86
377.0865, 13921.45
377.5686, 13936.46
378.0507, 13947.98
378.5328, 13963.18
379.0149, 13981.24
379.4970, 14009.90
379.9792, 14058.57
380.4613, 14125.26
380.9434, 14184.44
381.4255, 14234.75
381.9076, 14277.86
382.3897, 14314.20
382.8719, 14344.60
383.3540, 14374.33
383.8361, 14402.12
384.3182, 14431.50
384.8003, 14474.33
385.2824, 14532.05
385.7646, 14588.24
386.2467, 14627.28
386.7288, 14653.41
387.2109, 14676.22
387.6930, 14697.56
388.1751, 14719.03
388.6573, 14744.42
389.1394, 14773.37
389.6215, 14798.94
390.1036, 14815.33
390.5857, 14826.72
391.0678, 14837.51
391.5499, 14847.26
392.0320, 14859.04
392.5142, 14874.11
392.9963, 14892.44
393.4784, 14914.00
393.9605, 14947.23
394.4426, 14977.71
394.9247, 14995.65
395.4069, 14992.71
395.8890, 14991.76
396.3711, 15000.75
396.8532, 15014.58
397.3353, 15024.08
397.8174, 15021.14
398.2996, 15020.12
398.7817, 15026.46
399.2638, 15043.06
399.7459, 15055.30
400.2280, 15055.26
400.7101, 15055.33
401.1923, 15069.36
401.6744, 15105.86
402.1565, 15140.67
402.6386, 15165.99
403.1207, 15183.42
403.6028, 15221.14
404.0850, 15294.48
404.5671, 15360.90
405.0492, 15380.19
405.5313, 15339.65
406.0134, 15326.52
406.4955, 15358.16
406.9777, 15417.48
407.4598, 15456.83
407.9419, 15473.18
408.4240, 15498.25
408.9061, 15558.46
409.3882, 15647.02
409.8704, 15719.08
410.3525, 15769.04
410.8346, 15811.84
411.3167, 15866.19
411.7988, 15931.41
412.2809, 16001.22
412.7631, 16089.18
413.2452, 16175.51
413.7273, 16218.48
414.2094, 16217.90
414.6915, 16216.18
415.1736, 16244.33
415.6558, 16295.06
416.1379, 16356.77
416.6200, 16437.68
417.1021, 16516.98
417.5842, 16577.06
418.0663, 16622.50
418.5485, 16671.79
419.0306, 16737.72
419.5127, 16809.09
419.9948, 16878.13
420.4769, 16937.33
420.9590, 17003.93
421.4412, 17090.01
421.9233, 17185.98
422.4054, 17276.10
422.8875, 17364.00
423.3696, 17438.52
423.8517, 17491.24
424.3339, 17513.66
424.8160, 17545.49
425.2981, 17590.33
425.7802, 17642.34
426.2623, 17696.73
426.7444, 17752.47
427.2266, 17811.82
427.7087, 17873.86
428.1908, 17939.38
428.6729, 18023.94
429.1550, 18139.43
429.6371, 18248.81
430.1193, 18318.15
430.6014, 18339.39
431.0835, 18386.29
431.5656, 18467.81
432.0477, 18572.71
432.5298, 18677.89
433.0119, 18782.82
433.4940, 18902.13
433.9762, 19053.16
434.4583, 19225.21
434.9404, 19373.74
435.4225, 19494.60
435.9046, 19618.69
436.3867, 19785.92
436.8689, 19981.09
437.3510, 20164.84
437.8331, 20319.42
438.3152, 20459.64
438.7973, 20603.88
439.2794, 20749.90
439.7616, 20884.38
440.2437, 20986.30
440.7258, 21077.98
441.2079, 21183.28
441.6900, 21320.63
442.1721, 21442.73
442.6543, 21524.52
443.1364, 21576.01
443.6185, 21616.87
444.1006, 21662.63
444.5827, 21690.44
445.0648, 21694.78
445.5470, 21677.52
446.0291, 21625.28
446.5112, 21514.42
446.9933, 21379.27
447.4754, 21250.29
447.9576, 21146.27
448.4397, 21022.43
448.9218, 20871.06
449.4039, 20694.87
449.8860, 20509.72
450.3681, 20306.73
450.8503, 20113.72
451.3324, 19946.57
451.8145, 19808.38
452.2966, 19684.76
452.7787, 19578.27
453.2608, 19479.11
453.7430, 19365.73
454.2251, 19238.94
454.7072, 19118.75
455.1893, 19015.77
455.6714, 18926.35
456.1535, 18835.49
456.6357, 18743.78
457.1178, 18655.04
457.5999, 18569.84
458.0820, 18491.17
458.5641, 18428.36
459.0462, 18386.62
459.5284, 18355.60
460.0105, 18325.50
460.4926, 18296.83
460.9747, 18273.35
461.4568, 18251.88
461.9389, 18238.40
462.4211, 18240.60
462.9032, 18263.08
463.3853, 18280.90
463.8674, 18287.78
464.3495, 18282.34
464.8316, 18263.06
465.3138, 18195.56
465.7959, 18149.29
466.2780, 18150.75
466.7601, 18198.94
467.2422, 18239.13
467.7243, 18266.96
468.2065, 18290.67
468.6886, 18316.63
469.1707, 18354.72
469.6528, 18374.45
470.1349, 18369.55
470.6170, 18350.44
471.0992, 18335.43
471.5813, 18323.29
472.0634, 18320.78
472.5455, 18330.92
473.0276, 18353.10
473.5097, 18385.00
473.9918, 18428.86
474.4739, 18470.55
474.9561, 18491.04
475.4382, 18495.28
475.9203, 18508.90
476.4024, 18541.83
476.8845, 18580.06
477.3666, 18601.16
477.8488, 18608.84
478.3309, 18619.10
478.8130, 18649.80
479.2951, 18683.63
479.7772, 18701.48
480.2593, 18700.33
480.7415, 18693.12
481.2236, 18683.94
481.7057, 18674.01
482.1878, 18664.77
482.6699, 18666.19
483.1520, 18658.35
483.6342, 18620.80
484.1163, 18560.57
484.5984, 18529.79
485.0805, 18578.30
485.5626, 18624.04
486.0447, 18627.17
486.5269, 18563.99
487.0090, 18505.50
487.4911, 18442.44
487.9732, 18390.99
488.4553, 18379.89
488.9374, 18422.69
489.4196, 18467.68
489.9017, 18504.10
490.3838, 18531.41
490.8659, 18545.04
491.3480, 18543.70
491.8301, 18536.01
492.3123, 18524.21
492.7944, 18510.43
493.2765, 18507.08
493.7586, 18517.49
494.2407, 18534.46
494.7228, 18545.54
495.2050, 18554.16
495.6871, 18571.69
496.1692, 18615.83
496.6513, 18664.56
497.1334, 18690.66
497.6155, 18693.93
498.0977, 18705.61
498.5798, 18765.18
499.0619, 18832.41
499.5440, 18865.75
500.0261, 18813.08
500.5082, 18784.49
500.9904, 18831.41
501.4725, 18925.31
501.9546, 18996.91
502.4367, 19017.46
502.9188, 19031.16
503.4009, 19049.15
503.8831, 19070.87
504.3652, 19097.63
504.8473, 19132.56
505.3294, 19167.44
505.8115, 19193.71
506.2936, 19208.99
506.7758, 19223.31
507.2579, 19237.59
507.7400, 19251.92
508.2221, 19272.25
508.7042, 19299.70
509.1863, 19310.93
509.6685, 19279.69
510.1506, 19222.99
510.6327, 19197.57
511.1148, 19207.84
511.5969, 19223.13
512.0790, 19211.30
512.5612, 19185.09
513.0433, 19167.48
513.5254, 19170.48
514.0075, 19178.41
514.4896, 19182.91
514.9717, 19183.04
515.4539, 19176.45
515.9360, 19142.59
516.4181, 19116.06
516.9002, 19122.88
517.3823, 19177.48
517.8644, 19207.60
518.3466, 19172.37
518.8287, 19121.00
519.3108, 19101.91
519.7929, 19140.24
520.2750, 19171.58
520.7571, 19193.25
521.2393, 19202.64
521.7214, 19183.90
522.2035, 19122.83
522.6856, 19074.60
523.1677, 19077.91
523.6498, 19131.75
524.1320, 19149.20
524.6141, 19124.81
525.0962, 19088.76
525.5783, 19073.48
526.0604, 19074.79
526.5425, 19075.82
527.0247, 19072.15
527.5068, 19065.92
527.9889, 19057.15
528.4710, 19047.42
528.9531, 19042.05
529.4352, 19051.16
529.9174, 19061.33
530.3995, 19056.36
530.8816, 19031.68
531.3637, 19023.00
531.8458, 19060.20
532.3279, 19112.88
532.8101, 19152.54
533.2922, 19170.96
533.7743, 19180.34
534.2564, 19171.54
534.7385, 19154.34
535.2206, 19158.25
535.7027, 19194.46
536.1848, 19233.15
536.6669, 19265.44
537.1490, 19291.04
537.6312, 19304.39
538.1133, 19299.78
538.5954, 19297.67
539.0775, 19322.98
539.5596, 19373.17
540.0417, 19418.07
540.5239, 19453.74
541.0060, 19479.94
541.4881, 19494.67
541.9702, 19499.42
542.4523, 19499.67
542.9344, 19488.94
543.4166, 19481.20
543.8987, 19499.06
544.3808, 19542.76
544.8629, 19573.46
545.3450, 19539.02
545.8271, 19498.96
546.3093, 19507.23
546.7914, 19619.02
547.2735, 19711.80
547.7556, 19748.67
548.2377, 19751.38
548.7198, 19763.95
549.2020, 19788.02
549.6841, 19821.04
550.1662, 19863.87
550.6483, 19915.61
551.1304, 19970.33
551.6125, 20031.17
552.0947, 20085.63
552.5768, 20116.68
553.0589, 20124.28
553.5410, 20158.93
554.0231, 20231.34
554.5052, 20310.17
554.9874, 20347.00
555.4695, 20350.91
555.9516, 20355.92
556.4337, 20377.59
556.9158, 20405.29
557.3979, 20425.93
557.8801, 20441.71
558.3622, 20462.41
558.8443, 20494.79
559.3264, 20534.38
559.8085, 20578.66
560.2906, 20629.16
560.7728, 20680.33
561.2549, 20729.53
561.7370, 20780.08
562.2191, 20834.83
562.7012, 20871.44
563.1833, 20946.51
563.6655, 21082.67
564.1476, 21259.03
564.6297, 21400.47
565.1118, 21493.19
565.5939, 21586.47
566.0760, 21700.93
566.5582, 21833.95
567.0403, 21981.65
567.5224, 22144.15
568.0045, 22310.98
568.4866, 22468.39
568.9688, 22620.38
569.4509, 22774.64
569.9330, 22924.08
570.4151, 23090.40
570.8972, 23292.90
571.3793, 23527.46
571.8615, 23779.66
572.3436, 24063.83
572.8257, 24349.23
573.3078, 24612.96
573.7899, 24859.27
574.2720, 25116.09
574.7542, 25389.92
575.2363, 25680.84
575.7184, 25988.46
576.2005, 26315.96
576.6826, 26658.27
577.1647, 27015.33
577.6469, 27388.96
578.1290, 27790.03
578.6111, 28240.02
579.0932, 28619.11
579.5753, 28927.10
580.0574, 29122.31
580.5396, 29092.17
581.0217, 28838.96
581.5038, 28409.50
581.9859, 27732.28
582.4680, 26934.62
582.9501, 26230.55
583.4323, 25624.02
583.9144, 25081.02
584.3965, 24554.27
584.8786, 24084.93
585.3607, 23719.34
585.8428, 23498.13
586.3250, 23339.38
586.8071, 23239.18
587.2892, 23181.13
587.7713, 23135.18
588.2534, 23102.98
588.7355, 23078.27
589.2177, 23062.60
589.6998, 23055.45
590.1819, 23045.53
590.6640, 23030.14
591.1461, 23019.21
591.6282, 23021.04
592.1104, 23035.34
592.5925, 23043.35
593.0746, 23043.12
593.5567, 23040.31
594.0388, 23032.09
594.5209, 23025.13
595.0031, 23042.37
595.4852, 23098.52
595.9673, 23166.03
596.4494, 23221.62
596.9315, 23267.82
597.4136, 23310.65
597.8958, 23331.52
598.3779, 23368.96
598.8600, 23451.41
599.3421, 23582.23
599.8242, 23703.94
600.3063, 23804.32
600.7885, 23898.70
601.2706, 23990.49
601.7527, 24068.76
602.2348, 24176.98
602.7169, 24319.67
603.1990, 24484.57
603.6812, 24667.16
604.1633, 24868.46
604.6454, 25032.84
605.1275, 25140.48
605.6096, 25206.22
606.0917, 25269.44
606.5739, 25322.55
607.0560, 25328.22
607.5381, 25238.79
608.0202, 25104.87
608.5023, 24977.69
608.9844, 24860.02
609.4666, 24748.57
609.9487, 24624.29
610.4308, 24516.37
610.9129, 24446.78
611.3950, 24420.01
611.8771, 24431.09
612.3593, 24518.23
612.8414, 24627.93
613.3235, 24689.15
613.8056, 24672.55
614.2877, 24681.98
614.7698, 24753.66
615.2520, 24855.88
615.7341, 24878.77
616.2162, 24818.46
616.6983, 24724.99
617.1804, 24612.68
617.6625, 24487.37
618.1446, 24360.37
618.6267, 24232.01
619.1088, 24116.08
619.5909, 24029.55
620.0731, 23960.07
620.5552, 23892.13
621.0373, 23816.96
621.5194, 23760.74
622.0015, 23763.53
622.4836, 23782.86
622.9658, 23763.17
623.4479, 23635.08
623.9300, 23540.18
624.4121, 23497.72
624.8942, 23502.25
625.3763, 23542.11
625.8585, 23635.88
626.3406, 23714.36
626.8227, 23744.18
627.3048, 23731.37
627.7869, 23723.70
628.2690, 23720.81
628.7512, 23723.28
629.2333, 23729.82
629.7154, 23742.13
630.1975, 23768.58
630.6796, 23814.62
631.1617, 23853.44
631.6439, 23867.12
632.1260, 23861.26
632.6081, 23843.23
633.0902, 23804.92
633.5723, 23767.31
634.0544, 23727.62
634.5366, 23693.16
635.0187, 23687.24
635.5008, 23755.63
635.9829, 23785.17
636.4650, 23721.97
636.9471, 23578.98
637.4293, 23523.63
637.9114, 23571.51
638.3935, 23641.05
638.8756, 23675.74
639.3577, 23682.55
639.8398, 23696.82
640.3220, 23719.59
640.8041, 23752.17
641.2862, 23805.31
641.7683, 23866.51
642.2504, 23913.45
642.7325, 23928.44
643.2147, 23950.92
643.6968, 24005.39
644.1789, 24080.62
644.6610, 24159.05
645.1431, 24246.92
645.6252, 24326.19
646.1074, 24397.73
646.5895, 24459.53
647.0716, 24493.32
647.5537, 24488.19
648.0358, 24482.40
648.5179, 24488.22
649.0001, 24507.18
649.4822, 24565.95
649.9643, 24670.22
650.4464, 24760.80
650.9285, 24758.07
651.4106, 24709.21
651.8928, 24718.75
652.3749, 24812.83
652.8570, 24913.65
653.3391, 24946.11
653.8212, 24956.22
654.3033, 25002.32
654.7855, 25174.22
655.2676, 25301.91
655.7497, 25311.96
656.2318, 25250.47
656.7139, 25229.60
657.1960, 25268.54
657.6782, 25315.06
658.1603, 25358.69
658.6424, 25398.60
659.1245, 25428.18
659.6066, 25446.67
660.0887, 25462.31
660.5709, 25476.99
661.0530, 25493.45
661.5351, 25518.13
662.0172, 25551.35
662.4993, 25592.91
662.9814, 25646.67
663.4636, 25706.57
663.9457, 25769.48
664.4278, 25843.28
664.9099, 25897.91
665.3920, 25904.80
665.8741, 25892.82
666.3563, 25901.27
666.8384, 25944.94
667.3205, 25988.33
667.8026, 26031.98
668.2847, 26070.94
668.7668, 26089.67
669.2490, 26085.43
669.7311, 26080.50
670.2132, 26078.24
670.6953, 26084.45
671.1774, 26124.09
671.6595, 26193.11
672.1417, 26254.95
672.6238, 26279.47
673.1059, 26287.75
673.5880, 26298.68
674.0701, 26313.75
674.5522, 26332.65
675.0344, 26357.02
