##NAMES=Fluorcalciomicrolite
##RRUFFID=R050625
##IDEAL CHEMISTRY=(Ca,Na)_2_Ta^5+^_2_O_6_F
##LOCALITY=Urubu mine, Itinga, Minas Gerais, Brazil
##OWNER=RRUFF
##SOURCE=Gemological Center
##DESCRIPTION=Yellow fragment
##STATUS=The identification of this mineral has been confirmed by X-ray diffraction and chemical analysis
##URL=rruff.info/R050625
##MEASURED CHEMISTRY=(Ca_0.98_Na_0.92_)_∑=1.90_(Ta_1.88_Nb_0.11_Sn_0.01_)_∑=2_O_6_[F_0.86_(OH)_0.01_]_∑=0.87_
92.06543, 2079.863
92.54755, 2041.524
93.02966, 2042.214
93.51178, 2091.657
93.99390, 2133.100
94.47601, 2164.163
94.95813, 2186.014
95.44025, 2200.120
95.92236, 2207.267
96.40448, 2206.343
96.88660, 2203.612
97.36871, 2200.635
97.85082, 2197.058
98.33294, 2192.888
98.81506, 2186.932
99.29717, 2175.386
99.77929, 2163.947
100.2614, 2153.357
100.7435, 2141.358
101.2256, 2125.711
101.7078, 2107.759
102.1899, 2091.155
102.6720, 2076.981
103.1541, 2063.437
103.6362, 2049.076
104.1183, 2033.817
104.6005, 2017.226
105.0826, 1998.034
105.5647, 1975.470
106.0468, 1955.045
106.5289, 1938.712
107.0110, 1923.597
107.4931, 1908.470
107.9753, 1892.843
108.4574, 1876.571
108.9395, 1859.004
109.4216, 1837.210
109.9037, 1818.776
110.3858, 1806.266
110.8680, 1796.377
111.3501, 1785.632
111.8322, 1772.035
112.3143, 1756.277
112.7964, 1742.562
113.2785, 1732.638
113.7607, 1722.640
114.2428, 1711.790
114.7249, 1700.112
115.2070, 1687.594
115.6891, 1674.070
116.1712, 1659.541
116.6534, 1646.374
117.1355, 1635.120
117.6176, 1624.682
118.0997, 1614.336
118.5818, 1603.996
119.0639, 1593.694
119.5461, 1583.497
120.0282, 1573.383
120.5103, 1563.370
120.9924, 1552.886
121.4745, 1542.533
121.9566, 1534.059
122.4388, 1529.262
122.9209, 1523.791
123.4030, 1514.193
123.8851, 1501.389
124.3672, 1488.457
124.8493, 1478.141
125.3315, 1470.636
125.8136, 1462.421
126.2957, 1453.006
126.7778, 1443.013
127.2599, 1432.347
127.7420, 1421.180
128.2242, 1409.843
128.7063, 1398.757
129.1884, 1387.455
129.6705, 1377.438
130.1526, 1369.658
130.6347, 1362.303
131.1169, 1353.581
131.5990, 1343.006
132.0811, 1332.020
132.5632, 1323.850
133.0453, 1321.455
133.5274, 1318.389
134.0096, 1313.500
134.4917, 1307.934
134.9738, 1303.502
135.4559, 1301.188
135.9380, 1300.230
136.4201, 1298.002
136.9023, 1293.632
137.3844, 1289.456
137.8665, 1286.735
138.3486, 1285.191
138.8307, 1283.435
139.3128, 1280.274
139.7950, 1276.645
140.2771, 1274.650
140.7592, 1275.227
141.2413, 1276.619
141.7234, 1276.959
142.2055, 1276.012
142.6877, 1275.216
143.1698, 1276.615
143.6519, 1278.311
144.1340, 1277.816
144.6161, 1273.400
145.0982, 1266.608
145.5803, 1261.502
146.0625, 1258.906
146.5446, 1256.830
147.0267, 1254.972
147.5088, 1253.006
147.9909, 1250.384
148.4730, 1246.566
148.9552, 1241.636
149.4373, 1237.507
149.9194, 1234.703
150.4015, 1232.261
150.8836, 1230.031
151.3657, 1227.987
151.8479, 1226.115
152.3300, 1224.410
152.8121, 1222.836
153.2942, 1221.608
153.7763, 1220.982
154.2584, 1220.386
154.7406, 1219.340
155.2227, 1217.912
155.7048, 1216.699
156.1869, 1216.449
156.6690, 1217.620
157.1511, 1218.062
157.6333, 1217.377
158.1154, 1216.206
158.5975, 1215.078
159.0796, 1214.104
159.5617, 1213.174
160.0438, 1212.330
160.5260, 1211.668
161.0081, 1210.201
161.4902, 1207.309
161.9723, 1203.529
162.4544, 1199.996
162.9365, 1197.349
163.4187, 1194.238
163.9008, 1188.491
164.3829, 1180.257
164.8650, 1172.985
165.3471, 1168.675
165.8292, 1167.075
166.3113, 1166.708
166.7935, 1168.007
167.2756, 1169.890
167.7577, 1171.525
168.2398, 1172.876
168.7219, 1174.212
169.2040, 1175.683
169.6862, 1177.234
170.1683, 1179.240
170.6504, 1181.672
171.1325, 1184.633
171.6146, 1188.493
172.0967, 1193.234
172.5789, 1198.194
173.0610, 1202.407
173.5431, 1205.572
174.0252, 1208.614
174.5073, 1211.621
174.9894, 1214.575
175.4716, 1217.461
175.9537, 1220.267
176.4358, 1223.035
176.9179, 1225.861
177.4000, 1229.253
177.8821, 1231.961
178.3643, 1233.791
178.8464, 1235.047
179.3285, 1235.998
179.8106, 1236.766
180.2927, 1237.312
180.7748, 1237.498
181.2570, 1236.903
181.7391, 1236.484
182.2212, 1236.110
182.7033, 1236.014
183.1854, 1236.676
183.6675, 1238.412
184.1497, 1240.822
184.6318, 1242.671
185.1139, 1244.191
185.5960, 1245.017
186.0781, 1244.176
186.5602, 1242.377
187.0423, 1241.771
187.5245, 1243.668
188.0066, 1247.167
188.4887, 1249.967
188.9708, 1251.863
189.4529, 1253.413
189.9350, 1254.758
190.4172, 1255.929
190.8993, 1257.367
191.3814, 1259.194
191.8635, 1261.489
192.3456, 1264.404
192.8277, 1268.186
193.3099, 1272.103
193.7920, 1275.495
194.2741, 1278.339
194.7562, 1280.849
195.2383, 1282.227
195.7204, 1283.712
196.2026, 1286.714
196.6847, 1291.980
197.1668, 1297.765
197.6489, 1301.278
198.1310, 1301.787
198.6131, 1302.085
199.0953, 1303.264
199.5774, 1304.505
200.0595, 1304.972
200.5416, 1304.302
201.0237, 1303.021
201.5058, 1302.249
201.9880, 1302.056
202.4701, 1302.324
202.9522, 1303.443
203.4343, 1304.746
203.9164, 1305.472
204.3985, 1305.257
204.8807, 1304.497
205.3628, 1304.442
205.8449, 1306.300
206.3270, 1307.249
206.8091, 1308.049
207.2912, 1307.488
207.7733, 1303.995
208.2555, 1296.751
208.7376, 1286.522
209.2197, 1276.113
209.7018, 1268.086
210.1839, 1256.832
210.6660, 1240.080
211.1482, 1220.128
211.6303, 1199.506
212.1124, 1179.260
212.5945, 1160.154
213.0766, 1145.110
213.5587, 1136.953
214.0409, 1129.125
214.5230, 1119.020
215.0051, 1108.467
215.4872, 1101.044
215.9693, 1098.948
216.4514, 1100.619
216.9336, 1100.093
217.4157, 1096.005
217.8978, 1092.053
218.3799, 1089.255
218.8620, 1087.487
219.3441, 1086.418
219.8263, 1085.935
220.3084, 1086.079
220.7905, 1086.968
221.2726, 1089.302
221.7547, 1091.132
222.2368, 1091.261
222.7190, 1090.000
223.2011, 1088.475
223.6832, 1086.743
224.1653, 1085.453
224.6474, 1085.768
225.1295, 1088.349
225.6117, 1090.925
226.0938, 1091.729
226.5759, 1090.981
227.0580, 1090.514
227.5401, 1091.054
228.0222, 1092.201
228.5043, 1093.443
228.9865, 1094.786
229.4686, 1096.080
229.9507, 1097.100
230.4328, 1097.846
230.9149, 1098.760
231.3970, 1099.757
231.8792, 1101.179
232.3613, 1103.348
232.8434, 1106.322
233.3255, 1109.771
233.8076, 1113.565
234.2897, 1117.766
234.7719, 1121.618
235.2540, 1124.218
235.7361, 1126.947
236.2182, 1130.740
236.7003, 1135.725
237.1824, 1141.254
237.6646, 1146.781
238.1467, 1152.385
238.6288, 1157.697
239.1109, 1162.463
239.5930, 1167.066
240.0751, 1171.759
240.5573, 1176.544
241.0394, 1181.209
241.5215, 1185.442
242.0036, 1189.156
242.4857, 1192.833
242.9678, 1196.954
243.4500, 1200.676
243.9321, 1203.639
244.4142, 1205.758
244.8963, 1207.082
245.3784, 1207.397
245.8605, 1206.152
246.3427, 1205.974
246.8248, 1207.938
247.3069, 1210.007
247.7890, 1211.450
248.2711, 1212.094
248.7532, 1211.952
249.2354, 1210.955
249.7175, 1208.900
250.1996, 1206.873
250.6817, 1205.031
251.1638, 1203.097
251.6459, 1201.101
252.1281, 1198.933
252.6102, 1196.275
253.0923, 1192.653
253.5744, 1187.737
254.0565, 1184.029
254.5386, 1182.557
255.0208, 1181.097
255.5029, 1178.244
255.9850, 1174.346
256.4671, 1170.842
256.9492, 1168.993
257.4313, 1168.943
257.9135, 1169.003
258.3956, 1168.652
258.8777, 1168.862
259.3598, 1170.202
259.8419, 1172.500
260.3240, 1175.224
260.8062, 1178.033
261.2883, 1180.929
261.7704, 1183.538
262.2525, 1185.938
262.7346, 1188.092
263.2167, 1188.984
263.6989, 1189.483
264.1810, 1191.928
264.6631, 1198.099
265.1452, 1207.498
265.6273, 1215.628
266.1094, 1221.236
266.5916, 1227.170
267.0737, 1234.296
267.5558, 1242.486
268.0379, 1251.409
268.5200, 1260.900
269.0021, 1270.994
269.4843, 1281.975
269.9664, 1293.293
270.4485, 1305.866
270.9306, 1320.936
271.4127, 1337.428
271.8948, 1352.889
272.3770, 1366.039
272.8591, 1377.879
273.3412, 1391.355
273.8233, 1406.551
274.3054, 1422.560
274.7875, 1439.013
275.2697, 1456.049
275.7518, 1474.076
276.2339, 1493.426
276.7160, 1513.348
277.1981, 1532.065
277.6802, 1549.250
278.1623, 1567.267
278.6444, 1587.518
279.1266, 1608.979
279.6087, 1629.965
280.0908, 1650.137
280.5729, 1669.457
281.0550, 1687.700
281.5371, 1704.984
282.0193, 1721.970
282.5014, 1739.213
282.9835, 1756.147
283.4656, 1771.745
283.9477, 1785.666
284.4298, 1799.128
284.9120, 1813.422
285.3941, 1828.413
285.8762, 1842.582
286.3583, 1854.503
286.8404, 1865.941
287.3225, 1879.320
287.8047, 1895.045
288.2868, 1911.072
288.7689, 1925.841
289.2510, 1939.569
289.7331, 1953.408
290.2152, 1967.716
290.6974, 1982.011
291.1795, 1995.382
291.6616, 2007.770
292.1437, 2020.733
292.6258, 2035.958
293.1079, 2052.436
293.5901, 2067.785
294.0722, 2080.979
294.5543, 2093.882
295.0364, 2108.470
295.5185, 2124.663
296.0006, 2139.906
296.4828, 2152.548
296.9649, 2163.753
297.4470, 2175.995
297.9291, 2190.244
298.4112, 2203.399
298.8933, 2213.366
299.3755, 2220.308
299.8576, 2225.431
300.3397, 2228.894
300.8218, 2230.737
301.3039, 2231.249
301.7860, 2230.360
302.2682, 2228.790
302.7503, 2227.995
303.2324, 2227.024
303.7145, 2222.490
304.1966, 2213.207
304.6787, 2200.703
305.1609, 2186.879
305.6430, 2171.729
306.1251, 2154.189
306.6072, 2133.292
307.0893, 2109.742
307.5714, 2085.096
308.0536, 2059.715
308.5357, 2032.785
309.0178, 2003.151
309.4999, 1971.497
309.9820, 1939.210
310.4641, 1907.314
310.9463, 1874.902
311.4284, 1840.914
311.9105, 1805.404
312.3926, 1768.563
312.8747, 1729.264
313.3568, 1689.068
313.8390, 1651.082
314.3211, 1616.584
314.8032, 1583.801
315.2853, 1550.340
315.7674, 1516.224
316.2495, 1483.845
316.7317, 1455.020
317.2138, 1428.107
317.6959, 1400.339
318.1780, 1370.699
318.6601, 1342.353
319.1422, 1317.846
319.6243, 1296.790
320.1064, 1277.163
320.5886, 1258.070
321.0707, 1240.664
321.5528, 1225.933
322.0349, 1213.843
322.5170, 1203.342
322.9991, 1193.935
323.4813, 1185.700
323.9634, 1178.714
324.4455, 1173.010
324.9276, 1168.664
325.4097, 1165.834
325.8918, 1164.368
326.3740, 1164.255
326.8561, 1165.325
327.3382, 1167.801
327.8203, 1172.274
328.3024, 1179.000
328.7845, 1186.713
329.2667, 1194.088
329.7488, 1201.752
330.2309, 1211.513
330.7130, 1224.782
331.1951, 1239.500
331.6772, 1253.186
332.1594, 1265.878
332.6415, 1280.308
333.1236, 1298.540
333.6057, 1319.399
334.0878, 1340.078
334.5699, 1360.393
335.0521, 1380.479
335.5342, 1400.597
336.0163, 1420.573
336.4984, 1440.439
336.9805, 1460.566
337.4626, 1479.847
337.9448, 1496.835
338.4269, 1512.014
338.9090, 1524.184
339.3911, 1532.973
339.8732, 1538.468
340.3553, 1540.968
340.8375, 1540.739
341.3196, 1536.747
341.8017, 1526.835
342.2838, 1511.534
342.7659, 1493.863
343.2480, 1473.500
343.7302, 1451.508
344.2123, 1429.548
344.6944, 1407.791
345.1765, 1383.882
345.6586, 1355.278
346.1407, 1322.759
346.6229, 1292.097
347.1050, 1265.190
347.5871, 1238.746
348.0692, 1209.891
348.5513, 1179.683
349.0334, 1151.522
349.5156, 1127.659
349.9977, 1106.732
350.4798, 1085.245
350.9619, 1062.711
351.4440, 1040.777
351.9261, 1019.764
352.4083, 999.9199
352.8904, 981.7793
353.3725, 965.6722
353.8546, 950.5803
354.3367, 934.7795
354.8188, 917.7503
355.3010, 902.4366
355.7831, 890.1196
356.2652, 879.0204
356.7473, 867.3959
357.2294, 855.0984
357.7115, 843.2281
358.1937, 832.7753
358.6758, 823.8283
359.1579, 814.6058
359.6400, 804.3954
360.1221, 794.6059
360.6042, 786.1221
361.0863, 778.6453
361.5685, 771.3976
362.0506, 763.8767
362.5327, 756.2874
363.0148, 749.5006
363.4969, 743.9377
363.9790, 738.6071
364.4612, 733.7045
364.9433, 728.8262
365.4254, 723.3731
365.9075, 717.1702
366.3896, 710.8586
366.8717, 705.4441
367.3539, 701.1324
367.8360, 697.4412
368.3181, 694.9208
368.8002, 692.5639
369.2823, 689.4295
369.7644, 685.6578
370.2466, 682.3132
370.7287, 680.5082
371.2108, 680.3998
371.6929, 679.0231
372.1750, 674.9500
372.6571, 671.2175
373.1393, 668.6426
373.6214, 667.0253
374.1035, 666.0129
374.5856, 665.4677
375.0677, 665.1101
375.5498, 663.9776
376.0320, 661.1949
376.5141, 658.9186
376.9962, 657.9674
377.4783, 657.1913
377.9604, 655.1945
378.4425, 651.7943
378.9247, 648.4905
379.4068, 647.6078
379.8889, 650.1514
380.3710, 651.6010
380.8531, 651.2048
381.3352, 650.3896
381.8174, 649.6490
382.2995, 649.0099
382.7816, 648.3183
383.2637, 647.4297
383.7458, 646.3901
384.2279, 645.5251
384.7101, 644.8492
385.1922, 644.3495
385.6743, 644.3688
386.1564, 644.4092
386.6385, 643.6133
387.1206, 641.4886
387.6028, 639.2872
388.0849, 639.5246
388.5670, 643.0285
389.0491, 644.9935
389.5312, 643.0674
390.0133, 640.0644
390.4955, 637.5427
390.9776, 635.6791
391.4597, 634.2281
391.9418, 633.0200
392.4239, 632.0620
392.9060, 631.4766
393.3882, 631.4444
393.8703, 631.4877
394.3524, 631.6787
394.8345, 631.7178
395.3166, 630.8153
395.7987, 627.9058
396.2809, 624.5275
396.7630, 623.1354
397.2451, 623.8707
397.7272, 624.1993
398.2093, 622.5433
398.6914, 620.0857
399.1736, 618.8964
399.6557, 619.5348
400.1378, 619.7881
400.6199, 617.8271
401.1020, 614.4609
401.5841, 611.8658
402.0662, 610.5824
402.5483, 610.0547
403.0305, 610.0012
403.5126, 610.3831
403.9947, 610.1240
404.4768, 608.3836
404.9589, 606.3477
405.4410, 605.2952
405.9232, 605.1898
406.4053, 604.9418
406.8874, 603.7894
407.3695, 601.9261
407.8516, 600.3561
408.3337, 599.2354
408.8159, 598.1876
409.2980, 597.0048
409.7801, 595.8377
410.2622, 595.1346
410.7443, 595.0667
411.2264, 594.8799
411.7086, 593.2219
412.1907, 588.8524
412.6728, 586.1857
413.1549, 586.7828
413.6370, 587.7818
414.1191, 587.2155
414.6013, 585.1342
415.0834, 582.6348
415.5655, 580.4865
416.0476, 578.7136
416.5297, 577.9028
417.0118, 578.6833
417.4940, 579.7516
417.9761, 581.8709
418.4582, 583.8039
418.9403, 583.6395
419.4224, 580.7176
419.9045, 576.7770
420.3867, 574.8641
420.8688, 575.6390
421.3509, 576.7596
421.8330, 578.8817
422.3151, 580.6718
422.7972, 581.1055
423.2794, 580.4468
423.7615, 579.8641
424.2436, 580.4024
424.7257, 581.8282
425.2078, 582.3711
425.6899, 580.8467
426.1721, 580.5722
426.6542, 583.8657
427.1363, 588.4579
427.6184, 591.7358
428.1005, 592.8658
428.5826, 592.5945
429.0648, 591.3530
429.5469, 589.1107
430.0290, 587.5887
430.5111, 587.4752
430.9932, 587.8907
431.4753, 588.0885
431.9575, 588.0832
432.4396, 588.0024
432.9217, 587.9562
433.4038, 587.8586
433.8859, 587.3797
434.3680, 586.4258
434.8502, 585.8967
435.3323, 586.5403
435.8144, 588.0197
436.2965, 589.3092
436.7786, 590.4698
437.2607, 591.2953
437.7429, 591.3873
438.2250, 591.0702
438.7071, 591.2166
439.1892, 592.1752
439.6713, 593.2293
440.1534, 593.3449
440.6356, 592.3107
441.1177, 591.2128
441.5998, 589.5401
442.0819, 588.2695
442.5640, 588.5139
443.0461, 589.9523
443.5282, 591.1340
444.0103, 591.0312
444.4925, 589.9222
444.9746, 589.3619
445.4567, 590.1603
445.9388, 590.5096
446.4209, 589.9892
446.9030, 589.0505
447.3852, 588.0314
447.8673, 587.0702
448.3494, 586.2867
448.8315, 585.8942
449.3136, 586.0247
449.7957, 585.8681
450.2779, 585.6061
450.7600, 584.8497
451.2421, 583.1442
451.7242, 580.8682
452.2063, 578.7122
452.6884, 577.0729
453.1706, 575.7500
453.6527, 574.2766
454.1348, 572.5625
454.6169, 571.0080
455.0990, 570.6174
455.5811, 569.8058
456.0633, 567.1332
456.5454, 562.5718
457.0275, 557.7941
457.5096, 553.8670
457.9917, 550.6929
458.4738, 548.0591
458.9560, 546.2839
459.4381, 544.0919
459.9202, 539.9589
460.4023, 534.9012
460.8844, 530.8460
461.3665, 528.6099
461.8487, 526.7649
462.3308, 524.2277
462.8129, 521.1862
463.2950, 518.1815
463.7771, 515.2166
464.2592, 512.7723
464.7414, 511.8811
465.2235, 512.8909
465.7056, 512.8490
466.1877, 510.7481
466.6698, 507.9852
467.1519, 505.4107
467.6341, 503.1579
468.1162, 501.3280
468.5983, 499.9917
469.0804, 499.1187
469.5625, 498.6207
470.0446, 499.3582
470.5268, 499.3780
471.0089, 497.4999
471.4910, 495.4418
471.9731, 495.1003
472.4552, 496.6640
472.9373, 498.5884
473.4195, 499.0310
473.9016, 497.7914
474.3837, 497.7840
474.8658, 500.6910
475.3479, 502.9874
475.8300, 503.1516
476.3122, 502.2600
476.7943, 501.9119
477.2764, 502.7967
477.7585, 504.2362
478.2406, 505.0206
478.7227, 504.9788
479.2049, 505.8302
479.6870, 508.4242
480.1691, 511.4877
480.6512, 513.7333
481.1333, 515.4612
481.6154, 518.1660
482.0976, 524.0588
482.5797, 530.7024
483.0618, 533.4393
483.5439, 532.1081
484.0260, 532.0090
484.5081, 536.2050
484.9902, 542.9671
485.4724, 548.3644
485.9545, 551.7505
486.4366, 555.7386
486.9187, 561.2870
487.4008, 567.9492
487.8829, 575.0687
488.3651, 582.5692
488.8472, 590.8629
489.3293, 600.3430
489.8114, 611.0514
490.2935, 621.7194
490.7756, 631.2985
491.2578, 642.0194
491.7399, 654.1007
492.2220, 667.7899
492.7041, 683.4773
493.1862, 701.2293
493.6683, 720.6437
494.1505, 741.1842
494.6326, 762.7979
495.1147, 785.5114
495.5968, 808.3094
496.0789, 833.1405
496.5610, 860.9980
497.0432, 891.3758
497.5253, 923.5177
498.0074, 956.7754
498.4895, 991.4522
498.9716, 1027.790
499.4537, 1065.709
499.9359, 1106.095
500.4180, 1149.276
500.9001, 1195.703
501.3822, 1244.909
501.8643, 1297.181
502.3464, 1353.102
502.8286, 1413.785
503.3107, 1478.331
503.7928, 1546.034
504.2749, 1616.750
504.7570, 1691.145
505.2391, 1769.196
505.7213, 1851.630
506.2034, 1938.399
506.6855, 2029.586
507.1676, 2123.946
507.6497, 2222.542
508.1318, 2323.472
508.6140, 2424.228
509.0961, 2524.410
509.5782, 2625.048
510.0603, 2727.049
510.5424, 2830.094
511.0245, 2927.510
511.5067, 3025.784
511.9888, 3110.132
512.4709, 3178.986
512.9530, 3232.495
513.4351, 3270.710
513.9172, 3293.804
514.3994, 3302.398
514.8815, 3297.615
515.3636, 3276.597
515.8457, 3245.813
516.3278, 3192.319
516.8099, 3126.736
517.2921, 3049.471
517.7742, 2964.597
518.2563, 2877.719
518.7384, 2789.598
519.2205, 2702.147
519.7026, 2616.950
520.1848, 2534.005
520.6669, 2453.101
521.1490, 2373.733
521.6311, 2297.296
522.1132, 2226.485
522.5953, 2160.535
523.0775, 2098.171
523.5596, 2039.161
524.0417, 1984.011
524.5238, 1934.108
525.0059, 1888.819
525.4880, 1845.509
525.9702, 1803.173
526.4523, 1763.251
526.9344, 1727.788
527.4165, 1698.217
527.8986, 1670.569
528.3807, 1644.483
528.8629, 1620.372
529.3450, 1598.512
529.8271, 1578.894
530.3092, 1561.699
530.7913, 1547.158
531.2734, 1534.401
531.7556, 1520.998
532.2377, 1506.186
532.7198, 1493.015
533.2019, 1481.964
533.6840, 1472.710
534.1661, 1465.574
534.6483, 1460.198
535.1304, 1455.296
535.6125, 1449.931
536.0946, 1445.892
536.5767, 1440.772
537.0588, 1438.277
537.5410, 1435.692
538.0231, 1432.578
538.5052, 1428.925
538.9873, 1424.335
539.4694, 1418.454
539.9515, 1414.150
540.4337, 1413.578
540.9158, 1414.026
541.3979, 1412.993
541.8800, 1410.386
542.3621, 1406.899
542.8442, 1402.856
543.3264, 1398.473
543.8085, 1394.476
544.2906, 1391.090
544.7726, 1387.848
545.2548, 1386.055
545.7369, 1383.406
546.2190, 1377.899
546.7011, 1369.815
547.1832, 1360.753
547.6653, 1351.750
548.1475, 1342.982
548.6296, 1335.461
549.1117, 1329.737
549.5938, 1323.843
550.0759, 1318.569
550.5580, 1311.966
551.0402, 1301.692
551.5223, 1287.804
552.0044, 1273.877
552.4865, 1261.696
552.9686, 1250.870
553.4507, 1241.234
553.9329, 1232.785
554.4150, 1223.256
554.8971, 1211.121
555.3792, 1197.390
555.8613, 1184.727
556.3434, 1173.289
556.8256, 1162.246
557.3077, 1151.214
557.7898, 1140.593
558.2719, 1131.205
558.7540, 1122.780
559.2361, 1114.179
559.7183, 1104.509
560.2004, 1094.119
560.6825, 1084.215
561.1646, 1075.340
561.6467, 1066.149
562.1288, 1055.658
562.6110, 1045.494
563.0931, 1036.944
563.5752, 1029.896
564.0573, 1023.099
564.5394, 1015.354
565.0215, 1007.416
565.5037, 1001.630
565.9858, 998.3853
566.4679, 994.5902
566.9500, 988.9133
567.4321, 982.2610
567.9142, 975.6375
568.3964, 968.9839
568.8785, 963.1541
569.3606, 958.6602
569.8427, 954.9694
570.3248, 951.7573
570.8069, 948.8909
571.2891, 945.9406
571.7712, 942.7433
572.2533, 939.1941
572.7354, 935.0482
573.2175, 929.6837
573.6996, 924.7797
574.1818, 920.2576
574.6639, 916.2083
575.1460, 912.8142
575.6281, 909.9294
576.1102, 907.2302
576.5923, 904.5095
577.0745, 901.9096
577.5566, 899.9366
578.0387, 898.8383
578.5208, 897.0007
579.0029, 893.5802
579.4850, 889.8996
579.9672, 887.0061
580.4493, 884.7474
580.9314, 882.4328
581.4135, 880.1814
581.8956, 877.4610
582.3777, 873.2843
582.8599, 868.0937
583.3420, 863.4070
583.8241, 859.6702
584.3062, 856.9828
584.7883, 855.7159
585.2704, 856.3976
585.7526, 855.8024
586.2347, 852.6926
586.7168, 849.7165
587.1989, 848.2828
