##NAMES=Fluor-dravite
##RRUFFID=R110031
##IDEAL CHEMISTRY=NaMg_3_Al_6_(Si_6_O_18_)(BO_3_)_3_(OH)_3_F
##LOCALITY=Kefalos Hill, Skotini Bay, Galissas, Syros Island, Aegean Sea, Greece
##OWNER=RRUFF
##SOURCE=William W Pinch
##DESCRIPTION=Black massive, associated with actinolite and omphacite R110038 
##STATUS=The identification of this mineral has been confirmed only by single crystal X-ray diffraction.
##URL=rruff.info/R110031
177.9024, 1245.917
178.3845, 1242.038
178.8666, 1240.241
179.3488, 1240.543
179.8309, 1240.819
180.3130, 1237.947
180.7951, 1229.374
181.2772, 1223.464
181.7593, 1221.426
182.2415, 1220.884
182.7236, 1220.520
183.2057, 1219.898
183.6878, 1218.822
184.1699, 1216.886
184.6520, 1213.062
185.1342, 1210.552
185.6163, 1210.769
186.0984, 1211.771
186.5805, 1211.234
187.0626, 1208.404
187.5447, 1204.794
188.0269, 1203.177
188.5090, 1204.118
188.9911, 1204.369
189.4732, 1201.954
189.9553, 1198.574
190.4374, 1197.688
190.9196, 1201.057
191.4017, 1205.481
191.8838, 1205.691
192.3659, 1201.371
192.8480, 1198.088
193.3301, 1200.241
193.8123, 1205.945
194.2944, 1207.622
194.7765, 1200.490
195.2586, 1192.251
195.7407, 1191.937
196.2228, 1199.691
196.7050, 1207.023
197.1871, 1205.982
197.6692, 1197.096
198.1513, 1192.486
198.6334, 1197.868
199.1155, 1205.664
199.5977, 1211.450
200.0798, 1214.819
200.5619, 1216.333
201.0440, 1216.025
201.5261, 1213.543
202.0082, 1211.623
202.4904, 1209.658
202.9725, 1209.085
203.4546, 1211.026
203.9367, 1215.476
204.4188, 1221.323
204.9009, 1227.229
205.3831, 1233.006
205.8652, 1239.429
206.3473, 1246.974
206.8294, 1254.749
207.3115, 1262.448
207.7936, 1269.897
208.2758, 1276.894
208.7579, 1283.124
209.2400, 1288.575
209.7221, 1293.101
210.2042, 1296.489
210.6863, 1299.271
211.1685, 1301.859
211.6506, 1304.315
212.1327, 1306.372
212.6148, 1307.567
213.0969, 1306.999
213.5790, 1307.497
214.0612, 1310.808
214.5433, 1314.043
215.0254, 1314.556
215.5075, 1311.833
215.9896, 1307.838
216.4717, 1305.454
216.9539, 1306.026
217.4360, 1304.836
217.9181, 1299.792
218.4002, 1293.949
218.8823, 1290.908
219.3644, 1291.572
219.8466, 1292.758
220.3287, 1289.458
220.8108, 1280.393
221.2929, 1274.220
221.7750, 1274.584
222.2571, 1277.503
222.7393, 1277.615
223.2214, 1273.489
223.7035, 1268.514
224.1856, 1267.675
224.6677, 1270.633
225.1498, 1272.071
225.6320, 1269.123
226.1141, 1264.185
226.5962, 1261.195
227.0783, 1260.992
227.5604, 1262.163
228.0425, 1263.957
228.5247, 1266.145
229.0068, 1267.593
229.4889, 1267.446
229.9710, 1266.277
230.4531, 1265.073
230.9352, 1263.397
231.4174, 1262.896
231.8995, 1265.364
232.3816, 1269.962
232.8637, 1274.525
233.3458, 1277.951
233.8279, 1280.529
234.3101, 1283.337
234.7922, 1286.751
235.2743, 1289.707
235.7564, 1291.464
236.2385, 1292.394
236.7206, 1293.240
237.2028, 1294.432
237.6849, 1295.866
238.1670, 1297.157
238.6491, 1298.419
239.1312, 1299.316
239.6133, 1300.249
240.0955, 1300.750
240.5776, 1299.948
241.0597, 1297.013
241.5418, 1292.447
242.0239, 1288.949
242.5060, 1288.632
242.9882, 1286.309
243.4703, 1278.659
243.9524, 1268.607
244.4345, 1260.370
244.9166, 1256.492
245.3987, 1256.139
245.8809, 1255.544
246.3630, 1254.913
246.8451, 1253.682
247.3272, 1252.274
247.8093, 1250.112
248.2914, 1246.170
248.7736, 1239.756
249.2557, 1231.679
249.7378, 1225.317
250.2199, 1222.254
250.7020, 1219.049
251.1841, 1215.436
251.6663, 1211.404
252.1484, 1206.670
252.6305, 1201.039
253.1126, 1195.260
253.5947, 1191.635
254.0768, 1193.910
254.5590, 1193.888
255.0411, 1189.042
255.5232, 1182.462
256.0053, 1177.610
256.4874, 1175.963
256.9695, 1176.349
257.4517, 1175.941
257.9338, 1173.831
258.4159, 1171.944
258.8980, 1170.506
259.3801, 1169.196
259.8622, 1167.573
260.3444, 1165.494
260.8265, 1163.290
261.3086, 1161.554
261.7907, 1159.858
262.2728, 1159.485
262.7549, 1162.101
263.2371, 1165.239
263.7192, 1166.309
264.2013, 1164.646
264.6834, 1161.579
265.1655, 1158.976
265.6476, 1156.898
266.1298, 1155.304
266.6119, 1155.537
267.0940, 1155.515
267.5761, 1152.212
268.0582, 1145.227
268.5403, 1138.740
269.0225, 1138.377
269.5046, 1146.420
269.9867, 1149.809
270.4688, 1144.691
270.9509, 1137.027
271.4330, 1131.754
271.9152, 1129.477
272.3973, 1128.112
272.8794, 1125.630
273.3615, 1121.945
273.8436, 1119.524
274.3257, 1118.419
274.8079, 1118.557
275.2900, 1120.898
275.7721, 1125.206
276.2542, 1128.410
276.7363, 1128.086
277.2184, 1124.296
277.7006, 1120.257
278.1827, 1115.451
278.6648, 1110.836
279.1469, 1106.912
279.6290, 1103.723
280.1111, 1101.500
280.5933, 1100.690
281.0754, 1100.931
281.5575, 1100.781
282.0396, 1100.595
282.5217, 1099.623
283.0038, 1096.777
283.4860, 1092.466
283.9681, 1088.799
284.4502, 1086.787
284.9323, 1086.011
285.4144, 1085.425
285.8965, 1085.085
286.3787, 1084.787
286.8608, 1084.519
287.3429, 1084.227
287.8250, 1083.791
288.3071, 1083.397
288.7892, 1082.483
289.2714, 1079.807
289.7535, 1075.012
290.2356, 1071.368
290.7177, 1071.323
291.1998, 1073.611
291.6819, 1074.747
292.1641, 1073.609
292.6462, 1071.854
293.1283, 1071.628
293.6104, 1072.713
294.0925, 1073.050
294.5746, 1070.387
295.0568, 1066.667
295.5389, 1066.447
296.0210, 1071.375
296.5031, 1076.441
296.9852, 1076.777
297.4673, 1073.753
297.9495, 1070.696
298.4316, 1068.208
298.9137, 1066.486
299.3958, 1065.950
299.8779, 1066.727
300.3600, 1068.138
300.8422, 1070.405
301.3243, 1072.913
301.8064, 1074.454
302.2885, 1074.104
302.7706, 1073.336
303.2527, 1074.025
303.7349, 1076.290
304.2170, 1078.397
304.6991, 1079.668
305.1812, 1080.207
305.6633, 1079.895
306.1454, 1078.163
306.6276, 1076.964
307.1097, 1078.667
307.5918, 1083.063
308.0739, 1086.514
308.5560, 1087.515
309.0381, 1087.233
309.5203, 1087.088
310.0024, 1087.141
310.4845, 1087.039
310.9666, 1085.909
311.4487, 1084.190
311.9308, 1084.436
312.4130, 1088.431
312.8951, 1092.605
313.3772, 1093.701
313.8593, 1092.049
314.3414, 1089.500
314.8235, 1086.148
315.3057, 1082.603
315.7878, 1080.640
316.2699, 1080.963
316.7520, 1081.557
317.2341, 1081.209
317.7162, 1080.045
318.1984, 1078.127
318.6805, 1074.341
319.1626, 1070.344
319.6447, 1069.130
320.1268, 1071.211
320.6089, 1073.516
321.0911, 1073.974
321.5732, 1073.694
322.0553, 1074.327
322.5374, 1076.776
323.0195, 1079.294
323.5016, 1080.043
323.9838, 1079.019
324.4659, 1077.319
324.9480, 1074.566
325.4301, 1071.925
325.9122, 1070.728
326.3943, 1071.120
326.8765, 1072.515
327.3586, 1074.594
327.8407, 1077.353
328.3228, 1081.092
328.8049, 1087.204
329.2870, 1092.367
329.7692, 1092.488
330.2513, 1088.039
330.7334, 1084.169
331.2155, 1084.182
331.6976, 1086.479
332.1797, 1086.979
332.6619, 1084.539
333.1440, 1082.340
333.6261, 1083.516
334.1082, 1086.964
334.5903, 1090.312
335.0724, 1093.017
335.5546, 1095.145
336.0367, 1096.916
336.5188, 1098.379
337.0009, 1098.792
337.4830, 1096.468
337.9651, 1093.212
338.4473, 1092.378
338.9294, 1094.835
339.4115, 1098.979
339.8936, 1104.642
340.3757, 1111.458
340.8578, 1116.298
341.3400, 1117.306
341.8221, 1116.443
342.3042, 1116.848
342.7863, 1118.712
343.2684, 1120.652
343.7505, 1122.182
344.2327, 1123.282
344.7148, 1123.583
345.1969, 1122.580
345.6790, 1121.914
346.1611, 1123.797
346.6432, 1127.832
347.1254, 1132.379
347.6075, 1137.818
348.0896, 1143.150
348.5717, 1146.710
349.0538, 1148.313
349.5359, 1149.963
350.0181, 1153.711
350.5002, 1158.774
350.9823, 1161.733
351.4644, 1158.641
351.9465, 1156.605
352.4286, 1161.887
352.9108, 1173.012
353.3929, 1182.966
353.8750, 1188.131
354.3571, 1190.187
354.8392, 1193.137
355.3214, 1196.309
355.8035, 1201.511
356.2856, 1211.210
356.7677, 1223.036
357.2498, 1232.402
357.7319, 1237.766
358.2141, 1241.781
358.6962, 1248.099
359.1783, 1256.970
359.6604, 1266.485
360.1425, 1277.688
360.6246, 1288.725
361.1068, 1297.220
361.5889, 1303.229
362.0710, 1309.403
362.5531, 1318.202
363.0352, 1329.598
363.5173, 1339.299
363.9995, 1346.702
364.4816, 1353.250
364.9637, 1360.105
365.4458, 1366.664
365.9279, 1371.482
366.4100, 1373.872
366.8922, 1373.861
367.3743, 1371.297
367.8564, 1364.452
368.3385, 1357.690
368.8206, 1352.289
369.3027, 1346.928
369.7849, 1340.180
370.2670, 1331.661
370.7491, 1321.710
371.2312, 1310.665
371.7133, 1298.108
372.1954, 1285.867
372.6776, 1274.649
373.1597, 1263.195
373.6418, 1249.458
374.1239, 1234.345
374.6060, 1221.534
375.0881, 1214.351
375.5703, 1212.552
376.0524, 1206.439
376.5345, 1190.461
377.0166, 1176.588
377.4987, 1168.297
377.9808, 1163.548
378.4630, 1159.550
378.9451, 1155.031
379.4272, 1149.827
379.9093, 1143.408
380.3914, 1134.062
380.8735, 1126.370
381.3557, 1121.404
381.8378, 1117.311
382.3199, 1112.316
382.8020, 1106.383
383.2841, 1101.225
383.7662, 1099.102
384.2484, 1100.619
384.7305, 1100.836
385.2126, 1097.819
385.6947, 1095.320
386.1768, 1095.366
386.6589, 1096.791
387.1411, 1097.160
387.6232, 1094.916
388.1053, 1090.688
388.5874, 1086.723
389.0695, 1083.165
389.5516, 1079.610
390.0338, 1074.760
390.5159, 1070.481
390.9980, 1069.071
391.4801, 1071.118
391.9622, 1073.999
392.4443, 1074.550
392.9265, 1072.602
393.4086, 1069.952
393.8907, 1065.508
394.3728, 1061.697
394.8549, 1060.675
395.3370, 1061.729
395.8192, 1062.035
396.3013, 1058.929
396.7834, 1053.716
397.2655, 1050.859
397.7476, 1051.001
398.2297, 1051.856
398.7119, 1052.456
399.1940, 1052.970
399.6761, 1053.877
400.1582, 1055.895
400.6403, 1056.987
401.1224, 1054.041
401.6046, 1047.346
402.0867, 1042.450
402.5688, 1041.720
403.0509, 1042.737
403.5330, 1042.940
404.0151, 1042.372
404.4973, 1040.479
404.9794, 1035.356
405.4615, 1029.216
405.9436, 1026.387
406.4257, 1027.701
406.9078, 1029.685
407.3900, 1029.485
407.8721, 1027.514
408.3542, 1026.126
408.8363, 1026.998
409.3184, 1027.139
409.8005, 1024.740
410.2827, 1020.013
410.7648, 1013.008
411.2469, 1002.808
411.7290, 992.2059
412.2111, 988.3505
412.6932, 993.8493
413.1754, 998.3506
413.6575, 999.8469
414.1396, 999.6309
414.6217, 998.6219
415.1038, 997.1192
415.5859, 995.8922
416.0681, 995.9460
416.5502, 997.5617
417.0323, 997.0153
417.5144, 992.4450
417.9965, 988.0251
418.4786, 985.6011
418.9608, 984.5547
419.4429, 983.3740
419.9250, 981.2531
420.4071, 978.7865
420.8892, 977.6486
421.3713, 978.8474
421.8535, 979.9523
422.3356, 981.6544
422.8177, 982.7331
423.2998, 981.7170
423.7819, 978.7537
424.2640, 975.7042
424.7462, 974.6663
425.2283, 975.8389
425.7104, 975.9570
426.1925, 973.1580
426.6746, 971.3271
427.1567, 972.8593
427.6389, 975.7831
428.1210, 976.9902
428.6031, 974.9141
429.0852, 970.7304
429.5673, 965.9886
430.0494, 959.4876
430.5316, 956.7004
431.0137, 963.4863
431.4958, 971.4008
431.9779, 975.0853
432.4600, 974.2402
432.9421, 971.9441
433.4243, 969.8293
433.9064, 968.0530
434.3885, 967.5698
434.8706, 969.1543
435.3527, 970.3184
435.8348, 968.8503
436.3170, 965.9827
436.7991, 963.6585
437.2812, 962.2433
437.7633, 961.6721
438.2454, 962.3650
438.7275, 964.0908
439.2097, 965.1887
439.6918, 964.9373
440.1739, 964.0257
440.6560, 963.2727
441.1381, 962.5789
441.6202, 962.6223
442.1024, 964.6101
442.5845, 966.8769
443.0666, 967.2531
443.5487, 965.6418
444.0308, 963.7097
444.5129, 962.5146
444.9951, 962.1053
445.4772, 962.7079
445.9593, 966.4806
446.4414, 968.6270
446.9235, 966.5120
447.4056, 962.1992
447.8878, 958.3680
448.3699, 955.9768
448.8520, 955.3076
449.3341, 957.1625
449.8162, 963.5514
450.2983, 966.5901
450.7805, 963.4904
451.2626, 960.1385
451.7447, 959.5096
452.2268, 961.2607
452.7089, 963.7807
453.1910, 966.1025
453.6732, 968.1240
454.1553, 969.3719
454.6374, 969.6154
455.1195, 969.4070
455.6016, 968.9861
456.0837, 968.1361
456.5659, 966.0006
457.0480, 962.6849
457.5301, 960.3114
458.0122, 961.8031
458.4943, 967.0642
458.9764, 970.8904
459.4586, 973.5341
459.9407, 973.9346
460.4228, 969.7908
460.9049, 963.5938
461.3870, 959.9543
461.8691, 961.2026
462.3513, 964.4500
462.8334, 966.6451
463.3155, 967.7924
463.7976, 967.9414
464.2797, 966.9297
464.7618, 965.0895
465.2440, 962.1783
465.7261, 958.0828
466.2082, 956.0547
466.6903, 958.6974
467.1724, 963.1715
467.6545, 966.3988
468.1367, 968.0875
468.6188, 968.3098
469.1009, 966.5099
469.5830, 963.4310
470.0651, 962.8077
470.5472, 966.5900
471.0294, 969.9915
471.5115, 971.3961
471.9936, 971.9184
472.4757, 973.2743
472.9578, 975.7988
473.4399, 977.9344
473.9221, 977.5013
474.4042, 973.5945
474.8863, 972.4373
475.3684, 977.8680
475.8505, 981.6485
476.3326, 979.2058
476.8148, 973.3290
477.2969, 968.8680
477.7790, 968.2030
478.2611, 969.9570
478.7432, 971.2009
479.2253, 971.3740
479.7075, 972.6394
480.1896, 977.3381
480.6717, 981.4448
481.1538, 981.5338
481.6359, 978.5792
482.1180, 977.1745
482.6002, 981.8301
483.0823, 989.8352
483.5644, 993.0303
484.0465, 990.1051
484.5286, 987.0733
485.0107, 986.0189
485.4929, 986.6105
485.9750, 989.0465
486.4571, 993.8757
486.9392, 997.7559
487.4213, 997.7640
487.9034, 995.4880
488.3856, 994.6374
488.8677, 995.9448
489.3498, 997.3914
489.8319, 997.0336
490.3140, 995.0615
490.7961, 994.2545
491.2783, 995.5731
491.7604, 997.0209
492.2425, 997.6251
492.7246, 997.7358
493.2067, 997.9456
493.6888, 998.4609
494.1710, 999.3666
494.6531, 1000.846
495.1352, 1003.210
495.6173, 1005.172
496.0994, 1006.742
496.5815, 1007.965
497.0637, 1008.348
497.5458, 1008.429
498.0279, 1009.590
498.5100, 1012.785
498.9921, 1016.601
499.4742, 1017.156
499.9564, 1012.788
500.4385, 1009.341
500.9206, 1007.913
501.4027, 1007.399
501.8848, 1007.191
502.3669, 1007.289
502.8491, 1008.068
503.3312, 1010.211
503.8133, 1013.125
504.2954, 1015.202
504.7775, 1016.347
505.2596, 1017.083
505.7418, 1017.665
506.2239, 1017.933
506.7060, 1017.289
507.1881, 1015.160
507.6702, 1014.467
508.1523, 1018.472
508.6345, 1024.283
509.1166, 1026.590
509.5987, 1024.606
510.0808, 1021.964
510.5629, 1021.502
511.0450, 1023.080
511.5272, 1024.741
512.0093, 1027.222
512.4914, 1028.910
512.9735, 1028.267
513.4556, 1026.998
513.9377, 1027.719
514.4199, 1030.978
514.9020, 1034.797
515.3841, 1036.859
515.8662, 1037.231
516.3483, 1035.422
516.8304, 1027.669
517.3126, 1021.738
517.7947, 1021.006
518.2768, 1023.127
518.7589, 1024.672
519.2410, 1024.283
519.7231, 1022.943
520.2053, 1021.977
520.6874, 1021.412
521.1695, 1020.807
521.6516, 1019.924
522.1337, 1019.232
522.6158, 1018.689
523.0980, 1018.523
523.5801, 1019.448
524.0622, 1022.160
524.5443, 1025.631
525.0264, 1029.379
525.5085, 1033.181
525.9907, 1035.139
526.4728, 1033.989
526.9549, 1032.145
527.4370, 1033.903
527.9191, 1040.342
528.4012, 1043.410
528.8834, 1039.651
529.3655, 1034.565
529.8476, 1031.356
530.3297, 1030.059
530.8118, 1030.080
531.2939, 1031.178
531.7761, 1032.859
532.2582, 1033.828
532.7403, 1033.365
533.2224, 1033.491
533.7045, 1034.047
534.1866, 1035.253
534.6688, 1038.477
535.1509, 1042.594
535.6330, 1044.312
536.1151, 1040.728
536.5972, 1034.285
537.0793, 1031.938
537.5615, 1034.867
538.0436, 1037.101
538.5257, 1036.594
539.0078, 1034.934
539.4899, 1033.519
539.9720, 1032.375
540.4542, 1030.807
540.9363, 1027.937
541.4184, 1024.728
541.9005, 1022.851
542.3826, 1022.274
542.8647, 1021.166
543.3469, 1018.269
543.8290, 1014.535
544.3111, 1012.629
544.7932, 1013.791
545.2753, 1013.607
545.7574, 1009.984
546.2396, 1005.806
546.7217, 1003.675
547.2038, 1003.494
547.6859, 1003.730
548.1680, 1003.395
548.6501, 1002.419
549.1323, 1000.397
549.6144, 996.3735
550.0965, 992.9726
550.5786, 990.5159
551.0607, 988.6537
551.5428, 987.7009
552.0250, 987.3041
552.5071, 985.9373
552.9892, 980.9973
553.4713, 974.7561
553.9534, 975.1844
554.4355, 984.1229
554.9177, 990.2929
555.3998, 987.6625
555.8819, 980.9735
556.3640, 976.5729
556.8461, 974.6794
557.3282, 973.9374
557.8104, 975.0792
558.2925, 976.3516
558.7746, 975.0396
559.2567, 971.3802
559.7388, 968.8045
560.2209, 969.8599
560.7031, 972.6719
561.1852, 971.2386
561.6673, 959.4171
562.1494, 951.9760
562.6315, 951.9842
563.1136, 954.1793
563.5958, 955.5250
564.0779, 955.5052
564.5600, 954.2357
565.0421, 951.5515
565.5242, 948.1166
566.0063, 946.6071
566.4885, 948.4094
566.9706, 948.0979
567.4527, 941.8597
567.9348, 934.9482
568.4169, 930.7702
568.8990, 929.3856
569.3812, 929.2132
569.8633, 930.7366
570.3454, 932.3320
570.8275, 931.2573
571.3096, 927.6717
571.7917, 923.9777
572.2739, 920.9160
572.7560, 918.6525
573.2381, 917.5141
573.7202, 917.5255
574.2023, 918.4386
574.6844, 921.9382
575.1666, 924.8633
575.6487, 924.6963
576.1308, 922.1250
576.6129, 919.2197
577.0950, 917.0359
577.5771, 915.2529
578.0593, 912.9246
578.5414, 909.1370
579.0235, 907.3076
579.5056, 910.2343
579.9877, 912.6976
580.4698, 911.8752
580.9520, 908.7559
581.4341, 905.7980
581.9162, 903.9432
582.3983, 903.0468
582.8804, 903.5109
583.3625, 905.1227
583.8447, 905.5007
584.3268, 903.8753
584.8089, 901.3746
585.2910, 898.8412
585.7731, 896.3331
586.2552, 894.4969
586.7374, 894.2719
587.2195, 893.8156
587.7016, 891.8088
588.1837, 889.0234
588.6658, 886.5834
589.1479, 884.8825
589.6301, 884.2508
590.1122, 885.4171
590.5943, 888.7766
591.0764, 890.0784
591.5585, 887.7180
592.0406, 885.0677
592.5228, 882.1158
593.0049, 879.6740
593.4870, 879.0404
593.9691, 880.4775
594.4512, 882.0280
594.9333, 881.5218
595.4155, 879.5021
595.8976, 878.4044
596.3797, 878.4980
596.8618, 878.9200
597.3439, 879.3613
597.8260, 879.7218
598.3082, 879.8381
598.7903, 879.8180
599.2724, 879.2967
599.7545, 877.7166
600.2366, 875.8531
600.7188, 874.0498
601.2009, 872.6428
601.6830, 872.9737
602.1651, 876.2408
602.6472, 881.2150
603.1293, 883.3235
603.6115, 881.5580
604.0936, 878.6369
604.5757, 872.5155
605.0578, 867.3697
605.5399, 866.7845
606.0220, 869.5826
606.5042, 871.4473
606.9863, 869.4636
607.4684, 866.0508
607.9505, 865.2715
608.4326, 867.0624
608.9147, 869.0035
609.3969, 870.9431
609.8790, 871.9532
610.3611, 870.2986
610.8432, 866.2657
611.3253, 863.5984
611.8074, 862.9658
612.2896, 863.4991
612.7717, 865.7770
613.2538, 868.6179
613.7359, 869.8528
614.2180, 868.9200
614.7001, 867.3300
615.1823, 866.8409
615.6644, 867.4999
616.1465, 868.2712
616.6286, 869.6603
617.1107, 870.4207
617.5928, 869.9487
618.0750, 868.9046
618.5571, 867.5064
619.0392, 865.8995
619.5213, 865.5208
620.0034, 868.6188
620.4855, 873.4395
620.9677, 876.1312
621.4498, 876.5053
621.9319, 875.3998
622.4140, 872.6481
622.8961, 869.2831
623.3782, 867.3854
623.8604, 866.7638
624.3425, 867.9393
624.8246, 873.4227
625.3067, 878.5476
625.7888, 879.2410
626.2709, 877.0089
626.7531, 876.2772
627.2352, 879.2634
627.7173, 883.5098
628.1994, 884.0989
628.6815, 880.0577
629.1636, 877.7825
629.6458, 878.6388
630.1279, 880.0070
630.6100, 880.4618
631.0921, 880.5042
631.5742, 881.1401
632.0563, 882.9104
632.5385, 884.4170
633.0206, 885.1620
633.5027, 884.8078
633.9848, 881.7780
634.4669, 875.9612
634.9490, 871.3655
635.4312, 871.3762
635.9133, 874.6707
636.3954, 874.9377
636.8775, 866.8021
637.3596, 862.9153
637.8417, 867.7128
638.3239, 873.5936
638.8060, 875.1060
639.2881, 872.6898
639.7702, 869.5670
640.2523, 867.4257
640.7344, 866.2766
641.2166, 866.7079
641.6987, 868.8461
642.1808, 869.4718
642.6629, 867.2341
643.1450, 864.5019
643.6271, 863.2789
644.1093, 863.2970
644.5914, 863.8037
645.0735, 865.9045
645.5556, 867.0928
646.0377, 864.8967
646.5198, 861.6155
647.0020, 861.1590
647.4841, 863.9109
647.9662, 866.4454
648.4483, 865.5155
648.9304, 861.7698
649.4125, 859.8069
649.8947, 860.3337
650.3768, 861.3818
650.8589, 863.7297
651.3410, 865.5625
651.8231, 865.2816
652.3052, 863.1483
652.7874, 860.8887
653.2695, 859.0939
653.7516, 857.8537
654.2337, 857.7507
654.7158, 858.4378
655.1979, 858.2064
655.6801, 856.4815
656.1622, 854.1451
656.6443, 851.7243
657.1264, 849.0691
657.6085, 849.5672
658.0906, 857.5986
658.5728, 862.8639
659.0549, 860.4595
659.5370, 855.6109
660.0191, 853.7932
660.5012, 855.7233
660.9833, 858.4911
661.4655, 859.4347
661.9476, 859.5601
662.4297, 862.5447
662.9118, 868.9064
663.3939, 873.9371
663.8760, 875.6850
664.3582, 876.0858
664.8403, 877.0095
665.3224, 878.4408
665.8045, 880.9295
666.2866, 884.9166
666.7687, 889.6094
667.2509, 895.4434
667.7330, 901.3861
668.2151, 905.3203
668.6972, 906.9266
669.1793, 908.5305
669.6614, 912.7918
670.1436, 919.4508
670.6257, 924.6064
671.1078, 927.3187
671.5899, 930.4990
672.0720, 934.3248
672.5541, 939.4295
673.0363, 947.8929
673.5184, 959.1222
674.0005, 967.2969
