##NAMES=Fluoro-richterite
##RRUFFID=R060290
##IDEAL CHEMISTRY=Na(NaCa)Mg_5_Si_8_O_22_F_2_
##LOCALITY=Koschka Valley, Badakshan Province, Afghanistan
##OWNER=RRUFF
##SOURCE=Herb Obodda
##DESCRIPTION=Tan colored transparent prismatic crystal
##STATUS=The identification of this mineral has been made only by X-ray diffraction.
##URL=rruff.info/R060290
90.49219, 86.89512
90.97430, 86.75372
91.45642, 86.70635
91.93854, 86.62712
92.42065, 86.68092
92.90277, 87.32177
93.38489, 88.74600
93.86700, 90.02139
94.34912, 89.54291
94.83124, 87.63130
95.31335, 86.14716
95.79547, 86.71525
96.27759, 88.79465
96.75970, 90.04704
97.24182, 89.83953
97.72394, 89.03100
98.20605, 89.46891
98.68817, 91.22995
99.17029, 93.66943
99.65240, 96.77604
100.1345, 100.6796
100.6166, 103.4158
101.0988, 104.4954
101.5809, 104.0421
102.0630, 103.2187
102.5451, 102.1299
103.0272, 100.4747
103.5093, 97.22655
103.9915, 90.81673
104.4736, 87.04749
104.9557, 88.45657
105.4378, 96.52525
105.9199, 101.4035
106.4020, 102.1888
106.8842, 100.2593
107.3663, 97.85021
107.8484, 93.90840
108.3305, 90.73367
108.8126, 89.18367
109.2947, 90.16829
109.7769, 91.26909
110.2590, 92.68028
110.7411, 94.24697
111.2232, 95.44955
111.7053, 96.68239
112.1874, 97.26965
112.6696, 96.89419
113.1517, 94.09874
113.6338, 91.87570
114.1159, 91.02454
114.5980, 91.32729
115.0801, 91.17410
115.5623, 89.06638
116.0444, 86.90363
116.5265, 86.15671
117.0086, 89.61008
117.4907, 92.43247
117.9728, 92.22728
118.4550, 88.83806
118.9371, 85.81549
119.4192, 84.90584
119.9013, 85.23107
120.3834, 85.68932
120.8655, 86.02946
121.3477, 86.21620
121.8298, 85.86282
122.3119, 84.68572
122.7940, 84.40670
123.2761, 87.22675
123.7582, 91.94788
124.2404, 95.90222
124.7225, 97.47087
125.2046, 97.55191
125.6867, 97.06361
126.1688, 95.91563
126.6509, 94.78220
127.1331, 94.01083
127.6152, 93.72333
128.0973, 94.52443
128.5794, 97.54964
129.0615, 101.9922
129.5436, 105.8388
130.0258, 108.3205
130.5079, 110.3751
130.9900, 113.9470
131.4721, 119.0041
131.9542, 124.2456
132.4363, 128.3671
132.9185, 131.5507
133.4006, 135.0305
133.8827, 139.0830
134.3648, 143.6614
134.8469, 148.5150
135.3290, 153.3846
135.8112, 159.7037
136.2933, 169.0796
136.7754, 181.6203
137.2575, 196.0285
137.7396, 212.3569
138.2217, 230.2871
138.7039, 249.1150
139.1860, 269.8461
139.6681, 289.9265
140.1502, 305.0644
140.6323, 313.5309
141.1144, 322.3369
141.5966, 334.8232
142.0787, 352.3724
142.5608, 366.8181
143.0429, 376.7335
143.5250, 384.3257
144.0071, 394.8872
144.4893, 410.3489
144.9714, 425.4965
145.4535, 437.4434
145.9356, 443.3491
146.4177, 451.9559
146.8998, 463.5916
147.3820, 478.0450
147.8641, 495.2142
148.3462, 517.2664
148.8283, 539.7770
149.3104, 560.5540
149.7925, 576.4523
150.2747, 594.5895
150.7568, 616.1165
151.2389, 640.6897
151.7210, 664.1983
152.2031, 685.7646
152.6852, 706.5663
153.1674, 727.5748
153.6495, 750.3156
154.1316, 771.5059
154.6137, 790.0200
155.0958, 805.7964
155.5779, 822.1824
156.0601, 840.3981
156.5422, 859.0549
157.0243, 876.7508
157.5064, 892.3413
157.9885, 907.7939
158.4706, 924.0060
158.9528, 941.2340
159.4349, 957.2607
159.9170, 971.4398
160.3991, 984.1406
160.8812, 995.7902
161.3633, 1007.110
161.8455, 1016.925
162.3276, 1024.133
162.8097, 1027.906
163.2918, 1032.279
163.7739, 1037.782
164.2560, 1043.871
164.7382, 1044.987
165.2203, 1048.229
165.7024, 1053.427
166.1845, 1059.371
166.6666, 1066.309
167.1487, 1072.711
167.6309, 1077.797
168.1130, 1081.839
168.5951, 1085.309
169.0772, 1088.199
169.5593, 1090.801
170.0414, 1093.478
170.5236, 1096.576
171.0057, 1099.111
171.4878, 1098.865
171.9699, 1097.122
172.4520, 1097.822
172.9341, 1105.694
173.4163, 1116.272
173.8984, 1124.190
174.3805, 1127.553
174.8626, 1129.236
175.3447, 1131.705
175.8268, 1134.848
176.3090, 1138.219
176.7911, 1140.857
177.2732, 1143.586
177.7553, 1147.996
178.2374, 1155.765
178.7195, 1163.940
179.2017, 1168.963
179.6838, 1171.007
180.1659, 1171.127
180.6480, 1168.678
181.1301, 1164.909
181.6122, 1162.870
182.0944, 1164.614
182.5765, 1167.677
183.0586, 1167.404
183.5407, 1163.844
184.0228, 1160.030
184.5049, 1159.120
184.9871, 1160.350
185.4692, 1160.918
185.9513, 1158.992
186.4334, 1156.178
186.9155, 1156.938
187.3976, 1161.546
187.8798, 1166.486
188.3619, 1167.764
188.8440, 1165.921
189.3261, 1164.298
189.8082, 1163.844
190.2903, 1164.469
190.7725, 1165.955
191.2546, 1168.385
191.7367, 1171.326
192.2188, 1174.167
192.7009, 1176.967
193.1830, 1180.474
193.6652, 1185.032
194.1473, 1190.576
194.6294, 1196.641
195.1115, 1203.371
195.5936, 1210.148
196.0757, 1216.054
196.5579, 1221.061
197.0400, 1226.056
197.5221, 1230.998
198.0042, 1235.955
198.4863, 1242.583
198.9684, 1251.042
199.4506, 1260.786
199.9327, 1271.146
200.4148, 1282.260
200.8969, 1293.174
201.3790, 1303.720
201.8611, 1313.857
202.3433, 1323.093
202.8254, 1331.023
203.3075, 1338.693
203.7896, 1348.112
204.2717, 1359.762
204.7538, 1370.831
205.2360, 1379.836
205.7181, 1386.489
206.2002, 1393.433
206.6823, 1400.283
207.1644, 1407.858
207.6465, 1418.615
208.1287, 1433.828
208.6108, 1447.438
209.0929, 1456.336
209.5750, 1459.664
210.0571, 1463.097
210.5392, 1466.575
211.0214, 1470.341
211.5035, 1474.916
211.9856, 1480.369
212.4677, 1486.394
212.9498, 1493.045
213.4319, 1500.515
213.9140, 1507.319
214.3962, 1512.510
214.8783, 1517.655
215.3604, 1526.918
215.8425, 1542.473
216.3246, 1557.364
216.8067, 1567.969
217.2889, 1572.236
217.7710, 1578.855
218.2531, 1588.377
218.7352, 1600.028
219.2173, 1612.418
219.6994, 1626.058
220.1816, 1639.503
220.6637, 1652.334
221.1458, 1664.525
221.6279, 1676.133
222.1100, 1686.579
222.5921, 1696.737
223.0743, 1709.449
223.5564, 1725.766
224.0385, 1742.747
224.5206, 1758.979
225.0027, 1775.243
225.4848, 1789.216
225.9670, 1799.750
226.4491, 1808.251
226.9312, 1818.745
227.4133, 1832.360
227.8954, 1846.048
228.3775, 1858.436
228.8597, 1870.550
229.3418, 1879.322
229.8239, 1884.857
230.3060, 1886.942
230.7881, 1884.867
231.2702, 1878.098
231.7524, 1867.739
232.2345, 1854.208
232.7166, 1836.367
233.1987, 1817.462
233.6808, 1797.760
234.1629, 1777.055
234.6451, 1754.254
235.1272, 1728.935
235.6093, 1702.493
236.0914, 1675.317
236.5735, 1646.481
237.0556, 1619.084
237.5378, 1592.754
238.0199, 1568.025
238.5020, 1546.274
238.9841, 1527.457
239.4662, 1511.355
239.9483, 1498.006
240.4305, 1488.448
240.9126, 1479.563
241.3947, 1471.828
241.8768, 1464.581
242.3589, 1455.879
242.8410, 1443.784
243.3232, 1433.140
243.8053, 1426.249
244.2874, 1424.577
244.7695, 1423.209
245.2516, 1423.011
245.7337, 1422.773
246.2159, 1419.671
246.6980, 1412.596
247.1801, 1404.403
247.6622, 1396.006
248.1443, 1387.186
248.6264, 1378.820
249.1086, 1371.276
249.5907, 1363.975
250.0728, 1355.525
250.5549, 1344.892
251.0370, 1334.840
251.5191, 1326.358
252.0013, 1319.713
252.4834, 1313.990
252.9655, 1309.545
253.4476, 1305.825
253.9297, 1301.768
254.4118, 1296.918
254.8940, 1292.614
255.3761, 1289.368
255.8582, 1287.340
256.3403, 1285.736
256.8224, 1284.733
257.3046, 1284.029
257.7867, 1283.158
258.2688, 1282.098
258.7509, 1280.968
259.2330, 1279.946
259.7151, 1279.189
260.1973, 1277.565
260.6794, 1274.571
261.1615, 1271.270
261.6436, 1269.235
262.1257, 1268.585
262.6078, 1268.901
263.0900, 1270.425
263.5721, 1273.411
264.0542, 1275.031
264.5363, 1274.819
265.0184, 1273.779
265.5005, 1273.283
265.9827, 1273.684
266.4648, 1273.506
266.9469, 1271.922
267.4290, 1268.861
267.9111, 1267.623
268.3932, 1268.895
268.8754, 1270.925
269.3575, 1271.749
269.8396, 1271.161
270.3217, 1270.090
270.8038, 1268.354
271.2859, 1266.061
271.7681, 1265.904
272.2502, 1268.708
272.7323, 1271.957
273.2144, 1272.726
273.6965, 1270.463
274.1786, 1268.686
274.6608, 1267.772
275.1429, 1267.901
275.6250, 1270.831
276.1071, 1277.375
276.5892, 1284.398
277.0714, 1288.763
277.5535, 1290.229
278.0356, 1291.634
278.5177, 1293.635
278.9998, 1295.954
279.4819, 1296.969
279.9641, 1296.235
280.4462, 1296.159
280.9283, 1299.455
281.4104, 1306.262
281.8925, 1311.275
282.3746, 1313.090
282.8568, 1313.053
283.3389, 1314.883
283.8210, 1318.671
284.3031, 1323.547
284.7852, 1329.448
285.2673, 1336.212
285.7495, 1341.927
286.2316, 1346.002
286.7137, 1349.362
287.1958, 1354.304
287.6779, 1360.879
288.1600, 1366.934
288.6422, 1370.724
289.1243, 1372.603
289.6064, 1374.956
290.0885, 1378.064
290.5706, 1381.577
291.0527, 1385.286
291.5349, 1389.143
292.0170, 1392.296
292.4991, 1394.111
292.9812, 1394.835
293.4633, 1394.947
293.9454, 1394.269
294.4276, 1393.916
294.9097, 1395.436
295.3918, 1398.631
295.8739, 1402.470
296.3560, 1407.458
296.8381, 1412.614
297.3203, 1414.747
297.8024, 1413.446
298.2845, 1412.202
298.7666, 1415.717
299.2487, 1422.486
299.7308, 1428.002
300.2130, 1428.868
300.6951, 1427.926
301.1772, 1430.335
301.6593, 1436.077
302.1414, 1441.952
302.6235, 1444.751
303.1057, 1445.668
303.5878, 1446.990
304.0699, 1449.362
304.5520, 1452.663
305.0341, 1457.352
305.5162, 1463.211
305.9984, 1468.571
306.4805, 1470.859
306.9626, 1472.207
307.4447, 1475.793
307.9268, 1484.193
308.4089, 1492.819
308.8911, 1497.099
309.3732, 1497.904
309.8553, 1498.862
310.3374, 1502.323
310.8195, 1506.879
311.3016, 1511.094
311.7838, 1514.531
312.2659, 1517.874
312.7480, 1521.915
313.2301, 1526.213
313.7122, 1529.736
314.1943, 1529.948
314.6765, 1530.598
315.1586, 1534.835
315.6407, 1544.095
316.1228, 1553.418
316.6049, 1559.902
317.0870, 1564.947
317.5692, 1570.753
318.0513, 1578.626
318.5334, 1587.053
319.0155, 1595.689
319.4976, 1604.781
319.9797, 1612.389
320.4619, 1616.275
320.9440, 1618.882
321.4261, 1622.893
321.9082, 1630.221
322.3903, 1637.824
322.8724, 1644.572
323.3546, 1650.406
323.8367, 1656.996
324.3188, 1665.650
324.8009, 1674.714
325.2830, 1682.832
325.7651, 1689.879
326.2473, 1696.099
326.7294, 1700.890
327.2115, 1704.563
327.6936, 1709.418
328.1757, 1717.829
328.6578, 1725.790
329.1400, 1731.246
329.6221, 1728.895
330.1042, 1731.181
330.5863, 1740.979
331.0684, 1755.563
331.5505, 1766.756
332.0327, 1773.133
332.5148, 1777.852
332.9969, 1781.928
333.4790, 1784.859
333.9611, 1788.262
334.4432, 1792.361
334.9254, 1796.797
335.4075, 1800.906
335.8896, 1804.625
336.3717, 1808.298
336.8538, 1812.644
337.3359, 1818.117
337.8180, 1819.142
338.3001, 1813.708
338.7823, 1806.951
339.2644, 1805.520
339.7465, 1811.040
340.2286, 1814.811
340.7107, 1814.850
341.1928, 1811.378
341.6750, 1805.231
342.1571, 1795.394
342.6392, 1786.280
343.1213, 1782.217
343.6034, 1783.310
344.0855, 1783.327
344.5677, 1780.717
345.0498, 1776.969
345.5319, 1776.355
346.0140, 1778.997
346.4961, 1781.336
346.9782, 1780.492
347.4604, 1777.199
347.9425, 1775.080
348.4246, 1774.612
348.9067, 1774.974
349.3888, 1774.706
349.8709, 1774.076
350.3531, 1774.491
350.8352, 1777.139
351.3173, 1781.217
351.7994, 1785.457
352.2815, 1789.850
352.7636, 1793.856
353.2458, 1796.273
353.7279, 1797.910
354.2100, 1800.536
354.6921, 1805.846
355.1742, 1811.725
355.6563, 1815.666
356.1385, 1817.831
356.6206, 1820.208
357.1027, 1822.957
357.5848, 1827.098
358.0669, 1834.198
358.5490, 1846.740
359.0312, 1859.170
359.5133, 1867.717
359.9954, 1873.256
360.4775, 1878.656
360.9596, 1884.970
361.4417, 1891.799
361.9239, 1898.924
362.4060, 1906.274
362.8881, 1913.996
363.3702, 1922.943
363.8523, 1932.141
364.3344, 1940.105
364.8166, 1944.950
365.2987, 1949.860
365.7808, 1955.978
366.2629, 1963.545
366.7450, 1971.338
367.2271, 1980.060
367.7093, 1988.525
368.1914, 1995.693
368.6735, 2000.280
369.1556, 2004.972
369.6377, 2010.042
370.1198, 2015.497
370.6020, 2021.125
371.0841, 2028.406
371.5662, 2034.502
372.0483, 2037.702
372.5304, 2036.278
373.0125, 2035.161
373.4947, 2034.081
373.9768, 2033.490
374.4589, 2034.641
374.9410, 2038.292
375.4231, 2042.134
375.9052, 2045.344
376.3874, 2047.871
376.8695, 2050.284
377.3516, 2052.657
377.8337, 2054.849
378.3158, 2056.344
378.7979, 2056.879
379.2801, 2058.904
379.7622, 2063.571
380.2443, 2070.193
380.7264, 2075.748
381.2085, 2080.043
381.6906, 2084.371
382.1728, 2089.872
382.6549, 2096.432
383.1370, 2103.041
383.6191, 2109.599
384.1012, 2116.096
384.5833, 2121.624
385.0655, 2126.618
385.5476, 2134.097
386.0297, 2148.200
386.5118, 2165.490
386.9939, 2179.705
387.4760, 2189.955
387.9582, 2199.315
388.4403, 2210.528
388.9224, 2223.132
389.4045, 2236.048
389.8866, 2247.877
390.3687, 2260.626
390.8509, 2277.036
391.3330, 2296.616
391.8151, 2314.865
392.2972, 2327.600
392.7793, 2338.206
393.2614, 2350.135
393.7436, 2365.926
394.2257, 2380.573
394.7078, 2390.738
395.1899, 2397.936
395.6720, 2406.146
396.1541, 2419.571
396.6363, 2431.986
397.1184, 2440.252
397.6005, 2443.100
398.0826, 2444.860
398.5647, 2448.525
399.0468, 2450.675
399.5290, 2447.161
400.0111, 2432.733
400.4932, 2417.947
400.9753, 2404.283
401.4574, 2391.680
401.9395, 2380.000
402.4217, 2370.317
402.9038, 2360.284
403.3859, 2348.043
403.8680, 2331.985
404.3501, 2317.548
404.8322, 2305.806
405.3144, 2295.613
405.7965, 2283.876
406.2786, 2269.629
406.7607, 2256.827
407.2428, 2247.692
407.7249, 2242.313
408.2071, 2236.447
408.6892, 2229.830
409.1713, 2223.378
409.6534, 2218.566
410.1355, 2215.317
410.6176, 2211.520
411.0998, 2205.942
411.5819, 2199.785
412.0640, 2196.276
412.5461, 2195.361
413.0282, 2194.835
413.5103, 2192.218
413.9925, 2188.889
414.4746, 2188.178
414.9567, 2191.434
415.4388, 2195.009
415.9209, 2193.802
416.4030, 2189.839
416.8852, 2188.118
417.3673, 2194.032
417.8494, 2201.359
418.3315, 2204.692
418.8136, 2203.648
419.2957, 2201.958
419.7779, 2200.208
420.2600, 2199.473
420.7421, 2200.859
421.2242, 2207.262
421.7063, 2213.162
422.1884, 2217.028
422.6706, 2219.055
423.1527, 2220.108
423.6348, 2219.227
424.1169, 2218.354
424.5990, 2218.415
425.0811, 2219.896
425.5633, 2221.418
426.0454, 2223.174
426.5275, 2224.858
427.0096, 2225.943
427.4917, 2224.781
427.9738, 2225.598
428.4560, 2229.904
428.9381, 2237.527
429.4202, 2243.703
429.9023, 2247.889
430.3844, 2251.461
430.8665, 2255.665
431.3487, 2260.898
431.8308, 2263.885
432.3129, 2263.566
432.7950, 2261.838
433.2771, 2262.953
433.7592, 2267.000
434.2414, 2270.872
434.7235, 2272.526
435.2056, 2272.728
435.6877, 2274.852
436.1698, 2278.984
436.6519, 2283.646
437.1341, 2287.412
437.6162, 2290.501
438.0983, 2293.705
438.5804, 2297.721
439.0625, 2301.264
439.5446, 2302.737
440.0268, 2302.450
440.5089, 2301.486
440.9910, 2299.257
441.4731, 2297.386
441.9552, 2297.445
442.4373, 2299.841
442.9195, 2302.990
443.4016, 2307.034
443.8837, 2311.082
444.3658, 2314.050
444.8479, 2313.798
445.3300, 2314.257
445.8122, 2316.846
446.2943, 2321.389
446.7764, 2326.290
447.2585, 2333.211
447.7406, 2338.962
448.2227, 2341.571
448.7049, 2337.489
449.1870, 2337.122
449.6691, 2342.145
450.1512, 2350.056
450.6333, 2356.876
451.1154, 2362.292
451.5976, 2367.426
452.0797, 2372.728
452.5618, 2378.115
453.0439, 2381.786
453.5260, 2383.200
454.0081, 2384.357
454.4903, 2387.024
454.9724, 2391.154
455.4545, 2394.684
455.9366, 2397.103
456.4187, 2399.320
456.9008, 2402.897
457.3830, 2407.756
457.8651, 2412.851
458.3472, 2418.064
458.8293, 2423.143
459.3114, 2427.274
459.7935, 2430.448
460.2757, 2434.498
460.7578, 2441.608
461.2399, 2450.246
461.7220, 2458.320
462.2041, 2465.513
462.6862, 2471.763
463.1684, 2476.356
463.6505, 2479.976
464.1326, 2484.105
464.6147, 2489.754
465.0968, 2495.719
465.5789, 2501.535
466.0611, 2507.264
466.5432, 2511.958
467.0253, 2513.162
467.5074, 2514.385
467.9895, 2518.571
468.4716, 2529.957
468.9538, 2539.152
469.4359, 2544.782
469.9180, 2547.805
470.4001, 2551.181
470.8822, 2554.935
471.3643, 2559.060
471.8465, 2563.664
472.3286, 2568.838
472.8107, 2574.166
473.2928, 2579.980
473.7749, 2585.129
474.2570, 2587.680
474.7392, 2587.679
475.2213, 2588.338
475.7034, 2590.168
476.1855, 2593.285
476.6676, 2598.536
477.1497, 2605.715
477.6319, 2612.688
478.1140, 2618.002
478.5961, 2622.356
479.0782, 2626.930
479.5603, 2631.801
480.0424, 2636.548
480.5246, 2641.269
481.0067, 2645.512
481.4888, 2648.586
481.9709, 2648.633
482.4530, 2649.357
482.9352, 2653.201
483.4173, 2659.354
483.8994, 2665.265
484.3815, 2670.850
484.8636, 2675.366
485.3457, 2678.259
485.8279, 2679.109
486.3100, 2679.888
486.7921, 2679.712
487.2742, 2680.127
487.7563, 2682.650
488.2384, 2688.995
488.7206, 2694.479
489.2027, 2697.938
489.6848, 2700.277
490.1669, 2705.199
490.6490, 2713.869
491.1311, 2721.521
491.6133, 2725.278
492.0954, 2725.251
492.5775, 2726.184
493.0596, 2728.084
493.5417, 2730.986
494.0238, 2735.390
494.5060, 2740.984
494.9881, 2746.164
495.4702, 2750.261
495.9523, 2754.107
496.4344, 2758.362
496.9165, 2763.190
497.3987, 2769.193
497.8808, 2779.322
498.3629, 2789.260
498.8450, 2793.089
499.3271, 2790.023
499.8092, 2790.019
500.2914, 2801.937
500.7735, 2817.690
501.2556, 2829.873
501.7377, 2832.555
502.2198, 2836.203
502.7019, 2844.598
503.1841, 2855.699
503.6662, 2863.997
504.1483, 2866.863
504.6304, 2869.340
505.1125, 2872.635
505.5946, 2876.768
506.0768, 2881.623
506.5589, 2887.287
507.0410, 2893.575
507.5231, 2900.366
508.0052, 2907.661
508.4873, 2915.626
508.9695, 2924.454
509.4516, 2933.499
509.9337, 2941.315
510.4158, 2947.963
510.8979, 2954.609
511.3800, 2962.049
511.8622, 2969.769
512.3443, 2976.679
512.8264, 2982.730
513.3085, 2988.416
513.7906, 2993.366
514.2728, 2998.421
514.7549, 3005.032
515.2370, 3014.169
515.7191, 3022.748
516.2012, 3028.660
516.6833, 3032.796
517.1655, 3036.626
517.6476, 3040.730
518.1297, 3044.538
518.6118, 3046.705
519.0939, 3047.663
519.5760, 3051.971
520.0582, 3064.605
520.5403, 3076.903
521.0224, 3085.215
521.5045, 3089.050
521.9866, 3089.942
522.4688, 3085.533
522.9509, 3080.734
523.4330, 3082.302
523.9151, 3091.535
524.3972, 3099.907
524.8793, 3105.468
525.3615, 3109.036
525.8436, 3112.702
526.3257, 3116.473
526.8078, 3120.022
527.2899, 3123.406
527.7720, 3126.451
528.2542, 3128.538
528.7363, 3129.634
529.2184, 3130.574
529.7005, 3132.691
530.1826, 3134.894
530.6647, 3135.438
531.1469, 3132.334
531.6290, 3130.000
532.1111, 3130.691
532.5932, 3133.921
533.0753, 3138.690
533.5574, 3147.220
534.0396, 3154.813
534.5217, 3159.668
535.0038, 3161.510
535.4859, 3162.997
535.9680, 3163.333
536.4501, 3164.100
536.9323, 3166.269
537.4144, 3170.393
537.8965, 3174.375
538.3786, 3178.007
538.8607, 3181.743
539.3428, 3186.390
539.8250, 3192.098
540.3071, 3197.553
540.7892, 3202.493
541.2713, 3206.865
541.7534, 3210.415
542.2355, 3213.147
542.7177, 3214.899
543.1998, 3213.832
543.6819, 3212.396
544.1640, 3214.956
544.6461, 3221.979
545.1282, 3229.444
545.6104, 3234.716
546.0925, 3238.715
546.5746, 3242.337
547.0567, 3244.180
547.5388, 3247.927
548.0209, 3256.849
548.5031, 3268.395
548.9852, 3277.150
549.4673, 3279.202
549.9494, 3281.647
550.4315, 3286.624
550.9136, 3294.120
551.3958, 3299.991
551.8779, 3302.953
552.3600, 3306.491
552.8421, 3313.807
553.3242, 3325.684
553.8063, 3333.529
554.2885, 3336.289
554.7706, 3336.928
555.2527, 3338.816
555.7348, 3341.933
556.2169, 3346.185
556.6990, 3351.539
557.1812, 3357.940
557.6633, 3365.983
558.1454, 3375.186
558.6275, 3383.779
559.1096, 3389.950
559.5917, 3395.589
560.0739, 3402.651
560.5560, 3411.347
561.0381, 3418.605
561.5202, 3421.724
562.0023, 3423.749
562.4844, 3426.827
562.9666, 3430.525
563.4487, 3436.551
563.9308, 3447.079
564.4129, 3458.975
564.8950, 3467.185
565.3771, 3469.697
565.8593, 3472.752
566.3414, 3477.688
566.8235, 3484.167
567.3056, 3491.646
567.7877, 3500.429
568.2698, 3507.489
568.7520, 3508.960
569.2341, 3506.991
569.7162, 3510.982
570.1983, 3521.523
570.6804, 3532.643
571.1625, 3537.962
571.6447, 3540.280
572.1268, 3544.199
572.6089, 3551.563
573.0910, 3559.296
573.5731, 3565.657
574.0552, 3571.070
574.5374, 3576.403
575.0195, 3581.761
575.5016, 3587.264
575.9837, 3592.913
576.4658, 3598.728
576.9479, 3604.977
577.4301, 3611.545
577.9122, 3618.642
578.3943, 3626.482
578.8764, 3635.118
579.3585, 3644.380
579.8406, 3654.932
580.3228, 3664.618
580.8049, 3670.102
581.2870, 3671.674
581.7691, 3675.671
582.2512, 3683.542
582.7333, 3693.168
583.2155, 3702.007
583.6975, 3709.935
584.1796, 3717.096
584.6617, 3721.425
585.1439, 3726.362
585.6260, 3736.040
586.1081, 3749.511
586.5902, 3762.065
587.0723, 3772.113
587.5544, 3780.077
588.0366, 3785.783
588.5187, 3788.358
