##NAMES=Fluorapatite
##RRUFFID=R060421
##IDEAL CHEMISTRY=Ca_5_(PO_4_)_3_F
##LOCALITY=Levant mine, St. Just, Cornwall, England
##OWNER=RRUFF
##SOURCE=Michael Scott
##DESCRIPTION=Brown hexagonal prisms
##STATUS=The identification of this mineral has been confirmed by X-ray diffraction and chemical analysis
##URL=rruff.info/R060421
##MEASURED CHEMISTRY=(Ca_4.93_[box]_0.07_)_Σ=5_((PO_4_)_2.86_(CO_3_)_0.14_)_Σ=3_F_1.00_ ; C not measured but estimated by difference and charge balance
110.3722, 1549.152
110.8544, 1547.476
111.3365, 1546.481
111.8186, 1548.477
112.3007, 1552.309
112.7828, 1555.762
113.2649, 1557.065
113.7471, 1556.443
114.2292, 1556.892
114.7113, 1559.421
115.1934, 1562.178
115.6755, 1564.779
116.1576, 1567.040
116.6397, 1568.680
117.1219, 1569.150
117.6040, 1567.616
118.0861, 1567.509
118.5682, 1569.105
119.0503, 1571.581
119.5324, 1574.953
120.0146, 1579.012
120.4967, 1582.987
120.9788, 1585.535
121.4609, 1585.143
121.9430, 1585.434
122.4251, 1586.581
122.9073, 1588.341
123.3894, 1590.558
123.8715, 1593.242
124.3536, 1596.111
124.8357, 1598.312
125.3178, 1599.384
125.8000, 1600.894
126.2821, 1603.587
126.7642, 1607.256
127.2463, 1611.038
127.7284, 1614.425
128.2105, 1617.862
128.6927, 1622.027
129.1748, 1627.031
129.6569, 1632.652
130.1390, 1639.046
130.6211, 1646.448
131.1032, 1653.209
131.5854, 1656.919
132.0675, 1660.254
132.5496, 1665.843
133.0317, 1674.890
133.5138, 1686.430
133.9959, 1698.257
134.4781, 1710.114
134.9602, 1722.907
135.4423, 1737.156
135.9244, 1752.296
136.4065, 1768.024
136.8886, 1784.711
137.3708, 1801.987
137.8529, 1813.306
138.3350, 1816.258
138.8171, 1815.257
139.2992, 1810.561
139.7813, 1802.583
140.2635, 1791.491
140.7456, 1777.060
141.2277, 1758.549
141.7098, 1743.187
142.1919, 1732.277
142.6740, 1722.718
143.1561, 1712.839
143.6383, 1702.561
144.1204, 1692.874
144.6025, 1684.939
145.0846, 1679.124
145.5667, 1673.104
146.0488, 1665.624
146.5310, 1658.460
147.0131, 1653.594
147.4952, 1651.484
147.9773, 1651.070
148.4594, 1652.217
148.9415, 1654.598
149.4237, 1655.703
149.9058, 1653.379
150.3879, 1648.979
150.8700, 1646.340
151.3521, 1646.499
151.8342, 1648.127
152.3164, 1649.871
152.7985, 1651.768
153.2806, 1654.174
153.7627, 1658.281
154.2448, 1664.181
154.7269, 1667.386
155.2091, 1664.148
155.6912, 1660.270
156.1733, 1658.304
156.6554, 1658.577
157.1375, 1660.376
157.6196, 1663.376
158.1018, 1668.697
158.5839, 1671.798
159.0660, 1671.536
159.5481, 1669.932
160.0302, 1667.530
160.5123, 1664.718
160.9945, 1662.343
161.4766, 1661.991
161.9587, 1665.421
162.4408, 1668.419
162.9229, 1671.188
163.4050, 1673.440
163.8871, 1674.788
164.3693, 1675.108
164.8514, 1674.716
165.3335, 1674.358
165.8156, 1674.440
166.2977, 1674.002
166.7798, 1672.241
167.2620, 1670.021
167.7441, 1668.960
168.2262, 1670.033
168.7083, 1672.052
169.1904, 1671.381
169.6725, 1666.334
170.1547, 1662.210
170.6368, 1661.762
171.1189, 1664.110
171.6010, 1666.340
172.0831, 1667.412
172.5652, 1667.276
173.0474, 1666.113
173.5295, 1663.358
174.0116, 1660.663
174.4937, 1659.439
174.9758, 1659.680
175.4579, 1660.031
175.9401, 1660.347
176.4222, 1660.231
176.9043, 1658.942
177.3864, 1655.849
177.8685, 1652.739
178.3506, 1652.168
178.8328, 1654.884
179.3149, 1657.508
179.7970, 1658.881
180.2791, 1659.654
180.7612, 1660.248
181.2433, 1660.779
181.7255, 1661.350
182.2076, 1662.253
182.6897, 1663.831
183.1718, 1665.071
183.6539, 1665.733
184.1360, 1666.022
184.6181, 1666.040
185.1003, 1665.808
185.5824, 1665.488
186.0645, 1665.688
186.5466, 1667.348
187.0287, 1668.364
187.5108, 1668.422
187.9930, 1667.717
188.4751, 1665.985
188.9572, 1662.933
189.4393, 1659.340
189.9214, 1659.755
190.4035, 1670.269
190.8857, 1678.040
191.3678, 1679.194
191.8499, 1676.080
192.3320, 1672.824
192.8141, 1671.876
193.2962, 1672.905
193.7784, 1673.349
194.2605, 1673.144
194.7426, 1672.589
195.2247, 1671.128
195.7068, 1669.267
196.1889, 1668.382
196.6711, 1669.343
197.1532, 1672.028
197.6353, 1675.242
198.1174, 1680.713
198.5995, 1685.114
199.0816, 1685.419
199.5638, 1682.313
200.0459, 1680.585
200.5280, 1684.075
201.0101, 1690.724
201.4922, 1694.177
201.9743, 1692.226
202.4565, 1689.061
202.9386, 1688.108
203.4207, 1689.409
203.9028, 1691.382
204.3849, 1693.260
204.8670, 1695.324
205.3492, 1698.095
205.8313, 1702.201
206.3134, 1706.362
206.7955, 1708.949
207.2776, 1709.776
207.7597, 1709.877
208.2419, 1708.761
208.7240, 1707.507
209.2061, 1707.289
209.6882, 1708.658
210.1703, 1710.845
210.6524, 1712.675
211.1346, 1714.257
211.6167, 1715.088
212.0988, 1714.336
212.5809, 1713.120
213.0630, 1712.625
213.5451, 1713.410
214.0273, 1714.787
214.5094, 1715.073
214.9915, 1713.250
215.4736, 1712.199
215.9557, 1712.678
216.4378, 1713.976
216.9200, 1715.537
217.4021, 1717.130
217.8842, 1718.621
218.3663, 1719.611
218.8484, 1719.886
219.3305, 1719.905
219.8127, 1719.323
220.2948, 1718.701
220.7769, 1718.694
221.2590, 1719.604
221.7411, 1721.105
222.2232, 1722.219
222.7054, 1721.810
223.1875, 1722.428
223.6696, 1724.733
224.1517, 1727.948
224.6338, 1731.311
225.1159, 1734.497
225.5980, 1737.423
226.0802, 1739.835
226.5623, 1741.678
227.0444, 1743.025
227.5265, 1743.057
228.0086, 1742.826
228.4907, 1744.012
228.9729, 1747.407
229.4550, 1751.808
229.9371, 1753.931
230.4192, 1751.787
230.9013, 1750.620
231.3834, 1751.724
231.8656, 1754.173
232.3477, 1756.863
232.8298, 1759.503
233.3119, 1761.674
233.7940, 1762.019
234.2761, 1759.310
234.7583, 1758.104
235.2404, 1760.642
235.7225, 1765.250
236.2046, 1769.107
236.6867, 1771.324
237.1688, 1772.389
237.6510, 1773.361
238.1331, 1774.650
238.6152, 1774.280
239.0973, 1770.836
239.5794, 1765.294
240.0615, 1759.195
240.5437, 1752.079
241.0258, 1746.356
241.5079, 1746.309
241.9900, 1751.856
242.4721, 1756.377
242.9542, 1756.398
243.4364, 1753.309
243.9185, 1750.291
244.4006, 1747.274
244.8827, 1745.837
245.3648, 1748.222
245.8469, 1753.917
246.3290, 1759.394
246.8112, 1763.169
247.2933, 1765.416
247.7754, 1766.593
248.2575, 1766.352
248.7396, 1765.650
249.2217, 1764.910
249.7039, 1764.262
250.1860, 1764.235
250.6681, 1765.792
251.1502, 1768.314
251.6323, 1769.412
252.1144, 1768.347
252.5966, 1766.823
253.0787, 1765.718
253.5608, 1764.970
254.0429, 1764.410
254.5250, 1763.592
255.0071, 1762.873
255.4893, 1763.764
255.9714, 1766.999
256.4535, 1770.794
256.9356, 1774.777
257.4177, 1778.627
257.8998, 1781.699
258.3820, 1783.167
258.8641, 1783.807
259.3462, 1786.630
259.8283, 1793.506
260.3104, 1799.488
260.7925, 1802.263
261.2747, 1803.558
261.7568, 1805.845
262.2389, 1810.664
262.7210, 1816.688
263.2031, 1819.827
263.6852, 1817.771
264.1674, 1816.725
264.6495, 1818.320
265.1316, 1821.426
265.6137, 1825.163
266.0958, 1829.221
266.5779, 1833.073
267.0601, 1835.382
267.5422, 1835.517
268.0243, 1835.095
268.5064, 1834.385
268.9885, 1833.336
269.4706, 1831.673
269.9528, 1829.335
270.4349, 1826.925
270.9170, 1825.671
271.3991, 1826.312
271.8812, 1826.715
272.3633, 1827.261
272.8455, 1827.233
273.3276, 1825.650
273.8097, 1822.452
274.2918, 1818.905
274.7739, 1817.014
275.2560, 1817.745
275.7382, 1818.132
276.2202, 1817.892
276.7024, 1817.580
277.1845, 1817.675
277.6666, 1818.163
278.1487, 1818.547
278.6308, 1818.140
279.1129, 1816.514
279.5951, 1815.576
280.0772, 1815.747
280.5593, 1816.095
281.0414, 1816.268
281.5235, 1816.175
282.0056, 1815.773
282.4878, 1814.962
282.9699, 1813.622
283.4520, 1812.754
283.9341, 1812.971
284.4162, 1813.014
284.8983, 1811.660
285.3805, 1809.608
285.8626, 1808.883
286.3447, 1811.327
286.8268, 1816.846
287.3089, 1819.818
287.7910, 1817.184
288.2732, 1815.506
288.7553, 1817.104
289.2374, 1821.007
289.7195, 1825.386
290.2016, 1829.244
290.6837, 1832.448
291.1659, 1834.259
291.6480, 1833.590
292.1301, 1832.777
292.6122, 1832.010
293.0943, 1831.357
293.5764, 1830.754
294.0586, 1830.149
294.5407, 1829.819
295.0228, 1830.523
295.5049, 1833.189
295.9870, 1835.828
296.4691, 1838.538
296.9513, 1841.125
297.4334, 1843.186
297.9155, 1844.615
298.3976, 1846.047
298.8797, 1848.629
299.3618, 1853.832
299.8440, 1857.339
300.3261, 1857.625
300.8082, 1857.185
301.2903, 1858.014
301.7724, 1860.479
302.2545, 1863.697
302.7367, 1866.595
303.2188, 1868.820
303.7009, 1872.257
304.1830, 1877.454
304.6651, 1883.281
305.1472, 1889.722
305.6294, 1896.372
306.1115, 1901.811
306.5936, 1904.499
307.0757, 1904.198
307.5578, 1906.254
308.0399, 1913.619
308.5221, 1920.002
309.0042, 1922.450
309.4863, 1921.635
309.9684, 1919.404
310.4505, 1916.699
310.9326, 1913.764
311.4148, 1912.465
311.8969, 1914.705
312.3790, 1916.128
312.8611, 1915.060
313.3432, 1912.621
313.8253, 1910.824
314.3075, 1910.664
314.7896, 1911.195
315.2717, 1909.931
315.7538, 1905.235
316.2359, 1901.103
316.7180, 1897.900
317.2001, 1895.392
317.6823, 1893.354
318.1644, 1891.707
318.6465, 1890.469
319.1286, 1889.630
319.6107, 1889.079
320.0928, 1889.388
320.5750, 1891.840
321.0571, 1894.226
321.5392, 1894.403
322.0213, 1892.364
322.5034, 1890.175
322.9855, 1890.083
323.4677, 1892.593
323.9498, 1893.202
324.4319, 1890.466
324.9140, 1887.464
325.3961, 1886.061
325.8782, 1885.804
326.3604, 1884.754
326.8425, 1881.286
327.3246, 1875.830
327.8067, 1873.260
328.2888, 1876.916
328.7709, 1879.280
329.2531, 1877.555
329.7352, 1873.453
330.2173, 1869.693
330.6994, 1867.545
331.1815, 1866.696
331.6636, 1866.299
332.1458, 1867.619
332.6279, 1867.810
333.1100, 1865.206
333.5921, 1862.218
334.0742, 1861.529
334.5563, 1863.795
335.0385, 1867.271
335.5206, 1869.422
336.0027, 1869.633
336.4848, 1869.971
336.9669, 1870.938
337.4490, 1871.620
337.9312, 1871.060
338.4133, 1869.451
338.8954, 1868.030
339.3775, 1868.050
339.8596, 1869.696
340.3417, 1870.375
340.8239, 1869.174
341.3060, 1868.078
341.7881, 1868.095
342.2702, 1868.736
342.7523, 1868.775
343.2344, 1867.355
343.7166, 1864.984
344.1987, 1864.160
344.6808, 1867.516
345.1629, 1869.445
345.6450, 1868.067
346.1271, 1865.563
346.6093, 1864.562
347.0914, 1865.991
347.5735, 1868.531
348.0556, 1869.669
348.5377, 1868.692
349.0198, 1867.524
349.5020, 1865.896
349.9841, 1864.331
350.4662, 1862.947
350.9483, 1861.914
351.4304, 1861.696
351.9125, 1863.050
352.3947, 1866.415
352.8768, 1868.413
353.3589, 1868.595
353.8410, 1867.877
354.3231, 1865.074
354.8052, 1861.623
355.2874, 1860.583
355.7695, 1864.481
356.2516, 1872.033
356.7337, 1875.868
357.2158, 1872.650
357.6979, 1870.037
358.1800, 1870.083
358.6621, 1871.132
359.1443, 1870.990
359.6264, 1868.827
360.1085, 1866.295
360.5906, 1866.625
361.0727, 1871.173
361.5548, 1875.093
362.0370, 1878.660
362.5191, 1880.941
363.0012, 1880.648
363.4833, 1878.041
363.9654, 1875.135
364.4475, 1873.914
364.9297, 1874.455
365.4118, 1875.345
365.8939, 1877.014
366.3760, 1878.550
366.8581, 1879.159
367.3402, 1879.368
367.8224, 1880.352
368.3045, 1883.100
368.7866, 1886.832
369.2687, 1889.338
369.7508, 1890.590
370.2329, 1890.561
370.7151, 1888.328
371.1972, 1885.375
371.6793, 1883.084
372.1614, 1881.882
372.6435, 1881.308
373.1256, 1880.818
373.6078, 1880.398
374.0899, 1880.378
374.5720, 1881.218
375.0541, 1882.149
375.5362, 1882.655
376.0183, 1882.728
376.5005, 1882.529
376.9826, 1881.681
377.4647, 1880.568
377.9468, 1880.798
378.4289, 1882.988
378.9110, 1885.345
379.3932, 1886.788
379.8753, 1887.525
380.3574, 1887.854
380.8395, 1887.679
381.3216, 1887.303
381.8037, 1887.105
382.2859, 1887.088
382.7680, 1887.006
383.2501, 1886.498
383.7322, 1886.073
384.2143, 1886.512
384.6964, 1888.008
385.1786, 1889.767
385.6607, 1891.660
386.1428, 1893.480
386.6249, 1894.482
387.1070, 1894.237
387.5891, 1893.896
388.0713, 1895.487
388.5534, 1898.794
389.0355, 1900.255
389.5176, 1897.062
389.9997, 1893.001
390.4818, 1891.990
390.9640, 1894.137
391.4461, 1897.165
391.9282, 1899.701
392.4103, 1901.825
392.8924, 1904.061
393.3745, 1907.140
393.8567, 1909.512
394.3388, 1910.267
394.8209, 1909.901
395.3030, 1909.207
395.7851, 1908.402
396.2672, 1907.792
396.7494, 1908.001
397.2315, 1909.593
397.7136, 1910.614
398.1957, 1909.843
398.6778, 1909.227
399.1599, 1910.795
399.6420, 1914.472
400.1241, 1918.435
400.6063, 1921.209
401.0884, 1922.815
401.5705, 1922.754
402.0526, 1918.954
402.5347, 1916.049
403.0168, 1915.643
403.4990, 1917.053
403.9811, 1919.295
404.4632, 1921.912
404.9453, 1924.615
405.4274, 1926.698
405.9095, 1928.268
406.3917, 1928.945
406.8738, 1927.806
407.3559, 1926.544
407.8380, 1926.393
408.3201, 1927.458
408.8022, 1929.016
409.2844, 1930.362
409.7665, 1931.454
410.2486, 1932.810
410.7307, 1934.783
411.2128, 1936.603
411.6949, 1938.048
412.1771, 1939.171
412.6592, 1939.968
413.1413, 1940.336
413.6234, 1940.710
414.1055, 1942.190
414.5876, 1945.250
415.0698, 1947.994
415.5519, 1949.610
416.0340, 1950.998
416.5161, 1952.543
416.9982, 1954.368
417.4803, 1956.843
417.9625, 1960.794
418.4446, 1965.904
418.9267, 1969.953
419.4088, 1972.296
419.8909, 1974.423
420.3730, 1977.241
420.8552, 1980.535
421.3373, 1983.899
421.8194, 1987.338
422.3015, 1990.630
422.7836, 1992.978
423.2657, 1994.405
423.7479, 1997.434
424.2300, 2004.101
424.7121, 2011.990
425.1942, 2016.934
425.6763, 2018.157
426.1584, 2020.451
426.6406, 2027.652
427.1227, 2036.768
427.6048, 2041.818
428.0869, 2041.547
428.5690, 2041.363
429.0511, 2046.722
429.5333, 2057.672
430.0154, 2066.024
430.4975, 2070.094
430.9796, 2073.126
431.4617, 2076.946
431.9438, 2081.162
432.4260, 2084.505
432.9081, 2086.268
433.3902, 2087.138
433.8723, 2088.678
434.3544, 2090.261
434.8365, 2093.676
435.3187, 2100.455
435.8008, 2108.094
436.2829, 2114.490
436.7650, 2119.446
437.2471, 2123.974
437.7292, 2128.911
438.2114, 2134.264
438.6935, 2140.509
439.1756, 2149.352
439.6577, 2157.226
440.1398, 2162.599
440.6219, 2166.754
441.1040, 2171.177
441.5862, 2176.489
442.0683, 2182.799
442.5504, 2190.823
443.0325, 2202.104
443.5146, 2210.442
443.9967, 2213.512
444.4789, 2215.003
444.9610, 2216.521
445.4431, 2218.105
445.9252, 2219.184
446.4073, 2219.614
446.8894, 2219.160
447.3716, 2216.829
447.8537, 2212.310
448.3358, 2206.645
448.8179, 2199.928
449.3000, 2192.414
449.7821, 2184.123
450.2643, 2174.905
450.7464, 2165.573
451.2285, 2157.236
451.7106, 2149.518
452.1927, 2140.471
452.6748, 2129.017
453.1570, 2117.669
453.6391, 2109.826
454.1212, 2104.646
454.6033, 2098.205
455.0854, 2088.082
455.5675, 2077.486
456.0497, 2069.402
456.5318, 2063.614
457.0139, 2058.129
457.4960, 2051.870
457.9781, 2045.361
458.4602, 2040.149
458.9424, 2037.066
459.4245, 2033.330
459.9066, 2027.913
460.3887, 2021.936
460.8708, 2015.994
461.3529, 2010.430
461.8351, 2006.459
462.3172, 2005.612
462.7993, 2008.073
463.2814, 2007.846
463.7635, 2002.794
464.2456, 1997.702
464.7278, 1993.710
465.2099, 1990.372
465.6920, 1986.790
466.1741, 1982.624
466.6562, 1978.687
467.1383, 1976.614
467.6205, 1977.334
468.1026, 1976.955
468.5847, 1974.467
469.0668, 1971.643
469.5489, 1968.527
470.0310, 1965.693
470.5132, 1964.468
470.9953, 1966.057
471.4774, 1969.432
471.9595, 1972.351
472.4416, 1975.219
472.9237, 1976.133
473.4059, 1972.883
473.8880, 1968.222
474.3701, 1964.638
474.8522, 1962.454
475.3343, 1960.243
475.8164, 1956.376
476.2986, 1951.882
476.7807, 1949.326
477.2628, 1949.110
477.7449, 1950.297
478.2270, 1953.187
478.7091, 1956.983
479.1913, 1958.470
479.6734, 1955.567
480.1555, 1952.451
480.6376, 1951.359
481.1197, 1951.595
481.6018, 1951.555
482.0839, 1950.674
482.5660, 1949.938
483.0482, 1950.893
483.5303, 1954.358
484.0124, 1956.474
484.4945, 1957.051
484.9766, 1956.553
485.4587, 1954.402
485.9409, 1951.385
486.4230, 1949.321
486.9051, 1949.296
487.3872, 1950.437
487.8693, 1950.150
488.3514, 1947.377
488.8336, 1945.135
489.3157, 1943.582
489.7978, 1942.597
490.2799, 1942.071
490.7620, 1942.033
491.2441, 1942.722
491.7263, 1944.862
492.2084, 1947.866
492.6905, 1948.569
493.1726, 1945.886
493.6547, 1943.536
494.1368, 1943.115
494.6190, 1943.783
495.1011, 1945.169
495.5832, 1947.407
496.0653, 1948.779
496.5474, 1946.989
497.0295, 1943.251
497.5117, 1941.732
497.9938, 1943.600
498.4759, 1945.208
498.9580, 1942.545
499.4401, 1936.762
499.9222, 1934.123
500.4044, 1937.258
500.8865, 1941.260
501.3686, 1943.779
501.8507, 1945.318
502.3328, 1947.283
502.8149, 1950.198
503.2971, 1952.607
503.7792, 1952.245
504.2613, 1947.923
504.7434, 1945.082
505.2255, 1944.896
505.7076, 1944.881
506.1898, 1943.318
506.6719, 1941.081
507.1540, 1940.236
507.6361, 1941.921
508.1182, 1945.035
508.6003, 1947.153
509.0825, 1948.354
509.5646, 1948.340
510.0467, 1945.358
510.5288, 1942.621
511.0109, 1942.349
511.4930, 1944.017
511.9752, 1945.251
512.4573, 1944.041
512.9394, 1941.748
513.4215, 1941.835
513.9036, 1944.735
514.3857, 1947.286
514.8679, 1948.375
515.3500, 1948.398
515.8321, 1948.039
516.3142, 1947.355
516.7963, 1945.868
517.2784, 1942.211
517.7606, 1938.159
518.2427, 1936.191
518.7248, 1936.497
519.2069, 1938.176
519.6890, 1941.068
520.1711, 1944.699
520.6533, 1946.551
521.1354, 1945.673
521.6175, 1944.610
522.0996, 1943.681
522.5817, 1942.814
523.0638, 1941.771
523.5460, 1940.620
524.0281, 1939.857
524.5102, 1939.954
524.9923, 1940.899
525.4744, 1942.426
525.9565, 1945.685
526.4387, 1947.968
526.9208, 1947.932
527.4029, 1947.126
527.8850, 1947.488
528.3671, 1949.422
528.8492, 1951.093
529.3314, 1950.081
529.8135, 1946.750
530.2956, 1944.814
530.7777, 1945.200
531.2598, 1945.504
531.7419, 1943.300
532.2241, 1940.229
532.7062, 1939.023
533.1883, 1940.567
533.6704, 1943.261
534.1525, 1947.479
534.6346, 1951.895
535.1168, 1952.553
535.5989, 1948.228
536.0810, 1943.667
536.5631, 1944.068
537.0452, 1949.728
537.5273, 1952.716
538.0095, 1950.865
538.4916, 1949.021
538.9737, 1949.143
539.4558, 1950.342
539.9379, 1951.520
540.4200, 1952.227
540.9022, 1951.999
541.3843, 1949.801
541.8664, 1944.930
542.3485, 1942.104
542.8306, 1942.407
543.3127, 1943.762
543.7948, 1946.525
544.2769, 1949.641
544.7590, 1951.547
545.2411, 1951.621
545.7233, 1950.771
546.2054, 1949.830
546.6875, 1948.826
547.1696, 1948.240
547.6517, 1947.976
548.1339, 1948.435
548.6160, 1950.826
549.0981, 1954.306
549.5802, 1956.411
550.0623, 1955.365
550.5444, 1954.203
551.0266, 1954.987
551.5087, 1957.116
551.9908, 1959.312
552.4729, 1961.202
552.9550, 1962.873
553.4371, 1964.446
553.9193, 1965.976
554.4014, 1967.116
554.8835, 1967.934
555.3656, 1968.373
555.8477, 1968.182
556.3298, 1967.687
556.8120, 1966.993
557.2941, 1966.209
557.7762, 1966.289
558.2583, 1969.168
558.7404, 1975.362
559.2225, 1979.849
559.7047, 1981.472
560.1868, 1982.601
560.6689, 1984.023
561.1510, 1985.823
561.6331, 1988.322
562.1152, 1991.927
562.5974, 1995.319
563.0795, 1997.195
563.5616, 1997.826
564.0437, 1997.866
564.5258, 1997.147
565.0079, 1997.304
565.4901, 2000.355
565.9722, 2006.115
566.4543, 2010.152
566.9364, 2010.559
567.4185, 2011.455
567.9006, 2014.795
568.3828, 2019.444
568.8649, 2023.829
569.3470, 2027.509
569.8291, 2031.001
570.3112, 2034.673
570.7933, 2038.466
571.2755, 2043.826
571.7576, 2051.137
572.2397, 2059.698
572.7218, 2069.197
573.2039, 2079.884
573.6860, 2091.817
574.1682, 2105.083
574.6503, 2120.349
575.1324, 2137.931
575.6145, 2157.987
576.0966, 2181.919
576.5787, 2210.668
577.0609, 2239.846
577.5430, 2266.845
578.0251, 2292.124
578.5072, 2317.495
578.9893, 2345.610
579.4714, 2367.895
579.9536, 2384.417
580.4357, 2391.577
580.9178, 2383.299
581.3999, 2359.937
581.8820, 2327.841
582.3641, 2290.600
582.8463, 2249.768
583.3284, 2213.987
583.8105, 2184.018
584.2926, 2158.351
584.7747, 2137.290
585.2568, 2119.789
585.7390, 2105.185
586.2211, 2093.349
586.7032, 2084.454
587.1853, 2079.210
587.6674, 2076.562
588.1495, 2073.953
588.6317, 2071.456
589.1138, 2068.436
589.5959, 2063.978
590.0780, 2059.576
590.5601, 2057.360
591.0422, 2057.275
591.5244, 2056.442
592.0065, 2053.475
592.4886, 2049.783
592.9707, 2046.570
593.4528, 2043.759
593.9349, 2040.686
594.4171, 2036.989
594.8992, 2033.484
595.3813, 2031.632
595.8634, 2031.879
596.3455, 2032.504
596.8276, 2033.789
597.3098, 2035.082
597.7919, 2035.763
598.2740, 2036.354
598.7561, 2037.467
599.2382, 2039.312
599.7203, 2042.599
600.2025, 2048.887
600.6846, 2058.107
601.1667, 2066.655
601.6488, 2074.006
602.1309, 2080.954
602.6130, 2087.396
603.0952, 2093.916
603.5773, 2101.913
604.0594, 2113.286
604.5415, 2122.980
605.0236, 2128.482
