##NAMES=Fluorapatite
##RRUFFID=R060070
##IDEAL CHEMISTRY=Ca_5_(PO_4_)_3_F
##LOCALITY=Panasqueira, Portugal
##OWNER=RRUFF
##SOURCE=Dave Bunk
##DESCRIPTION=Green hexagonal tablet
##STATUS=The identification of this mineral has been confirmed by X-ray diffraction and chemical analysis
##URL=rruff.info/R060070
##MEASURED CHEMISTRY=(Ca_0.99_Mn_0.01_)_5_(P_1.00_O_4_)_3_F_1.00_
93.88477, 80.37740
94.36688, 77.26030
94.84900, 78.07427
95.33112, 82.45139
95.81323, 88.65192
96.29535, 96.01344
96.77747, 104.5217
97.25958, 114.1953
97.74170, 125.1077
98.22382, 137.2098
98.70593, 150.0565
99.18805, 163.6515
99.67017, 178.7048
100.1523, 195.8504
100.6344, 215.0628
101.1165, 234.9357
101.5986, 255.1023
102.0807, 275.7789
102.5629, 296.7164
103.0450, 317.5648
103.5271, 339.7969
104.0092, 364.8538
104.4913, 394.3675
104.9734, 423.0513
105.4556, 450.3854
105.9377, 476.0934
106.4198, 501.3074
106.9019, 525.5218
107.3840, 549.4489
107.8661, 573.3598
108.3483, 596.2839
108.8304, 620.8127
109.3125, 647.5115
109.7946, 676.4876
110.2767, 707.9741
110.7588, 742.8893
111.2410, 780.3859
111.7231, 819.1444
112.2052, 859.6783
112.6873, 901.4481
113.1694, 944.5947
113.6515, 990.8838
114.1337, 1036.526
114.6158, 1081.518
115.0979, 1125.418
115.5800, 1167.845
116.0621, 1207.528
116.5442, 1246.197
117.0264, 1284.319
117.5085, 1324.228
117.9906, 1362.256
118.4727, 1396.587
118.9548, 1427.627
119.4369, 1457.964
119.9191, 1490.277
120.4012, 1522.298
120.8833, 1551.489
121.3654, 1575.483
121.8475, 1597.806
122.3296, 1619.951
122.8118, 1641.946
123.2939, 1665.158
123.7760, 1691.486
124.2581, 1719.451
124.7402, 1747.170
125.2223, 1771.401
125.7045, 1795.454
126.1866, 1822.885
126.6687, 1854.053
127.1508, 1887.734
127.6329, 1923.956
128.1150, 1961.835
128.5972, 1999.792
129.0793, 2036.040
129.5614, 2071.515
130.0435, 2107.845
130.5256, 2145.316
131.0077, 2183.418
131.4899, 2222.112
131.9720, 2261.265
132.4541, 2298.265
132.9362, 2323.224
133.4183, 2334.270
133.9004, 2342.961
134.3826, 2349.002
134.8647, 2353.363
135.3468, 2358.220
135.8289, 2363.722
136.3110, 2368.972
136.7931, 2373.190
137.2753, 2376.338
137.7574, 2379.171
138.2395, 2381.656
138.7216, 2383.878
139.2037, 2387.077
139.6858, 2391.973
140.1680, 2395.888
140.6501, 2395.012
141.1322, 2387.248
141.6143, 2382.690
142.0964, 2384.310
142.5785, 2392.304
143.0607, 2399.269
143.5428, 2405.701
144.0249, 2410.686
144.5070, 2412.727
144.9891, 2410.005
145.4712, 2407.956
145.9534, 2408.051
146.4355, 2410.472
146.9176, 2414.362
147.3997, 2420.515
147.8818, 2427.809
148.3639, 2434.439
148.8461, 2440.027
149.3282, 2445.358
149.8103, 2450.623
150.2924, 2456.114
150.7745, 2460.936
151.2566, 2464.348
151.7388, 2467.005
152.2209, 2470.572
152.7030, 2475.873
153.1851, 2481.355
153.6672, 2486.484
154.1493, 2492.417
154.6315, 2496.329
155.1136, 2496.894
155.5957, 2495.050
156.0778, 2494.244
156.5599, 2495.431
157.0420, 2497.402
157.5242, 2499.517
158.0063, 2501.557
158.4884, 2503.837
158.9705, 2507.095
159.4526, 2510.980
159.9347, 2513.424
160.4169, 2511.867
160.8990, 2509.719
161.3811, 2509.430
161.8632, 2512.816
162.3453, 2516.955
162.8274, 2521.503
163.3096, 2526.322
163.7917, 2529.880
164.2738, 2530.274
164.7559, 2529.615
165.2380, 2529.986
165.7201, 2532.646
166.2023, 2536.068
166.6844, 2539.882
167.1665, 2544.075
167.6486, 2547.646
168.1307, 2549.578
168.6128, 2550.696
169.0949, 2552.070
169.5771, 2554.378
170.0592, 2556.969
170.5413, 2559.485
171.0234, 2561.946
171.5055, 2564.051
171.9876, 2564.986
172.4698, 2565.452
172.9519, 2566.701
173.4340, 2569.957
173.9161, 2573.968
174.3982, 2577.591
174.8803, 2580.792
175.3625, 2583.455
175.8446, 2585.030
176.3267, 2585.914
176.8088, 2587.066
177.2909, 2589.484
177.7730, 2592.288
178.2552, 2593.992
178.7373, 2594.164
179.2194, 2594.334
179.7015, 2595.819
180.1836, 2598.602
180.6657, 2602.575
181.1479, 2609.453
181.6300, 2617.309
182.1121, 2622.040
182.5942, 2622.814
183.0763, 2621.285
183.5584, 2618.256
184.0406, 2614.124
184.5227, 2611.624
185.0048, 2613.843
185.4869, 2619.152
185.9690, 2622.491
186.4511, 2622.306
186.9333, 2621.329
187.4154, 2625.144
187.8975, 2633.475
188.3796, 2640.891
188.8617, 2643.069
189.3438, 2640.924
189.8260, 2638.772
190.3081, 2636.918
190.7902, 2635.868
191.2723, 2637.041
191.7544, 2640.503
192.2365, 2644.500
192.7187, 2648.020
193.2008, 2651.071
193.6829, 2653.590
194.1650, 2655.469
194.6471, 2656.972
195.1292, 2658.808
195.6114, 2661.005
196.0935, 2663.278
196.5756, 2665.174
197.0577, 2666.688
197.5398, 2668.812
198.0219, 2671.860
198.5041, 2675.536
198.9862, 2678.607
199.4683, 2680.937
199.9504, 2683.079
200.4325, 2685.732
200.9146, 2688.929
201.3968, 2691.125
201.8789, 2691.575
202.3610, 2690.776
202.8431, 2691.458
203.3252, 2694.062
203.8073, 2696.824
204.2895, 2697.961
204.7716, 2697.241
205.2537, 2697.063
205.7358, 2698.059
206.2179, 2700.117
206.7000, 2702.230
207.1822, 2704.448
207.6643, 2706.738
208.1464, 2709.371
208.6285, 2712.725
209.1106, 2714.559
209.5927, 2713.379
210.0749, 2709.708
210.5570, 2710.408
211.0391, 2716.797
211.5212, 2724.940
212.0033, 2731.081
212.4854, 2734.631
212.9676, 2738.039
213.4497, 2741.674
213.9318, 2745.535
214.4139, 2750.036
214.8960, 2755.983
215.3781, 2761.313
215.8603, 2763.539
216.3424, 2761.224
216.8245, 2760.004
217.3066, 2761.311
217.7887, 2765.133
218.2708, 2768.675
218.7529, 2771.779
219.2351, 2774.917
219.7172, 2778.756
220.1993, 2784.159
220.6814, 2788.183
221.1635, 2789.697
221.6456, 2788.677
222.1278, 2789.082
222.6099, 2791.940
223.0920, 2794.986
223.5741, 2795.481
224.0562, 2791.704
224.5383, 2789.295
225.0205, 2789.346
225.5026, 2791.869
225.9847, 2796.245
226.4668, 2803.710
226.9489, 2811.667
227.4310, 2816.979
227.9132, 2818.093
228.3953, 2820.139
228.8774, 2824.758
229.3595, 2832.152
229.8416, 2837.001
230.3237, 2838.167
230.8059, 2838.087
231.2880, 2839.237
231.7701, 2842.381
232.2522, 2845.260
232.7343, 2847.185
233.2164, 2848.105
233.6986, 2850.210
234.1807, 2854.141
234.6628, 2858.562
235.1449, 2861.968
235.6270, 2863.323
236.1091, 2865.604
236.5913, 2869.859
237.0734, 2876.126
237.5555, 2880.746
238.0376, 2883.138
238.5197, 2884.441
239.0018, 2885.700
239.4840, 2887.184
239.9661, 2888.039
240.4482, 2887.633
240.9303, 2885.994
241.4124, 2886.165
241.8945, 2888.490
242.3767, 2892.280
242.8588, 2897.231
243.3409, 2904.934
243.8230, 2910.754
244.3051, 2913.582
244.7872, 2913.503
245.2694, 2913.530
245.7515, 2913.259
246.2336, 2913.534
246.7157, 2915.284
247.1978, 2919.839
247.6799, 2923.159
248.1621, 2923.948
248.6442, 2922.543
249.1263, 2923.373
249.6084, 2927.262
250.0905, 2932.427
250.5726, 2937.827
251.0548, 2944.543
251.5369, 2949.125
252.0190, 2950.229
252.5011, 2948.407
252.9832, 2948.456
253.4653, 2950.765
253.9475, 2954.356
254.4296, 2958.742
254.9117, 2964.574
255.3938, 2969.544
255.8759, 2973.022
256.3580, 2975.304
256.8401, 2978.184
257.3223, 2981.968
257.8044, 2985.817
258.2865, 2989.250
258.7686, 2992.267
259.2507, 2994.797
259.7328, 2996.800
260.2150, 2998.347
260.6971, 2999.640
261.1792, 3000.208
261.6613, 3001.485
262.1434, 3004.636
262.6255, 3010.545
263.1077, 3015.667
263.5898, 3019.421
264.0719, 3022.379
264.5540, 3026.295
265.0361, 3031.481
265.5182, 3037.045
266.0004, 3042.850
266.4825, 3049.266
266.9646, 3054.010
267.4467, 3056.299
267.9288, 3057.120
268.4109, 3058.927
268.8931, 3061.857
269.3752, 3065.276
269.8573, 3068.895
270.3394, 3072.739
270.8215, 3076.845
271.3036, 3081.752
271.7858, 3086.389
272.2679, 3088.003
272.7500, 3085.879
273.2321, 3083.479
273.7142, 3082.386
274.1964, 3082.786
274.6785, 3083.098
275.1606, 3083.045
275.6427, 3083.423
276.1248, 3085.975
276.6069, 3091.257
277.0891, 3096.097
277.5712, 3099.005
278.0533, 3099.958
278.5354, 3101.506
279.0175, 3103.638
279.4996, 3106.343
279.9818, 3110.159
280.4639, 3115.309
280.9460, 3118.839
281.4281, 3118.398
281.9102, 3114.693
282.3923, 3116.031
282.8745, 3123.409
283.3566, 3132.480
283.8387, 3138.580
284.3208, 3141.690
284.8029, 3143.067
285.2850, 3142.498
285.7672, 3140.548
286.2493, 3139.536
286.7314, 3139.452
287.2135, 3140.477
287.6956, 3143.037
288.1777, 3147.094
288.6599, 3151.716
289.1420, 3157.173
289.6241, 3162.836
290.1062, 3166.439
290.5883, 3167.855
291.0704, 3169.361
291.5526, 3173.812
292.0347, 3180.465
292.5168, 3184.719
292.9989, 3184.798
293.4810, 3183.020
293.9631, 3183.633
294.4453, 3186.555
294.9274, 3190.839
295.4095, 3197.472
295.8916, 3205.053
296.3737, 3208.514
296.8558, 3205.711
297.3380, 3201.160
297.8201, 3201.916
298.3022, 3207.265
298.7843, 3212.597
299.2664, 3215.156
299.7485, 3215.773
300.2307, 3216.112
300.7128, 3216.426
301.1949, 3216.561
301.6770, 3216.357
302.1591, 3215.903
302.6412, 3215.349
303.1234, 3213.515
303.6055, 3212.155
304.0876, 3214.517
304.5697, 3221.204
305.0518, 3228.274
305.5339, 3231.870
306.0161, 3233.114
306.4982, 3234.266
306.9803, 3235.505
307.4624, 3237.531
307.9445, 3241.594
308.4266, 3247.697
308.9088, 3253.431
309.3909, 3256.848
309.8730, 3258.825
310.3551, 3260.673
310.8372, 3262.061
311.3193, 3264.089
311.8015, 3268.302
312.2836, 3274.444
312.7657, 3279.701
313.2478, 3282.290
313.7299, 3283.351
314.2120, 3283.958
314.6942, 3283.766
315.1763, 3283.995
315.6584, 3285.794
316.1405, 3288.743
316.6226, 3291.106
317.1047, 3291.747
317.5869, 3291.782
318.0690, 3291.823
318.5511, 3291.353
319.0332, 3292.046
319.5153, 3295.001
319.9974, 3299.569
320.4796, 3304.241
320.9617, 3310.129
321.4438, 3314.777
321.9259, 3316.426
322.4080, 3313.435
322.8901, 3311.806
323.3723, 3313.802
323.8544, 3317.763
324.3365, 3321.334
324.8186, 3324.740
325.3007, 3327.125
325.7828, 3327.909
326.2650, 3326.754
326.7471, 3326.134
327.2292, 3325.651
327.7113, 3326.148
328.1934, 3328.431
328.6755, 3334.190
329.1577, 3339.985
329.6398, 3345.852
330.1219, 3351.787
330.6040, 3355.446
331.0861, 3354.148
331.5682, 3352.556
332.0504, 3353.791
332.5325, 3359.975
333.0146, 3365.478
333.4967, 3370.092
333.9788, 3373.719
334.4609, 3375.831
334.9431, 3375.640
335.4252, 3375.050
335.9073, 3375.052
336.3894, 3375.944
336.8715, 3376.752
337.3536, 3377.446
337.8358, 3378.179
338.3179, 3379.313
338.8000, 3381.062
339.2821, 3382.849
339.7642, 3384.278
340.2463, 3385.236
340.7285, 3387.608
341.2105, 3391.739
341.6927, 3396.620
342.1748, 3400.687
342.6569, 3403.790
343.1390, 3407.352
343.6211, 3412.166
344.1032, 3417.794
344.5854, 3420.965
345.0675, 3421.097
345.5496, 3421.245
346.0317, 3425.053
346.5138, 3432.083
346.9959, 3437.306
347.4781, 3439.129
347.9602, 3439.000
348.4423, 3440.113
348.9244, 3442.460
349.4065, 3445.257
349.8886, 3449.102
350.3708, 3453.147
350.8529, 3454.016
351.3350, 3450.365
351.8171, 3446.327
352.2992, 3448.012
352.7813, 3454.265
353.2635, 3460.570
353.7456, 3464.913
354.2277, 3467.787
354.7098, 3469.413
355.1919, 3469.624
355.6740, 3470.220
356.1562, 3472.953
356.6383, 3477.045
357.1204, 3481.207
357.6025, 3485.118
358.0846, 3488.630
358.5667, 3491.694
359.0489, 3494.279
359.5310, 3496.109
360.0131, 3495.571
360.4952, 3494.819
360.9773, 3496.240
361.4594, 3503.437
361.9416, 3509.225
362.4237, 3508.857
362.9058, 3504.174
363.3879, 3500.945
363.8700, 3503.017
364.3521, 3506.000
364.8343, 3507.175
365.3164, 3505.103
365.7985, 3503.879
366.2806, 3504.834
366.7627, 3507.193
367.2448, 3509.684
367.7270, 3512.484
368.2091, 3515.108
368.6912, 3517.410
369.1733, 3519.331
369.6554, 3521.233
370.1375, 3523.300
370.6197, 3525.258
371.1018, 3526.917
371.5839, 3528.687
372.0660, 3529.438
372.5481, 3528.084
373.0302, 3525.117
373.5124, 3524.634
373.9945, 3527.766
374.4766, 3531.736
374.9587, 3535.048
375.4408, 3537.630
375.9229, 3539.675
376.4051, 3541.143
376.8872, 3542.170
377.3693, 3542.741
377.8514, 3542.483
378.3335, 3543.393
378.8156, 3546.776
379.2978, 3552.755
379.7799, 3557.959
380.2620, 3562.398
380.7441, 3566.353
381.2262, 3570.386
381.7083, 3574.453
382.1905, 3577.440
382.6726, 3578.402
383.1547, 3578.264
383.6368, 3579.509
384.1189, 3582.105
384.6010, 3585.559
385.0832, 3590.322
385.5653, 3595.601
386.0474, 3598.897
386.5295, 3598.846
387.0116, 3598.547
387.4937, 3602.896
387.9759, 3610.682
388.4580, 3617.510
388.9401, 3620.534
389.4222, 3621.476
389.9043, 3621.927
390.3864, 3621.927
390.8686, 3622.625
391.3507, 3625.725
391.8328, 3629.913
392.3149, 3633.239
392.7970, 3633.486
393.2791, 3633.890
393.7613, 3636.814
394.2434, 3641.925
394.7255, 3646.309
395.2076, 3648.099
395.6897, 3649.074
396.1718, 3650.553
396.6540, 3653.342
397.1361, 3655.781
397.6182, 3656.984
398.1003, 3657.533
398.5824, 3658.769
399.0645, 3661.564
399.5467, 3664.440
400.0288, 3666.882
400.5109, 3668.743
400.9930, 3670.549
401.4751, 3672.735
401.9572, 3674.624
402.4394, 3675.420
402.9215, 3673.958
403.4036, 3673.402
403.8857, 3674.403
404.3678, 3676.880
404.8499, 3679.757
405.3321, 3683.219
405.8142, 3686.909
406.2963, 3690.564
406.7784, 3694.183
407.2605, 3698.253
407.7426, 3703.386
408.2248, 3708.212
408.7069, 3709.164
409.1890, 3705.785
409.6711, 3703.568
410.1532, 3705.505
410.6353, 3710.714
411.1175, 3714.494
411.5996, 3716.685
412.0817, 3718.042
412.5638, 3718.348
413.0459, 3718.231
413.5280, 3720.299
414.0102, 3726.284
414.4923, 3733.505
414.9744, 3738.458
415.4565, 3741.388
415.9386, 3743.352
416.4207, 3744.460
416.9029, 3745.330
417.3850, 3746.645
417.8671, 3748.504
418.3492, 3751.009
418.8313, 3754.027
419.3134, 3757.791
419.7956, 3762.707
420.2777, 3770.790
420.7598, 3778.439
421.2419, 3783.400
421.7240, 3785.697
422.2061, 3788.312
422.6883, 3792.772
423.1704, 3797.496
423.6525, 3801.383
424.1346, 3803.018
424.6167, 3805.248
425.0988, 3808.680
425.5810, 3812.906
426.0631, 3817.014
426.5452, 3822.031
427.0273, 3825.793
427.5094, 3827.374
427.9915, 3826.198
428.4737, 3825.869
428.9558, 3826.245
429.4379, 3827.789
429.9200, 3831.550
430.4021, 3839.045
430.8842, 3844.252
431.3664, 3845.356
431.8485, 3843.659
432.3306, 3844.776
432.8127, 3849.519
433.2948, 3853.352
433.7769, 3852.464
434.2591, 3847.249
434.7412, 3844.115
435.2233, 3843.562
435.7054, 3844.372
436.1875, 3845.087
436.6696, 3845.718
437.1518, 3846.590
437.6339, 3847.885
438.1160, 3849.392
438.5981, 3850.690
439.0802, 3851.806
439.5623, 3853.165
440.0444, 3855.392
440.5266, 3857.980
441.0087, 3860.329
441.4908, 3862.397
441.9729, 3864.175
442.4550, 3865.424
442.9371, 3866.444
443.4193, 3867.788
443.9014, 3869.949
444.3835, 3872.300
444.8656, 3874.504
445.3477, 3876.540
445.8298, 3878.575
446.3120, 3881.668
446.7941, 3884.193
447.2762, 3884.851
447.7583, 3880.211
448.2404, 3877.547
448.7225, 3878.135
449.2047, 3881.164
449.6868, 3884.445
450.1689, 3888.955
450.6510, 3892.437
451.1331, 3893.525
451.6152, 3891.438
452.0974, 3892.277
452.5795, 3897.610
453.0616, 3903.663
453.5437, 3906.165
454.0258, 3904.524
454.5079, 3903.199
454.9901, 3902.954
455.4722, 3903.635
455.9543, 3905.232
456.4364, 3907.758
456.9185, 3909.741
457.4006, 3909.668
457.8828, 3908.237
458.3649, 3907.697
458.8470, 3908.163
459.3291, 3909.570
459.8112, 3912.130
460.2933, 3915.589
460.7755, 3919.463
461.2576, 3925.590
461.7397, 3930.402
462.2218, 3929.220
462.7039, 3923.295
463.1860, 3918.357
463.6682, 3918.363
464.1503, 3920.096
464.6324, 3920.735
465.1145, 3918.997
465.5966, 3919.053
466.0787, 3924.643
466.5609, 3932.138
467.0430, 3936.792
467.5251, 3935.292
468.0072, 3933.352
468.4893, 3931.136
468.9714, 3928.839
469.4536, 3930.029
469.9357, 3936.755
470.4178, 3944.697
470.8999, 3951.841
471.3820, 3958.858
471.8641, 3962.938
472.3463, 3962.696
472.8284, 3960.977
473.3105, 3962.769
473.7926, 3968.917
474.2747, 3973.641
474.7568, 3974.849
475.2390, 3973.315
475.7211, 3971.542
476.2032, 3969.380
476.6853, 3969.051
477.1674, 3973.748
477.6495, 3981.695
478.1317, 3987.578
478.6138, 3990.578
479.0959, 3991.841
479.5780, 3991.497
480.0601, 3990.365
480.5422, 3990.372
481.0244, 3994.139
481.5065, 3998.116
481.9886, 3998.530
482.4707, 3995.949
482.9528, 3994.972
483.4349, 4000.198
483.9171, 4006.431
484.3992, 4009.426
484.8813, 4006.204
485.3634, 4004.775
485.8455, 4008.652
486.3276, 4014.973
486.8098, 4019.444
487.2919, 4019.636
487.7740, 4020.160
488.2561, 4021.911
488.7382, 4024.798
489.2203, 4027.452
489.7025, 4030.043
490.1846, 4032.027
490.6667, 4032.714
491.1488, 4031.585
491.6309, 4032.082
492.1130, 4034.940
492.5952, 4038.425
493.0773, 4039.711
493.5594, 4038.835
494.0415, 4038.449
494.5236, 4039.809
495.0057, 4042.068
495.4879, 4043.042
495.9700, 4042.832
496.4521, 4042.796
496.9342, 4043.216
497.4163, 4044.669
497.8984, 4048.835
498.3806, 4056.739
498.8627, 4063.447
499.3448, 4063.759
499.8269, 4060.849
500.3090, 4059.484
500.7911, 4062.682
501.2733, 4066.521
501.7554, 4070.070
502.2375, 4073.069
502.7196, 4074.431
503.2017, 4071.924
503.6838, 4069.269
504.1660, 4068.152
504.6481, 4068.548
505.1302, 4070.714
505.6123, 4076.203
506.0944, 4082.281
506.5765, 4085.729
507.0587, 4085.550
507.5408, 4085.284
508.0229, 4085.361
508.5050, 4085.869
508.9871, 4087.386
509.4692, 4090.160
509.9514, 4092.515
510.4335, 4093.110
510.9156, 4092.404
511.3977, 4092.996
511.8798, 4095.092
512.3619, 4097.443
512.8441, 4098.301
513.3262, 4098.514
513.8083, 4100.157
514.2904, 4104.479
514.7725, 4109.197
515.2546, 4112.377
515.7368, 4114.226
516.2189, 4115.400
516.7010, 4113.691
517.1831, 4113.322
517.6652, 4118.508
518.1473, 4129.754
518.6295, 4137.078
519.1116, 4133.968
519.5937, 4128.166
520.0758, 4125.217
520.5579, 4128.071
521.0400, 4130.544
521.5222, 4132.073
522.0043, 4133.514
522.4864, 4136.754
522.9685, 4143.289
523.4506, 4148.412
523.9327, 4150.613
524.4149, 4150.281
524.8970, 4149.229
525.3791, 4147.166
525.8612, 4146.085
526.3433, 4148.529
526.8254, 4153.614
527.3076, 4155.654
527.7897, 4153.377
528.2718, 4151.182
528.7539, 4154.466
529.2360, 4161.721
529.7181, 4169.646
530.2003, 4179.255
530.6824, 4186.663
531.1645, 4186.600
531.6466, 4180.978
532.1287, 4176.886
532.6108, 4179.188
533.0930, 4182.858
533.5751, 4185.104
534.0572, 4185.484
534.5393, 4185.321
535.0214, 4183.822
535.5035, 4182.562
535.9857, 4182.972
536.4678, 4186.221
536.9499, 4189.416
537.4320, 4192.511
537.9141, 4195.396
538.3962, 4197.618
538.8784, 4198.926
539.3605, 4200.281
539.8426, 4201.716
540.3247, 4203.386
540.8068, 4206.725
541.2889, 4211.848
541.7711, 4217.077
542.2532, 4221.239
542.7353, 4224.388
543.2174, 4226.600
543.6995, 4227.845
544.1816, 4228.487
544.6638, 4228.974
545.1459, 4229.138
545.6280, 4228.639
546.1101, 4226.149
546.5922, 4224.048
547.0743, 4223.037
547.5565, 4223.364
548.0386, 4226.041
548.5207, 4235.925
549.0028, 4244.316
549.4849, 4246.094
549.9670, 4238.474
550.4492, 4234.301
550.9313, 4235.022
551.4134, 4238.233
551.8955, 4242.429
552.3776, 4248.402
552.8597, 4253.354
553.3419, 4257.447
553.8240, 4260.107
554.3061, 4259.119
554.7882, 4254.181
555.2703, 4250.931
555.7524, 4252.473
556.2346, 4256.889
556.7167, 4258.946
557.1988, 4258.816
557.6809, 4258.909
558.1630, 4261.104
558.6451, 4264.503
559.1273, 4268.090
559.6094, 4271.886
560.0915, 4274.837
560.5736, 4275.356
561.0557, 4274.991
561.5378, 4275.537
562.0200, 4278.320
562.5021, 4281.139
562.9842, 4283.576
563.4663, 4285.628
563.9484, 4287.370
564.4305, 4288.883
564.9127, 4289.970
565.3948, 4290.306
565.8769, 4289.883
566.3590, 4290.758
566.8411, 4293.668
567.3232, 4296.308
567.8054, 4296.767
568.2875, 4295.076
568.7696, 4293.919
569.2517, 4293.417
569.7338, 4293.849
570.2159, 4295.964
570.6981, 4299.383
571.1802, 4303.008
571.6623, 4307.013
572.1444, 4310.434
572.6265, 4311.415
573.1086, 4310.845
573.5908, 4311.498
574.0729, 4316.306
574.5550, 4321.476
575.0371, 4323.528
575.5192, 4322.011
576.0013, 4324.291
576.4835, 4336.048
576.9656, 4349.255
577.4477, 4358.902
577.9298, 4363.588
578.4119, 4366.833
578.8940, 4367.553
579.3762, 4367.662
579.8583, 4370.405
580.3404, 4376.696
580.8225, 4380.521
581.3046, 4379.627
581.7867, 4376.201
582.2689, 4375.612
582.7510, 4377.802
583.2331, 4381.774
583.7152, 4389.309
584.1973, 4397.434
584.6794, 4400.190
585.1616, 4397.675
585.6437, 4394.925
586.1258, 4395.288
586.6079, 4397.193
587.0900, 4399.268
587.5721, 4401.481
588.0542, 4403.346
588.5363, 4402.974
589.0184, 4402.813
589.5005, 4405.951
589.9827, 4419.823
590.4648, 4428.035
590.9469, 4426.230
