##NAMES=Fluornatromicrolite
##RRUFFID=R130021
##IDEAL CHEMISTRY=(Na_1.5_Bi^3+^_0.5_)Ta^5+^_2_O_6_F
##LOCALITY=Fisher’s Ledge, Topsham, Maine, USA.
##OWNER=RRUFF
##SOURCE=Royal Ontario Museum
##DESCRIPTION=Transparent green octahedra on albite
##STATUS=The identification of this mineral is confirmed by single-crystal X-ray diffraction and chemical analysis.
##URL=rruff.info/R130021
##MEASURED CHEMISTRY=(Na_1.01_Ca_0.94_Bi_0.02_Mn_0.01_)_Σ=1.99_(Ta_1.96_Nb_0.02_Sb_0.01_Sn_0.01_)_Σ=2_O_6_[F_0.85_(OH)_0.11_]_Σ=0.96_
8.936163e+001, 0.000000e+000
8.984375e+001, 1.530056e+002
9.032587e+001, 1.542234e+002
9.080798e+001, 1.544968e+002
9.129010e+001, 1.535827e+002
9.177222e+001, 1.520016e+002
9.225433e+001, 1.502381e+002
9.273645e+001, 1.483019e+002
9.321857e+001, 1.463726e+002
9.370068e+001, 1.447297e+002
9.418280e+001, 1.432549e+002
9.466492e+001, 1.415703e+002
9.514703e+001, 1.393611e+002
9.562915e+001, 1.368969e+002
9.611127e+001, 1.349260e+002
9.659338e+001, 1.335180e+002
9.707550e+001, 1.323183e+002
9.755762e+001, 1.308538e+002
9.803973e+001, 1.291113e+002
9.852185e+001, 1.274828e+002
9.900397e+001, 1.260244e+002
9.948608e+001, 1.247260e+002
9.996820e+001, 1.240107e+002
1.004503e+002, 1.240887e+002
1.009324e+002, 1.244995e+002
1.014146e+002, 1.243047e+002
1.018967e+002, 1.234239e+002
1.023788e+002, 1.221630e+002
1.028609e+002, 1.205682e+002
1.033430e+002, 1.184738e+002
1.038251e+002, 1.166226e+002
1.043073e+002, 1.150931e+002
1.047894e+002, 1.138578e+002
1.052715e+002, 1.127766e+002
1.057536e+002, 1.118234e+002
1.062357e+002, 1.110419e+002
1.067178e+002, 1.104869e+002
1.072000e+002, 1.105340e+002
1.076821e+002, 1.102672e+002
1.081642e+002, 1.095090e+002
1.086463e+002, 1.082270e+002
1.091284e+002, 1.069023e+002
1.096105e+002, 1.053805e+002
1.100927e+002, 1.038806e+002
1.105748e+002, 1.026224e+002
1.110569e+002, 1.018796e+002
1.115390e+002, 1.011240e+002
1.120211e+002, 1.002179e+002
1.125032e+002, 9.909105e+001
1.129854e+002, 9.805418e+001
1.134675e+002, 9.724943e+001
1.139496e+002, 9.654455e+001
1.144317e+002, 9.573588e+001
1.149138e+002, 9.456013e+001
1.153959e+002, 9.343821e+001
1.158781e+002, 9.260457e+001
1.163602e+002, 9.225851e+001
1.168423e+002, 9.183303e+001
1.173244e+002, 9.101768e+001
1.178065e+002, 8.995415e+001
1.182886e+002, 8.900311e+001
1.187708e+002, 8.839600e+001
1.192529e+002, 8.791994e+001
1.197350e+002, 8.742729e+001
1.202171e+002, 8.694283e+001
1.206992e+002, 8.635336e+001
1.211813e+002, 8.552468e+001
1.216635e+002, 8.449468e+001
1.221456e+002, 8.349128e+001
1.226277e+002, 8.257764e+001
1.231098e+002, 8.179330e+001
1.235919e+002, 8.119551e+001
1.240740e+002, 8.101167e+001
1.245562e+002, 8.089645e+001
1.250383e+002, 8.045515e+001
1.255204e+002, 7.968832e+001
1.260025e+002, 7.885583e+001
1.264846e+002, 7.819024e+001
1.269667e+002, 7.763489e+001
1.274489e+002, 7.704813e+001
1.279310e+002, 7.625876e+001
1.284131e+002, 7.541434e+001
1.288952e+002, 7.486835e+001
1.293773e+002, 7.467977e+001
1.298594e+002, 7.454029e+001
1.303416e+002, 7.401081e+001
1.308237e+002, 7.314457e+001
1.313058e+002, 7.229436e+001
1.317879e+002, 7.157791e+001
1.322700e+002, 7.101331e+001
1.327521e+002, 7.076828e+001
1.332343e+002, 7.097678e+001
1.337164e+002, 7.129343e+001
1.341985e+002, 7.102477e+001
1.346806e+002, 7.013560e+001
1.351627e+002, 6.912247e+001
1.356448e+002, 6.825851e+001
1.361270e+002, 6.753889e+001
1.366091e+002, 6.698643e+001
1.370912e+002, 6.662577e+001
1.375733e+002, 6.642641e+001
1.380554e+002, 6.632815e+001
1.385375e+002, 6.640929e+001
1.390197e+002, 6.636024e+001
1.395018e+002, 6.583865e+001
1.399839e+002, 6.468990e+001
1.404660e+002, 6.376884e+001
1.409481e+002, 6.324078e+001
1.414302e+002, 6.308678e+001
1.419124e+002, 6.307411e+001
1.423945e+002, 6.337283e+001
1.428766e+002, 6.358050e+001
1.433587e+002, 6.322277e+001
1.438408e+002, 6.193685e+001
1.443229e+002, 6.083453e+001
1.448051e+002, 6.018481e+001
1.452872e+002, 6.003775e+001
1.457693e+002, 5.993987e+001
1.462514e+002, 6.002436e+001
1.467335e+002, 6.007486e+001
1.472156e+002, 5.978822e+001
1.476978e+002, 5.879247e+001
1.481799e+002, 5.792432e+001
1.486620e+002, 5.744045e+001
1.491441e+002, 5.757527e+001
1.496262e+002, 5.746309e+001
1.501083e+002, 5.683493e+001
1.505905e+002, 5.600493e+001
1.510726e+002, 5.552377e+001
1.515547e+002, 5.591563e+001
1.520368e+002, 5.620803e+001
1.525189e+002, 5.607444e+001
1.530010e+002, 5.514521e+001
1.534832e+002, 5.442258e+001
1.539653e+002, 5.407988e+001
1.544474e+002, 5.399292e+001
1.549295e+002, 5.386363e+001
1.554116e+002, 5.366777e+001
1.558937e+002, 5.341231e+001
1.563759e+002, 5.308752e+001
1.568580e+002, 5.249486e+001
1.573401e+002, 5.209900e+001
1.578222e+002, 5.212919e+001
1.583043e+002, 5.246677e+001
1.587864e+002, 5.267409e+001
1.592686e+002, 5.257508e+001
1.597507e+002, 5.234222e+001
1.602328e+002, 5.208403e+001
1.607149e+002, 5.172941e+001
1.611970e+002, 5.145012e+001
1.616791e+002, 5.141956e+001
1.621613e+002, 5.157912e+001
1.626434e+002, 5.153566e+001
1.631255e+002, 5.078442e+001
1.636076e+002, 4.990645e+001
1.640897e+002, 4.941935e+001
1.645718e+002, 4.985046e+001
1.650540e+002, 5.041312e+001
1.655361e+002, 5.077580e+001
1.660182e+002, 5.093565e+001
1.665003e+002, 5.091880e+001
1.669824e+002, 5.048186e+001
1.674645e+002, 4.994389e+001
1.679467e+002, 4.970296e+001
1.684288e+002, 5.010579e+001
1.689109e+002, 5.072110e+001
1.693930e+002, 5.123186e+001
1.698751e+002, 5.162268e+001
1.703572e+002, 5.208664e+001
1.708394e+002, 5.284143e+001
1.713215e+002, 5.375914e+001
1.718036e+002, 5.461152e+001
1.722857e+002, 5.493127e+001
1.727678e+002, 5.533537e+001
1.732499e+002, 5.650551e+001
1.737321e+002, 5.855568e+001
1.742142e+002, 6.092057e+001
1.746963e+002, 6.315480e+001
1.751784e+002, 6.536953e+001
1.756605e+002, 6.783906e+001
1.761426e+002, 7.042026e+001
1.766248e+002, 7.340914e+001
1.771069e+002, 7.732050e+001
1.775890e+002, 8.233599e+001
1.780711e+002, 8.777649e+001
1.785532e+002, 9.290394e+001
1.790353e+002, 9.787078e+001
1.795175e+002, 1.030206e+002
1.799996e+002, 1.087700e+002
1.804817e+002, 1.148290e+002
1.809638e+002, 1.207038e+002
1.814459e+002, 1.262792e+002
1.819280e+002, 1.318520e+002
1.824102e+002, 1.380182e+002
1.828923e+002, 1.446111e+002
1.833744e+002, 1.513179e+002
1.838565e+002, 1.578824e+002
1.843386e+002, 1.643720e+002
1.848207e+002, 1.707605e+002
1.853029e+002, 1.771038e+002
1.857850e+002, 1.833535e+002
1.862671e+002, 1.895106e+002
1.867492e+002, 1.955582e+002
1.872313e+002, 2.016886e+002
1.877134e+002, 2.081565e+002
1.881956e+002, 2.149022e+002
1.886777e+002, 2.212585e+002
1.891598e+002, 2.270264e+002
1.896419e+002, 2.325660e+002
1.901240e+002, 2.386926e+002
1.906061e+002, 2.455044e+002
1.910883e+002, 2.525414e+002
1.915704e+002, 2.597348e+002
1.920525e+002, 2.670854e+002
1.925346e+002, 2.738653e+002
1.930167e+002, 2.796586e+002
1.934988e+002, 2.848094e+002
1.939810e+002, 2.898462e+002
1.944631e+002, 2.945567e+002
1.949452e+002, 2.994633e+002
1.954273e+002, 3.036464e+002
1.959094e+002, 3.071307e+002
1.963915e+002, 3.112623e+002
1.968737e+002, 3.164639e+002
1.973558e+002, 3.223894e+002
1.978379e+002, 3.279834e+002
1.983200e+002, 3.332052e+002
1.988021e+002, 3.382440e+002
1.992842e+002, 3.431454e+002
1.997664e+002, 3.479278e+002
2.002485e+002, 3.528227e+002
2.007306e+002, 3.580844e+002
2.012127e+002, 3.635479e+002
2.016948e+002, 3.681887e+002
2.021769e+002, 3.717754e+002
2.026591e+002, 3.753377e+002
2.031412e+002, 3.800417e+002
2.036233e+002, 3.861425e+002
2.041054e+002, 3.916548e+002
2.045875e+002, 3.961301e+002
2.050696e+002, 3.996420e+002
2.055518e+002, 4.026715e+002
2.060339e+002, 4.051172e+002
2.065160e+002, 4.073196e+002
2.069981e+002, 4.097368e+002
2.074802e+002, 4.124984e+002
2.079623e+002, 4.147733e+002
2.084445e+002, 4.163943e+002
2.089266e+002, 4.173698e+002
2.094087e+002, 4.176311e+002
2.098908e+002, 4.169669e+002
2.103729e+002, 4.159820e+002
2.108550e+002, 4.152888e+002
2.113372e+002, 4.149019e+002
2.118193e+002, 4.147605e+002
2.123014e+002, 4.149019e+002
2.127835e+002, 4.153234e+002
2.132656e+002, 4.156991e+002
2.137477e+002, 4.160019e+002
2.142299e+002, 4.162947e+002
2.147120e+002, 4.166054e+002
2.151941e+002, 4.168503e+002
2.156762e+002, 4.173389e+002
2.161583e+002, 4.181979e+002
2.166404e+002, 4.194349e+002
2.171226e+002, 4.206161e+002
2.176047e+002, 4.216224e+002
2.180868e+002, 4.227069e+002
2.185689e+002, 4.242461e+002
2.190510e+002, 4.264688e+002
2.195331e+002, 4.286246e+002
2.200153e+002, 4.305031e+002
2.204974e+002, 4.320683e+002
2.209795e+002, 4.339629e+002
2.214616e+002, 4.365404e+002
2.219437e+002, 4.391141e+002
2.224258e+002, 4.407608e+002
2.229080e+002, 4.409546e+002
2.233901e+002, 4.413546e+002
2.238722e+002, 4.424824e+002
2.243543e+002, 4.444728e+002
2.248364e+002, 4.460386e+002
2.253185e+002, 4.468895e+002
2.258007e+002, 4.475556e+002
2.262828e+002, 4.487763e+002
2.267649e+002, 4.508841e+002
2.272470e+002, 4.528515e+002
2.277291e+002, 4.544296e+002
2.282112e+002, 4.556565e+002
2.286934e+002, 4.562849e+002
2.291755e+002, 4.560434e+002
2.296576e+002, 4.554380e+002
2.301397e+002, 4.550938e+002
2.306218e+002, 4.549746e+002
2.311039e+002, 4.551920e+002
2.315861e+002, 4.558459e+002
2.320682e+002, 4.570298e+002
2.325503e+002, 4.581148e+002
2.330324e+002, 4.590845e+002
2.335145e+002, 4.599894e+002
2.339966e+002, 4.608642e+002
2.344788e+002, 4.615259e+002
2.349609e+002, 4.625027e+002
2.354430e+002, 4.640251e+002
2.359251e+002, 4.662059e+002
2.364072e+002, 4.681601e+002
2.368893e+002, 4.698642e+002
2.373715e+002, 4.713577e+002
2.378536e+002, 4.726373e+002
2.383357e+002, 4.734790e+002
2.388178e+002, 4.745053e+002
2.392999e+002, 4.759032e+002
2.397820e+002, 4.776982e+002
2.402642e+002, 4.795522e+002
2.407463e+002, 4.816779e+002
2.412284e+002, 4.836652e+002
2.417105e+002, 4.849511e+002
2.421926e+002, 4.851053e+002
2.426747e+002, 4.853152e+002
2.431569e+002, 4.858497e+002
2.436390e+002, 4.867330e+002
2.441211e+002, 4.877988e+002
2.446032e+002, 4.894113e+002
2.450853e+002, 4.908937e+002
2.455674e+002, 4.913566e+002
2.460496e+002, 4.901136e+002
2.465317e+002, 4.891430e+002
2.470138e+002, 4.890041e+002
2.474959e+002, 4.898081e+002
2.479780e+002, 4.902311e+002
2.484601e+002, 4.901326e+002
2.489423e+002, 4.898198e+002
2.494244e+002, 4.896346e+002
2.499065e+002, 4.896754e+002
2.503886e+002, 4.896837e+002
2.508707e+002, 4.896558e+002
2.513528e+002, 4.896073e+002
2.518350e+002, 4.892347e+002
2.523171e+002, 4.883067e+002
2.527992e+002, 4.873095e+002
2.532813e+002, 4.867798e+002
2.537634e+002, 4.869679e+002
2.542455e+002, 4.870629e+002
2.547277e+002, 4.868262e+002
2.552098e+002, 4.862408e+002
2.556919e+002, 4.859443e+002
2.561740e+002, 4.860159e+002
2.566561e+002, 4.862565e+002
2.571382e+002, 4.864478e+002
2.576204e+002, 4.864603e+002
2.581025e+002, 4.867426e+002
2.585846e+002, 4.874865e+002
2.590667e+002, 4.886601e+002
2.595488e+002, 4.895311e+002
2.600309e+002, 4.900866e+002
2.605131e+002, 4.903438e+002
2.609952e+002, 4.901706e+002
2.614773e+002, 4.892124e+002
2.619594e+002, 4.888593e+002
2.624415e+002, 4.895075e+002
2.629236e+002, 4.910539e+002
2.634058e+002, 4.923008e+002
2.638879e+002, 4.930923e+002
2.643700e+002, 4.938822e+002
2.648521e+002, 4.951527e+002
2.653342e+002, 4.971477e+002
2.658163e+002, 4.987333e+002
2.662985e+002, 4.995528e+002
2.667806e+002, 4.997953e+002
2.672627e+002, 5.006290e+002
2.677448e+002, 5.022310e+002
2.682269e+002, 5.040334e+002
2.687090e+002, 5.055460e+002
2.691912e+002, 5.066221e+002
2.696733e+002, 5.081190e+002
2.701554e+002, 5.102943e+002
2.706375e+002, 5.129283e+002
2.711196e+002, 5.150184e+002
2.716017e+002, 5.164016e+002
2.720839e+002, 5.176739e+002
2.725660e+002, 5.190811e+002
2.730481e+002, 5.205584e+002
2.735302e+002, 5.227125e+002
2.740123e+002, 5.259191e+002
2.744944e+002, 5.296649e+002
2.749766e+002, 5.323657e+002
2.754587e+002, 5.337833e+002
2.759408e+002, 5.350908e+002
2.764229e+002, 5.369976e+002
2.769050e+002, 5.395660e+002
2.773871e+002, 5.420922e+002
2.778693e+002, 5.445392e+002
2.783514e+002, 5.469142e+002
2.788335e+002, 5.491255e+002
2.793156e+002, 5.511271e+002
2.797977e+002, 5.533680e+002
2.802798e+002, 5.563077e+002
2.807620e+002, 5.599271e+002
2.812441e+002, 5.630160e+002
2.817262e+002, 5.654131e+002
2.822083e+002, 5.674338e+002
2.826904e+002, 5.696279e+002
2.831725e+002, 5.720048e+002
2.836547e+002, 5.743517e+002
2.841368e+002, 5.766078e+002
2.846189e+002, 5.787477e+002
2.851010e+002, 5.806816e+002
2.855831e+002, 5.823654e+002
2.860652e+002, 5.839577e+002
2.865474e+002, 5.855870e+002
2.870295e+002, 5.872584e+002
2.875116e+002, 5.892343e+002
2.879937e+002, 5.916769e+002
2.884758e+002, 5.945651e+002
2.889579e+002, 5.977322e+002
2.894401e+002, 6.012969e+002
2.899222e+002, 6.047207e+002
2.904043e+002, 6.072171e+002
2.908864e+002, 6.088878e+002
2.913685e+002, 6.105461e+002
2.918506e+002, 6.125833e+002
2.923328e+002, 6.148242e+002
2.928149e+002, 6.166101e+002
2.932970e+002, 6.179171e+002
2.937791e+002, 6.191639e+002
2.942612e+002, 6.205866e+002
2.947433e+002, 6.222498e+002
2.952255e+002, 6.244567e+002
2.957076e+002, 6.276676e+002
2.961897e+002, 6.312687e+002
2.966718e+002, 6.340615e+002
2.971539e+002, 6.360440e+002
2.976360e+002, 6.374346e+002
2.981182e+002, 6.381710e+002
2.986003e+002, 6.384342e+002
2.990824e+002, 6.386960e+002
2.995645e+002, 6.390996e+002
3.000466e+002, 6.395441e+002
3.005287e+002, 6.399316e+002
3.010109e+002, 6.402535e+002
3.014930e+002, 6.404531e+002
3.019751e+002, 6.407373e+002
3.024572e+002, 6.408275e+002
3.029393e+002, 6.402121e+002
3.034214e+002, 6.386592e+002
3.039036e+002, 6.365932e+002
3.043857e+002, 6.342754e+002
3.048678e+002, 6.317870e+002
3.053499e+002, 6.293614e+002
3.058320e+002, 6.274965e+002
3.063141e+002, 6.256622e+002
3.067963e+002, 6.231992e+002
3.072784e+002, 6.198491e+002
3.077605e+002, 6.162256e+002
3.082426e+002, 6.128014e+002
3.087247e+002, 6.094813e+002
3.092068e+002, 6.060428e+002
3.096890e+002, 6.026257e+002
3.101711e+002, 5.988712e+002
3.106532e+002, 5.943360e+002
3.111353e+002, 5.888269e+002
3.116174e+002, 5.833433e+002
3.120995e+002, 5.783978e+002
3.125817e+002, 5.739749e+002
3.130638e+002, 5.699799e+002
3.135459e+002, 5.667672e+002
3.140280e+002, 5.636357e+002
3.145101e+002, 5.601367e+002
3.149922e+002, 5.562451e+002
3.154744e+002, 5.522617e+002
3.159565e+002, 5.482892e+002
3.164386e+002, 5.443511e+002
3.169207e+002, 5.405245e+002
3.174028e+002, 5.368167e+002
3.178849e+002, 5.332177e+002
3.183671e+002, 5.296425e+002
3.188492e+002, 5.260839e+002
3.193313e+002, 5.229279e+002
3.198134e+002, 5.206464e+002
3.202955e+002, 5.186251e+002
3.207776e+002, 5.163994e+002
3.212598e+002, 5.128348e+002
3.217419e+002, 5.101126e+002
3.222240e+002, 5.092147e+002
3.227061e+002, 5.097784e+002
3.231882e+002, 5.099233e+002
3.236703e+002, 5.087814e+002
3.241525e+002, 5.074606e+002
3.246346e+002, 5.065804e+002
3.251167e+002, 5.064991e+002
3.255988e+002, 5.064457e+002
3.260809e+002, 5.060890e+002
3.265630e+002, 5.056914e+002
3.270452e+002, 5.059698e+002
3.275273e+002, 5.076626e+002
3.280094e+002, 5.094440e+002
3.284915e+002, 5.108834e+002
3.289736e+002, 5.119166e+002
3.294557e+002, 5.127120e+002
3.299379e+002, 5.129222e+002
3.304200e+002, 5.130067e+002
3.309021e+002, 5.137148e+002
3.313842e+002, 5.155219e+002
3.318663e+002, 5.173127e+002
3.323484e+002, 5.187500e+002
3.328306e+002, 5.197126e+002
3.333127e+002, 5.209020e+002
3.337948e+002, 5.223212e+002
3.342769e+002, 5.239648e+002
3.347590e+002, 5.259034e+002
3.352411e+002, 5.285076e+002
3.357233e+002, 5.306053e+002
3.362054e+002, 5.318361e+002
3.366875e+002, 5.322701e+002
3.371696e+002, 5.327950e+002
3.376517e+002, 5.334233e+002
3.381339e+002, 5.341357e+002
3.386160e+002, 5.349720e+002
3.390981e+002, 5.360154e+002
3.395802e+002, 5.368411e+002
3.400623e+002, 5.374645e+002
3.405444e+002, 5.377834e+002
3.410266e+002, 5.372945e+002
3.415087e+002, 5.358327e+002
3.419908e+002, 5.342880e+002
3.424729e+002, 5.334422e+002
3.429550e+002, 5.332870e+002
3.434371e+002, 5.321772e+002
3.439193e+002, 5.298553e+002
3.444014e+002, 5.267692e+002
3.448835e+002, 5.234741e+002
3.453656e+002, 5.199761e+002
3.458477e+002, 5.170085e+002
3.463298e+002, 5.154113e+002
3.468120e+002, 5.147557e+002
3.472941e+002, 5.130980e+002
3.477762e+002, 5.102561e+002
3.482583e+002, 5.071171e+002
3.487404e+002, 5.047962e+002
3.492225e+002, 5.031153e+002
3.497047e+002, 5.012994e+002
3.501868e+002, 4.989712e+002
3.506689e+002, 4.963701e+002
3.511510e+002, 4.937232e+002
3.516331e+002, 4.910479e+002
3.521152e+002, 4.887277e+002
3.525974e+002, 4.873795e+002
3.530795e+002, 4.865718e+002
3.535616e+002, 4.854966e+002
3.540437e+002, 4.838238e+002
3.545258e+002, 4.819376e+002
3.550079e+002, 4.802012e+002
3.554901e+002, 4.785831e+002
3.559722e+002, 4.769061e+002
3.564543e+002, 4.748197e+002
3.569364e+002, 4.727424e+002
3.574185e+002, 4.711393e+002
3.579006e+002, 4.702547e+002
3.583828e+002, 4.694298e+002
3.588649e+002, 4.682797e+002
3.593470e+002, 4.668849e+002
3.598291e+002, 4.653996e+002
3.603112e+002, 4.635653e+002
3.607933e+002, 4.619046e+002
3.612755e+002, 4.607277e+002
3.617576e+002, 4.600938e+002
3.622397e+002, 4.596984e+002
3.627218e+002, 4.598769e+002
3.632039e+002, 4.600675e+002
3.636860e+002, 4.596447e+002
3.641682e+002, 4.576161e+002
3.646503e+002, 4.557442e+002
3.651324e+002, 4.546944e+002
3.656145e+002, 4.544348e+002
3.660966e+002, 4.541681e+002
3.665787e+002, 4.537957e+002
3.670609e+002, 4.533581e+002
3.675430e+002, 4.528822e+002
3.680251e+002, 4.522748e+002
3.685072e+002, 4.517445e+002
3.689893e+002, 4.514624e+002
3.694714e+002, 4.512980e+002
3.699536e+002, 4.508164e+002
3.704357e+002, 4.498424e+002
3.709178e+002, 4.487314e+002
3.713999e+002, 4.475470e+002
3.718820e+002, 4.459696e+002
3.723641e+002, 4.451756e+002
3.728463e+002, 4.455930e+002
3.733284e+002, 4.465166e+002
3.738105e+002, 4.468084e+002
3.742926e+002, 4.461400e+002
3.747747e+002, 4.455690e+002
3.752568e+002, 4.453981e+002
3.757390e+002, 4.456287e+002
3.762211e+002, 4.459913e+002
3.767032e+002, 4.466287e+002
3.771853e+002, 4.470945e+002
3.776674e+002, 4.468673e+002
3.781495e+002, 4.458581e+002
3.786317e+002, 4.449039e+002
3.791138e+002, 4.441304e+002
3.795959e+002, 4.435332e+002
3.800780e+002, 4.430829e+002
3.805601e+002, 4.427867e+002
3.810422e+002, 4.426180e+002
3.815244e+002, 4.426142e+002
3.820065e+002, 4.427480e+002
3.824886e+002, 4.428949e+002
3.829707e+002, 4.431000e+002
3.834528e+002, 4.431704e+002
3.839349e+002, 4.426244e+002
3.844171e+002, 4.416021e+002
3.848992e+002, 4.408531e+002
3.853813e+002, 4.410546e+002
3.858634e+002, 4.416611e+002
3.863455e+002, 4.415891e+002
3.868276e+002, 4.407737e+002
3.873098e+002, 4.400553e+002
3.877919e+002, 4.403035e+002
3.882740e+002, 4.411247e+002
3.887561e+002, 4.418283e+002
3.892382e+002, 4.423256e+002
3.897203e+002, 4.424730e+002
3.902025e+002, 4.418595e+002
3.906846e+002, 4.406639e+002
3.911667e+002, 4.397305e+002
3.916488e+002, 4.397830e+002
3.921309e+002, 4.401699e+002
3.926130e+002, 4.403910e+002
3.930952e+002, 4.404276e+002
3.935773e+002, 4.401080e+002
3.940594e+002, 4.389381e+002
3.945415e+002, 4.374029e+002
3.950236e+002, 4.364012e+002
3.955057e+002, 4.366268e+002
3.959879e+002, 4.370770e+002
3.964700e+002, 4.374883e+002
3.969521e+002, 4.379100e+002
3.974342e+002, 4.378476e+002
3.979163e+002, 4.365286e+002
3.983984e+002, 4.350298e+002
3.988806e+002, 4.343334e+002
3.993627e+002, 4.356700e+002
3.998448e+002, 4.364645e+002
4.003269e+002, 4.359848e+002
4.008090e+002, 4.344986e+002
4.012911e+002, 4.341143e+002
4.017733e+002, 4.357545e+002
4.022554e+002, 4.373971e+002
4.027375e+002, 4.379330e+002
4.032196e+002, 4.368229e+002
4.037017e+002, 4.359267e+002
4.041838e+002, 4.352160e+002
4.046660e+002, 4.347771e+002
4.051481e+002, 4.349782e+002
4.056302e+002, 4.361304e+002
4.061123e+002, 4.367670e+002
4.065944e+002, 4.361050e+002
4.070765e+002, 4.342325e+002
4.075587e+002, 4.332650e+002
4.080408e+002, 4.333760e+002
4.085229e+002, 4.336945e+002
4.090050e+002, 4.330616e+002
4.094871e+002, 4.315849e+002
4.099692e+002, 4.308964e+002
4.104514e+002, 4.316100e+002
4.109335e+002, 4.330053e+002
4.114156e+002, 4.336630e+002
4.118977e+002, 4.336109e+002
4.123798e+002, 4.332590e+002
