##NAMES=Fluor-liddicoatite
##RRUFFID=R060969
##IDEAL CHEMISTRY=Ca(Li_2_Al)Al_6_(Si_6_O_18_)(BO_3_)_3_(OH)_3_F
##LOCALITY=Antandro Komby mine, Manandona River, Antsirabe, Madagascar
##OWNER=RRUFF
##SOURCE=Michael Scott
##DESCRIPTION=Red and green prismatic striated crystal, we studied the red part.
##STATUS=The identification of this mineral has been confirmed only by single crystal X-ray diffraction.
##URL=rruff.info/R060969
158.1689, 758.7161
158.6510, 760.6386
159.1331, 767.5876
159.6152, 775.4783
160.0974, 787.2215
160.5795, 796.8503
161.0616, 800.3318
161.5437, 799.6010
162.0258, 800.2222
162.5079, 806.7512
162.9901, 819.0010
163.4722, 825.7267
163.9543, 821.4006
164.4364, 818.0124
164.9185, 821.4408
165.4007, 830.5462
165.8828, 840.5627
166.3649, 848.1622
166.8470, 853.3471
167.3291, 859.2198
167.8112, 866.8434
168.2934, 874.0825
168.7755, 880.8690
169.2576, 886.6675
169.7397, 889.3470
170.2218, 886.5167
170.7039, 878.5252
171.1861, 874.4864
171.6682, 876.7371
172.1503, 880.4449
172.6324, 883.0226
173.1145, 884.5723
173.5966, 886.6428
174.0788, 890.7223
174.5609, 896.4947
175.0430, 900.0846
175.5251, 902.7520
176.0072, 902.3904
176.4893, 894.9760
176.9714, 881.7813
177.4536, 871.1818
177.9357, 869.8727
178.4178, 876.9825
178.8999, 880.8240
179.3820, 882.0656
179.8641, 879.6254
180.3463, 869.8517
180.8284, 853.7845
181.3105, 840.3167
181.7926, 835.6934
182.2747, 839.3101
182.7568, 842.9102
183.2390, 845.7539
183.7211, 849.1581
184.2032, 855.3864
184.6853, 863.9888
185.1674, 870.2516
185.6495, 870.5585
186.1317, 865.8294
186.6138, 861.9672
187.0959, 858.9281
187.5780, 856.8576
188.0601, 855.5660
188.5422, 855.1329
189.0244, 856.7406
189.5065, 862.9451
189.9886, 871.2757
190.4707, 873.9561
190.9528, 864.6922
191.4349, 855.4535
191.9171, 856.9605
192.3992, 868.1515
192.8813, 877.4397
193.3634, 876.6517
193.8455, 870.1476
194.3276, 869.7172
194.8098, 876.7828
195.2919, 888.6809
195.7740, 908.4506
196.2561, 934.5822
196.7382, 951.7007
197.2203, 948.6436
197.7025, 932.5513
198.1846, 921.8596
198.6667, 917.9630
199.1488, 917.8448
199.6309, 920.0687
200.1130, 924.5452
200.5951, 930.7983
201.0773, 940.5317
201.5594, 950.5824
202.0415, 954.9274
202.5236, 950.6472
203.0057, 946.1146
203.4878, 947.1894
203.9700, 953.1185
204.4521, 959.1193
204.9342, 962.7948
205.4163, 966.0912
205.8984, 972.5355
206.3805, 983.5471
206.8627, 993.9581
207.3448, 1000.424
207.8269, 1003.511
208.3090, 1005.671
208.7911, 1007.052
209.2732, 1008.603
209.7554, 1011.523
210.2375, 1015.762
210.7196, 1021.327
211.2017, 1027.872
211.6838, 1035.655
212.1659, 1045.859
212.6481, 1059.475
213.1302, 1074.738
213.6123, 1088.358
214.0944, 1099.857
214.5765, 1113.579
215.0586, 1134.336
215.5408, 1159.047
216.0229, 1178.507
216.5050, 1187.937
216.9871, 1196.277
217.4692, 1216.177
217.9513, 1247.510
218.4335, 1276.911
218.9156, 1298.996
219.3977, 1315.421
219.8798, 1328.612
220.3619, 1337.807
220.8440, 1347.006
221.3262, 1363.045
221.8083, 1385.074
222.2904, 1402.512
222.7725, 1409.641
223.2546, 1410.850
223.7367, 1414.231
224.2189, 1422.042
224.7010, 1427.150
225.1831, 1420.855
225.6652, 1404.866
226.1473, 1387.045
226.6294, 1367.466
227.1115, 1347.622
227.5937, 1328.404
228.0758, 1309.608
228.5579, 1294.738
229.0400, 1289.861
229.5221, 1292.698
230.0042, 1290.413
230.4864, 1278.069
230.9685, 1261.875
231.4506, 1245.714
231.9327, 1229.898
232.4148, 1218.564
232.8969, 1215.763
233.3791, 1220.596
233.8612, 1225.830
234.3433, 1235.236
234.8254, 1241.780
235.3075, 1238.456
235.7896, 1226.323
236.2718, 1214.034
236.7539, 1206.337
237.2360, 1202.436
237.7181, 1198.137
238.2002, 1191.150
238.6823, 1186.219
239.1645, 1187.790
239.6466, 1193.970
240.1287, 1198.004
240.6108, 1196.135
241.0929, 1190.694
241.5750, 1188.687
242.0572, 1194.463
242.5393, 1196.313
243.0214, 1186.168
243.5035, 1169.280
243.9856, 1157.433
244.4677, 1156.043
244.9499, 1159.096
245.4320, 1152.819
245.9141, 1131.973
246.3962, 1116.225
246.8783, 1114.173
247.3604, 1118.214
247.8426, 1117.854
248.3247, 1110.010
248.8068, 1098.380
249.2889, 1088.160
249.7710, 1079.988
250.2531, 1071.395
250.7352, 1060.657
251.2174, 1050.229
251.6995, 1043.205
252.1816, 1039.930
252.6637, 1037.220
253.1458, 1031.138
253.6279, 1019.980
254.1101, 1013.376
254.5922, 1015.046
255.0743, 1018.127
255.5564, 1019.394
256.0385, 1018.094
256.5207, 1012.953
257.0028, 1001.733
257.4849, 983.6073
257.9670, 974.3876
258.4491, 980.0789
258.9312, 986.9379
259.4134, 991.3052
259.8955, 992.2205
260.3776, 987.5367
260.8597, 974.6910
261.3418, 955.7030
261.8239, 947.6416
262.3060, 965.1719
262.7881, 976.6478
263.2703, 970.9066
263.7524, 956.0721
264.2345, 944.4255
264.7166, 942.0814
265.1987, 945.9888
265.6808, 946.9445
266.1630, 942.8815
266.6451, 938.2463
267.1272, 928.9682
267.6093, 921.3309
268.0914, 923.7928
268.5735, 938.4829
269.0557, 956.9439
269.5378, 964.4043
270.0199, 953.9262
270.5020, 946.0779
270.9841, 940.2159
271.4662, 937.2804
271.9484, 940.7758
272.4305, 949.5479
272.9126, 956.1925
273.3947, 950.6345
273.8768, 929.0707
274.3589, 914.3840
274.8411, 909.8427
275.3232, 909.5654
275.8053, 914.4927
276.2874, 922.3538
276.7695, 927.8180
277.2516, 925.6920
277.7338, 916.7397
278.2159, 911.9500
278.6980, 912.8935
279.1801, 916.4797
279.6622, 924.4324
280.1443, 933.6368
280.6265, 938.9474
281.1086, 937.0203
281.5907, 930.3181
282.0728, 925.6851
282.5549, 925.0398
283.0370, 921.7521
283.5192, 907.4998
284.0013, 892.3782
284.4834, 888.5112
284.9655, 901.4626
285.4476, 918.0818
285.9297, 920.7067
286.4119, 907.8207
286.8940, 895.3275
287.3761, 887.3301
287.8582, 881.5610
288.3403, 875.5298
288.8224, 868.9630
289.3046, 864.5844
289.7867, 866.0262
290.2688, 872.0298
290.7509, 875.9865
291.2330, 876.6572
291.7151, 875.1689
292.1973, 871.9473
292.6794, 867.2871
293.1615, 863.2370
293.6436, 861.5623
294.1257, 860.7159
294.6078, 857.8338
295.0900, 852.4286
295.5721, 846.4170
296.0542, 840.7154
296.5363, 835.5323
297.0184, 831.9758
297.5005, 830.8391
297.9827, 830.8497
298.4648, 831.5062
298.9469, 832.6221
299.4290, 832.9518
299.9111, 831.2994
300.3932, 828.6047
300.8754, 828.1556
301.3575, 829.7823
301.8396, 833.4890
302.3217, 842.1889
302.8038, 852.6360
303.2859, 857.4056
303.7681, 853.0854
304.2502, 845.6060
304.7323, 846.4872
305.2144, 861.0804
305.6965, 873.1628
306.1786, 882.1606
306.6608, 887.9651
307.1429, 888.7299
307.6250, 884.8370
308.1071, 881.3861
308.5892, 884.9622
309.0714, 898.8246
309.5535, 903.2775
310.0356, 889.0513
310.5177, 875.8425
310.9998, 873.6853
311.4819, 880.7192
311.9640, 889.8982
312.4461, 896.5870
312.9283, 900.8898
313.4104, 904.0616
313.8925, 905.9785
314.3746, 906.7581
314.8567, 905.5932
315.3388, 903.6184
315.8210, 901.9573
316.3031, 901.0701
316.7852, 901.1995
317.2673, 902.8147
317.7494, 905.9872
318.2315, 910.6252
318.7137, 921.0616
319.1958, 929.8206
319.6779, 930.4962
320.1600, 922.7255
320.6421, 912.9214
321.1242, 906.6459
321.6064, 903.8752
322.0885, 904.4007
322.5706, 909.4136
323.0527, 916.5802
323.5348, 926.3367
324.0169, 937.2278
324.4991, 945.0030
324.9812, 944.7576
325.4633, 940.6213
325.9454, 942.5346
326.4275, 952.1761
326.9096, 961.3632
327.3918, 964.3153
327.8739, 964.2375
328.3560, 966.2432
328.8381, 972.6960
329.3202, 979.0053
329.8023, 981.7733
330.2845, 981.1840
330.7666, 977.8271
331.2487, 970.6687
331.7308, 962.4202
332.2129, 957.8158
332.6950, 957.3866
333.1772, 957.2200
333.6593, 954.8501
334.1414, 952.5327
334.6235, 954.8344
335.1056, 962.6652
335.5877, 969.5430
336.0699, 967.7195
336.5520, 955.1623
337.0341, 949.7122
337.5162, 959.0391
337.9983, 968.4050
338.4804, 967.2714
338.9626, 958.4724
339.4447, 952.2699
339.9268, 955.5228
340.4089, 966.2809
340.8910, 973.7200
341.3731, 977.4200
341.8553, 977.9889
342.3374, 970.1561
342.8195, 961.4617
343.3016, 960.8160
343.7837, 970.9146
344.2658, 986.8344
344.7480, 1001.894
345.2301, 1018.359
345.7122, 1027.373
346.1943, 1023.661
346.6764, 1017.178
347.1585, 1011.718
347.6407, 1007.980
348.1228, 1005.857
348.6049, 1005.823
349.0870, 1007.498
349.5691, 1007.683
350.0512, 1004.853
350.5334, 1003.120
351.0155, 1005.896
351.4976, 1010.219
351.9797, 1011.247
352.4618, 1005.649
352.9439, 999.5010
353.4261, 1002.040
353.9082, 1013.536
354.3903, 1023.419
354.8724, 1027.800
355.3545, 1029.354
355.8366, 1031.818
356.3188, 1035.396
356.8009, 1038.298
357.2830, 1038.392
357.7651, 1037.507
358.2472, 1039.378
358.7293, 1044.809
359.2115, 1051.191
359.6936, 1054.990
360.1757, 1056.496
360.6578, 1064.664
361.1399, 1086.976
361.6220, 1109.684
362.1041, 1122.315
362.5862, 1127.813
363.0684, 1136.354
363.5505, 1153.746
364.0326, 1177.313
364.5147, 1198.083
364.9968, 1210.579
365.4789, 1227.311
365.9611, 1250.571
366.4432, 1277.483
366.9253, 1305.427
367.4074, 1333.668
367.8895, 1363.219
368.3716, 1395.350
368.8538, 1430.470
369.3359, 1466.507
369.8180, 1503.762
370.3001, 1541.617
370.7822, 1581.380
371.2643, 1621.435
371.7465, 1659.195
372.2286, 1693.027
372.7107, 1723.270
373.1928, 1750.646
373.6749, 1774.860
374.1570, 1797.242
374.6392, 1820.808
375.1213, 1841.288
375.6034, 1856.175
376.0855, 1865.330
376.5676, 1864.336
377.0497, 1845.120
377.5319, 1811.209
378.0140, 1779.720
378.4961, 1754.114
378.9782, 1730.138
379.4603, 1705.668
379.9424, 1680.300
380.4246, 1649.177
380.9067, 1604.655
381.3888, 1558.605
381.8709, 1523.133
382.3530, 1497.141
382.8351, 1470.478
383.3173, 1437.367
383.7994, 1399.373
384.2815, 1362.506
384.7636, 1323.438
385.2457, 1289.718
385.7278, 1264.566
386.2100, 1244.496
386.6921, 1225.759
387.1742, 1207.461
387.6563, 1191.201
388.1384, 1179.115
388.6205, 1171.973
389.1027, 1165.646
389.5848, 1163.508
390.0669, 1158.770
390.5490, 1144.918
391.0311, 1126.787
391.5132, 1114.137
391.9954, 1113.051
392.4775, 1119.839
392.9596, 1125.824
393.4417, 1133.198
393.9238, 1133.791
394.4059, 1119.022
394.8881, 1100.737
395.3702, 1086.788
395.8523, 1078.425
396.3344, 1074.648
396.8165, 1076.308
397.2986, 1082.180
397.7808, 1088.180
398.2629, 1094.662
398.7450, 1098.980
399.2271, 1095.269
399.7092, 1087.119
400.1913, 1086.737
400.6735, 1104.638
401.1556, 1123.414
401.6377, 1130.278
402.1198, 1127.633
402.6019, 1123.131
403.0840, 1119.636
403.5662, 1117.134
404.0483, 1115.560
404.5304, 1114.183
405.0125, 1115.399
405.4946, 1120.177
405.9767, 1127.026
406.4589, 1136.771
406.9410, 1148.134
407.4231, 1156.682
407.9052, 1158.596
408.3873, 1154.090
408.8694, 1147.263
409.3516, 1133.860
409.8336, 1123.559
410.3158, 1121.192
410.7979, 1121.654
411.2800, 1118.480
411.7621, 1109.424
412.2442, 1099.096
412.7263, 1096.056
413.2085, 1101.225
413.6906, 1094.642
414.1727, 1062.868
414.6548, 1031.737
415.1369, 1023.281
415.6190, 1032.222
416.1012, 1036.670
416.5833, 1023.739
417.0654, 1003.899
417.5475, 990.1559
418.0296, 982.3414
418.5117, 975.6702
418.9939, 968.0829
419.4760, 959.9031
419.9581, 952.1337
420.4402, 945.3078
420.9223, 937.6900
421.4044, 928.2142
421.8866, 918.0745
422.3687, 907.8081
422.8508, 897.8665
423.3329, 890.2084
423.8150, 887.2557
424.2971, 889.3381
424.7793, 889.2485
425.2614, 884.8112
425.7435, 880.6368
426.2256, 879.8872
426.7077, 879.3569
427.1898, 873.4995
427.6720, 860.0854
428.1541, 844.9241
428.6362, 837.3011
429.1183, 838.2330
429.6004, 840.2925
430.0826, 842.9780
430.5647, 846.3032
431.0468, 851.8245
431.5289, 858.3920
432.0110, 861.6202
432.4931, 856.7031
432.9753, 848.6268
433.4574, 844.7620
433.9395, 845.0542
434.4216, 846.0001
434.9037, 846.2543
435.3858, 845.9329
435.8680, 845.3616
436.3501, 844.7854
436.8322, 843.4511
437.3143, 840.0234
437.7964, 836.3753
438.2785, 834.4676
438.7607, 834.5690
439.2428, 836.0335
439.7249, 838.5597
440.2070, 842.1073
440.6891, 844.1318
441.1712, 843.7139
441.6534, 842.7654
442.1355, 840.2700
442.6176, 838.0066
443.0997, 838.4582
443.5818, 842.3269
444.0639, 847.1666
444.5461, 850.4916
445.0282, 852.4039
445.5103, 850.4727
445.9924, 840.5721
446.4745, 832.0065
446.9566, 831.3087
447.4388, 836.1693
447.9209, 840.6920
448.4030, 842.7563
448.8851, 843.7394
449.3672, 844.9703
449.8493, 846.3933
450.3315, 847.9844
450.8136, 850.3481
451.2957, 851.6464
451.7778, 848.0211
452.2599, 837.6368
452.7420, 829.6118
453.2242, 826.0585
453.7063, 824.2278
454.1884, 821.9826
454.6705, 819.5173
455.1526, 818.2220
455.6347, 819.0250
456.1169, 821.6672
456.5990, 825.3138
457.0811, 832.0917
457.5632, 836.1985
458.0453, 834.5547
458.5274, 831.9772
459.0095, 833.1627
459.4916, 838.0731
459.9738, 841.7139
460.4559, 837.0677
460.9380, 827.1476
461.4201, 826.7100
461.9022, 839.1957
462.3843, 850.0801
462.8665, 850.1779
463.3486, 843.7956
463.8307, 838.3699
464.3128, 833.7765
464.7949, 831.7217
465.2770, 834.3284
465.7592, 839.7507
466.2413, 845.7212
466.7234, 851.6961
467.2055, 855.5220
467.6876, 854.3693
468.1697, 847.6775
468.6519, 845.3399
469.1340, 851.6575
469.6161, 856.7798
470.0982, 856.9003
470.5803, 854.5545
471.0624, 853.3627
471.5446, 854.5748
472.0267, 856.6414
472.5088, 857.8350
472.9909, 858.2881
473.4730, 856.2940
473.9551, 848.8527
474.4373, 842.6680
474.9194, 841.3598
475.4015, 843.8289
475.8836, 847.8495
476.3657, 854.1709
476.8478, 859.7310
477.3300, 860.4490
477.8121, 857.4468
478.2942, 856.2729
478.7763, 859.2382
479.2584, 862.6483
479.7405, 861.3500
480.2227, 854.0164
480.7048, 847.8423
481.1869, 840.8281
481.6690, 837.0515
482.1511, 842.4984
482.6332, 852.7385
483.1154, 857.3480
483.5975, 850.8120
484.0796, 838.9887
484.5617, 834.4810
485.0438, 838.6978
485.5259, 846.1644
486.0081, 863.6135
486.4902, 878.0360
486.9723, 879.9084
487.4544, 872.4412
487.9365, 867.1995
488.4186, 872.6793
488.9008, 881.5459
489.3829, 880.6860
489.8650, 870.5834
490.3471, 864.9119
490.8292, 870.0220
491.3113, 880.0284
491.7935, 885.3423
492.2756, 885.3047
492.7577, 885.7657
493.2398, 886.3461
493.7219, 888.7406
494.2040, 896.8553
494.6862, 908.2906
495.1683, 915.5085
495.6504, 913.9975
496.1325, 906.2724
496.6146, 898.7488
497.0967, 888.3206
497.5789, 884.9636
498.0610, 896.3499
498.5431, 908.8668
499.0252, 913.8338
499.5073, 912.0980
499.9894, 910.1230
500.4716, 911.6979
500.9537, 915.4965
501.4358, 919.6295
501.9179, 924.1328
502.4000, 927.2019
502.8821, 927.1955
503.3643, 926.4449
503.8464, 929.6176
504.3285, 937.8103
504.8106, 943.0997
505.2927, 940.5419
505.7748, 937.1610
506.2570, 939.3168
506.7391, 946.0319
507.2212, 952.8654
507.7033, 957.4805
508.1854, 959.5112
508.6675, 956.9043
509.1496, 943.6549
509.6317, 938.7300
510.1139, 951.2761
510.5960, 965.5832
511.0781, 973.8844
511.5602, 975.7587
512.0424, 973.2484
512.5245, 965.8997
513.0066, 956.1284
513.4887, 947.3160
513.9708, 939.4464
514.4529, 934.2004
514.9351, 932.9933
515.4172, 933.5797
515.8993, 932.0886
516.3814, 927.8220
516.8635, 926.1025
517.3456, 929.4708
517.8278, 934.0178
518.3099, 937.8676
518.7920, 940.6061
519.2741, 942.2592
519.7562, 942.9570
520.2383, 941.5093
520.7205, 933.7621
521.2026, 914.7461
521.6847, 904.0981
522.1668, 912.0266
522.6489, 921.1147
523.1310, 922.9901
523.6132, 919.1620
524.0953, 914.8685
524.5774, 911.3996
525.0595, 909.8246
525.5416, 913.2504
526.0237, 920.4814
526.5059, 924.8510
526.9880, 924.7147
527.4701, 919.9379
527.9522, 908.4373
528.4343, 887.8994
528.9164, 876.6570
529.3986, 881.0497
529.8807, 888.0139
530.3628, 892.8763
530.8449, 895.8572
531.3270, 897.5524
531.8091, 898.2578
532.2913, 899.0394
532.7734, 902.5917
533.2554, 909.7684
533.7375, 910.8325
534.2197, 899.2173
534.7018, 890.5959
535.1839, 897.8051
535.6660, 912.5062
536.1481, 919.0623
536.6302, 910.4615
537.1124, 900.3367
537.5945, 897.7114
538.0766, 900.4722
538.5587, 905.7139
539.0408, 912.7761
539.5229, 917.4277
540.0051, 915.2613
540.4872, 906.5416
540.9693, 899.5881
541.4514, 894.1608
541.9335, 890.8362
542.4156, 892.3273
542.8978, 894.4753
543.3799, 892.1613
543.8620, 885.1912
544.3441, 879.1059
544.8262, 881.1631
545.3083, 888.3889
545.7905, 887.0739
546.2726, 875.2086
546.7547, 864.6040
547.2368, 860.5216
547.7189, 860.7960
548.2010, 861.5117
548.6832, 862.8086
549.1653, 863.9372
549.6474, 865.2141
550.1295, 865.8571
550.6116, 864.4144
551.0938, 861.5367
551.5759, 859.9928
552.0580, 861.6283
552.5401, 864.4470
553.0222, 862.6385
553.5043, 853.2992
553.9865, 846.8505
554.4686, 846.5679
554.9507, 847.3533
555.4328, 847.6013
555.9149, 846.9067
556.3970, 844.2789
556.8792, 837.0377
557.3613, 830.7621
557.8434, 834.0127
558.3255, 843.9380
558.8076, 848.8157
559.2897, 845.0537
559.7719, 838.5311
560.2540, 836.0112
560.7361, 838.2102
561.2182, 836.2372
561.7003, 826.2687
562.1824, 817.2281
562.6646, 811.3224
563.1467, 807.8740
563.6288, 806.4691
564.1109, 806.7561
564.5930, 807.1060
565.0751, 806.7396
565.5573, 805.2669
566.0394, 798.5480
566.5215, 784.0262
567.0036, 773.9844
567.4857, 777.8162
567.9678, 787.9730
568.4500, 789.0740
568.9321, 777.1910
569.4142, 769.7881
569.8963, 776.5679
570.3784, 786.4589
570.8605, 789.6799
571.3427, 786.4384
571.8248, 780.6238
572.3069, 774.1453
572.7890, 768.4219
573.2711, 767.5848
573.7532, 773.7781
574.2354, 777.9654
574.7175, 777.8374
575.1996, 777.0013
575.6817, 776.8828
576.1638, 777.6045
576.6459, 779.5339
577.1281, 784.2400
577.6102, 787.9424
578.0923, 785.0358
578.5744, 778.8356
579.0565, 778.9277
579.5386, 787.5137
580.0208, 796.2579
580.5029, 796.9378
580.9850, 789.7303
581.4671, 783.8282
581.9492, 777.5644
582.4313, 774.8744
582.9135, 780.4531
583.3956, 787.1025
583.8777, 786.3709
584.3598, 778.4133
584.8419, 772.8122
585.3240, 778.8825
585.8062, 791.3205
586.2883, 799.4449
586.7704, 803.2275
587.2525, 802.2656
587.7346, 794.8619
588.2167, 785.3421
588.6989, 780.4403
589.1810, 781.1799
589.6631, 782.7968
590.1452, 790.3115
590.6273, 793.4518
591.1094, 780.3672
591.5916, 761.3109
592.0737, 755.3080
592.5558, 768.9915
593.0379, 787.3027
593.5200, 790.9509
594.0021, 780.7790
594.4843, 770.6740
594.9664, 759.6495
595.4485, 753.3585
595.9306, 758.7070
596.4127, 769.6192
596.8948, 772.0387
597.3770, 760.8362
597.8591, 754.2963
598.3412, 764.3011
598.8233, 776.4647
599.3054, 776.1970
599.7875, 765.2638
600.2697, 754.0064
600.7518, 748.2099
601.2339, 746.9542
601.7160, 749.5183
602.1981, 757.6629
602.6802, 760.9469
603.1624, 754.9347
603.6445, 748.0232
604.1266, 744.2781
604.6087, 743.7002
605.0908, 746.8101
605.5729, 756.4030
606.0551, 765.1965
606.5372, 769.8087
607.0193, 770.5618
607.5014, 766.8508
607.9835, 759.1559
608.4656, 750.5616
608.9478, 743.1066
609.4299, 737.2783
609.9120, 736.0258
610.3941, 742.6219
610.8762, 746.8105
611.3583, 744.7794
611.8405, 741.6345
612.3226, 742.2321
612.8047, 745.0409
613.2868, 742.7736
613.7689, 725.3881
614.2510, 709.2213
614.7332, 712.0607
615.2153, 727.8660
615.6974, 743.3155
616.1795, 754.9951
616.6616, 759.3747
617.1437, 750.8773
617.6259, 730.1367
618.1080, 721.7351
618.5901, 736.0193
619.0722, 748.0306
619.5543, 755.8372
620.0364, 758.1336
620.5186, 750.0760
621.0007, 733.3909
621.4828, 721.5042
621.9649, 726.9065
622.4470, 738.1196
622.9291, 740.1422
623.4113, 734.6570
623.8934, 729.2212
624.3755, 726.3107
624.8576, 724.5840
625.3397, 722.1883
625.8218, 718.7874
626.3040, 718.0698
626.7861, 722.7857
627.2682, 726.9872
627.7503, 730.5124
628.2324, 732.3482
628.7145, 730.8599
629.1967, 726.0732
629.6788, 721.0466
630.1609, 716.2162
630.6430, 713.3083
631.1251, 717.7664
631.6072, 728.2930
632.0893, 732.9744
632.5714, 725.8989
633.0535, 716.4230
633.5356, 719.0818
634.0178, 737.8619
634.4999, 748.6121
634.9820, 744.2443
635.4641, 740.5557
635.9462, 742.7682
636.4283, 747.6926
636.9105, 751.6654
637.3926, 753.8248
637.8747, 754.6664
638.3568, 754.1220
638.8389, 752.6785
639.3210, 751.1392
639.8032, 749.5463
640.2853, 748.0159
640.7674, 746.5787
641.2495, 745.3456
641.7316, 744.7303
642.2137, 745.4011
642.6959, 743.9051
643.1780, 739.5944
643.6601, 734.0446
644.1422, 726.9695
644.6243, 719.3277
645.1064, 711.2764
645.5886, 703.0508
646.0707, 698.0424
646.5528, 701.0931
647.0349, 708.3251
647.5170, 713.1902
647.9991, 715.4026
648.4813, 714.0452
648.9634, 707.9463
649.4455, 700.9250
649.9276, 699.7216
650.4097, 706.7972
650.8918, 709.3686
651.3740, 702.6489
651.8561, 697.0930
652.3382, 697.0002
652.8203, 699.2361
653.3024, 700.0524
653.7845, 698.6131
654.2667, 695.8262
