##NAMES=Fluorcalciomicrolite
##RRUFFID=R080146
##IDEAL CHEMISTRY=(Ca,Na)_2_Ta^5+^_2_O_6_F
##LOCALITY= Ip√© mine, Governador, Valadares, Minas Gerias, Brazil
##OWNER=RRUFF
##SOURCE=Luiz Menezes
##DESCRIPTION=Small transparent orange octahedrons on muscovite and albite matrix.
##STATUS=The identification of this mineral is confirmed by single-crystal X-ray diffraction and chemical analysis.
##URL=rruff.info/R080146
##MEASURED CHEMISTRY=(Ca_1.32_Na_0.37_Mn_0.02_Fe_0.01_)(Ta_1.51_Nb_0.33_Ti_0.15_Sn_0.01_)_2_O_6_[F_0.50_(OH)_0.41_]
93.30109, 0.0000000E+00
93.78320, 5892.820
94.26532, 5800.999
94.74744, 5818.208
95.22955, 5930.772
95.71167, 6104.158
96.19379, 6256.257
96.67590, 6400.501
97.15802, 6527.362
97.64014, 6634.310
98.12225, 6724.073
98.60437, 6803.323
99.08649, 6877.967
99.56860, 6941.955
100.0507, 6989.593
100.5328, 7012.006
101.0150, 7014.612
101.4971, 6998.118
101.9792, 6962.547
102.4613, 6925.034
102.9434, 6890.845
103.4255, 6856.070
103.9077, 6817.037
104.3898, 6771.814
104.8719, 6723.459
105.3540, 6677.508
105.8361, 6631.282
106.3182, 6591.221
106.8004, 6557.346
107.2825, 6528.946
107.7646, 6504.561
108.2467, 6483.066
108.7288, 6464.350
109.2109, 6449.780
109.6931, 6443.222
110.1752, 6436.360
110.6573, 6425.081
111.1394, 6411.029
111.6215, 6399.250
112.1036, 6394.741
112.5858, 6398.836
113.0679, 6398.811
113.5500, 6392.750
114.0321, 6384.278
114.5142, 6374.732
114.9964, 6364.322
115.4785, 6355.444
115.9606, 6352.855
116.4427, 6356.126
116.9248, 6355.722
117.4069, 6346.167
117.8891, 6331.595
118.3712, 6321.007
118.8533, 6318.178
119.3354, 6316.485
119.8175, 6309.221
120.2996, 6296.815
120.7818, 6283.920
121.2639, 6274.431
121.7460, 6268.507
122.2281, 6261.077
122.7102, 6251.006
123.1923, 6239.093
123.6745, 6224.459
124.1566, 6207.228
124.6387, 6190.131
125.1208, 6177.733
125.6029, 6174.132
126.0850, 6166.369
126.5672, 6152.718
127.0493, 6135.769
127.5314, 6116.548
128.0135, 6095.524
128.4956, 6074.366
128.9777, 6057.361
129.4599, 6051.337
129.9420, 6042.310
130.4241, 6026.080
130.9062, 6006.734
131.3883, 5991.131
131.8704, 5983.693
132.3526, 5982.063
132.8347, 5972.525
133.3168, 5949.880
133.7989, 5926.569
134.2810, 5907.076
134.7632, 5891.187
135.2453, 5877.140
135.7274, 5863.058
136.2095, 5850.400
136.6916, 5842.704
137.1737, 5845.038
137.6559, 5849.429
138.1380, 5847.064
138.6201, 5836.712
139.1022, 5825.298
139.5843, 5818.328
140.0664, 5813.063
140.5486, 5805.380
141.0307, 5791.452
141.5128, 5774.167
141.9949, 5762.553
142.4770, 5759.441
142.9591, 5758.257
143.4413, 5757.603
143.9234, 5756.561
144.4055, 5753.321
144.8876, 5745.480
145.3697, 5732.994
145.8518, 5725.187
146.3340, 5727.148
146.8161, 5729.666
147.2982, 5730.006
147.7803, 5728.393
148.2624, 5726.361
148.7445, 5725.091
149.2267, 5723.881
149.7088, 5726.948
150.1909, 5740.469
150.6730, 5752.469
151.1551, 5754.744
151.6372, 5746.922
152.1194, 5735.805
152.6015, 5729.752
153.0836, 5731.493
153.5657, 5731.572
154.0478, 5728.095
154.5299, 5723.838
155.0121, 5721.773
155.4942, 5722.728
155.9763, 5725.005
156.4584, 5726.794
156.9405, 5728.583
157.4226, 5727.466
157.9048, 5720.890
158.3869, 5710.901
158.8690, 5701.970
159.3511, 5695.681
159.8332, 5690.002
160.3153, 5683.165
160.7975, 5675.346
161.2796, 5664.984
161.7617, 5649.063
162.2438, 5628.122
162.7259, 5610.630
163.2081, 5600.750
163.6902, 5593.426
164.1723, 5585.658
164.6544, 5577.055
165.1365, 5567.140
165.6186, 5555.702
166.1008, 5543.208
166.5829, 5527.261
167.0650, 5503.680
167.5471, 5479.116
168.0292, 5457.708
168.5113, 5440.509
168.9935, 5425.966
169.4756, 5411.597
169.9577, 5397.122
170.4398, 5383.375
170.9219, 5372.013
171.4040, 5360.482
171.8862, 5346.207
172.3683, 5328.319
172.8504, 5308.501
173.3325, 5290.562
173.8146, 5275.490
174.2967, 5261.641
174.7789, 5248.536
175.2610, 5236.713
175.7431, 5227.479
176.2252, 5221.463
176.7073, 5217.286
177.1894, 5210.320
177.6716, 5197.128
178.1537, 5185.624
178.6358, 5178.625
179.1179, 5174.251
179.6000, 5168.454
180.0821, 5158.805
180.5643, 5147.112
181.0464, 5138.876
181.5285, 5134.211
182.0106, 5131.868
182.4927, 5132.331
182.9748, 5135.040
183.4570, 5137.220
183.9391, 5136.506
184.4212, 5135.247
184.9033, 5138.263
185.3854, 5147.908
185.8675, 5158.072
186.3497, 5162.744
186.8318, 5161.726
187.3139, 5162.280
187.7960, 5167.886
188.2781, 5176.920
188.7602, 5188.561
189.2424, 5204.010
189.7245, 5219.065
190.2066, 5227.426
190.6887, 5227.172
191.1708, 5227.129
191.6530, 5230.405
192.1351, 5235.281
192.6172, 5241.462
193.0993, 5249.450
193.5814, 5256.197
194.0635, 5254.877
194.5457, 5241.522
195.0278, 5227.549
195.5099, 5217.444
195.9920, 5207.328
196.4741, 5193.995
196.9562, 5176.120
197.4384, 5153.424
197.9205, 5124.390
198.4026, 5082.869
198.8847, 5043.140
199.3668, 5007.822
199.8489, 4974.913
200.3311, 4941.746
200.8132, 4906.921
201.2953, 4871.474
201.7774, 4839.916
202.2595, 4816.634
202.7416, 4792.528
203.2238, 4764.317
203.7059, 4735.134
204.1880, 4709.493
204.6701, 4690.101
205.1522, 4675.369
205.6343, 4658.298
206.1165, 4635.244
206.5986, 4614.008
207.0807, 4595.128
207.5628, 4579.247
208.0449, 4568.313
208.5270, 4564.183
209.0092, 4564.583
209.4913, 4560.133
209.9734, 4548.126
210.4555, 4535.718
210.9376, 4525.683
211.4197, 4517.275
211.9019, 4507.888
212.3840, 4495.376
212.8661, 4482.056
213.3482, 4474.048
213.8303, 4473.198
214.3124, 4474.155
214.7946, 4474.476
215.2767, 4474.263
215.7588, 4474.205
216.2409, 4475.315
216.7230, 4476.123
217.2052, 4474.197
217.6873, 4468.640
218.1694, 4462.233
218.6515, 4457.437
219.1336, 4454.136
219.6157, 4449.481
220.0979, 4439.875
220.5800, 4430.093
221.0621, 4425.935
221.5442, 4429.043
222.0263, 4433.616
222.5084, 4433.467
222.9906, 4428.046
223.4727, 4423.835
223.9548, 4423.198
224.4369, 4424.436
224.9190, 4427.226
225.4011, 4431.644
225.8833, 4435.361
226.3654, 4434.475
226.8475, 4427.352
227.3296, 4423.517
227.8117, 4427.025
228.2938, 4433.142
228.7760, 4439.331
229.2581, 4445.045
229.7402, 4451.006
230.2223, 4458.005
230.7044, 4465.862
231.1865, 4475.529
231.6687, 4489.632
232.1508, 4503.672
232.6329, 4514.735
233.1150, 4522.389
233.5971, 4528.251
234.0792, 4534.345
234.5614, 4540.338
235.0435, 4547.548
235.5256, 4556.700
236.0077, 4566.389
236.4898, 4574.958
236.9719, 4582.492
237.4541, 4591.203
237.9362, 4604.399
238.4183, 4624.247
238.9004, 4643.353
239.3825, 4662.143
239.8646, 4679.919
240.3468, 4695.567
240.8289, 4709.287
241.3110, 4722.404
241.7931, 4736.663
242.2752, 4751.883
242.7573, 4768.880
243.2395, 4789.759
243.7216, 4810.501
244.2037, 4827.817
244.6858, 4841.667
245.1679, 4855.138
245.6501, 4871.712
246.1322, 4892.324
246.6143, 4912.625
247.0964, 4931.218
247.5785, 4950.645
248.0606, 4972.494
248.5428, 4996.870
249.0249, 5023.346
249.5070, 5051.545
249.9891, 5081.917
250.4712, 5113.182
250.9533, 5145.475
251.4355, 5178.593
251.9176, 5212.219
252.3997, 5246.487
252.8818, 5282.263
253.3639, 5319.640
253.8460, 5359.213
254.3282, 5403.194
254.8103, 5452.854
255.2924, 5505.758
255.7745, 5559.118
256.2566, 5613.182
256.7387, 5671.306
257.2209, 5737.049
257.7030, 5809.306
258.1851, 5879.439
258.6672, 5948.287
259.1493, 6014.017
259.6314, 6076.372
260.1136, 6135.047
260.5957, 6187.626
261.0778, 6233.040
261.5599, 6270.269
262.0420, 6301.727
262.5241, 6331.099
263.0063, 6350.321
263.4884, 6353.062
263.9705, 6340.024
264.4526, 6317.096
264.9347, 6286.102
265.4168, 6246.200
265.8990, 6198.531
266.3811, 6140.342
266.8632, 6079.537
267.3453, 6020.997
267.8274, 5964.655
268.3095, 5908.174
268.7917, 5848.052
269.2738, 5790.711
269.7559, 5743.687
270.2380, 5707.822
270.7201, 5678.410
271.2022, 5654.708
271.6844, 5635.892
272.1665, 5615.549
272.6486, 5590.411
273.1307, 5565.258
273.6128, 5544.038
274.0949, 5526.642
274.5771, 5512.333
275.0592, 5501.262
275.5413, 5493.046
276.0234, 5485.171
276.5055, 5475.087
276.9876, 5468.541
277.4698, 5470.350
277.9519, 5479.297
278.4340, 5489.250
278.9161, 5496.188
279.3982, 5500.958
279.8803, 5507.988
280.3625, 5519.554
280.8446, 5530.040
281.3267, 5535.190
281.8088, 5536.740
282.2909, 5538.753
282.7730, 5543.033
283.2552, 5549.431
283.7373, 5557.842
284.2194, 5569.458
284.7015, 5580.826
285.1836, 5590.165
285.6658, 5598.331
286.1479, 5606.536
286.6300, 5615.072
287.1121, 5624.153
287.5942, 5634.542
288.0764, 5647.110
288.5585, 5658.929
289.0406, 5668.282
289.5227, 5676.686
290.0048, 5685.548
290.4869, 5695.462
290.9691, 5706.128
291.4512, 5718.041
291.9333, 5732.968
292.4154, 5743.472
292.8975, 5743.753
293.3796, 5741.284
293.8618, 5740.923
294.3439, 5743.933
294.8260, 5750.007
295.3081, 5760.362
295.7902, 5776.861
296.2723, 5788.691
296.7545, 5790.410
297.2366, 5789.335
297.7187, 5787.197
298.2008, 5785.074
298.6829, 5786.410
299.1650, 5797.036
299.6472, 5818.513
300.1293, 5834.295
300.6114, 5838.483
301.0935, 5840.718
301.5756, 5844.489
302.0577, 5849.878
302.5399, 5855.984
303.0220, 5862.936
303.5041, 5870.544
303.9862, 5874.561
304.4683, 5874.565
304.9504, 5870.946
305.4326, 5859.879
305.9147, 5845.889
306.3968, 5837.255
306.8789, 5839.961
307.3610, 5851.354
307.8431, 5860.116
308.3253, 5866.083
308.8074, 5869.356
309.2895, 5868.853
309.7716, 5866.539
310.2537, 5864.524
310.7358, 5863.640
311.2180, 5863.865
311.7001, 5865.420
312.1822, 5869.269
312.6643, 5872.203
313.1464, 5871.349
313.6285, 5870.672
314.1107, 5874.542
314.5928, 5883.914
315.0749, 5894.062
315.5570, 5897.448
316.0391, 5891.628
316.5212, 5887.868
317.0034, 5886.539
317.4855, 5888.128
317.9676, 5895.295
318.4497, 5907.024
318.9318, 5917.690
319.4139, 5920.474
319.8961, 5914.275
320.3782, 5911.273
320.8603, 5914.922
321.3424, 5918.803
321.8245, 5919.780
322.3066, 5918.932
322.7888, 5919.172
323.2709, 5922.462
323.7530, 5928.661
324.2351, 5937.021
324.7172, 5951.383
325.1993, 5962.337
325.6815, 5964.999
326.1636, 5963.420
326.6457, 5963.606
327.1278, 5968.866
327.6099, 5976.490
328.0920, 5979.322
328.5742, 5974.000
329.0563, 5971.124
329.5384, 5975.729
330.0205, 5982.122
330.5026, 5985.621
330.9847, 5984.888
331.4669, 5981.392
331.9490, 5977.342
332.4311, 5973.217
332.9132, 5966.468
333.3953, 5954.960
333.8774, 5941.923
334.3596, 5929.311
334.8417, 5917.103
335.3238, 5903.815
335.8059, 5886.283
336.2880, 5864.328
336.7701, 5849.140
337.2523, 5849.521
337.7344, 5847.091
338.2165, 5832.946
338.6986, 5809.667
339.1807, 5783.620
339.6628, 5758.108
340.1450, 5732.937
340.6271, 5707.308
341.1092, 5681.503
341.5913, 5654.678
342.0735, 5628.263
342.5556, 5600.193
343.0377, 5566.720
343.5198, 5525.226
344.0019, 5481.467
344.4840, 5446.107
344.9662, 5421.284
345.4483, 5394.404
345.9304, 5360.689
346.4125, 5323.849
346.8946, 5285.143
347.3767, 5244.602
347.8589, 5205.672
348.3410, 5172.687
348.8231, 5145.357
349.3052, 5117.429
349.7873, 5088.445
350.2694, 5057.858
350.7516, 5024.751
351.2337, 4989.647
351.7158, 4955.354
352.1979, 4925.568
352.6800, 4897.851
353.1621, 4863.217
353.6443, 4818.010
354.1264, 4773.968
354.6085, 4738.447
355.0906, 4708.355
355.5727, 4679.911
356.0548, 4653.021
356.5370, 4625.878
357.0191, 4594.796
357.5012, 4559.382
357.9833, 4526.733
358.4654, 4502.959
358.9475, 4481.787
359.4297, 4455.148
359.9118, 4421.067
360.3939, 4387.356
360.8760, 4360.570
361.3581, 4339.515
361.8402, 4317.593
362.3224, 4293.490
362.8045, 4267.947
363.2866, 4241.405
363.7687, 4214.014
364.2508, 4186.805
364.7329, 4158.838
365.2151, 4131.598
365.6972, 4107.768
366.1793, 4087.715
366.6614, 4069.603
367.1435, 4053.003
367.6256, 4037.309
368.1078, 4020.727
368.5899, 4003.497
369.0720, 3984.801
369.5541, 3962.871
370.0362, 3938.293
370.5183, 3915.303
371.0005, 3896.286
371.4826, 3879.791
371.9647, 3862.492
372.4468, 3844.629
372.9289, 3825.750
373.4110, 3803.543
373.8932, 3780.577
374.3753, 3762.860
374.8574, 3752.488
375.3395, 3744.170
375.8216, 3730.958
376.3037, 3712.119
376.7859, 3694.993
377.2680, 3682.229
377.7501, 3670.059
378.2322, 3654.198
378.7143, 3634.958
379.1964, 3617.218
379.6786, 3604.929
380.1607, 3597.561
380.6428, 3588.052
381.1249, 3576.344
381.6070, 3563.041
382.0891, 3547.471
382.5713, 3530.507
383.0534, 3513.467
383.5355, 3496.730
384.0176, 3480.952
384.4997, 3467.456
384.9818, 3458.013
385.4640, 3448.100
385.9461, 3438.222
386.4282, 3427.507
386.9103, 3415.213
387.3924, 3401.317
387.8745, 3386.052
388.3567, 3369.585
388.8388, 3351.521
389.3209, 3335.249
389.8030, 3319.017
390.2851, 3305.887
390.7672, 3299.642
391.2494, 3297.218
391.7315, 3292.308
392.2136, 3280.996
392.6957, 3265.383
393.1778, 3253.899
393.6599, 3251.185
394.1421, 3246.100
394.6242, 3235.969
395.1063, 3224.108
395.5884, 3213.526
396.0706, 3204.937
396.5527, 3197.246
397.0348, 3188.749
397.5169, 3178.908
397.9990, 3170.542
398.4811, 3166.521
398.9633, 3161.417
399.4454, 3150.974
399.9275, 3137.458
400.4096, 3126.877
400.8917, 3124.429
401.3738, 3127.629
401.8560, 3125.719
402.3381, 3117.231
402.8202, 3106.174
403.3023, 3089.781
403.7844, 3073.612
404.2665, 3064.500
404.7487, 3064.836
405.2308, 3067.850
405.7129, 3065.011
406.1950, 3055.960
406.6771, 3047.784
407.1592, 3042.855
407.6414, 3037.998
408.1235, 3031.251
408.6056, 3022.642
409.0877, 3012.669
409.5698, 2999.901
410.0519, 2986.244
410.5341, 2976.859
411.0162, 2973.024
411.4983, 2969.085
411.9804, 2962.021
412.4625, 2952.431
412.9446, 2940.691
413.4268, 2924.671
413.9089, 2910.187
414.3910, 2903.453
414.8731, 2902.902
415.3552, 2900.828
415.8373, 2894.314
416.3195, 2886.041
416.8016, 2880.835
417.2837, 2879.167
417.7658, 2874.090
418.2479, 2860.937
418.7300, 2844.927
419.2122, 2832.155
419.6943, 2823.189
420.1764, 2814.695
420.6585, 2803.733
421.1406, 2790.767
421.6227, 2781.097
422.1049, 2776.912
422.5870, 2773.138
423.0691, 2768.341
423.5512, 2762.480
424.0333, 2755.503
424.5154, 2747.417
424.9976, 2738.292
425.4797, 2728.222
425.9618, 2716.090
426.4439, 2705.380
426.9260, 2697.731
427.4081, 2690.178
427.8903, 2680.226
428.3724, 2668.122
428.8545, 2655.989
429.3366, 2645.401
429.8187, 2636.332
430.3008, 2629.102
430.7830, 2626.575
431.2651, 2622.760
431.7472, 2615.898
432.2293, 2607.555
432.7114, 2599.399
433.1935, 2592.092
433.6757, 2585.834
434.1578, 2581.410
434.6399, 2579.679
435.1220, 2576.676
435.6041, 2570.054
436.0862, 2563.803
436.5684, 2560.251
437.0505, 2558.860
437.5326, 2557.485
438.0147, 2555.035
438.4968, 2551.376
438.9789, 2545.488
439.4611, 2535.901
439.9432, 2527.831
440.4253, 2525.233
440.9074, 2524.425
441.3895, 2521.215
441.8716, 2514.290
442.3538, 2507.554
442.8359, 2505.053
443.3180, 2506.077
443.8001, 2506.510
444.2822, 2505.625
444.7643, 2503.891
445.2465, 2501.641
445.7286, 2498.926
446.2107, 2495.841
446.6928, 2491.091
447.1749, 2486.865
447.6570, 2486.421
448.1392, 2489.302
448.6213, 2490.950
449.1034, 2488.709
449.5855, 2483.854
450.0677, 2479.938
450.5498, 2477.334
451.0319, 2474.667
451.5140, 2471.643
451.9961, 2468.342
452.4782, 2463.880
452.9604, 2458.386
453.4425, 2455.203
453.9246, 2458.607
454.4067, 2469.779
454.8888, 2474.779
455.3709, 2469.983
455.8531, 2464.148
456.3352, 2459.551
456.8173, 2456.267
457.2994, 2454.201
457.7815, 2453.335
458.2636, 2453.019
458.7458, 2451.797
459.2279, 2448.884
459.7100, 2446.723
460.1921, 2445.478
460.6742, 2444.823
461.1563, 2444.346
461.6385, 2444.224
462.1206, 2445.218
462.6027, 2448.323
463.0848, 2452.931
463.5669, 2455.640
464.0490, 2455.013
464.5312, 2455.338
465.0133, 2459.978
465.4954, 2465.220
465.9775, 2467.023
466.4596, 2464.318
466.9417, 2460.208
467.4239, 2456.840
467.9060, 2454.348
468.3881, 2453.991
468.8702, 2457.048
469.3523, 2460.136
469.8344, 2459.682
470.3166, 2456.885
470.7987, 2455.156
471.2808, 2455.578
471.7629, 2457.273
472.2450, 2460.076
472.7271, 2463.714
473.2093, 2466.499
473.6914, 2467.352
474.1735, 2467.692
474.6556, 2470.495
475.1377, 2476.350
475.6198, 2482.190
476.1020, 2486.623
476.5841, 2491.482
477.0662, 2499.028
477.5483, 2508.953
478.0304, 2518.856
478.5125, 2526.909
478.9947, 2533.251
479.4768, 2538.914
479.9589, 2542.733
480.4410, 2547.343
480.9231, 2554.172
481.4052, 2561.377
481.8874, 2566.136
482.3695, 2568.204
482.8516, 2570.886
483.3337, 2578.423
483.8158, 2591.343
484.2979, 2604.698
484.7801, 2619.458
485.2622, 2633.520
485.7443, 2645.067
486.2264, 2655.656
486.7085, 2667.467
487.1906, 2681.198
487.6728, 2697.329
488.1549, 2717.706
488.6370, 2742.644
489.1191, 2766.522
489.6012, 2787.093
490.0833, 2807.510
490.5655, 2831.377
491.0476, 2858.097
491.5297, 2883.183
492.0118, 2902.349
492.4939, 2920.358
492.9760, 2942.952
493.4582, 2970.265
493.9403, 3000.337
494.4224, 3032.954
494.9045, 3067.050
495.3866, 3099.160
495.8687, 3127.717
496.3509, 3158.739
496.8330, 3195.351
497.3151, 3234.177
497.7972, 3271.849
498.2793, 3307.807
498.7614, 3342.379
499.2436, 3375.247
499.7257, 3406.554
500.2078, 3441.639
500.6899, 3485.294
501.1720, 3526.940
501.6541, 3564.457
502.1363, 3599.301
502.6184, 3632.598
503.1005, 3664.948
503.5826, 3697.859
504.0647, 3733.540
504.5468, 3772.445
505.0290, 3809.627
505.5111, 3844.582
505.9932, 3878.573
506.4753, 3913.807
506.9575, 3947.970
507.4396, 3977.224
507.9217, 3999.768
508.4038, 4018.249
508.8859, 4034.792
509.3680, 4049.544
509.8502, 4065.241
510.3323, 4084.566
510.8144, 4101.651
511.2965, 4109.296
511.7786, 4109.060
512.2607, 4108.980
512.7429, 4110.933
513.2250, 4113.886
513.7071, 4117.568
514.1892, 4121.640
514.6713, 4125.133
515.1534, 4127.862
515.6356, 4129.171
516.1177, 4127.776
516.5998, 4123.351
517.0819, 4116.612
517.5640, 4106.100
518.0461, 4094.532
518.5283, 4083.258
519.0104, 4072.566
519.4925, 4062.692
519.9746, 4053.808
520.4567, 4045.760
520.9388, 4037.967
521.4210, 4030.177
521.9031, 4023.109
522.3852, 4016.457
522.8673, 4010.666
523.3494, 4006.433
523.8315, 4003.532
524.3137, 4000.799
524.7958, 3997.984
525.2779, 3994.558
525.7600, 3988.041
526.2421, 3977.284
526.7242, 3967.759
527.2064, 3962.283
527.6885, 3959.246
528.1706, 3956.484
528.6527, 3953.721
529.1348, 3952.131
529.6169, 3952.839
530.0991, 3954.938
530.5812, 3957.522
531.0633, 3960.446
531.5454, 3962.077
532.0275, 3961.273
532.5096, 3958.141
532.9918, 3953.295
533.4739, 3943.731
533.9560, 3936.601
534.4381, 3934.089
534.9202, 3934.347
535.4023, 3936.317
535.8845, 3939.281
536.3666, 3941.514
536.8487, 3941.286
537.3308, 3938.600
537.8129, 3934.508
538.2950, 3926.394
538.7772, 3920.356
539.2593, 3919.359
539.7414, 3920.199
540.2235, 3918.736
540.7056, 3914.039
541.1877, 3910.353
541.6699, 3913.902
542.1520, 3923.163
542.6341, 3927.054
543.1162, 3923.469
543.5983, 3917.784
544.0804, 3913.621
544.5626, 3909.694
545.0447, 3903.124
545.5268, 3891.619
546.0089, 3881.129
546.4910, 3876.357
546.9731, 3874.691
547.4553, 3871.388
547.9374, 3865.393
548.4195, 3857.454
548.9016, 3847.905
549.3837, 3836.654
549.8658, 3826.962
550.3480, 3820.758
550.8301, 3813.491
551.3122, 3802.494
551.7943, 3790.410
552.2764, 3780.843
552.7585, 3774.595
553.2407, 3769.125
553.7228, 3760.635
554.2049, 3748.677
554.6870, 3742.705
555.1691, 3751.939
555.6512, 3753.745
556.1334, 3734.296
556.6155, 3705.959
557.0976, 3684.863
557.5797, 3675.794
558.0618, 3670.072
558.5439, 3660.707
559.0261, 3648.315
559.5082, 3634.304
559.9903, 3618.226
560.4724, 3603.730
560.9545, 3594.876
561.4366, 3590.228
561.9188, 3582.025
562.4009, 3569.625
562.8830, 3554.449
563.3651, 3533.927
563.8472, 3512.153
564.3293, 3494.836
564.8115, 3483.108
565.2936, 3474.485
565.7757, 3466.815
566.2578, 3460.078
566.7399, 3452.611
567.2220, 3443.754
567.7042, 3434.922
568.1863, 3426.920
568.6684, 3418.771
569.1505, 3409.070
569.6326, 3397.743
570.1147, 3386.679
570.5969, 3378.307
571.0790, 3372.052
571.5611, 3364.171
572.0432, 3353.893
572.5253, 3343.987
573.0074, 3335.811
573.4896, 3328.938
573.9717, 3322.717
574.4538, 3317.254
574.9359, 3312.061
575.4180, 3307.984
575.9001, 3303.562
576.3823, 3296.006
576.8644, 3285.309
577.3465, 3274.627
577.8286, 3265.719
578.3107, 3259.004
578.7928, 3256.573
579.2750, 3265.825
579.7571, 3269.600
580.2392, 3262.001
580.7213, 3252.313
581.2034, 3247.391
581.6855, 3247.690
582.1677, 3250.326
582.6498, 3253.875
583.1319, 3257.346
583.6140, 3256.210
584.0961, 3248.024
584.5782, 3243.632
585.0604, 3248.812
585.5425, 3256.865
586.0246, 3261.904
586.5067, 3264.063
