##NAMES=Fluoborite
##RRUFFID=R061042
##IDEAL CHEMISTRY=Mg_3_(BO_3_)F_3_
##LOCALITY=Kinmount, Ontario, Canada
##OWNER=RRUFF
##SOURCE=Royal Ontario Museum
##DESCRIPTION=Off white massive bleb, fluorescent under short wave ultraviolet light, embedded in white calcite
##STATUS=The identification of this mineral is confirmed by single-crystal X-ray diffraction and chemical analysis.
##URL=rruff.info/R061042
##MEASURED CHEMISTRY=(Mg_0.99_Fe_0.01_)_Σ=3_(BO_3_)(F_1.96_(OH)_1.04_)_Σ=3_ ;  B assumed by stoichiometry; OH estimated by difference and stoichiometry
166.0538, 10004.68
166.5359, 10081.78
167.0180, 10172.66
167.5002, 10285.99
167.9823, 10405.68
168.4644, 10520.88
168.9465, 10630.96
169.4286, 10735.51
169.9107, 10826.28
170.3929, 10910.51
170.8750, 11005.87
171.3571, 11136.49
171.8392, 11275.15
172.3213, 11391.71
172.8034, 11478.64
173.2856, 11551.92
173.7677, 11635.90
174.2498, 11721.65
174.7319, 11777.36
175.2140, 11762.57
175.6961, 11710.76
176.1783, 11669.76
176.6604, 11643.91
177.1425, 11639.86
177.6246, 11672.92
178.1067, 11739.40
178.5888, 11817.69
179.0710, 11887.76
179.5531, 11957.07
180.0352, 12039.93
180.5173, 12134.37
180.9994, 12248.77
181.4815, 12395.40
181.9637, 12575.27
182.4458, 12779.00
182.9279, 13039.54
183.4100, 13329.59
183.8921, 13554.75
184.3742, 13706.88
184.8564, 13769.11
185.3385, 13674.32
185.8206, 13414.20
186.3027, 13088.08
186.7848, 12757.72
187.2669, 12431.31
187.7491, 12159.03
188.2312, 11967.41
188.7133, 11844.44
189.1954, 11742.87
189.6775, 11662.05
190.1596, 11609.00
190.6418, 11605.26
191.1239, 11649.56
191.6060, 11688.02
192.0881, 11693.99
192.5702, 11671.79
193.0524, 11659.99
193.5345, 11660.47
194.0166, 11666.55
194.4987, 11666.44
194.9808, 11659.38
195.4629, 11657.53
195.9451, 11665.67
196.4272, 11683.84
196.9093, 11715.54
197.3914, 11768.32
197.8735, 11822.95
198.3556, 11834.12
198.8378, 11793.83
199.3199, 11760.68
199.8020, 11773.07
200.2841, 11834.80
200.7662, 11882.20
201.2483, 11906.92
201.7305, 11919.65
202.2126, 11949.75
202.6947, 12002.77
203.1768, 12052.50
203.6589, 12078.42
204.1410, 12075.08
204.6232, 12087.45
205.1053, 12127.59
205.5874, 12182.43
206.0695, 12202.43
206.5516, 12174.09
207.0337, 12146.28
207.5159, 12156.94
207.9980, 12215.70
208.4801, 12265.66
208.9622, 12297.72
209.4443, 12315.71
209.9264, 12337.96
210.4086, 12364.82
210.8907, 12395.34
211.3728, 12429.75
211.8549, 12470.75
212.3370, 12506.75
212.8191, 12533.04
213.3013, 12551.70
213.7834, 12584.39
214.2655, 12637.73
214.7476, 12694.66
215.2297, 12736.25
215.7118, 12751.12
216.1940, 12784.15
216.6761, 12847.33
217.1582, 12939.35
217.6403, 13025.18
218.1224, 13098.10
218.6045, 13172.44
219.0867, 13259.51
219.5688, 13353.31
220.0509, 13473.68
220.5330, 13627.47
221.0151, 13817.39
221.4972, 14002.46
221.9794, 14176.80
222.4615, 14354.56
222.9436, 14554.39
223.4257, 14785.00
223.9078, 15022.41
224.3899, 15254.66
224.8721, 15482.53
225.3542, 15732.30
225.8363, 15997.76
226.3184, 16292.83
226.8005, 16640.41
227.2827, 17046.47
227.7648, 17490.10
228.2469, 17966.91
228.7290, 18474.65
229.2111, 19016.88
229.6932, 19588.72
230.1754, 20192.42
230.6575, 20836.36
231.1396, 21503.05
231.6217, 22234.57
232.1038, 23047.86
232.5859, 23952.28
233.0681, 24891.35
233.5502, 25878.96
234.0323, 26887.03
234.5144, 27899.71
234.9965, 28956.34
235.4786, 29940.99
235.9608, 30846.68
236.4429, 31695.72
236.9250, 32319.17
237.4071, 32714.46
237.8892, 32879.55
238.3713, 32801.05
238.8535, 32427.05
239.3356, 31894.85
239.8177, 31233.30
240.2998, 30418.63
240.7819, 29552.14
241.2640, 28585.53
241.7462, 27581.29
242.2283, 26636.43
242.7104, 25751.71
243.1925, 24925.27
243.6746, 24158.45
244.1567, 23453.04
244.6389, 22791.51
245.1210, 22173.48
245.6031, 21600.62
246.0852, 21082.95
246.5673, 20631.15
247.0494, 20216.47
247.5316, 19830.19
248.0137, 19473.24
248.4958, 19140.32
248.9779, 18834.22
249.4600, 18552.37
249.9421, 18296.87
250.4243, 18065.82
250.9064, 17861.36
251.3885, 17689.14
251.8706, 17560.84
252.3527, 17421.33
252.8348, 17258.03
253.3170, 17091.58
253.7991, 16965.07
254.2812, 16896.18
254.7633, 16835.76
255.2454, 16764.11
255.7275, 16675.27
256.2097, 16599.63
256.6918, 16539.23
257.1739, 16491.46
257.6560, 16449.64
258.1381, 16408.88
258.6202, 16384.23
259.1024, 16384.55
259.5845, 16416.91
260.0666, 16445.01
260.5487, 16468.62
261.0308, 16488.09
261.5129, 16505.10
261.9951, 16519.91
262.4772, 16531.31
262.9593, 16538.65
263.4414, 16541.75
263.9235, 16539.34
264.4056, 16523.64
264.8878, 16509.74
265.3699, 16531.78
265.8520, 16608.71
266.3341, 16667.87
266.8162, 16673.93
267.2983, 16615.45
267.7805, 16577.28
268.2626, 16563.73
268.7447, 16566.19
269.2268, 16574.24
269.7089, 16592.55
270.1910, 16599.41
270.6732, 16576.56
271.1553, 16517.30
271.6374, 16503.12
272.1195, 16551.78
272.6016, 16619.45
273.0837, 16627.52
273.5659, 16564.18
274.0480, 16502.53
274.5301, 16476.71
275.0122, 16488.92
275.4943, 16472.60
275.9764, 16419.72
276.4586, 16353.44
276.9407, 16308.23
277.4228, 16286.50
277.9049, 16269.69
278.3870, 16254.16
278.8691, 16239.47
279.3513, 16215.72
279.8334, 16182.55
280.3155, 16141.22
280.7976, 16090.01
281.2798, 16028.82
281.7619, 15970.23
282.2440, 15918.51
282.7261, 15873.41
283.2082, 15837.24
283.6903, 15813.86
284.1725, 15785.27
284.6546, 15714.51
285.1367, 15604.70
285.6188, 15523.46
286.1009, 15510.20
286.5830, 15546.44
287.0652, 15549.99
287.5473, 15517.10
288.0294, 15473.78
288.5115, 15449.04
288.9936, 15440.64
289.4757, 15430.74
289.9579, 15411.87
290.4400, 15387.53
290.9221, 15364.72
291.4042, 15343.05
291.8863, 15327.72
292.3684, 15326.04
292.8506, 15335.96
293.3327, 15349.64
293.8148, 15374.20
294.2969, 15395.62
294.7790, 15377.29
295.2611, 15319.04
295.7433, 15262.45
296.2254, 15242.20
296.7075, 15251.82
297.1896, 15275.63
297.6717, 15324.54
298.1538, 15372.32
298.6360, 15367.22
299.1181, 15313.69
299.6002, 15264.64
300.0823, 15263.73
300.5644, 15295.41
301.0465, 15332.40
301.5287, 15376.55
302.0108, 15411.79
302.4929, 15402.91
302.9750, 15359.44
303.4571, 15336.43
303.9392, 15400.94
304.4214, 15499.16
304.9035, 15558.11
305.3856, 15548.24
305.8677, 15512.20
306.3498, 15470.95
306.8319, 15430.07
307.3141, 15408.65
307.7962, 15439.63
308.2783, 15485.79
308.7604, 15507.79
309.2425, 15485.88
309.7246, 15463.96
310.2068, 15477.60
310.6889, 15514.08
311.1710, 15540.42
311.6531, 15531.39
312.1352, 15511.86
312.6173, 15500.65
313.0995, 15503.87
313.5816, 15506.78
314.0637, 15497.90
314.5458, 15484.19
315.0279, 15478.61
315.5100, 15485.70
315.9922, 15502.57
316.4743, 15532.91
316.9564, 15583.76
317.4385, 15620.51
317.9206, 15616.86
318.4027, 15595.67
318.8849, 15588.85
319.3670, 15612.17
319.8491, 15644.98
320.3312, 15686.23
320.8133, 15740.55
321.2954, 15774.26
321.7776, 15761.41
322.2597, 15732.52
322.7418, 15720.15
323.2239, 15757.51
323.7060, 15783.31
324.1881, 15773.82
324.6703, 15723.93
325.1524, 15696.95
325.6345, 15713.77
326.1166, 15746.67
326.5987, 15773.60
327.0808, 15795.11
327.5630, 15809.73
328.0451, 15813.75
328.5272, 15807.89
329.0093, 15807.77
329.4914, 15813.70
329.9735, 15825.01
330.4557, 15841.79
330.9378, 15868.33
331.4199, 15892.87
331.9020, 15913.51
332.3841, 15931.38
332.8662, 15953.97
333.3484, 15989.60
333.8305, 16016.96
334.3126, 16019.09
334.7947, 15979.46
335.2768, 15966.79
335.7589, 15991.31
336.2411, 16040.92
336.7232, 16088.03
337.2053, 16133.30
337.6874, 16173.07
338.1695, 16204.30
338.6516, 16225.45
339.1338, 16249.31
339.6159, 16276.54
340.0980, 16305.48
340.5801, 16330.96
341.0622, 16352.35
341.5443, 16379.31
342.0265, 16417.15
342.5086, 16464.80
342.9907, 16519.16
343.4728, 16582.66
343.9549, 16641.46
344.4370, 16672.81
344.9192, 16679.37
345.4013, 16687.65
345.8834, 16704.26
346.3655, 16729.78
346.8476, 16771.49
347.3297, 16829.97
347.8119, 16883.70
348.2940, 16903.05
348.7761, 16899.79
349.2582, 16909.41
349.7403, 16947.59
350.2225, 16997.72
350.7046, 17026.65
351.1867, 17039.53
351.6688, 17074.26
352.1509, 17185.72
352.6331, 17329.47
353.1152, 17438.41
353.5973, 17492.56
354.0794, 17518.02
354.5615, 17537.05
355.0436, 17546.33
355.5258, 17535.77
356.0079, 17492.77
356.4900, 17431.42
356.9721, 17359.24
357.4542, 17271.07
357.9363, 17193.44
358.4185, 17148.04
358.9006, 17122.54
359.3827, 17095.58
359.8648, 17037.13
360.3469, 16992.29
360.8290, 16994.31
361.3112, 17054.09
361.7933, 17100.68
362.2754, 17108.57
362.7575, 17093.13
363.2396, 17070.90
363.7217, 17037.91
364.2039, 17006.48
364.6860, 16973.30
365.1681, 16938.29
365.6502, 16927.38
366.1323, 16976.98
366.6144, 17031.22
367.0966, 17051.25
367.5787, 16976.57
368.0608, 16940.68
368.5429, 16972.37
369.0250, 17056.09
369.5071, 17110.78
369.9893, 17119.84
370.4714, 17119.14
370.9535, 17126.26
371.4356, 17148.29
371.9177, 17161.22
372.3998, 17160.58
372.8820, 17152.82
373.3641, 17151.07
373.8462, 17154.13
374.3283, 17166.57
374.8104, 17195.72
375.2925, 17245.01
375.7747, 17271.28
376.2568, 17269.74
376.7389, 17255.18
377.2210, 17245.28
377.7031, 17240.08
378.1852, 17239.81
378.6674, 17246.34
379.1495, 17257.76
379.6316, 17259.88
380.1137, 17250.03
380.5958, 17254.81
381.0779, 17313.33
381.5601, 17413.85
382.0422, 17494.24
382.5243, 17541.68
383.0064, 17563.29
383.4885, 17565.84
383.9706, 17550.91
384.4528, 17529.93
384.9349, 17499.05
385.4170, 17470.03
385.8991, 17464.26
386.3812, 17489.52
386.8633, 17523.15
387.3455, 17547.50
387.8276, 17564.15
388.3097, 17577.10
388.7918, 17583.72
389.2739, 17590.20
389.7560, 17604.20
390.2382, 17627.39
390.7203, 17644.63
391.2024, 17647.13
391.6845, 17639.39
392.1666, 17626.53
392.6487, 17592.59
393.1309, 17570.39
393.6130, 17580.23
394.0951, 17619.11
394.5772, 17651.56
395.0593, 17657.10
395.5414, 17660.63
396.0236, 17677.70
396.5057, 17724.57
396.9878, 17768.41
397.4699, 17816.92
397.9520, 17861.49
398.4341, 17874.22
398.9163, 17819.57
399.3984, 17770.01
399.8805, 17754.62
400.3626, 17790.54
400.8447, 17808.46
401.3268, 17796.06
401.8090, 17774.71
402.2911, 17775.05
402.7732, 17803.04
403.2553, 17837.96
403.7374, 17879.62
404.2195, 17926.58
404.7017, 17949.55
405.1838, 17941.97
405.6659, 17928.14
406.1480, 17930.78
406.6301, 17950.10
407.1122, 17969.78
407.5944, 17987.96
408.0765, 18003.78
408.5586, 18011.53
409.0407, 18011.47
409.5228, 18016.91
410.0049, 18037.75
410.4871, 18070.77
410.9692, 18111.62
411.4513, 18163.70
411.9334, 18208.42
412.4155, 18216.86
412.8976, 18199.87
413.3798, 18188.60
413.8619, 18213.24
414.3440, 18241.44
414.8261, 18227.07
415.3082, 18169.65
415.7903, 18130.74
416.2725, 18174.56
416.7546, 18249.87
417.2367, 18299.13
417.7188, 18280.41
418.2009, 18257.15
418.6830, 18259.54
419.1652, 18281.57
419.6473, 18301.16
420.1294, 18304.11
420.6115, 18307.82
421.0937, 18323.68
421.5758, 18362.84
422.0579, 18392.58
422.5400, 18402.86
423.0221, 18402.50
423.5042, 18405.93
423.9864, 18404.17
424.4685, 18417.07
424.9506, 18457.78
425.4327, 18529.96
425.9148, 18574.26
426.3969, 18576.49
426.8791, 18567.03
427.3612, 18571.10
427.8433, 18590.79
428.3254, 18617.55
428.8075, 18651.39
429.2896, 18691.10
429.7718, 18735.41
430.2539, 18787.28
430.7360, 18828.94
431.2181, 18842.42
431.7002, 18830.40
432.1823, 18832.14
432.6645, 18850.51
433.1466, 18879.75
433.6287, 18914.99
434.1108, 18955.06
434.5929, 18994.60
435.0750, 19029.47
435.5572, 19062.90
436.0393, 19103.35
436.5214, 19150.28
437.0035, 19192.58
437.4856, 19215.78
437.9677, 19230.25
438.4499, 19250.32
438.9320, 19280.91
439.4141, 19315.73
439.8962, 19361.93
440.3783, 19409.79
440.8604, 19435.71
441.3426, 19404.14
441.8247, 19366.28
442.3068, 19352.32
442.7889, 19370.13
443.2710, 19389.98
443.7531, 19403.50
444.2353, 19415.21
444.7174, 19430.37
445.1995, 19461.30
445.6816, 19482.80
446.1637, 19487.89
446.6458, 19478.00
447.1280, 19467.85
447.6101, 19454.74
448.0922, 19444.35
448.5743, 19440.96
449.0564, 19449.32
449.5385, 19451.49
450.0207, 19444.88
450.5028, 19433.85
450.9849, 19427.89
451.4670, 19428.98
451.9491, 19425.26
452.4312, 19409.10
452.9134, 19382.98
453.3955, 19366.29
453.8776, 19359.65
454.3597, 19358.05
454.8418, 19357.94
455.3239, 19359.09
455.8061, 19360.81
456.2882, 19363.78
456.7703, 19365.99
457.2524, 19357.19
457.7345, 19342.52
458.2166, 19343.12
458.6988, 19406.57
459.1809, 19474.29
459.6630, 19467.12
460.1451, 19365.50
460.6272, 19275.05
461.1093, 19277.08
461.5915, 19324.95
462.0736, 19360.87
462.5557, 19345.63
463.0378, 19334.86
463.5199, 19352.47
464.0020, 19395.04
464.4842, 19435.53
464.9663, 19485.96
465.4484, 19519.44
465.9305, 19517.64
466.4126, 19428.96
466.8947, 19396.74
467.3769, 19458.74
467.8590, 19560.55
468.3411, 19609.16
468.8232, 19567.26
469.3053, 19547.65
469.7874, 19593.50
470.2696, 19698.81
470.7517, 19748.13
471.2338, 19730.92
471.7159, 19690.14
472.1980, 19655.23
472.6801, 19626.34
473.1623, 19612.84
473.6444, 19615.53
474.1265, 19634.74
474.6086, 19686.13
475.0907, 19762.53
475.5728, 19817.36
476.0550, 19807.26
476.5371, 19766.39
477.0192, 19751.75
477.5013, 19765.42
477.9834, 19782.15
478.4655, 19772.62
478.9477, 19757.54
479.4298, 19765.32
479.9119, 19824.07
480.3940, 19882.79
480.8761, 19908.42
481.3582, 19911.98
481.8404, 19924.86
482.3225, 19986.12
482.8046, 20035.19
483.2867, 20035.95
483.7688, 19962.80
484.2509, 19919.87
484.7331, 19940.73
485.2152, 19983.04
485.6973, 20008.15
486.1794, 20008.00
486.6615, 20003.55
487.1436, 19992.54
487.6258, 19979.18
488.1079, 19983.90
488.5900, 20008.96
489.0721, 20045.99
489.5542, 20097.32
490.0363, 20163.46
490.5185, 20209.46
491.0006, 20232.65
491.4827, 20240.38
491.9648, 20232.00
492.4470, 20212.22
492.9291, 20208.81
493.4112, 20243.06
493.8933, 20288.57
494.3754, 20300.38
494.8575, 20283.15
495.3397, 20265.45
495.8218, 20268.27
496.3039, 20279.26
496.7860, 20281.04
497.2681, 20264.87
497.7502, 20263.84
498.2324, 20316.86
498.7145, 20389.58
499.1966, 20436.34
499.6787, 20421.96
500.1608, 20400.93
500.6429, 20384.47
501.1251, 20373.50
501.6072, 20374.94
502.0893, 20400.14
502.5714, 20428.17
503.0535, 20448.38
503.5356, 20453.06
504.0178, 20468.98
504.4999, 20500.99
504.9820, 20539.72
505.4641, 20573.91
505.9462, 20605.04
506.4283, 20622.28
506.9105, 20615.50
507.3926, 20593.88
507.8747, 20596.29
508.3568, 20623.83
508.8389, 20656.67
509.3210, 20677.99
509.8032, 20693.61
510.2853, 20724.58
510.7674, 20778.41
511.2495, 20826.60
511.7316, 20831.33
512.2137, 20809.22
512.6959, 20794.11
513.1780, 20802.62
513.6601, 20820.63
514.1422, 20840.51
514.6243, 20862.24
515.1064, 20886.50
515.5886, 20916.98
516.0707, 20947.77
516.5528, 20973.97
517.0349, 20989.04
517.5170, 21012.41
517.9991, 21059.46
518.4813, 21110.35
518.9634, 21138.56
519.4455, 21128.85
519.9276, 21122.57
520.4097, 21128.67
520.8918, 21145.22
521.3740, 21157.20
521.8561, 21159.68
522.3382, 21173.95
522.8203, 21220.92
523.3024, 21297.79
523.7845, 21365.22
524.2667, 21423.01
524.7488, 21464.93
525.2309, 21482.82
525.7130, 21479.39
526.1951, 21462.13
526.6772, 21414.90
527.1594, 21372.89
527.6415, 21386.38
528.1236, 21444.98
528.6057, 21503.65
529.0878, 21548.02
529.5699, 21574.70
530.0521, 21574.76
530.5342, 21539.67
531.0163, 21512.40
531.4984, 21510.31
531.9805, 21521.23
532.4626, 21532.18
532.9448, 21538.95
533.4269, 21548.63
533.9090, 21559.56
534.3911, 21573.70
534.8732, 21599.45
535.3553, 21644.20
535.8375, 21687.68
536.3196, 21725.45
536.8017, 21759.11
537.2838, 21759.68
537.7659, 21720.98
538.2480, 21669.57
538.7302, 21629.74
539.2123, 21600.99
539.6944, 21582.94
540.1765, 21576.96
540.6586, 21578.89
541.1407, 21583.31
541.6229, 21590.64
542.1050, 21602.31
542.5871, 21626.61
543.0692, 21650.73
543.5513, 21658.25
544.0334, 21648.53
544.5156, 21647.13
544.9977, 21682.56
545.4798, 21721.71
545.9619, 21736.60
546.4440, 21692.23
546.9261, 21667.77
547.4083, 21703.59
547.8904, 21760.03
548.3725, 21761.30
548.8546, 21654.98
549.3367, 21580.83
549.8188, 21584.39
550.3010, 21657.07
550.7831, 21695.75
551.2652, 21692.69
551.7473, 21681.53
552.2294, 21689.91
552.7115, 21714.68
553.1937, 21719.22
553.6758, 21695.97
554.1579, 21671.80
554.6400, 21687.79
555.1221, 21730.77
555.6042, 21761.85
556.0864, 21753.32
556.5685, 21741.33
557.0506, 21770.61
557.5327, 21828.86
558.0148, 21869.90
558.4969, 21854.76
558.9791, 21827.83
559.4612, 21816.75
559.9433, 21827.87
560.4254, 21836.98
560.9075, 21831.44
561.3896, 21826.82
561.8718, 21837.47
562.3539, 21879.14
562.8360, 21909.20
563.3181, 21922.26
563.8002, 21922.66
564.2823, 21918.17
564.7645, 21906.26
565.2466, 21901.51
565.7287, 21915.14
566.2108, 21941.08
566.6929, 21947.92
567.1750, 21935.13
567.6572, 21913.82
568.1393, 21876.13
568.6214, 21839.64
569.1035, 21849.28
569.5856, 21923.03
570.0677, 21998.15
570.5499, 22019.35
571.0320, 22008.76
571.5141, 22001.76
571.9962, 22018.15
572.4783, 22033.69
572.9604, 22036.11
573.4426, 22028.20
573.9247, 22025.23
574.4068, 22026.42
574.8889, 22036.34
575.3710, 22060.63
575.8531, 22105.04
576.3353, 22130.71
576.8174, 22129.12
577.2995, 22121.03
577.7816, 22125.37
578.2637, 22142.75
578.7458, 22168.64
579.2280, 22207.22
579.7101, 22245.15
580.1922, 22255.76
580.6743, 22242.65
581.1564, 22226.18
581.6385, 22210.11
582.1207, 22199.01
582.6028, 22201.59
583.0849, 22216.49
583.5670, 22233.06
584.0491, 22248.90
584.5313, 22261.40
585.0134, 22266.12
585.4955, 22257.12
585.9776, 22257.69
586.4597, 22291.18
586.9418, 22329.90
587.4240, 22340.54
587.9061, 22286.09
588.3882, 22260.59
588.8703, 22281.46
589.3524, 22335.68
589.8345, 22389.49
590.3167, 22446.99
590.7988, 22487.92
591.2809, 22494.78
591.7630, 22476.30
592.2451, 22480.39
592.7272, 22507.97
593.2094, 22535.70
593.6915, 22540.75
594.1736, 22532.84
594.6557, 22529.13
595.1378, 22531.60
595.6199, 22542.08
596.1021, 22572.92
596.5842, 22609.76
597.0663, 22632.22
597.5485, 22617.90
598.0306, 22604.27
598.5127, 22591.61
598.9948, 22586.39
599.4769, 22617.20
599.9590, 22738.33
600.4412, 22831.66
600.9233, 22849.39
601.4054, 22785.41
601.8875, 22743.71
602.3696, 22726.13
602.8517, 22727.23
603.3339, 22752.87
603.8160, 22800.06
604.2981, 22822.21
604.7802, 22809.18
605.2623, 22787.16
605.7444, 22793.01
606.2266, 22817.27
606.7087, 22834.06
607.1908, 22827.65
607.6729, 22816.91
608.1550, 22803.46
608.6371, 22795.66
609.1193, 22820.21
609.6014, 22942.64
610.0835, 23052.87
610.5656, 23083.93
611.0477, 23017.59
611.5298, 22987.13
612.0120, 23025.57
612.4941, 23072.60
612.9762, 23083.00
613.4583, 23037.13
613.9404, 23030.56
614.4225, 23080.60
614.9047, 23147.02
615.3868, 23168.59
615.8689, 23148.93
616.3510, 23133.20
616.8331, 23134.29
617.3152, 23146.37
617.7974, 23164.77
618.2795, 23187.47
618.7616, 23207.48
619.2437, 23217.58
619.7258, 23225.94
620.2079, 23242.48
620.6901, 23267.33
621.1722, 23281.24
621.6543, 23246.02
622.1364, 23219.79
622.6185, 23247.02
623.1006, 23376.27
623.5828, 23454.49
624.0649, 23463.15
624.5470, 23437.79
625.0291, 23410.13
625.5112, 23371.40
625.9933, 23385.63
626.4755, 23484.68
626.9576, 23614.94
627.4397, 23652.74
627.9218, 23609.74
628.4039, 23574.72
628.8860, 23607.11
629.3682, 23664.49
629.8503, 23689.67
630.3324, 23685.58
630.8145, 23675.06
631.2966, 23647.00
631.7787, 23634.39
632.2609, 23669.87
632.7430, 23775.22
633.2251, 23858.43
633.7072, 23881.11
634.1893, 23886.30
634.6714, 23910.27
635.1536, 23964.77
635.6357, 24011.31
636.1178, 24042.22
636.5999, 24068.53
637.0820, 24114.42
637.5641, 24180.84
638.0463, 24237.68
638.5284, 24271.15
639.0105, 24293.06
639.4926, 24334.73
639.9747, 24390.89
640.4568, 24430.07
640.9390, 24410.63
641.4211, 24380.63
641.9032, 24391.33
642.3853, 24446.16
642.8674, 24491.86
643.3495, 24506.00
643.8317, 24504.22
644.3138, 24496.80
644.7959, 24481.47
645.2780, 24467.18
645.7601, 24458.83
646.2422, 24447.35
646.7244, 24416.98
647.2065, 24361.00
647.6886, 24324.36
648.1707, 24320.97
648.6528, 24332.71
649.1349, 24315.84
649.6171, 24276.16
650.0992, 24254.26
650.5813, 24295.74
651.0634, 24348.72
651.5455, 24335.59
652.0276, 24269.68
652.5098, 24223.12
652.9919, 24261.67
653.4740, 24310.35
653.9561, 24321.48
654.4382, 24284.92
654.9203, 24243.67
655.4025, 24178.80
655.8846, 24130.48
656.3667, 24133.64
656.8488, 24218.88
657.3309, 24259.56
657.8130, 24239.56
658.2952, 24196.08
658.7773, 24184.64
