##NAMES=Fluor-buergerite
##RRUFFID=R060132
##IDEAL CHEMISTRY=NaFe^3+^_3_Al_6_(Si_6_O_18_)(BO_3_)_3_O_3_F
##LOCALITY=20 km. south of San Luis Potasi, Mexico
##OWNER=RRUFF
##SOURCE=University of Arizona Mineral Museum
##DESCRIPTION=Brown short prismatic
##STATUS=The identification of this mineral has been confirmed by X-ray diffraction and chemical analysis
##URL=rruff.info/R060132
##MEASURED CHEMISTRY=(Na_0.87_Ca_0.03_[box]_0.10_)(Fe^3+^_0.82_Al_0.12_Mg_0.04_Ti_0.02_)_3_Al_6_(BO_3_)_3_(Si_0.98_Al_0.02_)_6_O_18_(O_0.66_F_0.19_(OH)_0.15_)_4_
90.26367, 11.65083
90.74579, 11.58992
91.22791, 11.57080
91.71002, 11.59763
92.19214, 11.71298
92.67426, 12.17528
93.15637, 12.78378
93.63850, 12.97753
94.12061, 12.29990
94.60273, 11.15712
95.08485, 10.50273
95.56696, 10.37581
96.04908, 10.51281
96.53120, 10.65284
97.01331, 10.79459
97.49543, 10.96201
97.97755, 11.21832
98.45966, 11.54923
98.94178, 11.70525
99.42390, 11.64288
99.90602, 11.46594
100.3881, 11.39093
100.8703, 11.45913
101.3524, 11.47965
101.8345, 11.26045
102.3166, 10.65501
102.7987, 10.51507
103.2808, 11.18027
103.7630, 12.34656
104.2451, 12.54758
104.7272, 11.16064
105.2093, 9.633665
105.6914, 8.950388
106.1735, 9.741336
106.6557, 10.30663
107.1378, 10.40089
107.6199, 10.01097
108.1020, 9.594204
108.5841, 8.908884
109.0662, 8.321790
109.5484, 8.152746
110.0305, 8.754780
110.5126, 9.421542
110.9947, 10.10376
111.4768, 10.86930
111.9590, 11.35399
112.4411, 11.27980
112.9232, 10.96804
113.4053, 10.83418
113.8874, 11.08458
114.3695, 11.41559
114.8517, 11.72508
115.3338, 12.01122
115.8159, 12.24659
116.2980, 12.30362
116.7801, 12.30084
117.2622, 12.49301
117.7444, 13.25262
118.2265, 14.07581
118.7086, 14.60812
119.1907, 14.62736
119.6728, 14.57724
120.1549, 14.62494
120.6371, 14.78348
121.1192, 15.10717
121.6013, 15.68490
122.0834, 16.42241
122.5655, 17.21836
123.0477, 18.09409
123.5298, 18.97066
124.0119, 19.68689
124.4940, 20.26412
124.9761, 21.00687
125.4582, 22.21789
125.9404, 23.76096
126.4225, 25.36115
126.9046, 26.93498
127.3867, 28.49355
127.8688, 30.13983
128.3509, 31.90173
128.8331, 33.47900
129.3152, 34.33654
129.7973, 34.62846
130.2794, 35.10436
130.7615, 36.04418
131.2436, 37.43074
131.7258, 39.26364
132.2079, 41.60257
132.6900, 44.21284
133.1721, 46.83617
133.6542, 49.46243
134.1364, 51.93156
134.6185, 54.04369
135.1006, 55.83147
135.5827, 57.87938
136.0648, 60.22523
136.5469, 62.87595
137.0291, 66.01450
137.5112, 69.77364
137.9933, 73.38468
138.4754, 76.41296
138.9575, 78.79610
139.4396, 80.80399
139.9218, 82.38480
140.4039, 83.60485
140.8860, 84.59546
141.3681, 84.97591
141.8502, 85.79991
142.3323, 88.13257
142.8145, 92.95164
143.2966, 96.80612
143.7787, 98.84333
144.2608, 99.11777
144.7429, 99.94836
145.2251, 101.4373
145.7072, 103.4040
146.1893, 105.7270
146.6714, 108.7212
147.1535, 111.5868
147.6356, 114.0032
148.1178, 115.7994
148.5999, 118.2586
149.0820, 121.9832
149.5641, 126.1099
150.0462, 129.5922
150.5283, 132.2355
151.0105, 134.3855
151.4926, 134.8043
151.9747, 134.3690
152.4568, 134.0109
152.9389, 134.2320
153.4210, 134.4430
153.9032, 133.8058
154.3853, 131.8586
154.8674, 129.4383
155.3495, 126.7824
155.8316, 123.8045
156.3138, 120.7819
156.7959, 117.5975
157.2780, 114.3980
157.7601, 111.4778
158.2422, 108.9419
158.7243, 106.6230
159.2065, 104.4047
159.6886, 102.2217
160.1707, 100.2086
160.6528, 98.44215
161.1349, 96.87298
161.6170, 95.37739
162.0992, 93.79419
162.5813, 92.33401
163.0634, 91.15303
163.5455, 90.47073
164.0276, 89.81348
164.5097, 88.93774
164.9919, 87.89843
165.4740, 86.90910
165.9561, 85.89732
166.4382, 85.06200
166.9203, 84.57561
167.4025, 84.61790
167.8846, 84.88412
168.3667, 85.30082
168.8488, 85.83329
169.3309, 86.25223
169.8130, 86.50840
170.2952, 86.54820
170.7773, 86.29562
171.2594, 85.39610
171.7415, 84.44434
172.2236, 83.91550
172.7057, 83.79471
173.1879, 83.90298
173.6700, 84.17081
174.1521, 84.56980
174.6342, 85.05161
175.1163, 85.72855
175.5984, 86.41883
176.0806, 86.89555
176.5627, 87.16111
177.0448, 87.31609
177.5269, 87.41882
178.0090, 87.47649
178.4911, 87.50881
178.9733, 87.42482
179.4554, 87.35039
179.9375, 87.52982
180.4196, 87.98310
180.9017, 88.49988
181.3839, 88.88977
181.8660, 89.16553
182.3481, 89.38329
182.8302, 89.49664
183.3123, 89.57671
183.7944, 89.80920
184.2766, 90.22143
184.7587, 90.68224
185.2408, 90.99306
185.7229, 91.18660
186.2050, 91.48019
186.6871, 91.92735
187.1693, 92.55340
187.6514, 93.51184
188.1335, 94.91021
188.6156, 96.34170
189.0977, 97.14488
189.5798, 97.34722
190.0620, 97.56778
190.5441, 98.15333
191.0262, 99.05492
191.5083, 99.94078
191.9904, 100.8026
192.4725, 101.6522
192.9547, 102.5587
193.4368, 103.5360
193.9189, 104.3944
194.4010, 104.9084
194.8831, 105.1161
195.3652, 105.6040
195.8474, 106.4068
196.3295, 107.5109
196.8116, 109.0265
197.2937, 111.0022
197.7758, 112.8821
198.2579, 114.2658
198.7401, 115.1415
199.2222, 116.0498
199.7043, 116.9699
200.1864, 117.9864
200.6685, 119.3723
201.1507, 121.1878
201.6328, 123.0509
202.1149, 124.7109
202.5970, 126.1401
203.0791, 127.5982
203.5612, 128.9669
204.0434, 130.4620
204.5255, 132.8661
205.0076, 136.4804
205.4897, 139.9699
205.9718, 142.2915
206.4539, 143.1392
206.9361, 144.6956
207.4182, 147.3102
207.9003, 150.6801
208.3824, 153.8882
208.8645, 156.8257
209.3466, 159.9117
209.8288, 163.4743
210.3109, 167.6140
210.7930, 171.8034
211.2751, 176.0498
211.7572, 180.2876
212.2393, 184.4144
212.7215, 188.3230
213.2036, 192.2598
213.6857, 196.3073
214.1678, 200.3837
214.6499, 204.9183
215.1321, 210.0971
215.6142, 215.7928
216.0963, 221.3227
216.5784, 226.5673
217.0605, 231.8243
217.5426, 237.3847
218.0248, 243.4663
218.5069, 248.9881
218.9890, 253.5757
219.4711, 257.5153
219.9532, 262.2943
220.4353, 268.3015
220.9175, 274.5773
221.3996, 280.6464
221.8817, 286.4672
222.3638, 292.0323
222.8459, 297.1342
223.3280, 301.9809
223.8102, 307.2054
224.2923, 312.9632
224.7744, 318.9883
225.2565, 325.1476
225.7386, 331.6423
226.2208, 337.7342
226.7029, 343.2440
227.1850, 348.2820
227.6671, 353.2067
228.1492, 358.2545
228.6313, 362.8535
229.1135, 366.6337
229.5956, 369.4893
230.0777, 371.8817
230.5598, 374.1175
231.0419, 375.9691
231.5240, 376.3279
232.0062, 374.8940
232.4883, 372.3942
232.9704, 369.1998
233.4525, 365.1642
233.9346, 360.7965
234.4167, 356.1949
234.8989, 351.3149
235.3810, 345.9225
235.8631, 339.6636
236.3452, 333.2573
236.8273, 327.0579
237.3095, 321.2387
237.7916, 315.2467
238.2737, 308.8675
238.7558, 302.2530
239.2379, 295.9275
239.7200, 289.8859
240.2022, 284.1271
240.6843, 278.6408
241.1664, 273.6223
241.6485, 268.4218
242.1306, 262.8173
242.6127, 256.9927
243.0949, 251.8502
243.5770, 247.5470
244.0591, 243.6991
244.5412, 240.2425
245.0233, 237.5304
245.5054, 234.3610
245.9876, 230.4756
246.4697, 226.1542
246.9518, 222.1098
247.4339, 218.2056
247.9160, 214.7649
248.3981, 212.0571
248.8803, 210.4591
249.3624, 208.6269
249.8445, 206.3979
250.3266, 203.9504
250.8087, 201.7834
251.2909, 200.0480
251.7730, 198.3704
252.2551, 196.5874
252.7372, 194.5823
253.2193, 192.7382
253.7014, 191.1264
254.1836, 189.6572
254.6657, 188.1485
255.1478, 186.5891
255.6299, 185.0073
256.1120, 183.4216
256.5941, 181.9073
257.0763, 180.1523
257.5584, 177.9797
258.0405, 175.6608
258.5226, 173.8228
259.0047, 172.7120
259.4868, 171.5461
259.9690, 170.0386
260.4511, 168.1409
260.9332, 166.1209
261.4153, 163.9216
261.8974, 161.6245
262.3795, 159.3662
262.8617, 157.0554
263.3438, 154.9615
263.8259, 153.2505
264.3080, 152.0342
264.7901, 150.3992
265.2722, 148.1635
265.7544, 145.7253
266.2365, 143.6868
266.7186, 142.1175
267.2007, 140.7553
267.6829, 139.6150
268.1650, 138.7070
268.6471, 137.5471
269.1292, 136.0248
269.6113, 134.3930
270.0934, 132.9361
270.5756, 131.6381
271.0577, 130.5399
271.5398, 129.7484
272.0219, 129.2407
272.5040, 128.3464
272.9861, 126.9060
273.4683, 125.4477
273.9504, 124.5472
274.4325, 124.2869
274.9146, 124.1720
275.3967, 124.1695
275.8788, 124.2355
276.3610, 123.9278
276.8431, 123.1163
277.3252, 122.3356
277.8073, 122.1559
278.2894, 122.6347
278.7715, 123.0563
279.2537, 123.2625
279.7358, 123.3109
280.2179, 123.4511
280.7000, 123.7016
281.1821, 123.9698
281.6642, 124.1647
282.1464, 124.2860
282.6285, 124.4504
283.1106, 124.6293
283.5927, 124.9018
284.0748, 125.5705
284.5569, 126.6808
285.0391, 127.7906
285.5212, 128.5614
286.0033, 129.0215
286.4854, 129.5311
286.9675, 130.1501
287.4496, 130.8117
287.9318, 131.2930
288.4139, 131.5934
288.8960, 132.0958
289.3781, 133.1389
289.8602, 134.6240
290.3424, 136.0792
290.8245, 137.4903
291.3066, 138.8042
291.7887, 139.9610
292.2708, 140.9589
292.7530, 141.7135
293.2351, 141.9868
293.7172, 141.9663
294.1993, 142.2148
294.6814, 142.7731
295.1635, 143.5417
295.6457, 144.5609
296.1278, 145.7398
296.6099, 146.6756
297.0920, 147.2726
297.5741, 147.4701
298.0562, 146.9940
298.5384, 145.8078
299.0205, 144.4300
299.5026, 143.4407
299.9847, 142.6819
300.4668, 141.6987
300.9489, 140.3732
301.4311, 138.7117
301.9132, 136.6785
302.3953, 134.2675
302.8774, 131.7428
303.3595, 129.2035
303.8416, 126.6978
304.3238, 124.2374
304.8059, 121.8500
305.2880, 119.5516
305.7701, 117.3838
306.2522, 115.3355
306.7343, 113.4709
307.2165, 111.8122
307.6986, 110.3440
308.1807, 109.0307
308.6628, 107.7962
309.1449, 106.7939
309.6270, 106.1871
310.1092, 105.9051
310.5913, 105.7425
311.0734, 105.5845
311.5555, 105.4937
312.0376, 105.5476
312.5197, 105.8082
313.0019, 106.0808
313.4840, 106.1274
313.9661, 106.1114
314.4482, 106.3655
314.9304, 107.2988
315.4125, 108.3567
315.8946, 109.1697
316.3767, 109.6463
316.8588, 110.1464
317.3409, 110.9773
317.8231, 111.8842
318.3052, 112.5280
318.7873, 112.3034
319.2694, 112.2437
319.7515, 112.8799
320.2336, 114.2897
320.7158, 115.6528
321.1979, 116.7898
321.6800, 117.7435
322.1621, 118.5467
322.6442, 118.9455
323.1263, 119.4611
323.6085, 120.2456
324.0906, 121.2867
324.5727, 122.3638
325.0548, 123.4104
325.5369, 124.4961
326.0190, 125.6609
326.5012, 127.0089
326.9833, 128.3260
327.4654, 129.6835
327.9475, 131.0198
328.4296, 132.0657
328.9117, 132.5975
329.3939, 133.0338
329.8760, 133.5327
330.3581, 134.0421
330.8402, 134.7086
331.3223, 135.5469
331.8044, 136.5374
332.2866, 137.6678
332.7687, 139.0816
333.2508, 140.4003
333.7329, 141.4880
334.2150, 142.2901
334.6971, 143.1202
335.1793, 143.9580
335.6614, 144.8532
336.1435, 145.8792
336.6256, 147.1072
337.1077, 148.2938
337.5899, 149.2627
338.0720, 150.0608
338.5541, 151.4159
339.0362, 153.5232
339.5183, 155.7868
340.0005, 157.5780
340.4826, 158.8227
340.9647, 160.2677
341.4468, 162.0944
341.9289, 164.1735
342.4110, 166.0835
342.8932, 167.7675
343.3753, 169.5419
343.8574, 171.6917
344.3395, 174.1974
344.8216, 176.4584
345.3037, 178.3374
345.7859, 180.0960
346.2680, 182.1817
346.7501, 184.5967
347.2322, 187.1051
347.7143, 189.5706
348.1964, 192.0446
348.6786, 194.8008
349.1607, 197.9375
349.6428, 201.0325
350.1249, 203.3842
350.6070, 205.2816
351.0891, 207.7039
351.5713, 211.5185
352.0534, 215.8269
352.5355, 219.1839
353.0176, 221.5894
353.4997, 224.1226
353.9818, 227.8688
354.4640, 232.2184
354.9461, 236.2726
355.4282, 239.5749
355.9103, 242.6988
356.3924, 246.0430
356.8745, 249.6258
357.3567, 253.4279
357.8388, 257.7766
358.3209, 262.1780
358.8030, 266.2217
359.2851, 269.7052
359.7672, 273.1005
360.2494, 276.4887
360.7315, 279.9938
361.2136, 283.7857
361.6957, 288.5569
362.1779, 293.1583
362.6600, 296.8246
363.1421, 299.3430
363.6242, 302.1594
364.1063, 305.9713
364.5884, 310.1978
365.0706, 314.2123
365.5527, 317.7443
366.0348, 321.1856
366.5169, 324.6670
366.9990, 328.1725
367.4811, 331.4388
367.9633, 334.5648
368.4454, 337.3669
368.9275, 339.7281
369.4096, 341.9189
369.8917, 343.2952
370.3738, 343.6407
370.8560, 343.1701
371.3381, 342.4851
371.8202, 341.6528
372.3023, 340.5166
372.7844, 339.1714
373.2665, 337.9175
373.7487, 335.1889
374.2308, 330.4370
374.7129, 324.7666
375.1950, 319.6473
375.6771, 315.3337
376.1592, 310.7241
376.6414, 305.4798
377.1235, 299.6531
377.6056, 293.4649
378.0877, 286.7325
378.5698, 280.0724
379.0519, 274.0316
379.5341, 268.6661
380.0162, 263.0571
380.4983, 256.9931
380.9804, 250.7163
381.4625, 244.9829
381.9446, 239.7155
382.4268, 234.8908
382.9089, 230.5457
383.3910, 226.6157
383.8731, 222.7312
384.3553, 218.8691
384.8374, 215.1345
385.3195, 211.6168
385.8016, 208.3347
386.2837, 205.2780
386.7658, 202.5752
387.2480, 200.0741
387.7301, 197.5934
388.2122, 195.1389
388.6943, 192.6209
389.1764, 189.6372
389.6585, 186.6761
390.1407, 184.4720
390.6228, 183.6437
391.1049, 183.0206
391.5870, 181.9028
392.0691, 180.3878
392.5512, 178.7686
393.0334, 176.9469
393.5155, 175.2261
393.9976, 173.8747
394.4797, 173.0801
394.9618, 172.1262
395.4439, 170.3713
395.9261, 168.4418
396.4082, 167.1761
396.8903, 167.6313
397.3724, 167.8812
397.8545, 167.3669
398.3366, 166.0517
398.8188, 164.5473
399.3009, 162.6309
399.7830, 160.7117
400.2651, 159.0413
400.7472, 157.5700
401.2293, 156.4396
401.7115, 155.8699
402.1936, 155.6195
402.6757, 154.9307
403.1578, 153.5861
403.6399, 152.1694
404.1220, 150.9397
404.6042, 149.9284
405.0863, 148.9053
405.5684, 147.9408
406.0505, 146.8703
406.5326, 145.4064
407.0147, 143.4783
407.4969, 141.6506
407.9790, 140.0410
408.4611, 138.6433
408.9432, 137.4961
409.4254, 136.6293
409.9075, 135.7693
410.3896, 134.6824
410.8717, 133.4091
411.3538, 132.0945
411.8359, 130.7325
412.3181, 129.4407
412.8002, 128.4775
413.2823, 127.7754
413.7644, 126.9906
414.2465, 125.9007
414.7286, 124.6478
415.2108, 123.3309
415.6929, 121.9601
416.1750, 120.7298
416.6571, 119.9019
417.1392, 119.2817
417.6213, 118.5754
418.1035, 117.6311
418.5856, 116.6441
419.0677, 115.7347
419.5498, 114.8796
420.0319, 114.0272
420.5140, 113.0494
420.9962, 112.1324
421.4783, 111.4068
421.9604, 110.9671
422.4425, 110.5162
422.9246, 109.8507
423.4067, 109.1822
423.8889, 108.7938
424.3710, 109.0837
424.8531, 109.2803
425.3352, 109.1816
425.8173, 108.7875
426.2994, 108.4629
426.7816, 108.3089
427.2637, 108.1245
427.7458, 107.7550
428.2279, 107.0558
428.7100, 106.5310
429.1921, 106.3068
429.6743, 106.2174
430.1564, 105.8370
430.6385, 105.0714
431.1206, 104.3806
431.6028, 104.0046
432.0849, 103.9223
432.5670, 103.6697
433.0491, 103.2025
433.5312, 102.7451
434.0133, 102.5811
434.4955, 102.6652
434.9776, 102.6751
435.4597, 102.4848
435.9418, 102.2402
436.4239, 102.2613
436.9060, 102.5028
437.3882, 102.6727
437.8703, 102.4384
438.3524, 102.0702
438.8345, 101.9951
439.3166, 102.2930
439.7987, 102.6385
440.2809, 102.8490
440.7630, 102.9226
441.2451, 102.8556
441.7272, 102.5418
442.2093, 102.1807
442.6914, 101.7548
443.1736, 101.3154
443.6557, 101.1860
444.1378, 101.8584
444.6199, 102.6267
445.1020, 103.0282
445.5841, 102.7951
446.0663, 102.5919
446.5484, 102.4745
447.0305, 102.4472
447.5126, 102.5205
447.9947, 102.7848
448.4768, 103.0361
448.9590, 103.2194
449.4411, 103.3312
449.9232, 103.5078
450.4053, 103.8659
450.8874, 104.1202
451.3695, 103.9540
451.8517, 103.1729
452.3338, 102.8655
452.8159, 103.2682
453.2980, 104.0306
453.7801, 104.4708
454.2622, 104.5733
454.7444, 104.5207
455.2265, 104.2660
455.7086, 103.9069
456.1907, 104.0172
456.6729, 104.6465
457.1550, 105.1212
457.6371, 104.5207
458.1192, 103.2980
458.6013, 102.5973
459.0834, 102.9084
459.5656, 103.4569
460.0477, 103.3365
460.5298, 102.7509
461.0119, 102.3099
461.4940, 102.5359
461.9761, 102.8843
462.4583, 102.8942
462.9404, 102.5054
463.4225, 102.1201
463.9046, 101.8020
464.3867, 101.6297
464.8688, 101.6842
465.3510, 102.4588
465.8331, 102.9277
466.3152, 102.6900
466.7973, 101.9438
467.2794, 101.4060
467.7615, 101.2483
468.2437, 101.1756
468.7258, 101.1216
469.2079, 101.1231
469.6900, 100.9683
470.1721, 100.5821
470.6542, 100.1214
471.1364, 99.68204
471.6185, 99.16903
472.1006, 99.11410
472.5827, 99.81820
473.0648, 100.9124
473.5469, 101.1707
474.0291, 100.5293
474.5112, 99.81048
474.9933, 99.58472
475.4754, 99.69920
475.9575, 99.39735
476.4396, 98.59789
476.9218, 97.80799
477.4039, 97.67394
477.8860, 97.96629
478.3681, 98.16279
478.8503, 98.11863
479.3324, 97.88356
479.8145, 97.32069
480.2966, 96.55222
480.7787, 96.05013
481.2608, 96.26319
481.7430, 96.67030
482.2251, 96.95121
482.7072, 97.07788
483.1893, 97.01965
483.6714, 96.55943
484.1535, 95.99987
484.6357, 95.64619
485.1178, 95.65892
485.5999, 95.75002
486.0820, 95.90410
486.5641, 96.11008
487.0462, 96.34941
487.5284, 96.77348
488.0105, 97.02544
488.4926, 96.86767
488.9747, 96.16652
489.4568, 95.97669
489.9389, 96.46004
490.4211, 97.16684
490.9032, 97.65191
491.3853, 97.91955
491.8674, 97.89320
492.3495, 97.42480
492.8316, 96.80861
493.3138, 96.68846
493.7959, 97.03809
494.2780, 97.59373
494.7601, 98.38432
495.2422, 99.22704
495.7243, 99.70463
496.2065, 99.79234
496.6886, 99.81420
497.1707, 99.99228
497.6528, 100.2824
498.1349, 100.6242
498.6170, 101.0078
499.0992, 101.4326
499.5813, 102.0556
500.0634, 102.7287
500.5455, 103.0971
501.0276, 102.5151
501.5097, 102.0794
501.9919, 102.3293
502.4740, 103.4177
502.9561, 104.3454
503.4382, 104.9849
503.9203, 105.4870
504.4025, 105.9357
504.8846, 106.2141
505.3667, 106.6950
505.8488, 107.5433
506.3309, 108.5138
506.8130, 108.9585
507.2952, 108.6946
507.7773, 108.7343
508.2594, 109.6338
508.7415, 111.1755
509.2236, 112.0583
509.7057, 112.2338
510.1879, 112.3679
510.6700, 113.0546
511.1521, 114.1450
511.6342, 115.2422
512.1163, 116.3070
512.5984, 117.2490
513.0806, 117.7991
513.5627, 118.1574
514.0448, 118.7425
514.5269, 120.1836
515.0090, 121.5456
515.4911, 122.0573
515.9733, 121.8391
516.4554, 121.7301
516.9375, 122.0883
517.4196, 122.6293
517.9017, 123.2194
518.3839, 123.9293
518.8660, 124.4709
519.3481, 124.7407
519.8302, 124.8560
520.3123, 124.9435
520.7944, 125.1063
521.2766, 125.0476
521.7587, 124.6497
522.2408, 124.0108
522.7229, 123.4914
523.2050, 123.1092
523.6871, 122.7902
524.1693, 122.4886
524.6514, 122.2150
525.1335, 122.0740
525.6156, 122.0934
526.0977, 122.0644
526.5798, 121.7698
527.0620, 121.2520
527.5441, 120.6150
528.0262, 119.8157
528.5083, 119.0444
528.9904, 118.4777
529.4725, 118.1021
529.9547, 117.8939
530.4368, 118.1760
530.9189, 118.3559
531.4010, 117.8953
531.8831, 116.7909
532.3652, 115.9384
532.8474, 115.7304
533.3295, 115.7837
533.8116, 115.8657
534.2937, 116.0292
534.7758, 116.0932
535.2579, 116.1291
535.7401, 116.0286
536.2222, 115.5971
536.7043, 114.6232
537.1865, 113.8014
537.6686, 113.2872
538.1507, 113.0373
538.6328, 112.9563
539.1149, 113.1007
539.5970, 113.0635
540.0792, 112.3469
540.5613, 111.1753
541.0434, 110.8087
541.5255, 111.3696
542.0076, 111.9611
542.4897, 111.4121
542.9719, 110.2826
543.4540, 109.7521
543.9361, 110.4594
544.4182, 111.3041
544.9003, 111.3585
545.3824, 110.8947
545.8646, 110.5190
546.3467, 110.5891
546.8288, 110.6991
547.3109, 110.6245
547.7930, 110.3518
548.2751, 110.2049
548.7573, 110.4680
549.2394, 110.6856
549.7215, 110.6036
550.2036, 110.0742
550.6857, 109.5649
551.1678, 109.0170
551.6500, 108.5503
552.1321, 108.3872
552.6142, 108.5844
553.0963, 108.7143
553.5784, 108.6752
554.0605, 108.5100
554.5427, 108.2773
555.0248, 107.9855
555.5069, 107.7781
555.9890, 107.8630
556.4711, 108.0514
556.9532, 107.9540
557.4354, 107.5571
557.9175, 107.1799
558.3996, 106.9970
558.8817, 106.9930
559.3638, 107.1843
559.8459, 107.6965
560.3281, 108.1487
560.8102, 108.3656
561.2923, 108.4279
561.7744, 108.4595
562.2565, 108.4386
562.7386, 108.4386
563.2208, 108.4702
563.7029, 108.5341
564.1850, 108.6213
564.6671, 108.6720
565.1492, 108.8516
565.6313, 109.2664
566.1135, 109.9292
566.5956, 110.6868
567.0777, 111.6191
567.5598, 112.3451
568.0419, 112.1810
568.5240, 111.3615
569.0062, 111.1841
569.4883, 112.0953
569.9704, 113.2737
570.4525, 113.5619
570.9346, 113.2729
571.4167, 113.2007
571.8989, 113.9350
572.3810, 114.8272
572.8631, 115.3941
573.3452, 115.6851
573.8273, 116.1112
574.3094, 117.0904
574.7916, 118.0346
575.2737, 118.5550
575.7558, 118.3695
576.2379, 118.5659
576.7200, 119.4589
577.2021, 120.4954
577.6843, 121.1753
578.1664, 121.3500
578.6485, 121.5993
579.1306, 122.0121
579.6127, 122.4981
580.0948, 122.8211
580.5770, 122.9780
581.0591, 123.3418
581.5412, 124.1179
582.0233, 125.1618
582.5054, 126.3227
582.9875, 127.5365
