##NAMES=Fluorapatite
##RRUFFID=R050529
##IDEAL CHEMISTRY=Ca_5_(PO_4_)_3_F
##LOCALITY=Limburg de an Lahn, Germany
##OWNER=RRUFF
##SOURCE=University of Arizona Mineral Museum
##DESCRIPTION=Botryoidal aggregate
##STATUS=The identification of this mineral has been confirmed by X-ray diffraction and chemical analysis
##URL=rruff.info/R050529
##MEASURED CHEMISTRY=(Ca_4.68_[box]_0.32_)_Σ=5_((PO_4_)_2.36_(CO_3_)_0.64_)_Σ=3_F_1.00_
92.37695, 220.7881
92.85907, 217.1365
93.34119, 218.0798
93.82330, 222.0962
94.30542, 224.9638
94.78754, 225.3197
95.26965, 223.8014
95.75177, 221.5623
96.23389, 218.8028
96.71600, 215.8296
97.19812, 213.0440
97.68024, 210.5342
98.16235, 208.2558
98.64447, 206.1397
99.12659, 204.1745
99.60870, 201.9279
100.0908, 199.9451
100.5729, 198.1644
101.0551, 196.4326
101.5372, 194.6218
102.0193, 192.7590
102.5014, 191.1527
102.9835, 189.9468
103.4656, 188.8102
103.9478, 187.6974
104.4299, 186.5902
104.9120, 185.4926
105.3941, 184.4134
105.8762, 183.3411
106.3583, 182.1958
106.8405, 181.0485
107.3226, 179.7370
107.8047, 178.1134
108.2868, 176.1839
108.7689, 174.1172
109.2510, 172.0250
109.7332, 169.8808
110.2153, 168.0912
110.6974, 166.8954
111.1795, 166.0376
111.6616, 165.0906
112.1437, 163.8921
112.6259, 162.7802
113.1080, 162.1279
113.5901, 161.9000
114.0722, 161.8155
114.5543, 161.8310
115.0364, 161.9299
115.5185, 161.7495
116.0007, 160.7556
116.4828, 159.7982
116.9649, 159.4334
117.4470, 159.7392
117.9291, 160.3495
118.4112, 160.7800
118.8934, 160.9070
119.3755, 161.1501
119.8576, 161.5524
120.3397, 162.0693
120.8218, 162.7266
121.3039, 163.5291
121.7861, 164.3726
122.2682, 164.9612
122.7503, 164.7988
123.2324, 164.9034
123.7145, 165.5605
124.1966, 166.4940
124.6788, 167.2657
125.1609, 167.5989
125.6430, 167.5783
126.1251, 167.9570
126.6072, 168.8677
127.0893, 169.9297
127.5715, 171.0046
128.0536, 172.0989
128.5357, 173.2657
129.0178, 174.5684
129.4999, 175.9958
129.9821, 177.4179
130.4642, 178.8466
130.9463, 180.2713
131.4284, 181.6860
131.9105, 183.0897
132.3926, 184.4882
132.8748, 185.8160
133.3569, 187.1443
133.8390, 188.6032
134.3211, 190.4643
134.8032, 192.5314
135.2853, 194.1085
135.7674, 194.8549
136.2496, 195.5399
136.7317, 196.7974
137.2138, 198.3574
137.6959, 199.5356
138.1780, 199.7900
138.6601, 199.0725
139.1423, 197.9369
139.6244, 196.3036
140.1065, 194.2961
140.5886, 191.7337
141.0707, 188.7389
141.5528, 185.6747
142.0350, 182.9926
142.5171, 180.8924
142.9992, 178.6641
143.4813, 176.2175
143.9634, 173.7391
144.4455, 171.2843
144.9277, 168.8942
145.4098, 166.6082
145.8919, 164.4902
146.3740, 162.5357
146.8561, 160.8006
147.3382, 159.3269
147.8204, 158.0558
148.3025, 156.9524
148.7846, 156.0259
149.2667, 155.1787
149.7488, 154.1562
150.2309, 152.8538
150.7131, 151.7174
151.1952, 150.9145
151.6773, 150.4084
152.1594, 150.1343
152.6415, 150.1997
153.1236, 150.3624
153.6058, 150.2465
154.0879, 149.7932
154.5700, 149.2448
155.0521, 148.7024
155.5342, 148.1554
156.0163, 147.8671
156.4985, 148.2200
156.9806, 148.7471
157.4627, 149.0794
157.9448, 149.1175
158.4269, 148.9986
158.9090, 148.9593
159.3912, 149.1200
159.8733, 149.0352
160.3554, 148.3060
160.8375, 147.4485
161.3196, 146.9432
161.8017, 147.0159
162.2839, 147.4736
162.7660, 147.7431
163.2481, 147.6934
163.7302, 147.6101
164.2123, 147.4964
164.6944, 147.3873
165.1766, 147.3462
165.6587, 147.4185
166.1408, 147.5639
166.6229, 147.5077
167.1050, 147.0371
167.5871, 146.5989
168.0693, 146.2524
168.5514, 146.0050
169.0335, 145.8817
169.5156, 145.9282
169.9977, 146.1170
170.4798, 146.0293
170.9620, 145.4769
171.4441, 144.8918
171.9262, 144.4937
172.4083, 144.2516
172.8904, 143.9616
173.3725, 143.4114
173.8547, 142.6718
174.3368, 142.2725
174.8189, 142.5620
175.3010, 142.9465
175.7831, 142.8834
176.2652, 142.3401
176.7474, 141.7856
177.2295, 141.5784
177.7116, 141.6266
178.1937, 141.7237
178.6758, 141.9551
179.1579, 142.1659
179.6401, 142.1301
180.1222, 141.8266
180.6043, 141.3235
181.0864, 140.4778
181.5685, 139.4872
182.0506, 138.7001
182.5328, 138.4009
183.0149, 138.4075
183.4970, 138.1469
183.9791, 137.5359
184.4612, 136.7529
184.9433, 135.8510
185.4255, 134.8681
185.9076, 133.8505
186.3897, 132.7957
186.8718, 131.7202
187.3539, 130.8270
187.8360, 130.2350
188.3182, 129.7198
188.8003, 129.2857
189.2824, 128.8788
189.7645, 128.3994
190.2466, 127.7487
190.7287, 126.9108
191.2109, 126.2344
191.6930, 125.7174
192.1751, 125.3550
192.6572, 125.2150
193.1393, 125.2453
193.6214, 125.3462
194.1036, 125.4578
194.5857, 125.6189
195.0678, 125.4399
195.5499, 124.4261
196.0320, 123.5915
196.5141, 123.5309
196.9963, 124.1602
197.4784, 124.9522
197.9605, 125.4319
198.4426, 125.5490
198.9247, 125.6307
199.4068, 125.5782
199.8890, 125.5665
200.3711, 125.7028
200.8532, 125.9975
201.3353, 126.4164
201.8174, 126.9760
202.2995, 127.6837
202.7817, 128.2465
203.2638, 128.5678
203.7459, 128.7896
204.2280, 129.0150
204.7101, 129.2533
205.1922, 129.5452
205.6744, 129.9513
206.1565, 130.4548
206.6386, 130.9751
207.1207, 131.6790
207.6028, 132.3233
208.0849, 132.4535
208.5671, 131.8913
209.0492, 131.3707
209.5313, 131.6974
210.0134, 132.5233
210.4955, 133.1103
210.9776, 133.0445
211.4598, 132.5745
211.9419, 132.2425
212.4240, 132.0826
212.9061, 132.0136
213.3882, 132.0634
213.8703, 132.1576
214.3525, 132.1495
214.8346, 131.9077
215.3167, 131.5053
215.7988, 131.2311
216.2809, 131.2017
216.7630, 131.1169
217.2451, 130.7214
217.7273, 130.1994
218.2094, 129.8785
218.6915, 130.0029
219.1736, 130.4934
219.6557, 130.8728
220.1378, 131.0452
220.6200, 131.2134
221.1021, 131.4217
221.5842, 131.6698
222.0663, 131.9625
222.5484, 132.3161
223.0305, 132.7162
223.5127, 133.0185
223.9948, 132.9452
224.4769, 133.0733
224.9590, 133.6631
225.4411, 134.5273
225.9232, 135.3512
226.4054, 135.9311
226.8875, 136.2811
227.3696, 136.5983
227.8517, 136.7891
228.3338, 137.0439
228.8159, 137.4501
229.2981, 137.9470
229.7802, 138.4299
230.2623, 138.8369
230.7444, 139.1691
231.2265, 139.4248
231.7086, 139.6145
232.1908, 139.7249
232.6729, 139.6892
233.1550, 139.5721
233.6371, 139.5185
234.1192, 139.6363
234.6013, 139.8751
235.0835, 139.8393
235.5656, 139.3180
236.0477, 138.8102
236.5298, 138.4384
237.0119, 138.1904
237.4940, 138.0489
237.9762, 138.0330
238.4583, 138.0871
238.9404, 137.9454
239.4225, 137.5376
239.9046, 137.0593
240.3867, 136.5531
240.8689, 136.0249
241.3510, 135.4765
241.8331, 134.8847
242.3152, 134.3019
242.7973, 133.8822
243.2794, 133.7255
243.7616, 133.5458
244.2437, 133.1206
244.7258, 132.5591
245.2079, 132.2275
245.6900, 132.3681
246.1721, 132.7173
246.6543, 132.7382
247.1364, 132.3670
247.6185, 131.8968
248.1006, 131.3413
248.5827, 130.7755
249.0648, 130.4792
249.5470, 130.6104
250.0291, 130.9953
250.5112, 131.3921
250.9933, 131.8261
251.4754, 132.1442
251.9576, 132.1412
252.4397, 131.9123
252.9218, 131.9130
253.4039, 132.4026
253.8860, 132.9818
254.3681, 133.1543
254.8503, 132.9218
255.3324, 132.7576
255.8145, 133.0494
256.2966, 133.6947
256.7787, 134.1335
257.2608, 134.0722
257.7430, 134.0507
258.2251, 134.5967
258.7072, 135.6260
259.1893, 136.5792
259.6714, 136.9982
260.1535, 136.9954
260.6357, 137.2157
261.1178, 137.8249
261.5999, 138.5338
262.0820, 139.2140
262.5641, 139.8454
263.0462, 140.3699
263.5284, 140.7141
264.0105, 140.9041
264.4926, 141.0909
264.9747, 141.2119
265.4568, 141.4278
265.9389, 141.8560
266.4211, 142.4207
266.9032, 142.9656
267.3853, 143.3894
267.8674, 143.7194
268.3495, 144.0945
268.8316, 144.6166
269.3138, 145.0171
269.7959, 145.1359
270.2780, 145.1016
270.7601, 145.1208
271.2422, 145.3341
271.7243, 145.6438
272.2065, 145.6917
272.6886, 145.2495
273.1707, 144.9310
273.6528, 144.9450
274.1349, 145.1374
274.6170, 145.3717
275.0992, 145.6056
275.5813, 145.7681
276.0634, 145.6697
276.5455, 145.2085
277.0276, 144.6568
277.5097, 143.9034
277.9919, 143.1811
278.4740, 142.7607
278.9561, 142.7342
279.4382, 142.8732
279.9203, 142.7151
280.4024, 142.0242
280.8846, 141.5428
281.3667, 141.5548
281.8488, 141.6366
282.3309, 141.4449
282.8130, 140.9080
283.2951, 140.2403
283.7773, 139.7538
284.2594, 139.5059
284.7415, 139.3080
285.2236, 139.3332
285.7057, 139.2669
286.1878, 138.8657
286.6700, 138.1359
287.1521, 137.2988
287.6342, 136.6120
288.1163, 136.1425
288.5984, 135.5749
289.0805, 134.7355
289.5627, 133.9605
290.0448, 133.4593
290.5269, 133.1838
291.0090, 132.9215
291.4911, 132.4642
291.9732, 131.7879
292.4554, 131.2348
292.9375, 131.0233
293.4196, 130.7141
293.9017, 130.1367
294.3838, 129.3455
294.8659, 128.4715
295.3481, 127.6003
295.8302, 126.7316
296.3123, 125.9097
296.7944, 124.9997
297.2765, 124.2894
297.7586, 123.9312
298.2408, 123.7934
298.7229, 123.7003
299.2050, 123.5588
299.6871, 123.3743
300.1692, 123.1695
300.6513, 123.0239
301.1335, 122.7515
301.6156, 122.2533
302.0977, 121.6592
302.5798, 121.0828
303.0619, 120.5740
303.5440, 120.1468
304.0262, 119.8306
304.5083, 119.7177
304.9904, 119.5898
305.4725, 119.4132
305.9546, 119.2401
306.4367, 119.1474
306.9189, 119.1378
307.4010, 119.1019
307.8831, 118.8624
308.3652, 118.2523
308.8473, 117.8843
309.3294, 118.0050
309.8116, 118.1256
310.2937, 117.9075
310.7758, 117.3645
311.2579, 116.7590
311.7400, 116.3634
312.2221, 116.2196
312.7043, 115.9626
313.1864, 115.6023
313.6685, 115.1389
314.1506, 114.5051
314.6327, 113.7611
315.1148, 113.0427
315.5970, 112.4574
316.0791, 111.9917
316.5612, 111.4534
317.0433, 110.9776
317.5254, 110.2753
318.0075, 109.1214
318.4897, 107.7356
318.9718, 106.4181
319.4539, 105.3203
319.9360, 104.4245
320.4181, 103.6726
320.9002, 103.4129
321.3824, 102.8560
321.8645, 101.7586
322.3466, 100.4520
322.8287, 99.21878
323.3108, 98.17020
323.7929, 97.27247
324.2751, 96.49955
324.7572, 96.01601
325.2393, 95.32539
325.7214, 94.19756
326.2035, 93.05637
326.6856, 92.20877
327.1678, 91.67573
327.6499, 91.24308
328.1320, 90.65939
328.6141, 89.85027
329.0962, 89.26404
329.5783, 89.12675
330.0605, 88.96548
330.5426, 88.58179
331.0247, 88.00058
331.5068, 87.33112
331.9889, 86.63974
332.4710, 85.93427
332.9532, 85.34623
333.4353, 85.01357
333.9174, 84.64944
334.3995, 84.08357
334.8816, 83.48242
335.3637, 83.12634
335.8459, 83.16705
336.3280, 83.43671
336.8101, 83.43399
337.2922, 83.00172
337.7743, 82.50443
338.2564, 81.85146
338.7386, 81.21709
339.2206, 80.78036
339.7028, 80.57885
340.1849, 80.48896
340.6670, 80.33763
341.1491, 80.14067
341.6312, 79.83571
342.1133, 79.26943
342.5955, 78.73758
343.0776, 78.43635
343.5597, 78.34477
344.0418, 78.28725
344.5239, 78.07665
345.0060, 77.69358
345.4882, 77.49897
345.9703, 77.77596
346.4524, 77.97339
346.9345, 77.91028
347.4166, 77.66350
347.8987, 77.38160
348.3809, 77.15105
348.8630, 76.96198
349.3451, 76.77832
349.8272, 76.58910
350.3093, 76.42117
350.7914, 76.26782
351.2736, 76.13972
351.7557, 76.04739
352.2378, 75.99391
352.7199, 75.97786
353.2020, 76.02831
353.6841, 76.21866
354.1663, 76.24527
354.6484, 75.88203
355.1305, 75.49736
355.6126, 75.30964
356.0947, 75.33114
356.5768, 75.43156
357.0590, 75.51992
357.5411, 75.59965
358.0232, 75.57905
358.5053, 75.40071
358.9874, 75.17722
359.4695, 74.94286
359.9517, 74.70286
360.4338, 74.45523
360.9159, 74.17495
361.3980, 73.90256
361.8801, 73.78887
362.3622, 73.94301
362.8444, 74.01442
363.3265, 73.75982
363.8086, 73.41821
364.2907, 73.26025
364.7728, 73.38673
365.2549, 73.59657
365.7371, 73.59184
366.2192, 73.33529
366.7013, 73.20985
367.1834, 73.40900
367.6655, 73.68974
368.1476, 73.91074
368.6298, 74.05781
369.1119, 74.10325
369.5940, 73.98197
370.0761, 73.72921
370.5582, 73.50001
371.0403, 73.27412
371.5225, 73.13847
372.0046, 73.21130
372.4867, 73.41323
372.9688, 73.56422
373.4509, 73.59753
373.9330, 73.54141
374.4152, 73.35635
374.8973, 73.00380
375.3794, 72.86549
375.8615, 73.31504
376.3436, 74.01627
376.8257, 74.45214
377.3079, 74.51258
377.7900, 74.46635
378.2721, 74.46535
378.7542, 74.51047
379.2363, 74.61922
379.7184, 74.82742
380.2006, 75.05035
380.6827, 75.18215
381.1648, 75.22761
381.6469, 75.23401
382.1290, 75.08447
382.6111, 74.95818
383.0933, 75.20171
383.5754, 75.87583
384.0575, 76.49999
384.5396, 76.67091
385.0217, 76.42451
385.5038, 76.22154
385.9860, 76.01305
386.4681, 75.90781
386.9502, 76.06913
387.4323, 76.41148
387.9144, 76.62684
388.3965, 76.53992
388.8787, 76.28092
389.3608, 76.18473
389.8429, 76.23592
390.3250, 76.43220
390.8071, 76.94852
391.2892, 77.53420
391.7714, 77.83231
392.2535, 77.77260
392.7356, 77.64953
393.2177, 77.82703
393.6998, 78.40474
394.1819, 78.79039
394.6641, 78.83082
395.1462, 78.83632
395.6283, 79.02101
396.1104, 79.32772
396.5925, 79.53323
397.0746, 79.47578
397.5568, 79.22289
398.0389, 79.15383
398.5210, 79.39224
399.0031, 79.67386
399.4852, 79.97816
399.9673, 80.30888
400.4495, 80.71455
400.9316, 81.19694
401.4137, 81.64423
401.8958, 81.84692
402.3779, 81.60421
402.8600, 81.67252
403.3422, 82.14655
403.8243, 82.79955
404.3064, 83.60863
404.7885, 84.50793
405.2706, 85.36739
405.7527, 86.06795
406.2349, 86.64161
406.7170, 87.31081
407.1991, 88.07738
407.6812, 88.94482
408.1633, 89.87355
408.6454, 90.90662
409.1276, 92.13099
409.6097, 93.57932
410.0918, 95.10271
410.5739, 96.42956
411.0560, 97.46761
411.5381, 98.77956
412.0203, 100.6347
412.5024, 102.6442
412.9845, 104.6224
413.4666, 106.5510
413.9487, 108.4594
414.4308, 110.3107
414.9130, 112.1446
415.3951, 114.0925
415.8772, 116.1247
416.3593, 118.3473
416.8414, 120.9091
417.3235, 123.6708
417.8057, 126.4499
418.2878, 129.1618
418.7699, 131.9676
419.2520, 134.9529
419.7341, 138.1393
420.2162, 141.7809
420.6984, 146.0555
421.1805, 150.6767
421.6626, 155.1047
422.1447, 159.3452
422.6268, 164.1272
423.1089, 170.0049
423.5911, 176.4407
424.0732, 182.7149
424.5553, 188.7221
425.0374, 194.8714
425.5195, 201.4669
426.0016, 208.4675
426.4838, 215.4573
426.9659, 222.8449
427.4480, 229.7917
427.9301, 236.0755
428.4122, 241.6167
428.8943, 246.1537
429.3765, 249.5807
429.8586, 252.1788
430.3407, 254.4953
430.8228, 257.0458
431.3049, 257.9316
431.7870, 256.5580
432.2692, 253.9523
432.7513, 250.6550
433.2334, 246.8173
433.7155, 242.4451
434.1976, 237.4979
434.6797, 232.0380
435.1619, 226.8408
435.6440, 221.9303
436.1261, 217.2513
436.6082, 212.7315
437.0903, 208.4718
437.5724, 204.5652
438.0546, 201.0567
438.5367, 197.8969
439.0188, 195.0293
439.5009, 192.4913
439.9830, 190.1333
440.4651, 187.6921
440.9473, 185.6498
441.4294, 184.3382
441.9115, 183.6411
442.3936, 183.2287
442.8757, 182.9415
443.3578, 182.7440
443.8400, 182.5611
444.3221, 182.4791
444.8042, 182.1908
445.2863, 181.5806
445.7684, 180.7191
446.2505, 179.6266
446.7327, 178.3020
447.2148, 176.8467
447.6969, 175.3876
448.1790, 173.8969
448.6611, 172.1814
449.1432, 170.1780
449.6254, 168.0201
450.1075, 165.8338
450.5896, 163.5990
451.0717, 161.1911
451.5538, 158.4456
452.0359, 155.6113
452.5181, 153.0452
453.0002, 150.6768
453.4823, 148.0012
453.9644, 144.6827
454.4465, 141.0481
454.9286, 137.8498
455.4108, 135.2075
455.8929, 132.5685
456.3750, 129.6661
456.8571, 126.7846
457.3392, 124.2665
457.8214, 122.1425
458.3035, 120.1169
458.7856, 117.9133
459.2677, 115.5241
459.7498, 113.2890
460.2319, 111.1910
460.7141, 109.2352
461.1962, 107.4681
461.6783, 105.8276
462.1604, 104.2795
462.6425, 102.8033
463.1246, 101.3160
463.6068, 99.61367
464.0889, 97.44276
464.5710, 95.76934
465.0531, 95.07957
465.5352, 94.40726
466.0173, 93.19645
466.4995, 91.60371
466.9816, 90.12521
467.4637, 89.08407
467.9458, 88.38451
468.4279, 87.75591
468.9100, 87.27757
469.3922, 86.65627
469.8743, 85.56567
470.3564, 84.43887
470.8385, 83.72811
471.3206, 83.48927
471.8027, 83.16605
472.2849, 82.16018
472.7670, 80.68793
473.2491, 79.62751
473.7312, 79.15440
474.2133, 78.81066
474.6954, 78.30211
475.1776, 77.67448
475.6597, 77.02063
476.1418, 76.24146
476.6239, 75.58328
477.1060, 75.33974
477.5881, 75.36970
478.0703, 75.23621
478.5524, 74.78279
479.0345, 74.16611
479.5166, 73.60564
479.9987, 73.11565
480.4808, 72.60965
480.9630, 71.97303
481.4451, 71.41342
481.9272, 71.16222
482.4093, 71.13124
482.8914, 71.00060
483.3735, 70.55876
483.8557, 69.93037
484.3378, 69.56612
484.8199, 69.80049
485.3020, 69.82454
485.7841, 69.37822
486.2662, 68.87973
486.7484, 68.69089
487.2305, 68.81973
487.7126, 69.00378
488.1947, 69.02544
488.6768, 68.88652
489.1589, 68.61677
489.6411, 68.10117
490.1232, 67.63478
490.6053, 67.30395
491.0874, 67.06582
491.5695, 66.87095
492.0516, 66.70451
492.5338, 66.59667
493.0159, 66.63345
493.4980, 66.78897
493.9801, 66.82236
494.4622, 66.67738
494.9443, 66.44724
495.4265, 66.15853
495.9086, 65.84095
496.3907, 65.58843
496.8728, 65.45368
497.3549, 65.36519
497.8370, 65.24148
498.3192, 65.10828
498.8013, 65.09264
499.2834, 65.27644
499.7655, 65.50172
500.2476, 65.48810
500.7297, 65.13667
501.2119, 64.90163
501.6940, 64.95852
502.1761, 65.01826
502.6582, 64.81572
503.1403, 64.42137
503.6224, 64.10551
504.1045, 64.04001
504.5866, 64.16558
505.0688, 64.27599
505.5509, 64.45361
506.0330, 64.47546
506.5151, 64.19074
506.9972, 63.86406
507.4793, 63.66773
507.9615, 63.62507
508.4436, 63.69193
508.9257, 63.87899
509.4078, 64.14619
509.8899, 64.22451
510.3720, 64.03049
510.8542, 63.82904
511.3363, 63.74274
511.8184, 63.68576
512.3005, 63.55021
512.7827, 63.30577
513.2648, 63.10645
513.7469, 63.15505
514.2290, 63.33877
514.7111, 63.29181
515.1932, 62.92673
515.6754, 62.52726
516.1575, 62.29295
516.6396, 62.20821
517.1217, 62.16335
517.6038, 62.12548
518.0859, 62.16238
518.5681, 62.43719
519.0502, 62.77393
519.5323, 62.81187
520.0144, 62.45543
520.4965, 62.02238
520.9786, 61.91254
521.4608, 62.19905
521.9429, 62.36660
522.4250, 62.27740
522.9071, 62.24032
523.3892, 62.40386
523.8713, 62.67959
524.3535, 62.96841
524.8356, 63.22516
525.3177, 63.36480
525.7998, 63.16626
526.2819, 62.50959
526.7640, 62.12103
527.2462, 62.24966
527.7283, 62.44982
528.2104, 62.56330
528.6925, 62.57867
529.1746, 62.47748
529.6567, 62.19606
530.1389, 61.88444
530.6210, 61.75043
531.1031, 61.78633
531.5852, 61.86309
532.0673, 61.96290
532.5494, 62.06081
533.0316, 62.12423
533.5137, 62.15552
533.9958, 62.17831
534.4779, 62.17034
534.9600, 62.17767
535.4421, 62.29651
535.9243, 62.47141
536.4064, 62.49464
536.8885, 62.25034
537.3706, 61.88568
537.8527, 61.71883
538.3348, 61.89318
538.8170, 61.98206
539.2991, 61.86329
539.7812, 61.77494
540.2633, 61.90782
540.7454, 62.19178
541.2275, 62.40370
541.7097, 62.39220
542.1918, 62.27314
542.6739, 62.36895
543.1560, 62.75880
543.6381, 63.11315
544.1202, 63.38501
544.6024, 63.58455
545.0845, 63.69415
545.5666, 63.72765
546.0487, 63.74560
546.5308, 63.75282
547.0129, 63.77833
547.4951, 63.89595
547.9772, 64.10242
548.4593, 64.25381
548.9414, 64.26993
549.4235, 64.22274
549.9056, 64.21805
550.3878, 64.23149
550.8699, 64.37740
551.3520, 64.79320
551.8341, 65.26058
552.3162, 65.62037
552.7983, 65.86725
553.2805, 66.02142
553.7626, 66.08079
554.2447, 66.11575
554.7268, 66.34697
555.2089, 66.98808
555.6910, 67.44197
556.1732, 67.46405
556.6553, 67.51627
557.1374, 67.92839
557.6195, 68.63523
558.1016, 69.34493
558.5837, 69.86562
559.0659, 70.28931
559.5480, 70.80102
560.0301, 71.38086
560.5122, 72.17011
560.9943, 73.35548
561.4764, 74.62630
561.9586, 75.68350
562.4407, 76.53294
562.9228, 77.32505
563.4049, 77.94389
563.8870, 78.65122
564.3691, 79.75694
564.8513, 81.22121
565.3334, 82.83366
565.8155, 84.53856
566.2976, 86.22170
566.7797, 87.65711
567.2618, 88.64677
567.7440, 89.84364
568.2261, 91.37756
568.7082, 92.98768
569.1903, 94.48433
569.6724, 95.93594
570.1545, 97.52824
570.6367, 99.34595
571.1188, 101.4036
571.6009, 103.6857
572.0830, 106.1749
572.5651, 109.0378
573.0472, 112.5010
573.5294, 116.1504
574.0115, 119.7222
574.4936, 123.3049
574.9757, 127.1293
575.4578, 131.2803
575.9399, 135.7301
576.4221, 140.4722
576.9042, 145.4846
577.3863, 150.7688
577.8684, 156.3833
578.3505, 162.0768
578.8326, 167.7408
579.3148, 173.4095
579.7969, 177.8393
580.2790, 181.0269
580.7611, 182.9164
581.2432, 183.5454
581.7253, 182.8584
582.2075, 180.4782
582.6896, 176.3569
583.1717, 171.3838
583.6538, 166.6355
584.1359, 161.9925
584.6180, 158.4352
585.1002, 156.1181
585.5823, 154.7655
586.0643, 154.5263
586.5464, 155.0601
587.0286, 155.9106
587.5107, 156.9382
587.9928, 158.4304
588.4749, 161.1042
