##NAMES=Fluorophlogopite
##RRUFFID=R040039
##IDEAL CHEMISTRY=KMg_3_(Si_3_Al)O_10_F_2_
##LOCALITY=Franklin, Sussex County, New Jersey, USA
##OWNER=RRUFF
##SOURCE=University of Arizona Mineral Museum
##DESCRIPTION=Brown hexagonal sheets
##STATUS=The identification of this mineral has been confirmed by X-ray diffraction and chemical analysis
##URL=rruff.info/R040039
##MEASURED CHEMISTRY=(K_0.92_Na_0.06_[box]_0.02_)_Σ=1_(Mg_2.94_Fe_0.04_Ti_0.02_)_Σ=3_(Si_2.98_Al_1.02_)O_10_(F_1.24_(OH)_0.76_)_Σ=2_; OH estimated by charge balance
164.9127, 10459.96
165.3948, 10505.43
165.8769, 10556.46
166.3591, 10625.79
166.8412, 10693.17
167.3233, 10740.33
167.8054, 10767.42
168.2875, 10803.64
168.7696, 10873.59
169.2518, 10963.25
169.7339, 11051.71
170.2160, 11123.81
170.6981, 11194.48
171.1802, 11280.53
171.6623, 11384.47
172.1445, 11488.97
172.6266, 11564.54
173.1087, 11628.47
173.5908, 11720.93
174.0729, 11887.30
174.5550, 12084.96
175.0372, 12251.27
175.5193, 12367.86
176.0014, 12487.22
176.4835, 12666.86
176.9656, 12897.95
177.4477, 13146.97
177.9299, 13385.11
178.4120, 13626.93
178.8941, 13890.67
179.3762, 14171.25
179.8583, 14487.99
180.3405, 14866.01
180.8226, 15303.73
181.3047, 15778.15
181.7868, 16255.45
182.2689, 16753.27
182.7510, 17307.51
183.2332, 17929.61
183.7153, 18608.19
184.1974, 19328.26
184.6795, 20083.18
185.1616, 20902.57
185.6437, 21801.94
186.1259, 22785.03
186.6080, 23826.91
187.0901, 24947.49
187.5722, 26115.13
188.0543, 27307.74
188.5364, 28518.26
189.0186, 29756.26
189.5007, 31061.31
189.9828, 32417.74
190.4649, 33787.84
190.9470, 35179.02
191.4291, 36558.48
191.9113, 37882.17
192.3934, 39158.48
192.8755, 40323.28
193.3576, 41349.88
193.8397, 42236.01
194.3218, 42851.32
194.8040, 43162.61
195.2861, 43169.11
195.7682, 42800.92
196.2503, 42038.93
196.7324, 40940.88
197.2145, 39562.88
197.6967, 37874.86
198.1788, 36053.80
198.6609, 34136.55
199.1430, 32108.72
199.6251, 30162.38
200.1072, 28273.86
200.5894, 26494.62
201.0715, 24923.47
201.5536, 23584.20
202.0357, 22387.42
202.5178, 21278.25
202.9999, 20247.75
203.4821, 19353.40
203.9642, 18609.42
204.4463, 17993.28
204.9284, 17437.07
205.4105, 16945.03
205.8926, 16500.45
206.3748, 16092.46
206.8569, 15720.78
207.3390, 15388.65
207.8211, 15104.04
208.3032, 14860.58
208.7854, 14639.91
209.2675, 14443.94
209.7496, 14264.96
210.2317, 14095.47
210.7138, 13932.82
211.1959, 13791.50
211.6781, 13678.04
212.1602, 13591.01
212.6423, 13511.33
213.1244, 13440.69
213.6065, 13374.36
214.0886, 13305.22
214.5708, 13227.97
215.0529, 13164.71
215.5350, 13125.01
216.0171, 13108.83
216.4992, 13075.43
216.9813, 13016.27
217.4635, 12949.05
217.9456, 12897.19
218.4277, 12871.07
218.9098, 12833.33
219.3919, 12771.50
219.8740, 12683.25
220.3562, 12601.94
220.8383, 12526.09
221.3204, 12458.32
221.8025, 12404.05
222.2846, 12368.11
222.7667, 12335.67
223.2489, 12300.54
223.7310, 12260.97
224.2131, 12235.84
224.6952, 12231.17
225.1773, 12236.55
225.6594, 12235.61
226.1416, 12223.46
226.6237, 12213.53
227.1058, 12210.92
227.5879, 12218.57
228.0700, 12220.63
228.5521, 12214.81
229.0343, 12204.38
229.5164, 12193.65
229.9985, 12177.14
230.4806, 12169.65
230.9627, 12180.58
231.4448, 12222.78
231.9270, 12243.63
232.4091, 12236.01
232.8912, 12210.40
233.3733, 12186.86
233.8554, 12161.48
234.3376, 12144.23
234.8197, 12139.94
235.3018, 12153.22
235.7839, 12169.72
236.2660, 12197.31
236.7481, 12225.70
237.2303, 12226.28
237.7124, 12178.25
238.1945, 12133.90
238.6766, 12118.02
239.1587, 12148.12
239.6408, 12168.21
240.1230, 12172.45
240.6051, 12167.77
241.0872, 12174.25
241.5693, 12200.38
242.0514, 12225.08
242.5335, 12237.09
243.0157, 12226.40
243.4978, 12223.78
243.9799, 12231.75
244.4620, 12247.39
244.9441, 12262.03
245.4262, 12273.08
245.9084, 12285.76
246.3905, 12304.95
246.8726, 12341.40
247.3547, 12358.25
247.8368, 12344.66
248.3189, 12311.24
248.8011, 12296.02
249.2832, 12311.87
249.7653, 12328.17
250.2474, 12324.97
250.7295, 12283.26
251.2116, 12270.90
251.6938, 12306.93
252.1759, 12374.96
252.6580, 12410.46
253.1401, 12395.91
253.6222, 12376.55
254.1043, 12377.70
254.5865, 12405.17
255.0686, 12440.24
255.5507, 12485.50
256.0328, 12537.38
256.5149, 12577.27
256.9970, 12595.29
257.4792, 12616.42
257.9613, 12656.58
258.4434, 12722.08
258.9255, 12786.68
259.4076, 12846.30
259.8897, 12903.11
260.3719, 12969.49
260.8540, 13050.00
261.3361, 13130.90
261.8182, 13198.50
262.3003, 13241.68
262.7824, 13307.89
263.2646, 13405.60
263.7467, 13528.90
264.2288, 13651.61
264.7109, 13776.44
265.1930, 13894.85
265.6751, 13994.52
266.1573, 14059.23
266.6394, 14166.83
267.1215, 14339.81
267.6036, 14557.18
268.0857, 14742.69
268.5678, 14877.41
269.0500, 15018.44
269.5321, 15207.61
270.0142, 15453.15
270.4963, 15701.99
270.9784, 15949.96
271.4605, 16196.11
271.9427, 16436.63
272.4248, 16671.05
272.9069, 16901.81
273.3890, 17131.70
273.8711, 17364.65
274.3532, 17584.02
274.8354, 17787.65
275.3175, 17976.76
275.7996, 18165.77
276.2817, 18369.59
276.7639, 18524.26
277.2460, 18594.59
277.7281, 18579.54
278.2102, 18485.96
278.6923, 18307.43
279.1744, 18056.42
279.6566, 17755.60
280.1387, 17394.31
280.6208, 17034.68
281.1029, 16718.49
281.5850, 16445.85
282.0671, 16156.32
282.5493, 15832.81
283.0314, 15503.48
283.5135, 15230.40
283.9956, 15015.66
284.4777, 14835.60
284.9598, 14689.97
285.4420, 14574.84
285.9241, 14445.27
286.4062, 14287.12
286.8883, 14129.55
287.3704, 14037.57
287.8525, 14011.84
288.3347, 13994.39
288.8168, 13951.90
289.2989, 13887.87
289.7810, 13818.75
290.2631, 13742.04
290.7452, 13669.25
291.2274, 13620.39
291.7095, 13594.82
292.1916, 13579.18
292.6737, 13576.30
293.1558, 13578.87
293.6379, 13556.25
294.1201, 13499.04
294.6022, 13440.14
295.0843, 13429.33
295.5664, 13460.72
296.0485, 13498.26
296.5306, 13520.39
297.0128, 13535.21
297.4949, 13555.93
297.9770, 13579.96
298.4591, 13626.86
298.9412, 13745.38
299.4233, 13914.88
299.9055, 14056.71
300.3876, 14089.87
300.8697, 14081.36
301.3518, 14151.97
301.8339, 14318.36
302.3160, 14488.75
302.7982, 14558.61
303.2803, 14559.81
303.7624, 14568.74
304.2445, 14620.63
304.7266, 14699.11
305.2087, 14787.46
305.6909, 14883.85
306.1730, 14994.43
306.6551, 15086.21
307.1372, 15197.81
307.6193, 15289.25
308.1014, 15491.64
308.5836, 15658.57
309.0657, 15791.90
309.5478, 15791.07
310.0299, 15963.48
310.5120, 16066.46
310.9941, 16207.04
311.4763, 16294.46
311.9584, 16371.57
312.4405, 16430.20
312.9226, 16452.00
313.4047, 16439.64
313.8868, 16445.15
314.3690, 16519.29
314.8511, 16614.75
315.3332, 16685.73
315.8153, 16705.86
316.2974, 16708.42
316.7795, 16702.10
317.2617, 16688.32
317.7438, 16676.29
318.2259, 16675.09
318.7080, 16674.25
319.1901, 16665.91
319.6722, 16645.39
320.1544, 16619.72
320.6365, 16595.07
321.1186, 16568.29
321.6007, 16525.27
322.0828, 16442.54
322.5649, 16355.21
323.0471, 16284.08
323.5292, 16257.16
324.0113, 16214.32
324.4934, 16147.78
324.9755, 16059.18
325.4576, 15952.59
325.9398, 15801.45
326.4219, 15653.21
326.9040, 15528.29
327.3861, 15448.61
327.8682, 15361.88
328.3503, 15272.38
328.8325, 15175.72
329.3146, 15058.33
329.7967, 14883.09
330.2788, 14726.75
330.7610, 14618.31
331.2431, 14583.10
331.7252, 14529.22
332.2073, 14443.77
332.6894, 14346.29
333.1715, 14265.70
333.6537, 14209.70
334.1358, 14157.94
334.6179, 14103.66
335.1000, 14044.45
335.5821, 13997.09
336.0642, 13966.68
336.5464, 13942.50
337.0285, 13910.91
337.5106, 13869.04
337.9927, 13827.64
338.4748, 13789.59
338.9569, 13754.51
339.4391, 13721.03
339.9212, 13690.32
340.4033, 13659.04
340.8854, 13622.15
341.3675, 13577.84
341.8496, 13542.61
342.3318, 13518.55
342.8139, 13507.06
343.2960, 13520.04
343.7781, 13562.44
344.2602, 13600.17
344.7423, 13597.64
345.2245, 13559.09
345.7066, 13526.74
346.1887, 13507.59
346.6708, 13499.13
347.1529, 13494.01
347.6350, 13492.30
348.1172, 13504.21
348.5993, 13551.63
349.0814, 13618.92
349.5635, 13657.19
350.0456, 13652.89
350.5277, 13633.96
351.0099, 13635.19
351.4920, 13653.17
351.9741, 13673.55
352.4562, 13685.58
352.9383, 13695.92
353.4204, 13715.66
353.9026, 13747.65
354.3847, 13781.25
354.8668, 13811.42
355.3489, 13836.88
355.8310, 13853.86
356.3131, 13843.48
356.7953, 13835.36
357.2774, 13862.92
357.7595, 13929.68
358.2416, 13988.35
358.7237, 13996.07
359.2058, 13983.49
359.6880, 13988.16
360.1701, 14039.48
360.6522, 14097.10
361.1343, 14152.80
361.6164, 14203.84
362.0985, 14224.32
362.5807, 14167.78
363.0628, 14096.09
363.5449, 14056.81
364.0270, 14095.18
364.5091, 14130.40
364.9912, 14144.14
365.4734, 14140.17
365.9555, 14132.83
366.4376, 14114.79
366.9197, 14101.66
367.4018, 14101.88
367.8839, 14132.60
368.3661, 14151.98
368.8482, 14158.20
369.3303, 14152.35
369.8124, 14135.41
370.2945, 14090.92
370.7766, 14053.95
371.2588, 14039.36
371.7409, 14059.05
372.2230, 14055.69
372.7051, 14014.92
373.1872, 13961.67
373.6693, 13931.24
374.1515, 13932.86
374.6336, 13935.68
375.1157, 13933.92
375.5978, 13927.44
376.0799, 13907.00
376.5620, 13864.78
377.0442, 13825.06
377.5263, 13816.46
378.0084, 13843.87
378.4905, 13858.27
378.9726, 13848.86
379.4547, 13821.01
379.9369, 13785.59
380.4190, 13741.35
380.9011, 13706.67
381.3832, 13698.58
381.8653, 13713.61
382.3474, 13731.31
382.8296, 13749.73
383.3117, 13768.21
383.7938, 13784.61
384.2759, 13799.35
384.7580, 13816.53
385.2402, 13845.32
385.7223, 13876.12
386.2044, 13888.58
386.6865, 13878.53
387.1686, 13864.91
387.6508, 13868.53
388.1329, 13881.85
388.6150, 13888.77
389.0971, 13873.62
389.5792, 13855.01
390.0613, 13853.56
390.5435, 13869.11
391.0256, 13878.51
391.5077, 13856.76
391.9898, 13827.10
392.4719, 13814.10
392.9540, 13840.56
393.4362, 13870.19
393.9183, 13892.49
394.4004, 13906.98
394.8825, 13911.10
395.3646, 13888.90
395.8467, 13866.52
396.3289, 13859.51
396.8110, 13879.65
397.2931, 13897.97
397.7752, 13910.47
398.2573, 13917.95
398.7394, 13922.30
399.2216, 13911.42
399.7037, 13908.94
400.1858, 13925.39
400.6679, 13968.50
401.1500, 13996.91
401.6321, 14003.31
402.1143, 14000.69
402.5964, 14004.88
403.0785, 14024.73
403.5606, 14031.89
404.0427, 14012.71
404.5248, 13972.19
405.0070, 13965.80
405.4891, 14004.00
405.9712, 14050.48
406.4533, 14076.62
406.9354, 14080.43
407.4175, 14084.70
407.8997, 14092.38
408.3818, 14101.65
408.8639, 14105.29
409.3460, 14103.09
409.8281, 14108.75
410.3102, 14135.75
410.7924, 14178.20
411.2745, 14212.22
411.7566, 14236.30
412.2387, 14254.60
412.7208, 14268.16
413.2029, 14278.95
413.6851, 14293.30
414.1672, 14322.49
414.6493, 14351.87
415.1314, 14354.48
415.6135, 14332.36
416.0956, 14322.52
416.5778, 14373.14
417.0599, 14442.78
417.5420, 14481.25
418.0241, 14453.83
418.5062, 14420.29
418.9883, 14422.39
419.4705, 14447.56
419.9526, 14457.49
420.4347, 14402.44
420.9168, 14353.87
421.3989, 14360.07
421.8810, 14454.60
422.3632, 14526.06
422.8453, 14526.47
423.3274, 14496.45
423.8095, 14491.88
424.2916, 14557.03
424.7737, 14609.32
425.2559, 14626.87
425.7380, 14607.07
426.2201, 14595.18
426.7022, 14596.53
427.1843, 14600.47
427.6664, 14596.54
428.1486, 14572.46
428.6307, 14569.25
429.1128, 14596.28
429.5949, 14644.58
430.0770, 14689.30
430.5591, 14732.83
431.0413, 14763.63
431.5234, 14769.32
432.0055, 14749.51
432.4876, 14744.17
432.9697, 14757.60
433.4518, 14777.13
433.9340, 14781.77
434.4161, 14773.94
434.8982, 14775.72
435.3803, 14803.76
435.8624, 14843.50
436.3445, 14858.02
436.8267, 14847.89
437.3088, 14843.87
437.7909, 14878.88
438.2730, 14935.12
438.7551, 14982.48
439.2372, 15012.76
439.7194, 15033.28
440.2015, 15047.04
440.6836, 15055.36
441.1657, 15061.81
441.6479, 15052.79
442.1300, 15053.15
442.6121, 15087.00
443.0942, 15165.36
443.5763, 15231.51
444.0584, 15261.56
444.5406, 15269.75
445.0227, 15272.92
445.5048, 15262.63
445.9869, 15260.61
446.4690, 15280.04
446.9511, 15319.12
447.4333, 15338.90
447.9154, 15317.20
448.3975, 15295.17
448.8796, 15294.63
449.3617, 15326.52
449.8438, 15357.56
450.3260, 15388.50
450.8081, 15417.24
451.2902, 15439.92
451.7723, 15457.36
452.2544, 15465.45
452.7365, 15456.17
453.2187, 15431.28
453.7008, 15434.34
454.1829, 15471.85
454.6650, 15510.07
455.1471, 15504.10
455.6292, 15461.13
456.1114, 15441.26
456.5935, 15468.76
457.0756, 15512.53
457.5577, 15516.90
458.0398, 15487.32
458.5219, 15457.15
459.0041, 15446.48
459.4862, 15448.84
459.9683, 15457.16
460.4504, 15471.68
460.9325, 15486.47
461.4146, 15501.79
461.8968, 15513.66
462.3789, 15515.81
462.8610, 15486.81
463.3431, 15464.64
463.8252, 15474.11
464.3073, 15512.11
464.7895, 15544.07
465.2716, 15550.53
465.7537, 15553.86
466.2358, 15568.29
466.7179, 15616.36
467.2000, 15644.21
467.6822, 15630.34
468.1643, 15597.78
468.6464, 15590.05
469.1285, 15621.24
469.6106, 15655.48
470.0927, 15685.76
470.5749, 15712.27
471.0570, 15722.62
471.5391, 15711.91
472.0212, 15694.07
472.5033, 15680.38
472.9854, 15670.70
473.4676, 15667.83
473.9497, 15673.52
474.4318, 15685.48
474.9139, 15703.42
475.3960, 15727.05
475.8781, 15741.41
476.3603, 15728.93
476.8424, 15702.98
477.3245, 15696.29
477.8066, 15712.47
478.2887, 15729.25
478.7708, 15715.61
479.2530, 15689.89
479.7351, 15684.37
480.2172, 15724.84
480.6993, 15773.48
481.1814, 15806.98
481.6635, 15826.94
482.1457, 15841.54
482.6278, 15840.06
483.1099, 15843.17
483.5920, 15866.35
484.0741, 15921.98
484.5562, 15967.07
485.0384, 15986.60
485.5205, 15993.67
486.0026, 16006.03
486.4847, 16036.52
486.9668, 16057.26
487.4489, 16065.14
487.9311, 16060.52
488.4132, 16039.07
488.8953, 15985.85
489.3774, 15944.25
489.8595, 15947.05
490.3416, 16002.90
490.8238, 16045.68
491.3059, 16071.13
491.7880, 16085.62
492.2701, 16103.12
492.7522, 16122.62
493.2343, 16121.92
493.7165, 16073.73
494.1986, 16005.96
494.6807, 15988.31
495.1628, 16018.92
495.6450, 16061.26
496.1271, 16093.28
496.6092, 16117.83
497.0913, 16138.92
497.5734, 16155.64
498.0555, 16173.49
498.5377, 16204.69
499.0198, 16239.43
499.5019, 16259.23
499.9840, 16239.31
500.4661, 16219.19
500.9482, 16216.84
501.4304, 16233.75
501.9125, 16253.04
502.3946, 16274.00
502.8767, 16294.37
503.3588, 16312.17
503.8409, 16319.76
504.3231, 16335.89
504.8052, 16363.47
505.2873, 16398.28
505.7694, 16433.79
506.2515, 16475.78
506.7336, 16501.70
507.2158, 16496.34
507.6979, 16463.38
508.1800, 16456.42
508.6621, 16479.47
509.1442, 16509.65
509.6263, 16526.21
510.1085, 16531.86
510.5906, 16539.72
511.0727, 16552.98
511.5548, 16568.29
512.0369, 16584.50
512.5190, 16599.83
513.0012, 16608.32
513.4833, 16595.14
513.9654, 16580.89
514.4475, 16586.81
514.9296, 16613.38
515.4117, 16641.81
515.8939, 16672.99
516.3760, 16695.80
516.8581, 16699.24
517.3402, 16651.88
517.8223, 16625.66
518.3044, 16661.40
518.7866, 16727.60
519.2687, 16749.25
519.7508, 16668.55
520.2329, 16612.73
520.7150, 16629.44
521.1971, 16724.04
521.6793, 16760.31
522.1614, 16713.74
522.6435, 16653.40
523.1256, 16638.01
523.6077, 16672.43
524.0898, 16697.68
524.5720, 16707.19
525.0541, 16705.72
525.5362, 16696.66
526.0183, 16681.50
526.5004, 16672.69
526.9825, 16681.00
527.4647, 16697.31
527.9468, 16705.55
528.4289, 16706.26
528.9110, 16708.11
529.3931, 16727.89
529.8752, 16747.42
530.3574, 16741.92
530.8395, 16689.84
531.3216, 16650.86
531.8037, 16663.76
532.2858, 16705.15
532.7679, 16736.62
533.2501, 16742.76
533.7322, 16744.31
534.2143, 16748.15
534.6964, 16754.44
535.1785, 16753.03
535.6606, 16739.42
536.1428, 16723.77
536.6249, 16711.91
537.1070, 16705.58
537.5891, 16694.29
538.0712, 16670.19
538.5533, 16652.25
539.0355, 16679.75
539.5176, 16753.14
539.9997, 16808.78
540.4818, 16820.59
540.9639, 16805.56
541.4460, 16797.90
541.9282, 16797.72
542.4103, 16808.11
542.8924, 16847.30
543.3745, 16891.36
543.8566, 16903.95
544.3387, 16876.29
544.8209, 16846.34
545.3030, 16842.20
545.7851, 16849.16
546.2672, 16849.01
546.7493, 16812.97
547.2314, 16794.34
547.7136, 16827.63
548.1957, 16896.96
548.6778, 16931.54
549.1599, 16886.80
549.6420, 16847.71
550.1241, 16847.00
550.6063, 16893.75
551.0884, 16926.21
551.5705, 16945.98
552.0526, 16949.33
552.5347, 16922.97
553.0168, 16863.25
553.4990, 16829.07
553.9811, 16835.38
554.4632, 16862.23
554.9453, 16878.95
555.4274, 16885.01
555.9095, 16875.54
556.3917, 16828.85
556.8738, 16774.26
557.3559, 16754.88
557.8380, 16770.57
558.3201, 16799.88
558.8022, 16847.38
559.2844, 16891.83
559.7665, 16910.36
560.2486, 16883.45
560.7307, 16861.91
561.2128, 16859.21
561.6949, 16872.07
562.1771, 16895.78
562.6592, 16946.61
563.1413, 16988.08
563.6234, 17016.48
564.1055, 17030.89
564.5876, 17022.59
565.0698, 16977.69
565.5519, 16938.09
566.0340, 16928.19
566.5161, 16949.56
566.9982, 16972.41
567.4803, 16995.92
567.9625, 17023.28
568.4446, 17069.41
568.9267, 17125.68
569.4088, 17153.25
569.8909, 17136.27
570.3730, 17095.34
570.8552, 17036.08
571.3373, 16969.99
571.8194, 16929.90
572.3015, 16964.35
572.7836, 17006.91
573.2657, 17006.15
573.7479, 16957.52
574.2300, 16922.12
574.7121, 16933.94
575.1942, 16955.37
575.6763, 16960.26
576.1584, 16934.52
576.6406, 16910.82
577.1227, 16879.83
577.6049, 16856.91
578.0870, 16876.88
578.5691, 16960.08
579.0512, 17011.01
579.5333, 16991.23
580.0154, 16925.63
580.4976, 16914.17
580.9797, 16958.05
581.4618, 17006.37
581.9439, 17023.68
582.4260, 17020.72
582.9081, 17020.26
583.3903, 17023.57
583.8724, 17029.46
584.3545, 17038.44
584.8366, 17048.66
585.3187, 17058.22
585.8008, 17070.86
586.2830, 17076.31
586.7651, 17062.63
587.2472, 17039.36
587.7293, 17026.68
588.2114, 17035.29
588.6935, 17048.45
589.1757, 17064.84
589.6578, 17084.42
590.1399, 17092.10
590.6220, 17079.82
591.1041, 17070.71
591.5862, 17085.12
592.0684, 17125.62
592.5505, 17146.15
593.0326, 17142.14
593.5147, 17127.51
593.9968, 17114.29
594.4789, 17104.46
594.9611, 17107.45
595.4432, 17133.29
595.9253, 17163.03
596.4074, 17169.56
596.8895, 17161.09
597.3716, 17161.19
597.8538, 17192.29
598.3359, 17226.92
598.8180, 17245.47
599.3001, 17246.33
599.7822, 17254.48
600.2643, 17284.69
600.7465, 17316.98
601.2286, 17338.76
601.7107, 17341.71
602.1928, 17350.65
602.6749, 17366.81
603.1570, 17387.77
603.6392, 17408.17
604.1213, 17426.70
604.6034, 17457.20
605.0855, 17509.17
605.5676, 17568.94
606.0497, 17601.16
606.5319, 17609.37
607.0140, 17619.84
607.4961, 17651.71
607.9782, 17692.35
608.4603, 17725.53
608.9424, 17750.60
609.4246, 17776.39
609.9067, 17812.96
610.3888, 17849.65
610.8709, 17876.26
611.3530, 17884.95
611.8351, 17897.47
612.3173, 17918.24
612.7994, 17945.77
613.2815, 17977.53
613.7636, 18016.93
614.2457, 18055.16
614.7278, 18090.79
615.2100, 18124.28
615.6921, 18151.78
616.1742, 18169.67
616.6563, 18208.04
617.1384, 18305.49
617.6205, 18434.95
618.1027, 18492.72
618.5848, 18479.59
619.0669, 18464.57
619.5490, 18507.31
620.0311, 18579.64
620.5132, 18643.83
620.9954, 18688.97
621.4775, 18738.28
621.9596, 18809.63
622.4417, 18890.01
622.9238, 18963.94
623.4059, 19025.26
623.8881, 19082.77
624.3702, 19135.79
624.8523, 19186.04
625.3344, 19236.17
625.8165, 19274.67
626.2986, 19341.01
626.7808, 19465.36
627.2629, 19635.24
627.7450, 19738.87
628.2271, 19771.57
628.7092, 19786.72
629.1913, 19824.69
629.6735, 19875.99
630.1556, 19915.88
630.6377, 19941.18
631.1198, 19962.58
631.6019, 19995.73
632.0840, 20028.66
632.5662, 20043.41
633.0483, 20017.00
633.5304, 19998.11
634.0125, 20021.40
634.4946, 20062.15
634.9767, 20067.13
635.4589, 20006.18
635.9410, 19940.62
636.4231, 19880.46
636.9052, 19825.81
637.3873, 19772.82
637.8694, 19722.92
638.3516, 19668.69
638.8337, 19603.60
639.3158, 19529.63
639.7979, 19463.74
640.2800, 19407.36
640.7621, 19350.63
641.2443, 19286.17
641.7264, 19215.48
642.2085, 19136.55
642.6906, 19041.86
643.1727, 18964.37
643.6548, 18937.78
644.1370, 18938.47
644.6191, 18933.38
645.1012, 18918.74
645.5833, 18891.86
646.0654, 18835.13
646.5475, 18764.59
647.0297, 18729.15
647.5118, 18745.57
647.9939, 18761.15
648.4760, 18752.20
648.9581, 18723.22
649.4402, 18724.34
649.9224, 18758.15
650.4045, 18789.46
650.8866, 18781.12
651.3687, 18751.89
651.8508, 18755.12
652.3329, 18799.76
652.8151, 18830.05
653.2972, 18768.02
653.7793, 18682.12
654.2614, 18656.06
654.7435, 18758.15
655.2256, 18845.04
655.7078, 18847.92
656.1899, 18814.38
656.6720, 18828.93
657.1541, 18937.08
657.6362, 19023.94
658.1183, 19063.79
