##NAMES=Fluor-liddicoatite
##RRUFFID=R060969
##IDEAL CHEMISTRY=Ca(Li_2_Al)Al_6_(Si_6_O_18_)(BO_3_)_3_(OH)_3_F
##LOCALITY=Antandro Komby mine, Manandona River, Antsirabe, Madagascar
##OWNER=RRUFF
##SOURCE=Michael Scott
##DESCRIPTION=Red and green prismatic striated crystal, we studied the red part.
##STATUS=The identification of this mineral has been confirmed only by single crystal X-ray diffraction.
##URL=rruff.info/R060969
146.5922, 1075.892
147.0743, 1081.067
147.5564, 1086.933
148.0385, 1094.534
148.5207, 1104.084
149.0028, 1109.708
149.4849, 1107.774
149.9670, 1103.675
150.4491, 1102.606
150.9312, 1111.847
151.4134, 1117.121
151.8955, 1112.962
152.3776, 1093.694
152.8597, 1085.224
153.3418, 1100.773
153.8239, 1125.907
154.3060, 1138.971
154.7882, 1127.261
155.2703, 1111.324
155.7524, 1098.422
156.2345, 1090.461
156.7166, 1083.522
157.1987, 1076.657
157.6809, 1070.234
158.1630, 1065.324
158.6451, 1065.552
159.1272, 1065.274
159.6093, 1061.039
160.0914, 1045.547
160.5736, 1032.679
161.0557, 1027.012
161.5378, 1028.011
162.0199, 1031.707
162.5020, 1041.109
162.9841, 1050.610
163.4663, 1055.143
163.9484, 1049.560
164.4305, 1041.445
164.9126, 1033.743
165.3947, 1026.560
165.8768, 1020.968
166.3590, 1018.736
166.8411, 1018.316
167.3232, 1017.426
167.8053, 1010.214
168.2874, 1005.199
168.7695, 1011.407
169.2517, 1032.547
169.7338, 1052.055
170.2159, 1054.798
170.6980, 1046.466
171.1801, 1040.581
171.6622, 1046.752
172.1444, 1058.060
172.6265, 1067.212
173.1086, 1073.000
173.5907, 1076.295
174.0728, 1075.950
174.5549, 1073.003
175.0371, 1072.142
175.5192, 1078.759
176.0013, 1089.058
176.4834, 1096.910
176.9655, 1099.731
177.4476, 1100.405
177.9298, 1102.974
178.4119, 1107.288
178.8940, 1110.339
179.3761, 1108.328
179.8582, 1103.118
180.3403, 1099.350
180.8224, 1100.448
181.3046, 1103.263
181.7867, 1101.683
182.2688, 1095.491
182.7509, 1087.616
183.2330, 1078.370
183.7151, 1069.145
184.1973, 1065.264
184.6794, 1074.409
185.1615, 1091.005
185.6436, 1097.073
186.1257, 1090.591
186.6078, 1080.248
187.0900, 1076.374
187.5721, 1078.808
188.0542, 1085.796
188.5363, 1099.791
189.0184, 1118.673
189.5005, 1131.435
189.9827, 1135.297
190.4648, 1136.384
190.9469, 1148.043
191.4290, 1170.493
191.9111, 1190.277
192.3932, 1195.646
192.8754, 1188.074
193.3575, 1187.079
193.8396, 1196.781
194.3217, 1213.004
194.8038, 1224.502
195.2859, 1230.792
195.7681, 1235.925
196.2502, 1242.696
196.7323, 1251.100
197.2144, 1261.004
197.6965, 1272.198
198.1786, 1284.869
198.6608, 1301.871
199.1429, 1325.108
199.6250, 1346.206
200.1071, 1354.521
200.5892, 1348.156
201.0714, 1346.836
201.5535, 1356.664
202.0356, 1376.583
202.5177, 1395.472
202.9998, 1413.303
203.4819, 1429.988
203.9641, 1444.785
204.4462, 1457.534
204.9283, 1469.150
205.4104, 1477.890
205.8925, 1483.271
206.3746, 1498.901
206.8568, 1528.076
207.3389, 1563.066
207.8210, 1590.089
208.3031, 1605.860
208.7852, 1625.694
209.2673, 1658.267
209.7494, 1707.671
210.2316, 1745.174
210.7137, 1765.057
211.1958, 1778.134
211.6779, 1807.282
212.1600, 1857.832
212.6421, 1911.324
213.1243, 1958.293
213.6064, 1994.345
214.0885, 2039.493
214.5706, 2098.011
215.0527, 2164.579
215.5348, 2221.414
216.0170, 2261.725
216.4991, 2305.136
216.9812, 2363.918
217.4633, 2443.428
217.9454, 2520.792
218.4275, 2596.587
218.9097, 2668.669
219.3918, 2730.283
219.8739, 2777.066
220.3560, 2819.398
220.8381, 2866.997
221.3202, 2928.821
221.8024, 2971.684
222.2845, 2987.084
222.7666, 2978.781
223.2487, 2974.639
223.7308, 2980.145
224.2129, 2982.840
224.6951, 2973.202
225.1772, 2948.656
225.6593, 2916.819
226.1414, 2875.910
226.6235, 2826.504
227.1056, 2781.433
227.5878, 2741.251
228.0699, 2704.198
228.5520, 2667.664
229.0341, 2631.480
229.5162, 2596.713
229.9983, 2563.662
230.4805, 2532.739
230.9626, 2500.120
231.4447, 2462.188
231.9268, 2426.041
232.4089, 2400.450
232.8910, 2390.154
233.3732, 2380.977
233.8553, 2369.824
234.3374, 2356.220
234.8195, 2343.705
235.3016, 2332.045
235.7837, 2321.707
236.2658, 2313.054
236.7480, 2305.081
237.2301, 2300.565
237.7122, 2300.247
238.1943, 2304.269
238.6764, 2312.549
239.1585, 2329.867
239.6407, 2348.558
240.1228, 2356.440
240.6049, 2347.514
241.0870, 2337.911
241.5691, 2333.844
242.0512, 2339.318
242.5334, 2334.418
243.0155, 2314.473
243.4976, 2286.552
243.9797, 2263.013
244.4618, 2247.607
244.9439, 2230.708
245.4261, 2208.575
245.9082, 2178.997
246.3903, 2150.673
246.8724, 2123.300
247.3545, 2097.289
247.8366, 2074.576
248.3188, 2061.230
248.8009, 2041.903
249.2830, 2008.053
249.7651, 1950.010
250.2472, 1906.484
250.7293, 1883.987
251.2115, 1873.562
251.6936, 1854.490
252.1757, 1821.989
252.6578, 1788.547
253.1399, 1758.993
253.6220, 1735.160
254.1042, 1710.278
254.5863, 1682.873
255.0684, 1655.089
255.5505, 1633.165
256.0326, 1619.610
256.5147, 1607.583
256.9969, 1593.269
257.4790, 1574.267
257.9611, 1559.199
258.4432, 1548.771
258.9253, 1542.055
259.4074, 1536.620
259.8896, 1532.408
260.3717, 1529.392
260.8538, 1528.242
261.3359, 1530.912
261.8180, 1529.169
262.3001, 1521.058
262.7823, 1508.792
263.2644, 1498.342
263.7465, 1488.958
264.2286, 1483.075
264.7107, 1483.679
265.1928, 1494.044
265.6750, 1498.489
266.1571, 1493.164
266.6392, 1482.487
267.1213, 1480.650
267.6034, 1490.470
268.0855, 1502.845
268.5677, 1514.284
269.0498, 1526.488
269.5319, 1528.665
270.0140, 1514.474
270.4961, 1492.245
270.9782, 1491.977
271.4604, 1522.467
271.9425, 1550.717
272.4246, 1553.519
272.9067, 1525.562
273.3888, 1504.162
273.8709, 1493.446
274.3531, 1490.793
274.8352, 1488.638
275.3173, 1486.799
275.7994, 1486.055
276.2815, 1486.479
276.7636, 1487.858
277.2457, 1493.162
277.7278, 1505.069
278.2100, 1519.239
278.6921, 1521.688
279.1742, 1510.050
279.6563, 1498.135
280.1384, 1495.492
280.6205, 1502.315
281.1027, 1510.214
281.5848, 1520.408
282.0669, 1528.994
282.5490, 1522.859
283.0311, 1499.938
283.5132, 1478.444
283.9954, 1472.719
284.4775, 1482.083
284.9596, 1487.395
285.4417, 1485.421
285.9238, 1479.690
286.4059, 1479.342
286.8881, 1484.766
287.3702, 1487.601
287.8523, 1479.061
288.3344, 1461.160
288.8165, 1450.780
289.2986, 1452.140
289.7808, 1457.981
290.2629, 1456.512
290.7450, 1447.738
291.2271, 1431.217
291.7092, 1398.276
292.1913, 1355.085
292.6735, 1329.689
293.1556, 1330.163
293.6377, 1341.214
294.1198, 1339.336
294.6019, 1325.543
295.0840, 1310.136
295.5662, 1298.274
296.0483, 1289.623
296.5304, 1284.091
297.0125, 1282.644
297.4946, 1281.858
297.9767, 1275.544
298.4589, 1265.001
298.9410, 1256.873
299.4231, 1257.656
299.9052, 1263.264
300.3873, 1265.111
300.8694, 1260.857
301.3516, 1256.650
301.8337, 1261.510
302.3158, 1272.829
302.7979, 1281.346
303.2800, 1276.460
303.7621, 1267.466
304.2443, 1267.621
304.7264, 1279.548
305.2085, 1296.468
305.6906, 1316.900
306.1727, 1338.079
306.6548, 1353.749
307.1370, 1356.676
307.6191, 1354.308
308.1012, 1353.779
308.5833, 1355.890
309.0654, 1359.738
309.5475, 1364.228
310.0297, 1369.985
310.5118, 1378.260
310.9939, 1394.408
311.4760, 1410.127
311.9581, 1417.075
312.4402, 1412.601
312.9224, 1411.415
313.4045, 1424.668
313.8866, 1446.031
314.3687, 1465.895
314.8508, 1483.609
315.3329, 1496.347
315.8151, 1501.446
316.2972, 1498.241
316.7793, 1493.006
317.2614, 1482.641
317.7435, 1473.499
318.2256, 1473.132
318.7078, 1492.768
319.1899, 1513.733
319.6720, 1528.752
320.1541, 1537.111
320.6362, 1544.408
321.1183, 1548.340
321.6005, 1553.373
322.0826, 1563.771
322.5647, 1588.536
323.0468, 1610.708
323.5289, 1624.842
324.0110, 1630.589
324.4932, 1636.602
324.9753, 1643.969
325.4574, 1652.033
325.9395, 1660.255
326.4216, 1669.694
326.9037, 1678.056
327.3859, 1683.556
327.8680, 1686.403
328.3501, 1693.174
328.8322, 1707.107
329.3143, 1722.604
329.7964, 1736.552
330.2786, 1751.810
330.7607, 1761.334
331.2428, 1761.459
331.7249, 1754.276
332.2070, 1752.934
332.6891, 1762.065
333.1712, 1771.843
333.6534, 1776.120
334.1355, 1770.371
334.6176, 1769.401
335.0997, 1775.082
335.5818, 1785.902
336.0639, 1797.153
336.5461, 1808.524
337.0282, 1820.937
337.5103, 1835.856
337.9924, 1854.378
338.4745, 1869.570
338.9566, 1880.437
339.4388, 1888.436
339.9209, 1895.889
340.4030, 1901.766
340.8851, 1911.296
341.3672, 1929.810
341.8493, 1958.076
342.3315, 1976.010
342.8136, 1981.070
343.2957, 1981.038
343.7778, 1988.555
344.2599, 2003.780
344.7420, 2019.403
345.2242, 2030.357
345.7063, 2038.312
346.1884, 2054.096
346.6705, 2079.450
347.1526, 2103.457
347.6347, 2111.075
348.1169, 2104.456
348.5990, 2095.532
349.0811, 2086.991
349.5632, 2079.850
350.0453, 2077.086
350.5274, 2078.781
351.0096, 2081.478
351.4917, 2083.236
351.9738, 2083.646
352.4559, 2081.591
352.9380, 2074.613
353.4201, 2066.876
353.9023, 2062.123
354.3844, 2060.603
354.8665, 2064.141
355.3486, 2080.191
355.8307, 2100.155
356.3128, 2112.238
356.7950, 2106.544
357.2771, 2101.125
357.7592, 2107.838
358.2413, 2125.586
358.7234, 2150.353
359.2055, 2182.498
359.6877, 2219.387
360.1698, 2259.233
360.6519, 2302.687
361.1340, 2347.113
361.6161, 2390.294
362.0982, 2433.847
362.5804, 2481.296
363.0625, 2533.486
363.5446, 2590.063
364.0267, 2652.004
364.5088, 2722.163
364.9909, 2789.871
365.4731, 2847.913
365.9552, 2903.896
366.4373, 2968.639
366.9194, 3044.232
367.4015, 3128.401
367.8836, 3222.012
368.3658, 3326.289
368.8479, 3434.954
369.3300, 3554.175
369.8121, 3674.025
370.2942, 3782.292
370.7763, 3863.794
371.2585, 3956.620
371.7406, 4073.030
372.2227, 4210.968
372.7048, 4335.256
373.1869, 4444.543
373.6690, 4539.860
374.1512, 4622.646
374.6333, 4693.174
375.1154, 4751.782
375.5975, 4804.234
376.0796, 4844.057
376.5617, 4842.597
377.0439, 4794.112
377.5260, 4724.132
378.0081, 4648.658
378.4902, 4567.588
378.9723, 4472.235
379.4544, 4359.916
379.9366, 4235.387
380.4187, 4098.811
380.9008, 3950.472
381.3829, 3810.343
381.8650, 3694.148
382.3471, 3595.275
382.8293, 3488.558
383.3114, 3370.118
383.7935, 3253.873
384.2756, 3155.776
384.7577, 3072.732
385.2398, 2993.345
385.7219, 2909.736
386.2040, 2826.458
386.6862, 2748.532
387.1683, 2675.301
387.6504, 2611.115
388.1325, 2565.089
388.6146, 2528.754
389.0967, 2489.772
389.5789, 2437.598
390.0610, 2387.932
390.5431, 2357.542
391.0252, 2342.708
391.5073, 2325.523
391.9894, 2287.958
392.4716, 2248.480
392.9537, 2223.943
393.4358, 2225.240
393.9179, 2227.573
394.4000, 2219.715
394.8821, 2205.998
395.3643, 2196.165
395.8464, 2192.843
396.3285, 2194.117
396.8106, 2200.578
397.2927, 2215.395
397.7748, 2225.558
398.2570, 2226.190
398.7391, 2222.273
399.2212, 2220.302
399.7033, 2219.973
400.1854, 2222.169
400.6675, 2227.658
401.1497, 2236.596
401.6318, 2245.528
402.1139, 2254.026
402.5960, 2263.010
403.0781, 2272.965
403.5602, 2283.092
404.0424, 2296.819
404.5245, 2317.456
405.0066, 2341.736
405.4887, 2356.437
405.9708, 2360.788
406.4529, 2357.791
406.9351, 2345.731
407.4172, 2323.827
407.8993, 2311.415
408.3814, 2312.495
408.8635, 2319.044
409.3456, 2318.879
409.8278, 2312.003
410.3099, 2297.190
410.7920, 2268.491
411.2741, 2231.240
411.7562, 2205.417
412.2383, 2192.959
412.7205, 2178.183
413.2026, 2138.370
413.6847, 2082.553
414.1668, 2035.108
414.6489, 2011.724
415.1310, 1995.314
415.6132, 1966.525
416.0953, 1925.983
416.5774, 1882.561
417.0595, 1835.592
417.5416, 1790.751
418.0237, 1753.744
418.5059, 1729.434
418.9880, 1708.009
419.4701, 1687.725
419.9522, 1666.827
420.4343, 1641.355
420.9164, 1605.313
421.3986, 1568.113
421.8807, 1532.277
422.3628, 1495.780
422.8449, 1469.821
423.3270, 1466.428
423.8091, 1471.803
424.2913, 1468.507
424.7734, 1446.120
425.2555, 1424.424
425.7376, 1406.975
426.2197, 1393.828
426.7018, 1381.275
427.1840, 1367.073
427.6661, 1355.614
428.1482, 1351.103
428.6303, 1357.804
429.1124, 1360.179
429.5945, 1356.236
430.0767, 1347.281
430.5588, 1335.885
431.0409, 1320.909
431.5230, 1308.121
432.0051, 1300.934
432.4872, 1299.271
432.9694, 1299.318
433.4515, 1301.161
433.9336, 1304.112
434.4157, 1308.955
434.8978, 1315.009
435.3799, 1316.873
435.8621, 1307.358
436.3442, 1294.169
436.8263, 1295.542
437.3084, 1310.931
437.7905, 1326.622
438.2726, 1332.592
438.7548, 1331.373
439.2369, 1326.636
439.7190, 1318.110
440.2011, 1308.175
440.6832, 1296.911
441.1653, 1285.504
441.6474, 1277.506
442.1295, 1274.976
442.6117, 1276.184
443.0938, 1279.988
443.5759, 1286.096
444.0580, 1295.457
444.5401, 1315.508
445.0222, 1336.588
445.5044, 1346.635
445.9865, 1337.100
446.4686, 1322.881
446.9507, 1303.753
447.4328, 1279.505
447.9149, 1265.289
448.3971, 1269.345
448.8792, 1276.122
449.3613, 1275.213
449.8434, 1259.434
450.3255, 1252.295
450.8076, 1259.257
451.2898, 1273.696
451.7719, 1277.039
452.2540, 1265.341
452.7361, 1255.813
453.2182, 1259.376
453.7003, 1275.601
454.1825, 1278.399
454.6646, 1265.462
455.1467, 1247.582
455.6288, 1236.747
456.1109, 1232.285
456.5930, 1230.433
457.0752, 1231.594
457.5573, 1233.462
458.0394, 1231.486
458.5215, 1226.038
459.0036, 1220.312
459.4857, 1215.780
459.9679, 1212.572
460.4500, 1211.254
460.9321, 1212.358
461.4142, 1213.871
461.8963, 1214.161
462.3784, 1213.879
462.8606, 1214.243
463.3427, 1215.409
463.8248, 1217.639
464.3069, 1221.827
464.7890, 1228.215
465.2711, 1232.855
465.7533, 1233.417
466.2354, 1232.579
466.7175, 1232.380
467.1996, 1233.744
467.6817, 1234.898
468.1638, 1236.252
468.6460, 1237.328
469.1281, 1236.283
469.6102, 1230.876
470.0923, 1226.722
470.5744, 1226.820
471.0565, 1232.591
471.5387, 1234.818
472.0208, 1232.646
472.5029, 1228.353
472.9850, 1224.539
473.4671, 1221.234
473.9492, 1218.072
474.4314, 1214.659
474.9135, 1211.541
475.3956, 1210.497
475.8777, 1211.531
476.3598, 1213.190
476.8419, 1214.340
477.3241, 1215.357
477.8062, 1216.986
478.2883, 1219.328
478.7704, 1222.339
479.2525, 1228.386
479.7346, 1235.043
480.2168, 1237.089
480.6989, 1223.478
481.1810, 1211.166
481.6631, 1214.290
482.1452, 1232.857
482.6273, 1248.530
483.1095, 1251.266
483.5916, 1249.271
484.0737, 1248.735
484.5558, 1250.708
485.0379, 1254.242
485.5201, 1260.249
486.0022, 1267.765
486.4843, 1274.376
486.9664, 1283.127
487.4485, 1287.180
487.9306, 1282.367
488.4128, 1266.491
488.8949, 1259.507
489.3770, 1264.883
489.8591, 1273.573
490.3412, 1274.359
490.8233, 1265.378
491.3055, 1265.091
491.7876, 1279.289
492.2697, 1301.900
492.7518, 1320.153
493.2339, 1333.866
493.7160, 1342.134
494.1982, 1340.888
494.6803, 1334.021
495.1624, 1330.188
495.6445, 1329.846
496.1266, 1333.004
496.6087, 1342.444
497.0908, 1354.931
497.5729, 1365.078
498.0551, 1367.478
498.5372, 1369.880
499.0193, 1378.778
499.5014, 1392.599
499.9835, 1403.938
500.4656, 1407.670
500.9478, 1409.654
501.4299, 1413.256
501.9120, 1419.562
502.3941, 1425.828
502.8762, 1431.492
503.3583, 1436.932
503.8405, 1442.537
504.3226, 1447.310
504.8047, 1453.872
505.2868, 1464.221
505.7689, 1477.337
506.2510, 1483.851
506.7332, 1480.506
507.2153, 1478.196
507.6974, 1487.855
508.1795, 1509.901
508.6616, 1517.214
509.1437, 1504.771
509.6259, 1485.569
510.1080, 1478.968
510.5901, 1483.116
511.0722, 1487.038
511.5543, 1486.528
512.0364, 1483.128
512.5186, 1478.320
513.0007, 1472.254
513.4828, 1466.625
513.9649, 1462.691
514.4470, 1459.706
514.9291, 1457.600
515.4113, 1458.032
515.8934, 1454.805
516.3755, 1439.500
516.8576, 1419.727
517.3397, 1407.325
517.8218, 1414.628
518.3040, 1420.367
518.7861, 1419.085
519.2682, 1410.358
519.7503, 1396.507
520.2324, 1372.576
520.7145, 1348.483
521.1967, 1330.112
521.6788, 1318.493
522.1609, 1309.465
522.6430, 1303.203
523.1251, 1299.162
523.6072, 1296.935
524.0894, 1296.692
524.5715, 1296.297
525.0536, 1295.288
525.5357, 1293.491
526.0178, 1289.486
526.4999, 1283.270
526.9821, 1278.066
527.4642, 1276.041
527.9463, 1276.808
528.4284, 1280.859
528.9105, 1289.812
529.3926, 1296.646
529.8748, 1292.073
530.3569, 1281.865
530.8390, 1276.019
531.3211, 1286.815
531.8032, 1295.114
532.2853, 1287.594
532.7675, 1265.803
533.2496, 1254.453
533.7317, 1270.179
534.2138, 1289.034
534.6959, 1297.639
535.1780, 1288.676
535.6602, 1283.875
536.1423, 1286.798
536.6244, 1291.232
537.1065, 1286.008
537.5886, 1266.372
538.0707, 1254.147
538.5529, 1257.650
539.0350, 1272.321
539.5171, 1276.865
539.9992, 1270.521
540.4813, 1264.556
540.9634, 1268.107
541.4456, 1278.290
541.9277, 1287.423
542.4098, 1295.041
542.8919, 1299.733
543.3740, 1298.601
543.8561, 1293.608
544.3383, 1288.232
544.8204, 1285.264
545.3025, 1280.982
545.7846, 1270.393
546.2667, 1255.763
546.7488, 1246.552
547.2310, 1252.994
547.7131, 1260.104
548.1952, 1259.828
548.6773, 1247.458
549.1594, 1239.748
549.6415, 1239.647
550.1237, 1242.576
550.6058, 1243.806
551.0879, 1241.678
551.5700, 1242.583
552.0521, 1249.181
552.5342, 1258.391
553.0164, 1261.395
553.4985, 1257.956
553.9806, 1250.573
554.4627, 1236.863
554.9448, 1219.777
555.4269, 1212.687
555.9091, 1216.094
556.3912, 1220.995
556.8733, 1217.500
557.3554, 1210.291
557.8375, 1207.531
558.3196, 1213.571
558.8018, 1220.299
559.2839, 1223.999
559.7660, 1224.267
560.2481, 1220.368
560.7302, 1205.623
561.2123, 1192.583
561.6945, 1186.604
562.1766, 1188.270
562.6587, 1191.182
563.1408, 1198.096
563.6229, 1203.170
564.1050, 1202.831
564.5872, 1194.893
565.0693, 1186.465
565.5514, 1175.837
566.0335, 1166.946
566.5156, 1168.940
566.9977, 1182.679
567.4799, 1191.244
567.9620, 1186.873
568.4441, 1175.349
568.9262, 1170.840
569.4083, 1172.878
569.8904, 1176.767
570.3726, 1180.867
570.8547, 1184.255
571.3368, 1185.148
571.8189, 1182.938
572.3010, 1181.630
572.7831, 1183.937
573.2653, 1188.441
573.7474, 1193.523
574.2295, 1201.057
574.7116, 1206.618
575.1937, 1207.929
575.6758, 1206.387
576.1580, 1206.495
576.6401, 1209.450
577.1222, 1212.721
577.6042, 1215.591
578.0864, 1218.091
578.5685, 1220.057
579.0506, 1220.547
579.5327, 1222.997
580.0148, 1231.034
580.4969, 1244.357
580.9791, 1258.273
581.4612, 1272.593
581.9433, 1286.111
582.4254, 1298.960
582.9075, 1309.628
583.3896, 1313.310
583.8718, 1299.018
584.3539, 1283.794
584.8360, 1285.560
585.3181, 1301.081
585.8002, 1313.958
586.2823, 1316.353
586.7645, 1313.676
587.2466, 1307.608
587.7287, 1295.969
588.2108, 1289.590
588.6929, 1290.286
589.1750, 1296.501
589.6572, 1308.167
590.1393, 1330.965
590.6214, 1346.417
591.1035, 1351.020
591.5856, 1348.589
592.0677, 1348.343
592.5499, 1350.601
593.0320, 1351.790
593.5141, 1350.101
593.9962, 1346.216
594.4783, 1341.651
594.9604, 1336.435
595.4426, 1332.352
595.9247, 1332.212
596.4068, 1333.395
596.8889, 1331.324
597.3710, 1323.603
597.8531, 1319.298
598.3353, 1327.925
598.8174, 1341.260
599.2995, 1349.134
599.7816, 1341.542
600.2637, 1336.418
600.7458, 1340.042
601.2280, 1349.491
601.7101, 1353.718
602.1922, 1350.446
602.6743, 1345.754
603.1564, 1341.960
603.6385, 1339.024
604.1207, 1333.737
604.6028, 1325.140
605.0849, 1318.115
605.5670, 1318.965
606.0491, 1325.664
606.5313, 1329.613
607.0134, 1329.953
607.4955, 1326.234
607.9776, 1314.127
608.4597, 1297.982
608.9418, 1286.041
609.4240, 1280.947
609.9061, 1281.838
610.3882, 1294.983
610.8703, 1315.508
611.3524, 1324.271
611.8345, 1303.367
612.3167, 1281.268
612.7988, 1270.516
613.2809, 1272.926
613.7630, 1274.816
614.2451, 1277.865
614.7272, 1278.137
615.2094, 1270.899
615.6915, 1254.859
616.1736, 1242.453
616.6557, 1234.384
617.1378, 1231.412
617.6199, 1239.110
618.1021, 1254.540
618.5842, 1262.899
619.0663, 1254.023
619.5484, 1240.162
620.0305, 1235.546
620.5126, 1238.438
620.9948, 1241.883
621.4769, 1242.774
621.9590, 1242.598
622.4411, 1241.754
622.9232, 1240.070
623.4053, 1239.721
623.8875, 1246.926
624.3696, 1251.396
624.8517, 1245.130
625.3338, 1218.579
625.8159, 1203.691
626.2980, 1204.704
626.7802, 1213.145
627.2623, 1216.756
627.7444, 1215.380
628.2265, 1212.459
628.7086, 1207.608
629.1907, 1203.223
629.6729, 1206.086
630.1550, 1214.662
630.6371, 1221.205
631.1192, 1221.834
631.6013, 1217.889
632.0834, 1206.893
632.5656, 1189.102
633.0477, 1179.126
633.5298, 1192.273
634.0119, 1209.595
634.4940, 1217.359
634.9761, 1207.272
635.4583, 1200.885
635.9404, 1199.816
636.4225, 1202.040
636.9046, 1205.726
637.3867, 1211.550
637.8688, 1216.475
638.3510, 1220.605
638.8331, 1222.831
639.3152, 1218.791
639.7973, 1209.036
640.2794, 1201.000
640.7615, 1197.710
641.2437, 1198.748
641.7258, 1206.446
642.2079, 1219.606
642.6900, 1228.948
