##NAMES=Fluorapatite
##RRUFFID=R050617
##IDEAL CHEMISTRY=Ca_5_(PO_4_)_3_F
##LOCALITY=Santa Cruz, Sonora, Mexico
##OWNER=RRUFF
##SOURCE=University of Arizona Mineral Museum
##DESCRIPTION=Tan colored hexagonal prism
##STATUS=The identification of this mineral is confirmed by single-crystal X-ray diffraction and chemical analysis.
##URL=rruff.info/R050617
##MEASURED CHEMISTRY=Ca_5.00_(P_1.00_O_4_)_3_(F_0.99_Cl_0.01_)
154.6351, 2818.948
155.1172, 2815.297
155.5993, 2817.622
156.0814, 2833.711
156.5635, 2848.572
157.0456, 2860.228
157.5278, 2868.510
158.0099, 2872.410
158.4920, 2867.940
158.9741, 2860.775
159.4562, 2855.954
159.9383, 2855.986
160.4205, 2857.376
160.9026, 2859.371
161.3847, 2861.996
161.8668, 2864.355
162.3489, 2865.100
162.8310, 2865.745
163.3132, 2868.044
163.7953, 2872.769
164.2774, 2879.117
164.7595, 2887.506
165.2416, 2898.428
165.7237, 2907.862
166.2059, 2913.273
166.6880, 2916.052
167.1701, 2918.329
167.6522, 2920.908
168.1343, 2923.332
168.6164, 2924.979
169.0985, 2925.489
169.5807, 2926.587
170.0628, 2930.638
170.5449, 2936.128
171.0270, 2940.047
171.5091, 2940.305
171.9912, 2938.642
172.4734, 2936.281
172.9555, 2932.932
173.4376, 2930.522
173.9197, 2932.326
174.4018, 2936.701
174.8839, 2939.110
175.3661, 2933.590
175.8482, 2925.652
176.3303, 2922.906
176.8124, 2927.627
177.2945, 2935.007
177.7766, 2940.436
178.2588, 2944.229
178.7409, 2947.504
179.2230, 2951.259
179.7051, 2954.970
180.1872, 2957.609
180.6693, 2958.924
181.1515, 2959.282
181.6336, 2958.953
182.1157, 2957.993
182.5978, 2956.809
183.0799, 2955.030
183.5620, 2953.180
184.0442, 2952.868
184.5263, 2954.869
185.0084, 2957.890
185.4905, 2959.381
185.9726, 2959.419
186.4547, 2960.146
186.9369, 2963.983
187.4190, 2970.180
187.9011, 2975.498
188.3832, 2979.552
188.8653, 2982.217
189.3474, 2982.418
189.8296, 2980.078
190.3117, 2978.144
190.7938, 2979.485
191.2759, 2983.736
191.7580, 2987.942
192.2401, 2991.495
192.7223, 2994.602
193.2044, 2997.574
193.6865, 3000.312
194.1686, 3003.805
194.6507, 3009.799
195.1328, 3018.083
195.6150, 3024.354
196.0971, 3026.602
196.5792, 3026.193
197.0613, 3028.773
197.5434, 3034.645
198.0255, 3041.807
198.5077, 3048.670
198.9898, 3055.292
199.4719, 3060.653
199.9540, 3064.224
200.4361, 3066.308
200.9182, 3068.492
201.4004, 3070.696
201.8825, 3073.293
202.3646, 3077.169
202.8467, 3082.619
203.3288, 3086.735
203.8109, 3088.254
204.2931, 3087.648
204.7752, 3088.917
205.2573, 3092.421
205.7394, 3096.972
206.2215, 3101.529
206.7036, 3106.097
207.1858, 3110.350
207.6679, 3113.853
208.1500, 3116.736
208.6321, 3121.526
209.1142, 3129.157
209.5963, 3136.932
210.0785, 3141.537
210.5606, 3141.916
211.0427, 3143.042
211.5248, 3146.640
212.0069, 3152.621
212.4890, 3156.142
212.9712, 3156.183
213.4533, 3155.387
213.9354, 3156.945
214.4175, 3161.890
214.8996, 3166.110
215.3817, 3168.509
215.8639, 3169.055
216.3460, 3169.640
216.8281, 3169.819
217.3102, 3170.585
217.7923, 3173.272
218.2744, 3178.719
218.7565, 3183.982
219.2387, 3188.646
219.7208, 3192.791
220.2029, 3194.345
220.6850, 3191.666
221.1671, 3188.315
221.6492, 3188.647
222.1314, 3194.676
222.6135, 3199.689
223.0956, 3201.341
223.5777, 3199.399
224.0598, 3200.735
224.5419, 3206.110
225.0241, 3213.931
225.5062, 3222.958
225.9883, 3234.070
226.4704, 3244.349
226.9525, 3252.635
227.4346, 3258.909
227.9168, 3266.436
228.3989, 3276.765
228.8810, 3286.702
229.3631, 3292.514
229.8452, 3292.272
230.3273, 3291.803
230.8095, 3291.954
231.2916, 3292.701
231.7737, 3294.897
232.2558, 3298.584
232.7379, 3303.679
233.2200, 3310.671
233.7022, 3322.379
234.1843, 3330.327
234.6664, 3331.489
235.1485, 3325.738
235.6306, 3323.004
236.1127, 3324.929
236.5949, 3328.142
237.0770, 3329.307
237.5591, 3326.856
238.0412, 3325.473
238.5233, 3326.895
239.0054, 3331.124
239.4876, 3331.574
239.9697, 3325.355
240.4518, 3318.523
240.9339, 3316.817
241.4160, 3323.599
241.8981, 3328.819
242.3803, 3329.896
242.8624, 3327.030
243.3445, 3327.400
243.8266, 3332.945
244.3087, 3339.506
244.7908, 3343.419
245.2730, 3342.676
245.7551, 3343.264
246.2372, 3346.376
246.7193, 3351.773
247.2014, 3356.667
247.6835, 3361.221
248.1657, 3364.927
248.6478, 3366.966
249.1299, 3365.617
249.6120, 3366.453
250.0941, 3371.146
250.5762, 3379.018
251.0584, 3384.377
251.5405, 3385.864
252.0226, 3386.669
252.5047, 3389.091
252.9868, 3394.126
253.4689, 3398.632
253.9511, 3402.280
254.4332, 3405.234
254.9153, 3407.965
255.3974, 3409.893
255.8795, 3412.627
256.3616, 3417.450
256.8438, 3425.646
257.3259, 3432.641
257.8080, 3437.462
258.2901, 3440.860
258.7722, 3446.112
259.2543, 3454.177
259.7365, 3462.447
260.2186, 3468.994
260.7007, 3471.796
261.1828, 3478.900
261.6649, 3492.532
262.1470, 3510.023
262.6292, 3523.820
263.1113, 3532.747
263.5934, 3539.990
264.0755, 3546.876
264.5576, 3553.268
265.0397, 3560.061
265.5219, 3567.934
266.0040, 3575.844
266.4861, 3581.165
266.9682, 3582.737
267.4503, 3584.646
267.9324, 3589.752
268.4146, 3600.024
268.8967, 3604.479
269.3788, 3601.350
269.8609, 3594.292
270.3430, 3590.493
270.8251, 3591.153
271.3073, 3591.099
271.7894, 3587.387
272.2715, 3579.351
272.7536, 3574.893
273.2357, 3574.896
273.7178, 3577.154
274.2000, 3578.147
274.6821, 3577.311
275.1642, 3577.516
275.6463, 3580.247
276.1284, 3585.486
276.6105, 3589.309
277.0927, 3591.609
277.5748, 3592.702
278.0569, 3592.428
278.5390, 3590.507
279.0211, 3589.749
279.5032, 3591.290
279.9854, 3594.920
280.4675, 3599.011
280.9496, 3603.910
281.4317, 3608.247
281.9138, 3609.911
282.3959, 3608.782
282.8781, 3608.809
283.3602, 3611.338
283.8423, 3615.792
284.3244, 3619.742
284.8065, 3623.210
285.2886, 3626.150
285.7708, 3628.083
286.2529, 3629.078
286.7350, 3630.901
287.2171, 3634.147
287.6992, 3638.250
288.1813, 3641.000
288.6635, 3642.230
289.1456, 3644.761
289.6277, 3652.336
290.1098, 3663.944
290.5919, 3672.480
291.0740, 3676.337
291.5562, 3677.411
292.0383, 3678.757
292.5204, 3680.404
293.0025, 3682.731
293.4846, 3687.157
293.9667, 3692.713
294.4489, 3695.358
294.9310, 3693.780
295.4131, 3691.468
295.8952, 3694.833
296.3773, 3702.903
296.8594, 3709.276
297.3416, 3706.779
297.8237, 3700.413
298.3058, 3702.862
298.7879, 3716.233
299.2700, 3732.379
299.7521, 3741.338
300.2343, 3744.923
300.7164, 3748.472
301.1985, 3756.365
301.6806, 3765.240
302.1627, 3768.183
302.6448, 3764.508
303.1270, 3761.754
303.6091, 3768.306
304.0912, 3780.803
304.5733, 3792.599
305.0554, 3800.141
305.5375, 3805.958
306.0197, 3812.373
306.5018, 3819.354
306.9839, 3827.016
307.4660, 3836.534
307.9481, 3846.454
308.4302, 3854.642
308.9124, 3859.693
309.3945, 3863.648
309.8766, 3868.989
310.3587, 3875.183
310.8408, 3879.064
311.3229, 3878.167
311.8051, 3874.304
312.2872, 3869.112
312.7693, 3862.096
313.2514, 3855.335
313.7335, 3849.705
314.2156, 3845.218
314.6978, 3841.818
315.1799, 3840.086
315.6620, 3839.022
316.1441, 3837.672
316.6262, 3835.144
317.1083, 3834.200
317.5905, 3838.089
318.0726, 3844.078
318.5547, 3847.468
319.0368, 3844.610
319.5189, 3840.260
320.0010, 3836.281
320.4832, 3832.598
320.9653, 3830.516
321.4474, 3832.252
321.9295, 3835.202
322.4116, 3836.323
322.8937, 3831.514
323.3759, 3828.198
323.8580, 3829.857
324.3401, 3836.949
324.8222, 3841.473
325.3043, 3840.684
325.7864, 3837.796
326.2686, 3835.279
326.7507, 3831.518
327.2328, 3830.185
327.7149, 3831.364
328.1970, 3835.132
328.6791, 3842.562
329.1613, 3861.312
329.6434, 3877.574
330.1255, 3884.065
330.6076, 3869.510
331.0897, 3861.485
331.5718, 3863.093
332.0540, 3871.465
332.5361, 3878.598
333.0182, 3885.107
333.5003, 3889.656
333.9824, 3890.969
334.4645, 3886.766
334.9467, 3886.822
335.4288, 3893.805
335.9109, 3903.186
336.3930, 3906.989
336.8751, 3902.772
337.3572, 3898.733
337.8394, 3896.882
338.3215, 3897.214
338.8036, 3900.710
339.2857, 3908.737
339.7678, 3917.563
340.2499, 3922.891
340.7320, 3923.962
341.2141, 3925.466
341.6963, 3928.252
342.1784, 3932.269
342.6605, 3938.016
343.1426, 3946.014
343.6247, 3952.956
344.1068, 3954.773
344.5890, 3951.742
345.0711, 3951.806
345.5532, 3957.002
346.0353, 3964.594
346.5174, 3968.982
346.9995, 3970.221
347.4817, 3970.030
347.9638, 3968.194
348.4459, 3965.591
348.9280, 3965.895
349.4101, 3969.827
349.8922, 3974.760
350.3744, 3976.866
350.8565, 3976.899
351.3386, 3977.826
351.8207, 3982.279
352.3028, 3988.108
352.7849, 3991.967
353.2671, 3993.855
353.7492, 3994.338
354.2313, 3991.211
354.7134, 3987.402
355.1955, 3988.354
355.6776, 4000.178
356.1598, 4013.475
356.6419, 4019.854
357.1240, 4020.023
357.6061, 4017.642
358.0882, 4011.986
358.5703, 4006.270
359.0525, 4003.893
359.5346, 4006.464
360.0167, 4010.665
360.4988, 4015.078
360.9809, 4019.641
361.4630, 4024.208
361.9452, 4028.730
362.4273, 4033.112
362.9094, 4037.553
363.3915, 4042.344
363.8736, 4045.654
364.3557, 4042.927
364.8379, 4039.618
365.3200, 4042.142
365.8021, 4062.179
366.2842, 4078.171
366.7663, 4081.109
367.2484, 4070.749
367.7306, 4064.882
368.2127, 4069.284
368.6948, 4076.633
369.1769, 4082.123
369.6590, 4085.312
370.1411, 4087.129
370.6233, 4087.616
371.1054, 4086.820
371.5875, 4084.538
372.0696, 4077.526
372.5517, 4073.006
373.0338, 4074.434
373.5160, 4084.339
373.9981, 4093.129
374.4802, 4101.165
374.9623, 4107.878
375.4444, 4111.190
375.9265, 4108.443
376.4087, 4110.069
376.8908, 4121.571
377.3729, 4142.409
377.8550, 4153.514
378.3371, 4152.978
378.8192, 4147.540
379.3014, 4142.232
379.7835, 4136.844
380.2656, 4135.681
380.7477, 4140.713
381.2298, 4149.343
381.7119, 4154.978
382.1941, 4157.486
382.6762, 4159.832
383.1583, 4164.083
383.6404, 4169.800
384.1225, 4175.582
384.6046, 4181.637
385.0868, 4186.408
385.5689, 4186.604
386.0510, 4183.468
386.5331, 4181.654
387.0152, 4183.990
387.4973, 4188.733
387.9795, 4194.339
388.4616, 4200.794
388.9437, 4205.592
389.4258, 4205.343
389.9079, 4202.663
390.3900, 4201.177
390.8722, 4201.573
391.3543, 4204.108
391.8364, 4211.329
392.3185, 4221.501
392.8006, 4228.433
393.2827, 4224.026
393.7649, 4218.536
394.2470, 4220.066
394.7291, 4232.999
395.2112, 4244.078
395.6933, 4246.495
396.1754, 4244.512
396.6576, 4244.538
397.1397, 4249.881
397.6218, 4255.694
398.1039, 4260.889
398.5860, 4265.478
399.0681, 4268.322
399.5503, 4266.888
400.0324, 4265.157
400.5145, 4266.039
400.9966, 4270.274
401.4787, 4276.299
401.9608, 4285.613
402.4430, 4296.864
402.9251, 4304.659
403.4072, 4308.099
403.8893, 4309.498
404.3714, 4309.181
404.8535, 4305.993
405.3357, 4306.350
405.8178, 4311.880
406.2999, 4318.721
406.7820, 4320.274
407.2641, 4315.165
407.7462, 4312.661
408.2284, 4315.998
408.7105, 4324.162
409.1926, 4333.601
409.6747, 4344.835
410.1568, 4353.684
410.6389, 4354.233
411.1211, 4348.308
411.6032, 4346.274
412.0853, 4350.150
412.5674, 4358.138
413.0495, 4370.184
413.5316, 4385.163
414.0138, 4396.948
414.4959, 4399.835
414.9780, 4398.421
415.4601, 4398.752
415.9422, 4401.073
416.4243, 4406.460
416.9065, 4418.505
417.3886, 4433.558
417.8707, 4445.879
418.3528, 4449.591
418.8349, 4453.733
419.3170, 4466.159
419.7992, 4484.929
420.2813, 4500.393
420.7634, 4507.004
421.2455, 4510.040
421.7276, 4512.151
422.2097, 4511.526
422.6919, 4515.433
423.1740, 4528.519
423.6561, 4546.578
424.1382, 4563.506
424.6203, 4576.905
425.1024, 4590.123
425.5846, 4604.683
426.0667, 4620.744
426.5488, 4634.360
427.0309, 4646.202
427.5130, 4655.149
427.9951, 4659.625
428.4773, 4655.025
428.9594, 4656.553
429.4415, 4668.205
429.9236, 4685.233
430.4057, 4695.475
430.8878, 4697.505
431.3700, 4697.006
431.8521, 4695.204
432.3342, 4692.132
432.8163, 4693.915
433.2984, 4701.755
433.7805, 4710.429
434.2627, 4712.256
434.7448, 4708.239
435.2269, 4708.613
435.7090, 4717.163
436.1911, 4730.422
436.6732, 4742.484
437.1554, 4753.284
437.6375, 4762.042
438.1196, 4764.985
438.6017, 4766.395
439.0838, 4773.840
439.5659, 4788.864
440.0480, 4806.179
440.5302, 4825.151
441.0123, 4842.935
441.4944, 4854.775
441.9765, 4852.937
442.4586, 4849.414
442.9407, 4851.671
443.4229, 4859.243
443.9050, 4867.272
444.3871, 4877.153
444.8692, 4884.595
445.3513, 4886.434
445.8334, 4879.438
446.3156, 4871.788
446.7977, 4864.968
447.2798, 4858.436
447.7619, 4851.253
448.2440, 4843.469
448.7261, 4834.894
449.2083, 4825.145
449.6904, 4814.057
450.1725, 4804.015
450.6546, 4794.679
451.1367, 4786.953
451.6188, 4782.947
452.1010, 4785.843
452.5831, 4780.486
453.0652, 4762.190
453.5473, 4738.093
454.0294, 4724.433
454.5115, 4722.177
454.9937, 4722.460
455.4758, 4723.306
455.9579, 4723.764
456.4400, 4716.497
456.9221, 4700.498
457.4042, 4685.370
457.8864, 4682.011
458.3685, 4687.115
458.8506, 4691.397
459.3327, 4693.371
459.8148, 4692.058
460.2969, 4683.013
460.7791, 4668.875
461.2612, 4658.667
461.7433, 4659.976
462.2254, 4665.809
462.7075, 4670.778
463.1896, 4674.512
463.6718, 4676.954
464.1539, 4676.503
464.6360, 4675.491
465.1181, 4676.245
465.6002, 4683.114
466.0823, 4687.834
466.5645, 4686.290
467.0466, 4680.424
467.5287, 4677.686
468.0108, 4682.156
468.4929, 4686.894
468.9750, 4688.994
469.4572, 4686.966
469.9393, 4687.679
470.4214, 4692.184
470.9035, 4698.368
471.3856, 4704.331
471.8677, 4710.636
472.3499, 4714.788
472.8320, 4716.209
473.3141, 4715.319
473.7962, 4712.603
474.2783, 4707.548
474.7604, 4704.654
475.2426, 4707.668
475.7247, 4715.652
476.2068, 4723.122
476.6889, 4730.151
477.1710, 4735.509
477.6531, 4735.827
478.1353, 4733.208
478.6174, 4733.664
479.0995, 4741.057
479.5816, 4750.160
480.0637, 4755.238
480.5458, 4756.931
481.0280, 4757.616
481.5101, 4755.686
481.9922, 4755.051
482.4743, 4760.662
482.9564, 4774.850
483.4385, 4784.589
483.9207, 4779.880
484.4028, 4769.941
484.8849, 4764.441
485.3670, 4770.225
485.8491, 4775.367
486.3312, 4778.026
486.8134, 4778.410
487.2955, 4777.449
487.7776, 4772.388
488.2597, 4769.570
488.7418, 4772.451
489.2239, 4782.948
489.7061, 4789.712
490.1882, 4791.405
490.6703, 4791.392
491.1524, 4793.556
491.6345, 4798.220
492.1166, 4802.138
492.5988, 4803.983
493.0809, 4805.282
493.5630, 4810.775
494.0451, 4820.300
494.5272, 4829.194
495.0093, 4834.259
495.4915, 4836.760
495.9736, 4840.261
496.4557, 4845.042
496.9378, 4848.129
497.4199, 4844.479
497.9020, 4838.014
498.3842, 4834.704
498.8663, 4836.316
499.3484, 4841.636
499.8305, 4853.790
500.3126, 4869.381
500.7947, 4879.676
501.2769, 4877.384
501.7590, 4872.792
502.2411, 4870.241
502.7232, 4870.149
503.2053, 4871.381
503.6874, 4875.707
504.1696, 4880.051
504.6517, 4881.995
505.1338, 4879.310
505.6159, 4878.013
506.0980, 4878.642
506.5801, 4880.663
507.0623, 4882.918
507.5444, 4885.348
508.0265, 4888.200
508.5086, 4892.023
508.9907, 4896.511
509.4728, 4898.894
509.9550, 4898.973
510.4371, 4898.589
510.9192, 4899.218
511.4013, 4900.764
511.8834, 4903.211
512.3655, 4907.195
512.8477, 4910.281
513.3298, 4908.638
513.8119, 4903.913
514.2940, 4899.940
514.7761, 4897.905
515.2582, 4897.818
515.7404, 4900.039
516.2225, 4904.407
516.7046, 4909.693
517.1867, 4917.057
517.6688, 4923.954
518.1509, 4928.405
518.6331, 4928.688
519.1152, 4929.944
519.5973, 4932.595
520.0794, 4936.688
520.5615, 4942.265
521.0436, 4950.821
521.5258, 4958.384
522.0079, 4964.428
522.4900, 4968.907
522.9721, 4971.392
523.4542, 4971.028
523.9363, 4970.954
524.4185, 4973.418
524.9006, 4978.429
525.3827, 4981.259
525.8648, 4981.835
526.3469, 4981.106
526.8290, 4978.392
527.3112, 4974.972
527.7933, 4976.221
528.2754, 4985.712
528.7575, 4996.365
529.2396, 4998.812
529.7217, 4995.364
530.2039, 4992.722
530.6860, 4993.619
531.1681, 4997.063
531.6502, 5003.327
532.1323, 5012.287
532.6144, 5020.121
533.0966, 5025.612
533.5787, 5029.185
534.0608, 5030.980
534.5429, 5028.440
535.0250, 5028.132
535.5071, 5031.843
535.9893, 5037.541
536.4714, 5042.375
536.9535, 5046.312
537.4356, 5049.449
537.9177, 5051.554
538.3998, 5052.885
538.8820, 5055.078
539.3641, 5058.500
539.8462, 5061.144
540.3283, 5060.479
540.8104, 5057.342
541.2925, 5058.409
541.7747, 5064.458
542.2568, 5071.372
542.7389, 5075.194
543.2210, 5076.487
543.7031, 5076.328
544.1852, 5074.132
544.6674, 5072.100
545.1495, 5072.628
545.6316, 5074.968
546.1137, 5077.215
546.5958, 5075.277
547.0779, 5075.808
547.5601, 5084.938
548.0422, 5103.226
548.5243, 5115.943
549.0064, 5115.247
549.4885, 5111.315
549.9706, 5110.486
550.4528, 5115.200
550.9349, 5118.272
551.4170, 5118.398
551.8991, 5117.849
552.3812, 5120.340
552.8633, 5126.743
553.3455, 5132.376
553.8276, 5135.601
554.3097, 5137.567
554.7918, 5142.947
555.2739, 5151.673
555.7560, 5159.062
556.2382, 5161.192
556.7203, 5160.185
557.2024, 5160.614
557.6845, 5162.746
558.1666, 5165.454
558.6487, 5167.978
559.1309, 5170.497
559.6130, 5173.087
560.0951, 5175.407
560.5772, 5178.549
561.0593, 5180.869
561.5414, 5184.687
562.0236, 5194.026
562.5057, 5218.596
562.9878, 5239.706
563.4699, 5249.412
563.9520, 5249.106
564.4341, 5255.375
564.9163, 5272.553
565.3984, 5290.165
565.8805, 5303.289
566.3626, 5311.427
566.8447, 5317.840
567.3268, 5321.955
567.8090, 5326.108
568.2911, 5333.053
568.7732, 5342.604
569.2553, 5352.479
569.7374, 5362.333
570.2195, 5372.343
570.7017, 5382.904
571.1838, 5394.124
571.6659, 5406.078
572.1480, 5419.091
572.6301, 5432.840
573.1122, 5445.599
573.5944, 5458.076
574.0765, 5475.214
574.5586, 5503.505
575.0407, 5533.870
575.5228, 5561.500
576.0049, 5585.837
576.4871, 5606.625
576.9692, 5619.294
577.4513, 5631.486
577.9334, 5651.334
578.4155, 5683.032
578.8976, 5712.570
579.3798, 5740.625
579.8619, 5763.903
580.3440, 5774.333
580.8261, 5771.931
581.3082, 5757.220
581.7903, 5727.171
582.2725, 5685.792
582.7546, 5642.748
583.2367, 5598.413
583.7188, 5557.848
584.2009, 5524.262
584.6830, 5497.356
585.1652, 5476.733
585.6473, 5462.237
586.1294, 5454.185
586.6115, 5454.692
587.0936, 5460.612
587.5757, 5468.662
588.0578, 5478.973
588.5399, 5490.065
589.0220, 5504.642
589.5042, 5519.459
589.9863, 5527.084
590.4684, 5523.676
590.9505, 5519.144
591.4326, 5516.245
591.9147, 5514.551
592.3969, 5509.589
592.8790, 5500.577
593.3611, 5491.852
593.8432, 5487.185
594.3253, 5485.659
594.8074, 5480.456
595.2896, 5470.856
595.7717, 5462.729
596.2538, 5464.160
596.7359, 5470.742
597.2180, 5474.003
597.7001, 5469.710
598.1823, 5466.198
598.6644, 5468.858
599.1465, 5476.132
599.6286, 5485.364
600.1107, 5495.417
600.5928, 5507.441
601.0750, 5523.789
601.5571, 5543.396
602.0392, 5558.270
602.5213, 5565.230
603.0034, 5571.716
603.4855, 5580.666
603.9677, 5592.337
604.4498, 5602.945
604.9319, 5612.030
605.4140, 5621.517
605.8961, 5635.339
606.3782, 5652.101
606.8604, 5660.988
607.3425, 5660.198
607.8246, 5653.479
608.3067, 5644.290
608.7888, 5632.603
609.2709, 5618.263
609.7531, 5597.020
610.2352, 5578.140
610.7173, 5567.311
611.1994, 5563.583
611.6815, 5564.111
612.1636, 5571.738
612.6458, 5579.919
613.1279, 5586.689
613.6100, 5591.891
614.0921, 5595.973
614.5742, 5600.299
615.0563, 5601.871
615.5385, 5598.183
616.0206, 5587.864
616.5027, 5580.897
616.9848, 5578.392
617.4669, 5575.993
617.9490, 5566.286
618.4312, 5551.472
618.9133, 5544.434
619.3954, 5550.134
619.8775, 5557.910
620.3596, 5551.804
620.8417, 5538.009
621.3239, 5530.442
621.8060, 5541.342
622.2881, 5554.037
622.7702, 5558.559
623.2523, 5556.596
623.7344, 5555.561
624.2166, 5557.728
624.6987, 5560.740
625.1808, 5563.994
625.6629, 5567.543
626.1450, 5569.298
626.6271, 5567.325
627.1093, 5566.576
627.5914, 5571.863
628.0735, 5583.886
628.5556, 5590.779
629.0377, 5591.191
629.5198, 5589.397
630.0020, 5590.238
630.4841, 5593.085
630.9662, 5595.891
631.4483, 5598.170
631.9304, 5600.450
632.4125, 5604.593
632.8947, 5609.123
633.3768, 5611.038
633.8589, 5604.119
634.3410, 5599.499
634.8231, 5604.088
635.3052, 5616.114
635.7874, 5624.350
636.2695, 5623.839
636.7516, 5623.405
637.2337, 5625.722
637.7158, 5630.786
638.1979, 5637.267
638.6801, 5645.492
639.1622, 5653.745
639.6443, 5660.961
640.1264, 5666.934
640.6085, 5670.883
641.0906, 5672.386
641.5728, 5673.334
642.0549, 5676.312
642.5370, 5680.071
643.0191, 5682.042
643.5012, 5680.049
643.9833, 5679.269
644.4655, 5685.421
644.9476, 5694.646
645.4297, 5700.565
645.9118, 5699.044
646.3939, 5696.792
646.8760, 5693.842
647.3582, 5691.269
647.8403, 5693.885
648.3224, 5705.185
648.8045, 5714.914
649.2866, 5719.162
649.7687, 5718.422
650.2509, 5716.081
650.7330, 5711.796
