##NAMES=Fluorophlogopite
##RRUFFID=R040042
##IDEAL CHEMISTRY=KMg_3_(Si_3_Al)O_10_F_2_
##LOCALITY=Franklin, Sussex County, New Jersey, USA
##OWNER=RRUFF
##SOURCE=University of Arizona Mineral Museum
##DESCRIPTION=Brown flattened hexagonal prism, polytype 1M
##STATUS=The identification of this mineral has been confirmed by X-ray diffraction and chemical analysis
##URL=rruff.info/R040042
##MEASURED CHEMISTRY=(K_0.92_Na_0.08_)_Σ=1_(Mg_2.95_Fe_0.05_)_Σ=3_(Si_3.00_Al_1.00_)O_10_(F_1.40_(OH)_0.60_)_Σ=2_; trace amounts of Ti; OH estimated by charge balance
126.8314, 1083.588
127.3135, 1121.697
127.7956, 1165.682
128.2778, 1215.205
128.7599, 1268.719
129.2420, 1325.863
129.7241, 1388.277
130.2062, 1441.218
130.6884, 1491.031
131.1705, 1527.508
131.6526, 1542.398
132.1347, 1537.939
132.6168, 1523.655
133.0989, 1508.934
133.5811, 1493.288
134.0632, 1478.791
134.5453, 1466.785
135.0274, 1454.672
135.5095, 1436.832
135.9916, 1414.540
136.4738, 1397.413
136.9559, 1398.034
137.4380, 1423.749
137.9201, 1451.467
138.4022, 1477.696
138.8843, 1507.715
139.3665, 1546.247
139.8486, 1594.019
140.3307, 1648.014
140.8128, 1703.021
141.2949, 1754.910
141.7770, 1819.003
142.2592, 1902.019
142.7413, 1994.157
143.2234, 2085.970
143.7055, 2174.412
144.1876, 2262.979
144.6697, 2359.542
145.1518, 2470.675
145.6340, 2573.162
146.1161, 2663.951
146.5982, 2744.435
147.0803, 2815.705
147.5624, 2878.136
148.0445, 2933.137
148.5267, 2984.428
149.0088, 3038.213
149.4909, 3074.997
149.9730, 3085.334
150.4551, 3075.868
150.9372, 3057.193
151.4194, 3030.677
151.9015, 3000.934
152.3836, 2976.176
152.8657, 2955.413
153.3478, 2939.884
153.8299, 2934.400
154.3121, 2935.013
154.7942, 2930.323
155.2763, 2913.860
155.7584, 2892.935
156.2405, 2881.163
156.7226, 2879.560
157.2048, 2882.503
157.6869, 2884.910
158.1690, 2888.688
158.6511, 2902.540
159.1332, 2932.217
159.6153, 2972.134
160.0975, 3010.607
160.5796, 3046.569
161.0617, 3083.855
161.5438, 3127.353
162.0259, 3175.632
162.5080, 3219.454
162.9902, 3252.900
163.4723, 3281.273
163.9544, 3313.398
164.4365, 3350.533
164.9186, 3388.745
165.4007, 3426.073
165.8829, 3462.471
166.3650, 3494.927
166.8471, 3517.738
167.3292, 3538.728
167.8113, 3570.005
168.2934, 3617.649
168.7756, 3663.143
169.2577, 3686.347
169.7398, 3686.910
170.2219, 3689.697
170.7040, 3704.692
171.1861, 3726.748
171.6683, 3750.814
172.1504, 3777.148
172.6325, 3803.075
173.1146, 3824.743
173.5967, 3841.695
174.0788, 3860.793
174.5610, 3884.357
175.0431, 3911.967
175.5252, 3942.149
176.0073, 3973.420
176.4894, 4011.189
176.9715, 4064.477
177.4537, 4135.351
177.9358, 4205.648
178.4179, 4261.663
178.9000, 4317.367
179.3821, 4385.136
179.8642, 4468.108
180.3464, 4562.306
180.8285, 4662.495
181.3106, 4767.760
181.7927, 4884.007
182.2748, 5004.254
182.7569, 5142.665
183.2391, 5314.125
183.7212, 5523.023
184.2033, 5758.958
184.6854, 6008.537
185.1675, 6269.673
185.6496, 6552.721
186.1318, 6865.196
186.6139, 7199.037
187.0960, 7552.350
187.5781, 7925.249
188.0602, 8315.936
188.5423, 8729.597
189.0245, 9165.502
189.5066, 9615.612
189.9887, 10089.63
190.4708, 10567.83
190.9529, 11045.09
191.4350, 11518.72
191.9172, 11979.03
192.3993, 12427.18
192.8814, 12872.06
193.3635, 13255.46
193.8456, 13581.49
194.3277, 13827.65
194.8099, 13972.68
195.2920, 14012.03
195.7741, 13946.85
196.2562, 13768.37
196.7383, 13465.37
197.2204, 13101.51
197.7026, 12670.86
198.1847, 12193.17
198.6668, 11662.41
199.1489, 11072.93
199.6310, 10469.99
200.1131, 9892.488
200.5953, 9340.423
201.0774, 8826.256
201.5595, 8357.779
202.0416, 7930.134
202.5237, 7551.193
203.0058, 7220.264
203.4880, 6932.231
203.9701, 6687.024
204.4522, 6487.515
204.9343, 6304.446
205.4164, 6143.448
205.8985, 5991.882
206.3807, 5841.881
206.8628, 5692.022
207.3449, 5550.011
207.8270, 5422.444
208.3091, 5309.389
208.7912, 5210.304
209.2734, 5133.268
209.7555, 5065.068
210.2376, 5001.021
210.7197, 4939.982
211.2018, 4879.380
211.6839, 4814.267
212.1661, 4744.170
212.6482, 4685.362
213.1303, 4653.942
213.6124, 4622.622
214.0945, 4571.334
214.5766, 4502.182
215.0588, 4435.371
215.5409, 4390.083
216.0230, 4365.723
216.5051, 4341.495
216.9872, 4321.259
217.4693, 4294.611
217.9515, 4251.538
218.4336, 4195.171
218.9157, 4140.702
219.3978, 4099.937
219.8799, 4071.551
220.3620, 4043.529
220.8442, 4013.094
221.3263, 3985.881
221.8084, 3965.903
222.2905, 3951.629
222.7726, 3938.134
223.2547, 3922.852
223.7369, 3905.787
224.2190, 3887.665
224.7011, 3870.356
225.1832, 3848.352
225.6653, 3810.981
226.1474, 3766.262
226.6296, 3733.798
227.1117, 3730.808
227.5938, 3747.440
228.0759, 3755.581
228.5580, 3752.862
229.0401, 3746.130
229.5223, 3736.097
230.0044, 3725.254
230.4865, 3718.734
230.9686, 3722.521
231.4507, 3730.101
231.9328, 3728.879
232.4150, 3717.450
232.8971, 3701.313
233.3792, 3677.693
233.8613, 3652.443
234.3434, 3633.886
234.8255, 3625.398
235.3077, 3624.084
235.7898, 3628.143
236.2719, 3638.854
236.7540, 3647.053
237.2361, 3648.059
237.7182, 3643.783
238.2004, 3635.374
238.6825, 3619.639
239.1646, 3605.290
239.6467, 3605.543
240.1288, 3620.679
240.6109, 3627.141
241.0931, 3607.965
241.5752, 3578.743
242.0573, 3562.231
242.5394, 3562.927
243.0215, 3568.945
243.5036, 3573.816
243.9858, 3577.248
244.4679, 3576.071
244.9500, 3565.438
245.4321, 3553.540
245.9142, 3554.265
246.3963, 3571.785
246.8785, 3584.639
247.3606, 3575.305
247.8427, 3551.592
248.3248, 3537.137
248.8069, 3540.065
249.2890, 3551.512
249.7712, 3560.675
250.2533, 3567.755
250.7354, 3572.122
251.2175, 3568.123
251.6996, 3562.275
252.1817, 3567.012
252.6639, 3585.945
253.1460, 3610.902
253.6281, 3634.098
254.1102, 3655.660
254.5923, 3674.424
255.0744, 3692.345
255.5566, 3706.384
256.0387, 3708.104
256.5208, 3696.311
257.0029, 3689.114
257.4850, 3702.472
257.9671, 3738.374
258.4492, 3784.154
258.9314, 3845.563
259.4135, 3912.210
259.8956, 3989.730
260.3777, 4072.718
260.8598, 4126.166
261.3419, 4117.925
261.8241, 4051.816
262.3062, 4010.746
262.7883, 3999.051
263.2704, 4004.929
263.7525, 4030.168
264.2346, 4069.557
264.7168, 4109.962
265.1989, 4143.390
265.6810, 4172.456
266.1631, 4210.092
266.6452, 4257.866
267.1273, 4311.154
267.6095, 4368.655
268.0916, 4431.169
268.5737, 4498.398
269.0558, 4569.763
269.5379, 4649.306
270.0201, 4745.184
270.5022, 4885.066
270.9843, 5008.531
271.4664, 5098.820
271.9485, 5180.770
272.4306, 5277.491
272.9128, 5395.197
273.3949, 5527.538
273.8770, 5666.223
274.3591, 5825.929
274.8412, 5958.053
275.3233, 6059.687
275.8055, 6140.583
276.2876, 6212.338
276.7697, 6272.912
277.2518, 6305.987
277.7339, 6292.812
278.2160, 6228.123
278.6982, 6146.816
279.1803, 6045.333
279.6624, 5931.019
280.1445, 5803.505
280.6266, 5664.608
281.1087, 5515.344
281.5909, 5352.344
282.0730, 5178.595
282.5551, 5029.565
283.0372, 4917.889
283.5193, 4815.737
284.0014, 4717.711
284.4836, 4623.541
284.9657, 4532.305
285.4478, 4442.897
285.9299, 4359.003
286.4120, 4292.793
286.8941, 4249.096
287.3763, 4212.694
287.8584, 4180.636
288.3405, 4152.884
288.8226, 4130.029
289.3047, 4112.470
289.7868, 4098.727
290.2690, 4087.508
290.7511, 4079.021
291.2332, 4071.646
291.7153, 4068.323
292.1974, 4063.324
292.6795, 4049.966
293.1617, 4027.967
293.6438, 4008.379
294.1259, 3999.579
294.6080, 4000.299
295.0901, 4003.260
295.5722, 4004.703
296.0544, 4013.168
296.5365, 4041.102
297.0186, 4084.221
297.5007, 4121.181
297.9828, 4134.315
298.4649, 4139.506
298.9471, 4165.256
299.4292, 4216.312
299.9113, 4268.359
300.3934, 4300.371
300.8755, 4318.474
301.3576, 4346.375
301.8398, 4396.017
302.3219, 4448.666
302.8040, 4484.872
303.2861, 4508.748
303.7682, 4544.875
304.2503, 4609.148
304.7325, 4693.073
305.2146, 4768.005
305.6967, 4827.150
306.1788, 4888.315
306.6609, 4957.375
307.1430, 5032.556
307.6252, 5114.784
308.1073, 5205.098
308.5894, 5293.211
309.0715, 5359.201
309.5536, 5388.315
310.0357, 5424.533
310.5179, 5473.843
311.0000, 5527.833
311.4821, 5581.240
311.9642, 5632.613
312.4463, 5681.188
312.9284, 5727.133
313.4106, 5772.911
313.8927, 5800.847
314.3748, 5795.042
314.8569, 5790.150
315.3390, 5805.526
315.8211, 5834.269
316.3033, 5857.144
316.7854, 5860.721
317.2675, 5847.799
317.7496, 5836.526
318.2317, 5831.158
318.7138, 5821.654
319.1960, 5799.663
319.6781, 5775.262
320.1602, 5763.340
320.6423, 5770.432
321.1244, 5781.319
321.6065, 5767.967
322.0887, 5724.897
322.5708, 5675.114
323.0529, 5615.502
323.5350, 5554.906
324.0171, 5503.410
324.4992, 5460.692
324.9814, 5410.314
325.4635, 5330.297
325.9456, 5223.791
326.4277, 5135.855
326.9098, 5080.565
327.3919, 5030.010
327.8741, 4961.026
328.3562, 4880.106
328.8383, 4807.682
329.3204, 4762.022
329.8025, 4726.613
330.2846, 4671.441
330.7668, 4594.020
331.2489, 4518.884
331.7310, 4461.508
332.2131, 4417.328
332.6952, 4373.146
333.1773, 4327.425
333.6595, 4282.850
334.1416, 4243.288
334.6237, 4206.853
335.1058, 4167.373
335.5879, 4121.750
336.0700, 4073.735
336.5522, 4029.914
337.0343, 3987.619
337.5164, 3955.385
337.9985, 3940.841
338.4806, 3933.919
338.9627, 3925.576
339.4449, 3913.733
339.9270, 3897.641
340.4091, 3874.880
340.8912, 3842.299
341.3733, 3823.306
341.8554, 3826.625
342.3376, 3832.667
342.8197, 3835.792
343.3018, 3834.370
343.7839, 3824.900
344.2660, 3803.509
344.7481, 3775.490
345.2303, 3767.512
345.7124, 3801.490
346.1945, 3825.780
346.6766, 3827.186
347.1587, 3819.576
347.6408, 3815.309
348.1230, 3818.458
348.6051, 3828.166
349.0872, 3846.360
349.5693, 3876.822
350.0514, 3896.930
350.5335, 3897.682
351.0157, 3892.672
351.4978, 3883.367
351.9799, 3872.904
352.4620, 3871.922
352.9441, 3896.687
353.4262, 3937.380
353.9084, 3958.197
354.3905, 3953.701
354.8726, 3943.406
355.3547, 3939.817
355.8368, 3938.325
356.3189, 3930.640
356.8011, 3910.060
357.2832, 3888.952
357.7653, 3875.610
358.2474, 3870.427
358.7295, 3877.230
359.2116, 3901.634
359.6938, 3933.513
360.1759, 3953.861
360.6580, 3961.232
361.1401, 3965.506
361.6222, 3960.774
362.1043, 3958.160
362.5865, 3976.358
363.0686, 4017.438
363.5507, 4058.774
364.0328, 4076.350
364.5149, 4066.479
364.9970, 4063.403
365.4792, 4062.331
365.9613, 4071.540
366.4434, 4103.368
366.9255, 4147.791
367.4076, 4184.162
367.8897, 4200.772
368.3719, 4202.713
368.8540, 4207.219
369.3361, 4220.453
369.8182, 4225.756
370.3003, 4218.208
370.7824, 4205.052
371.2646, 4194.263
371.7467, 4186.577
372.2288, 4173.117
372.7109, 4140.661
373.1930, 4088.062
373.6751, 4041.173
374.1573, 3999.920
374.6394, 3966.905
375.1215, 3950.834
375.6036, 3943.622
376.0857, 3924.333
376.5678, 3871.590
377.0500, 3809.215
377.5321, 3781.721
378.0142, 3792.202
378.4963, 3799.144
378.9784, 3782.262
379.4605, 3750.872
379.9427, 3723.680
380.4248, 3701.574
380.9069, 3681.720
381.3890, 3663.237
381.8711, 3645.868
382.3532, 3628.006
382.8354, 3608.911
383.3175, 3592.676
383.7996, 3584.266
384.2817, 3585.399
384.7638, 3587.325
385.2459, 3593.268
385.7281, 3597.146
386.2102, 3594.301
386.6923, 3586.278
387.1744, 3576.167
387.6565, 3564.786
388.1386, 3555.348
388.6208, 3562.423
389.1029, 3610.805
389.5850, 3640.319
390.0671, 3632.306
390.5492, 3611.909
391.0313, 3600.429
391.5135, 3602.831
391.9956, 3611.208
392.4777, 3617.827
392.9598, 3622.738
393.4419, 3624.921
393.9240, 3622.980
394.4062, 3619.771
394.8883, 3616.172
395.3704, 3612.512
395.8525, 3609.642
396.3346, 3609.167
396.8167, 3608.473
397.2989, 3603.313
397.7810, 3593.565
398.2631, 3582.119
398.7452, 3566.572
399.2273, 3553.019
399.7094, 3552.960
400.1916, 3571.536
400.6737, 3584.762
401.1558, 3583.546
401.6379, 3571.544
402.1200, 3549.034
402.6021, 3516.508
403.0843, 3489.891
403.5664, 3486.667
404.0485, 3509.170
404.5306, 3519.685
405.0127, 3514.351
405.4948, 3503.227
405.9770, 3485.109
406.4591, 3464.928
406.9412, 3451.587
407.4233, 3449.354
407.9054, 3452.219
408.3875, 3445.251
408.8697, 3417.442
409.3518, 3404.658
409.8339, 3424.075
410.3160, 3445.822
410.7981, 3451.618
411.2802, 3441.542
411.7624, 3426.703
412.2445, 3414.516
412.7266, 3404.466
413.2087, 3392.594
413.6908, 3375.282
414.1729, 3365.450
414.6551, 3377.673
415.1372, 3398.929
415.6193, 3412.423
416.1014, 3413.187
416.5835, 3410.385
417.0656, 3412.530
417.5478, 3416.450
418.0299, 3410.557
418.5120, 3389.642
418.9941, 3367.155
419.4762, 3358.835
419.9583, 3366.636
420.4405, 3380.035
420.9226, 3414.466
421.4047, 3440.765
421.8868, 3433.684
422.3689, 3402.125
422.8510, 3372.642
423.3332, 3360.573
423.8153, 3361.759
424.2974, 3362.764
424.7795, 3362.157
425.2616, 3363.790
425.7437, 3372.669
426.2259, 3380.361
426.7080, 3376.777
427.1901, 3362.891
427.6722, 3352.455
428.1543, 3362.651
428.6364, 3390.317
429.1186, 3402.895
429.6007, 3393.336
430.0828, 3381.956
430.5649, 3379.633
431.0470, 3381.787
431.5291, 3381.433
432.0113, 3374.979
432.4934, 3369.738
432.9755, 3372.933
433.4576, 3382.621
433.9397, 3391.479
434.4218, 3397.198
434.9040, 3402.889
435.3861, 3413.395
435.8682, 3430.084
436.3503, 3441.810
436.8324, 3446.085
437.3145, 3446.879
437.7967, 3441.729
438.2788, 3434.886
438.7609, 3438.267
439.2430, 3459.627
439.7251, 3491.827
440.2072, 3512.648
440.6894, 3514.812
441.1715, 3517.502
441.6536, 3515.879
442.1357, 3519.604
442.6178, 3538.748
443.0999, 3571.914
443.5821, 3606.664
444.0642, 3633.640
444.5463, 3653.638
445.0284, 3669.548
445.5105, 3679.815
445.9926, 3689.905
446.4748, 3699.682
446.9569, 3711.964
447.4390, 3731.607
447.9211, 3761.406
448.4032, 3793.295
448.8853, 3824.107
449.3675, 3853.097
449.8496, 3877.492
450.3317, 3895.959
450.8138, 3915.498
451.2959, 3941.923
451.7780, 3975.219
452.2602, 4021.062
452.7423, 4087.669
453.2244, 4156.991
453.7065, 4216.518
454.1886, 4274.338
454.6707, 4344.485
455.1528, 4432.853
455.6349, 4536.495
456.1171, 4651.094
456.5992, 4778.904
457.0813, 4910.434
457.5634, 5050.756
458.0455, 5190.901
458.5276, 5321.661
459.0098, 5447.740
459.4919, 5583.277
459.9740, 5741.826
460.4561, 5909.823
460.9382, 6065.979
461.4203, 6211.221
461.9025, 6338.987
462.3846, 6456.359
462.8667, 6545.563
463.3488, 6581.491
463.8309, 6565.039
464.3130, 6505.468
464.7952, 6399.409
465.2773, 6255.167
465.7594, 6068.954
466.2415, 5847.800
466.7236, 5623.226
467.2057, 5416.790
467.6879, 5227.039
468.1700, 5042.408
468.6521, 4859.520
469.1342, 4687.770
469.6163, 4519.690
470.0984, 4367.708
470.5806, 4245.391
471.0627, 4153.773
471.5448, 4076.078
472.0269, 3996.100
472.5090, 3915.150
472.9911, 3850.359
473.4733, 3806.967
473.9554, 3767.154
474.4375, 3721.011
474.9196, 3672.833
475.4017, 3627.287
475.8839, 3580.897
476.3660, 3547.117
476.8481, 3546.871
477.3302, 3563.121
477.8123, 3557.152
478.2944, 3520.387
478.7766, 3478.343
479.2587, 3457.524
479.7408, 3459.550
480.2229, 3451.308
480.7050, 3420.828
481.1871, 3395.292
481.6693, 3384.584
482.1514, 3383.814
482.6335, 3388.301
483.1156, 3395.859
483.5977, 3401.324
484.0798, 3395.265
484.5620, 3375.325
485.0441, 3361.987
485.5262, 3358.607
486.0083, 3358.720
486.4904, 3360.242
486.9725, 3362.311
487.4547, 3362.665
487.9368, 3357.889
488.4189, 3355.384
488.9010, 3368.016
489.3831, 3390.417
489.8652, 3399.205
490.3474, 3386.035
490.8295, 3364.097
491.3116, 3347.747
491.7937, 3337.555
492.2758, 3332.888
492.7579, 3333.054
493.2401, 3339.370
493.7222, 3359.159
494.2043, 3384.410
494.6864, 3400.602
495.1685, 3401.230
495.6506, 3392.499
496.1328, 3385.096
496.6149, 3379.405
497.0970, 3373.281
497.5791, 3365.957
498.0612, 3358.830
498.5433, 3350.301
499.0255, 3342.459
499.5076, 3341.007
499.9897, 3351.604
500.4718, 3365.560
500.9539, 3375.976
501.4360, 3381.968
501.9182, 3375.989
502.4003, 3352.467
502.8824, 3324.697
503.3645, 3311.201
503.8466, 3315.959
504.3287, 3316.995
504.8109, 3311.432
505.2930, 3304.395
505.7751, 3296.930
506.2572, 3290.412
506.7393, 3287.517
507.2214, 3289.654
507.7036, 3293.915
508.1857, 3295.230
508.6678, 3293.884
509.1499, 3288.114
509.6320, 3253.015
510.1141, 3275.504
510.5963, 3286.319
511.0784, 3286.088
511.5605, 3241.725
512.0426, 3254.350
512.5247, 3244.136
513.0068, 3232.987
513.4890, 3253.631
513.9711, 3215.687
514.4532, 3235.828
514.9353, 3232.783
515.4174, 3240.350
515.8995, 3224.938
516.3817, 3216.622
516.8638, 3231.294
517.3459, 3233.238
517.8280, 3200.234
518.3101, 3189.481
518.7922, 3181.837
519.2744, 3182.798
519.7565, 3187.287
520.2386, 3186.974
520.7207, 3181.093
521.2028, 3176.082
521.6849, 3176.251
522.1671, 3172.198
522.6492, 3153.249
523.1313, 3126.720
523.6134, 3109.858
524.0955, 3109.571
524.5776, 3117.609
525.0598, 3134.649
525.5419, 3154.791
526.0240, 3159.642
526.5061, 3143.786
526.9882, 3121.338
527.4703, 3107.966
527.9525, 3104.831
528.4346, 3099.003
528.9167, 3090.953
529.3988, 3080.193
529.8809, 3058.919
530.3630, 3038.099
530.8452, 3034.251
531.3273, 3051.714
531.8094, 3074.211
532.2915, 3083.548
532.7736, 3080.321
533.2557, 3073.010
533.7379, 3057.678
534.2200, 3048.195
534.7021, 3059.006
535.1842, 3080.001
535.6663, 3090.657
536.1484, 3082.546
536.6306, 3076.948
537.1127, 3092.274
537.5948, 3112.180
538.0769, 3110.626
538.5590, 3085.379
539.0411, 3056.244
539.5233, 3038.723
540.0054, 3032.477
540.4875, 3034.475
540.9696, 3055.184
541.4517, 3068.586
541.9338, 3066.173
542.4160, 3058.850
542.8981, 3055.036
543.3802, 3055.900
543.8623, 3058.233
544.3444, 3062.236
544.8265, 3065.449
545.3087, 3058.482
545.7908, 3040.656
546.2729, 3034.293
546.7550, 3055.436
547.2371, 3087.048
547.7192, 3092.938
548.2014, 3063.229
548.6835, 3042.154
549.1656, 3042.416
549.6477, 3046.251
550.1298, 3038.493
550.6119, 3023.697
551.0941, 3017.730
551.5762, 3030.097
552.0583, 3050.188
552.5404, 3053.817
553.0225, 3036.792
553.5046, 3025.096
553.9868, 3023.061
554.4689, 3026.070
554.9510, 3034.963
555.4331, 3046.392
555.9152, 3049.758
556.3973, 3036.800
556.8795, 3020.803
557.3616, 3009.342
557.8437, 3002.713
558.3258, 3003.647
558.8079, 3012.895
559.2900, 3022.415
559.7722, 3023.051
560.2543, 3014.131
560.7364, 3006.989
561.2185, 2998.480
561.7006, 2995.633
562.1827, 3009.738
562.6649, 3024.978
563.1470, 3020.183
563.6291, 2992.113
564.1112, 2964.757
564.5933, 2962.360
565.0754, 2976.464
565.5576, 2982.647
566.0397, 2979.650
566.5218, 2972.431
567.0039, 2962.220
567.4860, 2950.392
567.9681, 2938.869
568.4503, 2921.272
568.9324, 2918.932
569.4145, 2956.925
569.8966, 2992.868
570.3787, 2987.889
570.8608, 2952.923
571.3430, 2926.118
571.8251, 2930.572
572.3072, 2950.219
572.7893, 2948.883
573.2714, 2922.122
573.7535, 2905.727
574.2357, 2910.812
574.7178, 2919.866
575.1999, 2918.323
575.6820, 2909.828
576.1641, 2906.016
576.6462, 2912.331
577.1284, 2920.722
577.6105, 2927.130
578.0926, 2932.108
578.5747, 2937.055
579.0568, 2942.149
579.5389, 2945.683
580.0211, 2946.313
580.5032, 2943.938
580.9853, 2935.211
581.4674, 2908.392
581.9495, 2893.762
582.4316, 2906.262
582.9138, 2926.699
583.3959, 2937.891
583.8780, 2938.057
584.3601, 2937.023
584.8422, 2943.295
585.3243, 2950.514
585.8065, 2945.183
586.2886, 2929.546
586.7707, 2924.236
587.2528, 2940.426
587.7349, 2963.917
588.2170, 2968.612
588.6992, 2943.569
589.1813, 2932.840
589.6634, 2947.465
590.1455, 2963.226
590.6276, 2973.535
591.1097, 2977.008
591.5919, 2970.687
592.0740, 2952.983
592.5561, 2934.316
593.0382, 2927.329
593.5203, 2929.639
594.0024, 2929.603
594.4846, 2925.492
594.9667, 2922.722
595.4488, 2924.718
595.9309, 2930.635
596.4130, 2937.652
596.8951, 2945.828
597.3773, 2954.825
597.8594, 2969.174
598.3415, 2980.717
598.8236, 2978.984
599.3057, 2968.064
599.7878, 2962.756
600.2700, 2972.946
600.7521, 2990.620
601.2342, 2999.348
601.7163, 2998.589
602.1984, 2997.064
602.6805, 2995.621
603.1627, 2994.829
603.6448, 2995.594
604.1269, 2997.526
604.6090, 2999.008
605.0911, 2995.875
605.5732, 2996.905
606.0554, 3010.361
606.5375, 3027.634
607.0196, 3036.842
607.5017, 3036.800
607.9838, 3035.798
608.4659, 3041.494
608.9481, 3051.869
609.4302, 3056.427
609.9123, 3052.776
610.3944, 3050.854
610.8765, 3054.518
611.3586, 3059.700
611.8408, 3060.925
612.3229, 3058.996
612.8050, 3063.002
613.2871, 3080.458
613.7692, 3100.090
614.2513, 3114.719
614.7335, 3125.516
615.2156, 3134.914
615.6977, 3143.702
616.1798, 3151.023
616.6619, 3154.854
617.1440, 3155.281
617.6262, 3162.780
618.1083, 3180.433
618.5904, 3199.626
619.0725, 3215.780
619.5546, 3233.332
