##NAMES=Fluoro-richterite
##RRUFFID=R060290
##IDEAL CHEMISTRY=Na(NaCa)Mg_5_Si_8_O_22_F_2_
##LOCALITY=Koschka Valley, Badakshan Province, Afghanistan
##OWNER=RRUFF
##SOURCE=Herb Obodda
##DESCRIPTION=Tan colored transparent prismatic crystal
##STATUS=The identification of this mineral has been made only by X-ray diffraction.
##URL=rruff.info/R060290
103.1040, 24015.13
103.5861, 24047.62
104.0682, 24085.43
104.5504, 24114.58
105.0325, 24132.47
105.5146, 24145.36
105.9967, 24157.61
106.4788, 24163.55
106.9609, 24178.50
107.4431, 24209.70
107.9252, 24247.48
108.4073, 24278.10
108.8894, 24295.57
109.3715, 24306.00
109.8536, 24320.79
110.3358, 24340.80
110.8179, 24359.34
111.3000, 24373.61
111.7821, 24383.60
112.2642, 24389.03
112.7463, 24386.50
113.2285, 24381.12
113.7106, 24378.68
114.1927, 24381.13
114.6748, 24383.54
115.1569, 24376.63
115.6390, 24353.09
116.1212, 24338.91
116.6033, 24348.55
117.0854, 24366.99
117.5675, 24378.49
118.0496, 24374.09
118.5317, 24358.47
119.0139, 24354.76
119.4960, 24377.72
119.9781, 24397.47
120.4602, 24407.77
120.9423, 24410.93
121.4244, 24410.73
121.9066, 24409.07
122.3887, 24404.99
122.8708, 24414.24
123.3529, 24446.42
123.8350, 24480.00
124.3171, 24504.51
124.7993, 24519.80
125.2814, 24532.65
125.7635, 24550.34
126.2456, 24574.45
126.7277, 24593.54
127.2098, 24603.08
127.6920, 24609.26
128.1741, 24618.93
128.6562, 24633.68
129.1383, 24649.78
129.6204, 24662.11
130.1025, 24671.04
130.5847, 24680.21
131.0668, 24690.54
131.5489, 24702.10
132.0310, 24715.53
132.5131, 24732.65
132.9952, 24750.12
133.4774, 24764.05
133.9595, 24774.59
134.4416, 24786.67
134.9237, 24806.19
135.4058, 24834.89
135.8879, 24861.12
136.3701, 24883.32
136.8522, 24902.51
137.3343, 24917.61
137.8164, 24928.79
138.2985, 24939.29
138.7806, 24954.50
139.2628, 24975.82
139.7449, 25000.49
140.2270, 25030.51
140.7091, 25062.05
141.1912, 25091.91
141.6733, 25118.45
142.1555, 25142.24
142.6376, 25165.03
143.1197, 25184.19
143.6018, 25204.67
144.0839, 25229.52
144.5660, 25255.50
145.0482, 25276.72
145.5303, 25288.88
146.0124, 25293.81
146.4945, 25306.53
146.9766, 25328.06
147.4587, 25354.01
147.9409, 25386.07
148.4230, 25422.42
148.9051, 25455.59
149.3872, 25480.56
149.8693, 25497.26
150.3514, 25511.90
150.8336, 25520.29
151.3157, 25529.38
151.7978, 25546.19
152.2799, 25571.75
152.7620, 25599.82
153.2441, 25626.97
153.7263, 25653.47
154.2084, 25680.10
154.6905, 25708.93
155.1726, 25737.61
155.6547, 25759.63
156.1368, 25769.55
156.6190, 25782.66
157.1011, 25810.92
157.5832, 25847.87
158.0653, 25881.26
158.5474, 25901.51
159.0295, 25909.71
159.5117, 25921.07
159.9938, 25939.50
160.4759, 25957.33
160.9580, 25971.63
161.4401, 25982.85
161.9222, 25992.81
162.4044, 26003.43
162.8865, 26015.44
163.3686, 26023.47
163.8507, 26022.49
164.3328, 26022.06
164.8149, 26025.35
165.2971, 26033.14
165.7792, 26045.45
166.2613, 26063.32
166.7434, 26091.32
167.2255, 26111.11
167.7076, 26117.56
168.1898, 26120.91
168.6719, 26128.29
169.1540, 26141.22
169.6361, 26156.45
170.1182, 26169.35
170.6003, 26178.47
171.0825, 26189.35
171.5646, 26201.44
172.0467, 26215.78
172.5288, 26235.79
173.0109, 26263.46
173.4930, 26291.17
173.9752, 26303.64
174.4573, 26299.19
174.9394, 26297.15
175.4215, 26305.55
175.9036, 26320.31
176.3857, 26331.98
176.8679, 26336.90
177.3500, 26339.26
177.8321, 26344.10
178.3142, 26351.22
178.7963, 26360.87
179.2784, 26374.78
179.7606, 26392.36
180.2427, 26408.13
180.7248, 26421.57
181.2069, 26431.48
181.6890, 26434.13
182.1711, 26428.88
182.6533, 26427.03
183.1354, 26443.56
183.6175, 26481.87
184.0996, 26512.03
184.5817, 26513.89
185.0638, 26513.67
185.5460, 26530.21
186.0281, 26566.97
186.5102, 26607.18
186.9923, 26622.95
187.4744, 26597.58
187.9565, 26592.78
188.4387, 26633.31
188.9208, 26683.83
189.4029, 26718.21
189.8850, 26728.85
190.3671, 26727.51
190.8492, 26737.73
191.3314, 26773.29
191.8135, 26797.44
192.2956, 26800.49
192.7777, 26796.28
193.2598, 26796.92
193.7419, 26807.14
194.2241, 26823.35
194.7062, 26836.88
195.1883, 26840.62
195.6704, 26850.22
196.1525, 26868.87
196.6346, 26892.60
197.1168, 26918.27
197.5989, 26944.77
198.0810, 26969.99
198.5631, 26987.10
199.0452, 26985.63
199.5273, 26990.37
200.0095, 27008.74
200.4916, 27035.33
200.9737, 27061.33
201.4558, 27082.77
201.9379, 27101.72
202.4200, 27125.51
202.9022, 27159.45
203.3843, 27188.37
203.8664, 27201.50
204.3485, 27204.78
204.8306, 27215.18
205.3127, 27242.15
205.7949, 27278.47
206.2770, 27308.21
206.7591, 27332.02
207.2412, 27349.42
207.7233, 27356.15
208.2054, 27354.19
208.6876, 27356.04
209.1697, 27368.99
209.6518, 27386.74
210.1339, 27398.79
210.6160, 27402.57
211.0981, 27406.83
211.5803, 27420.11
212.0624, 27442.43
212.5445, 27463.27
213.0266, 27476.36
213.5087, 27487.83
213.9908, 27504.30
214.4730, 27527.52
214.9551, 27551.42
215.4372, 27567.50
215.9193, 27574.03
216.4014, 27584.59
216.8836, 27609.25
217.3657, 27636.13
217.8478, 27655.69
218.3299, 27665.37
218.8120, 27674.23
219.2941, 27695.99
219.7763, 27735.25
220.2584, 27771.78
220.7405, 27805.97
221.2226, 27833.87
221.7047, 27849.21
222.1868, 27850.85
222.6690, 27848.06
223.1511, 27857.03
223.6332, 27886.59
224.1153, 27907.56
224.5974, 27909.60
225.0795, 27908.32
225.5617, 27915.53
226.0438, 27934.40
226.5259, 27959.12
227.0080, 27980.01
227.4901, 27996.68
227.9722, 28009.87
228.4544, 28017.13
228.9365, 28023.26
229.4186, 28033.35
229.9007, 28048.33
230.3828, 28063.55
230.8649, 28070.27
231.3471, 28059.03
231.8292, 28054.35
232.3113, 28057.35
232.7934, 28065.36
233.2755, 28077.42
233.7576, 28092.80
234.2398, 28109.52
234.7219, 28124.30
235.2040, 28137.26
235.6861, 28147.02
236.1682, 28149.42
236.6503, 28150.79
237.1325, 28158.15
237.6146, 28173.02
238.0967, 28189.69
238.5788, 28199.32
239.0609, 28197.40
239.5430, 28198.35
240.0252, 28204.98
240.5073, 28213.51
240.9894, 28219.21
241.4715, 28221.03
241.9536, 28223.27
242.4357, 28232.24
242.9179, 28249.59
243.4000, 28266.81
243.8821, 28285.29
244.3642, 28302.32
244.8463, 28313.52
245.3284, 28317.79
245.8106, 28321.24
246.2927, 28332.19
246.7748, 28351.09
247.2569, 28366.65
247.7390, 28373.42
248.2211, 28377.66
248.7033, 28388.10
249.1854, 28406.72
249.6675, 28425.97
250.1496, 28437.09
250.6317, 28441.43
251.1138, 28447.43
251.5960, 28457.96
252.0781, 28470.58
252.5602, 28482.64
253.0423, 28493.94
253.5244, 28504.22
254.0065, 28512.98
254.4887, 28520.50
254.9708, 28527.08
255.4529, 28530.17
255.9350, 28533.50
256.4171, 28541.60
256.8992, 28554.40
257.3813, 28572.97
257.8635, 28604.48
258.3456, 28641.96
258.8277, 28673.61
259.3098, 28692.05
259.7919, 28704.85
260.2740, 28722.85
260.7562, 28746.90
261.2383, 28771.79
261.7204, 28797.27
262.2025, 28820.98
262.6846, 28838.71
263.1667, 28845.13
263.6489, 28849.87
264.1310, 28870.12
264.6131, 28910.95
265.0952, 28945.11
265.5773, 28953.72
266.0594, 28952.12
266.5416, 28953.50
267.0237, 28961.31
267.5058, 28973.90
267.9879, 28989.98
268.4700, 29010.46
268.9521, 29031.20
269.4343, 29054.88
269.9164, 29076.44
270.3985, 29089.62
270.8806, 29092.26
271.3627, 29093.35
271.8448, 29105.55
272.3270, 29131.67
272.8091, 29154.04
273.2912, 29163.61
273.7733, 29170.76
274.2554, 29180.62
274.7375, 29194.23
275.2197, 29211.66
275.7018, 29233.63
276.1839, 29260.35
276.6660, 29288.78
277.1481, 29329.28
277.6302, 29362.93
278.1124, 29372.96
278.5945, 29361.65
279.0766, 29350.87
279.5587, 29365.79
280.0408, 29410.44
280.5229, 29445.78
281.0051, 29459.88
281.4872, 29473.11
281.9693, 29496.98
282.4514, 29528.61
282.9335, 29556.25
283.4156, 29567.44
283.8978, 29561.69
284.3799, 29562.81
284.8620, 29575.95
285.3441, 29591.24
285.8262, 29605.64
286.3083, 29619.34
286.7905, 29633.60
287.2726, 29649.82
287.7547, 29667.41
288.2368, 29680.54
288.7189, 29679.68
289.2010, 29685.92
289.6832, 29708.26
290.1653, 29740.31
290.6474, 29774.07
291.1295, 29806.12
291.6116, 29834.35
292.0938, 29848.46
292.5759, 29835.04
293.0580, 29826.51
293.5401, 29828.63
294.0222, 29838.90
294.5043, 29854.87
294.9865, 29875.58
295.4686, 29900.40
295.9507, 29928.44
296.4328, 29963.69
296.9149, 29994.84
297.3970, 30018.78
297.8792, 30039.59
298.3613, 30061.75
298.8434, 30086.37
299.3255, 30109.22
299.8076, 30121.91
300.2897, 30117.06
300.7719, 30118.60
301.2540, 30128.44
301.7361, 30143.12
302.2182, 30162.11
302.7003, 30184.44
303.1824, 30207.56
303.6646, 30229.11
304.1467, 30249.81
304.6288, 30265.59
305.1109, 30268.64
305.5930, 30273.87
306.0751, 30289.61
306.5573, 30314.57
307.0394, 30341.65
307.5215, 30364.46
308.0036, 30382.78
308.4857, 30401.58
308.9678, 30420.45
309.4500, 30440.25
309.9321, 30463.17
310.4142, 30487.26
310.8963, 30507.89
311.3784, 30521.11
311.8605, 30528.77
312.3427, 30545.45
312.8248, 30583.03
313.3069, 30616.44
313.7890, 30638.65
314.2711, 30655.01
314.7532, 30674.01
315.2354, 30700.06
315.7175, 30728.65
316.1996, 30746.02
316.6817, 30745.75
317.1638, 30743.87
317.6459, 30737.39
318.1281, 30732.97
318.6102, 30737.90
319.0923, 30754.06
319.5744, 30775.71
320.0565, 30792.04
320.5386, 30795.79
321.0208, 30811.47
321.5029, 30848.92
321.9850, 30889.63
322.4671, 30922.94
322.9492, 30947.27
323.4313, 30966.86
323.9135, 30986.91
324.3956, 31008.49
324.8777, 31024.13
325.3598, 31022.96
325.8419, 31025.67
326.3240, 31039.91
326.8062, 31065.01
327.2883, 31097.49
327.7704, 31136.63
328.2525, 31181.65
328.7346, 31219.18
329.2167, 31251.31
329.6989, 31272.70
330.1810, 31276.00
330.6631, 31269.63
331.1452, 31265.43
331.6273, 31269.84
332.1094, 31280.53
332.5916, 31289.82
333.0737, 31295.03
333.5558, 31303.97
334.0379, 31318.41
334.5200, 31336.38
335.0021, 31356.14
335.4843, 31377.13
335.9664, 31399.34
336.4485, 31422.24
336.9306, 31444.89
337.4127, 31470.90
337.8948, 31509.83
338.3770, 31544.85
338.8591, 31561.67
339.3412, 31561.45
339.8233, 31559.92
340.3055, 31575.29
340.7876, 31609.96
341.2697, 31636.10
341.7518, 31640.84
342.2339, 31649.32
342.7160, 31676.13
343.1982, 31714.86
343.6803, 31749.09
344.1624, 31765.84
344.6445, 31769.53
345.1266, 31783.87
345.6087, 31821.65
346.0909, 31848.92
346.5730, 31845.12
347.0551, 31829.51
347.5372, 31827.85
348.0193, 31852.60
348.5014, 31889.08
348.9836, 31910.28
349.4657, 31911.96
349.9478, 31912.30
350.4299, 31911.10
350.9120, 31913.38
351.3941, 31923.38
351.8763, 31941.84
352.3584, 31965.89
352.8405, 31994.35
353.3226, 32027.48
353.8047, 32058.43
354.2868, 32088.93
354.7690, 32113.66
355.2511, 32123.57
355.7332, 32123.15
356.2153, 32130.53
356.6974, 32165.75
357.1795, 32219.63
357.6617, 32254.09
358.1438, 32259.88
358.6259, 32264.16
359.1080, 32282.06
359.5901, 32308.54
360.0722, 32337.12
360.5544, 32369.32
361.0365, 32398.06
361.5186, 32409.97
362.0007, 32402.28
362.4828, 32399.05
362.9649, 32414.79
363.4471, 32437.43
363.9292, 32452.12
364.4113, 32455.37
364.8934, 32459.66
365.3755, 32477.43
365.8576, 32505.78
366.3398, 32528.20
366.8219, 32538.42
367.3040, 32545.41
367.7861, 32556.26
368.2682, 32570.98
368.7503, 32593.83
369.2325, 32637.06
369.7146, 32686.64
370.1967, 32716.67
370.6788, 32723.04
371.1609, 32722.21
371.6430, 32722.26
372.1252, 32724.97
372.6073, 32736.25
373.0894, 32768.50
373.5715, 32800.28
374.0536, 32812.44
374.5357, 32807.62
375.0179, 32801.04
375.5000, 32798.58
375.9821, 32800.37
376.4642, 32807.05
376.9463, 32821.20
377.4284, 32833.67
377.9106, 32839.54
378.3927, 32841.91
378.8748, 32845.55
379.3569, 32851.61
379.8390, 32860.65
380.3211, 32874.78
380.8033, 32895.62
381.2854, 32912.02
381.7675, 32919.36
382.2496, 32924.66
382.7317, 32932.55
383.2138, 32943.55
383.6960, 32956.82
384.1781, 32971.21
384.6602, 32986.96
385.1423, 33009.99
385.6244, 33049.98
386.1065, 33084.57
386.5887, 33100.79
387.0708, 33107.31
387.5529, 33119.74
388.0350, 33145.09
388.5171, 33177.56
388.9992, 33204.65
389.4814, 33224.02
389.9635, 33240.90
390.4456, 33249.03
390.9277, 33259.04
391.4098, 33284.16
391.8919, 33323.51
392.3741, 33361.39
392.8562, 33380.85
393.3383, 33379.53
393.8204, 33378.85
394.3025, 33378.47
394.7846, 33379.28
395.2668, 33378.36
395.7489, 33379.26
396.2310, 33389.83
396.7131, 33415.62
397.1952, 33450.60
397.6773, 33473.04
398.1595, 33470.61
398.6416, 33475.91
399.1237, 33500.69
399.6058, 33529.29
400.0879, 33547.28
400.5700, 33551.77
401.0522, 33551.85
401.5343, 33558.46
402.0164, 33572.53
402.4985, 33587.18
402.9806, 33602.32
403.4627, 33617.76
403.9449, 33634.32
404.4270, 33651.06
404.9091, 33665.66
405.3912, 33675.90
405.8733, 33683.25
406.3554, 33692.88
406.8376, 33706.46
407.3197, 33717.95
407.8018, 33724.23
408.2839, 33727.52
408.7660, 33729.51
409.2481, 33730.51
409.7303, 33731.18
410.2124, 33730.78
410.6945, 33729.75
411.1766, 33734.53
411.6587, 33750.94
412.1408, 33768.19
412.6230, 33775.25
413.1051, 33773.53
413.5872, 33772.48
414.0693, 33777.11
414.5514, 33784.55
415.0335, 33789.04
415.5157, 33789.71
415.9978, 33793.27
416.4799, 33804.18
416.9620, 33821.51
417.4441, 33841.46
417.9262, 33868.80
418.4084, 33892.11
418.8905, 33898.10
419.3726, 33894.74
419.8547, 33904.96
420.3368, 33938.89
420.8189, 33981.82
421.3011, 34009.27
421.7832, 34017.17
422.2653, 34028.42
422.7474, 34053.32
423.2295, 34077.46
423.7116, 34086.83
424.1938, 34081.71
424.6759, 34072.89
425.1580, 34067.81
425.6401, 34066.57
426.1222, 34070.95
426.6043, 34084.80
427.0865, 34098.54
427.5686, 34105.02
428.0507, 34111.20
428.5328, 34127.75
429.0149, 34158.58
429.4970, 34197.54
429.9792, 34235.26
430.4613, 34276.75
430.9434, 34305.16
431.4255, 34313.93
431.9076, 34317.98
432.3897, 34326.72
432.8719, 34338.92
433.3540, 34346.52
433.8361, 34341.36
434.3182, 34326.59
434.8003, 34325.23
435.2824, 34346.79
435.7646, 34368.21
436.2467, 34383.27
436.7288, 34395.61
437.2109, 34409.27
437.6930, 34425.54
438.1751, 34441.86
438.6573, 34455.48
439.1394, 34466.33
439.6215, 34474.13
440.1036, 34476.36
440.5857, 34477.98
441.0678, 34478.32
441.5500, 34479.77
442.0321, 34490.70
442.5142, 34524.30
442.9963, 34566.51
443.4784, 34592.20
443.9605, 34600.43
444.4427, 34598.39
444.9248, 34579.32
445.4069, 34557.41
445.8890, 34557.97
446.3711, 34588.99
446.8532, 34623.24
447.3354, 34650.30
447.8175, 34669.29
448.2996, 34674.07
448.7817, 34661.05
449.2638, 34648.27
449.7459, 34656.14
450.2281, 34686.25
450.7102, 34715.70
451.1923, 34749.18
451.6744, 34776.80
452.1565, 34788.93
452.6386, 34789.32
453.1208, 34790.46
453.6029, 34799.50
454.0850, 34811.24
454.5671, 34811.23
455.0492, 34778.73
455.5313, 34762.98
456.0135, 34773.10
456.4956, 34794.46
456.9777, 34819.70
457.4598, 34845.33
457.9419, 34866.04
458.4240, 34876.00
458.9062, 34875.09
459.3883, 34877.75
459.8704, 34891.59
460.3525, 34900.59
460.8346, 34892.25
461.3167, 34880.50
461.7989, 34886.41
462.2810, 34918.37
462.7631, 34957.07
463.2452, 34967.85
463.7273, 34942.99
464.2094, 34935.86
464.6916, 34970.05
465.1737, 35007.43
465.6558, 35022.87
466.1379, 35021.11
466.6200, 35023.12
467.1021, 35041.25
467.5843, 35069.92
468.0664, 35102.90
468.5485, 35143.04
469.0306, 35166.73
469.5127, 35153.21
469.9948, 35122.68
470.4770, 35108.15
470.9591, 35114.94
471.4412, 35122.80
471.9233, 35119.15
472.4054, 35110.63
472.8875, 35109.27
473.3697, 35117.42
473.8518, 35131.41
474.3339, 35150.54
474.8160, 35174.33
475.2981, 35187.98
475.7802, 35183.09
476.2624, 35176.96
476.7445, 35175.10
477.2266, 35177.56
477.7087, 35184.67
478.1908, 35196.54
478.6729, 35210.51
479.1551, 35221.18
479.6372, 35222.33
480.1193, 35234.98
480.6014, 35272.68
481.0835, 35308.04
481.5656, 35325.81
482.0478, 35327.86
482.5299, 35322.74
483.0120, 35315.42
483.4941, 35306.76
483.9762, 35299.98
484.4583, 35295.18
484.9405, 35292.75
485.4226, 35293.23
485.9047, 35295.92
486.3868, 35300.25
486.8689, 35306.25
487.3510, 35314.66
487.8332, 35327.29
488.3153, 35343.10
488.7974, 35357.27
489.2795, 35369.09
489.7616, 35380.32
490.2437, 35393.85
490.7259, 35406.85
491.2080, 35414.24
491.6901, 35412.63
492.1722, 35409.82
492.6543, 35410.90
493.1364, 35415.14
493.6186, 35421.49
494.1007, 35430.41
494.5828, 35437.90
495.0649, 35436.36
495.5470, 35424.12
496.0291, 35427.85
496.5113, 35471.20
496.9934, 35509.69
497.4755, 35510.91
497.9576, 35486.51
498.4397, 35466.77
498.9218, 35466.34
499.4040, 35478.16
499.8861, 35486.66
500.3682, 35489.56
500.8503, 35493.23
501.3324, 35495.57
501.8145, 35500.25
502.2967, 35513.71
502.7788, 35532.06
503.2609, 35542.17
503.7430, 35531.89
504.2251, 35509.94
504.7072, 35514.00
505.1894, 35561.38
505.6715, 35594.93
506.1536, 35584.51
506.6357, 35565.20
507.1178, 35568.08
507.5999, 35595.83
508.0821, 35620.07
508.5642, 35614.20
509.0463, 35588.97
509.5284, 35575.67
510.0105, 35577.30
510.4926, 35586.43
510.9748, 35602.77
511.4569, 35622.50
511.9390, 35636.23
512.4211, 35640.17
512.9032, 35643.76
513.3853, 35647.63
513.8674, 35655.06
514.3495, 35675.89
514.8317, 35712.28
515.3138, 35746.50
515.7959, 35760.16
516.2780, 35751.77
516.7601, 35741.78
517.2422, 35726.07
517.7244, 35713.38
518.2065, 35706.55
518.6886, 35704.66
519.1707, 35707.95
519.6528, 35716.15
520.1349, 35724.74
520.6171, 35725.43
521.0992, 35714.73
521.5813, 35711.48
522.0634, 35723.27
522.5455, 35735.82
523.0276, 35743.50
523.5098, 35748.40
523.9919, 35755.18
524.4740, 35766.54
524.9561, 35778.71
525.4382, 35782.96
525.9203, 35778.87
526.4025, 35787.76
526.8846, 35823.91
527.3667, 35861.62
527.8488, 35870.24
528.3309, 35855.05
528.8130, 35851.68
529.2952, 35883.23
529.7773, 35921.11
530.2594, 35937.01
530.7415, 35934.80
531.2236, 35935.67
531.7057, 35950.11
532.1879, 35969.49
532.6700, 35977.13
533.1521, 35968.13
533.6342, 35957.82
534.1163, 35937.49
534.5984, 35923.74
535.0806, 35934.43
535.5627, 35961.80
536.0448, 35981.48
536.5269, 35977.29
537.0090, 35959.34
537.4911, 35960.06
537.9733, 35992.56
538.4554, 36014.55
538.9375, 36007.80
539.4196, 36000.43
539.9017, 36012.41
540.3839, 36041.20
540.8660, 36069.10
541.3481, 36085.68
541.8302, 36093.38
542.3123, 36095.05
542.7944, 36089.58
543.2766, 36089.51
543.7587, 36103.81
544.2408, 36123.09
544.7229, 36132.68
545.2050, 36131.43
545.6871, 36132.65
546.1693, 36145.63
546.6514, 36160.48
547.1335, 36162.79
547.6156, 36154.25
548.0977, 36151.77
548.5798, 36166.51
549.0620, 36193.07
549.5441, 36213.50
550.0262, 36219.29
550.5083, 36229.39
550.9904, 36248.91
551.4725, 36268.48
551.9547, 36279.81
552.4368, 36283.86
552.9189, 36287.13
553.4010, 36293.50
553.8831, 36303.89
554.3652, 36325.08
554.8474, 36367.64
555.3295, 36394.53
555.8116, 36375.14
556.2937, 36351.67
556.7758, 36358.95
557.2579, 36396.98
557.7401, 36432.66
558.2222, 36441.85
558.7043, 36438.18
559.1864, 36448.30
559.6685, 36472.86
560.1506, 36489.09
560.6328, 36481.39
561.1149, 36462.51
561.5970, 36460.93
562.0791, 36479.06
562.5612, 36501.10
563.0433, 36529.87
563.5255, 36556.69
564.0076, 36574.11
564.4897, 36582.46
564.9718, 36585.52
565.4539, 36585.05
565.9360, 36583.52
566.4182, 36589.86
566.9003, 36612.15
567.3824, 36627.77
567.8645, 36629.76
568.3466, 36630.63
568.8287, 36639.29
569.3109, 36654.54
569.7930, 36669.46
570.2751, 36681.49
570.7572, 36688.93
571.2393, 36685.08
571.7214, 36668.58
572.2036, 36656.99
572.6857, 36654.32
573.1678, 36660.77
573.6499, 36678.07
574.1320, 36705.68
574.6141, 36733.77
575.0963, 36764.32
575.5784, 36790.26
576.0605, 36802.98
576.5426, 36805.33
577.0247, 36806.46
577.5068, 36810.07
577.9890, 36817.49
578.4711, 36831.70
578.9532, 36856.67
579.4353, 36878.90
579.9174, 36903.33
580.3995, 36920.82
580.8817, 36920.61
581.3638, 36911.25
581.8459, 36909.73
582.3280, 36924.66
582.8101, 36945.73
583.2922, 36954.09
583.7744, 36948.21
584.2565, 36950.63
584.7386, 36963.57
585.2207, 36986.57
585.7029, 37032.62
586.1850, 37088.05
586.6671, 37114.76
587.1492, 37080.58
587.6313, 37046.18
588.1135, 37063.18
588.5956, 37112.65
589.0777, 37150.70
589.5598, 37166.12
590.0419, 37172.02
590.5240, 37181.68
591.0062, 37195.36
591.4883, 37206.52
591.9704, 37218.95
592.4525, 37224.98
592.9346, 37215.79
593.4167, 37202.96
593.8989, 37199.57
594.3810, 37208.60
594.8631, 37224.20
595.3452, 37244.45
595.8273, 37267.86
596.3094, 37271.83
596.7916, 37240.93
597.2737, 37226.33
597.7558, 37275.19
598.2379, 37339.30
598.7200, 37363.23
599.2021, 37336.93
599.6843, 37311.45
600.1664, 37315.60
600.6485, 37334.33
601.1306, 37345.15
