##NAMES=Fluorcalciomicrolite
##RRUFFID=R050625
##IDEAL CHEMISTRY=(Ca,Na)_2_Ta^5+^_2_O_6_F
##LOCALITY=Urubu mine, Itinga, Minas Gerais, Brazil
##OWNER=RRUFF
##SOURCE=Gemological Center
##DESCRIPTION=Yellow fragment
##STATUS=The identification of this mineral has been confirmed by X-ray diffraction and chemical analysis
##URL=rruff.info/R050625
##MEASURED CHEMISTRY=(Ca_0.98_Na_0.92_)_∑=1.90_(Ta_1.88_Nb_0.11_Sn_0.01_)_∑=2_O_6_[F_0.86_(OH)_0.01_]_∑=0.87_
91.11523, 202.3327
91.59735, 200.8057
92.07947, 202.0959
92.56158, 205.3687
93.04370, 207.9985
93.52582, 207.7086
94.00793, 205.7725
94.49006, 205.0847
94.97218, 206.2172
95.45429, 208.0300
95.93641, 208.9025
96.41853, 208.8429
96.90064, 208.1983
97.38276, 206.3012
97.86488, 203.4344
98.34699, 202.7393
98.82911, 204.7250
99.31123, 209.1940
99.79334, 216.8136
100.2755, 228.7705
100.7576, 239.5307
101.2397, 243.4158
101.7218, 239.1521
102.2039, 234.0196
102.6861, 228.5194
103.1682, 222.6574
103.6503, 221.8533
104.1324, 228.5697
104.6145, 237.6103
105.0966, 242.5282
105.5788, 240.4775
106.0609, 239.1513
106.5430, 240.5938
107.0251, 245.5105
107.5072, 250.6971
107.9893, 255.5329
108.4715, 260.8299
108.9536, 267.9973
109.4357, 275.3278
109.9178, 286.1383
110.3999, 301.9648
110.8820, 326.0503
111.3642, 349.5664
111.8463, 369.8363
112.3284, 389.0994
112.8105, 413.6354
113.2926, 445.8484
113.7747, 482.8413
114.2569, 522.8098
114.7390, 564.1462
115.2211, 610.2681
115.7032, 661.2745
116.1853, 717.2986
116.6674, 778.7415
117.1496, 842.0990
117.6317, 913.5267
118.1138, 997.3962
118.5959, 1096.534
119.0780, 1207.815
119.5602, 1329.871
120.0423, 1463.659
120.5244, 1607.483
121.0065, 1762.731
121.4886, 1927.179
121.9707, 2098.638
122.4529, 2280.578
122.9350, 2464.652
123.4171, 2643.656
123.8992, 2817.183
124.3813, 2986.948
124.8634, 3159.273
125.3456, 3329.346
125.8277, 3486.884
126.3098, 3616.945
126.7919, 3732.855
127.2740, 3850.917
127.7561, 3971.210
128.2383, 4098.670
128.7204, 4237.113
129.2025, 4386.981
129.6846, 4550.604
130.1667, 4730.626
130.6488, 4923.976
131.1310, 5133.039
131.6131, 5359.265
132.0952, 5598.817
132.5773, 5846.333
133.0594, 6102.960
133.5415, 6364.370
134.0237, 6633.646
134.5058, 6911.150
134.9879, 7182.743
135.4700, 7449.997
135.9521, 7709.540
136.4343, 7959.245
136.9164, 8200.048
137.3985, 8430.255
137.8806, 8653.362
138.3627, 8872.637
138.8448, 9072.518
139.3270, 9253.912
139.8091, 9416.958
140.2912, 9554.003
140.7733, 9661.449
141.2554, 9751.483
141.7375, 9832.512
142.2197, 9900.345
142.7018, 9972.350
143.1839, 10051.11
143.6660, 10135.91
144.1481, 10232.69
144.6302, 10341.82
145.1124, 10462.01
145.5945, 10589.69
146.0766, 10727.20
146.5587, 10870.95
147.0408, 11019.88
147.5230, 11172.56
148.0051, 11330.78
148.4872, 11443.42
148.9693, 11494.00
149.4514, 11552.12
149.9335, 11626.65
150.4157, 11700.59
150.8978, 11768.06
151.3799, 11827.83
151.8620, 11887.75
152.3441, 11953.14
152.8262, 12019.11
153.3084, 12074.59
153.7905, 12122.67
154.2726, 12157.91
154.7547, 12178.38
155.2368, 12178.59
155.7189, 12172.52
156.2011, 12158.47
156.6832, 12138.80
157.1653, 12119.87
157.6474, 12104.58
158.1295, 12088.66
158.6116, 12070.41
159.0938, 12054.96
159.5759, 12029.30
160.0580, 11980.28
160.5401, 11915.78
161.0222, 11863.18
161.5044, 11842.71
161.9865, 11830.25
162.4686, 11809.27
162.9507, 11767.72
163.4328, 11725.98
163.9149, 11691.95
164.3971, 11664.26
164.8792, 11637.98
165.3613, 11606.00
165.8434, 11576.40
166.3255, 11556.53
166.8076, 11554.36
167.2898, 11557.82
167.7719, 11558.83
168.2540, 11558.30
168.7361, 11563.94
169.2182, 11581.11
169.7003, 11606.74
170.1825, 11637.16
170.6646, 11674.84
171.1467, 11714.11
171.6288, 11751.31
172.1109, 11786.08
172.5931, 11819.34
173.0752, 11851.22
173.5573, 11881.81
174.0394, 11911.49
174.5215, 11942.28
175.0036, 11970.88
175.4858, 11991.84
175.9679, 12005.13
176.4500, 12016.63
176.9321, 12034.14
177.4142, 12054.08
177.8963, 12068.04
178.3785, 12069.54
178.8606, 12064.04
179.3427, 12060.03
179.8248, 12057.87
180.3069, 12055.12
180.7890, 12047.29
181.2712, 12036.33
181.7533, 12028.54
182.2354, 12029.00
182.7175, 12034.42
183.1996, 12037.85
183.6818, 12038.93
184.1639, 12038.84
184.6460, 12038.53
185.1281, 12038.07
185.6102, 12037.97
186.0923, 12037.16
186.5745, 12036.81
187.0566, 12041.46
187.5387, 12052.26
188.0208, 12065.18
188.5029, 12074.78
188.9850, 12081.43
189.4672, 12089.09
189.9493, 12100.38
190.4314, 12114.70
190.9135, 12129.21
191.3956, 12143.76
191.8777, 12158.60
192.3599, 12173.95
192.8420, 12189.71
193.3241, 12207.80
193.8062, 12230.68
194.2883, 12257.78
194.7704, 12281.48
195.2526, 12300.89
195.7347, 12317.02
196.2168, 12332.18
196.6989, 12346.37
197.1810, 12357.04
197.6632, 12361.67
198.1453, 12360.18
198.6274, 12358.97
199.1095, 12358.96
199.5916, 12358.49
200.0737, 12355.46
200.5559, 12350.59
201.0380, 12339.69
201.5201, 12318.63
202.0022, 12286.52
202.4843, 12257.51
202.9664, 12233.70
203.4486, 12212.60
203.9307, 12188.28
204.4128, 12160.83
204.8949, 12131.46
205.3770, 12099.57
205.8591, 12064.21
206.3413, 12033.41
206.8234, 12008.95
207.3055, 11987.90
207.7876, 11965.22
208.2697, 11944.04
208.7519, 11911.46
209.2340, 11857.89
209.7161, 11779.24
210.1982, 11699.64
210.6803, 11621.40
211.1624, 11542.37
211.6446, 11454.86
212.1267, 11355.71
212.6088, 11257.88
213.0909, 11166.22
213.5730, 11079.60
214.0551, 11004.50
214.5373, 10941.95
215.0194, 10891.26
215.5015, 10848.65
215.9836, 10814.05
216.4657, 10787.73
216.9478, 10770.53
217.4300, 10765.44
217.9121, 10759.38
218.3942, 10750.88
218.8763, 10741.11
219.3584, 10733.64
219.8405, 10727.99
220.3227, 10724.93
220.8048, 10725.00
221.2869, 10728.88
221.7690, 10733.52
222.2511, 10739.31
222.7333, 10745.62
223.2154, 10750.15
223.6975, 10751.85
224.1796, 10754.03
224.6617, 10758.63
225.1438, 10767.08
225.6260, 10774.57
226.1081, 10779.07
226.5902, 10783.43
227.0723, 10796.23
227.5544, 10823.29
228.0365, 10850.18
228.5187, 10869.65
229.0008, 10877.47
229.4829, 10887.67
229.9650, 10899.71
230.4471, 10914.18
230.9292, 10933.31
231.4114, 10959.29
231.8935, 10986.29
232.3756, 11011.20
232.8577, 11032.70
233.3398, 11055.10
233.8220, 11076.86
234.3041, 11099.86
234.7862, 11128.60
235.2683, 11165.41
235.7504, 11204.39
236.2325, 11244.56
236.7147, 11287.86
237.1968, 11326.36
237.6789, 11358.35
238.1610, 11386.84
238.6431, 11418.25
239.1252, 11455.57
239.6074, 11492.51
240.0895, 11526.03
240.5716, 11552.39
241.0537, 11586.18
241.5358, 11631.72
242.0179, 11682.58
242.5001, 11725.85
242.9822, 11757.89
243.4643, 11787.73
243.9464, 11819.09
244.4285, 11854.53
244.9106, 11881.34
245.3928, 11894.94
245.8749, 11902.26
246.3570, 11916.02
246.8391, 11940.48
247.3212, 11963.69
247.8034, 11982.97
248.2855, 11999.81
248.7676, 12005.79
249.2497, 11996.20
249.7318, 11979.57
250.2139, 11969.39
250.6961, 11970.87
251.1782, 11969.98
251.6603, 11963.69
252.1424, 11952.52
252.6245, 11932.35
253.1066, 11896.74
253.5888, 11858.04
254.0709, 11832.57
254.5530, 11826.10
255.0351, 11821.08
255.5172, 11813.30
255.9993, 11802.50
256.4815, 11790.68
256.9636, 11777.23
257.4457, 11763.40
257.9278, 11749.48
258.4099, 11732.21
258.8921, 11722.45
259.3742, 11725.03
259.8563, 11740.21
260.3384, 11748.99
260.8205, 11747.21
261.3026, 11744.55
261.7848, 11750.90
262.2669, 11768.41
262.7490, 11788.74
263.2311, 11808.94
263.7132, 11829.59
264.1953, 11859.69
264.6775, 11901.80
265.1596, 11948.86
265.6417, 11995.50
266.1238, 12042.09
266.6059, 12085.56
267.0880, 12121.22
267.5702, 12152.39
268.0523, 12201.52
268.5344, 12275.82
269.0165, 12354.65
269.4986, 12421.33
269.9807, 12472.18
270.4629, 12529.85
270.9450, 12596.64
271.4271, 12672.76
271.9092, 12757.07
272.3913, 12850.52
272.8734, 12949.33
273.3556, 13052.02
273.8377, 13159.16
274.3198, 13265.21
274.8019, 13370.09
275.2840, 13474.30
275.7661, 13580.37
276.2483, 13687.78
276.7304, 13798.01
277.2125, 13911.38
277.6946, 14028.98
278.1768, 14140.42
278.6589, 14242.43
279.1410, 14341.75
279.6231, 14454.74
280.1052, 14585.19
280.5873, 14712.04
281.0695, 14821.69
281.5516, 14914.93
282.0337, 15009.64
282.5158, 15106.16
282.9979, 15204.52
283.4800, 15306.36
283.9622, 15411.88
284.4443, 15514.08
284.9264, 15609.94
285.4085, 15698.90
285.8906, 15783.40
286.3727, 15862.20
286.8549, 15940.16
287.3370, 16024.55
287.8191, 16114.92
288.3012, 16204.62
288.7833, 16290.78
289.2654, 16373.54
289.7476, 16456.13
290.2297, 16539.11
290.7118, 16618.38
291.1939, 16686.00
291.6760, 16744.06
292.1581, 16808.63
292.6403, 16888.40
293.1224, 16975.83
293.6045, 17056.05
294.0866, 17128.48
294.5687, 17196.46
295.0508, 17261.79
295.5330, 17324.90
296.0151, 17386.08
296.4972, 17446.85
296.9793, 17505.29
297.4614, 17555.52
297.9435, 17598.53
298.4257, 17638.87
298.9078, 17683.62
299.3899, 17727.67
299.8720, 17758.65
300.3541, 17773.54
300.8362, 17777.30
301.3184, 17774.54
301.8005, 17765.55
302.2826, 17751.66
302.7647, 17738.25
303.2469, 17718.96
303.7290, 17682.00
304.2111, 17623.93
304.6932, 17557.36
305.1753, 17504.36
305.6574, 17453.78
306.1396, 17381.35
306.6217, 17259.49
307.1038, 17116.60
307.5859, 16983.58
308.0680, 16862.52
308.5501, 16737.84
309.0323, 16598.07
309.5144, 16446.52
309.9965, 16289.19
310.4786, 16122.92
310.9607, 15953.98
311.4428, 15784.59
311.9250, 15615.82
312.4071, 15450.22
312.8892, 15294.50
313.3713, 15144.90
313.8534, 14996.16
314.3355, 14843.48
314.8177, 14695.85
315.2998, 14556.27
315.7819, 14425.56
316.2640, 14304.15
316.7461, 14191.19
317.2282, 14089.66
317.7104, 14001.01
318.1925, 13929.93
318.6746, 13865.19
319.1567, 13796.93
319.6388, 13730.96
320.1209, 13684.85
320.6031, 13668.02
321.0852, 13669.40
321.5673, 13683.34
322.0494, 13708.77
322.5315, 13747.65
323.0136, 13801.11
323.4958, 13868.32
323.9779, 13947.84
324.4600, 14043.17
324.9421, 14148.18
325.4242, 14258.06
325.9064, 14370.25
326.3885, 14500.92
326.8706, 14661.64
327.3527, 14837.14
327.8348, 15013.29
328.3170, 15175.07
328.7991, 15354.04
329.2812, 15556.81
329.7633, 15784.66
330.2454, 16014.21
330.7275, 16237.98
331.2097, 16466.30
331.6918, 16705.62
332.1739, 16957.08
332.6560, 17219.40
333.1381, 17492.16
333.6202, 17773.60
334.1024, 18045.93
334.5845, 18301.76
335.0666, 18554.35
335.5487, 18813.86
336.0308, 19087.79
336.5129, 19340.43
336.9951, 19574.15
337.4772, 19783.98
337.9593, 19971.27
338.4414, 20140.80
338.9235, 20277.31
339.4056, 20379.65
339.8878, 20448.55
340.3699, 20469.49
340.8520, 20442.19
341.3341, 20367.50
341.8162, 20240.97
342.2983, 20062.01
342.7805, 19848.04
343.2626, 19607.08
343.7447, 19335.11
344.2268, 19020.05
344.7089, 18655.21
345.1910, 18265.32
345.6732, 17873.03
346.1553, 17473.88
346.6374, 17076.79
347.1195, 16679.44
347.6016, 16283.29
348.0837, 15885.12
348.5659, 15482.67
349.0480, 15091.00
349.5301, 14726.98
350.0122, 14381.93
350.4944, 14046.34
350.9765, 13719.45
351.4586, 13403.90
351.9407, 13109.26
352.4228, 12833.37
352.9049, 12568.92
353.3871, 12306.34
353.8692, 12055.48
354.3513, 11831.30
354.8334, 11634.93
355.3155, 11453.94
355.7976, 11281.92
356.2798, 11116.29
356.7619, 10951.10
357.2440, 10776.95
357.7261, 10609.72
358.2082, 10463.14
358.6903, 10335.41
359.1725, 10214.82
359.6546, 10096.46
360.1367, 9981.283
360.6188, 9871.208
361.1009, 9768.387
361.5830, 9670.021
362.0652, 9574.931
362.5473, 9483.630
363.0294, 9397.328
363.5115, 9319.847
363.9936, 9244.713
364.4757, 9168.794
364.9579, 9089.156
365.4400, 9015.373
365.9221, 8949.824
366.4042, 8890.665
366.8863, 8835.533
367.3684, 8786.246
367.8506, 8739.011
368.3327, 8693.582
368.8148, 8650.448
369.2969, 8606.403
369.7790, 8556.903
370.2611, 8509.368
370.7433, 8468.691
371.2254, 8436.309
371.7075, 8409.245
372.1896, 8389.544
372.6717, 8375.036
373.1538, 8357.261
373.6360, 8334.884
374.1181, 8311.215
374.6002, 8287.073
375.0823, 8260.373
375.5645, 8240.304
376.0466, 8228.727
376.5287, 8221.935
377.0108, 8214.525
377.4929, 8206.893
377.9750, 8197.590
378.4572, 8185.534
378.9393, 8171.212
379.4214, 8159.298
379.9035, 8150.226
380.3856, 8142.440
380.8677, 8134.327
381.3499, 8126.000
381.8320, 8118.976
382.3141, 8113.243
382.7962, 8109.164
383.2783, 8109.484
383.7604, 8113.678
384.2426, 8114.551
384.7247, 8104.218
385.2068, 8087.231
385.6889, 8073.179
386.1710, 8062.961
386.6531, 8056.821
387.1353, 8058.214
387.6174, 8064.221
388.0995, 8067.253
388.5816, 8063.443
389.0637, 8055.281
389.5458, 8043.667
390.0280, 8028.796
390.5101, 8015.724
390.9922, 8007.377
391.4743, 8002.884
391.9564, 8001.569
392.4385, 8007.731
392.9207, 8011.542
393.4028, 8005.373
393.8849, 7992.315
394.3670, 7981.626
394.8491, 7976.977
395.3312, 7975.529
395.8134, 7975.976
396.2955, 7978.625
396.7776, 7981.654
397.2597, 7987.166
397.7418, 7992.072
398.2239, 7992.335
398.7061, 7982.372
399.1882, 7972.907
399.6703, 7967.805
400.1524, 7967.500
400.6346, 7962.097
401.1167, 7946.386
401.5988, 7930.216
402.0809, 7920.856
402.5630, 7924.795
403.0451, 7922.252
403.5273, 7908.716
404.0094, 7888.701
404.4915, 7875.700
404.9736, 7871.932
405.4557, 7869.439
405.9378, 7864.813
406.4200, 7857.833
406.9021, 7851.255
407.3842, 7845.944
407.8663, 7839.303
408.3484, 7827.587
408.8305, 7810.753
409.3127, 7792.661
409.7948, 7772.768
410.2769, 7753.539
410.7590, 7743.016
411.2411, 7741.328
411.7232, 7742.073
412.2054, 7741.918
412.6875, 7740.481
413.1696, 7736.057
413.6517, 7727.568
414.1338, 7718.559
414.6159, 7713.541
415.0981, 7711.329
415.5802, 7708.889
416.0623, 7703.728
416.5444, 7697.900
417.0265, 7693.909
417.5086, 7691.662
417.9908, 7688.922
418.4729, 7681.196
418.9550, 7673.380
419.4371, 7670.972
419.9192, 7679.076
420.4013, 7688.463
420.8835, 7696.381
421.3656, 7702.735
421.8477, 7707.298
422.3298, 7709.321
422.8119, 7710.176
423.2940, 7710.146
423.7762, 7708.511
424.2583, 7708.586
424.7404, 7711.717
425.2225, 7716.457
425.7047, 7721.124
426.1868, 7723.850
426.6689, 7729.059
427.1510, 7738.685
427.6331, 7752.153
428.1152, 7763.220
428.5974, 7771.668
429.0795, 7778.210
429.5616, 7783.526
430.0437, 7787.964
430.5258, 7789.040
431.0079, 7785.341
431.4901, 7779.703
431.9722, 7777.129
432.4543, 7777.743
432.9364, 7779.612
433.4185, 7781.607
433.9006, 7784.165
434.3828, 7790.508
434.8649, 7801.001
435.3470, 7810.961
435.8291, 7815.813
436.3112, 7816.725
436.7933, 7816.947
437.2755, 7816.675
437.7576, 7817.253
438.2397, 7821.340
438.7218, 7828.043
439.2039, 7834.150
439.6860, 7838.677
440.1682, 7841.358
440.6503, 7840.871
441.1324, 7836.953
441.6145, 7833.648
442.0966, 7833.537
442.5787, 7835.012
443.0609, 7836.353
443.5430, 7837.499
444.0251, 7837.563
444.5072, 7836.556
444.9893, 7834.144
445.4714, 7829.415
445.9536, 7818.602
446.4357, 7808.434
446.9178, 7803.415
447.3999, 7809.308
447.8820, 7805.391
448.3641, 7783.294
448.8463, 7756.153
449.3284, 7738.039
449.8105, 7734.767
450.2926, 7730.767
450.7747, 7723.847
451.2569, 7714.135
451.7390, 7702.360
452.2211, 7687.569
452.7032, 7672.430
453.1853, 7659.059
453.6674, 7647.460
454.1496, 7632.539
454.6317, 7613.287
455.1138, 7591.933
455.5959, 7570.222
456.0780, 7548.361
456.5602, 7531.861
457.0423, 7526.889
457.5244, 7525.893
458.0065, 7511.521
458.4886, 7485.067
458.9707, 7458.489
459.4529, 7442.049
459.9350, 7430.974
460.4171, 7418.330
460.8992, 7402.260
461.3813, 7386.994
461.8634, 7376.810
462.3456, 7369.464
462.8277, 7361.357
463.3098, 7347.104
463.7919, 7334.965
464.2740, 7330.103
464.7561, 7332.101
465.2383, 7334.334
465.7204, 7337.360
466.2025, 7338.052
466.6846, 7333.945
467.1667, 7318.704
467.6488, 7308.250
468.1310, 7304.593
468.6131, 7305.757
469.0952, 7308.978
469.5773, 7316.962
470.0594, 7322.465
470.5415, 7322.218
471.0237, 7316.634
471.5058, 7317.490
471.9879, 7326.996
472.4700, 7338.182
472.9521, 7345.671
473.4342, 7349.345
473.9164, 7352.829
474.3985, 7355.738
474.8806, 7360.270
475.3627, 7371.547
475.8448, 7388.910
476.3270, 7405.503
476.8091, 7417.235
477.2912, 7426.564
477.7733, 7436.691
478.2554, 7447.835
478.7375, 7463.401
479.2197, 7489.885
479.7018, 7521.122
480.1839, 7547.373
480.6660, 7564.067
481.1481, 7582.833
481.6302, 7611.278
482.1124, 7646.892
482.5945, 7685.432
483.0766, 7726.524
483.5587, 7769.294
484.0408, 7812.826
484.5229, 7856.972
485.0051, 7903.446
485.4872, 7949.612
485.9693, 8000.438
486.4514, 8058.291
486.9335, 8122.380
487.4156, 8195.078
487.8978, 8277.423
488.3799, 8367.622
488.8620, 8465.818
489.3441, 8572.762
489.8262, 8686.470
490.3083, 8805.577
490.7905, 8931.905
491.2726, 9072.981
491.7547, 9229.361
492.2368, 9402.469
492.7189, 9588.810
493.2010, 9790.933
493.6832, 10008.93
494.1653, 10244.47
494.6474, 10496.76
495.1295, 10764.72
495.6116, 11050.91
496.0938, 11366.58
496.5759, 11719.11
497.0580, 12100.71
497.5401, 12495.99
498.0222, 12909.71
498.5044, 13346.42
498.9865, 13811.43
499.4686, 14304.93
499.9507, 14830.71
500.4328, 15392.75
500.9149, 15971.22
501.3971, 16555.06
501.8792, 17158.44
502.3613, 17797.64
502.8434, 18489.01
503.3255, 19209.90
503.8076, 19955.20
504.2898, 20726.42
504.7719, 21535.15
505.2540, 22383.87
505.7361, 23262.03
506.2182, 24176.38
506.7003, 25125.44
507.1825, 26092.69
507.6646, 27080.90
508.1467, 28081.05
508.6288, 29092.44
509.1109, 30115.13
509.5930, 31116.50
510.0752, 32099.27
510.5573, 33044.85
511.0394, 33931.65
511.5215, 34755.89
512.0037, 35491.17
512.4858, 36147.43
512.9679, 36695.79
513.4500, 37096.89
513.9321, 37349.42
514.4142, 37462.29
514.8964, 37452.85
515.3785, 37300.81
515.8606, 36979.27
516.3427, 36437.05
516.8248, 35802.08
517.3069, 35108.37
517.7891, 34357.39
518.2712, 33548.70
518.7533, 32642.21
519.2354, 31725.67
519.7175, 30824.70
520.1996, 29936.13
520.6818, 29070.93
521.1639, 28219.33
521.6460, 27400.09
522.1281, 26631.91
522.6102, 25912.50
523.0923, 25237.15
523.5745, 24604.37
524.0566, 24013.98
524.5387, 23463.50
525.0208, 22950.43
525.5029, 22478.96
525.9850, 22051.91
526.4672, 21666.07
526.9493, 21309.27
527.4314, 20977.91
527.9135, 20669.70
528.3956, 20375.52
528.8777, 20098.25
529.3599, 19845.26
529.8420, 19614.88
530.3241, 19408.68
530.8062, 19232.88
531.2883, 19075.93
531.7704, 18928.88
532.2526, 18779.63
532.7347, 18648.43
533.2168, 18547.71
533.6989, 18469.09
534.1810, 18389.98
534.6631, 18301.65
535.1453, 18218.90
535.6274, 18145.13
536.1095, 18079.25
536.5916, 18031.83
537.0737, 18011.85
537.5558, 17995.70
538.0380, 17966.16
538.5201, 17920.19
539.0022, 17878.66
539.4843, 17842.87
539.9664, 17812.24
540.4485, 17788.38
540.9307, 17770.60
541.4128, 17753.47
541.8949, 17736.91
542.3770, 17718.17
542.8591, 17693.14
543.3412, 17661.87
543.8234, 17623.93
544.3055, 17577.03
544.7876, 17524.25
545.2697, 17468.75
545.7518, 17410.75
546.2339, 17350.33
546.7161, 17290.57
547.1982, 17227.39
547.6803, 17155.82
548.1624, 17074.72
548.6445, 16986.78
549.1266, 16892.05
549.6088, 16791.28
550.0909, 16686.12
550.5730, 16578.23
551.0551, 16463.72
551.5372, 16341.06
552.0193, 16211.04
552.5015, 16084.48
552.9836, 15961.31
553.4657, 15841.92
553.9478, 15729.43
554.4299, 15622.45
554.9120, 15505.12
555.3942, 15375.55
555.8763, 15245.21
556.3584, 15129.22
556.8405, 15022.94
557.3226, 14914.13
557.8047, 14794.32
558.2869, 14676.84
558.7690, 14578.43
559.2511, 14492.09
559.7332, 14401.28
560.2154, 14290.92
560.6975, 14181.02
561.1796, 14082.26
561.6617, 13995.57
562.1439, 13908.67
562.6260, 13815.69
563.1081, 13725.03
563.5902, 13639.67
564.0723, 13560.01
564.5544, 13484.68
565.0366, 13413.13
565.5187, 13345.38
566.0008, 13282.18
566.4829, 13222.73
566.9650, 13169.06
567.4471, 13124.02
567.9293, 13082.25
568.4114, 13029.12
568.8935, 12965.31
569.3756, 12904.78
569.8577, 12857.63
570.3398, 12818.21
570.8220, 12779.39
571.3041, 12740.44
571.7862, 12701.22
572.2683, 12660.01
572.7504, 12619.07
573.2325, 12580.04
573.7147, 12543.90
574.1968, 12509.18
574.6789, 12477.36
575.1610, 12446.30
575.6431, 12412.76
576.1252, 12373.24
576.6074, 12335.61
577.0895, 12301.20
577.5716, 12269.48
578.0537, 12237.42
578.5358, 12204.06
579.0179, 12172.65
579.5001, 12144.23
579.9822, 12118.59
580.4643, 12098.76
580.9464, 12085.91
581.4285, 12070.36
581.9106, 12039.90
582.3928, 11999.36
582.8749, 11965.63
583.3570, 11941.46
583.8391, 11920.55
584.3212, 11894.98
584.8033, 11868.51
585.2855, 11847.37
585.7676, 11836.11
586.2497, 11828.29
