##NAMES=Foitite
##RRUFFID=R050495
##IDEAL CHEMISTRY=[box](Fe^2+^_2_Al)Al_6_(Si_6_O_18_)(BO_3_)_3_(OH)_3_OH
##LOCALITY=Coahuila Mountain, California, USA
##OWNER=RRUFF
##SOURCE=California Institute of Technology
##DESCRIPTION=Bluish black prismatic fragment
##STATUS=The identification of this mineral has been confirmed by X-ray diffraction and chemical analysis
##URL=rruff.info/R050495
##MEASURED CHEMISTRY=([box]_0.54_Na_0.46_)_Σ=1_(Fe^2+^_1.75_Al_0.85_Mg_0.18_Li_0.14_Mn_0.08_)_Σ=3_Al_6.00_(BO_3_)_3_(Si_5.83_Al_0.17_)_Σ=6_O_18_(OH)_4_ ; B and Li not measured but estimated by charge balance
93.40265, 0.0000000E+00
93.88477, 8.958680
94.36688, 8.682501
94.84900, 8.713178
95.33112, 9.041089
95.81323, 9.620769
96.29535, 10.56598
96.77747, 11.77580
97.25958, 12.83463
97.74170, 13.66003
98.22382, 14.44940
98.70593, 15.58822
99.18805, 17.10067
99.67017, 18.70496
100.1523, 20.17075
100.6344, 21.48077
101.1165, 22.96035
101.5986, 24.68075
102.0807, 26.59488
102.5629, 28.40691
103.0450, 30.08938
103.5271, 31.76147
104.0092, 33.54078
104.4913, 35.55199
104.9734, 37.37742
105.4556, 38.92065
105.9377, 40.15096
106.4198, 41.49486
106.9019, 43.09119
107.3840, 44.69185
107.8661, 45.94259
108.3483, 46.50171
108.8304, 47.15818
109.3125, 48.08030
109.7946, 49.26371
110.2767, 50.74737
110.7588, 52.72158
111.2410, 54.98351
111.7231, 57.18611
112.2052, 59.03957
112.6873, 61.08685
113.1694, 63.55284
113.6515, 66.80184
114.1337, 69.95699
114.6158, 72.93675
115.0979, 75.73342
115.5800, 78.38489
116.0621, 80.79928
116.5442, 83.11630
117.0264, 85.38651
117.5085, 87.80163
117.9906, 90.04166
118.4727, 91.96242
118.9548, 93.59258
119.4369, 95.11703
119.9191, 96.55083
120.4012, 97.96258
120.8833, 99.40931
121.3654, 100.9298
121.8475, 102.4921
122.3296, 104.1134
122.8118, 105.7945
123.2939, 107.4148
123.7760, 108.8782
124.2581, 110.2214
124.7402, 111.5320
125.2223, 112.6522
125.7045, 113.8207
126.1866, 115.3419
126.6687, 117.2700
127.1508, 119.3344
127.6329, 121.3089
128.1150, 123.1959
128.5972, 125.0756
129.0793, 126.9087
129.5614, 128.7561
130.0435, 130.7719
130.5256, 133.0345
131.0077, 135.3169
131.4899, 137.2296
131.9720, 138.7970
132.4541, 140.2959
132.9362, 141.4303
133.4183, 142.0452
133.9004, 142.6433
134.3826, 143.1888
134.8647, 143.7220
135.3468, 144.3141
135.8289, 144.9674
136.3110, 145.6903
136.7931, 146.5249
137.2753, 147.4719
137.7574, 148.3841
138.2395, 149.2803
138.7216, 150.1224
139.2037, 150.7678
139.6858, 151.2507
140.1680, 151.4594
140.6501, 151.1833
141.1322, 150.2548
141.6143, 149.4677
142.0964, 148.9458
142.5785, 148.6789
143.0607, 148.8413
143.5428, 149.6146
144.0249, 150.6042
144.5070, 151.2984
144.9891, 151.5146
145.4712, 151.7950
145.9534, 152.3237
146.4355, 153.2154
146.9176, 153.9153
147.3997, 154.3934
147.8818, 154.2904
148.3639, 155.0442
148.8461, 155.5822
149.3282, 155.9158
149.8103, 155.4334
150.2924, 156.0047
150.7745, 156.1538
151.2566, 156.2855
151.7388, 157.0052
152.2209, 156.6414
152.7030, 157.3518
153.1851, 157.6334
153.6672, 158.1112
154.1493, 158.1641
154.6315, 158.3483
155.1136, 158.9575
155.5957, 159.3313
156.0778, 159.3353
156.5599, 159.3379
157.0420, 159.5195
157.5242, 159.6461
158.0063, 159.6615
158.4884, 159.6752
158.9705, 159.7107
159.4526, 159.7631
159.9347, 159.8027
160.4169, 159.7091
160.8990, 159.6572
161.3811, 159.7724
161.8632, 160.3580
162.3453, 160.8560
162.8274, 161.0185
163.3096, 160.8678
163.7917, 160.7345
164.2738, 160.7033
164.7559, 160.7717
165.2380, 160.9375
165.7201, 161.3284
166.2023, 161.7131
166.6844, 161.9739
167.1665, 162.1078
167.6486, 162.1933
168.1307, 162.2154
168.6128, 162.2285
169.0949, 162.3034
169.5771, 162.5059
170.0592, 162.7580
170.5413, 163.0045
171.0234, 163.2431
171.5055, 163.4875
171.9876, 163.7731
172.4698, 164.0699
172.9519, 164.3239
173.4340, 164.4772
173.9161, 164.5917
174.3982, 164.7125
174.8803, 164.8355
175.3625, 165.0175
175.8446, 165.3687
176.3267, 165.8243
176.8088, 166.2224
177.2909, 166.5021
177.7730, 166.6647
178.2552, 166.6547
178.7373, 166.4097
179.2194, 166.2093
179.7015, 166.3975
180.1836, 166.9027
180.6657, 167.4445
181.1479, 167.8276
181.6300, 168.1427
182.1121, 168.5882
182.5942, 169.2207
183.0763, 169.8973
183.5584, 170.4460
184.0406, 170.8791
184.5227, 171.2614
185.0048, 171.6132
185.4869, 171.9460
185.9690, 172.3251
186.4511, 172.7937
186.9333, 173.2471
187.4154, 173.4216
187.8975, 173.3391
188.3796, 173.3546
188.8617, 173.8878
189.3438, 174.7925
189.8260, 175.3139
190.3081, 175.2089
190.7902, 174.8270
191.2723, 174.8835
191.7544, 175.3848
192.2365, 176.1145
192.7187, 176.9551
193.2008, 177.9031
193.6829, 178.9674
194.1650, 180.2502
194.6471, 181.5948
195.1292, 182.4439
195.6114, 182.7438
196.0935, 183.0767
196.5756, 184.0205
197.0577, 185.5629
197.5398, 186.8949
198.0219, 187.8029
198.5041, 188.4214
198.9862, 189.1210
199.4683, 189.8618
199.9504, 190.8606
200.4325, 192.5068
200.9146, 194.8520
201.3968, 196.7887
201.8789, 198.0569
202.3610, 198.7342
202.8431, 199.1922
203.3252, 199.4359
203.8073, 199.4446
204.2895, 199.0067
204.7716, 197.9913
205.2537, 197.5471
205.7358, 198.0712
206.2179, 199.4024
206.7000, 200.3472
207.1822, 200.7593
207.6643, 201.1360
208.1464, 202.0002
208.6285, 203.4781
209.1106, 204.8438
209.5927, 205.8847
210.0749, 206.6439
210.5570, 207.6655
211.0391, 209.0081
211.5212, 210.4767
212.0033, 211.9139
212.4854, 213.3248
212.9676, 214.6656
213.4497, 215.8950
213.9318, 217.0242
214.4139, 218.2417
214.8960, 219.5929
215.3781, 220.9722
215.8603, 222.2982
216.3424, 223.5457
216.8245, 224.7594
217.3066, 225.8748
217.7887, 226.9023
218.2708, 228.3103
218.7529, 230.2469
219.2351, 232.3970
219.7172, 234.3689
220.1993, 236.0807
220.6814, 237.9083
221.1635, 239.9833
221.6456, 242.3292
222.1278, 244.4112
222.6099, 246.2431
223.0920, 247.8280
223.5741, 249.1107
224.0562, 250.0341
224.5383, 250.8303
225.0205, 251.5505
225.5026, 252.1894
225.9847, 252.7486
226.4668, 253.3098
226.9489, 253.6972
227.4310, 253.6496
227.9132, 252.8437
228.3953, 252.2957
228.8774, 252.2907
229.3595, 252.8521
229.8416, 253.2004
230.3237, 253.1502
230.8059, 253.0894
231.2880, 253.4492
231.7701, 254.5190
232.2522, 255.4400
232.7343, 256.0661
233.2164, 256.3997
233.6986, 256.4778
234.1807, 256.1539
234.6628, 255.7210
235.1449, 255.4727
235.6270, 255.4873
236.1091, 255.5423
236.5913, 255.6896
237.0734, 255.9373
237.5555, 255.7339
238.0376, 254.9133
238.5197, 253.8095
239.0018, 252.7760
239.4840, 252.0322
239.9661, 250.9264
240.4482, 249.2546
240.9303, 247.0226
241.4124, 244.8817
241.8945, 242.9240
242.3767, 240.9628
242.8588, 238.8261
243.3409, 236.3135
243.8230, 234.0059
244.3051, 232.0068
244.7872, 230.3091
245.2694, 228.7044
245.7515, 227.3589
246.2336, 225.9205
246.7157, 223.9737
247.1978, 220.8360
247.6799, 218.5896
248.1621, 217.8707
248.6442, 218.5313
249.1263, 218.5493
249.6084, 217.5904
250.0905, 216.4122
250.5726, 215.6255
251.0548, 215.5007
251.5369, 215.1805
252.0190, 214.4781
252.5011, 213.4462
252.9832, 212.6091
253.4653, 212.0015
253.9475, 211.5277
254.4296, 211.0932
254.9117, 210.5780
255.3938, 210.3997
255.8759, 210.7879
256.3580, 211.5848
256.8401, 211.8293
257.3223, 211.3318
257.8044, 210.5752
258.2865, 209.8681
258.7686, 209.2812
259.2507, 208.5628
259.7328, 207.5983
260.2150, 206.4989
260.6971, 205.7286
261.1792, 205.5821
261.6613, 205.2612
262.1434, 204.1648
262.6255, 201.9015
263.1077, 200.1183
263.5898, 199.0232
264.0719, 198.4660
264.5540, 198.0414
265.0361, 197.8884
265.5182, 197.5654
266.0004, 196.7552
266.4825, 195.2821
266.9646, 193.9899
267.4467, 192.9180
267.9288, 192.0428
268.4109, 191.4390
268.8931, 191.2656
269.3752, 190.9059
269.8573, 189.9372
270.3394, 188.1347
270.8215, 186.7825
271.3036, 185.9889
271.7858, 185.5719
272.2679, 185.2572
272.7500, 185.1192
273.2321, 184.8171
273.7142, 184.1329
274.1964, 183.0109
274.6785, 182.0295
275.1606, 181.1818
275.6427, 180.5031
276.1248, 180.1530
276.6069, 180.2346
277.0891, 180.1310
277.5712, 179.4787
278.0533, 178.2676
278.5354, 177.4711
279.0175, 177.2007
279.4996, 177.1055
279.9818, 176.6336
280.4639, 175.7330
280.9460, 174.9745
281.4281, 174.5753
281.9102, 174.5058
282.3923, 174.5042
282.8745, 174.5943
283.3566, 174.6703
283.8387, 174.6174
284.3208, 174.4335
284.8029, 174.1527
285.2850, 173.7244
285.7672, 173.2083
286.2493, 172.9136
286.7314, 172.8752
287.2135, 172.8595
287.6956, 172.5776
288.1777, 172.0538
288.6599, 171.6575
289.1420, 171.4728
289.6241, 171.4759
290.1062, 171.6889
290.5883, 172.1322
291.0704, 172.4917
291.5526, 172.3468
292.0347, 171.8178
292.5168, 171.6331
292.9989, 172.0499
293.4810, 172.7442
293.9631, 173.0887
294.4453, 173.0937
294.9274, 173.0308
295.4095, 173.1500
295.8916, 173.3628
296.3737, 173.3299
296.8558, 172.8768
297.3380, 172.4086
297.8201, 172.6028
298.3022, 173.3754
298.7843, 174.1774
299.2664, 174.7073
299.7485, 175.0344
300.2307, 175.2897
300.7128, 175.4959
301.1949, 175.6366
301.6770, 175.6497
302.1591, 175.5759
302.6412, 175.5430
303.1234, 175.7055
303.6055, 175.9223
304.0876, 175.9337
304.5697, 175.6922
305.0518, 175.5034
305.5339, 175.7176
306.0161, 176.1924
306.4982, 176.6268
306.9803, 176.7250
307.4624, 176.8048
307.9445, 177.3258
308.4266, 178.3014
308.9088, 179.0887
309.3909, 178.8892
309.8730, 178.2812
310.3551, 178.0972
310.8372, 179.1488
311.3193, 180.3596
311.8015, 180.8579
312.2836, 180.7236
312.7657, 180.6111
313.2478, 181.0842
313.7299, 181.6901
314.2120, 181.9727
314.6942, 181.5300
315.1763, 181.0572
315.6584, 181.0202
316.1405, 181.2932
316.6226, 181.3978
317.1047, 180.8983
317.5869, 180.2913
318.0690, 179.9820
318.5511, 180.3858
319.0332, 180.4721
319.5153, 179.4285
319.9974, 177.7713
320.4796, 176.6938
320.9617, 177.0020
321.4438, 177.6217
321.9259, 178.0482
322.4080, 178.1606
322.8901, 178.2614
323.3723, 178.4027
323.8544, 178.5772
324.3365, 178.7752
324.8186, 178.8992
325.3007, 179.1378
325.7828, 179.6801
326.2650, 180.6612
326.7471, 181.1945
327.2292, 180.6798
327.7113, 179.9141
328.1934, 179.6555
328.6755, 180.2289
329.1577, 181.0186
329.6398, 182.1272
330.1219, 183.5551
330.6040, 184.4420
331.0861, 184.2480
331.5682, 183.9282
332.0504, 184.1231
332.5325, 185.2529
333.0146, 186.2167
333.4967, 186.8811
333.9788, 187.3119
334.4609, 187.7891
334.9431, 188.2635
335.4252, 188.8589
335.9073, 189.6752
336.3894, 190.8888
336.8715, 191.8635
337.3536, 192.5224
337.8358, 192.9942
338.3179, 193.5192
338.8000, 194.0292
339.2821, 194.7814
339.7642, 195.9777
340.2463, 197.6748
340.7284, 199.1245
341.2105, 200.2600
341.6927, 201.2262
342.1748, 202.0760
342.6569, 202.7597
343.1390, 203.7789
343.6211, 205.3638
344.1032, 207.4285
344.5854, 209.3785
345.0675, 211.1693
345.5496, 212.9254
346.0317, 214.7143
346.5138, 216.5463
346.9959, 218.3719
347.4781, 220.1433
347.9602, 221.9620
348.4423, 224.1216
348.9244, 226.6142
349.4065, 229.1847
349.8886, 231.6855
350.3708, 234.1416
350.8529, 236.5092
351.3350, 238.7301
351.8171, 241.0183
352.2992, 243.7844
352.7813, 246.8696
353.2635, 249.7467
353.7456, 252.0387
354.2277, 254.0120
354.7098, 256.1620
355.1919, 258.5515
355.6740, 260.6533
356.1562, 261.7145
356.6383, 262.1644
357.1204, 262.7860
357.6025, 263.8774
358.0846, 265.2721
358.5667, 266.9115
359.0489, 268.7879
359.5310, 270.6927
360.0131, 272.5663
360.4952, 274.3897
360.9773, 276.0959
361.4594, 277.3448
361.9416, 278.9062
362.4237, 281.4745
362.9058, 284.7101
363.3879, 287.5361
363.8700, 289.4401
364.3521, 290.9156
364.8343, 292.2267
365.3164, 293.4650
365.7985, 294.4515
366.2806, 295.4178
366.7627, 296.0645
367.2448, 295.9036
367.7270, 294.5560
368.2091, 292.6942
368.6912, 290.3964
369.1733, 287.6056
369.6554, 284.8601
370.1375, 282.4671
370.6197, 279.9702
371.1018, 276.9302
371.5839, 272.8256
372.0660, 268.8734
372.5481, 265.2083
373.0302, 261.8366
373.5124, 258.7646
373.9945, 256.2858
374.4766, 253.7005
374.9587, 250.4326
375.4408, 245.9289
375.9229, 242.3356
376.4051, 239.9012
376.8872, 238.2781
377.3693, 236.7688
377.8514, 235.4301
378.3335, 233.9705
378.8156, 232.1096
379.2978, 229.8203
379.7799, 228.3987
380.2620, 228.0478
380.7441, 227.9660
381.2262, 227.0571
381.7083, 225.3575
382.1905, 223.8444
382.6726, 222.8594
383.1547, 222.2417
383.6368, 221.5828
384.1189, 220.8728
384.6010, 220.2158
385.0832, 219.7571
385.5653, 219.4180
386.0474, 218.9661
386.5295, 218.3402
387.0116, 217.6343
387.4937, 216.8671
387.9759, 216.0905
388.4580, 215.4817
388.9401, 215.2541
389.4222, 215.1963
389.9043, 215.0614
390.3864, 214.8237
390.8686, 214.5770
391.3507, 214.4019
391.8328, 214.2599
392.3149, 214.0964
392.7970, 213.7384
393.2791, 213.4861
393.7613, 213.6392
394.2434, 214.1318
394.7255, 214.4426
395.2076, 214.2613
395.6897, 213.8677
396.1718, 213.4460
396.6540, 212.9107
397.1361, 212.5395
397.6182, 212.5119
398.1003, 212.6934
398.5824, 212.7793
399.0645, 212.6579
399.5467, 212.4873
400.0288, 212.2986
400.5109, 212.0584
400.9930, 211.9242
401.4751, 212.1094
401.9572, 212.2758
402.4394, 212.0444
402.9215, 211.0020
403.4036, 210.2600
403.8857, 210.1411
404.3678, 210.5471
404.8499, 210.5166
405.3321, 209.8345
405.8142, 209.1224
406.2963, 208.8511
406.7784, 209.1501
407.2605, 209.1767
407.7426, 208.8613
408.2248, 208.2756
408.7069, 207.4505
409.1890, 206.3673
409.6711, 205.4249
410.1532, 204.8399
410.6353, 204.5518
411.1175, 204.2622
411.5996, 203.9787
412.0817, 203.6368
412.5638, 203.2021
413.0459, 202.6645
413.5280, 201.9357
414.0102, 200.8991
414.4923, 199.7818
414.9744, 198.8270
415.4565, 198.0413
415.9386, 197.4741
416.4207, 197.3484
416.9029, 197.3742
417.3850, 197.1750
417.8671, 196.6680
418.3492, 196.0939
418.8313, 195.5273
419.3134, 195.0217
419.7956, 194.6516
420.2777, 194.5867
420.7598, 194.5458
421.2419, 194.3026
421.7240, 193.8705
422.2061, 193.6239
422.6883, 193.8215
423.1704, 194.1613
423.6525, 194.4387
424.1346, 194.6969
424.6167, 194.7754
425.0988, 194.4941
425.5810, 194.0086
426.0631, 193.7066
426.5452, 193.4385
427.0273, 193.5305
427.5094, 194.2258
427.9915, 195.7476
428.4737, 196.7372
428.9558, 196.9558
429.4379, 196.8944
429.9200, 197.0625
430.4021, 197.5743
430.8842, 197.9668
431.3664, 198.0994
431.8485, 198.0712
432.3306, 198.3184
432.8127, 198.9072
433.2948, 199.4658
433.7769, 199.6677
434.2591, 199.5508
434.7412, 199.7449
435.2233, 200.3382
435.7054, 201.0495
436.1875, 201.5412
436.6696, 201.8260
437.1518, 202.0002
437.6339, 202.1125
438.1160, 202.1292
438.5981, 202.0066
439.0802, 201.7428
439.5623, 201.3204
440.0444, 200.7213
440.5266, 199.9617
441.0087, 199.0128
441.4908, 197.7766
441.9729, 196.5928
442.4550, 195.7074
442.9371, 195.0473
443.4193, 194.4646
443.9014, 193.8929
444.3835, 193.3936
444.8656, 193.0561
445.3477, 192.8922
445.8298, 192.6369
446.3120, 192.0908
446.7941, 191.4923
447.2762, 191.0325
447.7583, 190.9155
448.2404, 190.7134
448.7225, 190.2574
449.2047, 189.6792
449.6868, 189.4009
450.1689, 189.7162
450.6510, 189.9335
451.1331, 189.7507
451.6152, 189.0613
452.0974, 188.6472
452.5795, 188.6236
453.0616, 188.7107
453.5437, 188.6004
454.0258, 188.2667
454.5079, 187.8968
454.9901, 187.4497
455.4722, 187.0435
455.9543, 187.1461
456.4364, 187.7792
456.9185, 188.2831
457.4006, 188.0783
457.8828, 187.4041
458.3649, 187.1075
458.8470, 187.2969
459.3291, 187.5212
459.8112, 187.2015
460.2933, 186.5468
460.7755, 186.0322
461.2576, 185.8910
461.7397, 185.9097
462.2218, 185.9225
462.7039, 185.9332
463.1860, 185.9485
463.6682, 185.8871
464.1503, 185.8897
464.6324, 186.1455
465.1145, 186.8563
465.5966, 187.2673
466.0787, 186.7125
466.5609, 185.8366
467.0430, 185.4765
467.5251, 186.4436
468.0072, 187.2539
468.4893, 187.4706
468.9714, 187.1285
469.4536, 186.9406
469.9357, 186.9405
470.4178, 187.0543
470.8999, 187.2669
471.3820, 187.6653
471.8641, 187.9360
472.3463, 188.0710
472.8284, 188.0845
473.3105, 187.9477
473.7926, 187.6141
474.2747, 187.3972
474.7568, 187.3944
475.2390, 187.5802
475.7211, 187.9146
476.2032, 188.4129
476.6853, 188.8348
477.1674, 188.9880
477.6495, 188.9207
478.1317, 188.7298
478.6138, 188.3837
479.0959, 188.0932
479.5780, 188.0668
480.0601, 188.2769
480.5422, 188.6561
481.0244, 189.4209
481.5065, 190.1645
481.9886, 190.4336
482.4707, 190.3004
482.9528, 190.3543
483.4349, 191.2844
483.9171, 192.2619
484.3992, 192.6134
484.8813, 191.8836
485.3634, 191.2879
485.8455, 191.2222
486.3276, 191.4265
486.8098, 191.5141
487.2919, 191.1997
487.7740, 191.0418
488.2561, 191.1596
488.7382, 191.5402
489.2203, 192.0266
489.7025, 192.8107
490.1846, 193.3911
490.6667, 193.2964
491.1488, 192.2707
491.6309, 192.0080
492.1130, 192.8083
492.5952, 193.9721
493.0773, 194.4369
493.5594, 194.2093
494.0415, 193.9618
494.5236, 193.9373
495.0057, 194.0340
495.4879, 193.9885
495.9700, 193.8121
496.4521, 193.6590
496.9342, 193.6726
497.4163, 193.7701
497.8984, 193.8472
498.3806, 193.9057
498.8627, 193.8680
499.3448, 193.4079
499.8269, 192.8742
500.3090, 192.7843
500.7911, 193.9830
501.2733, 195.0276
501.7554, 195.1967
502.2375, 194.6216
502.7196, 194.1059
503.2017, 194.0130
503.6838, 193.8737
504.1660, 193.4138
504.6481, 192.3975
505.1302, 191.6645
505.6123, 191.3360
506.0944, 191.1988
506.5765, 191.0174
507.0587, 190.7353
507.5408, 190.5559
508.0229, 190.5137
508.5050, 190.5991
508.9871, 190.8791
509.4692, 191.4220
509.9514, 191.7033
510.4335, 191.2646
510.9156, 190.2590
511.3977, 189.6062
511.8798, 189.3546
512.3619, 189.1818
512.8441, 188.7090
513.3262, 188.0695
513.8083, 187.5667
514.2904, 187.3009
514.7725, 187.1658
515.2546, 187.0950
515.7368, 187.0776
516.2189, 187.0847
516.7010, 187.2094
517.1831, 187.2645
517.6652, 187.0540
518.1473, 186.5508
518.6295, 186.2303
519.1116, 186.4335
519.5937, 186.7365
520.0758, 186.8365
520.5579, 186.5125
521.0400, 186.2408
521.5222, 186.0520
522.0043, 185.9050
522.4864, 185.7303
522.9685, 185.5438
523.4506, 185.2883
523.9327, 184.8878
524.4149, 184.3935
524.8970, 184.2269
525.3791, 184.4297
525.8612, 184.7589
526.3433, 185.1002
526.8254, 185.4338
527.3076, 185.6158
527.7897, 185.6026
528.2718, 185.5617
528.7539, 185.7391
529.2360, 186.0376
529.7181, 186.2292
530.2003, 186.1802
530.6824, 186.0367
531.1645, 185.9007
531.6466, 185.7727
532.1287, 185.6477
532.6108, 185.3479
533.0930, 185.1876
533.5751, 185.4312
534.0572, 186.2051
534.5393, 186.8366
535.0214, 187.1970
535.5035, 187.3532
535.9857, 187.3475
536.4678, 186.9879
536.9499, 186.7929
537.4320, 186.9079
537.9141, 187.1603
538.3962, 187.1098
538.8784, 186.6643
539.3605, 186.1927
539.8426, 185.7926
540.3247, 185.4691
540.8068, 185.3266
541.2889, 185.3743
541.7711, 185.4951
542.2532, 185.5273
542.7353, 185.5540
543.2174, 185.9177
543.6995, 186.7528
544.1816, 187.5077
544.6638, 187.4965
545.1459, 187.0275
545.6280, 186.6629
546.1101, 186.8862
546.5922, 187.0466
547.0743, 186.5637
547.5565, 185.6451
548.0386, 185.0769
548.5207, 185.5357
549.0028, 186.0474
549.4849, 186.0482
549.9670, 185.2445
550.4492, 185.0297
550.9313, 185.9472
551.4134, 187.0174
551.8955, 187.4529
552.3776, 187.0021
552.8597, 186.6090
553.3419, 186.3918
553.8240, 186.2373
554.3061, 185.8493
554.7882, 185.2033
555.2703, 184.7324
555.7524, 184.6875
556.2346, 184.9057
556.7167, 184.9622
557.1988, 184.8682
557.6809, 184.7799
558.1630, 184.7791
558.6451, 184.8635
559.1273, 185.1139
559.6094, 185.5986
560.0915, 185.8555
560.5736, 185.2651
561.0557, 184.4066
561.5378, 183.9496
562.0200, 184.7049
562.5021, 185.1972
562.9842, 184.7589
563.4663, 183.7534
563.9484, 183.2578
564.4305, 183.7000
564.9127, 184.1906
565.3948, 184.4797
565.8769, 184.5625
566.3590, 184.7740
566.8411, 185.2402
567.3232, 185.5557
567.8054, 185.3506
568.2875, 184.6268
568.7696, 184.0024
569.2517, 183.4851
569.7338, 183.1923
570.2159, 183.4491
570.6981, 184.0790
571.1802, 184.4940
571.6623, 184.3789
572.1444, 184.1273
572.6265, 184.1590
573.1086, 184.4042
573.5908, 184.6397
574.0729, 184.7161
574.5550, 184.7840
575.0371, 184.9687
575.5192, 185.2832
576.0013, 185.4972
576.4835, 185.4418
576.9656, 185.3446
577.4477, 185.3591
577.9298, 185.6099
578.4119, 185.7291
578.8940, 185.6871
579.3762, 185.5339
579.8583, 185.2896
580.3404, 184.9004
580.8225, 184.6912
581.3046, 184.7528
581.7867, 185.0203
582.2689, 185.4241
582.7510, 185.9473
583.2331, 186.2970
583.7152, 186.2275
584.1973, 185.9170
584.6794, 185.5479
585.1616, 185.1411
