##NAMES=Foitite
##RRUFFID=R100088
##IDEAL CHEMISTRY=[box](Fe^2+^_2_Al)Al_6_(Si_6_O_18_)(BO_3_)_3_(OH)_3_OH
##LOCALITY=Oceanview mine, Chief Mountain, Pala District, San Diego County, California, USA
##OWNER=RRUFF
##SOURCE=Mark Mauthner
##DESCRIPTION=Elongated prismatic purple to black to green crystals
##STATUS=The identification of this mineral has been confirmed only by single crystal X-ray diffraction.
##URL=rruff.info/R100088
91.53320, 490.6980
92.01532, 502.1185
92.49744, 505.0741
92.97955, 502.8680
93.46167, 493.5890
93.94379, 481.5599
94.42590, 470.9360
94.90802, 460.4188
95.39014, 447.0047
95.87225, 430.0193
96.35437, 413.4161
96.83649, 398.5598
97.31860, 385.1982
97.80072, 373.1883
98.28284, 362.0900
98.76495, 351.5504
99.24707, 342.0046
99.72919, 335.6205
100.2113, 327.7968
100.6934, 315.5780
101.1755, 300.8299
101.6577, 287.5524
102.1398, 279.3228
102.6219, 277.2646
103.1040, 274.2658
103.5861, 269.0219
104.0682, 264.0541
104.5504, 260.6700
105.0325, 259.0752
105.5146, 258.6753
105.9967, 258.8757
106.4788, 260.4254
106.9609, 260.4096
107.4431, 258.0954
107.9252, 254.2675
108.4073, 249.9132
108.8894, 245.2900
109.3715, 240.3412
109.8536, 234.8170
110.3358, 228.4041
110.8179, 222.5310
111.3000, 217.8499
111.7821, 214.3327
112.2642, 211.7976
112.7463, 210.7338
113.2285, 210.3742
113.7106, 209.9696
114.1927, 209.3953
114.6748, 208.7758
115.1569, 208.2319
115.6390, 207.6605
116.1212, 207.4484
116.6033, 208.3661
117.0854, 209.4079
117.5675, 209.4235
118.0496, 207.7132
118.5317, 204.7476
119.0139, 202.8136
119.4960, 203.0532
119.9781, 203.2152
120.4602, 203.1770
120.9423, 202.7623
121.4244, 201.6568
121.9066, 199.5029
122.3887, 196.1460
122.8708, 193.9492
123.3529, 193.3662
123.8350, 193.2134
124.3171, 193.2353
124.7993, 193.2879
125.2814, 193.0166
125.7635, 191.9598
126.2456, 189.8713
126.7277, 188.2612
127.2098, 187.2066
127.6920, 186.6151
128.1741, 186.5134
128.6562, 186.9822
129.1383, 187.5814
129.6204, 187.9935
130.1025, 188.2648
130.5847, 187.7523
131.0668, 185.3985
131.5489, 181.8768
132.0310, 179.6163
132.5131, 179.6625
132.9952, 180.6175
133.4774, 181.5427
133.9595, 182.3902
134.4416, 182.4981
134.9237, 180.7642
135.4058, 176.7664
135.8879, 173.8398
136.3701, 173.4881
136.8522, 173.8666
137.3343, 174.2232
137.8164, 174.3291
138.2985, 174.0292
138.7806, 172.9610
139.2628, 170.4870
139.7449, 168.3869
140.2270, 166.7926
140.7091, 165.5883
141.1912, 164.6560
141.6733, 163.9466
142.1555, 163.5021
142.6376, 163.4899
143.1197, 164.8318
143.6018, 165.5911
144.0839, 165.2792
144.5660, 164.2775
145.0482, 163.0854
145.5303, 161.9118
146.0124, 160.8655
146.4945, 160.7629
146.9766, 162.4906
147.4587, 164.0683
147.9409, 164.4811
148.4230, 163.9256
148.9051, 163.3854
149.3872, 163.5502
149.8693, 164.3371
150.3514, 164.9652
150.8336, 165.1736
151.3157, 165.3723
151.7978, 166.1093
152.2799, 167.5071
152.7620, 168.6597
153.2441, 168.3139
153.7263, 167.2590
154.2084, 166.8709
154.6905, 168.3895
155.1726, 170.7744
155.6547, 171.5656
156.1368, 169.9469
156.6190, 168.1399
157.1011, 167.3029
157.5832, 167.1743
158.0653, 167.2732
158.5474, 167.4566
159.0295, 167.6879
159.5117, 167.4538
159.9938, 166.0945
160.4759, 164.8982
160.9580, 164.4531
161.4401, 164.5866
161.9222, 164.7864
162.4044, 164.5733
162.8865, 163.8514
163.3686, 163.2636
163.8507, 162.9648
164.3328, 162.6535
164.8149, 162.2307
165.2971, 161.6715
165.7792, 160.9823
166.2613, 160.1366
166.7434, 158.9988
167.2255, 158.1371
167.7076, 157.7314
168.1898, 157.4334
168.6719, 156.9296
169.1540, 156.1779
169.6361, 155.4760
170.1182, 155.2810
170.6003, 155.9038
171.0825, 156.2612
171.5646, 156.0923
172.0467, 155.7180
172.5288, 155.5424
173.0109, 155.7023
173.4930, 155.9417
173.9752, 155.7499
174.4573, 155.0501
174.9394, 154.5445
175.4215, 154.5363
175.9036, 154.8671
176.3857, 155.2624
176.8679, 155.8118
177.3500, 156.1137
177.8321, 155.5088
178.3142, 153.9044
178.7963, 152.4761
179.2784, 151.9619
179.7606, 152.2793
180.2427, 152.7973
180.7248, 153.3483
181.2069, 154.0798
181.6890, 155.3094
182.1711, 157.0962
182.6533, 158.6097
183.1354, 158.7215
183.6175, 157.1660
184.0996, 156.3190
184.5817, 157.6019
185.0638, 159.2441
185.5460, 160.1319
186.0281, 160.0434
186.5102, 159.7245
186.9923, 160.2987
187.4744, 162.2029
187.9565, 163.8499
188.4387, 165.1952
188.9208, 166.1668
189.4029, 166.4376
189.8850, 165.9705
190.3671, 165.3751
190.8492, 165.9101
191.3314, 168.7254
191.8135, 170.8130
192.2956, 171.3179
192.7777, 171.4311
193.2598, 172.3843
193.7419, 174.6300
194.2241, 177.4595
194.7062, 179.1607
195.1883, 178.1351
195.6704, 177.7647
196.1525, 178.1544
196.6346, 179.2244
197.1168, 181.0563
197.5989, 183.7186
198.0810, 186.8320
198.5631, 189.2746
199.0452, 190.3880
199.5273, 191.7515
200.0095, 193.7614
200.4916, 196.1576
200.9737, 198.5195
201.4558, 200.6602
201.9379, 202.6815
202.4200, 204.8866
202.9022, 206.9521
203.3843, 209.6124
203.8664, 213.6811
204.3485, 218.6335
204.8306, 222.9223
205.3127, 225.6917
205.7949, 227.6008
206.2770, 230.1164
206.7591, 233.3959
207.2412, 236.8810
207.7233, 240.1619
208.2054, 243.3272
208.6876, 246.8581
209.1697, 251.0552
209.6518, 255.6827
210.1339, 260.3387
210.6160, 265.0318
211.0981, 269.6277
211.5803, 273.6216
212.0624, 276.9985
212.5445, 281.4354
213.0266, 288.0062
213.5087, 295.6600
213.9908, 303.5238
214.4730, 311.4662
214.9551, 319.4416
215.4372, 327.2961
215.9193, 335.0583
216.4014, 342.7182
216.8836, 350.3203
217.3657, 357.8207
217.8478, 365.0085
218.3299, 371.7802
218.8120, 378.8728
219.2941, 387.6124
219.7763, 398.8470
220.2584, 408.8668
220.7405, 417.5187
221.2226, 424.5649
221.7047, 429.5525
222.1868, 432.3970
222.6690, 433.7238
223.1511, 434.6146
223.6332, 435.6308
224.1153, 434.7372
224.5974, 431.7899
225.0795, 427.2391
225.5617, 420.9244
226.0438, 412.9471
226.5259, 404.2359
227.0080, 396.4004
227.4901, 390.0361
227.9722, 383.5889
228.4544, 376.4760
228.9365, 369.5897
229.4186, 363.6388
229.9007, 358.8383
230.3828, 354.9886
230.8649, 351.8854
231.3471, 350.6198
231.8292, 348.2758
232.3113, 344.0868
232.7934, 339.3746
233.2755, 335.0880
233.7576, 331.5385
234.2398, 328.5249
234.7219, 325.7588
235.2040, 323.0792
235.6861, 321.0415
236.1682, 319.9008
236.6503, 319.2398
237.1325, 318.8400
237.6146, 318.6172
238.0967, 318.3239
238.5788, 317.5253
239.0609, 315.7420
239.5430, 314.6231
240.0252, 314.9303
240.5073, 315.5842
240.9894, 315.4016
241.4715, 314.1034
241.9536, 312.4741
242.4357, 311.6422
242.9179, 311.9182
243.4000, 311.5942
243.8821, 310.1041
244.3642, 308.1270
244.8463, 306.4187
245.3284, 305.1317
245.8106, 303.9182
246.2927, 302.3637
246.7748, 300.4599
247.2569, 298.4892
247.7390, 296.3154
248.2211, 294.1634
248.7033, 292.3930
249.1854, 291.1013
249.6675, 289.8270
250.1496, 288.0956
250.6317, 285.9478
251.1138, 283.6434
251.5960, 280.8744
252.0781, 278.1202
252.5602, 276.0034
253.0423, 274.6320
253.5244, 273.6642
254.0065, 273.3648
254.4887, 273.3484
254.9708, 272.3717
255.4529, 269.5214
255.9350, 265.7799
256.4171, 262.4628
256.8992, 259.6383
257.3813, 257.1044
257.8635, 254.7551
258.3456, 252.5938
258.8277, 250.6738
259.3098, 249.2525
259.7919, 247.9543
260.2740, 246.0508
260.7562, 243.3017
261.2383, 240.9844
261.7204, 240.6595
262.2025, 240.9996
262.6846, 240.2727
263.1667, 237.6002
263.6489, 234.1190
264.1310, 231.3228
264.6131, 229.2616
265.0952, 227.6704
265.5773, 226.9002
266.0594, 226.3721
266.5416, 225.5925
267.0237, 224.4699
267.5058, 222.9501
267.9879, 220.6114
268.4700, 217.0918
268.9521, 214.4768
269.4343, 214.7699
269.9164, 215.5958
270.3985, 215.0306
270.8806, 212.5394
271.3627, 209.3805
271.8448, 207.1513
272.3270, 206.0498
272.8091, 204.7901
273.2912, 202.8404
273.7733, 200.7754
274.2554, 199.0444
274.7375, 197.6924
275.2197, 196.2433
275.7018, 193.8882
276.1839, 190.3719
276.6660, 187.6674
277.1481, 186.9362
277.6302, 186.4849
278.1124, 185.5921
278.5945, 184.1718
279.0766, 182.4676
279.5587, 180.6004
280.0408, 178.5142
280.5229, 176.7457
281.0051, 176.1233
281.4872, 175.1270
281.9693, 172.6169
282.4514, 169.0136
282.9335, 165.7949
283.4156, 164.5459
283.8978, 165.3306
284.3799, 165.0276
284.8620, 162.6118
285.3441, 160.0521
285.8262, 157.8516
286.3083, 156.0340
286.7905, 154.5197
287.2726, 153.2688
287.7547, 152.2760
288.2368, 151.5432
288.7189, 151.3940
289.2010, 151.1247
289.6832, 150.6418
290.1653, 149.9079
290.6474, 148.8717
291.1295, 147.4986
291.6116, 145.8239
292.0938, 143.9008
292.5759, 140.8503
293.0580, 138.9244
293.5401, 139.3415
294.0222, 140.6989
294.5043, 141.3268
294.9865, 140.4547
295.4686, 138.8357
295.9507, 138.3816
296.4328, 140.0441
296.9149, 141.1964
297.3970, 141.3447
297.8792, 141.0249
298.3613, 140.5959
298.8434, 140.1931
299.3255, 139.8952
299.8076, 139.8397
300.2897, 140.0882
300.7719, 140.4604
301.2540, 140.9342
301.7361, 141.5134
302.2182, 142.3852
302.7003, 143.4814
303.1824, 144.3720
303.6646, 144.3665
304.1467, 142.9635
304.6288, 142.5102
305.1109, 143.9805
305.5930, 145.4887
306.0751, 146.1808
306.5573, 146.0751
307.0394, 145.5950
307.5215, 144.9572
308.0036, 144.0744
308.4857, 144.3264
308.9678, 147.2712
309.4500, 149.8626
309.9321, 150.9604
310.4142, 151.0341
310.8963, 151.1571
311.3784, 152.0679
311.8605, 153.6612
312.3427, 155.0902
312.8248, 156.4498
313.3069, 157.5103
313.7890, 157.9622
314.2711, 158.1804
314.7532, 158.7454
315.2354, 159.9670
315.7175, 161.4717
316.1996, 162.1396
316.6817, 161.4098
317.1638, 160.6771
317.6459, 160.2382
318.1281, 159.7964
318.6102, 158.9825
319.0923, 157.7093
319.5744, 156.3448
320.0565, 155.5786
320.5386, 155.8850
321.0208, 155.6831
321.5029, 154.6090
321.9850, 153.3210
322.4671, 152.0241
322.9492, 150.8503
323.4313, 150.0575
323.9135, 149.9920
324.3956, 150.8109
324.8777, 151.5707
325.3598, 152.4696
325.8419, 153.1268
326.3240, 153.1613
326.8062, 152.7925
327.2883, 152.5981
327.7704, 153.0455
328.2525, 154.1009
328.7346, 155.1721
329.2167, 156.4149
329.6989, 157.4922
330.1810, 158.3411
330.6631, 158.9762
331.1452, 159.3317
331.6273, 159.3198
332.1094, 159.1855
332.5916, 159.7457
333.0737, 161.5134
333.5558, 163.1219
334.0379, 164.1967
334.5200, 165.1031
335.0021, 166.3230
335.4843, 167.9943
335.9664, 169.5531
336.4485, 169.8326
336.9306, 168.0417
337.4127, 167.3556
337.8948, 169.0253
338.3770, 171.1099
338.8591, 172.4965
339.3412, 173.0972
339.8233, 173.4963
340.3055, 174.3005
340.7876, 175.5560
341.2697, 176.7202
341.7518, 177.8516
342.2339, 178.8074
342.7160, 179.3966
343.1982, 179.7609
343.6803, 180.1824
344.1624, 180.7017
344.6445, 181.4560
345.1266, 183.2856
345.6087, 187.1535
346.0909, 190.5249
346.5730, 192.6147
347.0551, 193.8092
347.5372, 194.4569
348.0193, 194.6115
348.5014, 194.6229
348.9836, 195.0407
349.4657, 195.7777
349.9478, 197.2225
350.4299, 200.1667
350.9120, 203.4428
351.3941, 206.1264
351.8763, 208.0524
352.3584, 209.9169
352.8405, 212.3591
353.3226, 215.3948
353.8047, 218.8257
354.2868, 223.0604
354.7690, 227.2427
355.2511, 230.5879
355.7332, 233.3276
356.2153, 236.4102
356.6974, 240.7232
357.1795, 245.9216
357.6617, 250.6105
358.1438, 254.4999
358.6259, 258.3962
359.1080, 262.6738
359.5901, 267.2430
360.0722, 271.9552
360.5544, 276.4525
361.0365, 281.4107
361.5186, 288.2576
362.0007, 297.2466
362.4828, 305.8415
362.9649, 312.2245
363.4471, 318.1764
363.9292, 325.7071
364.4113, 335.1374
364.8934, 345.7013
365.3755, 357.0556
365.8576, 369.1288
366.3398, 381.4315
366.8219, 393.6553
367.3040, 406.5228
367.7861, 421.3716
368.2682, 437.9606
368.7503, 453.6005
369.2325, 467.7599
369.7146, 480.2124
370.1967, 490.8190
370.6788, 499.7565
371.1609, 505.8896
371.6430, 507.9317
372.1252, 506.2646
372.6073, 502.1997
373.0894, 496.3539
373.5715, 487.7825
374.0536, 474.8411
374.5357, 458.1271
375.0179, 440.6286
375.5000, 423.6009
375.9821, 407.0864
376.4642, 390.8863
376.9463, 374.7396
377.4284, 359.5422
377.9106, 345.8070
378.3927, 333.2540
378.8748, 321.2769
379.3569, 309.6603
379.8390, 299.0599
380.3211, 290.4814
380.8033, 284.2930
381.2854, 278.2328
381.7675, 272.0977
382.2496, 266.1145
382.7317, 260.3287
383.2138, 254.7984
383.6960, 249.7691
384.1781, 245.4226
384.6602, 241.7504
385.1423, 238.3108
385.6244, 234.9660
386.1065, 231.9440
386.5887, 229.5102
387.0708, 227.4283
387.5529, 225.2548
388.0350, 222.7844
388.5171, 220.2323
388.9992, 218.0487
389.4814, 216.1306
389.9635, 214.8421
390.4456, 214.7287
390.9277, 214.8739
391.4098, 214.4168
391.8919, 213.3178
392.3741, 212.2485
392.8562, 211.9245
393.3383, 212.4382
393.8204, 213.0095
394.3025, 213.9022
394.7846, 214.5809
395.2668, 214.9508
395.7489, 214.9639
396.2310, 214.3543
396.7131, 212.8501
397.1952, 211.0407
397.6773, 211.0922
398.1595, 214.5530
398.6416, 217.3606
399.1237, 218.7098
399.6058, 219.4438
400.0879, 220.1858
400.5700, 221.1169
401.0522, 222.1854
401.5343, 223.3437
402.0164, 224.5834
402.4985, 225.9368
402.9806, 227.5621
403.4627, 229.1538
403.9449, 230.5988
404.4270, 231.9024
404.9091, 233.1052
405.3912, 234.2339
405.8733, 235.2797
406.3554, 236.3212
406.8376, 237.6582
407.3197, 238.2367
407.8018, 236.7471
408.2839, 234.7094
408.7660, 233.9138
409.2481, 235.0047
409.7303, 236.1067
410.2124, 235.1952
410.6945, 232.3862
411.1766, 229.4961
411.6587, 227.0077
412.1408, 224.3798
412.6230, 221.0511
413.1051, 217.1093
413.5872, 213.1607
414.0693, 209.3391
414.5514, 205.7073
415.0335, 202.6344
415.5157, 200.2301
415.9978, 197.3399
416.4799, 192.7813
416.9620, 187.2274
417.4441, 182.8113
417.9262, 180.2648
418.4084, 177.9871
418.8905, 174.9268
419.3726, 171.4353
419.8547, 168.4122
420.3368, 166.1533
420.8189, 164.5230
421.3011, 163.5149
421.7832, 163.4283
422.2653, 162.6685
422.7474, 160.3904
423.2295, 157.8281
423.7116, 156.0881
424.1938, 155.1985
424.6759, 154.4667
425.1580, 153.3596
425.6401, 151.9008
426.1222, 150.4868
426.6043, 148.7000
427.0865, 147.4287
427.5686, 147.4061
428.0507, 147.8674
428.5328, 147.6726
429.0149, 146.3956
429.4970, 144.6204
429.9792, 143.3581
430.4613, 142.7890
430.9434, 142.3611
431.4255, 142.4256
431.9076, 142.3045
432.3897, 141.3595
432.8719, 139.8240
433.3540, 138.5259
433.8361, 138.1641
434.3182, 138.5990
434.8003, 138.7947
435.2824, 138.4570
435.7646, 138.3401
436.2467, 139.0541
436.7288, 139.8582
437.2109, 139.8699
437.6930, 138.8068
438.1751, 137.3543
438.6573, 136.2880
439.1394, 135.6180
439.6215, 135.2346
440.1036, 135.2833
440.5857, 135.4530
441.0678, 135.4344
441.5500, 135.3266
442.0321, 135.5084
442.5142, 136.4272
442.9963, 137.6554
443.4784, 138.4722
443.9605, 138.8750
444.4427, 138.8697
444.9248, 138.2677
445.4069, 137.3309
445.8890, 136.5165
446.3711, 135.8297
446.8532, 135.2956
447.3354, 134.8713
447.8175, 134.6181
448.2996, 134.8622
448.7817, 135.7833
449.2638, 136.5047
449.7459, 135.9298
450.2281, 133.9571
450.7102, 132.3837
451.1923, 130.8755
451.6744, 130.1364
452.1565, 131.1735
452.6386, 133.4318
453.1208, 135.2836
453.6029, 135.8833
454.0850, 135.5545
454.5671, 135.1883
455.0492, 134.8049
455.5313, 134.3482
456.0135, 133.6601
456.4956, 133.0043
456.9777, 132.5668
457.4598, 132.3840
457.9419, 132.4260
458.4240, 132.7210
458.9062, 133.2770
459.3883, 133.4828
459.8704, 132.4770
460.3525, 132.1166
460.8346, 133.4253
461.3167, 135.3755
461.7989, 136.6023
462.2810, 136.5818
462.7631, 136.0158
463.2452, 136.1316
463.7273, 137.1681
464.2094, 137.4211
464.6916, 135.7053
465.1737, 134.0702
465.6558, 133.9015
466.1379, 134.8921
466.6200, 135.7674
467.1021, 135.6687
467.5843, 135.0792
468.0664, 135.0519
468.5485, 135.6870
469.0306, 136.1420
469.5127, 135.8741
469.9948, 135.2988
470.4770, 135.0639
470.9591, 135.2377
471.4412, 135.5802
471.9233, 136.0285
472.4054, 136.5524
472.8875, 137.2670
473.3697, 138.2334
473.8518, 138.7152
474.3339, 137.7705
474.8160, 135.4381
475.2981, 134.2578
475.7802, 135.2120
476.2624, 136.2525
476.7445, 136.3223
477.2266, 135.8480
477.7087, 135.6856
478.1908, 136.1754
478.6729, 137.0550
479.1551, 137.8764
479.6372, 138.7344
480.1193, 139.2861
480.6014, 138.9734
481.0835, 138.8948
481.5656, 140.0755
482.0478, 142.0516
482.5299, 143.4769
483.0120, 143.4022
483.4941, 142.2353
483.9762, 141.4631
484.4583, 141.0587
484.9405, 141.1383
485.4226, 142.0440
485.9047, 143.1829
486.3868, 144.1756
486.8689, 144.9459
487.3510, 145.4868
487.8332, 145.5352
488.3153, 145.2797
488.7974, 145.7825
489.2795, 147.4145
489.7616, 148.9805
490.2437, 149.7157
490.7259, 149.9184
491.2080, 149.9242
491.6901, 149.5418
492.1722, 149.4619
492.6543, 150.5088
493.1364, 152.2722
493.6186, 153.4913
494.1007, 153.7780
494.5828, 153.7918
495.0649, 154.3442
495.5470, 155.5121
496.0291, 156.2619
496.5113, 156.3399
496.9934, 156.2012
497.4755, 156.0338
497.9576, 155.8659
498.4397, 155.6755
498.9218, 155.4417
499.4040, 155.2883
499.8861, 155.5409
500.3682, 156.7763
500.8503, 157.3278
501.3324, 156.5982
501.8145, 155.7783
502.2967, 155.6748
502.7788, 156.1636
503.2609, 156.5749
503.7430, 156.3861
504.2251, 155.8302
504.7072, 155.8844
505.1894, 156.9101
505.6715, 157.7175
506.1536, 157.9736
506.6357, 157.9197
507.1178, 157.5221
507.5999, 156.8335
508.0821, 156.4845
508.5642, 157.3201
509.0463, 158.8466
509.5284, 159.5976
510.0105, 159.4222
510.4926, 158.7247
510.9748, 157.2216
511.4569, 155.5195
511.9390, 155.0771
512.4211, 156.6966
512.9032, 158.2542
513.3853, 158.8285
513.8674, 158.6142
514.3495, 157.7951
514.8317, 156.4088
515.3138, 154.8403
515.7959, 153.3844
516.2780, 152.0044
516.7601, 151.3888
517.2422, 152.3800
517.7244, 153.0602
518.2065, 152.5486
518.6886, 151.4026
519.1707, 150.5531
519.6528, 150.3083
520.1349, 150.0692
520.6171, 148.6394
521.0992, 145.3093
521.5813, 143.6958
522.0634, 145.6247
522.5455, 147.5321
523.0276, 148.2331
523.5098, 147.9700
523.9919, 147.2913
524.4740, 146.3799
524.9561, 145.3221
525.4382, 144.0912
525.9203, 142.6839
526.4025, 141.7073
526.8846, 141.3638
527.3667, 141.4343
527.8488, 141.8745
528.3309, 142.6022
528.8130, 143.0691
529.2952, 142.5993
529.7773, 142.1932
530.2594, 143.3161
530.7415, 145.5050
531.2236, 146.5120
531.7057, 145.1908
532.1879, 142.6060
532.6700, 140.7686
533.1521, 139.9522
533.6342, 139.3152
534.1163, 138.6025
534.5984, 138.2750
535.0806, 139.1943
535.5627, 140.8049
536.0448, 141.4553
536.5269, 140.0173
537.0090, 137.3697
537.4911, 136.3130
537.9733, 137.8320
538.4554, 138.7594
538.9375, 138.0975
539.4196, 137.2788
539.9017, 137.3958
540.3839, 138.2590
540.8660, 138.6991
541.3481, 137.4971
541.8302, 135.6273
542.3123, 135.6323
542.7944, 137.8032
543.2766, 139.2802
543.7587, 138.7640
544.2408, 137.0887
544.7229, 135.2576
545.2050, 133.1368
545.6871, 131.9543
546.1693, 132.9218
546.6514, 134.5551
547.1335, 135.2164
547.6156, 134.8910
548.0977, 134.4215
548.5798, 134.3127
549.0620, 134.4372
549.5441, 134.3669
550.0262, 133.9759
550.5083, 133.5408
550.9904, 132.6377
551.4725, 132.0107
551.9547, 132.5893
552.4368, 134.0739
552.9189, 135.1740
553.4010, 134.8251
553.8831, 133.4596
554.3652, 132.9459
554.8474, 133.8665
555.3295, 134.1733
555.8116, 132.4304
556.2937, 130.5176
556.7758, 129.8449
557.2579, 130.4592
557.7401, 131.3685
558.2222, 132.2435
558.7043, 132.9433
559.1864, 133.0920
559.6685, 132.6769
560.1506, 132.4501
560.6328, 132.9610
561.1149, 133.7062
561.5970, 133.4294
562.0791, 131.7219
562.5612, 130.5111
563.0433, 130.2915
563.5255, 130.5977
564.0076, 131.4394
564.4897, 132.5196
564.9718, 132.8980
565.4539, 131.8899
565.9360, 130.0183
566.4182, 129.0565
566.9003, 129.3442
567.3824, 129.9319
567.8645, 131.0954
568.3466, 132.2141
568.8287, 132.9454
569.3109, 133.2793
569.7930, 133.3037
570.2751, 133.0013
570.7572, 132.5039
571.2393, 132.0315
571.7214, 131.5689
572.2036, 131.3514
572.6857, 131.6427
573.1678, 132.0073
573.6499, 131.8194
574.1320, 131.0969
574.6141, 130.6579
575.0963, 131.0121
575.5784, 131.5123
576.0605, 131.6245
576.5426, 131.3944
577.0247, 130.9345
577.5068, 130.2388
577.9890, 129.7310
578.4711, 130.3358
578.9532, 133.0654
579.4353, 134.2846
579.9174, 133.0768
580.3995, 131.4805
580.8817, 129.9406
581.3638, 128.8361
581.8459, 128.9012
582.3280, 130.5906
582.8101, 132.7053
583.2922, 133.0647
583.7744, 131.5037
584.2565, 130.6774
584.7386, 131.5324
585.2207, 132.3129
585.7029, 131.3840
586.1850, 129.4257
586.6671, 128.1945
587.1492, 128.3643
