##NAMES=Foitite
##RRUFFID=R050495
##IDEAL CHEMISTRY=[box](Fe^2+^_2_Al)Al_6_(Si_6_O_18_)(BO_3_)_3_(OH)_3_OH
##LOCALITY=Coahuila Mountain, California, USA
##OWNER=RRUFF
##SOURCE=California Institute of Technology
##DESCRIPTION=Bluish black prismatic fragment
##STATUS=The identification of this mineral has been confirmed by X-ray diffraction and chemical analysis
##URL=rruff.info/R050495
##MEASURED CHEMISTRY=([box]_0.54_Na_0.46_)_Σ=1_(Fe^2+^_1.75_Al_0.85_Mg_0.18_Li_0.14_Mn_0.08_)_Σ=3_Al_6.00_(BO_3_)_3_(Si_5.83_Al_0.17_)_Σ=6_O_18_(OH)_4_ ; B and Li not measured but estimated by charge balance
93.56738, 201.6215
94.04950, 201.0813
94.53162, 202.1879
95.01373, 202.9886
95.49585, 204.4200
95.97797, 205.5148
96.46008, 204.9647
96.94220, 202.7487
97.42432, 200.8829
97.90643, 199.7806
98.38855, 198.8678
98.87067, 197.9160
99.35278, 196.8740
99.83490, 195.7744
100.3170, 194.6019
100.7991, 192.8657
101.2813, 191.1817
101.7634, 189.6729
102.2455, 188.2094
102.7276, 186.5140
103.2097, 184.3777
103.6918, 181.9839
104.1740, 180.5932
104.6561, 180.7102
105.1382, 180.9549
105.6203, 180.8281
106.1024, 180.3578
106.5845, 179.7894
107.0667, 179.2842
107.5488, 178.8020
108.0309, 178.1712
108.5130, 177.1033
108.9951, 175.9944
109.4772, 175.3315
109.9594, 175.2001
110.4415, 175.2669
110.9236, 175.3861
111.4057, 175.5153
111.8878, 175.5665
112.3699, 175.4415
112.8521, 175.1677
113.3342, 174.9688
113.8163, 174.8571
114.2984, 174.8201
114.7805, 174.9009
115.2626, 175.0638
115.7447, 175.2084
116.2269, 175.2390
116.7090, 175.1425
117.1911, 174.9619
117.6732, 174.5191
118.1553, 174.1306
118.6374, 173.9965
119.1196, 174.1450
119.6017, 174.4522
120.0838, 174.7261
120.5659, 175.0538
121.0480, 175.1765
121.5301, 174.8533
122.0123, 174.4147
122.4944, 174.2494
122.9765, 174.5242
123.4586, 175.0654
123.9407, 175.4044
124.4228, 175.4351
124.9050, 175.5219
125.3871, 175.9254
125.8692, 176.5187
126.3513, 176.8597
126.8334, 176.5909
127.3155, 176.0317
127.7977, 175.8572
128.2798, 176.2601
128.7619, 176.7694
129.2440, 176.9056
129.7261, 176.6025
130.2083, 176.3465
130.6904, 176.3971
131.1725, 176.6065
131.6546, 176.8673
132.1367, 177.1576
132.6188, 177.4553
133.1010, 177.7112
133.5831, 177.9344
134.0652, 178.0883
134.5473, 178.1218
135.0294, 178.0994
135.5115, 178.1051
135.9936, 178.1903
136.4758, 178.3523
136.9579, 178.5535
137.4400, 179.0923
137.9221, 179.3803
138.4042, 179.1022
138.8863, 178.4219
139.3685, 177.7096
139.8506, 177.2662
140.3327, 177.1026
140.8148, 177.2554
141.2969, 178.0561
141.7790, 178.8460
142.2612, 179.2353
142.7433, 179.2010
143.2254, 178.9849
143.7075, 178.8319
144.1896, 178.7576
144.6717, 178.6509
145.1539, 178.4037
145.6360, 178.1626
146.1181, 178.1606
146.6002, 178.4935
147.0823, 178.8466
147.5644, 178.7037
148.0466, 178.1371
148.5287, 177.7764
149.0108, 178.1199
149.4929, 178.9088
149.9750, 179.2492
150.4571, 178.7013
150.9393, 177.9949
151.4214, 177.7972
151.9035, 178.0778
152.3856, 178.3909
152.8677, 178.2642
153.3498, 177.6472
153.8320, 177.3822
154.3141, 178.1347
154.7962, 178.9251
155.2783, 179.2337
155.7604, 179.0024
156.2425, 178.5491
156.7247, 178.2957
157.2068, 178.3465
157.6889, 178.3438
158.1710, 178.1530
158.6531, 177.9789
159.1352, 178.0190
159.6174, 178.3150
160.0995, 178.7008
160.5816, 178.8355
161.0637, 178.4903
161.5458, 178.1743
162.0279, 177.7574
162.5101, 177.4252
162.9922, 177.4476
163.4743, 177.9501
163.9564, 178.7146
164.4385, 179.1056
164.9206, 179.0044
165.4028, 178.7236
165.8849, 178.0447
166.3670, 177.2336
166.8491, 176.8270
167.3312, 177.1661
167.8133, 177.9734
168.2955, 178.3759
168.7776, 178.1803
169.2597, 177.9314
169.7418, 177.8513
170.2239, 177.9298
170.7060, 178.1385
171.1882, 178.5994
171.6703, 179.1046
172.1524, 179.2479
172.6345, 178.8067
173.1166, 178.3029
173.5987, 178.2900
174.0809, 178.8288
174.5630, 179.2903
175.0451, 179.2494
175.5272, 179.0148
176.0093, 178.8574
176.4914, 178.8437
176.9736, 178.9514
177.4557, 179.2081
177.9378, 179.7648
178.4199, 180.0804
178.9020, 179.7165
179.3841, 179.1487
179.8663, 178.9043
180.3484, 179.2696
180.8305, 180.0071
181.3126, 180.3583
181.7947, 179.8884
182.2768, 179.6531
182.7590, 180.0201
183.2411, 180.6834
183.7232, 181.2628
184.2053, 181.5378
184.6874, 181.5582
185.1695, 181.6250
185.6517, 181.8377
186.1338, 181.9943
186.6159, 182.0080
187.0980, 181.9486
187.5801, 181.9155
188.0622, 181.9652
188.5444, 182.1024
189.0265, 182.4146
189.5086, 183.1377
189.9907, 183.7645
190.4728, 184.0569
190.9549, 184.1123
191.4371, 184.2027
191.9192, 184.5283
192.4013, 185.0681
192.8834, 185.4969
193.3655, 185.5139
193.8476, 185.7058
194.3298, 186.5808
194.8119, 188.0186
195.2940, 189.2797
195.7761, 189.7941
196.2582, 189.6462
196.7403, 189.7190
197.2225, 190.1697
197.7046, 190.7294
198.1867, 191.1639
198.6688, 191.4689
199.1509, 191.8401
199.6330, 192.4792
200.1152, 193.2746
200.5973, 193.9727
201.0794, 194.4616
201.5615, 194.8772
202.0436, 195.4061
202.5257, 196.0760
203.0079, 196.7195
203.4900, 197.1280
203.9721, 197.4702
204.4542, 197.9934
204.9363, 198.9013
205.4184, 199.9444
205.9006, 200.5702
206.3827, 200.5070
206.8648, 200.6578
207.3469, 201.5286
207.8290, 202.7738
208.3111, 203.9921
208.7933, 205.0044
209.2754, 205.8592
209.7575, 206.7034
210.2396, 207.5464
210.7217, 208.3575
211.2038, 209.1628
211.6860, 209.9280
212.1681, 210.5827
212.6502, 211.0565
213.1323, 211.4334
213.6144, 212.0870
214.0965, 213.2207
214.5787, 214.4127
215.0608, 215.6142
215.5429, 216.8157
216.0250, 218.0252
216.5071, 219.2638
216.9892, 220.4945
217.4713, 221.5335
217.9535, 222.1149
218.4356, 222.7741
218.9177, 223.6240
219.3998, 224.5930
219.8819, 225.6085
220.3640, 226.6496
220.8462, 227.6653
221.3283, 228.2935
221.8104, 228.1574
222.2925, 228.0791
222.7746, 228.2433
223.2567, 228.5804
223.7389, 228.9757
224.2210, 229.3807
224.7031, 229.7697
225.1852, 229.9779
225.6673, 229.7452
226.1494, 229.6588
226.6316, 230.1372
227.1137, 230.8943
227.5958, 231.2543
228.0779, 230.7855
228.5600, 229.7420
229.0421, 229.1409
229.5243, 229.0879
230.0064, 229.2351
230.4885, 229.6891
230.9706, 230.2793
231.4527, 230.4694
231.9348, 229.8846
232.4170, 228.8409
232.8991, 228.1695
233.3812, 227.9876
233.8633, 227.9105
234.3454, 227.8065
234.8275, 227.6634
235.3097, 227.4515
235.7918, 227.2356
236.2739, 226.8461
236.7560, 225.9861
237.2381, 224.4885
237.7202, 223.0384
238.2024, 222.1982
238.6845, 221.8677
239.1666, 221.3692
239.6487, 220.3972
240.1308, 219.2182
240.6129, 218.1560
241.0951, 217.2170
241.5772, 216.3697
242.0593, 215.6524
242.5414, 215.0494
243.0235, 214.3114
243.5056, 213.2244
243.9878, 212.1205
244.4699, 211.2954
244.9520, 210.7554
245.4341, 210.2980
245.9162, 209.7434
246.3983, 209.0927
246.8805, 208.5246
247.3626, 208.2677
247.8447, 207.9132
248.3268, 207.0661
248.8089, 205.7878
249.2910, 204.6115
249.7732, 204.1407
250.2553, 204.4121
250.7374, 204.3932
251.2195, 203.7361
251.7016, 203.0005
252.1837, 202.3982
252.6659, 201.9483
253.1480, 201.6073
253.6301, 201.3716
254.1122, 201.2486
254.5943, 201.1008
255.0764, 200.9870
255.5586, 200.7843
256.0407, 200.4008
256.5228, 199.8786
257.0049, 199.3382
257.4870, 198.8833
257.9691, 198.5165
258.4513, 198.1041
258.9334, 197.8222
259.4155, 197.3066
259.8976, 196.2362
260.3797, 194.8401
260.8618, 193.5888
261.3440, 192.8506
261.8261, 192.6029
262.3082, 192.2964
262.7903, 191.9544
263.2724, 191.5219
263.7545, 190.9793
264.2367, 190.3359
264.7188, 189.5728
265.2009, 188.6566
265.6830, 187.6326
266.1651, 186.9053
266.6472, 186.7003
267.1294, 186.5724
267.6115, 186.5956
268.0936, 186.6250
268.5757, 186.4347
269.0578, 185.8899
269.5399, 185.0874
270.0221, 184.4528
270.5042, 184.1642
270.9863, 183.8574
271.4684, 183.5451
271.9505, 183.1807
272.4326, 182.6668
272.9148, 181.9529
273.3969, 181.1542
273.8790, 180.5934
274.3611, 180.4621
274.8432, 180.3600
275.3253, 180.2769
275.8075, 180.2158
276.2896, 180.2025
276.7717, 180.2444
277.2538, 180.2826
277.7359, 180.2041
278.2180, 179.9165
278.7002, 179.6396
279.1823, 179.4362
279.6644, 179.2131
280.1465, 178.8161
280.6286, 178.2226
281.1107, 177.6403
281.5929, 177.3808
282.0750, 177.6381
282.5571, 177.7662
283.0392, 177.7584
283.5213, 177.6292
284.0034, 177.3535
284.4856, 176.9404
284.9677, 176.4734
285.4498, 176.0104
285.9319, 175.5207
286.4140, 175.3082
286.8961, 175.6492
287.3783, 176.0458
287.8604, 176.0908
288.3425, 175.8014
288.8246, 175.5302
289.3067, 175.5895
289.7888, 175.9933
290.2710, 176.3088
290.7531, 176.4414
291.2352, 176.5789
291.7173, 176.8542
292.1994, 177.2401
292.6815, 177.6031
293.1637, 177.8548
293.6458, 178.0085
294.1279, 178.1665
294.6100, 178.5621
295.0921, 178.7262
295.5742, 178.2098
296.0564, 177.2770
296.5385, 176.6560
297.0206, 176.7463
297.5027, 177.3301
297.9848, 177.7453
298.4669, 177.9307
298.9491, 178.0954
299.4312, 178.3930
299.9133, 178.7089
300.3954, 178.7600
300.8775, 178.3917
301.3596, 177.8889
301.8418, 177.8746
302.3239, 178.5250
302.8060, 178.9001
303.2881, 178.4468
303.7702, 177.6995
304.2523, 177.4370
304.7345, 177.8591
305.2166, 178.6192
305.6987, 179.4009
306.1808, 180.2397
306.6629, 180.6848
307.1451, 180.4240
307.6272, 179.8741
308.1093, 179.4336
308.5914, 179.1544
309.0735, 178.9624
309.5556, 178.8096
310.0378, 178.6967
310.5199, 178.5875
311.0020, 178.5248
311.4841, 178.4336
311.9662, 178.1734
312.4483, 177.7744
312.9305, 177.5535
313.4126, 177.8311
313.8947, 178.4329
314.3768, 178.5566
314.8589, 177.5954
315.3410, 176.8058
315.8232, 177.1257
316.3053, 178.2364
316.7874, 178.9682
317.2695, 178.6792
317.7516, 177.8134
318.2337, 177.4698
318.7159, 177.8021
319.1980, 178.1879
319.6801, 178.4362
320.1622, 178.5728
320.6443, 178.6297
321.1264, 178.5993
321.6086, 178.5452
322.0907, 178.5453
322.5728, 178.5767
323.0549, 178.7502
323.5370, 179.2246
324.0191, 179.8011
324.5013, 180.2341
324.9834, 180.4822
325.4655, 180.5989
325.9476, 180.6042
326.4297, 180.4978
326.9118, 180.4272
327.3940, 180.2207
327.8761, 180.1846
328.3582, 180.8016
328.8403, 182.0070
329.3224, 182.9471
329.8045, 182.8823
330.2867, 182.0070
330.7688, 181.7150
331.2509, 182.4116
331.7330, 183.2603
332.2151, 183.8240
332.6972, 184.1875
333.1794, 184.6617
333.6615, 185.4347
334.1436, 186.3545
334.6257, 187.0124
335.1078, 187.3832
335.5899, 187.6130
336.0721, 187.4343
336.5542, 187.2097
337.0363, 187.6765
337.5184, 189.1335
338.0005, 190.8799
338.4826, 191.8224
338.9648, 191.7428
339.4469, 191.8516
339.9290, 192.3477
340.4111, 193.0566
340.8932, 193.7864
341.3753, 194.5158
341.8574, 195.4066
342.3395, 196.6346
342.8217, 198.2473
343.3038, 199.8091
343.7859, 201.4080
344.2680, 202.8827
344.7501, 203.9584
345.2322, 204.7725
345.7144, 205.8891
346.1965, 207.7556
346.6786, 210.1679
347.1607, 211.8984
347.6428, 212.1968
348.1249, 212.8437
348.6071, 214.6667
349.0892, 217.0978
349.5713, 219.1519
350.0534, 220.4353
350.5355, 221.2835
351.0176, 222.3949
351.4998, 224.0083
351.9819, 225.4216
352.4640, 226.3777
352.9461, 227.2473
353.4282, 228.3920
353.9103, 229.8761
354.3925, 231.5237
354.8746, 233.1815
355.3567, 234.9086
355.8388, 236.2513
356.3209, 236.9853
356.8030, 237.5931
357.2852, 238.2392
357.7673, 238.9726
358.2494, 239.8705
358.7315, 241.0050
359.2136, 242.3430
359.6957, 243.4880
360.1779, 244.4924
360.6600, 245.2566
361.1421, 245.6590
361.6242, 245.8396
362.1063, 246.0120
362.5884, 246.2673
363.0706, 246.4933
363.5527, 246.4386
364.0348, 245.9576
364.5169, 245.3899
364.9990, 244.8246
365.4811, 244.1301
365.9633, 243.1494
366.4454, 241.8919
366.9275, 240.5386
367.4096, 239.2749
367.8917, 238.1092
368.3738, 237.0150
368.8560, 236.3307
369.3381, 235.3840
369.8202, 233.7455
370.3023, 231.6236
370.7844, 229.5030
371.2665, 227.6891
371.7487, 226.1463
372.2308, 224.6683
372.7129, 223.1257
373.1950, 221.8428
373.6771, 220.9762
374.1592, 220.3311
374.6414, 219.7617
375.1235, 219.2066
375.6056, 218.5877
376.0877, 217.7269
376.5698, 216.4549
377.0519, 215.4183
377.5341, 214.7852
378.0162, 214.2941
378.4983, 213.9339
378.9804, 213.6267
379.4625, 213.1308
379.9446, 212.0713
380.4268, 210.4779
380.9089, 209.4812
381.3910, 209.4685
381.8731, 209.6090
382.3552, 209.6728
382.8373, 209.6445
383.3195, 209.5015
383.8016, 209.2087
384.2837, 208.8388
384.7658, 208.5546
385.2479, 208.4024
385.7300, 208.1873
386.2122, 207.7235
386.6943, 207.2427
387.1764, 206.9885
387.6585, 207.0077
388.1406, 206.9926
388.6227, 206.5681
389.1049, 205.7738
389.5870, 205.2019
390.0691, 205.0674
390.5512, 205.0014
391.0333, 204.7516
391.5154, 204.3400
391.9976, 203.8412
392.4797, 203.1676
392.9618, 202.4656
393.4439, 201.9904
393.9260, 201.7460
394.4081, 201.7232
394.8903, 202.1905
395.3724, 202.7894
395.8545, 202.8722
396.3366, 202.1337
396.8187, 201.2970
397.3008, 201.0442
397.7830, 201.2033
398.2651, 200.9190
398.7472, 199.7426
399.2293, 198.3313
399.7114, 197.7489
400.1935, 198.0165
400.6757, 198.1200
401.1578, 197.5762
401.6399, 196.7979
402.1220, 196.3779
402.6041, 196.3824
403.0862, 196.3243
403.5684, 195.7716
404.0505, 194.7636
404.5326, 193.9346
405.0147, 193.3935
405.4968, 192.9199
405.9789, 192.4133
406.4611, 191.8911
406.9432, 191.4186
407.4253, 191.0293
407.9074, 190.6717
408.3895, 190.2324
408.8716, 189.7178
409.3538, 189.1039
409.8359, 188.2261
410.3180, 187.3453
410.8001, 186.7629
411.2822, 186.4867
411.7643, 186.2168
412.2465, 185.6195
412.7286, 184.6257
413.2107, 184.0561
413.6928, 184.4600
414.1749, 184.6340
414.6570, 183.9472
415.1392, 182.7807
415.6213, 181.8129
416.1034, 181.3915
416.5855, 181.3629
417.0676, 181.3418
417.5497, 181.4447
418.0319, 181.3364
418.5140, 180.8262
418.9961, 180.2502
419.4782, 179.8455
419.9603, 179.6447
420.4424, 179.5359
420.9246, 179.4179
421.4067, 179.2901
421.8888, 179.1676
422.3709, 179.0647
422.8530, 178.9509
423.3351, 178.8524
423.8173, 178.7297
424.2994, 178.5070
424.7815, 178.1323
425.2636, 177.6901
425.7457, 177.3152
426.2278, 176.9873
426.7100, 176.8107
427.1921, 176.9014
427.6742, 177.1017
428.1563, 177.3723
428.6384, 177.6943
429.1205, 177.8749
429.6027, 177.7374
430.0848, 177.3420
430.5669, 176.8511
431.0490, 176.1866
431.5311, 175.6579
432.0132, 175.5433
432.4954, 175.7217
432.9775, 176.0214
433.4596, 176.5551
433.9417, 177.0300
434.4238, 177.1579
434.9059, 176.9768
435.3881, 176.7050
435.8702, 176.4020
436.3523, 176.0813
436.8344, 175.7618
437.3165, 175.4412
437.7986, 175.1379
438.2808, 174.9179
438.7629, 174.6862
439.2450, 174.2793
439.7271, 173.6957
440.2092, 173.1756
440.6913, 172.9428
441.1735, 172.9788
441.6556, 172.8619
442.1377, 172.5037
442.6198, 172.1172
443.1019, 171.7939
443.5840, 171.4827
444.0662, 171.0775
444.5483, 170.5340
445.0304, 169.9570
445.5125, 169.5314
445.9946, 169.3700
446.4767, 169.1079
446.9589, 168.5721
447.4410, 168.0956
447.9231, 167.9016
448.4052, 167.9474
448.8873, 168.0626
449.3694, 168.1393
449.8516, 168.1652
450.3337, 168.0533
450.8158, 167.6818
451.2979, 167.3594
451.7800, 167.1521
452.2621, 167.0100
452.7443, 166.8902
453.2264, 166.7807
453.7085, 166.6943
454.1906, 166.7249
454.6727, 166.8851
455.1548, 166.6996
455.6370, 165.8228
456.1191, 164.9960
456.6012, 164.6299
457.0833, 164.6129
457.5654, 164.7160
458.0475, 164.9445
458.5297, 165.1345
459.0118, 165.0463
459.4939, 164.6774
459.9760, 164.1218
460.4581, 163.2140
460.9402, 162.3191
461.4224, 161.9666
461.9045, 162.2141
462.3866, 162.4634
462.8687, 162.4349
463.3508, 162.2722
463.8329, 162.2225
464.3151, 162.3166
464.7972, 162.3400
465.2793, 162.0924
465.7614, 161.6165
466.2435, 161.2958
466.7256, 161.2439
467.2078, 161.2078
467.6899, 161.0494
468.1720, 160.8590
468.6541, 160.8081
469.1362, 160.9528
469.6183, 161.1695
470.1005, 161.2914
470.5826, 161.3309
471.0647, 161.2110
471.5468, 160.7338
472.0289, 160.3087
472.5110, 160.1806
472.9932, 160.2687
473.4753, 160.3579
473.9574, 160.3201
474.4395, 160.1999
474.9216, 160.1592
475.4037, 160.3512
475.8859, 160.3041
476.3680, 159.7661
476.8501, 159.1367
477.3322, 158.6066
477.8143, 158.2400
478.2964, 158.1362
478.7786, 158.5311
479.2607, 159.3140
479.7428, 159.7269
480.2249, 159.6145
480.7070, 159.4677
481.1891, 159.6097
481.6713, 159.8261
482.1534, 159.8165
482.6355, 159.4599
483.1176, 159.0654
483.5997, 158.9192
484.0818, 158.9588
484.5640, 158.9252
485.0461, 158.7437
485.5282, 158.5365
486.0103, 158.3890
486.4924, 158.3084
486.9745, 158.3953
487.4567, 158.9702
487.9388, 159.4483
488.4209, 159.2620
488.9030, 158.6179
489.3851, 158.1553
489.8672, 158.1688
490.3494, 158.5113
490.8315, 158.9066
491.3136, 159.5296
491.7957, 159.8416
492.2778, 159.6024
492.7599, 159.2427
493.2421, 159.1171
493.7242, 159.1697
494.2063, 159.0680
494.6884, 158.5388
495.1705, 157.7007
495.6526, 157.1775
496.1348, 157.0759
496.6169, 157.1440
497.0990, 157.6058
497.5811, 158.0313
498.0632, 157.9805
498.5453, 157.4275
499.0275, 156.8029
499.5096, 156.4984
499.9917, 156.4888
500.4738, 156.5600
500.9559, 156.8230
501.4380, 156.9391
501.9202, 156.6539
502.4023, 156.1484
502.8844, 155.6362
503.3665, 155.1450
503.8486, 154.7159
504.3307, 154.4051
504.8129, 154.1886
505.2950, 153.9797
505.7771, 153.7531
506.2592, 153.5561
506.7413, 153.4201
507.2234, 153.3510
507.7055, 153.3982
508.1877, 153.7617
508.6698, 154.0543
509.1519, 154.0153
509.6340, 153.7344
510.1161, 153.4050
510.5982, 153.0991
511.0804, 152.8392
511.5625, 152.6753
512.0446, 152.7113
512.5267, 152.5702
513.0089, 151.9999
513.4910, 151.5097
513.9731, 151.4790
514.4552, 151.7473
514.9373, 151.8884
515.4194, 151.6392
515.9016, 151.1619
516.3837, 150.8912
516.8658, 150.9054
517.3479, 150.9142
517.8300, 150.9779
518.3121, 150.9355
518.7943, 150.6403
519.2764, 150.1218
519.7585, 149.5612
520.2406, 148.9461
520.7227, 148.4105
521.2048, 148.3190
521.6870, 148.7270
522.1691, 149.1482
522.6512, 149.4593
523.1333, 149.5860
523.6154, 149.4146
524.0975, 148.8859
524.5797, 148.3441
525.0618, 147.8972
525.5439, 147.5177
526.0260, 147.1399
526.5081, 146.7679
526.9902, 146.5387
527.4724, 146.5654
527.9545, 146.8105
528.4366, 147.0489
528.9187, 147.3896
529.4008, 147.5842
529.8829, 147.5560
530.3651, 147.3925
530.8472, 147.1250
531.3293, 146.7892
531.8114, 146.4917
532.2935, 146.3494
532.7756, 146.3518
533.2578, 146.2812
533.7399, 146.1398
534.2220, 145.9126
534.7041, 145.4395
535.1862, 144.9737
535.6683, 144.8565
536.1505, 145.1567
536.6326, 145.4407
537.1147, 145.2200
537.5968, 144.6198
538.0789, 144.2447
538.5610, 144.1849
539.0432, 144.2123
539.5253, 144.2901
540.0074, 144.3247
540.4895, 144.0889
540.9716, 143.4363
541.4537, 142.7393
541.9359, 142.0871
542.4180, 141.5526
542.9001, 141.3264
543.3822, 141.4431
543.8643, 141.6298
544.3464, 141.6252
544.8286, 141.4239
545.3107, 141.2096
545.7928, 140.8300
546.2749, 140.6183
546.7570, 140.8276
547.2391, 141.1734
547.7213, 141.2903
548.2034, 141.0894
548.6855, 140.7926
549.1676, 140.7167
549.6497, 140.8945
550.1318, 140.7045
550.6140, 139.7986
551.0961, 139.0145
551.5782, 138.6853
552.0603, 138.6406
552.5424, 138.6974
553.0245, 138.8243
553.5067, 138.9301
553.9888, 138.9004
554.4709, 138.7764
554.9530, 138.7619
555.4351, 138.9455
555.9172, 138.9873
556.3994, 138.4649
556.8815, 137.5381
557.3636, 137.0717
557.8457, 137.5308
558.3278, 137.9351
558.8099, 137.7689
559.2921, 137.3535
559.7742, 137.2048
560.2563, 137.4249
560.7384, 137.6723
561.2205, 137.5745
561.7026, 137.1149
562.1848, 136.7088
562.6669, 136.2507
563.1490, 135.9753
563.6311, 136.0482
564.1132, 136.2693
564.5953, 136.4679
565.0775, 136.5863
565.5596, 136.5691
566.0417, 136.2587
566.5238, 135.7019
567.0059, 135.4330
567.4880, 135.6092
567.9702, 135.7325
568.4523, 135.3934
568.9344, 134.8847
569.4165, 134.6332
569.8986, 134.7630
570.3807, 134.9022
570.8629, 134.6387
571.3450, 134.3124
571.8271, 134.7327
572.3092, 135.9724
572.7913, 136.9162
573.2734, 136.6490
573.7556, 135.3565
574.2377, 134.3661
574.7198, 133.5655
575.2019, 133.1887
575.6840, 133.6466
576.1661, 134.2956
576.6483, 134.4938
577.1304, 134.2227
577.6125, 133.9526
578.0946, 134.1173
578.5767, 134.6043
579.0588, 134.7657
579.5410, 134.4986
580.0231, 134.1410
580.5052, 133.6216
580.9873, 133.1600
581.4694, 132.9793
581.9515, 133.0824
582.4337, 133.2049
582.9158, 133.1949
583.3979, 133.1142
583.8800, 133.0840
584.3621, 133.1019
584.8442, 132.9981
585.3264, 132.6096
