##NAMES=Foitite
##RRUFFID=R100088
##IDEAL CHEMISTRY=[box](Fe^2+^_2_Al)Al_6_(Si_6_O_18_)(BO_3_)_3_(OH)_3_OH
##LOCALITY=Oceanview mine, Chief Mountain, Pala District, San Diego County, California, USA
##OWNER=RRUFF
##SOURCE=Mark Mauthner
##DESCRIPTION=Elongated prismatic purple to black to green crystals
##STATUS=The identification of this mineral has been confirmed only by single crystal X-ray diffraction.
##URL=rruff.info/R100088
90.01007, 0.0000000E+00
90.49219, 45.53106
90.97430, 46.33078
91.45642, 46.61669
91.93854, 45.89418
92.42065, 44.80177
92.90277, 44.37984
93.38489, 44.80245
93.86700, 45.38120
94.34912, 45.28579
94.83124, 44.59231
95.31335, 43.73187
95.79547, 42.55217
96.27759, 41.31009
96.75970, 41.21844
97.24182, 42.86076
97.72394, 45.22252
98.20605, 46.19408
98.68817, 45.71349
99.17029, 44.32208
99.65240, 41.78554
100.1345, 37.92062
100.6166, 35.68662
101.0988, 36.20137
101.5809, 39.02982
102.0630, 40.43966
102.5451, 40.14542
103.0272, 38.96497
103.5093, 37.57257
103.9915, 35.61572
104.4736, 34.41803
104.9557, 34.60006
105.4378, 36.54806
105.9199, 37.67228
106.4020, 37.60022
106.8842, 36.89360
107.3663, 36.56070
107.8484, 37.17183
108.3305, 37.49923
108.8126, 37.11665
109.2947, 35.73426
109.7769, 34.11879
110.2590, 31.78959
110.7411, 29.13540
111.2232, 27.42698
111.7053, 27.54537
112.1874, 28.00640
112.6696, 28.14560
113.1517, 27.43226
113.6338, 26.89792
114.1159, 26.53907
114.5980, 26.40156
115.0801, 26.81015
115.5623, 28.92970
116.0444, 31.10233
116.5265, 32.04306
117.0086, 30.04057
117.4907, 27.96564
117.9728, 26.91702
118.4550, 26.95344
118.9371, 27.26075
119.4192, 28.27484
119.9013, 29.17771
120.3834, 28.90652
120.8655, 25.32345
121.3477, 21.48496
121.8298, 19.74163
122.3119, 20.51086
122.7940, 22.00405
123.2761, 23.50314
123.7582, 24.82507
124.2404, 25.56232
124.7225, 25.04754
125.2046, 23.98016
125.6867, 23.21333
126.1688, 22.88711
126.6509, 22.82913
127.1331, 22.84675
127.6152, 22.96228
128.0973, 23.28635
128.5794, 24.16311
129.0615, 25.31253
129.5436, 25.99121
130.0258, 25.78512
130.5079, 25.31240
130.9900, 25.78225
131.4721, 27.18989
131.9542, 28.77042
132.4363, 30.06778
132.9185, 31.04801
133.4006, 31.38266
133.8827, 30.45992
134.3648, 28.91125
134.8469, 29.14003
135.3290, 31.37201
135.8112, 34.40345
136.2933, 36.95400
136.7754, 39.01789
137.2575, 40.88356
137.7396, 42.49629
138.2217, 43.84834
138.7039, 45.78014
139.1860, 48.41175
139.6681, 51.44188
140.1502, 54.27901
140.6323, 56.56733
141.1144, 59.76001
141.5966, 64.85937
142.0787, 72.59348
142.5608, 78.83093
143.0429, 83.31901
143.5250, 86.45193
144.0071, 88.78653
144.4893, 89.26273
144.9714, 90.63291
145.4535, 94.40730
145.9356, 102.7849
146.4177, 109.2054
146.8998, 112.9716
147.3820, 114.6595
147.8641, 116.7394
148.3462, 118.7537
148.8283, 121.5619
149.3104, 125.6852
149.7925, 131.9348
150.2747, 138.4284
150.7568, 144.9646
151.2389, 151.5577
151.7210, 158.4198
152.2031, 165.3048
152.6852, 172.5313
153.1674, 180.3782
153.6495, 191.2996
154.1316, 200.2125
154.6137, 205.7221
155.0958, 207.7560
155.5779, 209.9914
156.0601, 213.5084
156.5422, 217.1204
157.0243, 219.7697
157.5064, 220.1227
157.9885, 220.5618
158.4706, 221.6733
158.9528, 223.5060
159.4349, 225.9063
159.9170, 229.5831
160.3991, 233.5865
160.8812, 236.8185
161.3633, 237.7763
161.8455, 238.8465
162.3276, 241.3275
162.8097, 245.6465
163.2918, 249.6670
163.7739, 252.1846
164.2560, 253.6039
164.7382, 253.4205
165.2203, 253.1751
165.7024, 253.4794
166.1845, 254.4238
166.6666, 256.1285
167.1487, 258.0781
167.6309, 260.3667
168.1130, 262.7299
168.5951, 264.5633
169.0772, 265.1478
169.5593, 265.3522
170.0414, 265.9743
170.5236, 267.3546
171.0057, 268.6921
171.4878, 269.4333
171.9699, 269.6766
172.4520, 269.7010
172.9341, 269.6034
173.4163, 269.4023
173.8984, 269.0921
174.3805, 268.5822
174.8626, 268.1016
175.3447, 268.0318
175.8268, 268.2514
176.3090, 268.1971
176.7911, 267.0380
177.2732, 265.4308
177.7553, 264.4939
178.2374, 264.7765
178.7195, 265.5332
179.2017, 265.7637
179.6838, 265.5262
180.1659, 265.3634
180.6480, 266.0743
181.1301, 267.1878
181.6122, 267.5357
182.0944, 266.2420
182.5765, 264.4043
183.0586, 264.1793
183.5407, 265.5483
184.0228, 266.8629
184.5049, 266.0090
184.9871, 263.6895
185.4692, 262.5410
185.9513, 264.1215
186.4334, 267.1219
186.9155, 268.3990
187.3976, 267.8542
187.8798, 266.6933
188.3619, 266.0461
188.8440, 265.8439
189.3261, 265.6825
189.8082, 265.3173
190.2903, 264.8862
190.7725, 264.8815
191.2546, 265.3195
191.7367, 266.0925
192.2188, 267.4532
192.7009, 269.3475
193.1830, 270.4638
193.6652, 269.9956
194.1473, 268.2231
194.6294, 266.7054
195.1115, 265.2880
195.5936, 264.6122
196.0757, 265.9891
196.5579, 269.4962
197.0400, 272.7357
197.5221, 274.5493
198.0042, 275.0514
198.4863, 276.0909
198.9684, 277.7252
199.4506, 279.7687
199.9327, 282.0406
200.4148, 284.5947
200.8969, 286.9792
201.3790, 288.6899
201.8611, 289.6524
202.3433, 292.1124
202.8254, 296.5058
203.3075, 301.7047
203.7896, 305.4877
204.2717, 307.4977
204.7538, 309.9808
205.2360, 314.3159
205.7181, 320.8513
206.2002, 325.8239
206.6823, 328.7475
207.1644, 330.6940
207.6465, 333.4890
208.1287, 337.0531
208.6108, 341.6198
209.0929, 347.7720
209.5750, 356.1214
210.0571, 362.7323
210.5392, 367.0598
211.0214, 370.2081
211.5035, 374.4598
211.9856, 379.9846
212.4677, 386.0311
212.9498, 392.2687
213.4319, 398.5609
213.9140, 405.3972
214.3962, 412.8621
214.8783, 420.8529
215.3604, 429.1553
215.8425, 438.2250
216.3246, 446.7321
216.8067, 453.9017
217.2889, 458.9688
217.7710, 465.1383
218.2531, 472.9019
218.7352, 481.5337
219.2173, 489.6927
219.6994, 497.8798
220.1816, 504.6666
220.6637, 509.3224
221.1458, 511.0996
221.6279, 513.0703
222.1100, 516.0267
222.5921, 518.9388
223.0743, 518.9734
223.5564, 515.1307
224.0385, 510.1934
224.5206, 505.6724
225.0027, 502.2965
225.4848, 497.2044
225.9670, 489.9318
226.4491, 481.1276
226.9312, 472.1494
227.4133, 462.5802
227.8954, 453.5923
228.3775, 445.9338
228.8597, 439.7396
229.3418, 434.2764
229.8239, 429.9677
230.3060, 426.2361
230.7881, 421.5672
231.2702, 415.3342
231.7524, 408.9811
232.2345, 403.1116
232.7166, 397.3138
233.1987, 392.7937
233.6808, 390.1023
234.1629, 388.5588
234.6451, 386.2212
235.1272, 382.4322
235.6093, 378.8737
236.0914, 376.3817
236.5735, 375.6392
237.0556, 374.4025
237.5378, 372.3818
238.0199, 369.9675
238.5020, 368.1535
238.9841, 367.1391
239.4662, 366.4124
239.9483, 365.8012
240.4305, 365.4638
240.9126, 364.9051
241.3947, 364.2365
241.8768, 363.3053
242.3589, 361.6173
242.8410, 358.5015
243.3232, 355.6447
243.8053, 353.9059
244.2874, 354.0733
244.7695, 353.3971
245.2516, 351.5631
245.7337, 349.0076
246.2159, 346.7372
246.6980, 345.0657
247.1801, 343.1856
247.6622, 340.7108
248.1443, 337.3408
248.6264, 334.1830
249.1086, 331.1259
249.5907, 328.3157
250.0728, 326.0947
250.5549, 324.7096
251.0370, 323.4977
251.5191, 322.2361
252.0013, 320.9601
252.4834, 319.5406
252.9655, 317.9891
253.4476, 316.2931
253.9297, 314.4316
254.4118, 312.4058
254.8940, 310.2393
255.3761, 307.8996
255.8582, 305.2930
256.3403, 302.8283
256.8224, 300.4431
257.3046, 298.2476
257.7867, 296.5589
258.2688, 295.6868
258.7509, 294.6328
259.2330, 292.8521
259.7151, 290.0040
260.1973, 288.5651
260.6794, 289.2791
261.1615, 290.7131
261.6436, 290.6928
262.1257, 288.7039
262.6078, 286.4919
263.0900, 284.3783
263.5721, 282.2409
264.0542, 281.3832
264.5363, 282.4191
265.0184, 283.9815
265.5005, 284.3242
265.9827, 283.1747
266.4648, 281.5384
266.9469, 279.4202
267.4290, 276.7918
267.9111, 275.3505
268.3932, 275.6236
268.8754, 276.2803
269.3575, 275.6618
269.8396, 273.3258
270.3217, 271.3411
270.8038, 270.3577
271.2859, 270.2990
271.7681, 269.7689
272.2502, 268.6664
272.7323, 267.3084
273.2144, 266.0956
273.6965, 265.1054
274.1786, 263.8017
274.6608, 261.9448
275.1429, 259.6436
275.6250, 257.6310
276.1071, 255.9494
276.5892, 254.4421
277.0714, 253.1083
277.5535, 251.9919
278.0356, 250.5424
278.5177, 248.4335
278.9998, 245.9715
279.4819, 244.7123
279.9641, 244.9776
280.4462, 245.0641
280.9283, 243.2798
281.4104, 239.5639
281.8925, 236.4914
282.3746, 234.6018
282.8568, 233.4935
283.3389, 232.0344
283.8210, 230.1835
284.3031, 228.2854
284.7852, 226.5844
285.2673, 225.0799
285.7495, 223.4602
286.2316, 221.5261
286.7137, 219.6814
287.1958, 219.0426
287.6779, 219.6501
288.1600, 220.1216
288.6422, 219.5368
289.1243, 218.0007
289.6064, 216.3162
290.0885, 214.4849
290.5706, 212.6408
291.0527, 210.7406
291.5349, 208.8371
292.0170, 207.6830
292.4991, 208.4400
292.9812, 210.4085
293.4633, 210.7835
293.9454, 209.1722
294.4276, 207.0478
294.9097, 206.3861
295.3918, 206.9709
295.8739, 207.6943
296.3560, 208.1365
296.8381, 208.3201
297.3203, 208.1419
297.8024, 207.5471
298.2845, 207.0719
298.7666, 207.5285
299.2487, 208.6158
299.7308, 209.4204
300.2130, 209.0885
300.6951, 208.4241
301.1772, 208.9373
301.6593, 210.6211
302.1414, 212.3771
302.6235, 213.0936
303.1057, 213.1884
303.5878, 213.4825
304.0699, 214.3598
304.5520, 215.4935
305.0341, 216.6848
305.5162, 217.8885
305.9984, 218.7492
306.4805, 218.3758
306.9626, 217.6554
307.4447, 217.9444
307.9268, 220.3465
308.4089, 222.8810
308.8911, 223.3506
309.3732, 222.2752
309.8553, 221.8015
310.3374, 223.8360
310.8195, 226.7973
311.3016, 229.1356
311.7838, 230.5069
312.2659, 231.2504
312.7480, 230.7695
313.2301, 229.7414
313.7122, 229.8264
314.1943, 233.2166
314.6765, 237.0998
315.1586, 239.3563
315.6407, 239.2820
316.1228, 239.0074
316.6049, 239.5615
317.0870, 240.5735
317.5692, 241.4230
318.0513, 241.6544
318.5334, 241.8639
319.0155, 242.4100
319.4976, 243.3929
319.9797, 244.1940
320.4619, 244.3756
320.9440, 244.3456
321.4261, 244.5582
321.9082, 245.1620
322.3903, 245.9811
322.8724, 246.9508
323.3546, 248.0680
323.8367, 249.4257
324.3188, 251.4657
324.8009, 253.5360
325.2830, 255.1181
325.7651, 255.3098
326.2473, 255.9714
326.7294, 257.6288
327.2115, 260.1420
327.6936, 262.3696
328.1757, 264.3606
328.6578, 265.9501
329.1400, 267.0487
329.6221, 267.0697
330.1042, 267.3718
330.5863, 267.9625
331.0684, 268.8399
331.5505, 269.9907
332.0327, 271.5256
332.5148, 273.2065
332.9969, 275.0299
333.4790, 277.2048
333.9611, 278.8243
334.4432, 279.7264
334.9254, 280.1650
335.4075, 280.5175
335.8896, 280.6688
336.3717, 280.9671
336.8538, 281.4648
337.3359, 282.1449
337.8180, 283.3942
338.3001, 285.5092
338.7823, 287.7429
339.2644, 289.0307
339.7465, 289.0441
340.2286, 289.6657
340.7107, 291.7119
341.1928, 294.8353
341.6750, 296.1522
342.1571, 295.2743
342.6392, 294.1052
343.1213, 294.2097
343.6034, 295.5972
344.0855, 297.4019
344.5677, 299.6704
345.0498, 302.0595
345.5319, 303.5597
346.0140, 304.1441
346.4961, 304.6063
346.9782, 305.5454
347.4604, 306.8394
347.9425, 307.7672
348.4246, 308.1791
348.9067, 308.5088
349.3888, 309.3846
349.8709, 310.7505
350.3531, 312.2817
350.8352, 313.6203
351.3173, 315.0512
351.7994, 317.2110
352.2815, 320.1408
352.7636, 323.4709
353.2458, 326.8998
353.7279, 330.4618
354.2100, 334.2237
354.6921, 337.9438
355.1742, 342.0341
355.6563, 347.4125
356.1385, 353.9076
356.6206, 359.9885
357.1027, 363.6732
357.5848, 366.6808
358.0669, 371.1685
358.5490, 378.3666
359.0312, 386.1457
359.5133, 393.0482
359.9954, 399.4350
360.4775, 406.5160
360.9596, 415.6324
361.4417, 425.1281
361.9239, 433.7985
362.4060, 440.9840
362.8881, 448.7142
363.3702, 457.7706
363.8523, 467.8405
364.3344, 478.4462
364.8166, 488.8689
365.2987, 500.4242
365.7808, 513.6359
366.2629, 528.8127
366.7450, 544.1494
367.2271, 559.9116
367.7093, 575.4537
368.1914, 590.2090
368.6735, 604.2634
369.1556, 617.4965
369.6377, 630.1857
370.1198, 642.2492
370.6020, 651.8215
371.0841, 659.6893
371.5662, 664.3541
372.0483, 664.9564
372.5304, 660.9451
373.0125, 653.8720
373.4947, 643.4515
373.9768, 630.1876
374.4589, 614.8506
374.9410, 596.7332
375.4231, 577.8788
375.9052, 558.4789
376.3874, 538.1383
376.8695, 520.0454
377.3516, 504.5079
377.8337, 490.3959
378.3158, 475.5674
378.7979, 459.6795
379.2801, 445.3247
379.7622, 433.2946
380.2443, 423.2869
380.7264, 413.4702
381.2085, 403.8669
381.6906, 394.6233
382.1728, 385.7247
382.6549, 377.1773
383.1370, 369.5883
383.6191, 363.0261
384.1012, 357.3783
384.5833, 352.5269
385.0655, 348.4088
385.5476, 344.5730
386.0297, 340.6685
386.5118, 336.8317
386.9939, 333.3077
387.4760, 330.1867
387.9582, 327.0428
388.4403, 322.9550
388.9224, 318.5223
389.4045, 315.0077
389.8866, 313.4936
390.3687, 312.6830
390.8509, 311.3712
391.3330, 309.6375
391.8151, 308.4176
392.2972, 308.7160
392.7793, 309.6016
393.2614, 310.2116
393.7436, 310.4506
394.2257, 310.1867
394.7078, 308.7661
395.1899, 306.7392
395.6720, 305.5512
396.1541, 306.4268
396.6363, 307.6382
397.1184, 308.3204
397.6005, 308.1365
398.0826, 308.2127
398.5647, 308.9434
399.0468, 309.9486
399.5290, 310.7675
400.0111, 310.7452
400.4932, 311.2185
400.9753, 312.6208
401.4574, 314.9544
401.9395, 316.9433
402.4217, 318.6645
402.9038, 319.9759
403.3859, 320.6584
403.8680, 320.1660
404.3501, 320.3882
404.8322, 321.7080
405.3144, 323.6956
405.7965, 325.3491
406.2786, 326.8626
406.7607, 327.4278
407.2428, 326.1370
407.7249, 322.8839
408.2071, 321.5441
408.6892, 322.6003
409.1713, 324.1187
409.6534, 323.6849
410.1355, 321.3623
410.6176, 318.4884
411.0998, 315.3694
411.5819, 311.9922
412.0640, 308.1900
412.5461, 304.0109
413.0282, 299.8266
413.5103, 295.7601
413.9925, 291.9687
414.4746, 289.0115
414.9567, 287.3818
415.4388, 285.3785
415.9209, 280.5851
416.4030, 273.9704
416.8852, 267.8014
417.3673, 263.3640
417.8494, 259.8393
418.3315, 256.6010
418.8136, 253.6426
419.2957, 250.8715
419.7779, 248.1117
420.2600, 245.5905
420.7421, 243.5822
421.2242, 242.8851
421.7063, 241.9356
422.1884, 239.9826
422.6706, 237.3062
423.1527, 234.8839
423.6348, 233.1961
424.1169, 231.6403
424.5990, 229.8878
425.0811, 227.6904
425.5633, 225.8493
426.0454, 224.5426
426.5275, 223.5430
427.0096, 222.5615
427.4917, 221.6631
427.9738, 220.6938
428.4560, 219.6122
428.9381, 218.4134
429.4202, 217.1569
429.9023, 215.7065
430.3844, 214.4705
430.8665, 214.0173
431.3487, 214.6313
431.8308, 214.0998
432.3129, 211.8281
432.7950, 208.8481
433.2771, 207.4655
433.7592, 207.7483
434.2414, 208.1451
434.7235, 207.6982
435.2056, 206.7485
435.6877, 206.9516
436.1698, 208.4030
436.6519, 209.7900
437.1341, 209.5000
437.6162, 208.0934
438.0983, 207.0286
438.5804, 206.7616
439.0625, 206.9163
439.5446, 207.2041
440.0268, 207.5857
440.5089, 207.9126
440.9910, 207.9826
441.4731, 208.0305
441.9552, 208.2991
442.4373, 208.8540
442.9195, 209.4095
443.4016, 210.0336
443.8837, 210.5079
444.3658, 210.5660
444.8479, 209.8122
445.3300, 208.9507
445.8122, 208.0280
446.2943, 207.1063
446.7764, 206.5987
447.2585, 206.7009
447.7406, 207.1270
448.2227, 207.8545
448.7049, 209.7309
449.1870, 210.2127
449.6691, 208.5438
450.1512, 205.8520
450.6333, 203.8554
451.1154, 202.4574
451.5976, 201.9778
452.0797, 202.8587
452.5618, 204.9532
453.0439, 205.9709
453.5260, 205.6839
454.0081, 204.9783
454.4903, 204.5301
454.9724, 204.3377
455.4545, 203.9897
455.9366, 203.4021
456.4187, 202.7196
456.9008, 202.2144
457.3830, 201.8589
457.8651, 201.4941
458.3472, 201.1795
458.8293, 200.7587
459.3114, 199.4939
459.7935, 197.4159
460.2757, 196.1663
460.7578, 198.2697
461.2399, 201.6737
461.7220, 203.3781
462.2041, 201.7248
462.6862, 199.7305
463.1684, 199.6830
463.6505, 200.7946
464.1326, 201.2450
464.6147, 199.1482
465.0968, 197.1526
465.5789, 196.9813
466.0611, 199.0809
466.5432, 200.3532
467.0253, 199.3274
467.5074, 197.6688
467.9895, 196.7742
468.4716, 197.3799
468.9538, 197.9122
469.4359, 198.3960
469.9180, 198.7384
470.4001, 198.5449
470.8822, 197.3965
471.3643, 196.4650
471.8465, 196.2316
472.3286, 196.7413
472.8107, 197.7523
473.2928, 199.6589
473.7749, 201.0967
474.2570, 199.7527
474.7392, 195.6604
475.2213, 193.3839
475.7034, 194.4738
476.1855, 197.2580
476.6676, 198.0431
477.1497, 197.0630
477.6319, 196.4988
478.1140, 198.3272
478.5961, 201.2075
479.0782, 202.8632
479.5603, 203.0930
480.0424, 202.7996
480.5246, 202.1689
481.0067, 201.6215
481.4888, 201.7706
481.9709, 203.3714
482.4530, 205.0669
482.9352, 206.2519
483.4173, 206.9834
483.8994, 207.4427
484.3815, 207.2130
484.8636, 207.1168
485.3457, 207.6121
485.8279, 208.9112
486.3100, 210.1185
486.7921, 211.1419
487.2742, 212.0494
487.7563, 212.8901
488.2384, 213.5121
488.7206, 214.3640
489.2027, 215.6655
489.6848, 217.2078
490.1669, 218.2231
490.6490, 218.6382
491.1311, 218.7249
491.6133, 218.3828
492.0954, 217.6279
492.5775, 217.7174
493.0596, 218.7811
493.5417, 220.1507
494.0238, 221.1534
494.5060, 221.8430
494.9881, 222.4887
495.4702, 223.2797
495.9523, 223.8504
496.4344, 223.3394
496.9165, 222.0462
497.3987, 221.0997
497.8808, 221.5481
498.3629, 222.3821
498.8450, 222.4981
499.3271, 221.7748
499.8092, 221.2878
500.2914, 222.3393
500.7735, 223.5435
501.2556, 223.5912
501.7377, 220.7669
502.2198, 218.4304
502.7019, 217.5267
503.1841, 217.6432
503.6662, 217.6385
504.1483, 217.3734
504.6304, 217.0251
505.1125, 216.5853
505.5946, 216.0273
506.0768, 215.7995
506.5589, 216.2368
507.0410, 216.5138
507.5231, 215.7515
508.0052, 213.7027
508.4873, 212.3169
508.9695, 211.9399
509.4516, 212.1495
509.9337, 212.3740
510.4158, 212.5909
510.8979, 212.3598
511.3800, 211.1841
511.8622, 209.5184
512.3443, 208.2774
512.8264, 207.4701
513.3085, 207.0936
513.7906, 207.7844
514.2728, 208.6680
514.7549, 208.5253
515.2370, 206.9138
515.7191, 204.9072
516.2012, 202.5687
516.6833, 200.4082
517.1655, 199.1674
517.6476, 200.2440
518.1297, 201.1337
518.6118, 200.7785
519.0939, 199.2855
519.5760, 198.0916
520.0582, 198.1956
520.5403, 197.9103
521.0224, 196.2365
521.5045, 191.9466
521.9866, 189.9994
522.4688, 191.4931
522.9509, 194.1159
523.4330, 195.0125
523.9151, 193.9115
524.3972, 192.5210
524.8793, 191.0771
525.3615, 189.6909
525.8436, 188.6240
526.3257, 187.8727
526.8078, 187.3875
527.2899, 187.2275
527.7720, 187.2918
528.2542, 187.3509
528.7363, 187.3936
529.2184, 187.4936
529.7005, 187.7166
530.1826, 188.0338
530.6647, 188.4297
531.1469, 189.0229
531.6290, 189.4826
532.1111, 189.7925
532.5932, 189.8218
533.0753, 189.3061
533.5574, 187.3731
534.0396, 185.6437
534.5217, 184.5720
535.0038, 184.1980
535.4859, 184.5458
535.9680, 186.6592
536.4501, 188.4550
536.9323, 188.5505
537.4144, 185.9389
537.8965, 184.5596
538.3786, 184.9462
538.8607, 185.9538
539.3428, 185.6389
539.8250, 183.8596
540.3071, 182.7457
540.7892, 183.2116
541.2713, 184.4954
541.7534, 184.5396
542.2355, 183.4682
542.7177, 182.5887
543.1998, 183.0183
543.6819, 184.0587
544.1640, 184.7323
544.6461, 184.9744
545.1282, 184.7414
545.6104, 183.3749
546.0925, 181.7678
546.5746, 180.9403
547.0567, 181.5890
547.5388, 182.4665
548.0209, 183.4063
548.5031, 184.2642
548.9852, 184.7461
549.4673, 184.5160
549.9494, 184.2060
550.4315, 183.9720
550.9136, 183.8135
551.3958, 183.5248
551.8779, 182.8454
552.3600, 182.4761
552.8421, 183.1316
553.3242, 185.0208
553.8063, 185.7803
554.2885, 185.0485
554.7706, 183.9082
555.2527, 183.8849
555.7348, 184.8119
556.2169, 185.6516
556.6990, 186.0654
557.1812, 186.2646
557.6633, 186.5208
558.1454, 186.8132
558.6275, 187.0648
559.1096, 187.1012
559.5917, 187.1673
560.0739, 187.6029
560.5560, 188.4418
561.0381, 188.9424
561.5202, 188.5925
562.0023, 187.9131
562.4844, 187.2652
562.9666, 186.3994
563.4487, 186.0352
563.9308, 186.3788
564.4129, 187.1519
564.8950, 188.0338
565.3771, 189.3466
565.8593, 189.9747
566.3414, 189.4231
566.8235, 188.0232
567.3056, 187.2469
567.7877, 187.1407
568.2698, 187.3516
568.7520, 187.7792
569.2341, 188.3621
569.7162, 189.0159
570.1983, 189.7619
570.6804, 190.1218
571.1625, 189.2743
571.6447, 187.8332
572.1268, 186.7539
572.6089, 186.2052
573.0910, 186.1769
573.5731, 187.2038
574.0552, 188.6573
574.5374, 189.4595
575.0195, 188.6702
575.5016, 187.7654
575.9837, 187.0625
576.4658, 186.6060
576.9479, 186.6833
577.4301, 187.7939
577.9122, 188.8460
578.3943, 189.3315
578.8764, 189.1128
579.3585, 189.1642
579.8406, 189.6757
580.3228, 190.0333
580.8049, 189.3230
581.2870, 187.6341
581.7691, 186.5146
582.2512, 186.2082
582.7333, 186.6367
583.2155, 188.2323
583.6975, 190.5459
584.1796, 192.2450
584.6617, 192.1947
585.1439, 191.6037
585.6260, 191.7445
