##NAMES=Foitite
##RRUFFID=R050356
##IDEAL CHEMISTRY=[box](Fe^2+^_2_Al)Al_6_(Si_6_O_18_)(BO_3_)_3_(OH)_3_OH
##LOCALITY=Fano mine, Cahuilla Mountain, Riverside County, California, USA
##OWNER=RRUFF
##SOURCE=George Rossman
##DESCRIPTION=Black prismatic, elongated and striated fragment
##STATUS=The identification of this mineral has been confirmed by X-ray diffraction and chemical analysis
##URL=rruff.info/R050356
##MEASURED CHEMISTRY=(Na_0.50_[box]_0.50_)_Σ=1_(Fe^2+^_1.94_Al_0.77_Li_0.15_Mn_0.10_Mg_0.04_)_Σ=3.00_Al_6.00_(BO_3_)_3_(Si_5.88_Al_0.12_)_Σ=6_O_18_(OH)_4_ ; B and Li not measured but estimated by charge balance
92.35352, 18.69016
92.83563, 21.76542
93.31775, 23.07649
93.79987, 21.50311
94.28198, 18.01709
94.76410, 15.42905
95.24622, 14.42470
95.72833, 14.47330
96.21045, 14.55866
96.69257, 14.67244
97.17468, 14.94853
97.65680, 15.56655
98.13892, 16.52199
98.62103, 17.49468
99.10315, 18.40408
99.58527, 19.25768
100.0674, 19.93752
100.5495, 20.27304
101.0316, 20.79853
101.5137, 22.25276
101.9958, 24.87394
102.4780, 27.61085
102.9601, 30.04984
103.4422, 32.07133
103.9243, 34.61434
104.4064, 37.92222
104.8885, 41.60976
105.3707, 45.01885
105.8528, 47.75769
106.3349, 50.72852
106.8170, 54.30046
107.2991, 58.99045
107.7813, 63.29470
108.2634, 66.94659
108.7455, 70.19360
109.2276, 73.72963
109.7097, 78.03108
110.1918, 82.30950
110.6740, 86.24461
111.1561, 89.38036
111.6382, 92.67574
112.1203, 96.17558
112.6024, 99.90401
113.0845, 103.8105
113.5667, 107.5435
114.0488, 111.6237
114.5309, 116.4497
115.0130, 122.9678
115.4951, 129.3869
115.9772, 134.9463
116.4594, 139.7208
116.9415, 145.0007
117.4236, 151.8495
117.9057, 159.2687
118.3878, 166.1598
118.8699, 171.4422
119.3521, 176.6735
119.8342, 183.0262
120.3163, 190.6833
120.7984, 198.2046
121.2805, 204.3938
121.7626, 209.8727
122.2448, 215.7046
122.7269, 223.7581
123.2090, 231.7432
123.6911, 237.1319
124.1732, 239.2853
124.6553, 240.4041
125.1375, 242.1002
125.6196, 244.3351
126.1017, 246.9860
126.5838, 250.0424
127.0659, 253.4622
127.5480, 257.1750
128.0302, 261.1883
128.5123, 265.5025
128.9944, 270.4099
129.4765, 275.8212
129.9586, 280.9031
130.4407, 284.6522
130.9229, 287.4482
131.4050, 290.8943
131.8871, 295.3326
132.3692, 300.4697
132.8513, 305.6320
133.3334, 310.3300
133.8156, 313.6646
134.2977, 315.9205
134.7798, 318.1966
135.2619, 320.6991
135.7440, 323.4406
136.2261, 326.4225
136.7083, 330.0936
137.1904, 334.6933
137.6725, 339.2966
138.1546, 343.1563
138.6367, 346.3511
139.1188, 348.5970
139.6010, 349.7725
140.0831, 349.8840
140.5652, 349.4388
141.0473, 348.0855
141.5294, 346.6488
142.0115, 346.3327
142.4937, 347.6510
142.9758, 348.8266
143.4579, 349.2479
143.9400, 348.6605
144.4221, 348.5304
144.9042, 349.0693
145.3864, 349.9171
145.8685, 350.4442
146.3506, 350.4411
146.8327, 350.3969
147.3148, 350.4630
147.7969, 350.6635
148.2791, 350.9149
148.7612, 351.2287
149.2433, 351.5934
149.7254, 351.9859
150.2075, 352.3316
150.6896, 352.7766
151.1718, 353.3681
151.6539, 354.0743
152.1360, 354.9782
152.6181, 356.1804
153.1002, 357.5972
153.5823, 358.9720
154.0645, 360.9574
154.5466, 362.4299
155.0287, 362.8610
155.5108, 361.4487
155.9929, 359.9003
156.4750, 358.1007
156.9572, 356.2382
157.4393, 355.1537
157.9214, 355.5700
158.4035, 356.4666
158.8856, 357.2066
159.3677, 357.7674
159.8499, 358.0466
160.3320, 357.7606
160.8141, 357.0399
161.2962, 356.6703
161.7783, 357.3732
162.2604, 358.3459
162.7426, 358.9265
163.2247, 358.6522
163.7068, 358.1845
164.1889, 357.6689
164.6710, 357.1343
165.1531, 356.8732
165.6353, 357.3445
166.1174, 358.0561
166.5995, 358.4784
167.0816, 358.1611
167.5637, 357.6822
168.0458, 357.3796
168.5280, 357.2599
169.0101, 357.2217
169.4922, 357.3149
169.9743, 357.4265
170.4564, 357.3982
170.9385, 357.0252
171.4207, 356.5682
171.9028, 356.2833
172.3849, 356.1899
172.8670, 356.0875
173.3491, 355.5779
173.8312, 354.9535
174.3134, 354.7737
174.7955, 356.1338
175.2776, 357.7116
175.7597, 357.7520
176.2418, 356.0413
176.7239, 353.8735
177.2061, 352.2181
177.6882, 351.0040
178.1703, 350.0632
178.6524, 349.3074
179.1345, 348.7598
179.6166, 348.5801
180.0988, 348.8476
180.5809, 349.0925
181.0630, 348.6153
181.5451, 347.5902
182.0272, 346.7378
182.5093, 346.5136
182.9915, 346.7230
183.4736, 346.9868
183.9557, 347.3439
184.4378, 347.5157
184.9199, 346.8135
185.4020, 345.4017
185.8842, 344.3700
186.3663, 344.7197
186.8484, 346.0189
187.3305, 346.6206
187.8126, 346.2873
188.2947, 345.5524
188.7769, 345.1773
189.2590, 345.1563
189.7411, 345.3535
190.2232, 345.6812
190.7053, 346.1558
191.1874, 346.9037
191.6696, 347.9854
192.1517, 349.2679
192.6338, 350.5629
193.1159, 351.8750
193.5980, 353.1122
194.0801, 354.0408
194.5623, 354.7074
195.0444, 355.9957
195.5265, 358.1834
196.0086, 360.7278
196.4907, 362.2559
196.9728, 362.6118
197.4550, 363.2392
197.9371, 365.2852
198.4192, 368.7791
198.9013, 371.7756
199.3834, 374.1605
199.8655, 375.8964
200.3477, 376.5323
200.8298, 375.7203
201.3119, 375.3945
201.7940, 377.1067
202.2761, 381.1072
202.7582, 384.2906
203.2404, 386.2232
203.7225, 387.3022
204.2046, 388.5607
204.6867, 390.0035
205.1688, 391.6269
205.6509, 393.5679
206.1331, 395.9721
206.6152, 397.7701
207.0973, 398.6935
207.5794, 399.0471
208.0615, 399.6899
208.5436, 400.5585
209.0258, 401.8875
209.5079, 403.8860
209.9900, 406.6563
210.4721, 409.5844
210.9542, 412.7161
211.4363, 415.9354
211.9185, 418.7401
212.4006, 420.8281
212.8827, 423.1707
213.3648, 426.3360
213.8469, 430.5120
214.3290, 434.9379
214.8112, 439.6746
215.2933, 444.5748
215.7754, 449.1936
216.2575, 453.2406
216.7396, 457.5654
217.2217, 462.8831
217.7038, 469.8708
218.1860, 475.6269
218.6681, 479.3882
219.1502, 481.8349
219.6323, 485.4989
220.1144, 490.9080
220.5965, 496.5828
221.0787, 501.6162
221.5608, 505.7222
222.0429, 509.9826
222.5250, 514.6057
223.0071, 519.4159
223.4892, 523.5506
223.9714, 526.8416
224.4535, 529.7971
224.9356, 532.7604
225.4177, 535.8945
225.8998, 538.5577
226.3819, 540.4169
226.8641, 541.8279
227.3462, 544.0318
227.8283, 547.5052
228.3104, 551.0297
228.7925, 553.8791
229.2746, 555.6370
229.7568, 557.7490
230.2389, 560.4248
230.7210, 563.4747
231.2031, 566.2308
231.6852, 568.6538
232.1673, 570.8312
232.6495, 572.7564
233.1316, 574.2972
233.6137, 575.9232
234.0958, 577.9220
234.5779, 579.9390
235.0600, 580.9475
235.5422, 580.8224
236.0243, 579.8877
236.5064, 578.3129
236.9885, 576.2764
237.4706, 573.1627
237.9527, 568.6602
238.4349, 563.2026
238.9170, 558.0140
239.3991, 553.8206
239.8812, 548.8080
240.3633, 542.0554
240.8454, 532.7052
241.3276, 523.7338
241.8097, 515.2701
242.2918, 507.2558
242.7739, 499.6702
243.2560, 492.6261
243.7381, 485.8405
244.2203, 479.2468
244.7024, 472.9461
245.1845, 466.4915
245.6666, 459.4256
246.1487, 452.4407
246.6308, 446.8038
247.1130, 443.1086
247.5951, 439.7720
248.0772, 436.2383
248.5593, 432.2878
249.0414, 428.8504
249.5235, 425.8932
250.0057, 423.4709
250.4878, 421.7938
250.9699, 421.6393
251.4520, 420.8100
251.9341, 418.3279
252.4162, 413.6090
252.8984, 410.1453
253.3805, 408.5090
253.8626, 407.6725
254.3447, 406.1364
254.8268, 403.4961
255.3089, 400.9490
255.7911, 398.9637
256.2732, 397.6565
256.7553, 395.8140
257.2374, 393.1935
257.7195, 390.2679
258.2017, 387.6332
258.6838, 385.4166
259.1659, 383.1553
259.6480, 380.7199
260.1301, 378.1302
260.6122, 375.4704
261.0944, 372.8314
261.5765, 369.9950
262.0586, 366.6596
262.5407, 362.6557
263.0228, 358.6527
263.5049, 354.8176
263.9871, 351.1168
264.4692, 347.5259
264.9513, 344.0178
265.4334, 340.6152
265.9155, 337.3103
266.3976, 334.2353
266.8798, 330.9766
267.3619, 327.3339
267.8440, 323.3943
268.3261, 320.2272
268.8082, 318.0958
269.2903, 316.1918
269.7725, 313.9104
270.2546, 311.2389
270.7367, 308.3761
271.2188, 305.3282
271.7009, 302.1411
272.1830, 298.7956
272.6652, 295.0996
273.1473, 291.8383
273.6294, 289.7151
274.1115, 288.9725
274.5936, 287.8882
275.0757, 286.2143
275.5579, 284.1317
276.0400, 282.2651
276.5221, 280.7092
277.0042, 278.9771
277.4863, 276.5413
277.9684, 273.2950
278.4506, 270.9064
278.9327, 269.7194
279.4148, 269.1543
279.8969, 267.9124
280.3790, 265.8880
280.8611, 263.9456
281.3433, 262.6234
281.8254, 261.9120
282.3075, 261.0068
282.7896, 259.8446
283.2717, 258.5636
283.7538, 257.3963
284.2360, 256.3500
284.7181, 255.2578
285.2002, 253.9455
285.6823, 252.4658
286.1644, 251.3207
286.6465, 250.5555
287.1287, 249.9923
287.6108, 249.4724
288.0929, 248.9882
288.5750, 248.4285
289.0571, 247.7009
289.5392, 246.8585
290.0214, 246.1387
290.5035, 245.5534
290.9856, 245.0167
291.4677, 244.2371
291.9498, 243.3280
292.4319, 243.0465
292.9141, 243.9126
293.3962, 245.3914
293.8783, 246.2205
294.3604, 246.3901
294.8425, 246.3582
295.3246, 246.5784
295.8068, 246.9343
296.2889, 246.9451
296.7710, 246.2038
297.2531, 245.4161
297.7352, 245.9832
298.2173, 247.7663
298.6995, 249.6162
299.1816, 250.8140
299.6637, 251.4592
300.1458, 251.5645
300.6279, 250.8275
301.1100, 250.2225
301.5922, 251.4030
302.0743, 253.9354
302.5564, 256.0681
303.0385, 256.2878
303.5206, 255.6297
304.0027, 255.6387
304.4849, 256.6122
304.9670, 257.8257
305.4491, 258.5323
305.9312, 258.9333
306.4133, 259.5118
306.8954, 260.8489
307.3776, 262.3069
307.8597, 263.0698
308.3418, 263.0284
308.8239, 263.1133
309.3060, 264.2964
309.7881, 266.0300
310.2703, 267.4086
310.7524, 267.7397
311.2345, 267.8464
311.7166, 268.3933
312.1987, 269.3698
312.6808, 270.1665
313.1630, 270.5101
313.6451, 270.4699
314.1272, 270.1207
314.6093, 269.3283
315.0914, 268.3797
315.5735, 267.3745
316.0557, 266.3180
316.5378, 265.2474
317.0199, 263.9972
317.5020, 262.8477
317.9841, 262.0256
318.4662, 261.9427
318.9484, 261.6793
319.4305, 260.8606
319.9126, 259.6275
320.3947, 258.3495
320.8768, 256.6722
321.3589, 255.3275
321.8411, 254.7657
322.3232, 255.4006
322.8053, 255.9521
323.2874, 256.0927
323.7695, 256.0177
324.2516, 256.0363
324.7338, 256.3076
325.2159, 256.5747
325.6980, 256.6849
326.1801, 256.5234
326.6622, 256.6985
327.1443, 257.3744
327.6265, 258.3524
328.1086, 259.4430
328.5907, 261.1478
329.0728, 262.3802
329.5549, 262.6833
330.0370, 262.0448
330.5192, 262.1208
331.0013, 263.4016
331.4834, 264.9822
331.9655, 266.2510
332.4476, 266.9966
332.9297, 267.7964
333.4119, 268.7073
333.8940, 269.7051
334.3761, 270.6296
334.8582, 271.2330
335.3403, 272.1136
335.8224, 273.7448
336.3046, 276.6978
336.7867, 278.5764
337.2688, 278.8334
337.7509, 278.3828
338.2330, 279.1829
338.7151, 281.5637
339.1973, 284.1481
339.6794, 286.4186
340.1615, 288.3355
340.6436, 290.5258
341.1257, 293.1310
341.6078, 295.6675
342.0899, 297.2320
342.5721, 297.6816
343.0542, 298.8074
343.5363, 301.2711
344.0184, 304.8031
344.5005, 308.3346
344.9826, 311.8234
345.4648, 315.4214
345.9469, 319.1082
346.4290, 322.9681
346.9111, 327.2899
347.3932, 332.2682
347.8753, 337.5829
348.3575, 342.4344
348.8396, 346.8462
349.3217, 351.4205
349.8038, 356.4176
350.2859, 361.8355
350.7680, 367.7541
351.2502, 374.2518
351.7323, 380.9591
352.2144, 387.3591
352.6965, 393.6312
353.1786, 400.1317
353.6607, 407.1738
354.1429, 414.5004
354.6250, 421.7224
355.1071, 428.8179
355.5892, 436.1829
356.0713, 444.1565
356.5534, 452.5984
357.0356, 461.2984
357.5177, 470.1398
357.9998, 479.2996
358.4819, 488.4511
358.9640, 497.7604
359.4461, 507.9630
359.9283, 520.3767
360.4104, 533.3458
360.8925, 545.4823
361.3746, 556.2535
361.8567, 566.5272
362.3388, 576.6091
362.8210, 586.3994
363.3031, 595.9139
363.7852, 605.9063
364.2673, 615.0009
364.7494, 622.8492
365.2315, 629.8054
365.7137, 634.0691
366.1958, 634.5687
366.6779, 632.3998
367.1600, 628.8512
367.6421, 623.7148
368.1242, 617.5807
368.6064, 610.7640
369.0885, 603.2637
369.5706, 594.0460
370.0527, 581.9907
370.5348, 569.0482
371.0169, 556.2642
371.4991, 543.6322
371.9812, 531.3730
372.4633, 519.1948
372.9454, 507.3699
373.4275, 497.2153
373.9096, 489.3126
374.3918, 481.8777
374.8739, 474.3338
375.3560, 466.6181
375.8381, 458.5951
376.3202, 450.0466
376.8023, 441.5864
377.2845, 434.1270
377.7666, 427.7529
378.2487, 422.2527
378.7308, 417.9233
379.2129, 414.5178
379.6950, 410.6996
380.1772, 406.3266
380.6593, 402.0956
381.1414, 398.8149
381.6235, 396.3821
382.1056, 393.4985
382.5877, 389.7499
383.0699, 385.6607
383.5520, 382.4039
384.0341, 379.8591
384.5162, 377.0980
384.9983, 373.0029
385.4804, 368.3067
385.9626, 364.5788
386.4447, 362.0300
386.9268, 360.1430
387.4089, 358.7683
387.8910, 357.6551
388.3731, 356.2716
388.8553, 353.9181
389.3374, 351.4686
389.8195, 349.9307
390.3016, 349.2769
390.7837, 348.5813
391.2658, 347.1133
391.7480, 345.3875
392.2301, 343.9266
392.7122, 342.8304
393.1943, 342.0912
393.6764, 342.0809
394.1585, 342.4898
394.6407, 342.4357
395.1228, 341.1453
395.6049, 339.6994
396.0870, 338.6266
396.5691, 338.0851
397.0512, 337.6331
397.5334, 336.9597
398.0155, 336.4022
398.4976, 336.3883
398.9797, 338.0201
399.4618, 339.0537
399.9439, 338.8659
400.4261, 337.4605
400.9082, 336.2552
401.3903, 335.4720
401.8724, 334.6679
402.3545, 333.5542
402.8366, 332.0521
403.3188, 330.3928
403.8009, 328.3961
404.2830, 326.3337
404.7651, 325.0648
405.2472, 325.0175
405.7293, 324.5847
406.2115, 323.0629
406.6936, 320.4455
407.1757, 317.4416
407.6578, 313.9080
408.1399, 310.3613
408.6220, 307.3777
409.1042, 304.9487
409.5863, 302.6840
410.0684, 300.6132
410.5505, 298.5424
411.0326, 295.7903
411.5147, 292.3640
411.9969, 288.8843
412.4790, 285.7467
412.9611, 282.8469
413.4432, 279.9955
413.9253, 277.1408
414.4074, 274.3236
414.8896, 271.4899
415.3717, 268.7115
415.8538, 266.1773
416.3359, 264.1948
416.8180, 262.3761
417.3001, 260.4435
417.7823, 258.3621
418.2644, 256.1817
418.7465, 253.5222
419.2286, 250.9091
419.7107, 248.9139
420.1928, 248.1627
420.6750, 247.3576
421.1571, 245.8382
421.6392, 243.8668
422.1213, 242.1663
422.6034, 241.2126
423.0855, 240.3295
423.5677, 239.1732
424.0498, 237.5721
424.5319, 236.2651
425.0140, 235.6838
425.4961, 235.2402
425.9782, 234.3184
426.4604, 232.3862
426.9425, 230.7645
427.4246, 229.6994
427.9067, 229.1188
428.3888, 228.5909
428.8709, 228.1470
429.3531, 227.7039
429.8352, 227.1724
430.3173, 226.5055
430.7994, 226.0576
431.2815, 225.9190
431.7636, 225.8653
432.2458, 225.5190
432.7279, 224.8626
433.2100, 224.1466
433.6921, 223.3337
434.1742, 222.5421
434.6563, 222.3573
435.1385, 222.7952
435.6206, 223.2406
436.1027, 223.0117
436.5848, 222.3738
437.0669, 222.0999
437.5490, 222.4450
438.0312, 222.9250
438.5133, 223.0651
438.9954, 222.9073
439.4775, 222.5626
439.9596, 221.8835
440.4417, 221.1789
440.9239, 220.7266
441.4060, 220.5443
441.8881, 220.4962
442.3702, 220.6266
442.8523, 220.7996
443.3344, 220.8905
443.8166, 221.0480
444.2987, 220.9017
444.7808, 220.1117
445.2629, 218.8979
445.7450, 217.9012
446.2271, 217.1588
446.7093, 216.7559
447.1914, 216.7950
447.6735, 217.4362
448.1556, 218.0018
448.6377, 218.5661
449.1198, 218.9989
449.6020, 219.1424
450.0841, 218.8474
450.5662, 218.5820
451.0483, 218.4661
451.5304, 218.4312
452.0125, 218.0842
452.4947, 217.2527
452.9768, 216.6316
453.4589, 216.8172
453.9410, 217.8414
454.4231, 218.1781
454.9052, 217.7241
455.3874, 216.8200
455.8695, 215.6495
456.3516, 214.2910
456.8337, 213.3893
457.3158, 213.3262
457.7979, 213.6822
458.2801, 213.6708
458.7622, 213.3484
459.2443, 213.1060
459.7264, 213.3100
460.2085, 213.7217
460.6906, 214.0739
461.1728, 214.3637
461.6549, 214.4402
462.1370, 214.0032
462.6191, 213.3243
463.1012, 212.8094
463.5833, 212.4074
464.0655, 212.3865
464.5476, 213.1640
465.0297, 214.6034
465.5118, 215.6167
465.9939, 215.7063
466.4760, 215.4173
466.9582, 215.0151
467.4403, 214.3447
467.9224, 213.8686
468.4045, 213.6411
468.8866, 213.5903
469.3687, 213.6082
469.8509, 213.6361
470.3330, 213.8540
470.8151, 214.3859
471.2972, 215.1860
471.7793, 215.7103
472.2614, 215.8626
472.7436, 216.0213
473.2257, 216.5924
473.7078, 217.5922
474.1899, 217.9965
474.6720, 217.6050
475.1541, 216.9500
475.6363, 216.6627
476.1184, 216.7562
476.6005, 217.3431
477.0826, 218.7848
477.5647, 220.5554
478.0468, 221.8972
478.5290, 222.8134
479.0111, 223.3291
479.4932, 222.9677
479.9753, 222.4288
480.4574, 222.6440
480.9395, 224.0019
481.4217, 225.3836
481.9038, 225.8855
482.3859, 226.0050
482.8680, 226.4668
483.3501, 227.9185
483.8322, 229.3520
484.3144, 230.3959
484.7965, 231.0509
485.2786, 231.6534
485.7607, 232.0722
486.2428, 232.5798
486.7249, 233.3360
487.2071, 234.5352
487.6892, 235.5440
488.1713, 236.3105
488.6534, 236.9249
489.1355, 237.5622
489.6176, 238.3234
490.0998, 238.8135
490.5819, 238.8616
491.0640, 238.5825
491.5461, 238.5430
492.0282, 238.7634
492.5103, 239.0945
492.9925, 239.5609
493.4746, 240.0913
493.9567, 240.2129
494.4388, 239.8349
494.9209, 239.3582
495.4030, 239.1171
495.8852, 239.1248
496.3673, 239.4399
496.8494, 240.4366
497.3315, 241.3999
497.8136, 241.6346
498.2957, 241.2329
498.7779, 240.5745
499.2600, 239.3470
499.7421, 238.2808
500.2242, 238.1671
500.7063, 239.4981
501.1884, 239.9496
501.6706, 237.9413
502.1527, 235.1100
502.6348, 233.1382
503.1169, 232.9959
503.5990, 232.8370
504.0811, 232.6014
504.5633, 232.2271
505.0454, 231.3973
505.5275, 229.7916
506.0096, 228.3027
506.4917, 227.2482
506.9738, 226.6202
507.4560, 226.5833
507.9381, 227.4071
508.4202, 228.0927
508.9023, 227.2945
509.3844, 225.1246
509.8665, 223.5952
510.3487, 223.2083
510.8308, 223.3891
511.3129, 223.3341
511.7950, 223.0458
512.2772, 222.5321
512.7593, 221.7027
513.2414, 220.7023
513.7235, 219.6173
514.2056, 218.4624
514.6877, 217.4407
515.1699, 216.6273
515.6520, 216.0326
516.1341, 215.6997
516.6162, 215.7995
517.0983, 215.8364
517.5804, 215.6083
518.0626, 215.2182
518.5447, 214.8357
519.0268, 214.3755
519.5089, 214.0467
519.9910, 214.0067
520.4731, 214.2194
520.9553, 214.0969
521.4374, 213.4581
521.9195, 212.7607
522.4016, 212.2299
522.8837, 211.8657
523.3658, 211.7786
523.8480, 212.1092
524.3301, 212.4266
524.8122, 211.9800
525.2943, 210.8356
525.7764, 210.0018
526.2585, 209.7596
526.7407, 209.9762
527.2228, 210.7511
527.7049, 211.9271
528.1870, 212.5688
528.6691, 211.5297
529.1512, 209.9521
529.6334, 209.1530
530.1155, 209.2284
530.5976, 209.6783
531.0797, 210.5872
531.5618, 211.5374
532.0439, 212.0896
532.5261, 211.8100
533.0082, 211.5955
533.4903, 211.7863
533.9724, 212.1849
534.4545, 212.3730
534.9366, 212.0841
535.4188, 211.8403
535.9009, 211.7067
536.3830, 211.6889
536.8651, 212.0724
537.3472, 213.1855
537.8293, 214.0634
538.3115, 213.8984
538.7936, 212.5950
539.2757, 211.6711
539.7578, 211.2358
540.2399, 211.1035
540.7220, 211.1640
541.2042, 211.3577
541.6863, 211.3237
542.1684, 210.8018
542.6505, 210.1707
543.1326, 210.1302
543.6147, 210.5008
544.0969, 210.5950
544.5790, 209.4932
545.0611, 208.2879
545.5432, 208.0607
546.0253, 208.9520
546.5074, 209.6163
546.9896, 209.2382
547.4717, 208.5325
547.9538, 208.0762
548.4359, 208.1261
548.9180, 208.2145
549.4001, 208.3128
549.8823, 208.4266
550.3644, 208.5988
550.8465, 209.0343
551.3286, 209.1324
551.8107, 208.6366
552.2928, 207.6478
552.7750, 206.9030
553.2571, 206.4058
553.7392, 206.1133
554.2213, 206.0495
554.7034, 206.1835
555.1855, 206.3793
555.6677, 206.6480
556.1498, 206.8377
556.6319, 206.8329
557.1140, 206.6244
557.5961, 206.1484
558.0782, 205.1979
558.5604, 204.2892
559.0425, 203.8541
559.5246, 203.7814
560.0067, 203.8318
560.4888, 204.1236
560.9709, 204.3210
561.4531, 204.2539
561.9352, 203.9175
562.4173, 203.5042
562.8994, 202.9107
563.3815, 202.3539
563.8636, 201.9582
564.3458, 201.8397
564.8279, 201.5592
565.3100, 201.0176
565.7921, 200.4379
566.2742, 200.1733
566.7563, 200.2722
567.2385, 200.1638
567.7206, 199.6075
568.2027, 198.9277
568.6848, 198.9632
569.1669, 199.6211
569.6490, 200.2061
570.1312, 200.3279
570.6133, 200.1649
571.0954, 199.9033
571.5775, 199.5553
572.0596, 199.2789
572.5417, 199.2777
573.0239, 199.3281
573.5060, 199.2402
573.9881, 198.9659
574.4702, 198.5921
574.9523, 197.9422
575.4344, 197.2776
575.9166, 196.9388
576.3987, 197.2871
576.8808, 197.5003
577.3629, 197.4454
577.8450, 197.1988
578.3271, 196.9879
578.8093, 196.7804
579.2914, 196.6982
579.7735, 196.7927
580.2556, 197.0535
580.7377, 197.5586
581.2198, 198.3459
581.7020, 198.8944
582.1841, 198.5634
582.6662, 197.6836
583.1483, 197.0733
