##NAMES=Foordite
##RRUFFID=R130012
##IDEAL CHEMISTRY=Sn^2+^Nb^5+^_2_O_6_
##LOCALITY=Manono, Shaba, Congo
##OWNER=RRUFF
##SOURCE=Michael Scott
##DESCRIPTION=Brown massive, strong cleavage, yellowish-brown when thin
##STATUS=The identification of this mineral has been confirmed by single-crystal X-ray diffraction.
##URL=rruff.info/R130012
109.1284, 37.43353
109.6105, 36.82153
110.0927, 36.06520
110.5748, 35.57173
111.0569, 35.68816
111.5390, 35.74718
112.0211, 35.57290
112.5032, 35.08317
112.9854, 34.63860
113.4675, 34.35112
113.9496, 34.12696
114.4317, 33.82582
114.9138, 33.23637
115.3959, 32.69824
115.8781, 32.39820
116.3602, 32.49930
116.8423, 32.54720
117.3244, 32.33692
117.8065, 31.94672
118.2886, 31.57575
118.7708, 31.33997
119.2529, 31.14002
119.7350, 30.89631
120.2171, 30.53556
120.6992, 30.18842
121.1813, 29.97549
121.6635, 29.87039
122.1456, 29.73275
122.6277, 29.43276
123.1098, 29.05765
123.5919, 28.72320
124.0740, 28.50960
124.5562, 28.33010
125.0383, 28.08774
125.5204, 27.78194
126.0025, 27.47709
126.4846, 27.22402
126.9667, 27.01461
127.4489, 26.82849
127.9310, 26.67524
128.4131, 26.53641
128.8952, 26.36804
129.3773, 26.16193
129.8594, 25.95776
130.3416, 25.79133
130.8237, 25.66443
131.3058, 25.57891
131.7879, 25.60624
132.2700, 25.70040
132.7521, 25.61347
133.2343, 25.28377
133.7164, 24.84048
134.1985, 24.49925
134.6806, 24.26403
135.1627, 24.07816
135.6448, 23.90190
136.1270, 23.73355
136.6091, 23.63428
137.0912, 23.63726
137.5733, 23.70246
138.0554, 23.70038
138.5375, 23.62882
139.0197, 23.49520
139.5018, 23.28067
139.9839, 22.95884
140.4660, 22.68249
140.9481, 22.48834
141.4302, 22.37015
141.9124, 22.22350
142.3945, 22.01477
142.8766, 21.82441
143.3587, 21.75294
143.8408, 21.89575
144.3229, 21.96259
144.8051, 21.87960
145.2872, 21.62512
145.7693, 21.36541
146.2514, 21.05551
146.7335, 20.76475
147.2156, 20.58416
147.6978, 20.62501
148.1799, 20.64056
148.6620, 20.54992
149.1441, 20.27696
149.6262, 20.10722
150.1083, 20.10321
150.5905, 20.19422
151.0726, 20.25733
151.5547, 20.36296
152.0368, 20.38032
152.5189, 20.25660
153.0010, 19.88232
153.4832, 19.55713
153.9653, 19.30251
154.4474, 19.10984
154.9295, 18.95844
155.4116, 18.81253
155.8937, 18.73098
156.3759, 18.75148
156.8580, 19.02450
157.3401, 19.20354
157.8222, 19.17519
158.3043, 18.98713
158.7864, 18.81525
159.2686, 18.67270
159.7507, 18.58130
160.2328, 18.55552
160.7149, 18.65172
161.1970, 18.76072
161.6791, 18.89051
162.1613, 19.02415
162.6434, 19.06060
163.1255, 18.86766
163.6076, 18.59681
164.0897, 18.38301
164.5718, 18.32291
165.0540, 18.28595
165.5361, 18.18154
166.0182, 18.01406
166.5003, 17.90984
166.9824, 17.92367
167.4645, 18.04227
167.9467, 18.24775
168.4288, 18.62036
168.9109, 19.01896
169.3930, 19.33937
169.8751, 19.57686
170.3572, 19.79536
170.8394, 19.95089
171.3215, 20.12792
171.8036, 20.46473
172.2857, 21.06704
172.7678, 21.83641
173.2499, 22.68610
173.7321, 23.62033
174.2142, 24.61745
174.6963, 25.60643
175.1784, 26.65401
175.6605, 27.92408
176.1426, 29.61350
176.6248, 31.52461
177.1069, 33.32468
177.5890, 34.93608
178.0711, 36.68176
178.5532, 38.97789
179.0353, 41.74262
179.5175, 44.59084
179.9996, 47.32351
180.4817, 50.00196
180.9638, 52.81651
181.4459, 55.82399
181.9280, 58.89526
182.4102, 61.98414
182.8923, 65.02581
183.3744, 67.98149
183.8565, 70.85769
184.3386, 73.61648
184.8207, 75.99914
185.3029, 77.89413
185.7850, 79.58855
186.2671, 81.55978
186.7492, 83.79607
187.2313, 86.20255
187.7134, 88.65953
188.1956, 91.22522
188.6777, 94.16141
189.1598, 97.78442
189.6419, 101.5222
190.1240, 103.6641
190.6061, 104.1378
191.0883, 105.2058
191.5704, 109.4176
192.0525, 116.3878
192.5346, 121.7771
193.0167, 124.3753
193.4988, 125.1432
193.9810, 126.4660
194.4631, 128.2827
194.9452, 130.5535
195.4273, 132.8446
195.9094, 135.1541
196.3915, 137.3928
196.8737, 139.5576
197.3558, 141.6326
197.8379, 143.5726
198.3200, 145.3509
198.8021, 147.1034
199.2842, 148.9070
199.7664, 150.7688
200.2485, 152.7194
200.7306, 154.8117
201.2127, 157.0135
201.6948, 159.1874
202.1769, 161.3415
202.6590, 163.4743
203.1412, 165.5404
203.6233, 167.5381
204.1054, 169.5628
204.5875, 171.5631
205.0696, 173.5780
205.5517, 176.0531
206.0339, 179.1105
206.5160, 182.3385
206.9981, 185.2928
207.4802, 187.8671
207.9623, 190.5380
208.4444, 193.4302
208.9266, 196.5459
209.4087, 199.5854
209.8908, 202.4304
210.3729, 205.4369
210.8550, 209.0112
211.3371, 213.1715
211.8193, 217.6883
212.3014, 222.5522
212.7835, 227.7194
213.2656, 233.0800
213.7477, 238.6354
214.2298, 244.4025
214.7120, 250.2812
215.1941, 256.2250
215.6762, 262.5572
216.1583, 269.6035
216.6404, 277.3683
217.1225, 284.5361
217.6047, 291.0001
218.0868, 297.0059
218.5689, 303.0208
219.0510, 309.3828
219.5331, 315.0517
220.0152, 319.9591
220.4974, 324.1731
220.9795, 327.1585
221.4616, 328.9618
221.9437, 329.5632
222.4258, 328.9153
222.9079, 326.9145
223.3901, 323.8991
223.8722, 319.8437
224.3543, 314.5840
224.8364, 309.4221
225.3185, 304.5232
225.8006, 299.6205
226.2828, 294.1703
226.7649, 287.6037
227.2470, 281.6612
227.7291, 276.9996
228.2112, 273.6948
228.6933, 270.4919
229.1755, 267.2539
229.6576, 264.2269
230.1397, 261.7599
230.6218, 259.7777
231.1039, 258.4557
231.5860, 257.9856
232.0682, 258.5094
232.5503, 258.8623
233.0324, 258.9780
233.5145, 258.9923
233.9966, 258.9821
234.4787, 258.5222
234.9609, 258.8274
235.4430, 260.4345
235.9251, 263.6098
236.4072, 266.1745
236.8893, 267.7486
237.3714, 269.0242
237.8536, 270.9234
238.3357, 274.0174
238.8178, 276.7454
239.2999, 278.5430
239.7820, 279.1833
240.2641, 280.4882
240.7463, 282.7119
241.2284, 285.3730
241.7105, 287.8895
242.1926, 290.1371
242.6747, 292.4375
243.1568, 294.7987
243.6390, 297.1953
244.1211, 299.8826
244.6032, 302.6853
245.0853, 305.9434
245.5674, 310.0670
246.0495, 315.2362
246.5317, 320.9604
247.0138, 327.1951
247.4959, 333.9821
247.9780, 341.1380
248.4601, 348.6938
248.9422, 356.6536
249.4244, 365.0775
249.9065, 374.2116
250.3886, 383.3704
250.8707, 392.6321
251.3528, 401.9694
251.8349, 410.5318
252.3171, 418.6759
252.7992, 425.5684
253.2813, 430.3905
253.7634, 433.1524
254.2455, 433.7455
254.7276, 432.1536
255.2098, 428.3518
255.6919, 422.1798
256.1740, 413.1752
256.6561, 402.3882
257.1382, 390.7540
257.6204, 377.7141
258.1025, 364.9383
258.5846, 352.7776
259.0667, 341.1802
259.5488, 330.0975
260.0309, 319.6125
260.5131, 309.8410
260.9952, 301.0894
261.4773, 293.3755
261.9594, 286.4924
262.4415, 280.6809
262.9236, 275.7832
263.4058, 270.6985
263.8879, 265.2538
264.3700, 259.8325
264.8521, 254.5460
265.3342, 249.3727
265.8163, 244.5768
266.2985, 240.3266
266.7806, 236.5378
267.2627, 232.5963
267.7448, 228.4689
268.2269, 224.3040
268.7090, 220.1167
269.1912, 215.7264
269.6733, 211.9534
270.1554, 209.0744
270.6375, 206.8269
271.1196, 204.1979
271.6017, 201.0042
272.0839, 197.9390
272.5660, 195.5948
273.0481, 194.0672
273.5302, 192.5350
274.0123, 190.8490
274.4944, 189.1414
274.9766, 187.7337
275.4587, 186.6091
275.9408, 185.8592
276.4229, 185.6784
276.9050, 186.1204
277.3871, 186.4099
277.8693, 186.4101
278.3514, 186.3259
278.8335, 186.6264
279.3156, 187.3522
279.7977, 188.2412
280.2798, 189.1845
280.7620, 190.1740
281.2441, 191.1535
281.7262, 192.0780
282.2083, 193.0628
282.6904, 194.3209
283.1725, 195.8588
283.6547, 197.5488
284.1368, 199.3550
284.6189, 201.2590
285.1010, 203.2762
285.5831, 205.4484
286.0652, 207.6151
286.5474, 209.4289
287.0295, 210.9009
287.5116, 212.5771
287.9937, 214.7348
288.4758, 217.3372
288.9579, 219.9838
289.4401, 222.6724
289.9222, 225.5448
290.4043, 228.7716
290.8864, 232.3415
291.3685, 236.1780
291.8506, 240.1933
292.3328, 244.4530
292.8149, 249.0567
293.2970, 254.0353
293.7791, 259.2316
294.2612, 264.4848
294.7433, 269.7971
295.2255, 275.1466
295.7076, 280.7450
296.1897, 286.2188
296.6718, 290.9092
297.1539, 294.7958
297.6360, 297.5695
298.1182, 299.1506
298.6003, 299.4027
299.0824, 297.9770
299.5645, 294.5360
300.0466, 289.6134
300.5287, 283.6467
301.0109, 276.7454
301.4930, 269.4288
301.9751, 262.0497
302.4572, 254.5562
302.9393, 246.9533
303.4214, 238.9660
303.9036, 231.2026
304.3857, 224.1671
304.8678, 217.8752
305.3499, 212.2375
305.8320, 207.4989
306.3141, 203.3233
306.7963, 199.3838
307.2784, 195.5506
307.7605, 192.0358
308.2426, 189.0146
308.7247, 186.4353
309.2068, 184.1751
309.6890, 182.3187
310.1711, 180.6598
310.6532, 179.0337
311.1353, 177.4085
311.6174, 175.8947
312.0995, 174.5665
312.5817, 173.4133
313.0638, 172.3993
313.5459, 171.5217
314.0280, 170.7593
314.5101, 170.1009
314.9922, 169.5496
315.4744, 169.0961
315.9565, 168.8272
316.4386, 168.6326
316.9207, 168.3902
317.4028, 168.0325
317.8849, 167.6504
318.3671, 167.1859
318.8492, 166.6551
319.3313, 166.3942
319.8134, 166.8292
320.2955, 167.4168
320.7776, 167.7190
321.2598, 167.1793
321.7419, 166.8351
322.2240, 166.9756
322.7061, 167.5336
323.1882, 168.1567
323.6703, 169.0273
324.1525, 169.7717
324.6346, 170.1564
325.1167, 169.5987
325.5988, 169.4503
326.0809, 170.2054
326.5630, 171.4905
327.0451, 172.2824
327.5273, 171.9151
328.0094, 171.5640
328.4915, 171.6653
328.9736, 172.4895
329.4557, 173.1614
329.9378, 173.5445
330.4200, 173.8204
330.9021, 174.2761
331.3842, 175.0317
331.8663, 175.8097
332.3484, 176.5623
332.8305, 177.2873
333.3127, 177.8813
333.7948, 178.1983
334.2769, 178.5151
334.7590, 179.1588
335.2411, 180.2959
335.7232, 181.4083
336.2054, 182.4162
336.6875, 183.3249
337.1696, 184.0352
337.6517, 184.4869
338.1338, 184.8620
338.6159, 185.2909
339.0981, 185.7791
339.5802, 186.3419
340.0623, 187.0678
340.5444, 187.8274
341.0265, 188.0736
341.5086, 187.7109
341.9908, 187.2983
342.4729, 187.2378
342.9550, 187.5244
343.4371, 187.6296
343.9192, 187.4848
344.4013, 187.1852
344.8835, 186.8882
345.3656, 186.5939
345.8477, 186.2874
346.3298, 185.9939
346.8119, 185.6909
347.2940, 185.2664
347.7762, 184.7012
348.2583, 184.1003
348.7404, 183.5688
349.2225, 183.1037
349.7046, 182.6862
350.1867, 182.2947
350.6689, 181.9539
351.1510, 181.8141
351.6331, 181.8665
352.1152, 181.7219
352.5973, 180.7794
353.0794, 179.4419
353.5616, 178.4758
354.0437, 178.2286
354.5258, 178.2588
355.0079, 178.0931
355.4900, 177.7976
355.9721, 177.6622
356.4543, 177.9796
356.9364, 178.4956
357.4185, 178.9784
357.9006, 179.4193
358.3827, 179.7339
358.8648, 179.7267
359.3470, 179.5607
359.8291, 179.5644
360.3112, 180.0192
360.7933, 180.5824
361.2754, 180.9799
361.7575, 181.1261
362.2397, 181.5501
362.7218, 182.7302
363.2039, 184.1934
363.6860, 185.4119
364.1681, 185.9136
364.6502, 186.4826
365.1324, 187.4636
365.6145, 188.8429
366.0966, 189.9667
366.5787, 190.2455
367.0608, 190.5379
367.5429, 191.3940
368.0251, 193.8109
368.5072, 195.6758
368.9893, 196.2979
369.4714, 196.1740
369.9535, 196.9466
370.4356, 199.4631
370.9178, 201.9910
371.3999, 203.7793
371.8820, 204.4357
372.3641, 205.4268
372.8462, 206.9943
373.3283, 208.7249
373.8105, 210.0179
374.2926, 210.8638
374.7747, 211.2798
375.2568, 211.1899
375.7389, 210.5858
376.2210, 210.0409
376.7032, 209.6100
377.1853, 209.1059
377.6674, 208.4216
378.1495, 207.5889
378.6316, 206.1822
379.1137, 203.9144
379.5959, 201.1378
380.0780, 198.9426
380.5601, 197.3932
381.0422, 195.8452
381.5243, 193.7496
382.0064, 191.2188
382.4886, 188.9863
382.9707, 187.1297
383.4528, 185.5236
383.9349, 184.0869
384.4170, 182.7663
384.8991, 181.2912
385.3813, 179.2797
385.8634, 177.0849
386.3455, 175.2293
386.8276, 173.7368
387.3097, 172.5825
387.7918, 171.9499
388.2740, 171.5994
388.7561, 171.1033
389.2382, 170.1784
389.7203, 169.1795
390.2024, 168.3895
390.6845, 167.7879
391.1667, 167.2648
391.6488, 166.9035
392.1309, 166.5203
392.6130, 165.9394
393.0951, 165.0565
393.5772, 164.1502
394.0594, 163.1805
394.5415, 162.2901
395.0236, 161.7437
395.5057, 161.8307
395.9878, 162.0961
396.4699, 162.4191
396.9521, 162.8206
397.4342, 163.0823
397.9163, 163.2119
398.3984, 163.1690
398.8805, 162.9166
399.3626, 161.9793
399.8448, 161.3776
400.3269, 161.3268
400.8090, 161.7583
401.2911, 162.1673
401.7732, 162.6511
402.2553, 163.0011
402.7375, 163.0521
403.2196, 162.5385
403.7017, 162.4265
404.1838, 162.8979
404.6659, 163.6458
405.1480, 164.0215
405.6302, 163.8883
406.1123, 163.9003
406.5944, 164.3461
407.0765, 165.2034
407.5586, 165.9215
408.0407, 166.4795
408.5229, 166.9891
409.0050, 167.5295
409.4871, 168.1032
409.9692, 168.7974
410.4513, 169.6721
410.9334, 170.6344
411.4156, 171.4263
411.8977, 172.0667
412.3798, 172.8686
412.8619, 174.3093
413.3440, 175.9976
413.8261, 177.0625
414.3083, 177.2893
414.7904, 177.5012
415.2725, 178.5206
415.7546, 180.1233
416.2367, 181.8706
416.7188, 183.7796
417.2010, 185.5819
417.6831, 186.9414
418.1652, 187.8817
418.6473, 189.0177
419.1294, 190.8744
419.6115, 192.9711
420.0937, 194.8647
420.5758, 196.5174
421.0579, 197.8857
421.5400, 198.8490
422.0221, 199.5295
422.5042, 200.2563
422.9864, 201.4095
423.4685, 202.3490
423.9506, 202.6767
424.4327, 201.9803
424.9148, 202.0149
425.3969, 203.3698
425.8791, 205.1818
426.3612, 206.5952
426.8433, 207.1601
427.3254, 208.0352
427.8075, 209.4949
428.2896, 211.4490
428.7718, 213.1788
429.2539, 214.5993
429.7360, 215.9166
430.2181, 217.2060
430.7002, 218.4493
431.1823, 219.7988
431.6645, 221.3095
432.1466, 222.8408
432.6287, 224.1690
433.1108, 225.2856
433.5929, 226.1783
434.0750, 226.8599
434.5572, 227.3152
435.0393, 227.5076
435.5214, 227.4427
436.0035, 227.0601
436.4856, 226.1488
436.9677, 224.8853
437.4499, 223.6944
437.9320, 222.7339
438.4141, 221.7454
438.8962, 220.4345
439.3783, 218.8573
439.8604, 217.1824
440.3426, 215.2890
440.8247, 213.4697
441.3068, 212.0127
441.7889, 210.9856
442.2710, 209.9263
442.7531, 208.5278
443.2353, 207.0089
443.7174, 205.5968
444.1995, 204.5075
444.6816, 203.3714
445.1637, 201.9249
445.6458, 200.2943
446.1280, 198.9964
446.6101, 198.4596
447.0922, 197.9809
447.5743, 197.2190
448.0564, 195.9586
448.5385, 194.9670
449.0207, 194.3201
449.5028, 193.9004
449.9849, 193.5706
450.4670, 193.3176
450.9491, 193.1956
451.4312, 193.3008
451.9134, 193.5726
452.3955, 193.5311
452.8776, 193.1312
453.3597, 192.5910
453.8418, 192.0019
454.3239, 191.3735
454.8061, 190.8598
455.2882, 190.4737
455.7703, 190.2168
456.2524, 190.1760
456.7345, 190.3118
457.2166, 190.3686
457.6988, 190.2044
458.1809, 189.9059
458.6630, 189.6120
459.1451, 189.3216
459.6272, 189.0031
460.1093, 188.6405
460.5915, 188.2342
461.0736, 187.7744
461.5557, 187.2179
462.0378, 186.6895
462.5199, 186.2794
463.0020, 185.9538
463.4842, 185.6547
463.9663, 185.4164
464.4484, 185.1521
464.9305, 184.9102
465.4126, 184.7115
465.8947, 184.1738
466.3769, 182.7496
466.8590, 181.2450
467.3411, 180.2482
467.8232, 180.1624
468.3053, 180.0904
468.7874, 180.0906
469.2696, 180.0714
469.7517, 179.7599
470.2338, 178.9313
470.7159, 178.2291
471.1980, 177.9075
471.6801, 177.9811
472.1623, 178.0147
472.6444, 177.9611
473.1265, 177.9910
473.6086, 178.3915
474.0907, 179.1514
474.5728, 179.6042
475.0550, 179.5653
475.5371, 179.2581
476.0192, 179.0564
476.5013, 178.9531
476.9834, 178.9070
477.4655, 178.9261
477.9477, 178.9741
478.4298, 178.9577
478.9119, 178.8687
479.3940, 178.8624
479.8761, 179.1151
480.3582, 179.5076
480.8404, 179.8822
481.3225, 180.1758
481.8046, 180.4734
482.2867, 180.8479
482.7688, 181.2664
483.2509, 181.6407
483.7331, 182.1235
484.2152, 182.4074
484.6973, 182.2052
485.1794, 181.3046
485.6615, 180.9352
486.1436, 181.8096
486.6258, 182.8874
487.1079, 183.3466
487.5900, 182.6459
488.0721, 182.2908
488.5542, 182.5456
489.0363, 183.1853
489.5185, 183.5679
490.0006, 183.6388
490.4827, 183.6014
490.9648, 183.5071
491.4469, 183.3598
491.9290, 183.3271
492.4112, 183.4514
492.8933, 183.4834
493.3754, 182.9397
493.8575, 182.0182
494.3396, 181.7060
494.8217, 182.4843
495.3039, 183.4663
495.7860, 183.3501
496.2681, 182.3762
496.7502, 181.3651
497.2323, 180.5773
497.7144, 180.0591
498.1966, 179.9706
498.6787, 180.3167
499.1608, 180.5785
499.6429, 180.3066
500.1250, 179.9160
500.6071, 179.7854
501.0893, 180.3731
501.5714, 180.7045
502.0535, 180.3636
502.5356, 179.6260
503.0177, 179.1231
503.4998, 179.0622
503.9820, 179.0615
504.4641, 179.0110
504.9462, 178.9037
505.4283, 178.9714
505.9104, 179.3122
506.3925, 179.6827
506.8747, 179.8916
507.3568, 179.9164
507.8389, 179.9507
508.3210, 180.0222
508.8031, 180.0919
509.2852, 180.0800
509.7674, 179.9898
510.2495, 179.8939
510.7316, 179.8461
511.2137, 179.7972
511.6958, 179.6039
512.1780, 179.2778
512.6601, 178.9778
513.1422, 178.8091
513.6243, 178.7378
514.1064, 178.7285
514.5886, 178.7830
515.0707, 178.8720
515.5528, 178.9613
516.0349, 179.0804
516.5170, 179.2722
516.9991, 179.7119
517.4813, 180.0686
517.9634, 180.1040
518.4455, 179.8873
518.9276, 179.9779
519.4097, 180.8518
519.8918, 181.6856
520.3740, 182.1085
520.8561, 181.9406
521.3382, 181.9534
521.8203, 182.1732
522.3024, 182.5376
522.7845, 183.0087
523.2667, 183.6106
523.7488, 184.1602
524.2309, 184.5922
524.7130, 184.9666
525.1951, 185.4749
525.6772, 186.1153
526.1594, 186.7075
526.6415, 187.1133
527.1236, 187.4137
527.6057, 187.7339
528.0878, 188.0766
528.5699, 188.5807
529.0521, 189.5733
529.5342, 190.7220
530.0163, 191.5500
530.4984, 191.7283
530.9805, 191.9306
531.4626, 192.5820
531.9448, 193.5114
532.4269, 194.3831
532.9090, 194.9666
533.3911, 195.6100
533.8732, 196.4884
534.3553, 197.6074
534.8375, 198.6063
535.3196, 199.4543
535.8017, 200.1865
536.2838, 200.7698
536.7659, 201.0328
537.2480, 201.6783
537.7302, 202.8566
538.2123, 204.2137
538.6944, 205.1692
539.1765, 205.6999
539.6586, 206.2885
540.1407, 207.0611
540.6229, 207.9757
541.1050, 208.9527
541.5871, 209.9851
542.0692, 210.9676
542.5513, 211.7003
543.0334, 212.4124
543.5156, 213.5473
543.9977, 215.1563
544.4798, 216.6753
544.9619, 217.3282
545.4440, 217.8220
545.9261, 218.9583
546.4083, 221.4167
546.8904, 223.8625
547.3725, 225.7451
547.8546, 227.2814
548.3367, 228.9803
548.8188, 231.0785
549.3010, 233.1622
549.7831, 235.0672
550.2652, 236.7975
550.7473, 238.7846
551.2294, 241.0919
551.7115, 243.5554
552.1937, 246.1450
552.6758, 248.8888
553.1579, 251.5393
553.6400, 254.1097
554.1221, 256.5381
554.6042, 258.5236
555.0864, 260.1929
555.5685, 262.3943
556.0506, 265.6144
556.5327, 269.1477
557.0148, 271.8299
557.4969, 273.8924
557.9791, 276.2228
558.4612, 279.7019
558.9433, 283.3751
559.4254, 286.2563
559.9075, 288.2760
560.3896, 290.6132
560.8718, 293.8943
561.3539, 297.5595
561.8360, 301.2215
562.3181, 305.3183
562.8002, 308.6559
563.2823, 310.6704
563.7645, 312.1370
564.2466, 314.2441
564.7287, 317.2342
565.2108, 320.3161
565.6929, 323.4701
566.1750, 326.5486
566.6572, 328.8394
567.1393, 330.2076
567.6214, 331.6660
568.1035, 334.0057
568.5856, 336.9501
569.0677, 339.6037
569.5499, 341.9174
570.0320, 343.8377
570.5141, 345.0348
570.9962, 345.8419
571.4783, 346.8406
571.9604, 348.3622
572.4425, 349.7279
572.9246, 350.4785
573.4067, 350.7852
573.8889, 350.9710
574.3710, 351.2147
574.8531, 351.2821
575.3352, 351.1557
575.8173, 350.8214
576.2994, 350.1021
576.7816, 348.8664
577.2637, 347.4173
577.7458, 345.8201
578.2279, 344.0231
578.7100, 342.4680
579.1921, 341.3185
579.6743, 340.0490
580.1564, 337.9837
580.6385, 335.1779
581.1206, 332.4586
581.6027, 329.9803
582.0848, 327.6633
582.5670, 325.4009
583.0491, 323.2201
583.5312, 321.0945
584.0133, 318.9914
584.4954, 316.9824
584.9775, 315.1266
585.4597, 313.4223
585.9418, 311.8535
586.4239, 310.8103
586.9060, 309.6018
587.3881, 307.6259
587.8702, 304.4828
588.3524, 301.9451
588.8345, 300.7674
589.3166, 299.9168
589.7987, 298.5299
590.2808, 296.0576
590.7629, 294.3389
591.2451, 293.6747
591.7272, 293.6378
592.2093, 293.5025
592.6914, 293.2739
593.1735, 292.8830
593.6556, 292.2227
594.1378, 291.4430
594.6199, 290.8723
595.1020, 290.5107
595.5841, 290.3140
596.0662, 290.2634
596.5483, 290.3593
597.0305, 290.7076
597.5126, 291.3307
597.9947, 291.7522
598.4768, 291.5534
598.9589, 291.1178
599.4410, 290.7629
599.9232, 290.5157
600.4053, 290.4071
600.8874, 290.5745
601.3695, 290.8399
601.8516, 290.9466
602.3337, 290.7870
602.8159, 290.6899
603.2980, 290.7598
603.7801, 290.9219
604.2622, 290.9150
604.7443, 290.7340
605.2264, 290.4167
605.7086, 289.8506
606.1907, 289.1580
606.6728, 288.8919
607.1549, 289.0392
