##NAMES=Foordite
##RRUFFID=R130012
##IDEAL CHEMISTRY=Sn^2+^Nb^5+^_2_O_6_
##LOCALITY=Manono, Shaba, Congo
##OWNER=RRUFF
##SOURCE=Michael Scott
##DESCRIPTION=Brown massive, strong cleavage, yellowish-brown when thin
##STATUS=The identification of this mineral has been confirmed by single-crystal X-ray diffraction.
##URL=rruff.info/R130012
90.23535, 659.8604
90.71747, 649.3660
91.19958, 643.1012
91.68170, 659.1653
92.16382, 672.3712
92.64594, 676.5043
93.12805, 672.8165
93.61017, 664.3200
94.09229, 651.5905
94.57440, 632.9043
95.05651, 612.9305
95.53863, 591.6461
96.02074, 570.0492
96.50286, 548.6276
96.98498, 527.1584
97.46709, 505.2473
97.94921, 486.4501
98.43133, 470.5376
98.91344, 456.7987
99.39556, 445.0162
99.87768, 435.0131
100.3598, 426.7588
100.8419, 420.3669
101.3240, 415.8135
101.8061, 411.9836
102.2883, 408.5611
102.7704, 405.9439
103.2525, 404.7742
103.7346, 405.2402
104.2167, 405.9907
104.6988, 405.8963
105.1810, 405.3761
105.6631, 405.0892
106.1452, 405.4282
106.6273, 406.2286
107.1094, 406.8360
107.5915, 407.1102
108.0737, 407.3139
108.5558, 407.5918
109.0379, 407.8983
109.5200, 408.1206
110.0021, 408.1801
110.4842, 408.0915
110.9664, 407.7406
111.4485, 406.8863
111.9306, 405.9912
112.4127, 405.3747
112.8948, 405.0266
113.3769, 404.6187
113.8591, 403.6676
114.3412, 401.6837
114.8233, 399.9732
115.3054, 398.6613
115.7875, 397.5372
116.2696, 396.3419
116.7517, 394.9645
117.2339, 393.5919
117.7160, 392.7412
118.1981, 392.5571
118.6802, 392.4202
119.1623, 392.2288
119.6444, 391.9567
120.1266, 391.5508
120.6087, 391.0405
121.0908, 390.2911
121.5729, 389.2334
122.0550, 388.0015
122.5371, 386.2359
123.0193, 383.4986
123.5014, 379.6973
123.9835, 375.6614
124.4656, 371.9401
124.9477, 368.1447
125.4298, 363.8446
125.9120, 358.8841
126.3941, 353.4050
126.8762, 347.8399
127.3583, 342.4834
127.8404, 336.4230
128.3225, 329.0379
128.8047, 320.9626
129.2868, 313.0463
129.7689, 305.8114
130.2510, 299.2217
130.7331, 292.7653
131.2152, 286.3055
131.6974, 280.0791
132.1795, 274.0885
132.6616, 268.3806
133.1437, 263.0940
133.6258, 258.3525
134.1079, 254.2191
134.5901, 250.1900
135.0722, 245.7386
135.5543, 241.7570
136.0364, 238.9701
136.5185, 237.3633
137.0006, 236.1856
137.4828, 234.6138
137.9649, 232.5152
138.4470, 230.6929
138.9291, 229.3829
139.4112, 228.2914
139.8933, 226.9684
140.3755, 225.2315
140.8576, 223.6217
141.3397, 222.8712
141.8218, 222.8731
142.3039, 223.3086
142.7860, 224.2458
143.2681, 225.5610
143.7503, 226.7973
144.2324, 227.7599
144.7145, 228.7298
145.1966, 229.9243
145.6787, 231.3449
146.1608, 232.9330
146.6430, 234.6042
147.1251, 236.3422
147.6072, 238.3489
148.0893, 240.7024
148.5714, 243.3559
149.0535, 246.3317
149.5357, 249.6198
150.0178, 253.2075
150.4999, 257.0749
150.9820, 261.3998
151.4641, 265.7089
151.9462, 269.8755
152.4284, 274.0651
152.9105, 278.6700
153.3926, 283.7743
153.8747, 288.8766
154.3568, 292.7057
154.8389, 294.6271
155.3211, 295.7794
155.8032, 296.4760
156.2853, 296.3864
156.7674, 295.1242
157.2495, 292.4998
157.7316, 288.5635
158.2138, 283.3687
158.6959, 276.2211
159.1780, 268.8068
159.6601, 260.9962
160.1422, 253.1823
160.6243, 246.2678
161.1065, 240.9074
161.5886, 236.8635
162.0707, 232.8678
162.5528, 228.7258
163.0349, 224.8158
163.5170, 221.4099
163.9991, 218.4771
164.4813, 215.7869
164.9634, 213.2141
165.4455, 210.8094
165.9276, 208.6416
166.4097, 206.7182
166.8918, 205.0239
167.3740, 203.5900
167.8561, 202.4522
168.3382, 201.4158
168.8203, 200.2070
169.3024, 199.0689
169.7845, 198.3699
170.2667, 198.4031
170.7488, 198.8730
171.2309, 199.1833
171.7130, 199.5404
172.1951, 199.2840
172.6772, 197.7604
173.1594, 195.6497
173.6415, 193.9166
174.1236, 193.1793
174.6057, 193.2804
175.0878, 193.2952
175.5699, 193.3848
176.0521, 193.1679
176.5342, 192.3459
177.0163, 191.1662
177.4984, 190.0620
177.9805, 189.3592
178.4626, 189.0608
178.9448, 188.6586
179.4269, 188.1028
179.9090, 187.4930
180.3911, 186.7484
180.8732, 185.9556
181.3553, 185.3087
181.8375, 184.9768
182.3196, 184.9854
182.8017, 185.0948
183.2838, 185.4053
183.7659, 185.7021
184.2480, 185.8091
184.7301, 185.7641
185.2123, 185.7881
185.6944, 186.0890
186.1765, 186.7126
186.6586, 187.3635
187.1407, 188.0114
187.6228, 188.6996
188.1050, 189.4743
188.5871, 190.3347
189.0692, 191.2294
189.5513, 192.1247
190.0334, 193.0155
190.5155, 193.8639
190.9977, 194.7337
191.4798, 195.5245
191.9619, 196.1401
192.4440, 196.5740
192.9261, 196.8139
193.4082, 196.7283
193.8904, 196.4094
194.3725, 196.1074
194.8546, 196.1030
195.3367, 196.1338
195.8188, 195.5202
196.3009, 193.8295
196.7831, 192.3438
197.2652, 192.2701
197.7473, 193.1572
198.2294, 193.8859
198.7115, 193.6530
199.1936, 192.7307
199.6758, 192.2993
200.1579, 192.5522
200.6400, 193.1164
201.1221, 193.8113
201.6042, 194.6149
202.0863, 195.4721
202.5685, 196.2858
203.0506, 197.0749
203.5327, 198.1679
204.0148, 199.8175
204.4969, 201.5312
204.9790, 203.2168
205.4612, 204.8152
205.9433, 206.2271
206.4254, 207.2746
206.9075, 207.9189
207.3896, 208.9588
207.8717, 210.6292
208.3539, 212.5115
208.8360, 214.5773
209.3181, 216.7616
209.8002, 218.9318
210.2823, 220.9168
210.7644, 222.6165
211.2466, 224.9430
211.7287, 228.4036
212.2108, 231.9458
212.6929, 235.1501
213.1750, 238.0506
213.6571, 240.9811
214.1393, 244.2876
214.6214, 248.1043
215.1035, 251.3291
215.5856, 253.7411
216.0677, 255.9165
216.5498, 258.2271
217.0320, 260.6152
217.5141, 262.7805
217.9962, 264.4789
218.4783, 265.6823
218.9604, 266.1564
219.4425, 265.7898
219.9247, 264.8932
220.4068, 263.6580
220.8889, 262.0867
221.3710, 260.0566
221.8531, 257.4366
222.3352, 254.1522
222.8174, 250.5798
223.2995, 246.6704
223.7816, 242.5123
224.2637, 237.9424
224.7458, 232.9975
225.2279, 228.3984
225.7100, 224.8133
226.1922, 222.1922
226.6743, 219.6121
227.1564, 216.7688
227.6385, 214.1084
228.1206, 212.1837
228.6027, 211.0403
229.0849, 210.0365
229.5670, 208.5345
230.0491, 206.8371
230.5312, 205.7795
231.0133, 205.7883
231.4954, 206.3449
231.9776, 206.9339
232.4597, 207.5596
232.9418, 208.1877
233.4239, 208.8040
233.9060, 209.4094
234.3881, 209.9729
234.8703, 210.2723
235.3524, 210.7086
235.8345, 212.0544
236.3166, 214.6125
236.7987, 216.8456
237.2808, 217.6496
237.7630, 217.7864
238.2451, 218.0264
238.7272, 218.5908
239.2093, 219.3809
239.6914, 220.2316
240.1735, 221.1210
240.6557, 222.1610
241.1378, 223.2117
241.6199, 224.5000
242.1020, 226.3115
242.5841, 228.7774
243.0662, 231.6830
243.5484, 234.6768
244.0305, 237.7316
244.5126, 240.9500
244.9947, 244.3328
245.4768, 247.8771
245.9589, 251.5690
246.4410, 255.4063
246.9232, 259.4351
247.4053, 263.8460
247.8874, 268.8003
248.3695, 273.7400
248.8516, 278.5599
249.3337, 283.3152
249.8159, 288.2061
250.2980, 293.2745
250.7801, 298.0550
251.2622, 301.8971
251.7443, 304.9270
252.2264, 306.5266
252.7086, 306.7842
253.1907, 305.7969
253.6728, 303.4835
254.1549, 299.8743
254.6370, 295.2664
255.1191, 290.0263
255.6013, 284.0243
256.0834, 277.6336
256.5655, 270.8109
257.0476, 263.7410
257.5297, 256.2498
258.0118, 248.4524
258.4940, 240.8743
258.9761, 234.2513
259.4582, 228.8890
259.9403, 223.7926
260.4224, 218.9917
260.9045, 214.3264
261.3867, 209.6330
261.8688, 204.9230
262.3509, 200.4649
262.8330, 196.5735
263.3151, 193.4456
263.7972, 190.1914
264.2794, 186.5777
264.7615, 183.0654
265.2436, 179.9866
265.7257, 177.3114
266.2078, 174.7206
266.6899, 171.8600
267.1721, 168.6103
267.6542, 165.9743
268.1363, 164.3230
268.6184, 162.8112
269.1005, 160.9527
269.5826, 158.8333
270.0648, 156.8979
270.5469, 155.5363
271.0290, 154.7822
271.5111, 153.8734
271.9932, 152.4974
272.4753, 151.3047
272.9575, 150.5586
273.4396, 150.2257
273.9217, 150.1966
274.4038, 150.4336
274.8859, 150.9098
275.3680, 151.2884
275.8501, 151.3718
276.3322, 151.5925
276.8144, 151.9729
277.2965, 152.5987
277.7786, 153.7451
278.2607, 155.6652
278.7428, 158.0681
279.2249, 159.6716
279.7071, 159.9244
280.1892, 160.2103
280.6713, 160.8631
281.1534, 161.7816
281.6355, 162.7944
282.1176, 163.8300
282.5998, 164.9106
283.0819, 166.0627
283.5640, 167.1674
284.0461, 168.5428
284.5282, 170.3594
285.0103, 172.4597
285.4925, 174.6369
285.9746, 176.8358
286.4567, 179.0418
286.9388, 181.2306
287.4209, 183.3314
287.9030, 185.6165
288.3852, 188.0445
288.8673, 190.7028
289.3494, 193.7452
289.8315, 197.2169
290.3136, 200.8543
290.7957, 204.3448
291.2779, 207.6227
291.7600, 211.2093
292.2421, 215.5423
292.7242, 219.9884
293.2063, 223.9349
293.6884, 227.3187
294.1706, 230.3945
294.6527, 233.4607
295.1348, 236.4770
295.6169, 238.8611
296.0990, 240.9185
296.5811, 242.0999
297.0633, 242.0029
297.5454, 240.6170
298.0275, 238.0619
298.5096, 234.2817
298.9917, 229.2725
299.4738, 223.7799
299.9560, 217.5076
300.4381, 211.0812
300.9202, 204.6460
301.4023, 198.2795
301.8844, 192.2205
302.3665, 186.6004
302.8487, 181.3512
303.3308, 176.1509
303.8129, 170.7177
304.2950, 165.7164
304.7771, 161.4251
305.2592, 157.7864
305.7414, 154.7399
306.2235, 152.3904
306.7056, 150.3990
307.1877, 148.0597
307.6698, 145.1982
308.1519, 142.6895
308.6341, 141.0628
309.1162, 139.9256
309.5983, 138.5728
310.0804, 136.7818
310.5625, 134.9648
311.0446, 133.7285
311.5268, 133.0645
312.0089, 132.4920
312.4910, 131.9123
312.9731, 131.3794
313.4552, 130.9661
313.9373, 130.6862
314.4195, 130.4676
314.9016, 130.2493
315.3837, 130.0334
315.8658, 129.8502
316.3479, 129.7435
316.8300, 129.6408
317.3121, 129.4527
317.7943, 129.1862
318.2764, 128.9644
318.7585, 128.8570
319.2406, 128.8727
319.7227, 128.9808
320.2048, 129.2917
320.6870, 129.5841
321.1691, 129.6284
321.6512, 129.5253
322.1333, 129.6931
322.6154, 130.4396
323.0975, 131.4381
323.5797, 131.8218
324.0618, 131.4001
324.5439, 130.9183
325.0260, 130.4518
325.5081, 130.1284
325.9902, 130.2280
326.4724, 130.8764
326.9545, 131.8388
327.4366, 132.8467
327.9187, 133.9675
328.4008, 134.7887
328.8829, 135.0579
329.3651, 135.0647
329.8472, 135.0587
330.3293, 135.0824
330.8114, 135.3011
331.2935, 135.9944
331.7756, 137.2059
332.2578, 137.9955
332.7399, 137.8598
333.2220, 137.6475
333.7041, 138.0240
334.1862, 138.9610
334.6683, 140.0137
335.1505, 140.9196
335.6326, 141.6679
336.1147, 142.2310
336.5968, 142.5801
337.0789, 142.8084
337.5610, 142.8651
338.0432, 142.8294
338.5253, 142.9051
339.0074, 143.2082
339.4895, 143.6302
339.9716, 143.8763
340.4537, 143.9519
340.9359, 143.8835
341.4180, 143.6165
341.9001, 143.2292
342.3822, 142.7707
342.8643, 142.2560
343.3464, 141.8147
343.8286, 141.6607
344.3107, 141.9756
344.7928, 142.0370
345.2749, 141.7430
345.7570, 141.2617
346.2391, 140.5805
346.7213, 139.7726
347.2034, 139.1531
347.6855, 139.0578
348.1676, 139.5244
348.6497, 139.7152
349.1318, 139.3984
349.6140, 139.0901
350.0961, 139.0605
350.5782, 139.2162
351.0603, 139.2938
351.5424, 139.1230
352.0245, 138.7940
352.5067, 138.6983
352.9888, 138.8279
353.4709, 139.1975
353.9530, 140.0852
354.4351, 141.1056
354.9172, 141.7607
355.3994, 141.8849
355.8815, 141.7813
356.3636, 141.9651
356.8457, 142.5846
357.3278, 143.2162
357.8099, 143.7537
358.2920, 144.3789
358.7741, 145.2475
359.2563, 146.3513
359.7384, 147.5427
360.2205, 148.6938
360.7026, 149.8065
361.1847, 150.8564
361.6668, 151.7028
362.1490, 152.6330
362.6311, 153.7511
363.1132, 155.0282
363.5953, 156.3878
364.0774, 157.7917
364.5595, 159.2278
365.0417, 160.6393
365.5238, 161.9075
366.0059, 163.3233
366.4880, 164.9720
366.9701, 166.7422
367.4522, 168.5722
367.9344, 170.4221
368.4165, 172.2178
368.8986, 173.8397
369.3807, 175.2331
369.8628, 176.5886
370.3449, 178.0182
370.8271, 179.3325
371.3092, 180.5143
371.7913, 181.5092
372.2734, 182.2054
372.7555, 182.4343
373.2376, 182.2124
373.7198, 182.0994
374.2019, 182.5242
374.6840, 182.4930
375.1661, 181.6615
375.6482, 180.2031
376.1303, 178.3733
376.6125, 176.2558
377.0946, 173.9057
377.5767, 171.4205
378.0588, 168.7753
378.5409, 166.0611
379.0230, 163.2399
379.5052, 160.3943
379.9873, 157.6089
380.4694, 154.8981
380.9515, 152.1478
381.4336, 149.1147
381.9157, 145.8066
382.3979, 142.9996
382.8800, 141.1396
383.3621, 139.4063
383.8442, 137.2237
384.3263, 134.6883
384.8084, 132.1057
385.2906, 129.4362
385.7727, 126.8913
386.2548, 125.0391
386.7369, 124.0527
387.2190, 123.1561
387.7011, 121.8430
388.1833, 120.3587
388.6654, 119.0540
389.1475, 118.0427
389.6296, 117.1362
390.1117, 116.1074
390.5938, 114.9938
391.0760, 114.1721
391.5581, 113.9516
392.0402, 113.8434
392.5223, 113.0730
393.0044, 111.5844
393.4865, 110.2885
393.9687, 109.5903
394.4508, 109.2912
394.9329, 109.1871
395.4150, 109.2774
395.8971, 109.2405
396.3792, 108.6970
396.8614, 107.7012
397.3435, 106.9692
397.8256, 106.6656
398.3077, 106.5085
398.7898, 106.2798
399.2719, 106.0290
399.7540, 105.9935
400.2361, 106.3467
400.7183, 106.9024
401.2004, 107.1002
401.6825, 106.7916
402.1646, 106.4517
402.6467, 106.1340
403.1288, 105.8399
403.6110, 105.5300
404.0931, 105.2082
404.5752, 105.0150
405.0573, 105.1703
405.5394, 105.8249
406.0215, 106.0326
406.5037, 105.2746
406.9858, 104.6217
407.4679, 104.7173
407.9500, 105.3622
408.4321, 105.9548
408.9142, 106.1097
409.3964, 105.9522
409.8785, 106.0686
410.3606, 106.7524
410.8427, 107.3415
411.3248, 107.7272
411.8069, 108.0248
412.2891, 108.3166
412.7712, 108.6361
413.2533, 109.0176
413.7354, 109.5325
414.2175, 110.2421
414.6996, 110.8459
415.1818, 111.1454
415.6639, 111.5205
416.1460, 112.1647
416.6281, 113.0106
417.1102, 113.8652
417.5923, 114.6093
418.0745, 115.2753
418.5566, 115.9850
419.0387, 116.7434
419.5208, 117.5287
420.0029, 118.5337
420.4850, 119.4522
420.9672, 119.8803
421.4493, 119.7063
421.9314, 119.4917
422.4135, 119.9490
422.8956, 121.0293
423.3777, 121.6824
423.8599, 121.4585
424.3420, 121.1807
424.8241, 121.6045
425.3062, 122.5343
425.7883, 123.2592
426.2704, 123.2575
426.7526, 122.9833
427.2347, 123.1559
427.7168, 123.8057
428.1989, 124.4321
428.6810, 124.6425
429.1631, 124.7355
429.6453, 125.3863
430.1274, 126.9004
430.6095, 128.2833
431.0916, 128.9406
431.5737, 129.1304
432.0558, 129.3970
432.5380, 129.8904
433.0201, 130.3459
433.5022, 130.4237
433.9843, 130.0601
434.4664, 129.7728
434.9485, 129.6803
435.4307, 129.5808
435.9128, 129.3014
436.3949, 128.8897
436.8770, 128.5590
437.3591, 128.4632
437.8412, 128.4826
438.3234, 128.1580
438.8055, 127.1899
439.2876, 126.2535
439.7697, 125.3180
440.2518, 124.4794
440.7339, 123.8955
441.2160, 123.5673
441.6982, 123.2820
442.1803, 122.7846
442.6624, 122.0280
443.1445, 121.3996
443.6266, 120.7877
444.1087, 120.4283
444.5909, 120.6172
445.0730, 121.0702
445.5551, 121.3083
446.0372, 121.0659
446.5193, 120.5763
447.0014, 120.3644
447.4836, 120.5192
447.9657, 120.6875
448.4478, 120.9830
448.9299, 121.1395
449.4120, 120.8143
449.8941, 120.0722
450.3763, 119.5011
450.8584, 119.7538
451.3405, 120.5900
451.8226, 120.9535
452.3047, 120.7053
452.7868, 120.2800
453.2690, 119.8193
453.7511, 119.3687
454.2332, 119.0022
454.7153, 118.7489
455.1974, 118.5583
455.6795, 118.4270
456.1617, 118.3334
456.6438, 118.1663
457.1259, 117.8684
457.6080, 117.5429
458.0901, 117.3778
458.5722, 117.3798
459.0544, 117.1997
459.5365, 116.6420
460.0186, 115.9751
460.5007, 115.3800
460.9828, 114.8817
461.4649, 114.5425
461.9471, 114.4522
462.4292, 114.4962
462.9113, 114.1831
463.3934, 113.0975
463.8755, 112.2235
464.3576, 111.7709
464.8398, 111.5206
465.3219, 111.2689
465.8040, 110.9660
466.2861, 110.6716
466.7682, 110.4781
467.2503, 110.4197
467.7325, 110.1021
468.2146, 109.1814
468.6967, 108.3647
469.1788, 107.8406
469.6609, 107.5422
470.1430, 107.3790
470.6252, 107.3151
471.1073, 107.3073
471.5894, 107.3040
472.0715, 107.3332
472.5536, 107.2460
473.0357, 106.9525
473.5179, 106.5901
474.0000, 106.2140
474.4821, 105.8356
474.9642, 105.4619
475.4463, 105.0585
475.9284, 104.6793
476.4106, 104.4355
476.8927, 104.3321
477.3748, 104.3497
477.8569, 104.5971
478.3390, 104.8969
478.8211, 104.9810
479.3033, 104.8176
479.7854, 104.5162
480.2675, 103.8859
480.7496, 103.2152
481.2317, 103.1392
481.7138, 103.7913
482.1959, 104.5340
482.6780, 104.8053
483.1602, 104.6002
483.6423, 104.4349
484.1244, 104.4431
484.6065, 104.3451
485.0886, 103.8150
485.5707, 103.1451
486.0529, 102.9123
486.5350, 103.3263
487.0171, 103.9978
487.4992, 104.2743
487.9813, 103.9683
488.4634, 103.7788
488.9456, 103.7627
489.4277, 103.7882
489.9098, 103.8787
490.3919, 103.9566
490.8740, 103.8459
491.3561, 103.4102
491.8383, 102.8058
492.3204, 102.4676
492.8025, 102.4650
493.2846, 102.5391
493.7667, 102.9462
494.2488, 103.1857
494.7310, 102.7108
495.2131, 101.5942
495.6952, 100.6582
496.1773, 100.6277
496.6594, 101.2007
497.1415, 101.5879
497.6237, 101.7707
498.1058, 101.7754
498.5879, 101.5630
499.0700, 101.1898
499.5521, 100.7497
500.0342, 100.1673
500.5164, 99.71130
500.9985, 99.51433
501.4806, 99.53055
501.9627, 99.75981
502.4448, 100.2065
502.9269, 100.5746
503.4091, 100.5485
503.8912, 100.1100
504.3733, 99.83527
504.8554, 99.82981
505.3375, 99.85019
505.8196, 99.85134
506.3018, 99.81044
506.7839, 99.66294
507.2660, 99.39371
507.7481, 99.13040
508.2302, 99.11813
508.7123, 99.52540
509.1945, 99.57185
509.6766, 98.79748
510.1587, 98.12165
510.6408, 97.93991
511.1229, 98.10685
511.6050, 98.31336
512.0872, 98.41174
512.5693, 98.45789
513.0514, 98.55249
513.5335, 98.70190
514.0156, 98.85862
514.4977, 99.05799
514.9799, 99.21278
515.4620, 99.23728
515.9441, 99.14733
516.4262, 99.05173
516.9083, 98.98234
517.3904, 98.93924
517.8726, 98.88386
518.3547, 98.82719
518.8368, 98.93078
519.3189, 99.31986
519.8010, 99.85706
520.2831, 100.2175
520.7653, 100.3560
521.2474, 100.4974
521.7295, 100.7278
522.2116, 100.9411
522.6937, 101.0253
523.1758, 100.9902
523.6580, 100.9129
524.1401, 100.8304
524.6222, 100.7764
525.1043, 100.9387
525.5864, 101.5628
526.0685, 102.0540
526.5507, 102.3117
527.0328, 102.4608
527.5149, 102.5798
527.9970, 102.6912
528.4791, 102.7993
528.9612, 102.8710
529.4434, 102.9362
529.9255, 103.2289
530.4076, 103.8995
530.8897, 104.4459
531.3718, 104.4210
531.8539, 104.2723
532.3361, 104.5152
532.8182, 105.2796
533.3003, 106.0565
533.7824, 106.4839
534.2645, 106.6944
534.7466, 106.9528
535.2288, 107.2892
535.7109, 107.7298
536.1930, 108.3479
536.6751, 109.0915
537.1572, 109.6312
537.6393, 109.7879
538.1215, 109.9810
538.6036, 110.3116
539.0857, 110.7525
539.5678, 111.3057
540.0499, 111.9540
540.5320, 112.6094
541.0142, 113.1785
541.4963, 113.6595
541.9784, 114.0992
542.4604, 114.2757
542.9426, 114.6824
543.4247, 115.6376
543.9068, 116.7656
544.3889, 117.5904
544.8710, 117.9994
545.3531, 118.3600
545.8353, 119.1661
546.3174, 120.3603
546.7995, 121.1707
547.2816, 121.3759
547.7637, 121.5780
548.2458, 122.1736
548.7280, 123.0092
549.2101, 123.8498
549.6922, 124.5882
550.1743, 125.4685
550.6564, 126.8186
551.1385, 128.3937
551.6207, 129.6439
552.1028, 130.4491
552.5849, 131.1633
553.0670, 132.1280
553.5491, 133.3483
554.0313, 134.4087
554.5134, 135.0918
554.9955, 135.9008
555.4776, 137.0687
555.9597, 138.4027
556.4418, 139.6496
556.9240, 140.7511
557.4061, 141.8052
557.8882, 142.9322
558.3703, 144.1280
558.8524, 145.3248
559.3345, 146.4951
559.8167, 147.6920
560.2988, 148.9765
560.7809, 150.2745
561.2630, 151.5336
561.7451, 152.7450
562.2272, 153.8163
562.7094, 154.5924
563.1915, 155.1579
563.6736, 155.7783
564.1557, 156.4773
564.6378, 157.2869
565.1199, 158.2912
565.6021, 159.4279
566.0842, 160.4240
566.5663, 161.2653
567.0484, 161.9905
567.5305, 162.4930
568.0126, 162.9444
568.4948, 163.6997
568.9769, 164.7466
569.4590, 165.5715
569.9411, 165.6407
570.4232, 165.0043
570.9053, 164.6021
571.3875, 164.4268
571.8696, 164.5220
572.3517, 165.2093
572.8338, 165.9605
573.3159, 166.3154
573.7980, 166.1955
574.2802, 165.7799
574.7623, 165.1294
575.2444, 164.3007
575.7265, 163.5237
576.2086, 162.8011
576.6907, 162.1196
577.1729, 161.4673
577.6550, 160.8670
578.1371, 160.3913
578.6192, 160.1031
579.1013, 159.6601
579.5834, 158.8381
580.0656, 157.8504
580.5477, 156.9898
581.0298, 156.2380
581.5119, 155.2512
581.9940, 153.7464
582.4761, 151.9718
582.9583, 150.7799
583.4404, 150.7644
583.9225, 150.4350
584.4046, 149.5378
584.8867, 148.5267
585.3688, 147.6064
585.8510, 146.8368
586.3331, 146.2989
586.8152, 146.1155
587.2973, 146.0591
587.7794, 145.5106
588.2615, 144.3534
