##NAMES=Footemineite
##RRUFFID=R090005
##IDEAL CHEMISTRY=Ca_2_Mn^2+^_5_Be_4_(PO_4_)_6_(OH)_4_&#183;6H_2_O
##LOCALITY=Foote mine, North Carolina, USA
##OWNER=RRUFF
##SOURCE=Luiz Menezes
##DESCRIPTION=Pale yellow to light green prismatic or barrel-shaped crystals associated with colorless albite.
##STATUS=The identification of this mineral has been confirmed by single-crystal X-ray diffraction.
##URL=rruff.info/R090005
90.52570, 0.0000000E+00
91.00781, 10.38348
91.48993, 10.80669
91.97205, 10.97624
92.45416, 10.63181
92.93628, 10.04493
93.41840, 9.846842
93.90051, 10.22422
94.38263, 10.87427
94.86475, 11.44175
95.34686, 11.92439
95.82898, 12.10805
96.31110, 11.62124
96.79321, 10.53932
97.27533, 9.669203
97.75745, 9.181640
98.23956, 9.048951
98.72168, 9.292818
99.20380, 10.01311
99.68591, 10.78939
100.1680, 11.11988
100.6501, 10.90955
101.1323, 10.70560
101.6144, 10.68781
102.0965, 10.87941
102.5786, 10.94226
103.0607, 10.75963
103.5428, 10.55096
104.0250, 10.72563
104.5071, 11.53979
104.9892, 12.30347
105.4713, 12.71561
105.9534, 12.48166
106.4355, 12.53948
106.9177, 12.95917
107.3998, 13.67188
107.8819, 14.48305
108.3640, 15.44289
108.8461, 16.45139
109.3282, 17.47682
109.8104, 18.50257
110.2925, 19.54071
110.7746, 20.48170
111.2567, 21.36503
111.7388, 22.54581
112.2209, 24.31983
112.7031, 26.25042
113.1852, 28.05660
113.6673, 29.27862
114.1494, 30.74232
114.6315, 32.89643
115.1136, 35.80196
115.5958, 38.30770
116.0779, 39.71093
116.5600, 40.62797
117.0421, 41.74495
117.5242, 43.51208
118.0063, 45.39100
118.4885, 47.07230
118.9706, 48.47549
119.4527, 49.97315
119.9348, 51.62639
120.4169, 53.50988
120.8990, 55.79385
121.3812, 58.54594
121.8633, 61.74147
122.3454, 65.46164
122.8275, 69.98412
123.3096, 74.41494
123.7917, 77.61547
124.2739, 79.93234
124.7560, 82.63767
125.2381, 86.85188
125.7202, 91.96917
126.2023, 96.94022
126.6844, 101.6780
127.1666, 106.0561
127.6487, 109.7279
128.1308, 112.7441
128.6129, 115.6568
129.0950, 119.2839
129.5771, 123.3019
130.0593, 126.5058
130.5414, 128.1466
131.0235, 128.8755
131.5056, 130.0853
131.9877, 131.2927
132.4698, 132.4407
132.9520, 134.3902
133.4341, 137.0918
133.9162, 139.5970
134.3983, 141.1438
134.8804, 142.0054
135.3625, 144.5839
135.8447, 149.1629
136.3268, 154.6855
136.8089, 160.0351
137.2910, 165.3437
137.7731, 169.9206
138.2552, 173.3746
138.7374, 175.5436
139.2195, 177.8688
139.7016, 180.3935
140.1837, 183.0538
140.6658, 185.5943
141.1479, 187.8248
141.6301, 190.3989
142.1122, 193.6671
142.5943, 197.8399
143.0764, 202.1953
143.5585, 206.9653
144.0406, 211.9006
144.5228, 216.3897
145.0049, 220.8554
145.4870, 224.3316
145.9691, 226.3634
146.4512, 227.7498
146.9333, 226.4268
147.4155, 221.4705
147.8976, 213.2404
148.3797, 205.4683
148.8618, 197.4871
149.3439, 190.3391
149.8260, 184.6806
150.3082, 179.6540
150.7903, 176.9783
151.2724, 177.3211
151.7545, 180.7469
152.2366, 184.3093
152.7188, 187.6731
153.2009, 191.2383
153.6830, 195.2890
154.1651, 199.6353
154.6472, 204.6819
155.1293, 210.6053
155.6115, 217.5222
156.0936, 224.4895
156.5757, 231.5765
157.0578, 238.5813
157.5399, 245.1846
158.0220, 250.2405
158.5042, 255.8448
158.9863, 262.9083
159.4684, 271.7897
159.9505, 280.7446
160.4326, 288.9883
160.9147, 296.9711
161.3969, 305.3599
161.8790, 314.1896
162.3611, 323.6290
162.8432, 333.8033
163.3253, 344.6328
163.8074, 356.1606
164.2896, 368.0864
164.7717, 380.6983
165.2538, 394.5777
165.7359, 410.2921
166.2180, 427.1777
166.7001, 445.0373
167.1823, 464.1716
167.6644, 483.0283
168.1465, 501.3510
168.6286, 518.7332
169.1107, 534.0264
169.5928, 547.5977
170.0750, 558.3283
170.5571, 565.2147
171.0392, 567.6600
171.5213, 566.7252
172.0034, 562.2510
172.4855, 554.7067
172.9677, 546.2980
173.4498, 538.8304
173.9319, 531.2282
174.4140, 521.9545
174.8961, 510.3836
175.3782, 497.2292
175.8604, 482.9279
176.3425, 467.3979
176.8246, 450.6427
177.3067, 431.3468
177.7888, 410.6494
178.2709, 391.1651
178.7531, 373.3465
179.2352, 357.0925
179.7173, 341.7049
180.1994, 327.1582
180.6815, 314.9877
181.1636, 307.3015
181.6458, 303.2401
182.1279, 300.5532
182.6100, 298.8216
183.0921, 297.8271
183.5742, 296.8984
184.0563, 296.0130
184.5385, 295.9062
185.0206, 297.7338
185.5027, 301.1684
185.9848, 304.5631
186.4669, 307.4552
186.9490, 309.8795
187.4312, 312.1451
187.9133, 314.2661
188.3954, 315.8701
188.8775, 316.6080
189.3596, 316.4724
189.8417, 315.3445
190.3239, 313.3498
190.8060, 310.3659
191.2881, 305.7179
191.7702, 299.3452
192.2523, 291.7961
192.7344, 283.4977
193.2166, 274.4873
193.6987, 265.1434
194.1808, 255.1430
194.6629, 244.6584
195.1450, 235.1893
195.6271, 226.7586
196.1093, 219.2693
196.5914, 212.5455
197.0735, 206.5663
197.5556, 201.5564
198.0377, 197.6992
198.5198, 194.9626
199.0020, 192.8816
199.4841, 191.4209
199.9662, 190.6673
200.4483, 190.9443
200.9304, 192.4039
201.4125, 193.9554
201.8947, 195.0279
202.3768, 195.5519
202.8589, 196.4638
203.3410, 197.7649
203.8231, 199.4664
204.3052, 201.7256
204.7874, 204.7361
205.2695, 207.5458
205.7516, 209.6337
206.2337, 210.8692
206.7158, 212.3569
207.1979, 214.3259
207.6801, 216.3456
208.1622, 217.6171
208.6443, 218.2479
209.1264, 217.8548
209.6085, 216.1844
210.0906, 213.0963
210.5728, 209.3169
211.0549, 204.7569
211.5370, 199.6053
212.0191, 194.2827
212.5012, 188.5246
212.9833, 183.1439
213.4655, 178.6333
213.9476, 175.1604
214.4297, 171.8331
214.9118, 168.6011
215.3939, 165.5296
215.8760, 162.6234
216.3581, 159.7367
216.8403, 157.3629
217.3224, 155.9061
217.8045, 155.7737
218.2866, 155.2123
218.7687, 153.9317
219.2508, 152.2961
219.7330, 151.3940
220.2151, 151.5946
220.6972, 151.8391
221.1793, 151.4905
221.6614, 149.9985
222.1435, 149.4259
222.6257, 150.0848
223.1078, 151.5942
223.5899, 152.8688
224.0720, 153.5780
224.5541, 154.5934
225.0362, 156.3586
225.5184, 159.0478
226.0005, 162.0503
226.4826, 165.4927
226.9647, 169.2142
227.4468, 172.8367
227.9289, 176.1224
228.4111, 179.6453
228.8932, 183.7630
229.3753, 188.9279
229.8574, 193.6217
230.3395, 197.8680
230.8216, 201.5840
231.3038, 204.5810
231.7859, 206.7134
232.2680, 208.3039
232.7501, 209.4913
233.2322, 210.2943
233.7143, 210.6106
234.1965, 210.1976
234.6786, 209.3458
235.1607, 208.7992
235.6428, 208.3312
236.1249, 208.4907
236.6070, 209.5634
237.0892, 211.8515
237.5713, 214.3511
238.0534, 216.8548
238.5355, 219.6201
239.0176, 223.3666
239.4997, 228.6597
239.9819, 234.2047
240.4640, 239.3550
240.9461, 243.7410
241.4282, 248.7049
241.9103, 254.4798
242.3924, 260.7591
242.8746, 266.8840
243.3567, 273.1456
243.8388, 278.8217
244.3209, 283.7574
244.8030, 288.2404
245.2851, 291.0666
245.7673, 291.8669
246.2494, 291.1703
246.7315, 290.0952
247.2136, 288.7308
247.6957, 286.8552
248.1778, 284.4393
248.6600, 281.6673
249.1421, 277.7204
249.6242, 271.8516
250.1063, 265.1787
250.5884, 259.9035
251.0705, 256.5312
251.5527, 253.6780
252.0348, 250.8745
252.5169, 247.9929
252.9990, 245.5464
253.4811, 243.6159
253.9632, 242.0384
254.4454, 240.5338
254.9275, 238.9738
255.4096, 237.7085
255.8917, 236.8914
256.3738, 236.6133
256.8560, 236.3675
257.3381, 236.0266
257.8202, 235.8224
258.3023, 236.1538
258.7844, 237.2209
259.2665, 238.3895
259.7487, 239.5554
260.2308, 240.7737
260.7129, 241.5196
261.1950, 241.6224
261.6771, 241.4383
262.1592, 241.5942
262.6414, 242.5370
263.1235, 242.6806
263.6056, 241.5238
264.0877, 239.0004
264.5698, 235.9822
265.0519, 232.4602
265.5341, 228.4761
266.0162, 223.8790
266.4983, 218.4074
266.9804, 213.2205
267.4625, 208.5177
267.9446, 204.3372
268.4268, 200.6590
268.9089, 197.6768
269.3910, 194.9817
269.8731, 191.9811
270.3552, 188.4256
270.8373, 185.6777
271.3195, 184.1665
271.8016, 183.7880
272.2837, 183.4072
272.7658, 183.0367
273.2479, 182.6210
273.7300, 182.0447
274.2122, 181.2553
274.6943, 180.6440
275.1764, 180.2887
275.6585, 180.1784
276.1406, 180.2588
276.6227, 180.5380
277.1049, 180.9858
277.5870, 181.5904
278.0691, 182.3569
278.5512, 183.2600
279.0333, 184.3766
279.5154, 185.5867
279.9976, 186.4141
280.4797, 186.7849
280.9618, 187.1618
281.4439, 188.0369
281.9260, 189.4141
282.4081, 190.2791
282.8903, 190.3681
283.3724, 190.0196
283.8545, 190.0654
284.3366, 190.5393
284.8187, 191.0455
285.3008, 191.2173
285.7830, 191.1090
286.2651, 191.3753
286.7472, 192.1472
287.2293, 193.1785
287.7114, 194.0892
288.1935, 194.8781
288.6757, 195.5027
289.1578, 195.7027
289.6399, 195.6371
290.1220, 196.1596
290.6041, 197.3899
291.0862, 198.9763
291.5684, 200.4417
292.0505, 201.8113
292.5326, 203.2539
293.0147, 205.0980
293.4968, 207.0919
293.9789, 208.5701
294.4611, 209.5065
294.9432, 209.9103
295.4253, 209.6432
295.9074, 208.7935
296.3895, 207.7532
296.8716, 206.6275
297.3538, 205.4303
297.8359, 204.2021
298.3180, 202.9359
298.8001, 201.5771
299.2822, 199.9662
299.7643, 198.1934
300.2465, 196.5227
300.7286, 195.1224
301.2107, 193.8279
301.6928, 192.3386
302.1749, 190.6845
302.6570, 189.1170
303.1392, 187.9392
303.6213, 186.9798
304.1034, 185.9351
304.5855, 184.4654
305.0676, 183.1601
305.5497, 182.6628
306.0319, 182.8806
306.5140, 183.3070
306.9961, 183.5280
307.4782, 183.7973
307.9603, 184.4070
308.4424, 185.3959
308.9246, 186.7845
309.4067, 188.8384
309.8888, 191.3396
310.3709, 193.7114
310.8530, 195.4421
311.3351, 196.9913
311.8173, 198.7220
312.2994, 200.7050
312.7815, 202.8954
313.2636, 205.6972
313.7457, 208.6385
314.2278, 210.8831
314.7100, 211.7876
315.1921, 212.0695
315.6742, 212.2045
316.1563, 212.3062
316.6384, 211.8665
317.1205, 210.4315
317.6027, 208.3994
318.0848, 206.2783
318.5669, 203.8544
319.0490, 201.7020
319.5311, 200.0226
320.0132, 198.8280
320.4954, 198.0573
320.9775, 197.9210
321.4596, 198.0951
321.9417, 198.3096
322.4238, 198.7198
322.9059, 198.9452
323.3881, 198.5612
323.8702, 197.6817
324.3523, 197.6087
324.8344, 198.9856
325.3165, 200.9233
325.7986, 202.9057
326.2808, 205.0014
326.7629, 207.0165
327.2450, 208.8542
327.7271, 210.5806
328.2092, 212.4648
328.6913, 214.9353
329.1735, 217.1850
329.6556, 218.9178
330.1377, 219.9072
330.6198, 220.8011
331.1019, 221.5664
331.5840, 222.2404
332.0662, 222.9564
332.5483, 224.0948
333.0304, 224.7242
333.5125, 224.5538
333.9946, 223.5491
334.4767, 221.8534
334.9589, 219.1033
335.4410, 216.0390
335.9231, 213.6739
336.4052, 212.3804
336.8873, 210.8622
337.3694, 208.7946
337.8515, 206.2163
338.3336, 203.5090
338.8158, 200.5333
339.2979, 197.7210
339.7800, 195.5020
340.2621, 193.9901
340.7442, 192.4278
341.2263, 190.7379
341.7085, 188.9101
342.1906, 186.7345
342.6727, 184.0304
343.1548, 181.9913
343.6369, 181.8416
344.1190, 183.4361
344.6012, 184.3289
345.0833, 184.1223
345.5654, 183.3623
346.0475, 182.7126
346.5296, 182.2067
347.0117, 182.4211
347.4939, 183.9478
347.9760, 186.4514
348.4581, 188.8709
348.9402, 191.1107
349.4223, 193.5191
349.9044, 196.6118
350.3866, 200.2672
350.8687, 204.0825
351.3508, 207.4697
351.8329, 211.1440
352.3150, 216.5805
352.7971, 223.7580
353.2793, 231.0285
353.7614, 237.0805
354.2435, 242.4975
354.7256, 248.2001
355.2077, 254.1002
355.6898, 260.7954
356.1720, 269.2464
356.6541, 279.1719
357.1362, 289.2635
357.6183, 298.5572
358.1004, 307.8919
358.5826, 318.1496
359.0647, 329.8632
359.5468, 341.5525
360.0289, 352.0568
360.5110, 361.9963
360.9931, 372.5980
361.4753, 384.6930
361.9574, 397.1528
362.4395, 409.2227
362.9216, 420.6614
363.4037, 432.8358
363.8858, 446.9955
364.3680, 461.7690
364.8501, 475.7716
365.3322, 488.0225
365.8143, 500.0051
366.2964, 511.9630
366.7785, 523.9655
367.2607, 536.0335
367.7428, 548.8511
368.2249, 561.3932
368.7070, 573.0934
369.1891, 584.5892
369.6712, 594.2820
370.1534, 602.1237
370.6355, 608.4532
371.1176, 612.6464
371.5997, 615.7923
372.0818, 617.0150
372.5639, 616.3350
373.0461, 614.2979
373.5282, 608.2082
374.0103, 597.2255
374.4924, 582.8495
374.9745, 567.4527
375.4566, 551.0322
375.9388, 533.2491
376.4209, 513.8826
376.9030, 492.8088
377.3851, 472.1499
377.8672, 451.6698
378.3493, 431.5717
378.8315, 411.9446
379.3136, 392.6036
379.7957, 375.3369
380.2778, 360.7076
380.7599, 347.9178
381.2420, 334.2790
381.7242, 320.0150
382.2063, 306.7897
382.6884, 295.8543
383.1705, 286.9308
383.6526, 279.6585
384.1347, 274.1948
384.6169, 269.6046
385.0990, 265.0304
385.5811, 260.4743
386.0632, 256.1632
386.5453, 251.8818
387.0274, 248.0311
387.5096, 245.2063
387.9917, 243.4220
388.4738, 242.4599
388.9559, 242.4508
389.4380, 243.1089
389.9201, 244.0845
390.4023, 245.4240
390.8844, 246.8684
391.3665, 248.1015
391.8486, 249.2609
392.3307, 250.8078
392.8128, 253.2619
393.2950, 255.9798
393.7771, 258.4869
394.2592, 260.4833
394.7413, 262.8379
395.2234, 266.4701
395.7055, 270.4859
396.1877, 273.5049
396.6698, 274.4282
397.1519, 275.0651
397.6340, 276.1468
398.1161, 277.8412
398.5982, 278.6726
399.0804, 278.0588
399.5625, 276.8468
400.0446, 275.6789
400.5267, 275.3645
401.0088, 273.8701
401.4909, 270.4388
401.9731, 265.6610
402.4552, 262.1007
402.9373, 260.6608
403.4194, 258.9662
403.9015, 255.6562
404.3836, 250.0634
404.8658, 245.5066
405.3479, 242.1734
405.8300, 239.6761
406.3121, 237.4923
406.7942, 235.6408
407.2763, 233.8905
407.7585, 231.8113
408.2406, 229.7225
408.7227, 229.6172
409.2048, 231.6057
409.6869, 234.5704
410.1690, 237.7741
410.6512, 241.1536
411.1333, 244.4423
411.6154, 247.3769
412.0975, 250.6053
412.5796, 255.4721
413.0617, 261.6992
413.5439, 267.9642
414.0260, 273.8897
414.5081, 279.3271
414.9902, 283.9728
415.4723, 287.8217
415.9544, 291.0557
416.4366, 293.8879
416.9187, 296.1597
417.4008, 297.6264
417.8829, 297.1903
418.3650, 296.8046
418.8471, 297.2989
419.3293, 298.7211
419.8114, 301.3462
420.2935, 305.7486
420.7756, 311.1103
421.2577, 316.6996
421.7398, 322.0025
422.2220, 328.4598
422.7041, 336.8621
423.1862, 346.5921
423.6683, 356.5480
424.1504, 366.5738
424.6325, 377.0110
425.1147, 387.9136
425.5968, 399.4792
426.0789, 411.0190
426.5610, 422.7799
427.0431, 434.2999
427.5252, 445.2340
428.0074, 456.1021
428.4895, 465.2064
428.9716, 472.4005
429.4537, 477.5684
429.9358, 480.2159
430.4179, 480.3106
430.9001, 478.0194
431.3822, 473.5548
431.8643, 466.9301
432.3464, 457.1294
432.8285, 443.8665
433.3106, 428.3697
433.7928, 411.4438
434.2749, 393.2942
434.7570, 375.6380
435.2391, 359.0149
435.7212, 343.2020
436.2033, 327.5381
436.6855, 312.2213
437.1676, 297.8584
437.6497, 285.2732
438.1318, 273.8500
438.6139, 262.5464
439.0960, 251.0345
439.5782, 240.2267
440.0603, 230.8453
440.5424, 222.6674
441.0245, 215.4127
441.5066, 209.3259
441.9887, 203.7245
442.4709, 198.1843
442.9530, 192.7026
443.4351, 187.6089
443.9172, 183.3724
444.3993, 179.3995
444.8814, 175.2909
445.3636, 170.0850
445.8457, 165.8902
446.3278, 163.4644
446.8099, 162.2690
447.2920, 160.8972
447.7741, 159.0508
448.2563, 157.3033
448.7384, 155.7948
449.2205, 154.4827
449.7026, 153.6841
450.1847, 153.7476
450.6668, 153.9017
451.1490, 153.2066
451.6311, 151.1639
452.1132, 150.3213
452.5953, 151.4402
453.0774, 153.6928
453.5595, 154.7704
454.0417, 154.5476
454.5238, 154.3445
455.0059, 154.9602
455.4880, 156.2384
455.9701, 157.4267
456.4522, 158.4983
456.9344, 159.4686
457.4165, 160.2043
457.8986, 160.8411
458.3807, 161.7253
458.8628, 162.9377
459.3449, 164.4906
459.8271, 166.7736
460.3092, 169.5523
460.7913, 171.8650
461.2734, 172.9701
461.7555, 173.4703
462.2376, 173.8549
462.7198, 174.1897
463.2019, 174.3970
463.6840, 174.3333
464.1661, 174.1529
464.6482, 174.0430
465.1303, 174.3696
465.6125, 174.4366
466.0946, 173.9125
466.5767, 172.8665
467.0588, 172.0042
467.5409, 171.5049
468.0230, 171.0869
468.5052, 170.6408
468.9873, 170.1875
469.4694, 169.6534
469.9515, 169.0061
470.4336, 168.3118
470.9157, 167.6117
471.3979, 166.8410
471.8800, 166.3035
472.3621, 166.0555
472.8442, 166.1054
473.3263, 166.5823
473.8084, 167.5383
474.2906, 168.5134
474.7727, 169.1786
475.2548, 169.5744
475.7369, 169.8313
476.2190, 169.9000
476.7011, 170.0782
477.1833, 170.8061
477.6654, 171.9453
478.1475, 173.1172
478.6296, 174.1139
479.1117, 175.1027
479.5938, 176.1630
480.0760, 177.3304
480.5581, 178.7930
481.0402, 181.0554
481.5223, 183.4353
482.0044, 185.2681
482.4865, 186.0495
482.9687, 187.2864
483.4508, 189.7760
483.9329, 192.9598
484.4150, 196.0035
484.8971, 198.2492
485.3792, 200.9048
485.8614, 204.4991
486.3435, 208.9476
486.8256, 212.9819
487.3077, 216.0774
487.7898, 219.3198
488.2719, 223.3813
488.7541, 228.4981
489.2362, 233.5302
489.7183, 238.7611
490.2004, 243.5266
490.6825, 246.8889
491.1646, 248.8006
491.6468, 249.8468
492.1289, 250.2176
492.6110, 249.8484
493.0931, 248.6825
493.5752, 246.7036
494.0573, 243.5734
494.5395, 238.6387
495.0216, 232.4381
495.5037, 225.8195
495.9858, 218.9429
496.4679, 212.0036
496.9500, 205.3083
497.4322, 198.7247
497.9143, 192.1530
498.3964, 185.0726
498.8785, 178.4099
499.3606, 172.9875
499.8427, 168.5289
500.3249, 164.1183
500.8070, 158.6925
501.2891, 153.7478
501.7712, 150.2599
502.2533, 148.9245
502.7354, 147.3434
503.2176, 144.8946
503.6997, 142.3587
504.1818, 140.5434
504.6639, 139.7784
505.1460, 139.1179
505.6281, 138.4112
506.1103, 137.7068
506.5924, 137.1876
507.0745, 136.8152
507.5566, 136.7564
508.0387, 137.3194
508.5208, 138.4466
509.0030, 138.9314
509.4851, 138.7153
509.9672, 138.1853
510.4493, 137.6165
510.9314, 137.0556
511.4135, 136.6515
511.8957, 136.4343
512.3778, 136.4151
512.8599, 136.4698
513.3420, 136.7137
513.8242, 137.4783
514.3063, 139.5583
514.7884, 141.8031
515.2705, 143.1787
515.7526, 143.6066
516.2347, 144.2105
516.7169, 145.4284
517.1990, 146.9994
517.6811, 148.7216
518.1632, 150.3939
518.6453, 152.4403
519.1274, 155.1407
519.6096, 158.2085
520.0917, 161.1006
520.5738, 163.7928
521.0559, 166.3301
521.5380, 168.7284
522.0201, 170.9848
522.5023, 173.0715
522.9844, 175.0388
523.4665, 176.7140
523.9486, 178.0077
524.4307, 178.9254
524.9128, 179.4357
525.3950, 179.5695
525.8771, 179.1651
526.3592, 178.0208
526.8413, 176.1594
527.3234, 173.5846
527.8055, 169.9939
528.2877, 166.0187
528.7698, 162.2871
529.2519, 158.7836
529.7340, 155.2968
530.2161, 151.4202
530.6982, 147.7249
531.1804, 144.6033
531.6625, 142.2146
532.1446, 140.0862
532.6267, 138.1626
533.1088, 136.4051
533.5909, 134.8087
534.0731, 133.0686
534.5552, 131.8619
535.0373, 131.3595
535.5194, 131.3948
536.0015, 131.5527
536.4836, 131.8810
536.9658, 132.2209
537.4479, 132.4328
537.9300, 132.5376
538.4121, 133.1441
538.8942, 134.3157
539.3763, 135.7085
539.8585, 137.0308
540.3406, 138.3149
540.8227, 139.7074
541.3048, 141.2012
541.7869, 142.9499
542.2690, 145.2948
542.7512, 148.0565
543.2333, 150.7879
543.7154, 153.4025
544.1975, 155.8290
544.6796, 157.8898
545.1617, 159.6819
545.6439, 161.5476
546.1260, 163.4956
546.6081, 165.6815
547.0902, 168.2402
547.5723, 171.2255
548.0544, 174.3017
548.5366, 177.2921
549.0187, 180.4612
549.5008, 184.0493
549.9829, 188.2194
550.4650, 192.5155
550.9471, 196.9202
551.4293, 201.4114
551.9114, 206.1101
552.3935, 211.0986
552.8756, 215.9244
553.3577, 220.5709
553.8398, 224.9169
554.3220, 228.2387
554.8041, 230.5237
555.2862, 232.5028
555.7683, 235.1714
556.2504, 237.8854
556.7325, 239.4269
557.2147, 239.6199
557.6968, 238.7154
558.1789, 236.5286
558.6610, 233.4643
559.1431, 230.1445
559.6252, 226.5975
560.1074, 223.0460
560.5895, 219.6408
561.0716, 216.3002
561.5537, 212.8303
562.0358, 208.5874
562.5179, 204.7501
563.0001, 201.8052
563.4822, 199.8316
563.9643, 197.9440
564.4464, 195.9000
564.9285, 194.2841
565.4106, 193.5453
565.8928, 193.7566
566.3749, 194.4944
566.8570, 195.9257
567.3391, 197.4552
567.8212, 197.8966
568.3033, 197.4505
568.7855, 197.5841
569.2676, 198.9929
569.7497, 201.0517
570.2318, 202.9583
570.7139, 204.7163
571.1960, 206.5021
571.6782, 209.0417
572.1603, 211.2056
572.6424, 211.7023
573.1245, 210.3121
573.6066, 209.2889
574.0887, 210.0421
574.5709, 211.1770
575.0530, 211.6198
575.5351, 211.2339
576.0172, 210.1225
576.4993, 208.0252
576.9814, 205.3465
577.4636, 202.8681
577.9457, 200.9848
578.4278, 198.1964
578.9099, 193.8811
579.3920, 188.5406
579.8741, 183.9772
580.3563, 180.2322
580.8384, 177.0091
581.3205, 174.1740
581.8026, 171.6997
582.2847, 169.6258
582.7668, 167.9405
583.2490, 166.6723
583.7311, 166.2619
584.2131, 166.1284
584.6953, 165.3566
585.1774, 163.2267
585.6595, 161.6666
586.1416, 162.1346
586.6237, 163.6979
