##NAMES=Footemineite
##RRUFFID=R090005
##IDEAL CHEMISTRY=Ca_2_Mn^2+^_5_Be_4_(PO_4_)_6_(OH)_4_&#183;6H_2_O
##LOCALITY=Foote mine, North Carolina, USA
##OWNER=RRUFF
##SOURCE=Luiz Menezes
##DESCRIPTION=Pale yellow to light green prismatic or barrel-shaped crystals associated with colorless albite.
##STATUS=The identification of this mineral has been confirmed by single-crystal X-ray diffraction.
##URL=rruff.info/R090005
93.30109, 0.0000000E+00
93.78320, 292.6691
94.26532, 291.6141
94.74744, 292.7021
95.22955, 295.2150
95.71167, 298.7562
96.19379, 301.0978
96.67590, 302.6982
97.15802, 303.9898
97.64014, 305.4181
98.12225, 306.5527
98.60437, 306.5518
99.08649, 304.9701
99.56860, 302.6205
100.0507, 300.7926
100.5328, 299.0978
101.0150, 297.2953
101.4971, 295.4204
101.9792, 293.5118
102.4613, 291.1455
102.9434, 287.5792
103.4255, 283.6643
103.9077, 280.0072
104.3898, 276.8073
104.8719, 273.8187
105.3540, 270.4852
105.8361, 266.3297
106.3182, 262.5894
106.8004, 260.0073
107.2825, 257.7740
107.7646, 254.7660
108.2467, 250.1738
108.7288, 244.1888
109.2109, 239.5716
109.6931, 236.8199
110.1752, 234.8359
110.6573, 233.8121
111.1394, 233.4096
111.6215, 232.8814
112.1036, 231.5049
112.5858, 229.0782
113.0679, 227.4460
113.5500, 226.9543
114.0321, 226.9239
114.5142, 227.0148
114.9964, 227.1695
115.4785, 227.1940
115.9606, 226.5677
116.4427, 225.3244
116.9248, 224.8738
117.4069, 226.2493
117.8891, 228.5958
118.3712, 230.0716
118.8533, 229.9580
119.3354, 229.4309
119.8175, 229.5857
120.2996, 230.3742
120.7818, 231.3967
121.2639, 232.3566
121.7460, 233.2444
122.2281, 234.3153
122.7102, 235.6378
123.1923, 237.1630
123.6745, 239.0011
124.1566, 241.1401
124.6387, 243.2779
125.1208, 244.9944
125.6029, 246.1696
126.0850, 247.1166
126.5672, 247.8849
127.0493, 248.4837
127.5314, 248.8573
128.0135, 248.9944
128.4956, 249.0048
128.9777, 249.2034
129.4599, 249.8993
129.9420, 250.4491
130.4241, 250.6640
130.9062, 250.7293
131.3883, 250.9215
131.8704, 251.4003
132.3526, 252.1226
132.8347, 252.8375
133.3168, 253.1188
133.7989, 253.7995
134.2810, 255.3500
134.7632, 257.6755
135.2453, 260.2813
135.7274, 263.0278
136.2095, 265.7908
136.6916, 268.2011
137.1737, 270.2633
137.6559, 271.9592
138.1380, 273.1574
138.6201, 273.7521
139.1022, 274.3545
139.5843, 275.5508
140.0664, 277.0008
140.5486, 278.1826
141.0307, 278.7044
141.5128, 278.8340
141.9949, 279.3640
142.4770, 280.4767
142.9591, 281.7664
143.4413, 283.1915
143.9234, 284.6348
144.4055, 285.9136
144.8876, 286.9253
145.3697, 287.6700
145.8518, 288.0270
146.3340, 288.0241
146.8161, 287.5585
147.2982, 286.4030
147.7803, 284.6924
148.2624, 282.7328
148.7445, 280.7045
149.2267, 278.3452
149.7088, 277.2169
150.1909, 277.2176
150.6730, 278.1822
151.1551, 280.3911
151.6372, 283.7163
152.1194, 287.3534
152.6015, 290.2833
153.0836, 291.9561
153.5657, 294.4443
154.0478, 298.2195
154.5299, 302.5839
155.0121, 306.9788
155.4942, 311.2847
155.9763, 315.3271
156.4584, 318.4878
156.9405, 320.5733
157.4226, 323.4991
157.9048, 328.1357
158.3869, 333.9590
158.8690, 339.9572
159.3511, 346.0891
159.8332, 351.9943
160.3153, 357.0999
160.7975, 361.3690
161.2796, 365.8871
161.7617, 371.4091
162.2438, 377.9055
162.7259, 384.5091
163.2081, 390.9810
163.6902, 397.6013
164.1723, 404.4400
164.6544, 411.5685
165.1365, 419.0557
165.6186, 427.1604
166.1008, 435.9993
166.5829, 444.7930
167.0650, 454.0577
167.5471, 462.8257
168.0292, 470.6342
168.5113, 477.3135
168.9935, 482.5494
169.4756, 485.7997
169.9577, 486.8001
170.4398, 485.9874
170.9219, 484.0560
171.4040, 480.3897
171.8862, 473.9745
172.3683, 464.5298
172.8504, 453.2838
173.3325, 443.0479
173.8146, 435.0381
174.2967, 426.8039
174.7789, 418.1454
175.2610, 409.2591
175.7431, 400.3392
176.2252, 391.3740
176.7073, 382.5386
177.1894, 374.4984
177.6716, 367.6689
178.1537, 360.9796
178.6358, 352.7914
179.1179, 349.5893
179.6000, 346.1535
180.0821, 342.5161
180.5643, 336.9878
181.0464, 334.7312
181.5285, 331.6712
182.0106, 328.9256
182.4927, 328.1652
182.9748, 324.7765
183.4570, 324.7146
183.9391, 323.8318
184.4212, 323.8529
184.9033, 323.0634
185.3854, 322.9984
185.8675, 323.2906
186.3497, 322.6269
186.8318, 321.7449
187.3139, 322.3153
187.7960, 319.7248
188.2781, 319.9286
188.7602, 318.7784
189.2424, 317.9991
189.7245, 315.8766
190.2066, 313.9460
190.6887, 313.0182
191.1708, 311.2702
191.6530, 307.9166
192.1351, 304.4516
192.6172, 299.9584
193.0993, 293.9420
193.5814, 287.2318
194.0635, 282.0071
194.5457, 279.0644
195.0278, 276.1004
195.5099, 272.3014
195.9920, 268.3692
196.4741, 264.8854
196.9562, 262.0924
197.4384, 260.0419
197.9205, 258.9339
198.4026, 259.6633
198.8847, 260.1888
199.3668, 260.1215
199.8489, 259.7655
200.3311, 259.4336
200.8132, 259.2799
201.2953, 259.3062
201.7774, 259.5205
202.2595, 259.9160
202.7416, 260.5360
203.2238, 261.4877
203.7059, 262.6489
204.1880, 263.8265
204.6701, 264.8986
205.1522, 265.9618
205.6343, 267.4705
206.1165, 269.8284
206.5986, 272.1364
207.0807, 274.2863
207.5628, 276.2526
208.0449, 278.1349
208.5270, 280.1071
209.0092, 281.8474
209.4913, 281.9511
209.9734, 280.0681
210.4555, 277.4159
210.9376, 274.1841
211.4197, 270.4854
211.9019, 266.4929
212.3840, 262.1288
212.8661, 257.7468
213.3482, 254.3008
213.8303, 252.3416
214.3124, 250.3817
214.7946, 247.4162
215.2767, 243.6429
215.7588, 240.2380
216.2409, 237.8531
216.7230, 236.0662
217.2052, 233.8866
217.6873, 231.0152
218.1694, 228.4023
218.6515, 226.8146
219.1336, 226.2218
219.6157, 226.0083
220.0979, 226.1317
220.5800, 226.4293
221.0621, 226.6864
221.5442, 226.8472
222.0263, 227.1089
222.5084, 227.6302
222.9906, 228.4109
223.4727, 229.4717
223.9548, 230.6841
224.4369, 232.2970
224.9190, 234.7252
225.4011, 238.1011
225.8833, 241.5774
226.3654, 244.0703
226.8475, 245.3259
227.3296, 246.7696
227.8117, 248.7771
228.2938, 251.0112
228.7760, 253.4441
229.2581, 256.0393
229.7402, 258.3910
230.2223, 259.8120
230.7044, 259.8879
231.1865, 260.3716
231.6687, 262.0612
232.1508, 263.7538
232.6329, 264.6092
233.1150, 264.5174
233.5971, 264.0633
234.0792, 264.0905
234.5614, 264.8890
235.0435, 265.4582
235.5256, 265.6429
236.0077, 265.7275
236.4898, 265.7363
236.9719, 265.7476
237.4541, 266.0085
237.9362, 266.9023
238.4183, 268.7367
238.9004, 270.4752
239.3825, 272.0678
239.8646, 273.6100
240.3468, 275.2915
240.8289, 277.0714
241.3110, 278.5894
241.7931, 279.3774
242.2752, 279.1084
242.7573, 278.9754
243.2395, 278.9581
243.7216, 279.0651
244.2037, 279.6563
244.6858, 280.5934
245.1679, 281.0067
245.6501, 279.8194
246.1322, 276.4552
246.6143, 273.7281
247.0964, 272.1766
247.5785, 270.7758
248.0606, 268.7906
248.5428, 266.2006
249.0249, 263.4627
249.5070, 260.9383
249.9891, 258.6101
250.4712, 257.0352
250.9533, 257.0521
251.4355, 257.1244
251.9176, 256.1042
252.3997, 254.0016
252.8818, 251.6704
253.3639, 249.7358
253.8460, 248.2498
254.3282, 247.1878
254.8103, 247.0652
255.2924, 246.9501
255.7745, 246.0250
256.2566, 244.3579
256.7387, 242.8452
257.2209, 242.1569
257.7030, 242.2214
258.1851, 242.1727
258.6672, 242.2098
259.1493, 241.9733
259.6314, 240.9706
260.1136, 239.2995
260.5957, 237.8970
261.0778, 237.5239
261.5599, 237.7599
262.0420, 237.2349
262.5241, 235.2933
263.0063, 233.3511
263.4884, 232.6593
263.9705, 233.0500
264.4526, 233.0401
264.9347, 231.8441
265.4168, 229.8395
265.8990, 227.9009
266.3811, 226.0438
266.8632, 224.2080
267.3453, 222.1917
267.8274, 220.0666
268.3095, 218.4036
268.7917, 217.6313
269.2738, 217.2627
269.7559, 216.5622
270.2380, 215.4369
270.7201, 214.4356
271.2022, 214.0163
271.6844, 214.1018
272.1665, 214.1468
272.6486, 213.9408
273.1307, 213.7408
273.6128, 213.8942
274.0949, 214.3960
274.5771, 214.7182
275.0592, 214.3142
275.5413, 213.3450
276.0234, 212.7804
276.5055, 212.9483
276.9876, 213.3255
277.4698, 213.4948
277.9519, 213.4897
278.4340, 213.4850
278.9161, 213.6813
279.3982, 213.9907
279.8803, 213.9822
280.3625, 213.4327
280.8446, 212.8668
281.3267, 212.5750
281.8088, 212.5060
282.2909, 212.5514
282.7730, 212.7543
283.2552, 213.0226
283.7373, 213.0439
284.2194, 212.7540
284.7015, 212.3172
285.1836, 211.4382
285.6658, 210.5429
286.1479, 210.4155
286.6300, 211.8122
287.1121, 213.7967
287.5942, 213.9653
288.0764, 211.2843
288.5585, 209.2298
289.0406, 209.5379
289.5227, 210.8791
290.0048, 211.9387
290.4869, 212.2547
290.9691, 212.1388
291.4512, 212.1092
291.9333, 212.2036
292.4154, 212.2698
292.8975, 212.3009
293.3796, 212.2734
293.8618, 212.1667
294.3439, 211.9759
294.8260, 211.7044
295.3081, 211.3222
295.7902, 210.7900
296.2723, 210.3372
296.7545, 210.1490
297.2366, 209.9448
297.7187, 209.6178
298.2008, 209.1353
298.6829, 208.4447
299.1650, 207.3460
299.6472, 205.7450
300.1293, 204.5959
300.6114, 204.5446
301.0935, 204.4447
301.5756, 203.6826
302.0577, 202.3917
302.5399, 201.1172
303.0220, 200.3207
303.5041, 199.9817
303.9862, 199.6030
304.4683, 199.1367
304.9504, 198.6877
305.4326, 198.3641
305.9147, 198.0813
306.3968, 197.6485
306.8789, 196.8723
307.3610, 195.9048
307.8431, 195.4343
308.3253, 195.7099
308.8074, 196.1343
309.2895, 196.7663
309.7716, 197.3538
310.2537, 197.4588
310.7358, 196.8153
311.2180, 195.9569
311.7001, 196.2142
312.1822, 198.3515
312.6643, 199.9062
313.1464, 200.2512
313.6285, 200.0001
314.1107, 199.4440
314.5928, 198.6951
315.0749, 198.0882
315.5570, 198.1756
316.0391, 199.1600
316.5212, 200.1003
317.0034, 201.2436
317.4855, 202.0616
317.9676, 202.1739
318.4497, 201.5938
318.9318, 200.6619
319.4139, 199.6052
319.8961, 198.3864
320.3782, 197.4289
320.8603, 196.7460
321.3424, 196.3598
321.8245, 196.4456
322.3066, 196.8493
322.7888, 197.2197
323.2709, 197.2895
323.7530, 197.1018
324.2351, 196.9790
324.7172, 197.0179
325.1993, 196.9819
325.6815, 196.4791
326.1636, 195.9432
326.6457, 196.0381
327.1278, 197.1693
327.6099, 198.9012
328.0920, 200.2070
328.5742, 200.9985
329.0563, 201.5229
329.5384, 201.7999
330.0205, 201.8963
330.5026, 201.8145
330.9847, 201.5572
331.4669, 201.2589
331.9490, 201.1516
332.4311, 201.3203
332.9132, 201.3072
333.3953, 201.0519
333.8774, 200.5822
334.3596, 199.8330
334.8417, 198.8348
335.3238, 197.7596
335.8059, 196.7075
336.2880, 195.6735
336.7701, 194.8473
337.2523, 194.1707
337.7344, 193.8139
338.2165, 194.1790
338.6986, 194.9148
339.1807, 195.2205
339.6628, 194.4955
340.1450, 192.9924
340.6271, 191.6231
341.1092, 190.3580
341.5913, 189.3055
342.0735, 188.4249
342.5556, 187.7731
343.0377, 187.4566
343.5198, 187.5489
344.0019, 187.8884
344.4840, 188.1977
344.9662, 188.4312
345.4483, 188.8436
345.9304, 189.5406
346.4125, 190.4454
346.8946, 191.6000
347.3767, 193.0128
347.8589, 194.4164
348.3410, 195.4196
348.8231, 196.0453
349.3052, 197.0813
349.7873, 198.8577
350.2694, 200.8514
350.7516, 202.5306
351.2337, 204.0344
351.7158, 205.9335
352.1979, 208.7997
352.6800, 212.3513
353.1621, 215.6115
353.6443, 218.4355
354.1264, 221.2642
354.6085, 224.6956
355.0906, 228.2567
355.5727, 231.0319
356.0548, 232.2007
356.5370, 233.0867
357.0191, 235.5889
357.5012, 239.8172
357.9833, 244.2886
358.4654, 248.6624
358.9475, 252.7944
359.4297, 256.4565
359.9118, 259.5790
360.3939, 262.5194
360.8760, 265.3136
361.3581, 268.0632
361.8402, 271.4207
362.3224, 275.7259
362.8045, 280.3609
363.2866, 284.8665
363.7687, 289.2195
364.2508, 293.0428
364.7329, 295.6285
365.2151, 297.7752
365.6972, 301.1364
366.1793, 306.1140
366.6614, 310.7580
367.1435, 313.2305
367.6256, 314.1720
368.1078, 315.5809
368.5899, 318.5450
369.0720, 321.3821
369.5541, 322.4438
370.0362, 321.9789
370.5183, 321.6910
371.0005, 322.6154
371.4826, 323.9676
371.9647, 324.1265
372.4468, 323.2452
372.9289, 321.0551
373.4110, 316.9752
373.8932, 311.5931
374.3753, 305.9802
374.8574, 300.4017
375.3395, 294.7360
375.8216, 288.8522
376.3037, 282.7361
376.7859, 276.5607
377.2680, 269.8486
377.7501, 263.4107
378.2322, 257.8906
378.7143, 253.3248
379.1964, 249.5377
379.6786, 246.5340
380.1607, 244.2307
380.6428, 241.5233
381.1249, 238.0152
381.6070, 234.6266
382.0891, 231.5277
382.5713, 228.7841
383.0534, 226.4254
383.5355, 224.4277
384.0176, 222.9995
384.4997, 222.6169
384.9818, 224.1847
385.4640, 225.3782
385.9461, 225.8887
386.4282, 226.1680
386.9103, 226.5066
387.3924, 226.9900
387.8745, 227.6601
388.3567, 228.5290
388.8388, 229.5540
389.3209, 231.1297
389.8030, 233.6816
390.2851, 236.2654
390.7672, 238.2933
391.2494, 240.0946
391.7315, 242.4532
392.2136, 245.8734
392.6957, 249.9925
393.1778, 253.3402
393.6599, 255.1847
394.1421, 257.2567
394.6242, 259.8925
395.1063, 262.7167
395.5884, 265.3800
396.0706, 267.8019
396.5527, 270.0809
397.0348, 272.5342
397.5169, 275.4801
397.9990, 277.2645
398.4811, 277.0590
398.9633, 276.3876
399.4454, 275.9370
399.9275, 275.5214
400.4096, 274.5309
400.8917, 272.4945
401.3738, 269.5911
401.8560, 266.5214
402.3381, 263.0727
402.8202, 259.8853
403.3023, 257.2638
403.7844, 254.9001
404.2665, 252.5298
404.7487, 250.0876
405.2308, 247.4902
405.7129, 244.3601
406.1950, 240.5964
406.6771, 237.8561
407.1592, 236.9250
407.6414, 236.6751
408.1235, 236.3079
408.6056, 235.8477
409.0877, 235.5555
409.5698, 235.5696
410.0519, 235.8580
410.5341, 236.2747
411.0162, 236.7217
411.4983, 237.6615
411.9804, 239.7250
412.4625, 242.3981
412.9446, 244.8362
413.4268, 246.8725
413.9089, 248.7038
414.3910, 250.5397
414.8731, 252.3202
415.3552, 253.7933
415.8373, 254.9520
416.3195, 255.6394
416.8016, 255.4412
417.2837, 254.3401
417.7658, 253.2873
418.2479, 252.4578
418.7300, 251.8478
419.2122, 251.4108
419.6943, 251.1496
420.1764, 251.1779
420.6585, 251.5418
421.1406, 252.2888
421.6227, 253.6095
422.1049, 255.9948
422.5870, 258.3668
423.0691, 260.3213
423.5512, 261.9640
424.0333, 263.5514
424.5154, 265.1839
424.9976, 266.6912
425.4797, 267.6852
425.9618, 267.4799
426.4439, 268.1940
426.9260, 270.6052
427.4081, 273.3051
427.8903, 275.5432
428.3724, 277.1552
428.8545, 278.1798
429.3366, 278.7160
429.8187, 278.7308
430.3008, 277.4801
430.7830, 274.0165
431.2651, 270.2140
431.7472, 266.4142
432.2293, 262.4053
432.7114, 257.8188
433.1935, 252.5422
433.6757, 247.0551
434.1578, 242.3052
434.6399, 238.6757
435.1220, 234.4589
435.6041, 229.0849
436.0862, 223.4833
436.5684, 217.6594
437.0505, 211.9243
437.5326, 207.0193
438.0147, 203.6847
438.4968, 201.5287
438.9789, 199.2657
439.4611, 197.0280
439.9432, 194.3472
440.4253, 190.4407
440.9074, 186.2404
441.3895, 182.6765
441.8716, 179.9260
442.3538, 177.8317
442.8359, 176.4648
443.3180, 175.7148
443.8001, 175.0644
444.2822, 174.5951
444.7643, 173.8607
445.2465, 171.9370
445.7286, 169.1713
446.2107, 167.3669
446.6928, 167.7560
447.1749, 168.8252
447.6570, 169.0171
448.1392, 168.3831
448.6213, 167.7854
449.1034, 167.7171
449.5855, 167.9501
450.0677, 167.8016
450.5498, 166.9897
451.0319, 166.4542
451.5140, 166.5475
451.9961, 166.9938
452.4782, 167.4456
452.9604, 167.8419
453.4425, 168.3935
453.9246, 169.4128
454.4067, 171.0177
454.8888, 171.7761
455.3709, 170.9529
455.8531, 170.2372
456.3352, 170.2669
456.8173, 170.8156
457.2994, 171.4168
457.7815, 171.8528
458.2636, 172.3206
458.7458, 173.3320
459.2279, 175.5171
459.7100, 176.9040
460.1921, 177.0471
460.6742, 176.8202
461.1563, 176.4976
461.6385, 176.2342
462.1206, 176.3053
462.6027, 177.0602
463.0848, 178.2961
463.5669, 178.9465
464.0490, 178.8481
464.5312, 178.4654
465.0133, 177.5915
465.4954, 176.7131
465.9775, 176.4688
466.4596, 177.0525
466.9417, 177.5889
467.4239, 176.9425
467.9060, 175.3695
468.3881, 174.7447
468.8702, 175.7978
469.3523, 176.9371
469.8344, 176.5292
470.3166, 175.0874
470.7987, 174.0771
471.2808, 174.1748
471.7629, 174.6119
472.2450, 174.7121
472.7271, 174.5428
473.2093, 174.4147
473.6914, 174.4093
474.1735, 174.6010
474.6556, 175.2289
475.1377, 176.4688
475.6198, 177.4791
476.1020, 178.0311
476.5841, 178.3749
477.0662, 178.8092
477.5483, 179.2989
478.0304, 179.4649
478.5125, 178.9378
478.9947, 177.8490
479.4768, 177.3874
479.9589, 178.2624
480.4410, 178.8979
480.9231, 178.8897
481.4052, 178.6507
481.8874, 178.6575
482.3695, 179.0024
482.8516, 179.3560
483.3337, 179.2059
483.8158, 178.4171
484.2979, 178.2982
484.7801, 179.5841
485.2622, 180.7273
485.7443, 180.9604
486.2264, 180.7543
486.7085, 180.9075
487.1906, 181.7967
487.6728, 183.0128
488.1549, 183.9431
488.6370, 184.5598
489.1191, 185.3671
489.6012, 186.5976
490.0833, 187.9261
490.5655, 189.1975
491.0476, 190.3721
491.5297, 191.1479
492.0118, 191.4293
492.4939, 191.2359
492.9760, 190.4276
493.4582, 189.0363
493.9403, 187.7074
494.4224, 186.9001
494.9045, 186.2447
495.3866, 184.8051
495.8687, 182.5394
496.3509, 179.7979
496.8330, 175.9347
497.3151, 172.0408
497.7972, 169.4185
498.2793, 168.1305
498.7614, 167.2516
499.2436, 165.9800
499.7257, 164.3696
500.2078, 163.3453
500.6899, 163.5944
501.1720, 163.5979
501.6541, 162.8914
502.1363, 161.9305
502.6184, 161.1807
503.1005, 160.7760
503.5826, 160.5922
504.0647, 160.4908
504.5468, 160.4708
505.0290, 160.5552
505.5111, 160.8598
505.9932, 161.1286
506.4753, 161.2319
506.9575, 161.2442
507.4396, 161.2761
507.9217, 161.3587
508.4038, 161.5027
508.8859, 161.8427
509.3680, 162.3493
509.8502, 162.4474
510.3323, 161.8542
510.8144, 161.0683
511.2965, 160.5710
511.7786, 160.3168
512.2607, 160.0726
512.7429, 159.8228
513.2250, 159.5273
513.7071, 159.0697
514.1892, 158.5118
514.6713, 158.0879
515.1534, 157.8915
515.6356, 157.9107
516.1177, 158.1268
516.5998, 158.5924
517.0819, 159.1689
517.5640, 159.8187
518.0461, 160.6082
518.5283, 161.7255
519.0104, 163.0464
519.4925, 164.1373
519.9746, 164.6657
520.4567, 164.8859
520.9388, 165.8597
521.4210, 168.5505
521.9031, 170.1543
522.3852, 169.3977
522.8673, 168.3053
523.3494, 168.5405
523.8315, 170.0070
524.3137, 171.2315
524.7958, 170.8935
525.2779, 169.4433
525.7600, 168.4676
526.2421, 168.0676
526.7242, 167.7786
527.2064, 167.6599
527.6885, 167.3896
528.1706, 166.4483
528.6527, 164.6620
529.1348, 162.9958
529.6169, 162.0510
530.0991, 161.4998
530.5812, 160.7273
531.0633, 159.6663
531.5454, 158.8124
532.0275, 158.5563
532.5096, 158.8228
532.9918, 159.0981
533.4739, 159.5010
533.9560, 159.7605
534.4381, 159.3115
534.9202, 158.9614
535.4023, 159.6920
535.8845, 161.6151
536.3666, 164.0395
536.8487, 166.2546
537.3308, 168.2653
537.8129, 170.6384
538.2950, 173.3982
538.7772, 176.5395
539.2593, 180.3661
539.7414, 184.3867
540.2235, 188.0618
540.7056, 191.2486
541.1877, 194.2778
541.6699, 197.5618
542.1520, 201.0174
542.6341, 204.0484
543.1162, 206.4402
543.5983, 208.8148
544.0804, 211.5771
544.5626, 214.5860
545.0447, 217.6325
545.5268, 220.8280
546.0089, 223.7787
546.4910, 225.9033
546.9731, 227.7177
547.4553, 230.4028
547.9374, 234.2424
548.4195, 238.0427
548.9016, 240.5450
549.3837, 241.7139
549.8658, 243.7169
550.3480, 247.1840
550.8301, 250.5869
551.3122, 253.4514
551.7943, 256.0358
552.2764, 258.8726
552.7585, 262.0122
553.2407, 264.7437
553.7228, 266.1302
554.2049, 266.1109
554.6870, 265.8648
555.1691, 265.5480
555.6512, 264.7436
556.1334, 263.4543
556.6155, 261.6007
557.0976, 259.0431
557.5797, 255.7236
558.0618, 251.8599
558.5439, 247.3591
559.0261, 242.4471
559.5082, 237.9569
559.9903, 234.1062
560.4724, 230.2895
560.9545, 225.9876
561.4366, 221.3293
561.9188, 216.9204
562.4009, 212.5831
562.8830, 208.7528
563.3651, 205.6896
563.8472, 203.1756
564.3293, 200.9251
564.8115, 198.8698
565.2936, 197.0324
565.7757, 195.3813
566.2578, 193.9092
566.7399, 193.2841
567.2220, 194.5773
567.7042, 195.4493
568.1863, 195.3162
568.6684, 194.6871
569.1505, 193.8588
569.6326, 192.9915
570.1147, 192.5606
570.5969, 193.2532
571.0790, 194.8744
571.5611, 196.2480
572.0432, 197.4159
572.5253, 198.1636
573.0074, 198.1573
573.4896, 197.7456
573.9717, 197.5235
574.4538, 197.6986
574.9359, 197.4673
575.4180, 196.2743
575.9001, 194.5309
576.3823, 192.7916
576.8644, 191.1129
577.3465, 189.3440
577.8286, 187.3953
578.3107, 185.2532
578.7928, 182.8481
579.2750, 179.6786
579.7571, 176.9010
580.2392, 174.7215
580.7213, 172.8602
581.2034, 171.2090
581.6855, 169.6836
582.1677, 168.0386
582.6498, 165.9854
583.1319, 163.7947
583.6140, 162.5826
584.0961, 162.7166
584.5782, 162.5347
585.0604, 161.0344
585.5425, 159.4776
586.0246, 158.9799
586.5067, 159.5113
586.9889, 160.2467
587.4710, 160.9928
587.9531, 161.6500
588.4352, 162.2476
588.9174, 162.7072
589.3995, 162.4308
