##NAMES=Fornacite
##RRUFFID=R060986
##IDEAL CHEMISTRY=Cu^2+^Pb^2+^_2_(Cr^6+^O_4_)(As^5+^O_4_)(OH)
##LOCALITY=Tombstone, Arizona, USA
##OWNER=RRUFF
##SOURCE=Bob Jenkins
##DESCRIPTION=Deep olive-green tabular plates on calcite crystals
##STATUS=The identification of this mineral is confirmed by single-crystal X-ray diffraction and chemical analysis.
##URL=rruff.info/R060986
##MEASURED CHEMISTRY=Cu_1.00_Pb_2.00_(Cr_1.00_O_4_)(As_1.00_O_4_)(OH); OH estimated by difference and charge balance
123.4565, 554.3630
123.9386, 583.9904
124.4208, 624.5178
124.9029, 684.6739
125.3850, 762.0900
125.8671, 846.2704
126.3492, 939.7621
126.8313, 1037.971
127.3135, 1136.305
127.7956, 1235.946
128.2777, 1339.557
128.7598, 1446.307
129.2419, 1557.283
129.7240, 1682.677
130.2061, 1851.181
130.6883, 2006.925
131.1704, 2131.225
131.6525, 2221.145
132.1346, 2273.140
132.6167, 2279.239
133.0988, 2235.183
133.5810, 2173.618
134.0631, 2079.975
134.5452, 1979.847
135.0273, 1876.448
135.5094, 1774.023
135.9915, 1683.728
136.4737, 1620.455
136.9558, 1591.825
137.4379, 1568.245
137.9200, 1546.752
138.4021, 1531.375
138.8842, 1522.572
139.3664, 1521.343
139.8485, 1530.576
140.3306, 1554.960
140.8127, 1599.023
141.2948, 1650.730
141.7769, 1707.621
142.2591, 1771.965
142.7412, 1847.821
143.2233, 1934.968
143.7054, 2027.253
144.1875, 2113.679
144.6696, 2188.309
145.1517, 2266.350
145.6339, 2349.262
146.1160, 2434.109
146.5981, 2522.445
147.0802, 2613.813
147.5623, 2700.174
148.0444, 2767.068
148.5266, 2803.871
149.0087, 2831.812
149.4908, 2848.784
149.9729, 2858.249
150.4550, 2864.464
150.9371, 2869.001
151.4193, 2868.733
151.9014, 2856.671
152.3835, 2828.156
152.8656, 2793.565
153.3477, 2748.032
153.8298, 2698.282
154.3120, 2650.267
154.7941, 2605.792
155.2762, 2568.522
155.7583, 2549.893
156.2404, 2569.977
156.7225, 2576.190
157.2047, 2548.722
157.6868, 2504.935
158.1689, 2469.011
158.6510, 2450.026
159.1331, 2445.679
159.6152, 2452.996
160.0974, 2478.617
160.5795, 2501.894
161.0616, 2518.212
161.5437, 2528.736
162.0258, 2535.850
162.5079, 2540.761
162.9901, 2542.149
163.4722, 2535.566
163.9543, 2517.219
164.4364, 2500.187
164.9185, 2487.971
165.4007, 2480.279
165.8828, 2477.493
166.3649, 2481.158
166.8470, 2487.812
167.3291, 2490.443
167.8112, 2491.187
168.2933, 2485.175
168.7755, 2464.014
169.2576, 2433.575
169.7397, 2412.203
170.2218, 2410.666
170.7039, 2417.715
171.1860, 2409.232
171.6682, 2378.388
172.1503, 2350.262
172.6324, 2342.790
173.1145, 2349.721
173.5966, 2346.981
174.0787, 2322.458
174.5609, 2286.490
175.0430, 2257.420
175.5251, 2235.081
176.0072, 2218.911
176.4893, 2213.615
176.9714, 2216.011
177.4536, 2211.178
177.9357, 2191.814
178.4178, 2163.942
178.8999, 2136.640
179.3820, 2108.035
179.8641, 2085.747
180.3463, 2076.827
180.8284, 2079.504
181.3105, 2084.169
181.7926, 2090.715
182.2747, 2094.547
182.7568, 2089.634
183.2390, 2074.155
183.7211, 2057.250
184.2032, 2045.783
184.6853, 2038.716
185.1674, 2028.669
185.6495, 2010.621
186.1317, 1991.416
186.6138, 1980.178
187.0959, 1978.449
187.5780, 1976.355
188.0601, 1965.818
188.5422, 1948.187
189.0244, 1932.741
189.5065, 1923.988
189.9886, 1916.543
190.4707, 1903.433
190.9528, 1883.806
191.4349, 1866.220
191.9170, 1858.738
192.3992, 1859.834
192.8813, 1858.302
193.3634, 1851.406
193.8455, 1840.884
194.3276, 1827.287
194.8097, 1810.470
195.2919, 1796.465
195.7740, 1791.896
196.2561, 1795.084
196.7382, 1793.743
197.2203, 1781.093
197.7024, 1768.348
198.1846, 1768.375
198.6667, 1780.749
199.1488, 1788.595
199.6309, 1777.834
200.1130, 1751.484
200.5951, 1727.724
201.0773, 1707.174
201.5594, 1693.166
202.0415, 1690.408
202.5236, 1697.577
203.0057, 1701.802
203.4878, 1693.008
203.9700, 1673.777
204.4521, 1656.604
204.9342, 1642.926
205.4163, 1631.825
205.8984, 1622.471
206.3805, 1614.775
206.8627, 1608.407
207.3448, 1605.012
207.8269, 1603.171
208.3090, 1596.943
208.7911, 1583.782
209.2732, 1569.339
209.7554, 1557.723
210.2375, 1548.190
210.7196, 1538.480
211.2017, 1526.416
211.6838, 1513.238
212.1659, 1502.731
212.6480, 1495.370
213.1302, 1490.358
213.6123, 1488.175
214.0944, 1487.847
214.5765, 1487.133
215.0586, 1485.978
215.5407, 1483.646
216.0229, 1477.386
216.5050, 1465.086
216.9871, 1454.104
217.4692, 1451.218
217.9513, 1452.667
218.4334, 1451.533
218.9156, 1441.689
219.3977, 1429.202
219.8798, 1427.246
220.3619, 1439.878
220.8440, 1449.486
221.3261, 1441.820
221.8083, 1425.476
222.2904, 1411.983
222.7725, 1404.112
223.2546, 1401.274
223.7367, 1404.463
224.2188, 1415.054
224.7010, 1424.214
225.1831, 1428.957
225.6652, 1428.907
226.1473, 1422.039
226.6294, 1404.574
227.1115, 1385.085
227.5937, 1373.229
228.0758, 1369.348
228.5579, 1367.591
229.0400, 1365.962
229.5221, 1365.063
230.0042, 1366.208
230.4864, 1370.815
230.9685, 1374.433
231.4506, 1372.421
231.9327, 1365.091
232.4148, 1357.608
232.8969, 1350.680
233.3791, 1345.514
233.8612, 1343.307
234.3433, 1344.396
234.8254, 1347.235
235.3075, 1351.774
235.7896, 1357.570
236.2717, 1362.410
236.7539, 1366.464
237.2360, 1368.197
237.7181, 1364.377
238.2002, 1354.163
238.6823, 1347.534
239.1644, 1353.883
239.6466, 1368.026
240.1287, 1374.817
240.6108, 1369.474
241.0929, 1359.348
241.5750, 1352.074
242.0571, 1347.441
242.5393, 1343.679
243.0214, 1340.973
243.5035, 1338.575
243.9856, 1334.857
244.4677, 1329.273
244.9498, 1323.687
245.4320, 1319.889
245.9141, 1317.677
246.3962, 1316.456
246.8783, 1314.489
247.3604, 1314.265
247.8425, 1320.328
248.3247, 1333.413
248.8068, 1345.872
249.2889, 1350.774
249.7710, 1349.205
250.2531, 1350.042
250.7352, 1358.202
251.2174, 1365.810
251.6995, 1363.959
252.1816, 1353.701
252.6637, 1346.742
253.1458, 1351.932
253.6279, 1366.693
254.1101, 1375.919
254.5922, 1376.392
255.0743, 1374.766
255.5564, 1373.003
256.0385, 1371.597
256.5206, 1372.769
257.0027, 1378.832
257.4849, 1386.938
257.9670, 1387.024
258.4491, 1371.177
258.9312, 1360.320
259.4133, 1361.691
259.8954, 1371.897
260.3776, 1386.989
260.8597, 1406.470
261.3418, 1425.690
261.8239, 1434.911
262.3060, 1428.758
262.7881, 1423.700
263.2703, 1420.442
263.7524, 1419.633
264.2345, 1422.023
264.7166, 1427.808
265.1987, 1436.737
265.6808, 1449.169
266.1630, 1468.696
266.6451, 1481.340
267.1272, 1480.134
267.6093, 1477.444
268.0914, 1481.304
268.5735, 1492.766
269.0557, 1510.073
269.5378, 1533.457
270.0199, 1566.195
270.5020, 1580.878
270.9841, 1560.265
271.4662, 1542.041
271.9484, 1543.636
272.4305, 1561.796
272.9126, 1584.903
273.3947, 1605.418
273.8768, 1623.220
274.3589, 1637.782
274.8411, 1645.650
275.3232, 1653.849
275.8053, 1661.754
276.2874, 1671.253
276.7695, 1685.585
277.2516, 1706.633
277.7338, 1731.876
278.2159, 1753.073
278.6980, 1764.484
279.1801, 1780.709
279.6622, 1807.977
280.1443, 1837.727
280.6265, 1860.309
281.1086, 1873.192
281.5907, 1884.361
282.0728, 1907.359
282.5549, 1947.454
283.0370, 1984.313
283.5192, 2018.949
284.0013, 2048.238
284.4834, 2066.070
284.9655, 2074.220
285.4476, 2084.466
285.9297, 2108.687
286.4119, 2147.684
286.8940, 2190.303
287.3761, 2240.555
287.8582, 2290.471
288.3403, 2339.100
288.8224, 2384.862
289.3046, 2424.646
289.7867, 2453.167
290.2688, 2474.256
290.7509, 2502.181
291.2330, 2538.252
291.7151, 2579.301
292.1972, 2629.759
292.6794, 2682.555
293.1615, 2727.027
293.6436, 2758.156
294.1257, 2781.487
294.6078, 2802.462
295.0899, 2819.967
295.5721, 2844.330
296.0542, 2882.641
296.5363, 2928.741
297.0184, 2977.706
297.5005, 3033.046
297.9826, 3077.778
298.4648, 3090.386
298.9469, 3078.140
299.4290, 3079.633
299.9111, 3111.003
300.3932, 3151.370
300.8753, 3171.328
301.3575, 3169.913
301.8396, 3175.297
302.3217, 3202.006
302.8038, 3240.485
303.2859, 3276.903
303.7680, 3309.329
304.2502, 3338.414
304.7323, 3364.492
305.2144, 3387.489
305.6965, 3408.712
306.1786, 3427.001
306.6607, 3444.590
307.1429, 3462.927
307.6250, 3482.032
308.1071, 3500.889
308.5892, 3516.727
309.0713, 3532.001
309.5534, 3564.459
310.0356, 3631.240
310.5177, 3692.255
310.9998, 3729.781
311.4819, 3754.811
311.9640, 3784.393
312.4461, 3825.755
312.9283, 3878.051
313.4104, 3939.858
313.8925, 4018.986
314.3746, 4097.210
314.8567, 4168.368
315.3388, 4242.800
315.8210, 4328.153
316.3031, 4426.303
316.7852, 4536.175
317.2673, 4657.596
317.7494, 4794.204
318.2315, 4929.248
318.7137, 5049.691
319.1958, 5180.395
319.6779, 5333.952
320.1600, 5506.677
320.6421, 5686.818
321.1242, 5863.355
321.6064, 6040.582
322.0885, 6242.503
322.5706, 6489.130
323.0527, 6732.754
323.5348, 6949.302
324.0169, 7159.836
324.4991, 7391.036
324.9812, 7655.422
325.4633, 7930.855
325.9454, 8185.119
326.4275, 8415.088
326.9096, 8635.978
327.3918, 8851.900
327.8739, 9058.057
328.3560, 9253.344
328.8381, 9436.931
329.3202, 9604.993
329.8023, 9760.503
330.2845, 9899.353
330.7666, 10001.48
331.2487, 10053.65
331.7308, 10090.44
332.2129, 10149.81
332.6950, 10221.10
333.1772, 10262.39
333.6593, 10248.20
334.1414, 10205.26
334.6235, 10159.33
335.1056, 10111.20
335.5877, 10069.92
336.0698, 10041.69
336.5519, 10024.68
337.0341, 10009.20
337.5162, 9985.639
337.9983, 9975.957
338.4804, 9992.299
338.9625, 10029.17
339.4446, 10073.80
339.9268, 10120.88
340.4089, 10178.71
340.8910, 10265.27
341.3731, 10404.86
341.8552, 10517.09
342.3373, 10577.74
342.8195, 10623.74
343.3016, 10684.16
343.7837, 10761.74
344.2658, 10843.69
344.7479, 10919.90
345.2300, 10990.75
345.7122, 11043.43
346.1943, 11087.58
346.6764, 11104.16
347.1585, 11075.52
347.6406, 11016.69
348.1227, 10956.88
348.6049, 10913.15
349.0870, 10866.47
349.5691, 10759.75
350.0512, 10562.25
350.5333, 10364.82
351.0154, 10196.48
351.4976, 10023.71
351.9797, 9820.518
352.4618, 9582.431
352.9439, 9320.437
353.4260, 9034.101
353.9081, 8723.287
354.3903, 8447.050
354.8724, 8232.683
355.3545, 8024.895
355.8366, 7786.276
356.3187, 7526.879
356.8008, 7272.704
357.2830, 7035.824
357.7651, 6811.404
358.2472, 6582.125
358.7293, 6345.130
359.2114, 6139.016
359.6935, 5992.452
360.1757, 5887.070
360.6578, 5780.407
361.1399, 5667.645
361.6220, 5560.549
362.1041, 5462.451
362.5862, 5374.925
363.0684, 5301.727
363.5505, 5244.802
364.0326, 5199.607
364.5147, 5160.044
364.9968, 5125.287
365.4789, 5101.791
365.9611, 5098.862
366.4432, 5100.790
366.9253, 5094.378
367.4074, 5080.943
367.8895, 5071.241
368.3716, 5073.564
368.8538, 5086.889
369.3359, 5099.760
369.8180, 5119.999
370.3001, 5130.362
370.7822, 5123.979
371.2643, 5107.733
371.7465, 5089.247
372.2286, 5071.390
372.7107, 5052.759
373.1928, 5035.203
373.6749, 5027.930
374.1570, 4991.280
374.6392, 4895.182
375.1213, 4791.942
375.6034, 4709.070
376.0855, 4643.227
376.5676, 4571.926
377.0497, 4478.877
377.5319, 4368.164
378.0140, 4253.543
378.4961, 4132.454
378.9782, 4014.203
379.4603, 3903.901
379.9424, 3799.272
380.4246, 3697.540
380.9066, 3598.681
381.3888, 3501.400
381.8709, 3399.886
382.3530, 3297.385
382.8351, 3209.861
383.3172, 3145.893
383.7993, 3089.345
384.2815, 3013.624
384.7636, 2915.778
385.2457, 2834.991
385.7278, 2788.854
386.2099, 2755.405
386.6920, 2716.482
387.1742, 2670.962
387.6563, 2624.976
388.1384, 2582.738
388.6205, 2544.139
389.1026, 2506.030
389.5847, 2460.626
390.0669, 2425.035
390.5490, 2411.000
391.0311, 2404.913
391.5132, 2388.567
391.9953, 2356.469
392.4774, 2320.544
392.9596, 2300.036
393.4417, 2301.016
393.9238, 2297.816
394.4059, 2287.560
394.8880, 2275.451
395.3701, 2262.046
395.8523, 2248.510
396.3344, 2237.432
396.8165, 2231.780
397.2986, 2228.795
397.7807, 2219.957
398.2628, 2202.879
398.7450, 2188.295
399.2271, 2182.312
399.7092, 2180.300
400.1913, 2178.550
400.6734, 2177.577
401.1555, 2172.467
401.6377, 2157.243
402.1198, 2135.521
402.6019, 2115.806
403.0840, 2099.619
403.5661, 2087.200
404.0482, 2081.721
404.5304, 2083.289
405.0125, 2074.820
405.4946, 2048.376
405.9767, 2018.158
406.4588, 1988.971
406.9409, 1963.035
407.4231, 1946.271
407.9052, 1942.580
408.3873, 1945.905
408.8694, 1939.588
409.3515, 1916.327
409.8336, 1893.432
410.3158, 1873.961
410.7979, 1853.007
411.2800, 1825.233
411.7621, 1791.192
412.2442, 1756.985
412.7263, 1726.776
413.2085, 1700.732
413.6906, 1682.461
414.1727, 1676.226
414.6548, 1671.432
415.1369, 1667.415
415.6190, 1661.253
416.1012, 1648.094
416.5833, 1625.154
417.0654, 1599.627
417.5475, 1579.959
418.0296, 1565.424
418.5117, 1549.317
418.9939, 1529.692
419.4760, 1508.768
419.9581, 1487.089
420.4402, 1464.792
420.9223, 1449.141
421.4044, 1449.378
421.8866, 1451.616
422.3687, 1442.602
422.8508, 1423.316
423.3329, 1401.266
423.8150, 1379.880
424.2971, 1360.277
424.7793, 1346.283
425.2614, 1344.438
425.7435, 1339.615
426.2256, 1328.139
426.7077, 1314.953
427.1898, 1304.983
427.6719, 1298.665
428.1541, 1292.313
428.6362, 1281.905
429.1183, 1267.350
429.6004, 1254.027
430.0825, 1242.023
430.5646, 1231.214
431.0468, 1222.175
431.5289, 1213.957
432.0110, 1205.047
432.4931, 1194.700
432.9752, 1184.523
433.4573, 1176.021
433.9395, 1169.188
434.4216, 1165.763
434.9037, 1169.661
435.3858, 1171.570
435.8679, 1158.191
436.3500, 1131.946
436.8322, 1112.391
437.3143, 1107.250
437.7964, 1108.795
438.2785, 1111.843
438.7606, 1115.691
439.2427, 1119.377
439.7249, 1122.900
440.2070, 1124.917
440.6891, 1121.607
441.1712, 1106.547
441.6533, 1095.156
442.1354, 1088.751
442.6176, 1085.553
443.0997, 1086.080
443.5818, 1089.052
444.0639, 1090.159
444.5460, 1085.193
445.0281, 1074.778
445.5103, 1065.541
445.9924, 1056.464
446.4745, 1050.436
446.9566, 1051.399
447.4387, 1053.930
447.9208, 1050.944
448.4030, 1040.231
448.8851, 1029.980
449.3672, 1028.925
449.8493, 1035.238
450.3314, 1040.821
450.8135, 1045.107
451.2957, 1046.834
451.7778, 1043.587
452.2599, 1036.328
452.7420, 1030.448
453.2241, 1028.835
453.7062, 1026.466
454.1884, 1016.949
454.6705, 1004.760
455.1526, 1001.409
455.6347, 1011.600
456.1168, 1026.666
456.5989, 1032.205
457.0811, 1024.425
457.5632, 1016.477
458.0453, 1008.218
458.5274, 999.9646
459.0095, 992.2732
459.4916, 984.6993
459.9738, 975.9532
460.4559, 964.9408
460.9380, 953.2200
461.4201, 944.8741
461.9022, 940.5989
462.3843, 936.7208
462.8665, 933.1002
463.3486, 928.9404
463.8307, 923.6140
464.3128, 917.1428
464.7949, 909.8877
465.2770, 900.7122
465.7592, 891.5391
466.2413, 885.8046
466.7234, 883.5079
467.2055, 881.1373
467.6876, 876.8361
468.1697, 870.8689
468.6519, 864.0181
469.1340, 854.4370
469.6161, 846.9024
470.0982, 844.0745
470.5803, 842.3042
471.0624, 838.0853
471.5445, 831.0670
472.0266, 823.0877
472.5088, 815.6846
472.9909, 808.7909
473.4730, 801.4626
473.9551, 791.1479
474.4372, 784.5403
474.9193, 786.7032
475.4015, 791.0605
475.8836, 790.1631
476.3657, 782.2431
476.8478, 773.5555
477.3299, 770.1284
477.8120, 770.4347
478.2942, 768.9203
478.7763, 764.8510
479.2584, 759.5359
479.7405, 752.5715
480.2226, 745.0536
480.7047, 741.6592
481.1869, 747.6998
481.6690, 751.9933
482.1511, 749.9046
482.6332, 743.4149
483.1153, 734.5496
483.5974, 724.1205
484.0796, 713.6636
484.5617, 704.7037
485.0438, 696.8844
485.5259, 693.2770
486.0080, 699.7134
486.4901, 704.2192
486.9723, 702.1855
487.4544, 696.8872
487.9365, 691.9949
488.4186, 688.5876
488.9007, 688.8361
489.3828, 700.0918
489.8650, 720.6764
490.3471, 726.7586
490.8292, 709.6533
491.3113, 688.2088
491.7934, 678.5204
492.2755, 677.3988
492.7577, 674.4397
493.2398, 665.5264
493.7219, 656.8760
494.2040, 652.8668
494.6861, 651.7427
495.1682, 649.5640
495.6504, 645.0484
496.1325, 640.5459
496.6146, 639.2689
497.0967, 641.7159
497.5788, 645.3102
498.0609, 654.4558
498.5431, 660.0065
499.0252, 656.7891
499.5073, 648.2643
499.9894, 639.5292
500.4715, 632.4823
500.9536, 627.5663
501.4358, 626.1927
501.9179, 628.3358
502.4000, 629.5381
502.8821, 628.8905
503.3642, 627.6118
503.8463, 628.2120
504.3285, 629.3895
504.8106, 625.9013
505.2927, 609.1845
505.7748, 594.8031
506.2569, 597.0947
506.7390, 608.9279
507.2212, 613.7990
507.7033, 606.2448
508.1854, 593.9188
508.6675, 587.0034
509.1496, 586.4569
509.6317, 587.0838
510.1139, 592.9533
510.5960, 595.5452
511.0781, 587.7617
511.5602, 576.0131
512.0423, 571.1086
512.5244, 577.6957
513.0065, 587.4767
513.4886, 588.8183
513.9708, 582.2433
514.4529, 578.8668
514.9350, 581.8033
515.4171, 584.9016
515.8992, 581.8916
516.3813, 574.8021
516.8635, 570.4519
517.3456, 574.5127
517.8277, 576.5048
518.3098, 566.7556
518.7919, 552.1784
519.2740, 545.9359
519.7562, 551.4501
520.2383, 561.4785
520.7204, 567.9811
521.2025, 570.9362
521.6846, 570.5408
522.1667, 562.8852
522.6489, 556.0762
523.1310, 551.3493
523.6131, 548.8261
524.0952, 549.3575
524.5773, 553.2774
525.0594, 556.9746
525.5416, 556.6384
526.0237, 552.9233
526.5058, 548.4622
526.9879, 543.1862
527.4700, 538.3472
527.9521, 534.5153
528.4343, 531.8870
528.9164, 530.7910
529.3985, 533.5406
529.8806, 534.6273
530.3627, 533.0016
530.8448, 528.4651
531.3270, 517.5973
531.8091, 501.7596
532.2912, 490.9473
532.7733, 495.9213
533.2554, 514.4081
533.7375, 521.9022
534.2197, 512.5521
534.7018, 502.2573
535.1839, 489.9171
535.6660, 481.4883
536.1481, 484.9651
536.6302, 500.7411
537.1124, 515.6291
537.5945, 520.5976
538.0766, 519.4068
538.5587, 518.1536
539.0408, 517.1317
539.5229, 515.7086
540.0051, 513.1296
540.4872, 510.4858
540.9693, 510.7729
541.4514, 517.0574
541.9335, 520.3797
542.4156, 519.5719
542.8978, 516.3082
543.3799, 508.9428
543.8620, 500.0197
544.3441, 496.3385
544.8262, 503.0048
545.3083, 514.1558
545.7905, 515.4323
546.2726, 504.7724
546.7547, 497.4723
547.2368, 497.2621
547.7189, 500.3860
548.2010, 505.3772
548.6832, 511.3885
549.1653, 513.8759
549.6474, 508.2653
550.1295, 501.8267
550.6116, 500.4023
551.0938, 502.2114
551.5759, 502.6159
552.0580, 500.1045
552.5401, 497.4934
553.0222, 499.2377
553.5043, 506.9416
553.9865, 508.3726
554.4686, 495.2176
554.9507, 484.7511
555.4328, 484.7661
555.9149, 488.4753
556.3970, 485.5099
556.8792, 472.7257
557.3613, 461.3054
557.8434, 463.1910
558.3255, 474.8079
558.8076, 486.4646
559.2897, 497.9946
559.7719, 503.1223
560.2540, 495.4615
560.7361, 479.0908
561.2182, 469.1226
561.7003, 467.7103
562.1824, 468.0929
562.6646, 472.6697
563.1467, 476.1443
563.6288, 469.7864
564.1109, 456.9501
564.5930, 453.0434
565.0751, 471.3454
565.5573, 500.2956
566.0394, 503.1021
566.5215, 472.1165
567.0036, 450.8889
567.4857, 453.5369
567.9678, 464.3002
568.4500, 470.0481
568.9321, 471.3517
569.4142, 472.0945
569.8963, 473.9395
570.3784, 475.0709
570.8605, 472.5338
571.3427, 468.4152
571.8248, 468.1088
572.3069, 473.3166
572.7890, 479.9912
573.2711, 482.9466
573.7532, 481.8054
574.2354, 480.3060
574.7175, 477.0881
575.1996, 475.2817
575.6817, 476.7354
576.1638, 479.5132
576.6459, 481.3150
577.1281, 481.6003
577.6102, 481.7516
578.0923, 482.7386
578.5744, 484.3427
579.0565, 486.6877
579.5386, 489.7197
580.0208, 491.0907
580.5029, 489.1953
580.9850, 485.1144
581.4671, 481.6995
581.9492, 479.1833
582.4313, 477.0006
582.9134, 474.1867
583.3955, 472.5412
583.8776, 474.9473
584.3597, 479.3535
584.8419, 480.3595
585.3240, 474.5392
585.8061, 466.9531
586.2882, 466.3250
586.7703, 472.3387
587.2524, 476.5186
587.7346, 476.7401
588.2167, 476.8240
588.6988, 480.4918
589.1809, 486.9940
589.6630, 491.4276
590.1451, 494.2051
590.6273, 494.2726
591.1094, 488.9798
591.5915, 482.0605
592.0736, 477.7438
592.5557, 476.5570
593.0378, 476.5511
593.5200, 476.3305
594.0021, 475.7786
594.4842, 473.7020
594.9663, 468.6742
595.4484, 467.2140
595.9305, 473.5412
596.4127, 481.9875
596.8948, 486.9981
597.3769, 488.7628
597.8590, 490.7005
598.3411, 495.3800
598.8232, 499.0974
599.3054, 498.1009
599.7875, 494.2043
600.2696, 491.3903
600.7517, 490.9560
601.2338, 491.7367
601.7159, 492.4183
602.1981, 493.0260
602.6802, 493.0916
603.1623, 492.0183
603.6444, 491.3259
604.1265, 492.0651
604.6086, 493.0791
605.0908, 493.7570
605.5729, 494.0704
606.0550, 491.6888
606.5371, 480.3767
607.0192, 468.5944
607.5013, 469.1230
607.9835, 480.3243
608.4656, 491.0385
608.9477, 496.0250
609.4298, 497.6983
609.9119, 500.6412
610.3940, 505.7186
610.8762, 509.2815
611.3583, 511.5529
611.8404, 511.9783
612.3225, 509.8267
612.8046, 505.8587
613.2867, 500.0039
613.7689, 491.5484
614.2510, 486.6505
614.7331, 494.6049
615.2152, 508.6779
615.6973, 513.1983
616.1794, 507.0715
616.6616, 501.3553
617.1437, 502.8147
617.6258, 509.0218
