##NAMES=Fornacite
##RRUFFID=R060986
##IDEAL CHEMISTRY=Cu^2+^Pb^2+^_2_(Cr^6+^O_4_)(As^5+^O_4_)(OH)
##LOCALITY=Tombstone, Arizona, USA
##OWNER=RRUFF
##SOURCE=Bob Jenkins
##DESCRIPTION=Deep olive-green tabular plates on calcite crystals
##STATUS=The identification of this mineral is confirmed by single-crystal X-ray diffraction and chemical analysis.
##URL=rruff.info/R060986
##MEASURED CHEMISTRY=Cu_1.00_Pb_2.00_(Cr_1.00_O_4_)(As_1.00_O_4_)(OH); OH estimated by difference and charge balance
122.4873, 1792.485
122.9694, 1884.135
123.4515, 1977.793
123.9336, 2072.501
124.4157, 2175.151
124.8979, 2276.538
125.3800, 2363.246
125.8621, 2430.518
126.3442, 2486.465
126.8263, 2540.999
127.3084, 2593.189
127.7905, 2639.466
128.2727, 2673.949
128.7548, 2699.657
129.2369, 2724.375
129.7190, 2750.540
130.2011, 2776.780
130.6832, 2800.503
131.1654, 2821.829
131.6475, 2840.116
132.1296, 2855.989
132.6117, 2869.162
133.0938, 2875.606
133.5759, 2869.790
134.0581, 2854.061
134.5402, 2847.797
135.0223, 2853.201
135.5044, 2862.328
135.9865, 2860.661
136.4686, 2846.254
136.9508, 2836.197
137.4329, 2839.499
137.9150, 2857.394
138.3971, 2876.756
138.8792, 2898.735
139.3613, 2921.102
139.8434, 2937.657
140.3256, 2946.490
140.8077, 2954.708
141.2898, 2967.574
141.7719, 2988.234
142.2540, 3003.927
142.7361, 3013.976
143.2183, 3018.324
143.7004, 3014.241
144.1825, 2993.036
144.6646, 2973.655
145.1467, 2971.800
145.6288, 3002.650
146.1110, 3024.283
146.5931, 3016.350
147.0752, 2952.316
147.5573, 2967.682
148.0394, 2971.293
148.5215, 2963.781
149.0037, 2911.829
149.4858, 2917.261
149.9679, 2899.697
150.4500, 2881.190
150.9321, 2894.699
151.4142, 2849.212
151.8964, 2862.211
152.3785, 2851.865
152.8606, 2821.197
153.3427, 2810.651
153.8248, 2801.619
154.3069, 2789.620
154.7890, 2772.572
155.2712, 2756.473
155.7533, 2742.182
156.2354, 2729.562
156.7175, 2717.932
157.1996, 2708.274
157.6817, 2698.634
158.1639, 2687.403
158.6460, 2668.100
159.1281, 2655.534
159.6102, 2660.542
160.0923, 2677.524
160.5744, 2685.381
161.0566, 2665.856
161.5387, 2639.898
162.0208, 2622.738
162.5029, 2633.168
162.9850, 2639.448
163.4671, 2622.510
163.9493, 2585.362
164.4314, 2555.020
164.9135, 2553.922
165.3956, 2562.780
165.8777, 2561.783
166.3598, 2537.861
166.8420, 2506.723
167.3241, 2475.263
167.8062, 2443.566
168.2883, 2416.814
168.7704, 2401.473
169.2525, 2392.470
169.7346, 2382.080
170.2168, 2363.816
170.6989, 2344.734
171.1810, 2332.352
171.6631, 2328.059
172.1452, 2323.565
172.6273, 2312.093
173.1095, 2295.424
173.5916, 2277.278
174.0737, 2254.524
174.5558, 2233.104
175.0379, 2223.190
175.5201, 2228.768
176.0022, 2235.124
176.4843, 2224.001
176.9664, 2199.761
177.4485, 2177.418
177.9306, 2168.992
178.4128, 2168.057
178.8949, 2162.913
179.3770, 2150.938
179.8591, 2135.606
180.3412, 2120.171
180.8233, 2104.728
181.3055, 2091.053
181.7876, 2079.362
182.2697, 2070.253
182.7518, 2065.859
183.2339, 2069.218
183.7160, 2074.591
184.1982, 2069.073
184.6803, 2052.974
185.1624, 2038.916
185.6445, 2044.214
186.1266, 2062.713
186.6087, 2066.221
187.0908, 2040.478
187.5730, 1998.521
188.0551, 1973.609
188.5372, 1966.272
189.0193, 1967.932
189.5014, 1974.860
189.9835, 1985.959
190.4657, 1989.981
190.9478, 1981.988
191.4299, 1964.345
191.9120, 1944.158
192.3941, 1920.004
192.8762, 1900.123
193.3584, 1898.491
193.8405, 1914.852
194.3226, 1926.034
194.8047, 1921.001
195.2868, 1902.083
195.7689, 1889.616
196.2511, 1884.645
196.7332, 1883.078
197.2153, 1879.547
197.6974, 1873.952
198.1795, 1867.808
198.6616, 1861.395
199.1438, 1854.669
199.6259, 1848.838
200.1080, 1843.813
200.5901, 1839.836
201.0722, 1838.905
201.5543, 1842.217
202.0364, 1841.674
202.5186, 1830.032
203.0007, 1805.174
203.4828, 1792.510
203.9649, 1795.261
204.4470, 1807.033
204.9291, 1816.374
205.4113, 1824.313
205.8934, 1825.982
206.3755, 1815.323
206.8576, 1788.448
207.3397, 1773.396
207.8218, 1774.872
208.3040, 1786.357
208.7861, 1791.922
209.2682, 1791.360
209.7503, 1785.526
210.2324, 1772.065
210.7145, 1747.069
211.1967, 1733.120
211.6788, 1736.011
212.1609, 1749.570
212.6430, 1752.393
213.1251, 1740.681
213.6072, 1726.227
214.0894, 1715.770
214.5715, 1710.063
215.0536, 1706.058
215.5357, 1704.305
216.0178, 1704.008
216.4999, 1701.625
216.9820, 1696.578
217.4642, 1690.279
217.9463, 1683.085
218.4284, 1673.917
218.9105, 1666.874
219.3926, 1662.660
219.8747, 1660.991
220.3569, 1659.996
220.8390, 1659.729
221.3211, 1660.089
221.8032, 1661.726
222.2853, 1666.987
222.7674, 1667.607
223.2496, 1660.383
223.7317, 1646.465
224.2138, 1639.009
224.6959, 1642.144
225.1780, 1646.516
225.6601, 1643.510
226.1423, 1626.268
226.6244, 1617.170
227.1065, 1623.376
227.5886, 1643.937
228.0707, 1653.155
228.5528, 1645.636
229.0350, 1632.631
229.5171, 1624.113
229.9992, 1622.514
230.4813, 1619.957
230.9634, 1613.608
231.4455, 1603.424
231.9276, 1600.395
232.4098, 1607.979
232.8919, 1619.226
233.3740, 1627.653
233.8561, 1632.789
234.3382, 1636.240
234.8203, 1638.886
235.3025, 1640.838
235.7846, 1637.948
236.2667, 1627.507
236.7488, 1614.848
237.2309, 1605.198
237.7130, 1598.913
238.1952, 1595.264
238.6773, 1594.774
239.1594, 1597.674
239.6415, 1600.047
240.1236, 1602.484
240.6057, 1603.919
241.0879, 1602.481
241.5700, 1594.006
242.0521, 1590.500
242.5342, 1596.631
243.0163, 1613.675
243.4984, 1623.250
243.9806, 1621.319
244.4627, 1615.409
244.9448, 1613.793
245.4269, 1619.053
245.9090, 1623.871
246.3911, 1626.907
246.8732, 1628.103
247.3554, 1627.126
247.8375, 1621.246
248.3196, 1615.570
248.8017, 1616.435
249.2838, 1628.244
249.7659, 1638.229
250.2481, 1643.075
250.7302, 1642.268
251.2123, 1643.603
251.6944, 1650.991
252.1765, 1656.979
252.6586, 1651.676
253.1408, 1626.627
253.6229, 1607.377
254.1050, 1600.755
254.5871, 1607.649
255.0692, 1614.134
255.5513, 1619.334
256.0334, 1625.098
256.5156, 1633.465
256.9977, 1644.632
257.4798, 1658.617
257.9619, 1679.094
258.4440, 1707.485
258.9261, 1715.595
259.4083, 1692.767
259.8904, 1661.850
260.3725, 1650.216
260.8546, 1666.064
261.3367, 1681.035
261.8188, 1687.572
262.3010, 1685.333
262.7831, 1688.422
263.2652, 1699.382
263.7473, 1712.293
264.2294, 1720.530
264.7115, 1722.315
265.1937, 1724.173
265.6758, 1727.691
266.1579, 1732.792
266.6400, 1737.300
267.1221, 1740.586
267.6042, 1744.286
268.0864, 1750.619
268.5685, 1760.887
269.0506, 1769.448
269.5327, 1773.865
270.0148, 1774.621
270.4969, 1780.202
270.9791, 1791.388
271.4612, 1805.863
271.9433, 1822.100
272.4254, 1840.937
272.9075, 1857.385
273.3896, 1869.585
273.8718, 1878.011
274.3539, 1887.111
274.8360, 1896.419
275.3181, 1907.793
275.8002, 1924.015
276.2823, 1945.907
276.7645, 1966.557
277.2466, 1984.182
277.7287, 1999.386
278.2108, 2015.290
278.6929, 2031.405
279.1750, 2050.054
279.6572, 2075.648
280.1393, 2108.917
280.6214, 2136.628
281.1035, 2154.200
281.5856, 2164.606
282.0677, 2180.384
282.5499, 2202.474
283.0320, 2225.050
283.5141, 2242.113
283.9962, 2253.755
284.4783, 2267.519
284.9604, 2284.399
285.4425, 2304.777
285.9247, 2331.177
286.4068, 2364.097
286.8889, 2396.555
287.3710, 2421.011
287.8531, 2438.635
288.3352, 2460.006
288.8174, 2486.811
289.2995, 2518.653
289.7816, 2558.014
290.2637, 2604.317
290.7458, 2647.563
291.2279, 2676.699
291.7101, 2695.113
292.1922, 2719.673
292.6743, 2754.893
293.1564, 2793.958
293.6385, 2824.251
294.1206, 2846.177
294.6028, 2867.073
295.0849, 2894.599
295.5670, 2925.326
296.0491, 2948.164
296.5312, 2959.284
297.0133, 2966.986
297.4955, 2980.785
297.9776, 3000.610
298.4597, 3027.242
298.9418, 3068.860
299.4239, 3116.295
299.9060, 3150.458
300.3882, 3166.901
300.8703, 3175.825
301.3524, 3184.251
301.8345, 3193.482
302.3166, 3208.098
302.7987, 3233.105
303.2809, 3263.981
303.7630, 3295.143
304.2451, 3325.557
304.7272, 3356.659
305.2093, 3390.643
305.6914, 3426.323
306.1736, 3459.430
306.6557, 3485.433
307.1378, 3509.880
307.6199, 3538.736
308.1020, 3573.009
308.5841, 3609.026
309.0663, 3641.663
309.5484, 3674.939
310.0305, 3714.401
310.5126, 3767.777
310.9947, 3825.079
311.4768, 3877.275
311.9590, 3923.597
312.4411, 3973.176
312.9232, 4032.195
313.4053, 4097.109
313.8874, 4162.386
314.3695, 4217.176
314.8517, 4280.792
315.3337, 4366.248
315.8159, 4473.057
316.2980, 4584.192
316.7801, 4696.186
317.2622, 4808.443
317.7443, 4921.344
318.2264, 5020.830
318.7086, 5133.400
319.1907, 5272.736
319.6728, 5435.950
320.1549, 5601.231
320.6370, 5760.285
321.1191, 5920.331
321.6013, 6086.869
322.0834, 6256.251
322.5655, 6434.955
323.0476, 6628.657
323.5297, 6833.827
324.0118, 7036.316
324.4940, 7225.272
324.9761, 7417.079
325.4582, 7620.572
325.9403, 7854.126
326.4224, 8074.277
326.9045, 8276.830
327.3867, 8464.706
327.8688, 8645.871
328.3509, 8821.646
328.8330, 8989.724
329.3151, 9150.307
329.7972, 9302.435
330.2794, 9449.949
330.7615, 9595.688
331.2436, 9737.468
331.7257, 9869.798
332.2078, 9997.046
332.6899, 10110.17
333.1721, 10202.38
333.6542, 10265.57
334.1363, 10345.37
334.6184, 10453.38
335.1005, 10568.60
335.5826, 10663.70
336.0648, 10728.79
336.5469, 10797.15
337.0290, 10874.62
337.5111, 10961.51
337.9932, 11067.90
338.4753, 11196.37
338.9575, 11338.17
339.4396, 11485.76
339.9217, 11638.81
340.4038, 11802.89
340.8859, 11987.76
341.3680, 12183.96
341.8502, 12352.89
342.3323, 12487.58
342.8144, 12613.79
343.2965, 12753.38
343.7786, 12907.12
344.2607, 13044.65
344.7429, 13161.60
345.2250, 13262.44
345.7071, 13360.11
346.1892, 13456.22
346.6713, 13536.91
347.1534, 13600.88
347.6355, 13644.58
348.1176, 13655.99
348.5998, 13634.02
349.0819, 13577.33
349.5640, 13478.64
350.0461, 13339.36
350.5282, 13178.28
351.0103, 13008.36
351.4925, 12821.58
351.9746, 12597.02
352.4567, 12331.49
352.9388, 12046.16
353.4209, 11757.85
353.9030, 11465.54
354.3852, 11166.76
354.8673, 10857.08
355.3494, 10543.08
355.8315, 10226.54
356.3136, 9909.408
356.7957, 9603.632
357.2779, 9320.580
357.7600, 9055.316
358.2421, 8805.061
358.7242, 8563.521
359.2063, 8338.351
359.6884, 8134.442
360.1706, 7951.004
360.6527, 7783.601
361.1348, 7635.385
361.6169, 7498.714
362.0990, 7368.820
362.5811, 7237.911
363.0633, 7121.178
363.5454, 7017.258
364.0275, 6930.120
364.5096, 6871.217
364.9917, 6876.641
365.4738, 6885.137
365.9560, 6864.980
366.4381, 6792.100
366.9202, 6736.575
367.4023, 6714.627
367.8844, 6712.751
368.3665, 6708.954
368.8487, 6700.198
369.3308, 6691.517
369.8129, 6681.812
370.2950, 6668.529
370.7771, 6669.702
371.2592, 6704.173
371.7414, 6739.458
372.2235, 6741.224
372.7056, 6691.090
373.1877, 6641.094
373.6698, 6602.132
374.1519, 6572.720
374.6341, 6535.348
375.1162, 6491.977
375.5983, 6437.412
376.0804, 6364.392
376.5625, 6269.315
377.0446, 6177.985
377.5267, 6097.572
378.0089, 6020.595
378.4910, 5927.466
378.9731, 5817.408
379.4552, 5700.124
379.9373, 5580.934
380.4194, 5459.209
380.9016, 5338.155
381.3837, 5215.599
381.8658, 5097.316
382.3479, 4996.130
382.8300, 4909.901
383.3121, 4817.683
383.7943, 4700.615
384.2764, 4573.085
384.7585, 4467.419
385.2406, 4385.165
385.7227, 4314.246
386.2048, 4248.747
386.6870, 4187.397
387.1691, 4126.873
387.6512, 4062.760
388.1333, 4002.725
388.6154, 3959.176
389.0975, 3929.387
389.5797, 3894.557
390.0618, 3832.405
390.5439, 3763.953
391.0260, 3713.450
391.5081, 3695.590
391.9902, 3678.929
392.4724, 3640.411
392.9545, 3589.734
393.4366, 3549.284
393.9187, 3534.508
394.4008, 3527.586
394.8829, 3519.404
395.3651, 3508.682
395.8472, 3498.206
396.3293, 3491.826
396.8114, 3485.047
397.2935, 3472.444
397.7756, 3441.128
398.2578, 3416.004
398.7399, 3406.446
399.2220, 3413.935
399.7041, 3412.004
400.1862, 3394.236
400.6683, 3371.630
401.1505, 3351.209
401.6326, 3331.097
402.1147, 3316.876
402.5968, 3312.474
403.0789, 3313.999
403.5610, 3306.621
404.0432, 3286.176
404.5253, 3265.204
405.0074, 3251.250
405.4895, 3247.046
405.9716, 3235.054
406.4537, 3213.874
406.9359, 3187.114
407.4180, 3158.321
407.9001, 3126.766
408.3822, 3100.577
408.8643, 3084.051
409.3464, 3075.294
409.8285, 3066.293
410.3106, 3057.337
410.7928, 3045.906
411.2749, 3029.822
411.7570, 3009.152
412.2391, 2983.766
412.7212, 2950.556
413.2033, 2916.318
413.6855, 2893.731
414.1676, 2880.731
414.6497, 2865.968
415.1318, 2838.440
415.6139, 2806.413
416.0960, 2781.618
416.5782, 2767.056
417.0603, 2753.696
417.5424, 2734.757
418.0245, 2712.433
418.5066, 2690.701
418.9887, 2671.807
419.4709, 2653.269
419.9530, 2633.351
420.4351, 2612.131
420.9172, 2590.940
421.3993, 2571.723
421.8814, 2552.269
422.3636, 2530.757
422.8457, 2503.844
423.3278, 2478.335
423.8099, 2455.198
424.2920, 2434.331
424.7741, 2416.215
425.2563, 2400.068
425.7384, 2387.348
426.2205, 2379.944
426.7026, 2382.783
427.1847, 2378.130
427.6668, 2362.147
428.1490, 2341.178
428.6311, 2325.722
429.1132, 2319.139
429.5953, 2308.493
430.0774, 2286.828
430.5595, 2255.825
431.0417, 2241.443
431.5238, 2247.923
432.0059, 2258.086
432.4880, 2256.083
432.9701, 2242.229
433.4522, 2227.816
433.9344, 2213.303
434.4165, 2201.049
434.8986, 2198.417
435.3807, 2204.347
435.8628, 2206.771
436.3449, 2194.856
436.8271, 2174.989
437.3092, 2160.399
437.7913, 2152.625
438.2734, 2146.895
438.7555, 2136.968
439.2376, 2126.114
439.7197, 2120.398
440.2018, 2128.313
440.6840, 2137.648
441.1661, 2136.838
441.6482, 2127.505
442.1303, 2122.344
442.6124, 2136.032
443.0945, 2151.470
443.5767, 2154.562
444.0588, 2135.302
444.5409, 2116.348
445.0230, 2102.477
445.5051, 2093.051
445.9872, 2086.896
446.4694, 2084.809
446.9515, 2085.095
447.4336, 2089.152
447.9157, 2099.059
448.3978, 2101.126
448.8799, 2089.437
449.3621, 2074.777
449.8442, 2067.831
450.3263, 2073.780
450.8084, 2074.592
451.2905, 2065.445
451.7726, 2049.789
452.2548, 2041.120
452.7369, 2040.596
453.2190, 2042.806
453.7011, 2045.185
454.1832, 2047.704
454.6653, 2050.284
455.1475, 2053.160
455.6296, 2055.362
456.1117, 2056.930
456.5938, 2057.283
457.0759, 2052.768
457.5580, 2038.201
458.0402, 2020.202
458.5223, 2011.580
459.0044, 2011.472
459.4865, 2010.594
459.9686, 2003.304
460.4507, 1990.822
460.9329, 1972.525
461.4150, 1943.587
461.8971, 1920.718
462.3792, 1921.089
462.8613, 1934.729
463.3434, 1941.909
463.8256, 1929.475
464.3077, 1913.318
464.7898, 1900.988
465.2719, 1893.591
465.7540, 1884.300
466.2361, 1865.980
466.7183, 1848.251
467.2004, 1839.140
467.6825, 1852.370
468.1646, 1857.237
468.6467, 1848.303
469.1288, 1829.501
469.6110, 1815.069
470.0930, 1808.309
470.5752, 1799.840
471.0573, 1784.238
471.5394, 1759.817
472.0215, 1741.550
472.5036, 1730.672
472.9857, 1723.355
473.4679, 1716.259
473.9500, 1709.469
474.4321, 1698.985
474.9142, 1682.155
475.3963, 1662.426
475.8784, 1647.963
476.3606, 1638.563
476.8427, 1630.810
477.3248, 1622.324
477.8069, 1614.043
478.2890, 1608.238
478.7711, 1605.732
479.2533, 1603.034
479.7354, 1594.888
480.2175, 1584.781
480.6996, 1578.621
481.1817, 1586.824
481.6638, 1592.841
482.1460, 1582.526
482.6281, 1558.247
483.1102, 1542.076
483.5923, 1551.532
484.0744, 1564.743
484.5565, 1567.309
485.0387, 1545.840
485.5208, 1533.066
486.0029, 1539.851
486.4850, 1554.714
486.9671, 1559.632
487.4492, 1547.823
487.9314, 1536.324
488.4135, 1528.754
488.8956, 1525.158
489.3777, 1525.455
489.8598, 1532.665
490.3419, 1537.131
490.8241, 1529.596
491.3062, 1509.298
491.7883, 1491.367
492.2704, 1476.337
492.7525, 1466.135
493.2346, 1466.991
493.7168, 1477.415
494.1989, 1485.551
494.6810, 1484.007
495.1631, 1476.998
495.6452, 1472.180
496.1273, 1469.511
496.6095, 1466.220
497.0916, 1459.785
497.5737, 1451.713
498.0558, 1443.270
498.5379, 1432.820
499.0201, 1425.862
499.5022, 1428.809
499.9843, 1437.414
500.4664, 1442.898
500.9485, 1441.458
501.4306, 1437.169
501.9127, 1430.514
502.3948, 1421.104
502.8770, 1413.871
503.3591, 1410.319
503.8412, 1408.350
504.3233, 1406.752
504.8054, 1406.743
505.2875, 1404.479
505.7697, 1398.653
506.2518, 1390.927
506.7339, 1385.855
507.2160, 1384.219
507.6981, 1382.009
508.1802, 1377.102
508.6624, 1369.983
509.1445, 1364.185
509.6266, 1359.625
510.1087, 1357.192
510.5908, 1359.907
511.0729, 1365.713
511.5551, 1367.971
512.0372, 1364.970
512.5193, 1358.731
513.0014, 1350.686
513.4835, 1341.225
513.9656, 1331.427
514.4478, 1318.883
514.9299, 1308.350
515.4120, 1304.231
515.8941, 1306.728
516.3762, 1309.793
516.8583, 1311.013
517.3405, 1311.724
517.8226, 1312.927
518.3047, 1315.132
518.7868, 1317.352
519.2689, 1322.170
519.7510, 1326.580
520.2332, 1323.769
520.7153, 1307.838
521.1974, 1294.181
521.6795, 1287.233
522.1616, 1286.982
522.6437, 1289.536
523.1259, 1296.463
523.6080, 1301.986
524.0901, 1301.008
524.5722, 1293.572
525.0543, 1283.534
525.5364, 1270.062
526.0186, 1257.111
526.5007, 1251.152
526.9828, 1251.243
527.4649, 1253.033
527.9470, 1257.904
528.4291, 1261.489
528.9113, 1256.410
529.3934, 1243.630
529.8755, 1232.336
530.3576, 1228.018
530.8397, 1227.851
531.3218, 1229.727
531.8040, 1234.348
532.2861, 1238.344
532.7682, 1241.949
533.2503, 1243.907
533.7324, 1242.253
534.2145, 1231.526
534.6967, 1223.009
535.1788, 1219.723
535.6609, 1221.092
536.1430, 1220.772
536.6251, 1218.819
537.1072, 1215.146
537.5894, 1208.382
538.0715, 1197.360
538.5536, 1192.822
539.0357, 1196.554
539.5178, 1203.036
539.9999, 1204.528
540.4821, 1201.626
540.9642, 1200.173
541.4463, 1202.602
541.9284, 1206.621
542.4105, 1208.838
542.8926, 1209.341
543.3748, 1208.663
543.8569, 1206.375
544.3390, 1203.467
544.8211, 1200.989
545.3032, 1199.106
545.7853, 1196.838
546.2675, 1192.753
546.7495, 1188.480
547.2316, 1185.625
547.7137, 1182.957
548.1959, 1183.617
548.6780, 1190.960
549.1601, 1202.186
549.6422, 1209.252
550.1243, 1211.778
550.6064, 1210.562
551.0886, 1204.242
551.5707, 1192.525
552.0528, 1187.087
552.5349, 1189.799
553.0170, 1193.738
553.4991, 1192.521
553.9813, 1186.500
554.4634, 1181.332
554.9455, 1177.823
555.4276, 1175.234
555.9097, 1172.174
556.3918, 1169.095
556.8740, 1167.433
557.3561, 1168.645
557.8382, 1171.061
558.3203, 1173.824
558.8024, 1176.693
559.2845, 1177.985
559.7667, 1173.266
560.2488, 1169.131
560.7309, 1171.289
561.2130, 1184.220
561.6951, 1192.637
562.1772, 1191.325
562.6594, 1185.011
563.1415, 1179.146
563.6236, 1174.011
564.1057, 1168.846
564.5878, 1162.353
565.0699, 1155.906
565.5521, 1154.960
566.0342, 1160.836
566.5163, 1167.370
566.9984, 1170.943
567.4805, 1172.207
567.9626, 1178.367
568.4448, 1190.116
568.9269, 1200.105
569.4090, 1198.280
569.8911, 1189.903
570.3732, 1187.717
570.8553, 1196.966
571.3375, 1206.713
571.8196, 1207.976
572.3017, 1202.579
572.7838, 1193.886
573.2659, 1177.576
573.7480, 1163.514
574.2302, 1156.625
574.7123, 1156.673
575.1944, 1157.872
575.6765, 1161.427
576.1586, 1164.043
576.6407, 1163.492
577.1229, 1156.939
577.6050, 1156.595
578.0871, 1165.667
578.5692, 1176.894
579.0513, 1181.368
579.5334, 1178.471
580.0156, 1174.145
580.4977, 1168.486
580.9798, 1163.392
581.4619, 1164.133
581.9440, 1169.873
582.4261, 1174.635
582.9083, 1173.363
583.3904, 1169.993
583.8725, 1170.257
584.3546, 1174.093
584.8367, 1178.106
585.3188, 1180.382
585.8010, 1181.783
586.2831, 1182.779
586.7652, 1182.396
587.2473, 1184.024
587.7294, 1190.920
588.2115, 1199.569
588.6937, 1204.985
589.1758, 1204.790
589.6579, 1204.782
590.1400, 1206.909
590.6221, 1209.891
591.1042, 1206.422
591.5864, 1193.414
592.0685, 1185.072
592.5506, 1192.161
593.0327, 1212.113
593.5148, 1221.241
593.9969, 1218.915
594.4791, 1212.444
594.9612, 1207.270
595.4433, 1203.100
595.9254, 1198.402
596.4075, 1190.973
596.8896, 1188.420
597.3718, 1204.237
597.8539, 1227.804
598.3360, 1241.448
598.8181, 1228.214
599.3002, 1214.522
599.7823, 1209.021
600.2645, 1211.286
600.7466, 1217.724
601.2287, 1235.420
601.7108, 1248.803
602.1929, 1249.665
602.6750, 1234.904
603.1572, 1231.317
603.6393, 1243.152
604.1214, 1256.709
604.6035, 1257.288
605.0856, 1245.550
605.5677, 1238.117
606.0499, 1237.309
606.5320, 1241.546
607.0141, 1252.056
607.4962, 1266.112
607.9783, 1276.066
608.4604, 1276.302
608.9425, 1272.706
609.4246, 1267.923
609.9067, 1262.798
610.3889, 1261.169
610.8710, 1266.834
611.3531, 1274.597
611.8352, 1282.522
612.3173, 1291.202
612.7994, 1296.689
613.2816, 1298.965
613.7637, 1298.094
614.2458, 1292.742
614.7279, 1279.357
615.2100, 1274.472
615.6921, 1281.671
616.1743, 1293.920
616.6564, 1298.846
