##NAMES=Fornacite
##RRUFFID=R060932
##IDEAL CHEMISTRY=Cu^2+^Pb^2+^_2_(Cr^6+^O_4_)(As^5+^O_4_)(OH)
##LOCALITY=Tiger, Arizona, USA
##OWNER=RRUFF
##SOURCE=Bob Jenkins
##DESCRIPTION=Groups of tabular olive-green crystals
##STATUS=The identification of this mineral is confirmed by single-crystal X-ray diffraction and chemical analysis.
##URL=rruff.info/R060932
##MEASURED CHEMISTRY=Cu_1.00_(Pb_1.99_Fe_0.01_)_Σ=2_(Cr_1.00_O_4_)((As_0.97_P_0.03_)_Σ=1_O_4_)(OH)
120.0767, 4464.271
120.5588, 4610.685
121.0409, 4749.771
121.5230, 4858.399
122.0051, 4918.006
122.4873, 4963.153
122.9694, 5025.452
123.4515, 5100.471
123.9336, 5163.288
124.4157, 5188.717
124.8979, 5191.581
125.3800, 5196.526
125.8621, 5217.187
126.3442, 5240.968
126.8263, 5246.411
127.3084, 5232.956
127.7905, 5219.966
128.2727, 5232.036
128.7548, 5262.159
129.2369, 5285.550
129.7190, 5280.690
130.2011, 5260.354
130.6832, 5262.976
131.1654, 5291.931
131.6475, 5335.795
132.1296, 5384.004
132.6117, 5436.318
133.0938, 5481.263
133.5759, 5506.899
134.0581, 5515.171
134.5402, 5532.566
135.0223, 5561.826
135.5044, 5600.733
135.9865, 5644.763
136.4686, 5694.346
136.9508, 5745.652
137.4329, 5800.043
137.9150, 5859.437
138.3971, 5903.404
138.8792, 5926.771
139.3613, 5931.965
139.8434, 5934.556
140.3256, 5934.964
140.8077, 5932.472
141.2898, 5925.158
141.7719, 5910.111
142.2540, 5898.962
142.7361, 5896.611
143.2183, 5904.372
143.7004, 5902.319
144.1825, 5884.260
144.6646, 5860.991
145.1467, 5848.109
145.6288, 5856.610
146.1110, 5858.710
146.5931, 5845.063
147.0752, 5807.542
147.5573, 5775.377
148.0394, 5747.475
148.5215, 5724.926
149.0037, 5709.860
149.4858, 5704.695
149.9679, 5704.926
150.4500, 5709.946
150.9321, 5734.630
151.4142, 5743.419
151.8964, 5727.539
152.3785, 5693.994
152.8606, 5666.925
153.3427, 5651.517
153.8248, 5640.662
154.3069, 5630.906
154.7890, 5618.228
155.2712, 5611.008
155.7533, 5615.763
156.2354, 5630.602
156.7175, 5637.130
157.1996, 5618.524
157.6817, 5596.855
158.1639, 5588.917
158.6460, 5618.438
159.1281, 5643.308
159.6102, 5646.378
160.0923, 5626.248
160.5744, 5608.806
161.0566, 5602.870
161.5387, 5603.701
162.0208, 5606.078
162.5029, 5609.234
162.9850, 5612.297
163.4671, 5618.310
163.9493, 5629.616
164.4314, 5628.755
164.9135, 5594.808
165.3956, 5544.544
165.8777, 5505.063
166.3598, 5499.699
166.8420, 5502.753
167.3241, 5493.547
167.8062, 5464.375
168.2883, 5438.913
168.7704, 5440.470
169.2525, 5458.802
169.7346, 5468.276
170.2168, 5448.291
170.6989, 5415.573
171.1810, 5386.461
171.6631, 5363.964
172.1452, 5346.104
172.6273, 5330.622
173.1095, 5317.985
173.5916, 5309.551
174.0737, 5310.125
174.5558, 5314.616
175.0379, 5314.801
175.5201, 5304.723
176.0022, 5293.765
176.4843, 5295.647
176.9664, 5308.909
177.4485, 5321.108
177.9306, 5318.750
178.4128, 5308.183
178.8949, 5302.950
179.3770, 5307.603
179.8591, 5319.872
180.3412, 5345.565
180.8233, 5385.317
181.3055, 5409.162
181.7876, 5372.842
182.2697, 5293.499
182.7518, 5227.588
183.2339, 5201.912
183.7160, 5204.287
184.1982, 5211.445
184.6803, 5224.733
185.1624, 5232.666
185.6445, 5216.737
186.1266, 5180.803
186.6087, 5147.938
187.0908, 5130.562
187.5730, 5124.965
188.0551, 5116.445
188.5372, 5103.187
189.0193, 5092.005
189.5014, 5096.737
189.9835, 5116.514
190.4657, 5130.634
190.9478, 5126.031
191.4299, 5105.134
191.9120, 5085.662
192.3941, 5068.838
192.8762, 5053.211
193.3584, 5035.517
193.8405, 5015.697
194.3226, 4997.457
194.8047, 4983.276
195.2868, 4973.107
195.7689, 4965.839
196.2511, 4963.503
196.7332, 4961.583
197.2153, 4946.933
197.6974, 4917.608
198.1795, 4888.916
198.6616, 4869.735
199.1438, 4860.061
199.6259, 4858.937
200.1080, 4869.789
200.5901, 4887.173
201.0722, 4891.899
201.5543, 4881.290
202.0364, 4868.381
202.5186, 4863.184
203.0007, 4866.692
203.4828, 4869.543
203.9649, 4871.289
204.4470, 4870.982
204.9291, 4862.704
205.4113, 4843.027
205.8934, 4823.876
206.3755, 4816.364
206.8576, 4822.938
207.3397, 4829.101
207.8218, 4832.884
208.3040, 4834.259
208.7861, 4833.181
209.2682, 4830.575
209.7503, 4824.174
210.2324, 4810.291
210.7145, 4786.364
211.1967, 4765.453
211.6788, 4750.561
212.1609, 4741.686
212.6430, 4735.395
213.1251, 4732.789
213.6072, 4731.529
214.0894, 4729.763
214.5715, 4728.518
215.0536, 4723.473
215.5357, 4710.975
216.0178, 4690.131
216.4999, 4680.647
216.9820, 4687.239
217.4642, 4699.388
217.9463, 4704.241
218.4284, 4698.088
218.9105, 4692.861
219.3926, 4692.972
219.8747, 4699.782
220.3569, 4699.442
220.8390, 4690.199
221.3211, 4675.435
221.8032, 4658.348
222.2853, 4636.476
222.7674, 4618.040
223.2496, 4606.458
223.7317, 4603.195
224.2138, 4598.837
224.6959, 4591.859
225.1780, 4585.137
225.6601, 4582.500
226.1423, 4583.719
226.6244, 4589.771
227.1065, 4603.495
227.5886, 4629.948
228.0707, 4642.306
228.5528, 4633.481
229.0350, 4614.602
229.5171, 4605.326
229.9992, 4610.824
230.4813, 4616.789
230.9634, 4620.014
231.4455, 4623.415
231.9276, 4612.243
232.4098, 4573.372
232.8919, 4526.143
233.3740, 4512.414
233.8561, 4554.864
234.3382, 4593.829
234.8203, 4606.556
235.3025, 4581.100
235.7846, 4563.128
236.2667, 4553.463
236.7488, 4550.984
237.2309, 4554.644
237.7130, 4569.958
238.1952, 4582.972
238.6773, 4588.320
239.1594, 4584.135
239.6415, 4577.276
240.1236, 4566.646
240.6057, 4553.720
241.0879, 4540.640
241.5700, 4522.520
242.0521, 4511.855
242.5342, 4514.617
243.0163, 4536.583
243.4984, 4558.725
243.9806, 4586.125
244.4627, 4611.926
244.9448, 4617.551
245.4269, 4587.324
245.9090, 4559.754
246.3911, 4551.358
246.8732, 4571.299
247.3554, 4588.348
247.8375, 4604.577
248.3196, 4617.116
248.8017, 4617.649
249.2838, 4599.061
249.7659, 4579.550
250.2481, 4566.170
250.7302, 4559.081
251.2123, 4558.789
251.6944, 4568.979
252.1765, 4585.036
252.6586, 4595.568
253.1408, 4598.713
253.6229, 4599.958
254.1050, 4601.873
254.5871, 4605.561
255.0692, 4607.880
255.5513, 4610.713
256.0334, 4611.574
256.5156, 4602.084
256.9977, 4572.764
257.4798, 4549.399
257.9619, 4545.274
258.4440, 4569.142
258.9261, 4586.608
259.4083, 4595.542
259.8904, 4598.722
260.3725, 4602.350
260.8546, 4605.542
261.3367, 4610.632
261.8188, 4619.275
262.3010, 4633.385
262.7831, 4644.305
263.2652, 4650.137
263.7473, 4653.762
264.2294, 4663.616
264.7115, 4684.336
265.1937, 4700.508
265.6758, 4700.403
266.1579, 4674.803
266.6400, 4674.123
267.1221, 4710.059
267.6042, 4762.330
268.0864, 4779.992
268.5685, 4743.678
269.0506, 4726.096
269.5327, 4774.871
270.0148, 4913.940
270.4969, 4991.421
270.9791, 4994.174
271.4612, 4949.021
271.9433, 4902.545
272.4254, 4851.922
272.9075, 4810.616
273.3896, 4785.020
273.8718, 4776.057
274.3539, 4778.722
274.8360, 4796.566
275.3181, 4821.347
275.8002, 4838.071
276.2823, 4845.200
276.7645, 4851.537
277.2466, 4860.285
277.7287, 4871.422
278.2108, 4884.823
278.6929, 4900.543
279.1750, 4918.343
279.6572, 4938.733
280.1393, 4962.070
280.6214, 4984.331
281.1035, 5002.627
281.5856, 5017.125
282.0677, 5036.379
282.5499, 5062.430
283.0320, 5088.115
283.5141, 5100.923
283.9962, 5100.301
284.4783, 5101.198
284.9604, 5109.487
285.4425, 5124.774
285.9247, 5143.510
286.4068, 5166.239
286.8889, 5190.251
287.3710, 5211.406
287.8531, 5229.957
288.3352, 5250.209
288.8174, 5276.094
289.2995, 5305.292
289.7816, 5326.727
290.2637, 5339.021
290.7458, 5349.449
291.2279, 5366.347
291.7101, 5388.787
292.1922, 5410.931
292.6743, 5430.667
293.1564, 5448.448
293.6385, 5465.923
294.1206, 5483.208
294.6028, 5497.860
295.0849, 5503.069
295.5670, 5502.618
296.0491, 5510.989
296.5312, 5537.677
297.0133, 5573.669
297.4955, 5603.191
297.9776, 5625.918
298.4597, 5644.472
298.9418, 5659.586
299.4239, 5672.004
299.9060, 5683.123
300.3882, 5692.534
300.8703, 5701.303
301.3524, 5706.272
301.8345, 5708.528
302.3166, 5720.671
302.7987, 5757.948
303.2809, 5810.310
303.7630, 5861.973
304.2451, 5908.709
304.7272, 5951.931
305.2093, 5993.230
305.6914, 6032.395
306.1736, 6065.674
306.6557, 6082.224
307.1378, 6095.177
307.6199, 6123.711
308.1020, 6183.106
308.5841, 6240.720
309.0663, 6259.559
309.5484, 6252.052
310.0305, 6259.106
310.5126, 6317.815
310.9947, 6394.447
311.4768, 6456.938
311.9590, 6494.281
312.4411, 6528.328
312.9232, 6568.631
313.4053, 6615.291
313.8874, 6667.472
314.3695, 6725.365
314.8517, 6789.361
315.3337, 6860.543
315.8159, 6940.312
316.2980, 7022.957
316.7801, 7108.918
317.2622, 7196.400
317.7443, 7283.250
318.2264, 7352.385
318.7086, 7432.877
319.1907, 7543.708
319.6728, 7694.121
320.1549, 7839.690
320.6370, 7966.209
321.1191, 8081.239
321.6013, 8194.788
322.0834, 8295.529
322.5655, 8406.049
323.0476, 8534.669
323.5297, 8683.186
324.0118, 8837.536
324.4940, 9012.759
324.9761, 9185.196
325.4582, 9332.324
325.9403, 9435.645
326.4224, 9529.906
326.9045, 9614.567
327.3867, 9688.540
327.8688, 9781.598
328.3509, 9930.836
328.8330, 10076.74
329.3151, 10178.38
329.7972, 10197.06
330.2794, 10223.28
330.7615, 10280.05
331.2436, 10359.55
331.7257, 10390.74
332.2078, 10343.17
332.6899, 10280.70
333.1721, 10242.04
333.6542, 10243.81
334.1363, 10236.81
334.6184, 10220.36
335.1005, 10193.23
335.5826, 10147.22
336.0648, 10070.83
336.5469, 9996.746
337.0290, 9937.974
337.5111, 9891.951
337.9932, 9873.637
338.4753, 9893.985
338.9575, 9931.679
339.4396, 9943.064
339.9217, 9922.382
340.4038, 9896.799
340.8859, 9874.542
341.3680, 9855.471
341.8502, 9849.268
342.3323, 9858.478
342.8144, 9875.289
343.2965, 9887.145
343.7786, 9893.991
344.2607, 9908.814
344.7429, 9947.822
345.2250, 10001.10
345.7071, 10011.79
346.1892, 9974.660
346.6713, 9929.545
347.1534, 9920.157
347.6355, 9940.769
348.1176, 9959.229
348.5998, 9971.336
349.0819, 9971.404
349.5640, 9941.987
350.0461, 9883.036
350.5282, 9819.564
351.0103, 9769.583
351.4925, 9729.376
351.9746, 9692.130
352.4567, 9661.578
352.9388, 9625.473
353.4209, 9563.609
353.9030, 9481.031
354.3852, 9399.971
354.8673, 9332.341
355.3494, 9275.231
355.8315, 9226.794
356.3136, 9189.715
356.7957, 9154.103
357.2779, 9115.035
357.7600, 9072.275
358.2421, 9025.772
358.7242, 8967.123
359.2063, 8909.986
359.6884, 8861.446
360.1706, 8820.938
360.6527, 8796.801
361.1348, 8800.003
361.6169, 8819.978
362.0990, 8842.637
362.5811, 8862.386
363.0633, 8884.817
363.5454, 8912.027
364.0275, 8944.059
364.5096, 8979.272
364.9917, 9026.151
365.4738, 9071.455
365.9560, 9104.536
366.4381, 9112.329
366.9202, 9119.906
367.4023, 9129.542
367.8844, 9141.789
368.3665, 9160.055
368.8487, 9187.079
369.3308, 9218.674
369.8129, 9253.762
370.2950, 9312.628
370.7771, 9343.241
371.2592, 9331.538
371.7414, 9292.775
372.2235, 9268.190
372.7056, 9270.501
373.1877, 9267.200
373.6698, 9241.472
374.1519, 9183.472
374.6341, 9146.183
375.1162, 9141.655
375.5983, 9144.802
376.0804, 9117.343
376.5625, 9055.091
377.0446, 8978.354
377.5267, 8889.407
378.0089, 8789.060
378.4910, 8701.266
378.9731, 8628.897
379.4552, 8560.399
379.9373, 8487.939
380.4194, 8410.966
380.9016, 8324.683
381.3837, 8222.039
381.8658, 8113.182
382.3479, 8026.975
382.8300, 7963.479
383.3121, 7897.863
383.7943, 7804.293
384.2764, 7694.524
384.7585, 7602.370
385.2406, 7538.931
385.7227, 7482.007
386.2048, 7399.711
386.6870, 7299.580
387.1691, 7207.395
387.6512, 7139.690
388.1333, 7087.917
388.6154, 7043.961
389.0975, 7008.323
389.5797, 6971.596
390.0618, 6924.563
390.5439, 6872.327
391.0260, 6823.756
391.5081, 6780.343
391.9902, 6743.721
392.4724, 6720.112
392.9545, 6708.708
393.4366, 6689.169
393.9187, 6643.328
394.4008, 6591.116
394.8829, 6547.622
395.3651, 6528.016
395.8472, 6505.417
396.3293, 6471.974
396.8114, 6430.014
397.2935, 6388.073
397.7756, 6335.047
398.2578, 6292.177
398.7399, 6270.287
399.2220, 6286.662
399.7041, 6291.590
400.1862, 6283.436
400.6683, 6263.973
401.1505, 6234.563
401.6326, 6181.375
402.1147, 6138.459
402.5968, 6116.618
403.0789, 6117.748
403.5610, 6117.027
404.0432, 6115.706
404.5253, 6110.978
405.0074, 6098.387
405.4895, 6074.932
405.9716, 6057.079
406.4537, 6052.369
406.9359, 6053.780
407.4180, 6028.694
407.9001, 5971.296
408.3822, 5920.110
408.8643, 5907.476
409.3464, 5928.916
409.8285, 5940.584
410.3106, 5937.929
410.7928, 5924.925
411.2749, 5902.295
411.7570, 5871.968
412.2391, 5846.818
412.7212, 5836.932
413.2033, 5835.271
413.6855, 5828.954
414.1676, 5817.571
414.6497, 5804.077
415.1318, 5789.778
415.6139, 5775.309
416.0960, 5761.981
416.5782, 5748.573
417.0603, 5737.693
417.5424, 5733.921
418.0245, 5735.530
418.5066, 5734.437
418.9887, 5731.151
419.4709, 5720.745
419.9530, 5696.413
420.4351, 5645.527
420.9172, 5605.563
421.3993, 5597.971
421.8814, 5609.467
422.3636, 5615.411
422.8457, 5607.957
423.3278, 5596.567
423.8099, 5585.932
424.2920, 5578.272
424.7741, 5560.513
425.2563, 5520.570
425.7384, 5477.102
426.2205, 5447.135
426.7026, 5437.778
427.1847, 5429.963
427.6668, 5421.953
428.1490, 5413.676
428.6311, 5404.488
429.1132, 5392.530
429.5953, 5382.761
430.0774, 5378.424
430.5595, 5380.034
431.0417, 5384.901
431.5238, 5397.014
432.0059, 5405.727
432.4880, 5384.469
432.9701, 5331.832
433.4522, 5293.248
433.9344, 5292.222
434.4165, 5319.854
434.8986, 5348.849
435.3807, 5380.280
435.8628, 5397.326
436.3449, 5372.437
436.8271, 5320.391
437.3092, 5280.261
437.7913, 5267.568
438.2734, 5263.635
438.7555, 5246.406
439.2376, 5219.354
439.7197, 5195.687
440.2018, 5180.800
440.6840, 5174.049
441.1661, 5176.722
441.6482, 5190.854
442.1303, 5205.178
442.6124, 5224.570
443.0945, 5237.818
443.5767, 5229.474
444.0588, 5159.672
444.5409, 5101.584
445.0230, 5086.186
445.5051, 5113.203
445.9872, 5137.695
446.4694, 5160.222
446.9515, 5172.972
447.4336, 5170.622
447.9157, 5133.084
448.3978, 5109.752
448.8799, 5108.289
449.3621, 5119.983
449.8442, 5124.114
450.3263, 5116.234
450.8084, 5109.643
451.2905, 5111.236
451.7726, 5122.196
452.2548, 5119.810
452.7369, 5099.244
453.2190, 5075.781
453.7011, 5068.030
454.1832, 5076.464
454.6653, 5079.559
455.1475, 5070.370
455.6296, 5055.202
456.1117, 5051.134
456.5938, 5057.418
457.0759, 5059.516
457.5580, 5043.724
458.0402, 5017.535
458.5223, 4995.949
459.0044, 4980.356
459.4865, 4969.177
459.9686, 4961.705
460.4507, 4957.405
460.9329, 4955.053
461.4150, 4958.748
461.8971, 4960.663
462.3792, 4953.133
462.8613, 4937.362
463.3434, 4924.223
463.8256, 4926.813
464.3077, 4929.000
464.7898, 4918.018
465.2719, 4878.474
465.7540, 4846.764
466.2361, 4833.476
466.7183, 4832.093
467.2004, 4829.801
467.6825, 4822.396
468.1646, 4817.393
468.6467, 4816.780
469.1288, 4820.856
469.6110, 4827.440
470.0930, 4841.619
470.5752, 4851.789
471.0573, 4845.659
471.5394, 4817.666
472.0215, 4795.274
472.5036, 4783.846
472.9857, 4778.697
473.4679, 4765.931
473.9500, 4744.809
474.4321, 4727.214
474.9142, 4721.725
475.3963, 4725.651
475.8784, 4729.508
476.3606, 4733.933
476.8427, 4732.414
477.3248, 4711.561
477.8069, 4679.724
478.2890, 4656.785
478.7711, 4653.929
479.2533, 4657.398
479.7354, 4655.493
480.2175, 4648.721
480.6996, 4638.984
481.1817, 4620.124
481.6638, 4603.344
482.1460, 4597.913
482.6281, 4607.384
483.1102, 4619.187
483.5923, 4636.341
484.0744, 4650.676
484.5565, 4652.329
485.0387, 4617.927
485.5208, 4593.224
486.0029, 4597.116
486.4850, 4625.031
486.9671, 4629.103
487.4492, 4588.052
487.9314, 4548.302
488.4135, 4536.610
488.8956, 4565.928
489.3777, 4584.400
489.8598, 4590.645
490.3419, 4587.774
490.8241, 4578.039
491.3062, 4560.383
491.7883, 4546.927
492.2704, 4542.889
492.7525, 4545.528
493.2346, 4545.985
493.7168, 4544.234
494.1989, 4540.813
494.6810, 4537.115
495.1631, 4531.847
495.6452, 4520.792
496.1273, 4501.520
496.6095, 4482.303
497.0916, 4470.298
497.5737, 4464.582
498.0558, 4463.472
498.5379, 4473.798
499.0201, 4482.455
499.5022, 4478.806
499.9843, 4463.571
500.4664, 4451.517
500.9485, 4452.761
501.4306, 4456.146
501.9127, 4454.228
502.3948, 4441.890
502.8770, 4430.640
503.3591, 4418.820
503.8412, 4409.233
504.3233, 4407.613
504.8054, 4422.348
505.2875, 4431.053
505.7697, 4425.911
506.2518, 4407.508
506.7339, 4394.150
507.2160, 4385.528
507.6981, 4382.603
508.1802, 4390.746
508.6624, 4409.579
509.1445, 4414.521
509.6266, 4399.460
510.1087, 4378.251
510.5908, 4374.084
511.0729, 4383.750
511.5551, 4391.110
512.0372, 4386.275
512.5193, 4376.032
513.0014, 4367.904
513.4835, 4362.153
513.9656, 4361.654
514.4478, 4377.387
514.9299, 4394.731
515.4120, 4397.554
515.8941, 4374.362
516.3762, 4354.160
516.8583, 4352.112
517.3405, 4359.945
517.8226, 4364.341
518.3047, 4357.044
518.7868, 4351.455
519.2689, 4351.780
519.7510, 4357.963
520.2332, 4364.659
520.7153, 4376.591
521.1974, 4383.194
521.6795, 4371.643
522.1616, 4326.200
522.6437, 4323.609
523.1259, 4379.035
523.6080, 4460.507
524.0901, 4528.789
524.5722, 4585.309
525.0543, 4589.203
525.5364, 4499.135
526.0186, 4361.578
526.5007, 4289.510
526.9828, 4282.026
527.4649, 4314.614
527.9470, 4421.305
528.4291, 4539.143
528.9113, 4564.263
529.3934, 4463.159
529.8755, 4349.125
530.3576, 4295.912
530.8397, 4282.093
531.3218, 4275.368
531.8040, 4268.160
532.2861, 4262.635
532.7682, 4261.250
533.2503, 4263.155
533.7324, 4262.689
534.2145, 4258.152
534.6967, 4251.953
535.1788, 4245.057
535.6609, 4237.627
536.1430, 4229.098
536.6251, 4218.267
537.1072, 4207.934
537.5894, 4201.429
538.0715, 4198.900
538.5536, 4200.175
539.0357, 4207.299
539.5178, 4216.526
539.9999, 4213.277
540.4821, 4197.875
540.9642, 4191.021
541.4463, 4215.095
541.9284, 4254.431
542.4105, 4275.767
542.8926, 4277.234
543.3748, 4266.606
543.8569, 4236.380
544.3390, 4202.441
544.8211, 4187.487
545.3032, 4213.380
545.7853, 4236.051
546.2675, 4223.014
546.7495, 4190.481
547.2316, 4175.655
547.7137, 4213.370
548.1959, 4246.823
548.6780, 4251.698
549.1601, 4222.973
549.6422, 4211.198
550.1243, 4230.566
550.6064, 4251.738
551.0886, 4253.152
551.5707, 4227.748
552.0528, 4207.889
552.5349, 4196.968
553.0170, 4190.509
553.4991, 4177.791
553.9813, 4158.841
554.4634, 4151.647
554.9455, 4169.975
555.4276, 4200.348
555.9097, 4212.176
556.3918, 4206.603
556.8740, 4194.092
557.3561, 4175.847
557.8382, 4157.558
558.3203, 4146.463
558.8024, 4144.264
559.2845, 4145.570
559.7667, 4140.253
560.2488, 4139.314
560.7309, 4155.510
561.2130, 4230.062
561.6951, 4280.208
562.1772, 4272.644
562.6594, 4221.897
563.1415, 4189.739
563.6236, 4188.454
564.1057, 4190.741
564.5878, 4185.017
565.0699, 4169.568
565.5521, 4171.691
566.0342, 4198.589
566.5163, 4225.781
566.9984, 4226.324
567.4805, 4201.831
567.9626, 4188.455
568.4448, 4193.083
568.9269, 4206.374
569.4090, 4217.657
569.8911, 4226.577
570.3732, 4232.271
570.8553, 4234.479
571.3375, 4233.091
571.8196, 4225.720
572.3017, 4213.445
572.7838, 4203.618
573.2659, 4200.059
573.7480, 4199.952
574.2302, 4202.377
574.7123, 4209.545
575.1944, 4212.424
575.6765, 4202.356
576.1586, 4191.014
576.6407, 4190.731
577.1229, 4209.054
577.6050, 4224.807
578.0871, 4235.241
578.5692, 4241.674
579.0513, 4248.309
579.5334, 4255.951
580.0156, 4259.602
580.4977, 4254.584
580.9798, 4243.371
581.4619, 4237.646
581.9440, 4237.492
582.4261, 4239.138
582.9083, 4238.088
583.3904, 4236.879
583.8725, 4240.392
584.3546, 4250.559
584.8367, 4261.748
585.3188, 4272.547
585.8010, 4281.228
586.2831, 4285.251
586.7652, 4279.834
587.2473, 4273.642
587.7294, 4268.360
588.2115, 4264.270
588.6937, 4262.806
589.1758, 4265.029
589.6579, 4268.733
590.1400, 4274.451
590.6221, 4283.422
591.1042, 4282.653
591.5864, 4266.761
592.0685, 4253.572
592.5506, 4265.351
593.0327, 4300.461
593.5148, 4324.157
593.9969, 4329.383
594.4791, 4325.969
594.9612, 4326.395
595.4433, 4329.783
595.9254, 4333.517
596.4075, 4332.693
596.8896, 4334.531
597.3718, 4351.029
597.8539, 4378.264
598.3360, 4395.521
598.8181, 4382.173
599.3002, 4364.900
599.7823, 4361.469
600.2645, 4380.320
600.7466, 4386.740
601.2287, 4359.570
601.7108, 4332.925
602.1929, 4338.771
602.6750, 4396.009
603.1572, 4433.864
603.6393, 4442.475
604.1214, 4432.931
604.6035, 4421.882
605.0856, 4409.009
605.5677, 4410.054
606.0499, 4441.218
606.5320, 4484.417
607.0141, 4497.669
607.4962, 4484.119
607.9783, 4467.571
608.4604, 4465.662
608.9425, 4467.887
609.4246, 4459.615
609.9067, 4436.501
610.3889, 4425.768
610.8710, 4450.533
611.3531, 4487.719
611.8352, 4516.471
612.3173, 4529.806
612.7994, 4539.404
613.2816, 4545.277
613.7637, 4548.373
614.2458, 4550.061
614.7279, 4549.337
615.2100, 4550.081
