##NAMES=Fornacite
##RRUFFID=R060932
##IDEAL CHEMISTRY=Cu^2+^Pb^2+^_2_(Cr^6+^O_4_)(As^5+^O_4_)(OH)
##LOCALITY=Tiger, Arizona, USA
##OWNER=RRUFF
##SOURCE=Bob Jenkins
##DESCRIPTION=Groups of tabular olive-green crystals
##STATUS=The identification of this mineral is confirmed by single-crystal X-ray diffraction and chemical analysis.
##URL=rruff.info/R060932
##MEASURED CHEMISTRY=Cu_1.00_(Pb_1.99_Fe_0.01_)_Σ=2_(Cr_1.00_O_4_)((As_0.97_P_0.03_)_Σ=1_O_4_)(OH)
145.1518, 3407.487
145.6339, 3487.434
146.1160, 3539.734
146.5981, 3575.090
147.0802, 3606.972
147.5623, 3638.648
148.0445, 3665.740
148.5266, 3679.874
149.0087, 3680.842
149.4908, 3679.890
149.9729, 3682.973
150.4550, 3685.509
150.9372, 3679.239
151.4193, 3661.464
151.9014, 3635.927
152.3835, 3604.475
152.8656, 3565.590
153.3477, 3534.138
153.8299, 3519.238
154.3120, 3516.086
154.7941, 3513.742
155.2762, 3510.323
155.7583, 3505.185
156.2404, 3495.465
156.7226, 3479.871
157.2047, 3469.643
157.6868, 3473.960
158.1689, 3489.105
158.6510, 3500.560
159.1331, 3501.057
159.6153, 3500.689
160.0974, 3511.993
160.5795, 3535.942
161.0616, 3562.294
161.5437, 3586.024
162.0258, 3607.180
162.5080, 3626.425
162.9901, 3644.486
163.4722, 3659.766
163.9543, 3671.264
164.4364, 3678.967
164.9185, 3683.404
165.4007, 3684.064
165.8828, 3681.165
166.3649, 3677.881
166.8470, 3674.609
167.3291, 3671.660
167.8112, 3670.941
168.2934, 3673.252
168.7755, 3671.816
169.2576, 3658.617
169.7397, 3633.769
170.2218, 3611.309
170.7039, 3599.069
171.1861, 3587.589
171.6682, 3567.235
172.1503, 3536.383
172.6324, 3505.978
173.1145, 3488.160
173.5966, 3483.780
174.0788, 3477.710
174.5609, 3468.578
175.0430, 3454.534
175.5251, 3430.773
176.0072, 3396.087
176.4893, 3363.044
176.9715, 3345.888
177.4536, 3345.985
177.9357, 3348.274
178.4178, 3352.375
178.8999, 3355.482
179.3820, 3356.648
179.8642, 3355.725
180.3463, 3350.219
180.8284, 3334.101
181.3105, 3304.665
181.7926, 3282.499
182.2747, 3276.343
182.7569, 3276.779
183.2390, 3279.896
183.7211, 3284.909
184.2032, 3290.020
184.6853, 3294.655
185.1674, 3299.807
185.6496, 3298.291
186.1317, 3279.330
186.6138, 3258.815
187.0959, 3246.440
187.5780, 3243.845
188.0601, 3245.539
188.5423, 3246.705
189.0244, 3248.055
189.5065, 3245.004
189.9886, 3234.343
190.4707, 3220.417
190.9528, 3201.968
191.4350, 3179.493
191.9171, 3162.103
192.3992, 3163.484
192.8813, 3188.117
193.3634, 3206.787
193.8455, 3216.774
194.3277, 3218.246
194.8098, 3206.299
195.2919, 3181.576
195.7740, 3155.750
196.2561, 3142.479
196.7382, 3143.703
197.2204, 3145.554
197.7025, 3149.710
198.1846, 3151.678
198.6667, 3146.984
199.1488, 3135.932
199.6309, 3125.021
200.1131, 3123.814
200.5952, 3135.201
201.0773, 3136.987
201.5594, 3111.008
202.0415, 3086.515
202.5236, 3082.978
203.0058, 3099.188
203.4879, 3112.955
203.9700, 3094.080
204.4521, 3035.759
204.9342, 3004.448
205.4163, 3039.967
205.8985, 3076.022
206.3806, 3077.291
206.8627, 3046.078
207.3448, 3010.938
207.8269, 3001.109
208.3090, 3018.855
208.7912, 3027.309
209.2733, 3018.819
209.7554, 3005.645
210.2375, 2988.874
210.7196, 2971.051
211.2017, 2959.218
211.6839, 2963.061
212.1660, 2982.924
212.6481, 2995.343
213.1302, 2998.040
213.6123, 2994.543
214.0944, 2983.602
214.5766, 2967.438
215.0587, 2952.087
215.5408, 2942.813
216.0229, 2939.172
216.5050, 2932.902
216.9871, 2918.438
217.4693, 2908.453
217.9514, 2910.351
218.4335, 2920.808
218.9156, 2932.093
219.3977, 2941.401
219.8798, 2947.768
220.3620, 2943.695
220.8441, 2919.109
221.3262, 2898.404
221.8083, 2894.172
222.2904, 2900.375
222.7725, 2905.596
223.2547, 2903.325
223.7368, 2895.234
224.2189, 2886.425
224.7010, 2874.574
225.1831, 2866.318
225.6652, 2866.297
226.1474, 2870.701
226.6295, 2873.825
227.1116, 2872.518
227.5937, 2868.686
228.0758, 2867.626
228.5579, 2871.791
229.0400, 2872.687
229.5222, 2861.184
230.0043, 2846.433
230.4864, 2840.224
230.9685, 2849.054
231.4506, 2864.907
231.9327, 2874.882
232.4149, 2878.213
232.8970, 2878.437
233.3791, 2872.595
233.8612, 2866.124
234.3433, 2866.131
234.8254, 2877.053
235.3076, 2887.758
235.7897, 2879.712
236.2718, 2849.235
236.7539, 2828.504
237.2360, 2838.670
237.7181, 2858.314
238.2003, 2867.764
238.6824, 2862.830
239.1645, 2853.439
239.6466, 2847.618
240.1287, 2845.345
240.6108, 2846.628
241.0930, 2855.323
241.5751, 2864.471
242.0572, 2867.331
242.5393, 2863.256
243.0214, 2856.371
243.5035, 2847.222
243.9857, 2836.813
244.4678, 2831.426
244.9499, 2833.790
245.4320, 2840.228
245.9141, 2848.171
246.3962, 2857.605
246.8784, 2864.007
247.3605, 2860.692
247.8426, 2852.338
248.3247, 2853.336
248.8068, 2869.323
249.2889, 2887.855
249.7711, 2896.365
250.2532, 2896.335
250.7353, 2894.554
251.2174, 2891.452
251.6995, 2888.555
252.1816, 2888.535
252.6638, 2891.847
253.1459, 2897.012
253.6280, 2905.331
254.1101, 2915.337
254.5922, 2919.233
255.0743, 2906.459
255.5565, 2892.185
256.0386, 2894.737
256.5207, 2914.954
257.0028, 2936.477
257.4849, 2948.642
257.9670, 2951.843
258.4492, 2952.900
258.9313, 2947.389
259.4134, 2943.613
259.8955, 2950.042
260.3776, 2964.635
260.8597, 2975.489
261.3419, 2974.315
261.8240, 2965.208
262.3061, 2964.708
262.7882, 2976.013
263.2703, 2991.125
263.7524, 3011.152
264.2346, 3032.671
264.7167, 3048.256
265.1988, 3054.633
265.6809, 3053.243
266.1630, 3046.502
266.6451, 3025.980
267.1273, 3014.623
267.6094, 3021.904
268.0915, 3038.906
268.5736, 3054.470
269.0557, 3065.069
269.5378, 3072.836
270.0200, 3081.156
270.5021, 3090.219
270.9842, 3099.584
271.4663, 3106.514
271.9484, 3115.433
272.4305, 3131.484
272.9127, 3154.941
273.3948, 3180.350
273.8769, 3201.739
274.3590, 3218.041
274.8411, 3233.632
275.3232, 3249.568
275.8054, 3263.968
276.2875, 3273.595
276.7696, 3280.142
277.2517, 3289.282
277.7338, 3305.872
278.2159, 3330.066
278.6981, 3355.245
279.1802, 3385.868
279.6623, 3412.682
280.1444, 3427.980
280.6265, 3438.150
281.1086, 3455.739
281.5908, 3489.575
282.0729, 3533.998
282.5550, 3562.423
283.0371, 3553.302
283.5192, 3557.940
284.0013, 3596.149
284.4835, 3646.473
284.9656, 3683.828
285.4477, 3698.061
285.9298, 3703.028
286.4119, 3727.683
286.8940, 3785.149
287.3762, 3828.866
287.8583, 3839.409
288.3404, 3843.713
288.8225, 3862.146
289.3046, 3897.883
289.7867, 3936.176
290.2688, 3958.997
290.7509, 3964.460
291.2331, 3976.224
291.7152, 3995.278
292.1973, 4023.544
292.6794, 4069.860
293.1615, 4129.170
293.6436, 4179.627
294.1258, 4196.324
294.6079, 4189.174
295.0900, 4206.311
295.5721, 4261.866
296.0542, 4317.588
296.5363, 4347.470
297.0185, 4360.116
297.5006, 4371.877
297.9827, 4386.729
298.4648, 4405.178
298.9469, 4430.849
299.4290, 4464.981
299.9112, 4494.386
300.3933, 4509.447
300.8754, 4515.459
301.3575, 4522.753
301.8396, 4532.137
302.3217, 4543.131
302.8039, 4554.382
303.2860, 4566.624
303.7681, 4584.561
304.2502, 4613.827
304.7323, 4644.632
305.2144, 4656.259
305.6966, 4641.896
306.1787, 4633.891
306.6608, 4650.698
307.1429, 4677.811
307.6250, 4690.483
308.1071, 4681.935
308.5893, 4670.163
309.0714, 4678.024
309.5535, 4711.958
310.0356, 4741.104
310.5177, 4760.486
310.9998, 4777.787
311.4820, 4796.336
311.9641, 4817.535
312.4462, 4844.930
312.9283, 4882.589
313.4104, 4930.607
313.8925, 4976.057
314.3747, 5007.499
314.8568, 5048.996
315.3389, 5112.504
315.8210, 5191.271
316.3031, 5271.761
316.7852, 5346.323
317.2674, 5420.457
317.7495, 5511.552
318.2316, 5633.309
318.7137, 5755.114
319.1958, 5872.908
319.6779, 5990.304
320.1601, 6106.293
320.6422, 6222.138
321.1243, 6349.801
321.6064, 6507.546
322.0885, 6703.053
322.5706, 6903.214
323.0528, 7114.324
323.5349, 7324.610
324.0170, 7523.865
324.4991, 7714.529
324.9812, 7910.443
325.4633, 8126.007
325.9455, 8356.999
326.4276, 8576.018
326.9097, 8780.969
327.3918, 8974.832
327.8739, 9164.885
328.3560, 9345.277
328.8382, 9506.256
329.3203, 9640.214
329.8024, 9756.261
330.2845, 9870.449
330.7666, 9984.359
331.2487, 10082.18
331.7309, 10161.28
332.2130, 10217.55
332.6951, 10246.08
333.1772, 10241.90
333.6593, 10225.48
334.1414, 10198.72
334.6236, 10168.67
335.1057, 10156.49
335.5878, 10169.47
336.0699, 10196.38
336.5520, 10223.44
337.0341, 10249.99
337.5163, 10284.25
337.9984, 10316.22
338.4805, 10363.75
338.9626, 10448.32
339.4447, 10569.45
339.9268, 10706.46
340.4090, 10840.60
340.8911, 10972.75
341.3732, 11130.48
341.8553, 11313.44
342.3374, 11517.31
342.8195, 11749.16
343.3017, 11998.87
343.7838, 12249.92
344.2659, 12495.84
344.7480, 12733.16
345.2301, 12952.87
345.7122, 13143.05
346.1944, 13330.17
346.6765, 13521.79
347.1586, 13705.78
347.6407, 13884.26
348.1228, 14051.17
348.6049, 14181.10
349.0871, 14240.93
349.5692, 14223.83
350.0513, 14185.75
350.5334, 14140.73
351.0155, 14057.23
351.4977, 13918.83
351.9798, 13733.32
352.4619, 13516.59
352.9440, 13278.39
353.4261, 13016.03
353.9082, 12715.10
354.3904, 12364.13
354.8725, 12015.30
355.3546, 11693.92
355.8367, 11383.86
356.3188, 11065.69
356.8009, 10735.81
357.2831, 10402.59
357.7652, 10063.68
358.2473, 9723.217
358.7294, 9418.795
359.2115, 9163.317
359.6936, 8940.892
360.1758, 8737.068
360.6579, 8550.491
361.1400, 8368.887
361.6221, 8176.981
362.1042, 7995.296
362.5863, 7847.401
363.0685, 7734.636
363.5506, 7642.263
364.0327, 7560.970
364.5148, 7491.064
364.9969, 7434.745
365.4790, 7386.015
365.9612, 7354.594
366.4433, 7349.435
366.9254, 7362.748
367.4075, 7381.119
367.8896, 7398.775
368.3717, 7421.438
368.8539, 7460.963
369.3360, 7523.358
369.8181, 7594.001
370.3002, 7671.336
370.7823, 7756.545
371.2644, 7853.478
371.7465, 7960.203
372.2286, 8068.733
372.7108, 8171.460
373.1929, 8268.575
373.6750, 8375.357
374.1571, 8520.559
374.6392, 8634.506
375.1213, 8677.242
375.6035, 8680.589
376.0856, 8695.622
376.5677, 8750.094
377.0498, 8805.811
377.5319, 8808.657
378.0140, 8757.106
378.4962, 8679.387
378.9783, 8582.741
379.4604, 8461.409
379.9425, 8311.258
380.4246, 8131.538
380.9067, 7938.281
381.3889, 7739.778
381.8710, 7533.225
382.3531, 7309.666
382.8352, 7067.289
383.3173, 6824.335
383.7994, 6591.886
384.2816, 6371.893
384.7637, 6176.064
385.2458, 6020.350
385.7279, 5873.157
386.2100, 5720.830
386.6921, 5565.214
387.1743, 5410.721
387.6564, 5259.327
388.1385, 5115.010
388.6206, 4987.550
389.1027, 4882.061
389.5848, 4787.634
390.0670, 4712.031
390.5491, 4640.788
391.0312, 4560.500
391.5133, 4472.255
391.9954, 4390.536
392.4775, 4327.758
392.9597, 4283.908
393.4418, 4248.149
393.9239, 4229.184
394.4060, 4206.059
394.8881, 4168.642
395.3702, 4124.163
395.8524, 4082.045
396.3345, 4045.706
396.8166, 4013.535
397.2987, 3984.312
397.7808, 3957.944
398.2629, 3931.894
398.7451, 3905.347
399.2272, 3879.019
399.7093, 3853.102
400.1914, 3827.400
400.6735, 3804.546
401.1556, 3785.819
401.6378, 3770.354
402.1199, 3758.278
402.6020, 3749.435
403.0841, 3739.037
403.5662, 3722.841
404.0483, 3702.160
404.5305, 3687.278
405.0126, 3687.384
405.4947, 3681.722
405.9768, 3662.263
406.4589, 3634.223
406.9410, 3602.772
407.4232, 3570.052
407.9053, 3540.324
408.3874, 3520.697
408.8695, 3515.960
409.3516, 3507.272
409.8337, 3496.116
410.3159, 3480.013
410.7980, 3453.298
411.2801, 3420.299
411.7622, 3391.193
412.2443, 3372.121
412.7264, 3361.281
413.2086, 3355.791
413.6907, 3359.917
414.1728, 3356.435
414.6549, 3331.055
415.1370, 3299.815
415.6191, 3278.128
416.1013, 3268.757
416.5834, 3257.941
417.0655, 3232.506
417.5476, 3198.557
418.0297, 3173.421
418.5118, 3160.763
418.9940, 3150.847
419.4761, 3134.408
419.9582, 3112.425
420.4403, 3097.110
420.9224, 3096.682
421.4045, 3095.335
421.8867, 3084.594
422.3688, 3066.729
422.8509, 3046.130
423.3330, 3024.395
423.8151, 3003.273
424.2972, 2985.885
424.7794, 2973.627
425.2615, 2962.852
425.7436, 2956.202
426.2257, 2948.601
426.7078, 2935.477
427.1899, 2918.268
427.6721, 2902.156
428.1542, 2890.707
428.6363, 2883.693
429.1184, 2880.898
429.6005, 2884.576
430.0826, 2887.622
430.5648, 2890.329
431.0469, 2889.952
431.5290, 2882.375
432.0111, 2866.205
432.4932, 2848.742
432.9753, 2834.311
433.4575, 2823.081
433.9396, 2816.640
434.4217, 2816.543
434.9038, 2815.891
435.3859, 2806.486
435.8680, 2789.746
436.3502, 2780.431
436.8323, 2784.818
437.3144, 2791.362
437.7965, 2798.262
438.2786, 2802.226
438.7607, 2793.483
439.2429, 2767.352
439.7250, 2736.431
440.2071, 2725.199
440.6892, 2746.093
441.1713, 2760.616
441.6534, 2765.484
442.1356, 2767.813
442.6177, 2771.942
443.0998, 2777.046
443.5819, 2779.628
444.0640, 2777.276
444.5461, 2770.756
445.0283, 2761.408
445.5104, 2747.155
445.9925, 2736.357
446.4746, 2734.529
446.9567, 2735.806
447.4388, 2735.523
447.9210, 2733.147
448.4031, 2729.721
448.8852, 2722.995
449.3673, 2716.342
449.8494, 2718.606
450.3315, 2731.491
450.8137, 2743.708
451.2958, 2746.105
451.7779, 2740.112
452.2600, 2738.435
452.7421, 2745.190
453.2242, 2751.133
453.7064, 2756.648
454.1884, 2758.414
454.6706, 2749.137
455.1527, 2727.568
455.6348, 2703.799
456.1169, 2691.989
456.5990, 2695.009
457.0811, 2695.502
457.5633, 2688.452
458.0454, 2683.811
458.5275, 2685.184
459.0096, 2691.134
459.4917, 2699.984
459.9738, 2712.384
460.4560, 2723.024
460.9381, 2722.694
461.4202, 2711.109
461.9023, 2699.595
462.3844, 2690.219
462.8665, 2682.639
463.3487, 2678.461
463.8308, 2677.251
464.3129, 2670.523
464.7950, 2646.422
465.2771, 2622.832
465.7592, 2622.078
466.2414, 2639.099
466.7235, 2647.719
467.2056, 2633.327
467.6877, 2604.253
468.1698, 2581.963
468.6519, 2568.670
469.1341, 2559.876
469.6162, 2559.011
470.0983, 2559.863
470.5804, 2560.835
471.0625, 2559.835
471.5446, 2551.316
472.0268, 2527.717
472.5089, 2494.862
472.9910, 2480.028
473.4731, 2491.290
473.9552, 2500.465
474.4373, 2494.203
474.9195, 2483.386
475.4016, 2476.925
475.8837, 2475.889
476.3658, 2478.526
476.8479, 2489.101
477.3300, 2501.119
477.8122, 2501.198
478.2943, 2487.833
478.7764, 2469.785
479.2585, 2450.785
479.7406, 2432.409
480.2227, 2425.719
480.7049, 2441.239
481.1870, 2453.391
481.6691, 2455.268
482.1512, 2451.783
482.6333, 2447.561
483.1154, 2443.969
483.5976, 2441.211
484.0797, 2440.162
484.5618, 2440.924
485.0439, 2436.540
485.5260, 2418.002
486.0081, 2407.645
486.4903, 2422.409
486.9724, 2444.708
487.4545, 2449.420
487.9366, 2427.017
488.4187, 2403.134
488.9008, 2404.760
489.3830, 2423.997
489.8651, 2430.297
490.3472, 2416.015
490.8293, 2402.194
491.3114, 2411.378
491.7935, 2441.195
492.2757, 2448.834
492.7578, 2411.305
493.2399, 2377.728
493.7220, 2370.506
494.2041, 2378.001
494.6862, 2382.776
495.1684, 2379.647
495.6505, 2375.471
496.1326, 2381.095
496.6147, 2399.794
497.0968, 2404.741
497.5789, 2383.837
498.0611, 2362.533
498.5432, 2346.028
499.0253, 2335.715
499.5074, 2335.238
499.9895, 2348.521
500.4716, 2361.531
500.9538, 2355.541
501.4359, 2335.102
501.9180, 2324.337
502.4001, 2330.054
502.8822, 2338.860
503.3643, 2338.654
503.8465, 2329.496
504.3286, 2320.460
504.8107, 2307.795
505.2928, 2299.579
505.7749, 2302.101
506.2570, 2310.691
506.7392, 2318.362
507.2213, 2322.750
507.7034, 2325.229
508.1855, 2327.978
508.6676, 2331.574
509.1497, 2331.832
509.6319, 2327.178
510.1140, 2320.762
510.5961, 2310.892
511.0782, 2300.843
511.5603, 2296.165
512.0424, 2299.590
512.5245, 2305.224
513.0067, 2308.755
513.4888, 2309.758
513.9709, 2305.462
514.4530, 2294.390
514.9351, 2282.178
515.4172, 2273.458
515.8994, 2268.419
516.3815, 2265.451
516.8636, 2268.185
517.3457, 2268.815
517.8278, 2261.448
518.3099, 2251.372
518.7921, 2245.575
519.2742, 2246.135
519.7563, 2251.109
520.2384, 2259.798
520.7205, 2272.853
521.2026, 2278.491
521.6848, 2271.857
522.1669, 2264.664
522.6490, 2259.930
523.1311, 2257.849
523.6132, 2259.711
524.0953, 2266.869
524.5775, 2273.029
525.0596, 2272.215
525.5417, 2267.013
526.0238, 2264.181
526.5059, 2264.918
526.9880, 2264.558
527.4702, 2258.657
527.9523, 2248.053
528.4344, 2241.823
528.9165, 2243.436
529.3986, 2244.418
529.8807, 2244.369
530.3629, 2242.296
530.8450, 2235.456
531.3271, 2224.501
531.8092, 2215.249
532.2913, 2214.115
532.7734, 2219.595
533.2556, 2221.656
533.7377, 2219.536
534.2198, 2215.788
534.7019, 2206.411
535.1840, 2198.761
535.6661, 2204.157
536.1483, 2226.168
536.6304, 2242.435
537.1125, 2237.388
537.5946, 2224.184
538.0767, 2218.219
538.5588, 2220.335
539.0410, 2226.765
539.5231, 2236.159
540.0052, 2246.086
540.4873, 2248.194
540.9694, 2235.146
541.4515, 2225.992
541.9337, 2223.160
542.4158, 2222.512
542.8979, 2223.471
543.3800, 2224.499
543.8621, 2221.284
544.3442, 2207.924
544.8264, 2193.041
545.3085, 2196.063
545.7906, 2217.159
546.2727, 2231.304
546.7548, 2230.673
547.2369, 2221.185
547.7191, 2206.383
548.2012, 2185.569
548.6833, 2174.923
549.1654, 2186.609
549.6475, 2198.744
550.1296, 2198.801
550.6118, 2189.997
551.0939, 2177.488
551.5760, 2163.490
552.0581, 2153.120
552.5402, 2155.891
553.0223, 2174.776
553.5045, 2189.375
553.9866, 2204.585
554.4687, 2208.250
554.9508, 2184.131
555.4329, 2149.564
555.9150, 2133.551
556.3972, 2147.453
556.8793, 2167.530
557.3614, 2177.160
557.8435, 2180.847
558.3256, 2190.482
558.8077, 2207.615
559.2899, 2216.579
559.7720, 2201.886
560.2541, 2168.289
560.7362, 2152.545
561.2183, 2175.286
561.7004, 2189.958
562.1826, 2189.827
562.6647, 2182.325
563.1468, 2169.766
563.6289, 2154.957
564.1110, 2145.820
564.5931, 2152.018
565.0753, 2165.614
565.5574, 2166.010
566.0395, 2152.299
566.5216, 2138.806
567.0037, 2129.093
567.4858, 2123.623
567.9680, 2125.961
568.4501, 2137.546
568.9322, 2141.065
569.4143, 2124.834
569.8964, 2108.907
570.3785, 2105.918
570.8607, 2112.602
571.3428, 2121.800
571.8249, 2130.528
572.3070, 2138.606
572.7891, 2146.356
573.2712, 2154.225
573.7534, 2158.128
574.2355, 2156.267
574.7176, 2152.995
575.1997, 2147.228
575.6818, 2142.443
576.1639, 2146.041
576.6461, 2163.767
577.1282, 2177.689
577.6103, 2175.404
578.0924, 2163.749
578.5745, 2150.104
579.0566, 2136.572
579.5388, 2129.911
580.0209, 2136.115
580.5030, 2151.927
580.9851, 2162.101
581.4672, 2164.223
581.9493, 2164.573
582.4315, 2162.069
582.9136, 2159.526
583.3957, 2159.718
583.8778, 2161.784
584.3599, 2161.899
584.8420, 2156.487
585.3242, 2149.833
585.8063, 2147.523
586.2884, 2149.124
586.7705, 2153.837
587.2526, 2162.974
587.7347, 2168.000
588.2169, 2156.536
588.6990, 2125.473
589.1811, 2110.092
589.6632, 2119.725
590.1453, 2132.240
590.6274, 2145.508
591.1096, 2155.869
591.5917, 2157.720
592.0738, 2150.640
592.5559, 2142.879
593.0380, 2141.645
593.5201, 2146.169
594.0023, 2154.826
594.4844, 2168.751
594.9665, 2179.563
595.4486, 2184.191
595.9307, 2183.064
596.4128, 2174.437
596.8950, 2154.777
597.3771, 2143.896
597.8592, 2152.437
598.3413, 2163.530
598.8234, 2168.372
599.3055, 2166.611
599.7877, 2156.504
600.2698, 2137.124
600.7519, 2119.840
601.2340, 2127.374
601.7161, 2161.601
602.1982, 2177.591
602.6804, 2162.586
603.1625, 2148.906
603.6446, 2159.346
604.1267, 2183.097
604.6088, 2201.412
605.0909, 2213.718
605.5731, 2217.745
606.0552, 2204.675
606.5373, 2187.835
607.0194, 2183.872
607.5015, 2191.459
607.9836, 2195.933
608.4658, 2187.184
608.9479, 2171.482
609.4300, 2166.667
609.9121, 2176.753
610.3942, 2183.454
610.8763, 2180.456
611.3585, 2178.291
611.8406, 2188.877
612.3227, 2205.520
612.8048, 2208.383
613.2869, 2182.275
613.7690, 2156.582
614.2512, 2153.028
614.7333, 2161.523
615.2154, 2164.228
615.6975, 2158.460
616.1796, 2153.576
616.6617, 2157.630
617.1439, 2169.101
617.6260, 2178.941
618.1081, 2187.006
618.5902, 2193.651
619.0723, 2203.249
619.5544, 2207.877
620.0366, 2197.120
620.5187, 2174.914
621.0008, 2159.848
621.4829, 2164.120
621.9650, 2174.163
622.4471, 2176.431
622.9293, 2174.725
623.4114, 2181.287
623.8935, 2199.074
624.3756, 2214.694
624.8577, 2213.745
625.3398, 2196.707
625.8220, 2181.755
626.3041, 2164.954
626.7862, 2156.833
627.2683, 2164.820
627.7504, 2177.389
628.2325, 2185.926
628.7147, 2189.561
629.1968, 2190.482
629.6789, 2185.576
630.1610, 2181.655
630.6431, 2188.387
631.1252, 2203.286
631.6074, 2218.154
632.0895, 2230.574
632.5716, 2239.322
633.0537, 2243.113
633.5358, 2242.057
634.0179, 2233.873
634.5001, 2205.412
634.9822, 2187.246
635.4643, 2191.767
635.9464, 2205.251
636.4285, 2217.258
636.9106, 2225.496
637.3928, 2226.716
637.8749, 2211.821
638.3570, 2193.270
638.8391, 2188.514
639.3212, 2195.317
639.8033, 2202.849
640.2855, 2207.362
