##NAMES=Forsterite
##RRUFFID=R060539
##IDEAL CHEMISTRY=Mg_2_SiO_4_
##LOCALITY=Sri Lanka
##OWNER=RRUFF
##SOURCE=Gemological Institute of America
##DESCRIPTION=Brown cut gemstone
##STATUS=The identification of this mineral has been confirmed by X-ray diffraction and chemical analysis
##URL=rruff.info/R060539
##MEASURED CHEMISTRY=(Mg_1.67_Fe_0.33_)_Î£=2_Si_1.00_O_4_; trace amounts of Mn and Ca
92.10938, 3.853311
92.59149, 3.657252
93.07361, 3.732717
93.55573, 4.058127
94.03784, 4.364494
94.51996, 4.407393
95.00208, 4.237551
95.48419, 4.028338
95.96631, 3.762200
96.44843, 3.507041
96.93054, 3.485324
97.41266, 3.719688
97.89478, 4.066627
98.37689, 4.393136
98.85901, 4.694236
99.34113, 4.933192
99.82324, 5.121934
100.3054, 5.258979
100.7875, 5.193970
101.2696, 4.860016
101.7517, 4.409998
102.2338, 4.117637
102.7159, 4.010836
103.1981, 3.988788
103.6802, 4.025050
104.1623, 4.155651
104.6444, 4.216004
105.1265, 4.134787
105.6086, 3.983557
106.0908, 4.064471
106.5729, 4.607567
107.0550, 5.112030
107.5371, 5.269280
108.0192, 4.710199
108.5013, 4.358830
108.9835, 4.347969
109.4656, 4.667750
109.9477, 4.952496
110.4298, 5.162931
110.9119, 5.360451
111.3940, 5.592421
111.8762, 5.799614
112.3583, 6.099303
112.8404, 6.543271
113.3225, 7.145232
113.8046, 7.734841
114.2867, 8.297978
114.7689, 8.839693
115.2510, 9.361054
115.7331, 9.965542
116.2152, 10.47014
116.6973, 10.71644
117.1794, 10.58764
117.6616, 10.65782
118.1437, 11.39526
118.6258, 12.44970
119.1079, 13.21624
119.5900, 13.13548
120.0721, 12.89043
120.5543, 12.93226
121.0364, 13.38067
121.5185, 14.00182
122.0006, 14.66965
122.4827, 15.40061
122.9648, 16.25178
123.4470, 17.42564
123.9291, 18.66850
124.4112, 19.65734
124.8933, 20.18662
125.3754, 20.63960
125.8575, 21.43784
126.3397, 22.53519
126.8218, 23.65272
127.3039, 24.51994
127.7860, 25.25363
128.2681, 26.08745
128.7502, 27.12659
129.2324, 28.27678
129.7145, 29.45013
130.1966, 30.65327
130.6787, 31.66404
131.1608, 32.17083
131.6429, 32.25484
132.1251, 32.33419
132.6072, 32.50816
133.0893, 32.78324
133.5714, 33.20781
134.0535, 33.79616
134.5356, 34.46849
135.0178, 35.20062
135.4999, 35.99361
135.9820, 36.61384
136.4641, 36.74528
136.9462, 36.42292
137.4283, 36.96725
137.9105, 38.60791
138.3926, 40.71734
138.8747, 42.22330
139.3568, 43.02930
139.8389, 43.68681
140.3210, 44.47416
140.8032, 45.47953
141.2853, 46.10094
141.7674, 46.08080
142.2495, 45.82779
142.7316, 46.36385
143.2137, 47.89748
143.6959, 49.26299
144.1780, 50.14796
144.6601, 50.36481
145.1422, 50.65405
145.6243, 51.08747
146.1064, 51.60924
146.5886, 52.02445
147.0707, 52.33297
147.5528, 52.54128
148.0349, 52.64127
148.5170, 52.53937
148.9991, 52.48018
149.4813, 52.48235
149.9634, 52.54065
150.4455, 52.61974
150.9276, 52.89987
151.4097, 53.07880
151.8918, 52.96973
152.3740, 52.23812
152.8561, 51.60188
153.3382, 51.15666
153.8203, 50.89844
154.3024, 50.62476
154.7845, 50.37013
155.2667, 50.07290
155.7488, 49.68180
156.2309, 48.90279
156.7130, 48.32336
157.1951, 48.19516
157.6772, 48.54842
158.1594, 48.70916
158.6415, 48.42776
159.1236, 47.93346
159.6057, 47.44810
160.0878, 46.76750
160.5699, 46.33842
161.0521, 46.47659
161.5342, 47.28846
162.0163, 47.84718
162.4984, 47.64068
162.9805, 47.04773
163.4626, 46.54677
163.9448, 46.29936
164.4269, 46.19108
164.9090, 46.24107
165.3911, 46.51100
165.8732, 46.59650
166.3553, 46.05688
166.8375, 45.22463
167.3196, 44.64912
167.8017, 44.72793
168.2838, 45.05490
168.7659, 45.37659
169.2480, 45.68850
169.7302, 45.88889
170.2123, 45.85986
170.6944, 45.66402
171.1765, 45.44376
171.6586, 45.24792
172.1407, 45.07268
172.6229, 44.87529
173.1050, 44.59553
173.5871, 44.44928
174.0692, 44.74556
174.5513, 45.35772
175.0334, 45.90871
175.5156, 46.17519
175.9977, 46.24809
176.4798, 46.25065
176.9619, 46.20898
177.4440, 46.09541
177.9261, 45.70407
178.4083, 45.13884
178.8904, 44.86450
179.3725, 45.48828
179.8546, 46.58559
180.3367, 47.31879
180.8188, 47.46038
181.3010, 47.31441
181.7831, 47.16414
182.2652, 47.03210
182.7473, 47.09254
183.2294, 47.72212
183.7115, 48.67009
184.1937, 49.16566
184.6758, 48.88739
185.1579, 48.30145
185.6400, 48.24037
186.1221, 48.68679
186.6042, 49.22570
187.0864, 49.57635
187.5685, 49.75486
188.0506, 49.79927
188.5327, 49.67158
189.0148, 49.45792
189.4969, 49.29004
189.9791, 49.16386
190.4612, 49.20092
190.9433, 49.66213
191.4254, 50.47298
191.9075, 51.00047
192.3896, 50.98827
192.8718, 50.65394
193.3539, 50.65340
193.8360, 51.01820
194.3181, 51.46578
194.8002, 51.70541
195.2823, 51.74602
195.7645, 51.90331
196.2466, 52.27925
196.7287, 52.81927
197.2108, 53.29633
197.6929, 53.69399
198.1750, 54.09867
198.6572, 54.59849
199.1393, 55.19406
199.6214, 55.79741
200.1035, 56.35907
200.5856, 56.90678
201.0677, 57.61800
201.5499, 58.53734
202.0320, 59.48516
202.5141, 60.25972
202.9962, 60.83379
203.4783, 61.45014
203.9604, 62.13691
204.4426, 62.90587
204.9247, 63.88451
205.4068, 65.10838
205.8889, 66.43119
206.3710, 67.71201
206.8531, 68.94533
207.3353, 70.15624
207.8174, 71.27235
208.2995, 72.32679
208.7816, 73.86340
209.2637, 76.06109
209.7458, 78.36042
210.2280, 80.16994
210.7101, 81.39719
211.1922, 82.46207
211.6743, 83.39279
212.1564, 84.19113
212.6385, 85.21609
213.1207, 86.55199
213.6028, 87.95790
214.0849, 89.22988
214.5670, 90.41212
215.0491, 91.28191
215.5313, 91.73914
216.0134, 91.78713
216.4955, 91.81318
216.9776, 91.89555
217.4597, 91.85033
217.9418, 91.44469
218.4239, 90.54277
218.9061, 89.64997
219.3882, 88.90351
219.8703, 88.31184
220.3524, 87.54272
220.8345, 86.56223
221.3166, 85.45662
221.7988, 84.22709
222.2809, 82.67093
222.7630, 81.51537
223.2451, 81.12058
223.7272, 81.50202
224.2093, 81.11494
224.6915, 79.42547
225.1736, 77.56159
225.6557, 76.83115
226.1378, 78.06556
226.6199, 78.59544
227.1020, 77.64202
227.5842, 75.18703
228.0663, 73.51237
228.5484, 72.88483
229.0305, 72.72664
229.5126, 72.52280
229.9947, 72.27583
230.4769, 71.97395
230.9590, 71.57817
231.4411, 71.09023
231.9232, 70.72549
232.4053, 70.57283
232.8874, 70.44320
233.3696, 70.16070
233.8517, 69.64257
234.3338, 69.13704
234.8159, 68.70358
235.2980, 68.33604
235.7801, 67.90376
236.2623, 67.46520
236.7444, 66.90044
237.2265, 66.05647
237.7086, 64.63309
238.1907, 63.53374
238.6728, 63.04168
239.1550, 63.10278
239.6371, 62.75398
240.1192, 61.77966
240.6013, 60.63826
241.0834, 59.69819
241.5655, 59.07740
242.0477, 58.44334
242.5298, 57.76542
243.0119, 57.04231
243.4940, 56.25851
243.9761, 55.37336
244.4582, 54.47438
244.9404, 53.61096
245.4225, 52.73107
245.9046, 51.99744
246.3867, 51.48644
246.8688, 51.15372
247.3509, 50.67716
247.8331, 49.95089
248.3152, 49.21716
248.7973, 48.65129
249.2794, 48.38939
249.7615, 47.98688
250.2436, 47.30158
250.7258, 46.43649
251.2079, 45.89899
251.6900, 45.78126
252.1721, 45.85983
252.6542, 46.06950
253.1363, 46.62651
253.6185, 46.76340
254.1006, 46.20111
254.5827, 45.20904
255.0648, 44.82304
255.5469, 45.41250
256.0291, 46.01917
256.5112, 46.11416
256.9933, 45.45081
257.4754, 44.88848
257.9575, 44.43670
258.4396, 44.10860
258.9218, 44.00737
259.4039, 44.32690
259.8860, 44.51765
260.3681, 44.22516
260.8502, 43.09913
261.3323, 42.55108
261.8145, 42.79382
262.2966, 43.50213
262.7787, 43.98414
263.2608, 44.18079
263.7429, 44.27357
264.2250, 44.32281
264.7072, 44.31208
265.1893, 44.31392
265.6714, 44.31824
266.1535, 44.34198
266.6356, 44.43045
267.1177, 44.62057
267.5999, 44.77501
268.0820, 44.79676
268.5641, 44.63891
269.0462, 44.75432
269.5283, 45.30201
270.0104, 45.92901
270.4926, 46.06951
270.9747, 45.58022
271.4568, 45.10615
271.9389, 44.77447
272.4210, 44.57468
272.9031, 44.92522
273.3853, 46.02388
273.8674, 47.31994
274.3495, 48.04769
274.8316, 48.10123
275.3137, 48.15781
275.7958, 48.36934
276.2780, 48.73619
276.7601, 49.30350
277.2422, 50.11671
277.7243, 51.01136
278.2064, 51.84369
278.6885, 52.61802
279.1707, 53.27513
279.6528, 53.74564
280.1349, 54.08757
280.6170, 54.56568
281.0991, 55.15791
281.5812, 55.98059
282.0634, 57.26685
282.5455, 59.05192
283.0276, 60.54446
283.5097, 61.50893
283.9918, 62.13573
284.4739, 62.97402
284.9561, 64.02171
285.4382, 65.29681
285.9203, 66.86478
286.4024, 68.70049
286.8845, 70.64555
287.3666, 72.69431
287.8488, 74.78326
288.3309, 76.71104
288.8130, 78.47119
289.2951, 80.30055
289.7772, 82.36475
290.2593, 84.62563
290.7415, 86.97697
291.2236, 89.37488
291.7057, 91.87720
292.1878, 94.43127
292.6699, 97.06864
293.1520, 100.1898
293.6342, 104.2589
294.1163, 109.0200
294.5984, 113.5065
295.0805, 117.7121
295.5626, 121.6294
296.0447, 125.2926
296.5269, 128.7095
297.0090, 131.9286
297.4911, 134.9930
297.9732, 137.8611
298.4553, 140.5210
298.9374, 143.0038
299.4196, 144.8138
299.9017, 145.3786
300.3838, 144.8398
300.8659, 143.5553
301.3480, 141.6084
301.8301, 139.0275
302.3123, 135.6637
302.7944, 131.5125
303.2765, 127.2626
303.7586, 123.3455
304.2407, 119.7121
304.7228, 116.1701
305.2050, 112.6086
305.6871, 109.1999
306.1692, 106.2580
306.6513, 103.7130
307.1334, 101.4113
307.6155, 99.13036
308.0977, 97.04278
308.5798, 95.33735
309.0619, 93.97921
309.5440, 93.11670
310.0261, 93.27666
310.5082, 94.11403
310.9904, 94.57909
311.4725, 93.95619
311.9546, 92.79025
312.4367, 91.54182
312.9188, 90.28716
313.4009, 88.96017
313.8831, 87.60574
314.3652, 86.16183
314.8473, 84.49214
315.3294, 82.29890
315.8115, 80.01859
316.2936, 77.88924
316.7758, 75.93400
317.2579, 74.14283
317.7400, 72.51189
318.2221, 71.03341
318.7042, 69.66225
319.1863, 68.51599
319.6685, 67.35906
320.1506, 66.07394
320.6327, 64.65378
321.1148, 63.26294
321.5969, 61.80381
322.0790, 60.47514
322.5612, 59.41009
323.0433, 59.09153
323.5254, 58.57862
324.0075, 57.59735
324.4896, 56.18954
324.9717, 54.74535
325.4539, 53.01779
325.9360, 51.46543
326.4181, 50.36637
326.9002, 50.14501
327.3823, 49.85282
327.8644, 49.37880
328.3466, 48.78567
328.8287, 48.26545
329.3108, 47.90873
329.7929, 47.54498
330.2750, 47.10571
330.7571, 46.48577
331.2393, 46.01454
331.7214, 45.69891
332.2035, 45.52874
332.6856, 45.51499
333.1677, 45.88251
333.6498, 46.07425
334.1320, 45.84894
334.6141, 45.11593
335.0962, 44.72668
335.5783, 44.81552
336.0604, 45.10888
336.5425, 45.34429
337.0247, 45.54145
337.5068, 45.62323
337.9889, 45.52599
338.4710, 45.28315
338.9531, 45.18353
339.4352, 45.25028
339.9173, 45.40586
340.3994, 45.62674
340.8816, 45.94334
341.3637, 46.12659
341.8458, 46.09726
342.3279, 45.96204
342.8100, 46.01732
343.2921, 46.28448
343.7743, 46.59608
344.2564, 46.87735
344.7385, 47.12852
345.2206, 47.29395
345.7027, 47.35490
346.1848, 47.37367
346.6670, 47.40582
347.1491, 47.45739
347.6312, 47.62488
348.1133, 48.03441
348.5954, 48.59769
349.0775, 49.04224
349.5597, 49.37243
350.0418, 49.57490
350.5239, 49.60634
351.0060, 49.49460
351.4881, 49.31079
351.9702, 48.99528
352.4524, 48.68938
352.9345, 48.65428
353.4166, 48.86583
353.8987, 49.10667
354.3808, 49.18556
354.8629, 49.19847
355.3451, 49.30774
355.8272, 49.60769
356.3093, 49.88501
356.7914, 49.89393
357.2735, 49.71772
357.7556, 49.58244
358.2378, 49.72535
358.7199, 49.89352
359.2020, 49.77996
359.6841, 49.26625
360.1662, 48.96662
360.6483, 49.35498
361.1305, 50.14274
361.6126, 50.92511
362.0947, 51.69448
362.5768, 52.30139
363.0589, 52.53020
363.5410, 52.38947
364.0232, 52.53601
364.5053, 53.54987
364.9874, 54.74229
365.4695, 55.57816
365.9516, 55.82177
366.4337, 55.83942
366.9159, 55.66126
367.3980, 55.30372
367.8801, 54.82827
368.3622, 54.24986
368.8443, 53.55359
369.3264, 52.71043
369.8086, 51.52679
370.2907, 50.54045
370.7728, 49.87413
371.2549, 49.36694
371.7370, 48.76948
372.2191, 48.09735
372.7013, 47.30622
373.1834, 46.35541
373.6655, 45.21549
374.1476, 44.15138
374.6297, 43.15577
375.1118, 42.27476
375.5940, 41.59725
376.0761, 41.22188
376.5582, 40.75241
377.0403, 40.09722
377.5224, 39.30478
378.0045, 38.52659
378.4867, 37.75054
378.9688, 37.08593
379.4509, 36.61972
379.9330, 36.35756
380.4151, 36.20202
380.8972, 36.18813
381.3794, 36.19525
381.8615, 36.02394
382.3436, 35.67289
382.8257, 35.22785
383.3078, 34.59736
383.7899, 33.89214
384.2721, 33.49965
384.7542, 33.43824
385.2363, 33.51670
385.7184, 33.65122
386.2005, 33.78366
386.6826, 33.72857
387.1648, 33.23054
387.6469, 32.72788
388.1290, 32.91579
388.6111, 33.67968
389.0932, 34.36639
389.5753, 34.48740
390.0575, 34.32518
390.5396, 34.16371
391.0217, 33.97974
391.5038, 34.02457
391.9859, 34.65236
392.4680, 35.61460
392.9502, 36.46824
393.4323, 36.96595
393.9144, 37.33479
394.3965, 37.63041
394.8786, 37.84985
395.3607, 38.23162
395.8429, 38.88092
396.3250, 39.72511
396.8071, 40.70050
397.2892, 41.67997
397.7713, 42.91670
398.2534, 44.67370
398.7356, 46.80930
399.2177, 48.60161
399.6998, 49.68000
400.1819, 50.64276
400.6640, 51.72941
401.1461, 52.90705
401.6283, 54.29203
402.1104, 56.11742
402.5925, 58.03954
403.0746, 59.55312
403.5567, 60.50989
404.0388, 61.32730
404.5210, 62.13174
405.0031, 62.92331
405.4852, 63.39362
405.9673, 63.35525
406.4494, 63.35111
406.9315, 63.92690
407.4137, 65.17874
407.8958, 66.24681
408.3779, 66.92740
408.8600, 67.43660
409.3421, 68.43916
409.8242, 69.97340
410.3064, 71.31808
410.7885, 71.99295
411.2706, 72.12107
411.7527, 72.22177
412.2348, 72.29057
412.7169, 72.48292
413.1991, 73.15565
413.6812, 74.13988
414.1633, 74.83093
414.6454, 74.64803
415.1275, 74.32777
415.6096, 74.98160
416.0918, 76.49438
416.5739, 78.06939
417.0560, 79.09276
417.5381, 79.90491
418.0202, 80.91283
418.5023, 82.22141
418.9845, 83.66431
419.4666, 85.14592
419.9487, 86.68266
420.4308, 88.26934
420.9129, 89.69380
421.3951, 91.36004
421.8772, 93.69396
422.3593, 96.74610
422.8414, 99.43539
423.3235, 101.2354
423.8056, 102.6617
424.2878, 104.1058
424.7699, 106.1987
425.2520, 107.6488
425.7341, 108.0832
426.2162, 107.7075
426.6983, 107.2755
427.1805, 107.0284
427.6626, 106.4525
428.1447, 105.2973
428.6268, 103.4139
429.1089, 101.5094
429.5910, 99.54350
430.0732, 97.57241
430.5553, 95.58666
431.0374, 93.52625
431.5195, 91.70112
432.0016, 90.20815
432.4837, 88.99182
432.9659, 87.87986
433.4480, 86.94061
433.9301, 85.67667
434.4122, 83.65253
434.8943, 80.94392
435.3764, 78.01708
435.8586, 74.84428
436.3407, 71.70127
436.8228, 69.05959
437.3049, 66.80451
437.7870, 64.50975
438.2691, 61.90277
438.7513, 59.15761
439.2334, 56.41801
439.7155, 53.69999
440.1976, 51.25489
440.6797, 49.43151
441.1618, 47.92176
441.6440, 46.31443
442.1261, 44.35965
442.6082, 42.60474
443.0903, 41.47685
443.5724, 40.78353
444.0545, 40.10993
444.5367, 39.35089
445.0188, 38.53176
445.5009, 37.63000
445.9830, 36.63774
446.4651, 35.68439
446.9472, 34.55898
447.4294, 33.60353
447.9115, 33.11903
448.3936, 33.78716
448.8757, 34.09089
449.3578, 33.74869
449.8399, 32.96444
450.3221, 32.41619
450.8042, 32.21819
451.2863, 32.07610
451.7684, 31.88981
452.2505, 31.66718
452.7326, 31.30558
453.2148, 30.70131
453.6969, 30.15311
454.1790, 30.12985
454.6611, 30.66917
455.1432, 31.03352
455.6253, 31.00134
456.1075, 30.72193
456.5896, 30.55645
457.0717, 30.50276
457.5538, 30.53895
458.0359, 30.68011
458.5180, 30.89539
459.0002, 31.15986
459.4823, 31.49041
459.9644, 31.71781
460.4465, 31.54117
460.9286, 31.14961
461.4107, 30.90850
461.8929, 31.12451
462.3750, 31.40030
462.8571, 31.39947
463.3392, 31.18255
463.8213, 31.03001
464.3034, 31.03685
464.7856, 31.17895
465.2677, 31.48624
465.7498, 32.07963
466.2319, 32.50803
466.7140, 32.52341
467.1961, 32.35735
467.6783, 32.30685
468.1604, 32.57736
468.6425, 32.77480
469.1246, 32.77917
469.6067, 32.61525
470.0888, 32.59720
470.5710, 32.84135
471.0531, 33.07196
471.5352, 33.15476
472.0173, 33.09525
472.4994, 32.81812
472.9815, 32.19404
473.4637, 31.53337
473.9458, 31.42816
474.4279, 31.92271
474.9100, 32.24081
475.3921, 32.03712
475.8742, 31.52377
476.3564, 31.40775
476.8385, 31.68460
477.3206, 31.92925
477.8027, 31.64343
478.2848, 31.11584
478.7669, 31.01986
479.2491, 31.52651
479.7312, 32.10607
480.2133, 32.28129
480.6954, 32.16555
481.1775, 31.96971
481.6596, 31.63652
482.1418, 31.37610
482.6239, 31.40042
483.1060, 31.66153
483.5881, 31.82120
484.0702, 31.64178
484.5523, 31.39439
485.0345, 31.24122
485.5166, 31.22629
485.9987, 31.26175
486.4808, 31.39040
486.9629, 31.54595
487.4450, 31.63980
487.9272, 31.67227
488.4093, 31.64606
488.8914, 31.58331
489.3735, 31.47073
489.8556, 31.14721
490.3377, 30.44335
490.8199, 29.89747
491.3020, 29.94661
491.7841, 30.65990
492.2662, 31.04108
492.7483, 31.00598
493.2304, 30.76822
493.7126, 30.59030
494.1947, 30.46485
494.6768, 30.33693
495.1589, 30.12168
495.6410, 29.95623
496.1231, 30.26725
496.6053, 30.95853
497.0874, 31.37307
497.5695, 30.72008
498.0516, 29.74554
498.5337, 29.37344
499.0158, 29.80174
499.4980, 30.27008
499.9801, 30.35090
500.4622, 30.19980
500.9443, 30.00158
501.4264, 29.70041
501.9085, 29.48456
502.3907, 29.40314
502.8728, 29.45122
503.3549, 29.59996
503.8370, 30.08376
504.3191, 30.44740
504.8012, 30.46495
505.2834, 29.99410
505.7655, 29.82901
506.2476, 30.12786
506.7297, 30.55309
507.2118, 30.77938
507.6939, 30.76508
508.1761, 30.71041
508.6582, 30.63333
509.1403, 30.54255
509.6224, 30.45494
510.1045, 30.37008
510.5866, 30.29770
511.0688, 30.19963
511.5509, 30.11872
512.0330, 30.19062
512.5151, 30.41776
512.9973, 30.74051
513.4794, 31.27816
513.9615, 31.83612
514.4436, 32.08204
514.9257, 31.86070
515.4078, 31.50154
515.8900, 31.15076
516.3721, 30.84225
516.8542, 30.63790
517.3363, 30.59681
517.8184, 30.62818
518.3005, 30.73887
518.7827, 30.92294
519.2648, 31.01860
519.7469, 30.97076
520.2290, 30.84702
520.7111, 30.66376
521.1932, 30.27691
521.6754, 30.14874
522.1575, 30.40120
522.6396, 30.81046
523.1217, 31.08692
523.6038, 31.24841
524.0859, 31.18233
524.5681, 30.75569
525.0502, 30.12652
525.5323, 29.86321
526.0144, 29.97875
526.4965, 30.22651
526.9786, 30.61618
527.4608, 31.01636
527.9429, 30.93673
528.4250, 30.31235
528.9071, 29.65072
529.3892, 29.42287
529.8713, 29.47675
530.3535, 29.56938
530.8356, 29.61060
531.3177, 29.69826
531.7998, 29.97511
532.2819, 30.35155
532.7640, 30.60069
533.2462, 30.52401
533.7283, 30.41871
534.2104, 30.38333
534.6925, 30.42174
535.1746, 30.57103
535.6567, 30.94245
536.1389, 31.34018
536.6210, 31.63035
537.1031, 31.72194
537.5852, 31.94044
538.0673, 32.38634
538.5494, 32.87385
539.0316, 33.05645
539.5137, 32.88334
539.9958, 32.76342
540.4779, 32.81907
540.9600, 33.01235
541.4421, 33.31029
541.9243, 33.70148
542.4064, 33.93662
542.8885, 33.68931
543.3706, 33.20803
543.8527, 32.96745
544.3348, 33.02091
544.8170, 33.13577
545.2991, 33.17267
545.7812, 33.14760
546.2633, 33.07098
546.7454, 32.83127
547.2275, 32.69666
547.7097, 32.82655
548.1918, 33.14347
548.6739, 33.46365
549.1560, 33.71814
549.6381, 34.00473
550.1202, 34.38098
550.6024, 34.85227
551.0845, 35.22054
551.5666, 35.39275
552.0487, 35.58842
552.5308, 35.97036
553.0129, 36.58859
553.4951, 37.10215
553.9772, 37.44793
554.4593, 37.79346
554.9414, 38.45106
555.4235, 39.38495
555.9056, 40.16011
556.3878, 40.56691
556.8699, 40.83318
557.3520, 41.31256
557.8341, 41.97740
558.3162, 42.70215
558.7983, 43.39552
559.2805, 44.12518
559.7626, 44.96959
560.2447, 45.93208
560.7268, 46.93004
561.2089, 47.90699
561.6910, 48.92156
562.1732, 50.03606
562.6553, 51.40421
563.1374, 52.62873
563.6195, 53.35773
564.1016, 54.01267
564.5837, 55.23829
565.0659, 57.32334
565.5480, 59.48318
566.0301, 61.61181
566.5122, 63.67757
566.9943, 65.35222
567.4764, 66.48804
567.9586, 67.87844
568.4407, 70.07822
568.9228, 72.94758
569.4049, 75.81606
569.8870, 78.65075
570.3691, 81.44598
570.8513, 83.97388
571.3334, 86.48005
571.8155, 89.40065
572.2976, 93.06331
572.7797, 96.72433
573.2618, 99.75150
573.7440, 102.4168
574.2261, 105.2801
574.7082, 108.7096
575.1903, 112.1960
575.6724, 115.4490
576.1545, 118.4988
576.6367, 121.6816
577.1188, 125.2386
577.6009, 128.6878
578.0830, 131.9169
578.5651, 134.9484
579.0472, 137.4643
579.5294, 139.2370
580.0115, 140.9580
580.4936, 143.5175
580.9757, 146.9660
581.4578, 149.7667
581.9399, 151.5964
582.4221, 152.9427
582.9042, 154.6227
583.3863, 156.5008
583.8684, 158.1253
584.3505, 159.5002
584.8326, 160.3694
585.3148, 160.1491
585.7969, 159.0606
586.2789, 158.1322
586.7610, 158.3996
587.2432, 158.6286
587.7253, 157.9562
588.2074, 156.1755
588.6895, 154.2699
