##NAMES=Forsterite
##RRUFFID=R040057
##IDEAL CHEMISTRY=Mg_2_SiO_4_
##LOCALITY=Trudy's mine, San Carlos, Gila County, Arizona, USA
##OWNER=RRUFF
##SOURCE=Bob Downs
##DESCRIPTION=Dark green crystal fragments from xenoliths in a basalt flow
##STATUS=The identification of this mineral has been confirmed by X-ray diffraction and chemical analysis
##URL=rruff.info/R040057
##MEASURED CHEMISTRY=(Mg_1.67_Fe_0.32_Ni_0.01_)_Î£=2_Si_1.00_O_4_; trace amounts of Mn and Ca
92.10938, 3.828207
92.59149, 3.758313
93.07361, 3.787072
93.55573, 3.906415
94.03784, 4.015471
94.51996, 4.043126
95.00208, 3.993108
95.48419, 3.874558
95.96631, 3.631971
96.44843, 3.333242
96.93054, 3.168872
97.41266, 3.145208
97.89478, 3.229538
98.37689, 3.433554
98.85901, 3.755756
99.34113, 4.037096
99.82324, 4.237957
100.3054, 4.356761
100.7875, 4.309859
101.2696, 4.035992
101.7517, 3.675323
102.2338, 3.491717
102.7159, 3.529883
103.1981, 3.621800
103.6802, 3.708685
104.1623, 3.817988
104.6444, 3.819724
105.1265, 3.629108
105.6086, 3.332920
106.0908, 3.272664
106.5729, 3.602679
107.0550, 3.988939
107.5371, 4.241407
108.0192, 4.295715
108.5013, 4.311984
108.9835, 4.223198
109.4656, 4.039732
109.9477, 4.092698
110.4298, 4.632926
110.9119, 5.271850
111.3940, 5.755507
111.8762, 5.940105
112.3583, 6.102629
112.8404, 6.236523
113.3225, 6.324148
113.8046, 6.586032
114.2867, 7.289051
114.7689, 8.109254
115.2510, 8.688373
115.7331, 8.694277
116.2152, 8.663370
116.6973, 8.822534
117.1794, 9.247744
117.6616, 9.623162
118.1437, 9.745854
118.6258, 9.753245
119.1079, 9.868451
119.5900, 10.28217
120.0721, 10.77248
120.5543, 11.18296
121.0364, 11.45269
121.5185, 11.72882
122.0006, 12.05560
122.4827, 12.45334
122.9648, 12.98446
123.4470, 13.84020
123.9291, 14.78780
124.4112, 15.54967
124.8933, 16.00161
125.3754, 16.34184
125.8575, 16.67745
126.3397, 17.03259
126.8218, 17.55819
127.3039, 18.52339
127.7860, 19.73096
128.2681, 20.76348
128.7502, 21.42629
129.2324, 21.91048
129.7145, 22.57153
130.1966, 23.41306
130.6787, 24.19493
131.1608, 24.63855
131.6429, 24.79872
132.1251, 24.96759
132.6072, 25.27268
133.0893, 25.65766
133.5714, 25.89855
134.0535, 25.96207
134.5356, 26.03441
135.0178, 26.38253
135.4999, 27.01133
135.9820, 27.64173
136.4641, 28.07239
136.9462, 28.32183
137.4283, 29.03111
137.9105, 30.33472
138.3926, 31.87164
138.8747, 33.04247
139.3568, 33.81827
139.8389, 34.39106
140.3210, 34.78482
140.8032, 34.94474
141.2853, 35.23282
141.7674, 35.67576
142.2495, 36.23246
142.7316, 36.75695
143.2137, 37.07844
143.6959, 37.26999
144.1780, 37.60271
144.6601, 38.16935
145.1422, 38.65550
145.6243, 39.05730
146.1064, 39.37880
146.5886, 39.63960
147.0707, 39.82389
147.5528, 39.96836
148.0349, 40.10153
148.5170, 40.36770
148.9991, 40.40065
149.4813, 40.02978
149.9634, 39.31955
150.4455, 38.90438
150.9276, 39.03704
151.4097, 39.28225
151.8918, 39.37088
152.3740, 39.29673
152.8561, 39.08562
153.3382, 38.65769
153.8203, 38.02269
154.3024, 37.51815
154.7845, 37.27163
155.2667, 37.11141
155.7488, 36.90514
156.2309, 36.55677
156.7130, 36.24466
157.1951, 36.07491
157.6772, 36.06355
158.1594, 35.87323
158.6415, 35.11741
159.1236, 34.27549
159.6057, 33.81421
160.0878, 34.30456
160.5699, 34.78731
161.0521, 34.89326
161.5342, 34.55733
162.0163, 34.21439
162.4984, 34.01513
162.9805, 33.89565
163.4626, 33.77529
163.9448, 33.67442
164.4269, 33.52928
164.9090, 33.29205
165.3911, 32.94545
165.8732, 32.58422
166.3553, 32.15501
166.8375, 31.75150
167.3196, 31.52912
167.8017, 31.74303
168.2838, 32.04654
168.7659, 32.17395
169.2480, 32.05912
169.7302, 31.90614
170.2123, 31.86833
170.6944, 31.89561
171.1765, 31.87676
171.6586, 31.78386
172.1407, 31.60336
172.6229, 31.27726
173.1050, 30.73221
173.5871, 30.23035
174.0692, 30.01406
174.5513, 30.03214
175.0334, 30.14017
175.5156, 30.38058
175.9977, 30.62465
176.4798, 30.64222
176.9619, 30.30646
177.4440, 29.94297
177.9261, 29.94271
178.4083, 30.24608
178.8904, 30.60121
179.3725, 30.90740
179.8546, 31.14198
180.3367, 31.25962
180.8188, 31.26246
181.3010, 31.13227
181.7831, 30.71243
182.2652, 30.05352
182.7473, 29.52676
183.2294, 29.50870
183.7115, 29.84623
184.1937, 30.10562
184.6758, 30.16361
185.1579, 30.15088
185.6400, 30.33414
186.1221, 30.70341
186.6042, 31.05737
187.0864, 31.22051
187.5685, 31.22619
188.0506, 31.20935
188.5327, 31.19098
189.0148, 31.17427
189.4969, 31.13459
189.9791, 31.06785
190.4612, 31.07806
190.9433, 31.33054
191.4254, 31.78563
191.9075, 32.11205
192.3896, 32.19044
192.8718, 32.11162
193.3539, 32.15163
193.8360, 32.32417
194.3181, 32.50986
194.8002, 32.54198
195.2823, 32.42769
195.7645, 32.49097
196.2466, 32.86378
196.7287, 33.45771
197.2108, 33.90735
197.6929, 34.19042
198.1750, 34.42857
198.6572, 34.73986
199.1393, 35.12658
199.6214, 35.49359
200.1035, 35.79559
200.5856, 36.05574
201.0677, 36.41072
201.5499, 36.87757
202.0320, 37.38765
202.5141, 37.89267
202.9962, 38.39986
203.4783, 38.83609
203.9604, 39.12643
204.4426, 39.31151
204.9247, 39.78823
205.4068, 40.64742
205.8889, 41.56244
206.3710, 42.13076
206.8531, 42.24192
207.3353, 42.58270
207.8174, 43.35872
208.2995, 44.53698
208.7816, 45.70432
209.2637, 46.88699
209.7458, 47.98574
210.2280, 48.86383
210.7101, 49.46099
211.1922, 50.05609
211.6743, 50.70451
212.1564, 51.39996
212.6385, 52.16352
213.1207, 53.04577
213.6028, 53.90047
214.0849, 54.56076
214.5670, 54.96882
215.0491, 55.34547
215.5313, 55.77020
216.0134, 56.24240
216.4955, 56.48655
216.9776, 56.42119
217.4597, 56.24332
217.9418, 56.18176
218.4239, 56.34147
218.9061, 56.34428
219.3882, 56.08625
219.8703, 55.56853
220.3524, 54.99773
220.8345, 54.33966
221.3166, 53.67817
221.7988, 53.08248
222.2809, 52.55040
222.7630, 52.10669
223.2451, 51.80009
223.7272, 51.63143
224.2093, 51.33186
224.6915, 50.81158
225.1736, 50.25647
225.6557, 49.86442
226.1378, 49.67543
226.6199, 49.55481
227.1020, 49.51202
227.5842, 49.54749
228.0663, 49.47908
228.5484, 49.30806
229.0305, 49.03015
229.5126, 48.59618
229.9947, 47.80931
230.4769, 47.27639
230.9590, 47.18012
231.4411, 47.52010
231.9232, 47.72126
232.4053, 47.83407
232.8874, 47.75588
233.3696, 47.32103
233.8517, 46.13825
234.3338, 45.38540
234.8159, 45.40725
235.2980, 46.18311
235.7801, 46.59150
236.2623, 46.47427
236.7444, 46.16286
237.2265, 45.96036
237.7086, 46.08768
238.1907, 45.87527
238.6728, 45.06291
239.1550, 43.70586
239.6371, 42.78730
240.1192, 42.53431
240.6013, 42.46342
241.0834, 42.21368
241.5655, 41.77008
242.0477, 41.16525
242.5298, 40.27398
243.0119, 39.15593
243.4940, 38.46815
243.9761, 38.47174
244.4582, 38.59639
244.9404, 38.42017
245.4225, 37.75166
245.9046, 37.16743
246.3867, 36.74539
246.8688, 36.46240
247.3509, 36.15329
247.8331, 35.77809
248.3152, 35.42834
248.7973, 35.17887
249.2794, 35.12185
249.7615, 34.95895
250.2436, 34.60411
250.7258, 34.11850
251.2079, 33.80600
251.6900, 33.74279
252.1721, 33.74464
252.6542, 33.71062
253.1363, 33.63596
253.6185, 33.53724
254.1006, 33.41460
254.5827, 33.26941
255.0648, 33.10582
255.5469, 32.92100
256.0291, 32.72591
256.5112, 32.52486
256.9933, 32.31209
257.4754, 32.09962
257.9575, 31.85725
258.4396, 31.62447
258.9218, 31.54220
259.4039, 31.70296
259.8860, 31.84388
260.3681, 31.81143
260.8502, 31.48386
261.3323, 31.35696
261.8145, 31.52285
262.2966, 31.83933
262.7787, 31.99849
263.2608, 31.95825
263.7429, 31.84632
264.2250, 31.67376
264.7072, 31.37723
265.1893, 31.30132
265.6714, 31.53260
266.1535, 31.91029
266.6356, 32.13419
267.1177, 32.14485
267.5999, 32.16441
268.0820, 32.29361
268.5641, 32.56002
269.0462, 32.71709
269.5283, 32.70137
270.0104, 32.65873
270.4926, 32.85500
270.9747, 33.39751
271.4568, 33.80399
271.9389, 33.83880
272.4210, 33.48466
272.9031, 33.47285
273.3853, 33.91365
273.8674, 34.49978
274.3495, 34.79584
274.8316, 34.72984
275.3137, 34.75871
275.7958, 35.02070
276.2780, 35.50078
276.7601, 36.01820
277.2422, 36.58385
277.7243, 37.15717
278.2064, 37.65965
278.6885, 38.06802
279.1707, 38.61407
279.6528, 39.39442
280.1349, 40.35594
280.6170, 41.16211
281.0991, 41.74566
281.5812, 42.45041
282.0634, 43.66356
282.5455, 45.41651
283.0276, 47.03313
283.5097, 48.37150
283.9918, 49.50058
284.4739, 50.58023
284.9561, 51.59060
285.4382, 52.69933
285.9203, 54.05706
286.4024, 55.64239
286.8845, 57.31452
287.3666, 59.04802
287.8488, 60.83452
288.3309, 62.59984
288.8130, 64.33932
289.2951, 66.21944
289.7772, 68.34091
290.2593, 70.68204
290.7415, 73.26311
291.2236, 76.08562
291.7057, 79.07966
292.1878, 82.15390
292.6699, 85.30375
293.1520, 88.48223
293.6342, 91.47829
294.1163, 94.46008
294.5984, 97.98711
295.0805, 102.2194
295.5626, 106.5641
296.0447, 110.4331
296.5269, 113.8491
297.0090, 116.9319
297.4911, 119.6780
297.9732, 122.1274
298.4553, 124.4105
298.9374, 126.5523
299.4196, 128.1680
299.9017, 128.9722
300.3838, 128.9361
300.8659, 127.9423
301.3480, 125.6455
301.8301, 122.5140
302.3123, 119.1242
302.7944, 115.4541
303.2765, 111.7105
303.7586, 108.0564
304.2407, 104.4254
304.7228, 100.5839
305.2050, 96.30245
305.6871, 91.97007
306.1692, 88.05009
306.6513, 84.49312
307.1334, 81.34769
307.6155, 78.59237
308.0977, 76.24471
308.5798, 74.36284
309.0619, 73.10018
309.5440, 72.01308
310.0261, 70.72628
310.5082, 69.31181
310.9904, 67.99461
311.4725, 66.80138
311.9546, 65.79619
312.4367, 65.08985
312.9188, 64.80138
313.4009, 64.48985
313.8831, 63.86384
314.3652, 63.03270
314.8473, 62.19488
315.3294, 61.32819
315.8115, 60.54953
316.2936, 59.93505
316.7758, 59.50102
317.2579, 59.17195
317.7400, 59.00808
318.2221, 58.90247
318.7042, 58.71572
319.1863, 58.52160
319.6685, 58.13334
320.1506, 57.42524
320.6327, 56.38999
321.1148, 55.29627
321.5969, 54.06957
322.0790, 52.90128
322.5612, 51.92359
323.0433, 51.29731
323.5254, 50.73827
324.0075, 50.29568
324.4896, 49.92196
324.9717, 49.29351
325.4539, 48.15090
325.9360, 46.87255
326.4181, 45.67653
326.9002, 44.35567
327.3823, 43.39146
327.8644, 43.00123
328.3466, 43.01554
328.8287, 42.91575
329.3108, 42.51503
329.7929, 42.15143
330.2750, 41.97343
330.7571, 42.14204
331.2393, 42.11598
331.7214, 41.70030
332.2035, 41.16085
332.6856, 40.94743
333.1677, 41.30760
333.6498, 41.63188
334.1320, 41.74992
334.6141, 41.63384
335.0962, 41.51587
335.5783, 41.39354
336.0604, 41.27203
336.5425, 41.15849
337.0247, 41.06318
337.5068, 40.95098
337.9889, 40.81807
338.4710, 40.66361
338.9531, 40.46667
339.4352, 40.20827
339.9173, 39.94779
340.3994, 39.78318
340.8816, 39.76209
341.3637, 39.48423
341.8458, 38.77711
342.3279, 37.88358
342.8100, 37.45210
343.2921, 37.54009
343.7743, 37.72893
344.2564, 37.83308
344.7385, 37.84949
345.2206, 37.66013
345.7027, 37.20050
346.1848, 36.67653
346.6670, 36.42197
347.1491, 36.42210
347.6312, 36.45356
348.1133, 36.46745
348.5954, 36.43735
349.0775, 36.21240
349.5597, 35.76772
350.0418, 35.36613
350.5239, 35.35096
351.0060, 35.61323
351.4881, 35.82752
351.9702, 35.95153
352.4524, 35.92112
352.9345, 35.57802
353.4166, 34.94685
353.8987, 34.24377
354.3808, 33.52568
354.8629, 32.86779
355.3451, 32.43985
355.8272, 32.38091
356.3093, 32.33882
356.7914, 31.93137
357.2735, 31.27397
357.7556, 30.69002
358.2378, 30.54756
358.7199, 30.44285
359.2020, 29.94687
359.6841, 28.92308
360.1662, 28.02869
360.6483, 27.80044
361.1305, 27.89350
361.6126, 27.82405
362.0947, 27.21315
362.5768, 26.57508
363.0589, 26.13225
363.5410, 25.89227
364.0232, 25.73838
364.5053, 25.71070
364.9874, 25.71158
365.4695, 25.66521
365.9516, 25.52564
366.4337, 25.37130
366.9159, 25.18569
367.3980, 24.98787
367.8801, 24.85278
368.3622, 24.85252
368.8443, 24.86827
369.3264, 24.85476
369.8086, 24.83674
370.2907, 24.73677
370.7728, 24.50056
371.2549, 24.19946
371.7370, 23.95115
372.2191, 23.78382
372.7013, 23.62876
373.1834, 23.45959
373.6655, 23.26713
374.1476, 23.14982
374.6297, 23.14746
375.1118, 23.17469
375.5940, 23.15876
376.0761, 23.10542
376.5582, 22.98927
377.0403, 22.79029
377.5224, 22.52823
378.0045, 22.26066
378.4867, 21.97330
378.9688, 21.75095
379.4509, 21.68356
379.9330, 21.77532
380.4151, 21.81871
380.8972, 21.80211
381.3794, 21.72233
381.8615, 21.52181
382.3436, 21.20313
382.8257, 20.97336
383.3078, 20.96882
383.7899, 21.12662
384.2721, 21.23734
384.7542, 21.29792
385.2363, 21.33599
385.7184, 21.41839
386.2005, 21.50358
386.6826, 21.46166
387.1648, 21.13137
387.6469, 20.78357
388.1290, 20.81776
388.6111, 21.17834
389.0932, 21.54520
389.5753, 21.69947
390.0575, 21.75078
390.5396, 21.84236
391.0217, 22.02436
391.5038, 22.17367
391.9859, 22.08131
392.4680, 21.90554
392.9502, 21.93550
393.4323, 22.48465
393.9144, 23.13157
394.3965, 23.64755
394.8786, 24.01800
395.3607, 24.30057
395.8429, 24.38447
396.3250, 24.45560
396.8071, 24.68012
397.2892, 25.11425
397.7713, 25.68579
398.2534, 26.46835
398.7356, 27.40752
399.2177, 28.22663
399.6998, 28.73954
400.1819, 29.25613
400.6640, 29.91681
401.1461, 30.81121
401.6283, 31.65625
402.1104, 32.31352
402.5925, 32.98330
403.0746, 34.01760
403.5567, 35.66152
404.0388, 37.22679
404.5210, 38.52899
405.0031, 39.56766
405.4852, 40.55661
405.9673, 41.44672
406.4494, 42.38762
406.9315, 43.53218
407.4137, 44.91374
407.8958, 46.28620
408.3779, 47.63164
408.8600, 48.93285
409.3421, 50.17926
409.8242, 51.37138
410.3064, 52.40356
410.7885, 53.21477
411.2706, 53.82270
411.7527, 54.30912
412.2348, 54.68993
412.7169, 54.89579
413.1991, 54.85024
413.6812, 54.56108
414.1633, 54.04710
414.6454, 53.21293
415.1275, 52.23790
415.6096, 51.21329
416.0918, 50.19336
416.5739, 49.50802
417.0560, 49.63408
417.5381, 50.12210
418.0202, 50.42041
418.5023, 50.33370
418.9845, 50.26799
419.4666, 50.46979
419.9487, 50.87453
420.4308, 51.35557
420.9129, 51.87381
421.3951, 52.45070
421.8772, 53.11362
422.3593, 53.85577
422.8414, 54.64132
423.3235, 55.50183
423.8056, 56.37490
424.2878, 57.20133
424.7699, 58.18367
425.2520, 58.87644
425.7341, 59.04533
426.2162, 58.84385
426.6983, 58.83075
427.1805, 59.04974
427.6626, 59.40923
428.1447, 59.93588
428.6268, 60.75478
429.1089, 61.24570
429.5910, 61.27421
430.0732, 61.12063
430.5553, 61.18135
431.0374, 61.56274
431.5195, 61.72949
432.0016, 61.52479
432.4837, 61.01294
432.9659, 60.55050
433.4480, 60.18095
433.9301, 59.58775
434.4122, 58.52375
434.8943, 57.02150
435.3764, 55.25531
435.8586, 53.18357
436.3407, 51.04171
436.8228, 49.18251
437.3049, 47.54219
437.7870, 45.89339
438.2691, 44.14680
438.7513, 42.30997
439.2334, 40.26371
439.7155, 38.03416
440.1976, 36.04983
440.6797, 34.79010
441.1618, 33.88862
441.6440, 32.89269
442.1261, 31.63535
442.6082, 30.38970
443.0903, 29.26957
443.5724, 28.27876
444.0545, 27.42583
444.5367, 26.78681
445.0188, 26.22509
445.5009, 25.68553
445.9830, 25.17343
446.4651, 24.63810
446.9472, 23.93810
447.4294, 23.27832
447.9115, 22.83943
448.3936, 22.94573
448.8757, 22.87304
449.3578, 22.41743
449.8399, 21.74367
450.3221, 21.41940
450.8042, 21.69617
451.2863, 21.91938
451.7684, 21.77327
452.2505, 21.16177
452.7326, 20.81637
453.2148, 20.81236
453.6969, 20.94346
454.1790, 20.98344
454.6611, 20.93164
455.1432, 20.81112
455.6253, 20.58694
456.1075, 20.32998
456.5896, 20.27330
457.0717, 20.41129
457.5538, 20.52916
458.0359, 20.39900
458.5180, 20.15319
459.0002, 20.14228
459.4823, 20.42669
459.9644, 20.73031
460.4465, 20.74277
460.9286, 20.57994
461.4107, 20.46203
461.8929, 20.51956
462.3750, 20.61483
462.8571, 20.66325
463.3392, 20.66662
463.8213, 20.62991
464.3034, 20.43357
464.7856, 20.28068
465.2677, 20.34344
465.7498, 20.75868
466.2319, 21.07521
466.7140, 21.09728
467.1961, 20.98732
467.6783, 20.95375
468.1604, 21.14361
468.6425, 21.27401
469.1246, 21.25636
469.6067, 21.10942
470.0888, 21.06960
470.5710, 21.21837
471.0531, 21.36269
471.5352, 21.38746
472.0173, 21.24915
472.4994, 21.15226
472.9815, 21.11158
473.4637, 21.09649
473.9458, 21.06576
474.4279, 21.01983
474.9100, 20.94654
475.3921, 20.80677
475.8742, 20.65218
476.3564, 20.70318
476.8385, 20.95688
477.3206, 21.13698
477.8027, 20.87277
478.2848, 20.40515
478.7669, 20.28464
479.2491, 20.64168
479.7312, 21.09494
480.2133, 21.34871
480.6954, 21.43241
481.1775, 21.40082
481.6596, 21.15048
482.1418, 20.89820
482.6239, 20.79582
483.1060, 20.82508
483.5881, 20.85147
484.0702, 20.75586
484.5523, 20.68683
485.0345, 20.77759
485.5166, 21.23996
485.9987, 21.42529
486.4808, 20.92911
486.9629, 20.21148
487.4450, 19.91284
487.9272, 20.47142
488.4093, 20.82416
488.8914, 20.68313
489.3735, 20.12670
489.8556, 19.87803
490.3377, 20.01483
490.8199, 20.27351
491.3020, 20.54395
491.7841, 20.84068
492.2662, 20.96268
492.7483, 20.86973
493.2304, 20.68931
493.7126, 20.55465
494.1947, 20.47152
494.6768, 20.52719
495.1589, 20.88085
495.6410, 21.26870
496.1231, 21.10927
496.6053, 20.48110
497.0874, 19.92246
497.5695, 19.80339
498.0516, 19.92232
498.5337, 20.07821
499.0158, 20.25894
499.4980, 20.38695
499.9801, 20.38680
500.4622, 20.31832
500.9443, 20.25217
501.4264, 20.21668
501.9085, 20.18169
502.3907, 20.08475
502.8728, 19.96656
503.3549, 19.99078
503.8370, 20.41628
504.3191, 20.76905
504.8012, 20.85359
505.2834, 20.59233
505.7655, 20.39405
506.2476, 20.20451
506.7297, 20.13817
507.2118, 20.37617
507.6939, 21.04475
508.1761, 21.47745
508.6582, 21.52567
509.1403, 21.33465
509.6224, 21.22678
510.1045, 21.20250
510.5866, 21.23722
511.0688, 21.34025
511.5509, 21.49206
512.0330, 21.65376
512.5151, 21.82699
512.9973, 21.95244
513.4794, 21.95497
513.9615, 21.88475
514.4436, 21.80820
514.9257, 21.71186
515.4078, 21.67986
515.8900, 21.83031
516.3721, 22.08529
516.8542, 22.29525
517.3363, 22.36108
517.8184, 22.41272
518.3005, 22.51017
518.7827, 22.65427
519.2648, 22.78279
519.7469, 22.92940
520.2290, 23.02310
520.7111, 23.00372
521.1932, 22.69425
521.6754, 22.65774
522.1575, 23.03985
522.6396, 23.57466
523.1217, 23.87718
523.6038, 23.89727
524.0859, 23.85535
524.5681, 23.74841
525.0502, 23.64039
525.5323, 23.79608
526.0144, 24.22886
526.4965, 24.70320
526.9786, 25.11655
527.4608, 25.45871
527.9429, 25.64430
528.4250, 25.65436
528.9071, 25.70098
529.3892, 26.05802
529.8713, 26.57049
530.3535, 26.96671
530.8356, 27.06824
531.3177, 27.18412
531.7998, 27.49481
532.2819, 27.97537
532.7640, 28.54943
533.2462, 29.32424
533.7283, 30.07436
534.2104, 30.64006
534.6925, 30.97208
535.1746, 31.56754
535.6567, 32.76308
536.1389, 34.00060
536.6210, 34.91826
537.1031, 35.38592
537.5852, 35.86366
538.0673, 36.39978
538.5494, 36.91922
539.0316, 37.27056
539.5137, 37.42572
539.9958, 37.64069
540.4779, 38.05464
540.9600, 38.54836
541.4421, 38.92878
541.9243, 39.17728
542.4064, 38.82055
542.8885, 37.12189
543.3706, 34.70565
543.8527, 32.67699
544.3348, 31.13539
544.8170, 29.88384
545.2991, 28.74821
545.7812, 27.82115
546.2633, 27.22910
546.7454, 27.31852
547.2275, 27.34301
547.7097, 26.84801
548.1918, 26.06032
548.6739, 25.51643
549.1560, 25.52153
549.6381, 25.58475
550.1202, 25.54711
550.6024, 25.40166
551.0845, 25.34158
551.5666, 25.38409
552.0487, 25.48937
552.5308, 25.66453
553.0129, 25.95107
553.4951, 26.03922
553.9772, 25.83030
554.4593, 25.60772
554.9414, 25.85443
555.4235, 26.52472
555.9056, 27.07504
556.3878, 27.30209
556.8699, 27.36767
557.3520, 27.50987
557.8341, 27.71805
558.3162, 27.94461
558.7983, 28.04700
559.2805, 28.22589
559.7626, 28.69786
560.2447, 29.47971
560.7268, 30.36734
561.2089, 31.51419
561.6910, 32.58726
562.1732, 33.30151
562.6553, 33.24330
563.1374, 33.38095
563.6195, 33.95590
564.1016, 34.75797
564.5837, 35.45601
565.0659, 35.84891
565.5480, 36.53246
566.0301, 37.71158
566.5122, 39.27688
566.9943, 40.62715
567.4764, 41.68993
567.9586, 42.83372
568.4407, 44.34973
568.9228, 46.14604
569.4049, 47.73926
569.8870, 49.09742
570.3691, 50.36412
570.8513, 51.51811
571.3334, 52.69874
571.8155, 54.14382
572.2976, 55.98411
572.7797, 57.96913
573.2618, 60.12093
573.7440, 62.26671
574.2261, 64.14438
574.7082, 65.38808
575.1903, 66.59154
575.6724, 67.91762
576.1545, 69.36993
576.6367, 70.94478
577.1188, 72.75748
577.6009, 74.55889
578.0830, 76.28771
578.5651, 77.94942
579.0472, 79.45766
579.5294, 80.81467
580.0115, 82.04790
580.4936, 83.24323
580.9757, 84.41550
581.4578, 85.33244
581.9399, 85.98354
582.4221, 86.31650
582.9042, 86.14082
583.3863, 85.54511
583.8684, 84.88094
584.3505, 84.19362
584.8326, 83.59158
585.3148, 83.23443
585.7969, 83.07967
586.2789, 82.94991
586.7610, 82.55588
587.2432, 82.30059
