##NAMES=Forsterite
##RRUFFID=R050117
##IDEAL CHEMISTRY=Mg_2_SiO_4_
##LOCALITY=Sapat, Gilgit, Pakistan
##OWNER=RRUFF
##SOURCE=Farooq and Nazia Sawal
##DESCRIPTION=Fragment of a green crystal
##STATUS=The identification of this mineral has been confirmed by X-ray diffraction and chemical analysis
##URL=rruff.info/R050117
##MEASURED CHEMISTRY=(Mg_1.81_Fe_0.18_Ni_0.01_)_Î£=2_Si_1.00_O_4_
91.72394, 0.0000000E+00
92.20605, 404.2594
92.68817, 415.0444
93.17029, 422.6226
93.65240, 417.5298
94.13452, 408.3603
94.61664, 399.3951
95.09875, 392.6708
95.58087, 387.5907
96.06299, 381.6481
96.54510, 374.3196
97.02721, 366.8757
97.50933, 359.6125
97.99145, 352.6447
98.47356, 346.1127
98.95568, 339.9294
99.43780, 333.5758
99.91991, 327.1667
100.4020, 320.0144
100.8841, 313.4682
101.3663, 308.2375
101.8484, 304.1459
102.3305, 300.3610
102.8126, 295.8828
103.2947, 290.2540
103.7768, 286.5143
104.2590, 286.1559
104.7411, 286.9207
105.2232, 286.6546
105.7053, 284.9475
106.1874, 281.9514
106.6695, 277.3622
107.1517, 271.3113
107.6338, 265.1830
108.1159, 259.2137
108.5980, 253.5134
109.0801, 248.6797
109.5622, 245.2625
110.0444, 242.4678
110.5265, 239.5442
111.0086, 236.4067
111.4907, 233.5203
111.9728, 231.4976
112.4549, 230.6011
112.9371, 229.7067
113.4192, 228.3788
113.9013, 227.0904
114.3834, 226.2824
114.8655, 226.1256
115.3476, 226.3116
115.8298, 226.0110
116.3119, 224.5779
116.7940, 223.4213
117.2761, 222.6586
117.7582, 222.2459
118.2403, 222.1631
118.7225, 222.4232
119.2046, 222.9799
119.6867, 223.2855
120.1688, 223.1671
120.6509, 223.0254
121.1330, 223.0565
121.6152, 223.2091
122.0973, 223.2527
122.5794, 222.9523
123.0615, 222.3216
123.5436, 221.9449
124.0257, 222.0330
124.5079, 222.2516
124.9900, 222.2813
125.4721, 222.0759
125.9542, 221.8134
126.4363, 221.5782
126.9184, 221.3918
127.4006, 221.3640
127.8827, 221.7962
128.3648, 222.4507
128.8469, 222.5093
129.3290, 221.4389
129.8111, 220.4098
130.2932, 220.2858
130.7754, 220.8552
131.2575, 221.3607
131.7396, 221.0479
132.2217, 219.7859
132.7038, 218.9057
133.1859, 218.9158
133.6681, 218.9718
134.1502, 218.7075
134.6323, 218.0914
135.1144, 217.3342
135.5965, 216.6960
136.0786, 216.1763
136.5608, 215.7997
137.0429, 215.6374
137.5250, 215.5457
138.0071, 215.3720
138.4892, 215.0811
138.9713, 214.8120
139.4535, 214.8763
139.9356, 216.0278
140.4177, 216.4490
140.8998, 215.5198
141.3819, 213.9217
141.8640, 212.5712
142.3462, 211.8806
142.8283, 211.6467
143.3104, 211.2977
143.7925, 210.6845
144.2746, 210.2229
144.7567, 210.0587
145.2388, 210.1817
145.7210, 210.6354
146.2031, 211.8531
146.6852, 213.1220
147.1673, 213.1190
147.6494, 211.1697
148.1315, 208.8623
148.6137, 207.7545
149.0958, 208.0015
149.5779, 208.3439
150.0600, 208.0202
150.5421, 207.5311
151.0242, 207.4066
151.5064, 207.9467
151.9885, 208.7743
152.4706, 209.1168
152.9527, 208.8195
153.4348, 208.2795
153.9169, 207.2545
154.3991, 206.2034
154.8812, 205.7719
155.3633, 206.4429
155.8454, 207.9587
156.3275, 208.7372
156.8096, 208.1077
157.2918, 207.3474
157.7739, 206.5484
158.2560, 205.8101
158.7381, 205.2546
159.2202, 204.9773
159.7023, 204.9830
160.1845, 205.0903
160.6666, 205.4713
161.1487, 205.7760
161.6308, 205.8717
162.1129, 205.7698
162.5950, 205.5248
163.0772, 205.1346
163.5593, 204.5549
164.0414, 204.4205
164.5235, 205.3159
165.0056, 206.1878
165.4877, 206.0660
165.9698, 204.9187
166.4520, 203.8553
166.9341, 204.1773
167.4162, 205.8922
167.8983, 207.1046
168.3804, 207.3212
168.8625, 207.0547
169.3447, 206.8947
169.8268, 206.9174
170.3089, 207.0541
170.7910, 207.3437
171.2731, 207.7297
171.7552, 207.9603
172.2374, 207.9540
172.7195, 207.7174
173.2016, 207.1580
173.6837, 205.8588
174.1658, 204.8897
174.6479, 205.2831
175.1301, 206.7055
175.6122, 207.8790
176.0943, 207.6305
176.5764, 206.0393
177.0585, 205.0516
177.5406, 205.0857
178.0228, 205.5372
178.5049, 206.3638
178.9870, 207.4271
179.4691, 208.3270
179.9512, 208.6781
180.4333, 208.4130
180.9155, 207.8858
181.3976, 206.5899
181.8797, 205.4453
182.3618, 204.9524
182.8439, 205.1079
183.3260, 205.5452
183.8082, 205.8173
184.2903, 205.8288
184.7724, 205.9226
185.2545, 206.2818
185.7366, 206.5784
186.2187, 206.5383
186.7009, 206.1407
187.1830, 205.6241
187.6651, 205.3199
188.1472, 205.2603
188.6293, 205.4102
189.1114, 206.0481
189.5936, 206.7327
190.0757, 207.0177
190.5578, 206.7905
191.0399, 206.3711
191.5220, 206.2727
192.0041, 206.6272
192.4863, 206.9399
192.9684, 207.0935
193.4505, 207.1984
193.9326, 207.4162
194.4147, 207.8092
194.8968, 208.2610
195.3790, 208.5633
195.8611, 208.7069
196.3432, 208.6672
196.8253, 209.2191
197.3074, 209.6429
197.7895, 209.9458
198.2717, 209.7649
198.7538, 210.2086
199.2359, 210.4020
199.7180, 210.5851
200.2001, 211.1167
200.6822, 211.0062
201.1644, 211.5323
201.6465, 211.8043
202.1286, 212.1926
202.6107, 212.3289
203.0928, 212.5432
203.5749, 213.0093
204.0571, 213.2813
204.5392, 213.3350
205.0213, 212.9282
205.5034, 212.9796
205.9855, 214.1823
206.4676, 215.4521
206.9497, 216.1055
207.4319, 216.1214
207.9140, 215.9158
208.3961, 215.7903
208.8782, 215.6961
209.3603, 215.9960
209.8424, 216.9989
210.3246, 218.2195
210.8067, 219.6004
211.2888, 221.0557
211.7709, 222.3307
212.2530, 223.0310
212.7351, 222.8796
213.2173, 223.0136
213.6994, 223.7054
214.1815, 224.4631
214.6636, 224.9947
215.1457, 225.2756
215.6278, 225.5068
216.1100, 225.9820
216.5921, 226.9307
217.0742, 227.5357
217.5563, 227.6118
218.0384, 227.5611
218.5205, 227.5627
219.0027, 227.6814
219.4848, 227.9694
219.9669, 228.5369
220.4490, 229.6689
220.9311, 230.3307
221.4132, 230.3479
221.8954, 230.0768
222.3775, 229.6340
222.8596, 229.0941
223.3417, 228.6960
223.8238, 228.8037
224.3059, 229.7991
224.7881, 230.1972
225.2702, 229.5962
225.7523, 228.6502
226.2344, 227.8192
226.7165, 227.2042
227.1986, 226.8369
227.6807, 226.8228
228.1629, 227.2657
228.6450, 227.5408
229.1271, 227.4821
229.6092, 227.3025
230.0913, 227.1897
230.5734, 227.1752
231.0556, 227.2673
231.5377, 227.5845
232.0198, 228.1248
232.5019, 228.3395
232.9840, 227.8026
233.4661, 227.0363
233.9483, 226.7887
234.4304, 227.2388
234.9125, 227.6954
235.3946, 227.2884
235.8767, 226.2350
236.3588, 225.4537
236.8410, 225.4172
237.3231, 225.7067
237.8052, 225.7466
238.2873, 225.5060
238.7694, 224.9665
239.2515, 223.6080
239.7337, 221.8862
240.2158, 220.9150
240.6979, 221.6869
241.1800, 223.3069
241.6621, 224.0158
242.1442, 223.4880
242.6264, 222.8827
243.1085, 223.1540
243.5906, 223.8298
244.0727, 224.1140
244.5548, 223.4619
245.0369, 222.3119
245.5191, 221.6253
246.0012, 221.5703
246.4833, 221.5926
246.9654, 221.4209
247.4475, 221.1571
247.9296, 220.9177
248.4117, 220.7102
248.8939, 220.5974
249.3760, 220.7890
249.8581, 221.5234
250.3402, 222.0437
250.8223, 221.8558
251.3044, 221.4174
251.7866, 221.3002
252.2687, 221.8276
252.7508, 222.6030
253.2329, 222.6358
253.7150, 221.3937
254.1971, 220.4966
254.6793, 220.2739
255.1614, 220.5513
255.6435, 221.3568
256.1256, 222.7460
256.6077, 224.2266
257.0898, 224.6727
257.5720, 223.4132
258.0541, 222.4043
258.5362, 221.9978
259.0183, 221.8964
259.5004, 221.8506
259.9825, 221.7753
260.4647, 221.7535
260.9468, 221.9526
261.4289, 222.4771
261.9110, 223.0344
262.3931, 223.7563
262.8752, 224.4074
263.3574, 224.7816
263.8395, 224.8357
264.3216, 224.7012
264.8037, 224.5379
265.2858, 224.1209
265.7679, 224.1708
266.2501, 225.1062
266.7322, 226.1367
267.2143, 226.6855
267.6964, 226.6717
268.1785, 226.4390
268.6606, 226.4486
269.1428, 226.8356
269.6249, 227.1178
270.1070, 227.1812
270.5891, 227.2479
271.0712, 227.5351
271.5533, 228.0105
272.0355, 228.3947
272.5176, 228.3301
272.9997, 227.6105
273.4818, 227.3468
273.9639, 227.7162
274.4460, 228.2841
274.9282, 228.9949
275.4103, 229.7385
275.8924, 230.2305
276.3745, 230.1424
276.8566, 229.3495
277.3387, 229.2128
277.8208, 230.1702
278.3029, 231.1990
278.7851, 231.8730
279.2672, 232.2370
279.7493, 232.5113
280.2314, 232.8301
280.7135, 233.2000
281.1956, 233.8770
281.6778, 235.1497
282.1599, 236.3643
282.6420, 237.1642
283.1241, 237.7320
283.6062, 238.5687
284.0883, 240.0414
284.5705, 241.9398
285.0526, 242.9427
285.5347, 242.2723
286.0168, 241.7626
286.4989, 241.6925
286.9810, 242.0874
287.4632, 243.1641
287.9453, 245.1269
288.4274, 247.4429
288.9095, 248.5506
289.3916, 247.5035
289.8737, 246.7463
290.3559, 246.6924
290.8380, 247.1274
291.3201, 247.8186
291.8022, 248.6949
292.2843, 249.6824
292.7664, 250.6764
293.2486, 251.7016
293.7307, 252.6620
294.2128, 253.5279
294.6949, 254.3349
295.1770, 255.1173
295.6591, 255.8869
296.1413, 256.6274
296.6234, 257.2721
297.1055, 257.7273
297.5876, 258.5616
298.0697, 260.3840
298.5518, 262.2262
299.0340, 263.1716
299.5161, 263.1402
299.9982, 262.7972
300.4803, 262.7749
300.9624, 263.1120
301.4445, 263.0546
301.9267, 262.6981
302.4088, 261.8868
302.8909, 260.2732
303.3730, 257.9804
303.8551, 255.6786
304.3372, 253.7685
304.8194, 252.2766
305.3015, 251.1336
305.7836, 250.5216
306.2657, 250.0288
306.7478, 249.5584
307.2299, 249.0642
307.7121, 248.3424
308.1942, 247.1654
308.6763, 245.8247
309.1584, 245.3910
309.6405, 246.4134
310.1227, 247.3133
310.6048, 247.5930
311.0869, 247.4048
311.5690, 246.9270
312.0511, 246.1582
312.5332, 245.3635
313.0154, 245.1158
313.4975, 245.5215
313.9796, 246.0123
314.4617, 246.4729
314.9438, 246.9609
315.4259, 247.6379
315.9081, 248.5556
316.3902, 249.4028
316.8723, 249.7403
317.3544, 249.4691
317.8365, 249.3131
318.3186, 249.4231
318.8007, 249.6150
319.2828, 249.6755
319.7650, 249.5972
320.2471, 249.6069
320.7292, 249.9087
321.2113, 250.5207
321.6934, 251.1833
322.1755, 252.0430
322.6577, 252.8291
323.1398, 253.4258
323.6219, 253.8139
324.1040, 253.9301
324.5861, 253.6673
325.0682, 253.1240
325.5504, 252.8255
326.0325, 253.0437
326.5146, 253.1632
326.9967, 252.7650
327.4788, 252.1199
327.9609, 251.8409
328.4431, 252.2386
328.9252, 253.0015
329.4073, 253.3789
329.8894, 253.1367
330.3715, 253.0755
330.8536, 253.5547
331.3358, 254.2148
331.8179, 254.5583
332.3000, 254.4512
332.7821, 254.2054
333.2642, 254.2797
333.7463, 254.8672
334.2285, 255.0095
334.7106, 254.0620
335.1927, 253.0742
335.6748, 253.0317
336.1569, 253.9525
336.6390, 255.0044
337.1212, 255.4563
337.6033, 255.2751
338.0854, 255.1965
338.5675, 255.3883
339.0496, 255.5108
339.5317, 255.4077
340.0139, 255.0967
340.4960, 254.6144
340.9781, 253.9410
341.4602, 253.1601
341.9423, 252.7178
342.4244, 252.9316
342.9066, 253.0482
343.3887, 252.7152
343.8708, 252.2446
344.3529, 252.1434
344.8350, 252.6120
345.3171, 253.3591
345.7993, 253.8463
346.2814, 254.0539
346.7635, 253.9711
347.2456, 253.1860
347.7277, 252.3609
348.2098, 252.1363
348.6920, 252.5799
349.1741, 253.2315
349.6562, 253.5679
350.1383, 253.4948
350.6204, 253.5825
351.1025, 253.9831
351.5847, 254.3760
352.0668, 254.5149
352.5489, 254.4896
353.0310, 254.5977
353.5131, 255.0699
353.9952, 255.8597
354.4774, 256.5011
354.9595, 257.1285
355.4416, 257.4504
355.9237, 257.1894
356.4058, 256.6504
356.8879, 256.1703
357.3701, 255.9006
357.8522, 255.8987
358.3343, 256.3463
358.8164, 258.0114
359.2985, 258.9075
359.7806, 258.4079
360.2627, 257.5832
360.7448, 257.3933
361.2270, 257.9305
361.7091, 258.4624
362.1912, 258.0218
362.6733, 256.2325
363.1554, 255.1511
363.6375, 255.0823
364.1197, 255.3745
364.6018, 256.1176
365.0839, 257.0277
365.5660, 257.4884
366.0481, 256.9637
366.5302, 255.6386
367.0124, 254.9719
367.4945, 255.5785
367.9766, 256.0847
368.4587, 256.2404
368.9408, 256.1452
369.4229, 255.8348
369.9051, 255.3201
370.3872, 254.8394
370.8693, 254.9420
371.3514, 256.0231
371.8335, 256.6646
372.3156, 256.4235
372.7978, 255.9313
373.2799, 255.4849
373.7620, 255.1618
374.2441, 254.9767
374.7262, 254.8769
375.2083, 254.8462
375.6905, 255.2952
376.1726, 256.8491
376.6547, 258.1743
377.1368, 258.6920
377.6189, 258.5655
378.1010, 258.1187
378.5832, 257.3650
379.0653, 256.5381
379.5474, 256.3121
380.0295, 256.8854
380.5116, 257.5421
380.9937, 258.1625
381.4759, 258.6627
381.9580, 258.9066
382.4401, 258.8336
382.9222, 258.6772
383.4043, 258.6677
383.8864, 258.8042
384.3686, 259.0264
384.8507, 259.4355
385.3328, 259.7994
385.8149, 259.9322
386.2970, 259.8449
386.7791, 259.6633
387.2613, 259.2505
387.7434, 258.8146
388.2255, 258.9881
388.7076, 260.0156
389.1897, 260.9473
389.6718, 260.8165
390.1540, 260.1257
390.6361, 259.9068
391.1182, 260.7324
391.6003, 261.7168
392.0824, 262.0299
392.5645, 261.7367
393.0467, 261.3576
393.5288, 261.0058
394.0109, 260.7985
394.4930, 261.0199
394.9751, 261.8456
395.4572, 262.4006
395.9394, 261.8034
396.4215, 260.8559
396.9036, 261.1674
397.3857, 263.1846
397.8678, 265.3525
398.3499, 265.8746
398.8321, 264.6199
399.3142, 264.1194
399.7963, 265.1346
400.2784, 266.3949
400.7605, 266.9988
401.2426, 267.0253
401.7247, 267.0000
402.2068, 267.2122
402.6890, 267.6341
403.1711, 268.1540
403.6532, 269.2558
404.1353, 269.8418
404.6174, 269.1146
405.0995, 268.0040
405.5817, 267.7253
406.0638, 268.6186
406.5459, 270.0778
407.0280, 271.3102
407.5101, 272.3742
407.9922, 272.9318
408.4744, 272.3757
408.9565, 271.9203
409.4386, 272.3315
409.9207, 273.4581
410.4028, 274.6941
410.8849, 275.6384
411.3671, 276.3030
411.8492, 276.8140
412.3313, 277.1692
412.8134, 277.3480
413.2955, 277.0654
413.7776, 276.7381
414.2598, 276.7825
414.7419, 277.3379
415.2240, 278.2852
415.7061, 279.5503
416.1882, 281.3376
416.6703, 282.7413
417.1525, 283.4624
417.6346, 284.0008
418.1167, 284.5451
418.5988, 285.0997
419.0809, 285.5848
419.5630, 285.9242
420.0452, 286.1583
420.5273, 286.3956
421.0094, 286.4188
421.4915, 286.9276
421.9736, 288.9930
422.4557, 291.3045
422.9379, 292.1879
423.4200, 291.0045
423.9021, 289.4561
424.3842, 289.4331
424.8663, 290.8763
425.3484, 292.3011
425.8306, 293.4857
426.3127, 294.4467
426.7948, 295.1592
427.2769, 295.6576
427.7590, 296.1794
428.2411, 296.7171
428.7233, 297.3810
429.2054, 298.4127
429.6875, 299.8493
430.1696, 301.2885
430.6517, 302.5108
431.1339, 303.5350
431.6160, 304.4922
432.0981, 305.5132
432.5802, 306.2632
433.0623, 306.4862
433.5444, 306.3264
434.0266, 306.0550
434.5087, 305.7428
434.9908, 305.4167
435.4729, 305.1714
435.9550, 305.1102
436.4371, 304.5764
436.9193, 303.4003
437.4014, 301.8659
437.8835, 300.0711
438.3656, 298.0805
438.8477, 295.9952
439.3298, 293.8496
439.8120, 291.7026
440.2941, 289.9273
440.7762, 288.7113
441.2583, 287.6393
441.7404, 286.5900
442.2225, 285.7105
442.7046, 285.2823
443.1867, 285.3215
443.6689, 285.4250
444.1510, 285.0576
444.6331, 284.1042
445.1152, 283.2490
445.5973, 282.3416
446.0794, 281.6889
446.5616, 281.4447
447.0437, 281.5374
447.5258, 281.8713
448.0079, 282.4399
448.4900, 283.0897
448.9721, 283.4374
449.4543, 283.4303
449.9364, 283.2720
450.4185, 282.9517
450.9006, 282.5341
451.3827, 281.9628
451.8648, 281.2633
452.3470, 280.7226
452.8291, 280.5524
453.3112, 280.7261
453.7933, 281.2054
454.2754, 282.1282
454.7575, 283.0082
455.2397, 283.6060
455.7218, 283.9279
456.2039, 283.8777
456.6860, 283.1234
457.1681, 282.4352
457.6502, 282.6112
458.1324, 283.4638
458.6145, 284.1631
459.0966, 284.4673
459.5787, 284.4539
460.0608, 284.0583
460.5429, 283.2027
461.0251, 282.8153
461.5072, 283.2729
461.9893, 284.1258
462.4714, 285.2876
462.9535, 286.5848
463.4356, 287.2395
463.9178, 286.5928
464.3999, 284.9681
464.8820, 284.1415
465.3641, 284.6666
465.8462, 285.2184
466.3283, 285.6967
466.8105, 286.0733
467.2926, 286.2097
467.7747, 286.1265
468.2568, 286.1681
468.7389, 286.8368
469.2210, 288.3380
469.7032, 289.1198
470.1853, 288.6046
470.6674, 287.9540
471.1495, 287.3447
471.6316, 286.8642
472.1137, 286.6142
472.5959, 286.6485
473.0780, 286.8909
473.5601, 287.2851
474.0422, 287.9459
474.5243, 288.2617
475.0064, 287.6948
475.4886, 287.0966
475.9707, 287.1354
476.4528, 287.6979
476.9349, 288.0462
477.4170, 287.3714
477.8991, 286.2387
478.3813, 286.1368
478.8634, 287.2868
479.3455, 288.1182
479.8276, 287.4192
480.3097, 286.0944
480.7918, 285.8210
481.2740, 287.0193
481.7561, 288.2657
482.2382, 288.7296
482.7203, 288.7817
483.2024, 289.2375
483.6845, 290.2852
484.1666, 291.1614
484.6487, 291.0269
485.1309, 289.8384
485.6130, 289.2026
486.0951, 289.3629
486.5772, 289.7753
487.0593, 290.4307
487.5414, 291.1353
488.0236, 291.5582
488.5057, 291.5693
488.9878, 291.3050
489.4699, 290.9659
489.9520, 290.3396
490.4341, 290.1751
490.9163, 290.9189
491.3984, 291.6278
491.8805, 291.6779
492.3626, 291.2892
492.8447, 291.1257
493.3268, 291.6712
493.8090, 292.5801
494.2911, 292.7575
494.7732, 291.8647
495.2553, 291.1674
495.7374, 290.9018
496.2195, 290.9866
496.7017, 291.5601
497.1838, 292.5604
497.6659, 293.4495
498.1480, 293.7459
498.6301, 293.6457
499.1122, 293.7252
499.5944, 294.0626
500.0765, 294.2928
500.5586, 294.1660
501.0407, 293.7932
501.5228, 293.3664
502.0049, 292.7023
502.4871, 292.4005
502.9692, 293.1930
503.4513, 294.4391
503.9334, 294.8506
504.4155, 294.1364
504.8976, 293.2522
505.3798, 293.1618
505.8619, 293.9260
506.3440, 294.4706
506.8261, 294.6866
507.3082, 294.8354
507.7903, 294.8702
508.2725, 294.9432
508.7546, 295.3961
509.2367, 296.3339
509.7188, 297.3092
510.2009, 297.5591
510.6830, 296.8275
511.1652, 296.2418
511.6473, 295.5028
512.1294, 295.2111
512.6115, 296.0393
513.0936, 297.4459
513.5757, 298.3672
514.0579, 298.2213
514.5400, 297.4440
515.0221, 296.6500
515.5042, 295.7497
515.9863, 295.5126
516.4684, 296.4146
516.9506, 297.7746
517.4327, 299.2589
517.9148, 300.7684
518.3969, 301.6656
518.8790, 301.2163
519.3611, 300.2760
519.8433, 299.8575
520.3254, 299.9725
520.8075, 300.5598
521.2896, 301.8710
521.7717, 303.3126
522.2538, 303.2335
522.7360, 300.8439
523.2181, 299.4553
523.7002, 300.2976
524.1823, 301.8968
524.6644, 303.1559
525.1465, 303.9136
525.6287, 304.2817
526.1108, 304.2872
526.5929, 304.0351
527.0750, 304.0878
527.5571, 304.7023
528.0392, 305.2708
528.5214, 305.7836
529.0035, 306.2040
529.4856, 306.3839
529.9677, 306.3814
530.4498, 306.5478
530.9319, 307.3076
531.4141, 308.5225
531.8962, 309.2644
532.3783, 309.2013
532.8604, 309.4297
533.3425, 310.8936
533.8246, 312.6622
534.3068, 313.6646
534.7889, 313.6240
535.2710, 313.6810
535.7531, 314.9345
536.2352, 316.7493
536.7173, 317.6070
537.1995, 317.2474
537.6816, 316.8602
538.1637, 317.3520
538.6458, 318.5873
539.1279, 319.6364
539.6100, 320.5695
540.0922, 321.2599
540.5743, 321.5796
541.0564, 321.6855
541.5385, 321.8217
542.0206, 322.0148
542.5027, 322.0239
542.9849, 321.5639
543.4670, 320.6216
543.9491, 319.7971
544.4312, 319.3920
544.9133, 318.7387
545.3954, 317.2586
545.8775, 315.6850
546.3596, 314.9683
546.8417, 315.3120
547.3239, 315.8844
547.8060, 315.6299
548.2881, 314.6601
548.7702, 314.4366
549.2523, 315.4771
549.7344, 316.2982
550.2166, 315.5109
550.6987, 314.0307
551.1808, 313.2831
551.6629, 313.6805
552.1450, 314.4214
552.6271, 315.2794
553.1093, 316.0741
553.5914, 316.3915
554.0735, 316.1443
554.5556, 315.5895
555.0377, 314.8028
555.5198, 313.8050
556.0020, 313.7807
556.4841, 315.6917
556.9662, 317.2599
557.4483, 317.7072
557.9304, 317.5718
558.4125, 317.4561
558.8947, 317.5319
559.3768, 317.6740
559.8589, 317.7043
560.3410, 317.6118
560.8231, 317.8221
561.3052, 318.3715
561.7874, 319.1939
562.2695, 320.4769
562.7516, 321.8845
563.2337, 323.0034
563.7158, 323.7173
564.1979, 324.3691
564.6801, 325.2142
565.1622, 326.2337
565.6443, 327.4162
566.1264, 328.8123
566.6085, 330.1289
567.0906, 331.1484
567.5728, 331.9243
568.0549, 332.7141
568.5370, 333.5919
569.0191, 334.3681
569.5012, 334.5708
569.9833, 334.8351
570.4655, 336.2255
570.9476, 338.7458
571.4297, 341.2325
571.9118, 342.6147
572.3939, 342.9728
572.8760, 343.2731
573.3582, 343.2558
573.8403, 343.5497
574.3224, 344.0639
574.8045, 345.0208
575.2866, 346.8691
575.7687, 349.5260
576.2509, 352.1090
576.7330, 353.8994
577.2151, 355.0141
577.6972, 355.8175
578.1793, 356.2228
578.6614, 356.6927
579.1436, 357.4209
579.6257, 358.3366
580.1078, 359.3834
580.5899, 360.6221
581.0720, 361.6306
581.5541, 362.2673
582.0363, 362.5840
582.5184, 362.7056
583.0005, 362.5975
583.4826, 361.9557
583.9647, 360.5135
584.4468, 358.6120
584.9290, 357.2598
585.4111, 357.1294
585.8932, 356.4896
586.3753, 354.6328
586.8574, 352.9099
587.3395, 352.4280
587.8217, 352.8395
588.3038, 353.0124
588.7859, 352.2626
