##NAMES=Forsterite
##RRUFFID=R060551
##IDEAL CHEMISTRY=Mg_2_SiO_4_
##LOCALITY=Kohiston, Pakistan
##OWNER=RRUFF
##SOURCE=Gemological Institute of America
##DESCRIPTION=Pale green fragment
##STATUS=The identification of this mineral has been confirmed by X-ray diffraction and chemical analysis
##URL=rruff.info/R060551
##MEASURED CHEMISTRY=(Mg_1.82_Fe_0.18_)_Î£=2_Si_1.00_O_4_; trace amounts of Mn
91.62726, 0.0000000E+00
92.10938, 2.856550
92.59149, 2.842679
93.07361, 2.847897
93.55573, 2.870728
94.03784, 2.892833
94.51996, 2.905310
95.00208, 2.905848
95.48419, 2.882767
95.96631, 2.794190
96.44843, 2.686411
96.93054, 2.706126
97.41266, 2.865639
97.89478, 3.085365
98.37689, 3.315366
98.85901, 3.553270
99.34113, 3.687493
99.82324, 3.637658
100.3054, 3.404351
100.7875, 3.196704
101.2696, 3.006986
101.7517, 2.852958
102.2338, 2.763020
102.7159, 2.740064
103.1981, 2.775700
103.6802, 2.898888
104.1623, 3.183556
104.6444, 3.302797
105.1265, 3.155754
105.6086, 2.841968
106.0908, 2.752283
106.5729, 3.046835
107.0550, 3.379076
107.5371, 3.550507
108.0192, 3.473966
108.5013, 3.366027
108.9835, 3.178848
109.4656, 2.920988
109.9477, 2.849383
110.4298, 3.222911
110.9119, 3.639879
111.3940, 3.832858
111.8762, 3.388519
112.3583, 3.129200
112.8404, 3.256102
113.3225, 3.815134
113.8046, 4.330452
114.2867, 4.790106
114.7689, 5.157792
115.2510, 5.392155
115.7331, 5.381603
116.2152, 5.325883
116.6973, 5.280063
117.1794, 5.237430
117.6616, 5.260297
118.1437, 5.401948
118.6258, 5.622283
119.1079, 5.849764
119.5900, 6.021840
120.0721, 6.214225
120.5543, 6.497393
121.0364, 6.930282
121.5185, 7.333525
122.0006, 7.563725
122.4827, 7.669620
122.9648, 7.794881
123.4470, 7.994277
123.9291, 8.265355
124.4112, 8.620956
124.8933, 9.118641
125.3754, 9.619646
125.8575, 9.932364
126.3397, 10.09037
126.8218, 10.30105
127.3039, 10.78380
127.7860, 11.42574
128.2681, 11.99111
128.7502, 12.38245
129.2324, 12.68610
129.7145, 13.06989
130.1966, 13.53603
130.6787, 13.94942
131.1608, 14.16084
131.6429, 14.19698
132.1251, 14.19355
132.6072, 14.13916
133.0893, 14.08123
133.5714, 14.20054
134.0535, 14.51566
134.5356, 14.92287
135.0178, 15.33785
135.4999, 15.76042
135.9820, 16.09434
136.4641, 16.18699
136.9462, 16.05620
137.4283, 16.38633
137.9105, 17.32254
138.3926, 18.46823
138.8747, 19.13110
139.3568, 19.22766
139.8389, 19.20971
140.3210, 19.26511
140.8032, 19.41455
141.2853, 19.50665
141.7674, 19.46514
142.2495, 19.41216
142.7316, 19.65569
143.2137, 20.25677
143.6959, 20.80176
144.1780, 21.19768
144.6601, 21.37981
145.1422, 21.60925
145.6243, 21.93999
146.1064, 22.32426
146.5886, 22.59019
147.0707, 22.71966
147.5528, 22.75712
148.0349, 22.72942
148.5170, 22.68762
148.9991, 22.49873
149.4813, 21.94184
149.9634, 21.10269
150.4455, 20.85853
150.9276, 21.98634
151.4097, 23.17115
151.8918, 23.58962
152.3740, 22.42117
152.8561, 21.45368
153.3382, 20.84721
153.8203, 20.59718
154.3024, 20.53464
154.7845, 20.93748
155.2667, 21.36972
155.7488, 21.50913
156.2309, 21.00704
156.7130, 20.51482
157.1951, 20.17254
157.6772, 19.98993
158.1594, 19.84858
158.6415, 19.68332
159.1236, 19.56411
159.6057, 19.55935
160.0878, 19.78766
160.5699, 20.03972
161.0521, 20.24615
161.5342, 20.39725
162.0163, 20.53814
162.4984, 20.76650
162.9805, 20.97414
163.4626, 21.02399
163.9448, 20.69818
164.4269, 20.33245
164.9090, 20.09910
165.3911, 20.02567
165.8732, 20.01711
166.3553, 20.06820
166.8375, 20.14844
167.3196, 20.20741
167.8017, 20.14865
168.2838, 20.10612
168.7659, 20.21087
169.2480, 20.52293
169.7302, 20.80229
170.2123, 20.88654
170.6944, 20.81760
171.1765, 20.68930
171.6586, 20.43023
172.1407, 20.19130
172.6229, 20.13932
173.1050, 20.33795
173.5871, 20.60808
174.0692, 20.80275
174.5513, 20.94201
175.0334, 21.08260
175.5156, 21.33617
175.9977, 21.59093
176.4798, 21.65449
176.9619, 21.43486
177.4440, 21.16134
177.9261, 21.05594
178.4083, 21.10715
178.8904, 21.27369
179.3725, 21.66723
179.8546, 22.14214
180.3367, 22.39635
180.8188, 22.32680
181.3010, 22.10287
181.7831, 21.89785
182.2652, 21.71995
182.7473, 21.62203
183.2294, 21.79283
183.7115, 22.09025
184.1937, 22.06958
184.6758, 21.50410
185.1579, 20.75112
185.6400, 20.47270
186.1221, 20.65298
186.6042, 20.85635
187.0864, 20.50207
187.5685, 19.79531
188.0506, 19.73534
188.5327, 20.80645
189.0148, 22.40263
189.4969, 23.27946
189.9791, 23.42131
190.4612, 23.09171
190.9433, 22.30203
191.4254, 21.12535
191.9075, 20.11174
192.3896, 19.36822
192.8718, 18.88909
193.3539, 18.71199
193.8360, 18.86570
194.3181, 19.07951
194.8002, 19.07230
195.2823, 18.85109
195.7645, 18.73047
196.2466, 18.80340
196.7287, 19.02639
197.2108, 19.22136
197.6929, 19.37824
198.1750, 19.55118
198.6572, 19.85243
199.1393, 20.29568
199.6214, 20.55098
200.1035, 20.47830
200.5856, 20.14428
201.0677, 19.93129
201.5499, 19.83747
202.0320, 19.86250
202.5141, 19.99582
202.9962, 20.23091
203.4783, 20.64171
203.9604, 21.33240
204.4426, 22.24434
204.9247, 22.84827
205.4068, 23.06973
205.8889, 23.15775
206.3710, 23.32627
206.8531, 23.56846
207.3353, 23.92875
207.8174, 24.43301
208.2995, 25.07370
208.7816, 25.74881
209.2637, 26.44214
209.7458, 27.18686
210.2280, 28.04571
210.7101, 29.07224
211.1922, 30.00533
211.6743, 30.72630
212.1564, 31.24318
212.6385, 32.03211
213.1207, 33.17228
213.6028, 34.44057
214.0849, 35.59131
214.5670, 36.54697
215.0491, 37.59711
215.5313, 38.86665
216.0134, 40.35745
216.4955, 41.56792
216.9776, 42.38603
217.4597, 43.09264
217.9418, 43.99181
218.4240, 45.12340
218.9061, 46.33175
219.3882, 47.67152
219.8703, 49.13500
220.3524, 50.20246
220.8345, 50.67304
221.3167, 50.98147
221.7988, 51.63078
222.2809, 52.89379
222.7630, 53.85599
223.2451, 54.34826
223.7272, 54.37346
224.2094, 53.94947
224.6915, 52.89156
225.1736, 51.58337
225.6557, 50.45999
226.1378, 49.68040
226.6199, 48.68907
227.1021, 47.26012
227.5842, 45.37757
228.0663, 43.96373
228.5484, 43.20205
229.0305, 42.69143
229.5126, 42.06297
229.9948, 41.27303
230.4769, 40.44920
230.9590, 39.54935
231.4411, 38.57801
231.9232, 37.85739
232.4053, 37.47050
232.8875, 37.23643
233.3696, 37.02291
233.8517, 36.93171
234.3338, 36.65034
234.8159, 36.03837
235.2980, 35.10209
235.7802, 34.45857
236.2623, 34.30250
236.7444, 34.22839
237.2265, 33.90133
237.7086, 33.23362
238.1907, 32.47486
238.6729, 31.59098
239.1550, 30.60064
239.6371, 29.85641
240.1192, 29.54000
240.6013, 29.26527
241.0834, 28.71621
241.5656, 27.74521
242.0477, 26.79681
242.5298, 25.87991
243.0119, 25.01019
243.4940, 24.37475
243.9761, 24.11468
244.4583, 23.92181
244.9404, 23.57086
245.4225, 22.97065
245.9046, 22.39205
246.3867, 21.85369
246.8688, 21.35561
247.3510, 20.89518
247.8331, 20.45829
248.3152, 20.07724
248.7973, 19.77984
249.2794, 19.60466
249.7615, 19.43345
250.2437, 19.27590
250.7258, 19.11739
251.2079, 18.87361
251.6900, 18.45577
252.1721, 18.07881
252.6542, 17.89635
253.1364, 18.06179
253.6185, 18.04573
254.1006, 17.70171
254.5827, 17.16569
255.0648, 16.96018
255.5469, 17.26430
256.0291, 17.61320
256.5112, 17.77034
256.9933, 17.68790
257.4754, 17.52099
257.9575, 17.21971
258.4396, 16.85392
258.9218, 16.63174
259.4039, 16.58109
259.8860, 16.61917
260.3681, 16.71345
260.8502, 16.87379
261.3323, 17.07910
261.8145, 17.38837
262.2966, 17.70635
262.7787, 17.80354
263.2608, 17.58148
263.7429, 17.34603
264.2250, 17.23499
264.7072, 17.29615
265.1893, 17.28118
265.6714, 17.15051
266.1535, 16.97680
266.6356, 16.88180
267.1177, 16.86134
267.5999, 16.93182
268.0820, 17.14675
268.5641, 17.55226
269.0462, 17.74860
269.5283, 17.66595
270.0104, 17.46380
270.4926, 17.40870
270.9747, 17.57673
271.4568, 17.61105
271.9389, 17.27414
272.4210, 16.53891
272.9031, 16.40999
273.3853, 17.07178
273.8674, 18.00883
274.3495, 18.57108
274.8316, 18.71725
275.3137, 18.71326
275.7958, 18.54371
276.2780, 18.24082
276.7601, 18.28913
277.2422, 18.78590
277.7243, 19.38367
278.2064, 19.67883
278.6885, 19.62558
279.1707, 19.66998
279.6528, 19.92607
280.1349, 20.36349
280.6170, 20.84006
281.0991, 21.36360
281.5812, 21.89779
282.0634, 22.34774
282.5455, 22.71231
283.0276, 23.28330
283.5097, 24.16127
283.9918, 25.25629
284.4739, 26.31931
284.9561, 27.35736
285.4382, 28.31399
285.9203, 29.08760
286.4024, 29.68827
286.8845, 30.42242
287.3666, 31.36844
287.8488, 32.41050
288.3309, 33.19769
288.8130, 33.71891
289.2951, 34.42863
289.7772, 35.76229
290.2593, 37.59442
290.7415, 39.23115
291.2236, 40.52969
291.7057, 41.75185
292.1878, 43.30408
292.6699, 45.17124
293.1520, 47.17524
293.6342, 49.16778
294.1163, 51.21275
294.5984, 53.36981
295.0805, 55.60678
295.5626, 58.19741
296.0447, 61.69609
296.5269, 65.96060
297.0090, 70.31664
297.4911, 74.24892
297.9732, 78.06495
298.4553, 82.42742
298.9374, 87.35998
299.4196, 92.45230
299.9017, 97.53036
300.3838, 102.4251
300.8659, 106.6332
301.3480, 110.1255
301.8301, 112.6916
302.3123, 114.0524
302.7944, 114.2202
303.2765, 113.1919
303.7586, 110.7455
304.2407, 107.1396
304.7228, 102.7273
305.2050, 97.29892
305.6871, 91.45669
306.1692, 85.72540
306.6513, 80.11454
307.1334, 75.16369
307.6155, 71.28078
308.0977, 68.18940
308.5798, 65.53902
309.0619, 63.25216
309.5440, 61.32035
310.0261, 59.68433
310.5082, 58.37952
310.9904, 57.51812
311.4725, 57.28584
311.9546, 57.44650
312.4367, 57.78599
312.9188, 58.24974
313.4009, 58.94622
313.8831, 60.17501
314.3652, 61.66297
314.8473, 62.91325
315.3294, 63.83502
315.8115, 64.38020
316.2936, 64.49557
316.7758, 64.15690
317.2579, 63.53384
317.7400, 62.43909
318.2221, 61.17493
318.7042, 60.10355
319.1863, 59.20212
319.6685, 58.64012
320.1506, 58.51270
320.6327, 58.82505
321.1148, 59.41245
321.5969, 60.49681
322.0790, 61.69447
322.5612, 62.70890
323.0433, 63.28471
323.5254, 63.85912
324.0075, 64.55107
324.4896, 65.34476
324.9717, 66.08337
325.4539, 67.13555
325.9360, 67.86655
326.4181, 67.91268
326.9002, 67.01027
327.3823, 65.72774
327.8644, 63.93781
328.3466, 61.76918
328.8287, 59.61492
329.3108, 57.27419
329.7929, 55.11621
330.2750, 53.34654
330.7571, 52.17985
331.2393, 50.84637
331.7214, 49.04313
332.2035, 47.17954
332.6856, 45.96461
333.1677, 45.79474
333.6498, 45.68612
334.1320, 45.38464
334.6141, 44.87382
335.0962, 44.34807
335.5783, 43.82306
336.0604, 43.26694
336.5425, 42.65237
337.0247, 42.00896
337.5068, 41.22331
337.9889, 40.23638
338.4710, 39.07347
338.9531, 37.92814
339.4352, 36.81554
339.9174, 35.66673
340.3995, 34.46017
340.8816, 33.19703
341.3637, 31.77968
341.8458, 30.10408
342.3279, 28.33171
342.8101, 26.75791
343.2922, 25.38738
343.7743, 24.26851
344.2564, 23.52668
344.7385, 23.13578
345.2206, 22.72510
345.7028, 22.28503
346.1849, 21.78397
346.6670, 21.07273
347.1491, 20.17525
347.6312, 19.46591
348.1133, 19.20949
348.5955, 19.27186
349.0776, 19.16784
349.5597, 18.87842
350.0418, 18.61147
350.5239, 18.66596
351.0060, 18.93350
351.4882, 19.06411
351.9703, 18.85955
352.4524, 18.53211
352.9345, 18.42174
353.4166, 18.50809
353.8987, 18.60813
354.3809, 18.59264
354.8630, 18.50306
355.3451, 18.38624
355.8272, 18.21944
356.3093, 18.09781
356.7914, 18.12925
357.2736, 18.27816
357.7557, 18.44752
358.2378, 18.62696
358.7199, 18.77741
359.2020, 18.84217
359.6841, 18.79536
360.1663, 18.77835
360.6484, 18.94514
361.1305, 19.17418
361.6126, 19.29495
362.0947, 19.17245
362.5768, 18.99054
363.0590, 18.75284
363.5411, 18.46721
364.0232, 18.39775
364.5053, 18.76549
364.9874, 19.31200
365.4695, 19.83653
365.9517, 20.35278
366.4338, 20.78353
366.9159, 21.01796
367.3980, 21.13016
367.8801, 21.41598
368.3622, 22.24467
368.8444, 22.98730
369.3265, 23.34696
369.8086, 23.00244
370.2907, 22.83816
370.7728, 23.04177
371.2549, 23.36689
371.7371, 23.41276
372.2192, 23.09919
372.7013, 22.61086
373.1834, 21.96726
373.6655, 21.14837
374.1476, 20.32200
374.6298, 19.42375
375.1119, 18.61984
375.5940, 18.10192
376.0761, 17.95972
376.5582, 17.83796
377.0403, 17.70025
377.5225, 17.53703
378.0046, 17.26700
378.4867, 16.85654
378.9688, 16.48239
379.4509, 16.27628
379.9330, 16.24269
380.4152, 16.23139
380.8973, 16.25680
381.3794, 16.24860
381.8615, 16.04770
382.3436, 15.65635
382.8257, 15.28773
383.3079, 15.02026
383.7900, 14.84708
384.2721, 14.76099
384.7542, 14.76968
385.2363, 14.78585
385.7184, 14.74495
386.2006, 14.64503
386.6827, 14.46034
387.1648, 14.07859
387.6469, 13.72127
388.1290, 13.76706
388.6111, 14.14389
389.0933, 14.44124
389.5754, 14.24707
390.0575, 13.88657
390.5396, 13.76103
391.0217, 13.99223
391.5038, 14.29918
391.9860, 14.53761
392.4681, 14.70822
392.9502, 14.81488
393.4323, 14.79393
393.9144, 14.75828
394.3965, 14.75269
394.8787, 14.77798
395.3608, 14.88618
395.8429, 15.20749
396.3250, 15.56744
396.8071, 15.81147
397.2892, 15.67986
397.7714, 15.67387
398.2535, 15.96194
398.7356, 16.48848
399.2177, 16.97668
399.6998, 17.40764
400.1819, 17.78705
400.6641, 18.09318
401.1462, 18.16880
401.6283, 18.50003
402.1104, 19.20743
402.5925, 20.11382
403.0746, 20.96913
403.5568, 21.77077
404.0389, 22.52265
404.5210, 23.20166
405.0031, 23.80749
405.4852, 24.48425
405.9673, 25.22462
406.4495, 26.05652
406.9316, 27.08278
407.4137, 28.36788
407.8958, 29.35190
408.3779, 29.86293
408.8600, 30.11908
409.3422, 30.68841
409.8243, 31.58658
410.3064, 32.51529
410.7885, 33.12908
411.2706, 33.58991
411.7527, 34.76274
412.2349, 36.76585
412.7170, 39.01232
413.1991, 40.81297
413.6812, 42.28151
414.1633, 43.73700
414.6454, 45.31881
415.1276, 46.92984
415.6097, 48.57809
416.0918, 50.20048
416.5739, 51.44766
417.0560, 51.81445
417.5381, 51.77596
418.0203, 51.90543
418.5024, 52.37732
418.9845, 52.87099
419.4666, 53.17215
419.9487, 53.35185
420.4308, 53.53617
420.9130, 53.46496
421.3951, 53.67272
421.8772, 54.53809
422.3593, 56.11369
422.8414, 57.68689
423.3235, 58.59310
423.8057, 59.66442
424.2878, 61.55916
424.7699, 65.64122
425.2520, 69.07687
425.7341, 71.01974
426.2162, 71.93510
426.6984, 73.63139
427.1805, 76.61771
427.6626, 79.78296
428.1447, 82.84469
428.6268, 85.95605
429.1089, 88.36502
429.5911, 90.21809
430.0732, 91.23791
430.5553, 91.07007
431.0374, 89.60859
431.5195, 87.38274
432.0016, 84.46816
432.4838, 80.87344
432.9659, 76.38831
433.4480, 70.87688
433.9301, 65.32763
434.4122, 60.28541
434.8943, 55.76915
435.3765, 52.01863
435.8586, 49.17350
436.3407, 46.72861
436.8228, 43.91857
437.3049, 40.85979
437.7870, 38.11845
438.2692, 36.12731
438.7513, 34.49340
439.2334, 32.60954
439.7155, 30.49693
440.1976, 28.52862
440.6797, 27.05876
441.1619, 25.85537
441.6440, 24.62629
442.1261, 23.25767
442.6082, 21.95593
443.0903, 20.79016
443.5724, 19.78111
444.0546, 18.97396
444.5367, 18.55156
445.0188, 18.19551
445.5009, 17.73334
445.9830, 17.13473
446.4651, 16.60612
446.9473, 16.18911
447.4294, 15.85489
447.9115, 15.58459
448.3936, 15.50215
448.8757, 15.32018
449.3578, 14.92105
449.8400, 14.40633
450.3221, 14.11383
450.8042, 14.17036
451.2863, 14.24825
451.7684, 14.22670
452.2505, 14.10128
452.7327, 13.88111
453.2148, 13.51469
453.6969, 13.15047
454.1790, 13.00382
454.6611, 13.08653
455.1432, 13.14612
455.6254, 13.13333
456.1075, 13.05223
456.5896, 12.88865
457.0717, 12.64322
457.5538, 12.40596
458.0359, 12.22085
458.5181, 12.08933
459.0002, 12.01631
459.4823, 12.00479
459.9644, 12.03818
460.4465, 12.13225
460.9286, 12.25714
461.4108, 12.35491
461.8929, 12.43073
462.3750, 12.44765
462.8571, 12.31511
463.3392, 12.07454
463.8214, 11.92487
464.3035, 11.96579
464.7856, 12.12479
465.2677, 12.38775
465.7498, 12.83473
466.2319, 13.15207
466.7141, 13.18196
467.1962, 13.06621
467.6783, 12.98663
468.1604, 13.04597
468.6425, 13.04963
469.1246, 12.89401
469.6068, 12.60764
470.0889, 12.55730
470.5710, 12.92121
471.0531, 13.27765
471.5352, 13.37156
472.0173, 13.10061
472.4995, 12.94450
472.9816, 12.93090
473.4637, 13.00523
473.9458, 13.11670
474.4279, 13.27389
474.9100, 13.33350
475.3922, 13.18496
475.8743, 12.93428
476.3564, 12.95523
476.8385, 13.24477
477.3206, 13.51849
477.8027, 13.48344
478.2849, 13.28591
478.7670, 13.26101
479.2491, 13.49024
479.7312, 13.72991
480.2133, 13.73343
480.6954, 13.58251
481.1776, 13.42897
481.6597, 13.31315
482.1418, 13.23696
482.6239, 13.20978
483.1060, 13.22772
483.5881, 13.26484
484.0703, 13.37732
484.5524, 13.45903
485.0345, 13.42998
485.5166, 13.20360
485.9987, 13.03689
486.4808, 12.95626
486.9630, 12.95925
487.4451, 13.05105
487.9272, 13.42759
488.4093, 13.60478
488.8914, 13.37245
489.3735, 12.81002
489.8557, 12.68937
490.3378, 13.20195
490.8199, 13.72068
491.3020, 13.83848
491.7841, 13.52142
492.2662, 13.26085
492.7484, 13.07673
493.2305, 12.94389
493.7126, 12.83484
494.1947, 12.74958
494.6768, 12.69733
495.1589, 12.67689
495.6411, 12.69538
496.1232, 12.80429
496.6053, 12.98609
497.0874, 13.11639
497.5695, 13.05536
498.0516, 12.93053
498.5338, 12.89944
499.0159, 12.99476
499.4980, 13.09303
499.9801, 13.14142
500.4622, 13.14282
500.9443, 13.10121
501.4265, 12.94080
501.9086, 12.81999
502.3907, 12.78688
502.8728, 12.83228
503.3549, 12.91351
503.8370, 13.14923
504.3192, 13.30470
504.8013, 13.26996
505.2834, 12.98199
505.7655, 12.77627
506.2476, 12.63042
506.7297, 12.59136
507.2119, 12.75181
507.6940, 13.19339
508.1761, 13.48774
508.6582, 13.54642
509.1403, 13.44878
509.6224, 13.36186
510.1046, 13.28498
510.5867, 13.24256
511.0688, 13.23838
511.5509, 13.27827
512.0330, 13.39756
512.5151, 13.59848
512.9973, 13.80913
513.4794, 14.00185
513.9615, 14.15725
514.4436, 14.24135
514.9257, 14.23643
515.4078, 14.18279
515.8900, 14.02642
516.3721, 13.84942
516.8542, 13.80735
517.3363, 14.08040
517.8184, 14.38571
518.3005, 14.63382
518.7827, 14.81848
519.2648, 14.90240
519.7469, 14.73848
520.2290, 14.57872
520.7111, 14.55144
521.1932, 14.63557
521.6754, 14.91916
522.1575, 15.54869
522.6396, 16.25990
523.1217, 16.62711
523.6038, 16.52526
524.0859, 16.54620
524.5681, 16.84805
525.0502, 17.36674
525.5323, 17.91044
526.0144, 18.48330
526.4965, 19.04211
526.9786, 19.54487
527.4608, 20.01887
527.9429, 20.48646
528.4250, 20.93895
528.9071, 21.55669
529.3892, 22.67666
529.8713, 24.04357
530.3535, 25.20675
530.8356, 25.93054
531.3177, 26.58776
531.7998, 27.38447
532.2819, 28.30182
532.7640, 29.25642
533.2462, 30.10140
533.7283, 31.10243
534.2104, 32.40548
534.6925, 34.02483
535.1746, 35.74372
535.6567, 37.56773
536.1389, 39.46476
536.6210, 41.34412
537.1031, 43.05758
537.5852, 45.19576
538.0673, 48.01768
538.5494, 51.05639
539.0316, 53.48269
539.5137, 55.21632
539.9958, 57.06620
540.4779, 59.42641
540.9600, 61.99193
541.4421, 63.98493
541.9243, 65.39350
542.4064, 66.02102
542.8885, 65.58858
543.3706, 64.30651
543.8527, 62.55225
544.3348, 60.36132
544.8170, 57.64412
545.2991, 53.83434
545.7812, 49.64735
546.2633, 45.93456
546.7454, 43.23877
547.2275, 40.72643
547.7097, 37.94496
548.1918, 35.08403
548.6739, 32.63148
549.1560, 30.67032
549.6381, 29.12274
550.1202, 28.10253
550.6024, 27.62381
551.0845, 27.02010
551.5666, 26.17912
552.0487, 25.36133
552.5308, 24.75970
553.0129, 24.41453
553.4951, 24.03645
553.9772, 23.59303
554.4593, 23.15972
554.9414, 22.85073
555.4235, 22.65855
555.9056, 22.49565
556.3878, 22.34043
556.8699, 22.19775
557.3520, 22.07574
557.8341, 21.97475
558.3162, 21.89914
558.7983, 21.73996
559.2805, 21.67672
559.7626, 21.95432
560.2447, 22.59385
560.7268, 23.18958
561.2089, 23.51413
561.6910, 23.74111
562.1732, 24.01052
562.6553, 24.38784
563.1374, 24.74023
563.6195, 24.99033
564.1016, 25.22610
564.5837, 25.57129
565.0659, 26.01285
565.5480, 26.59882
566.0301, 27.36679
566.5122, 28.28443
566.9943, 29.19032
567.4764, 30.08020
567.9586, 30.94330
568.4407, 31.70471
568.9228, 32.40340
569.4049, 33.30285
569.8870, 34.40812
570.3691, 35.62395
570.8513, 36.86987
571.3334, 38.15494
571.8155, 39.43641
572.2976, 40.70056
572.7797, 42.02322
573.2618, 43.53813
573.7440, 45.14815
574.2261, 46.71334
574.7082, 48.00713
575.1903, 49.40618
575.6724, 51.11854
576.1545, 53.09718
576.6367, 54.92310
577.1188, 56.38651
577.6009, 57.84765
578.0830, 59.52029
578.5651, 61.50756
579.0472, 63.09706
579.5294, 64.21145
580.0115, 65.09980
580.4936, 65.96542
580.9757, 66.81341
581.4578, 67.83202
581.9399, 69.16084
582.4221, 70.40284
582.9042, 70.80568
583.3863, 70.54304
583.8684, 70.35020
584.3505, 70.69181
584.8326, 71.14005
585.3148, 71.10472
585.7969, 70.71651
586.2790, 70.57941
586.7611, 71.11817
587.2432, 71.93300
587.7253, 72.88046
588.2075, 74.03047
