##NAMES=Forsterite
##RRUFFID=R060535
##IDEAL CHEMISTRY=Mg_2_SiO_4_
##LOCALITY=unknown
##OWNER=RRUFF
##SOURCE=Gemological Institute of America
##DESCRIPTION=Transparent brown gemstone
##STATUS=The identification of this mineral has been confirmed by X-ray diffraction and chemical analysis
##URL=rruff.info/R060535
##MEASURED CHEMISTRY=(Mg_1.81_Fe_0.18_Ni_0.01_)_Î£=2_Si_1.00_O_4_
92.10938, 4.793761
92.59149, 4.541677
93.07361, 4.641751
93.55573, 5.065580
94.03784, 5.458587
94.51996, 5.500362
95.00208, 5.256412
95.48419, 4.952135
95.96631, 4.576598
96.44843, 4.203876
96.93054, 4.076994
97.41266, 4.222004
97.89478, 4.479030
98.37689, 4.672415
98.85901, 4.798195
99.34113, 4.915510
99.82324, 5.086937
100.3054, 5.311041
100.7875, 5.347038
101.2696, 5.139129
101.7517, 4.814820
102.2338, 4.581369
102.7159, 4.425271
103.1981, 4.405357
103.6802, 4.616742
104.1623, 5.218954
104.6444, 5.511954
105.1265, 5.311656
105.6086, 4.797404
106.0908, 4.676533
106.5729, 5.242005
107.0550, 5.859221
107.5371, 6.163930
108.0192, 5.987027
108.5013, 5.749507
108.9835, 5.384219
109.4656, 4.904325
109.9477, 4.695800
110.4298, 4.949748
110.9119, 5.370342
111.3940, 5.760978
111.8762, 6.157675
112.3583, 6.479014
112.8404, 6.604680
113.3225, 6.486075
113.8046, 6.681184
114.2867, 7.600213
114.7689, 8.769852
115.2510, 9.666034
115.7331, 9.936609
116.2152, 10.12073
116.6973, 10.41439
117.1794, 10.85820
117.6616, 11.31807
118.1437, 11.82117
118.6258, 12.30585
119.1079, 12.65338
119.5900, 12.58890
120.0721, 12.51758
120.5543, 12.73862
121.0364, 13.39344
121.5185, 14.10741
122.0006, 14.57925
122.4827, 14.91191
122.9648, 15.40732
123.4470, 16.39652
123.9291, 17.57927
124.4112, 18.63685
124.8933, 19.54939
125.3754, 20.23753
125.8575, 20.38636
126.3397, 20.10391
126.8218, 20.05480
127.3039, 20.94256
127.7860, 22.40968
128.2681, 23.71651
128.7502, 24.55856
129.2324, 25.20332
129.7145, 26.20421
130.1966, 27.56726
130.6787, 28.78215
131.1608, 29.21820
131.6429, 29.01735
132.1251, 28.89571
132.6072, 29.08635
133.0893, 29.53651
133.5714, 30.11070
134.0535, 30.82890
134.5356, 31.57941
135.0178, 32.22414
135.4999, 32.75808
135.9820, 33.26601
136.4641, 33.64800
136.9462, 33.92461
137.4283, 34.83683
137.9105, 36.59420
138.3926, 38.63133
138.8747, 39.98978
139.3568, 40.59169
139.8389, 40.88533
140.3210, 41.01074
140.8032, 40.93362
141.2853, 40.82191
141.7674, 40.52147
142.2495, 40.28536
142.7316, 40.79973
143.2137, 42.32043
143.6959, 43.60957
144.1780, 44.27426
144.6601, 44.05172
145.1422, 43.93797
145.6243, 43.95611
146.1064, 44.09832
146.5886, 44.36699
147.0707, 44.92755
147.5528, 45.42765
148.0349, 45.67110
148.5170, 45.57489
148.9991, 45.36381
149.4813, 44.87939
149.9634, 44.18753
150.4455, 43.97025
150.9276, 44.69338
151.4097, 45.56255
151.8918, 46.07590
152.3740, 45.99336
152.8561, 45.85626
153.3382, 45.64563
153.8203, 45.36683
154.3024, 45.25066
154.7845, 45.62678
155.2667, 46.00591
155.7488, 46.02474
156.2309, 45.37305
156.7130, 44.62407
157.1951, 43.77169
157.6772, 42.80238
158.1594, 42.19120
158.6415, 42.30992
159.1236, 42.72685
159.6057, 43.02137
160.0878, 42.84393
160.5699, 42.74336
161.0521, 43.00905
161.5342, 43.71730
162.0163, 44.24043
162.4984, 44.29945
162.9805, 44.06704
163.4626, 43.76101
163.9448, 43.38743
164.4269, 43.01470
164.9090, 42.64521
165.3911, 42.25800
165.8732, 41.99440
166.3553, 41.97194
166.8375, 42.11363
167.3196, 42.29265
167.8017, 42.47894
168.2838, 42.66514
168.7659, 42.84374
169.2480, 43.00896
169.7302, 43.18466
170.2123, 43.43114
170.6944, 43.70390
171.1765, 43.89952
171.6586, 43.97876
172.1407, 43.95076
172.6229, 43.77614
173.1050, 43.37672
173.5871, 43.04180
174.0692, 43.07524
174.5513, 43.39200
175.0334, 43.74359
175.5156, 44.12144
175.9977, 44.40867
176.4798, 44.35909
176.9619, 43.78632
177.4440, 43.20386
177.9261, 43.24931
178.4083, 43.81650
178.8904, 44.45503
179.3725, 44.89381
179.8546, 45.19278
180.3367, 45.46735
180.8188, 45.76854
181.3010, 46.00350
181.7831, 45.94237
182.2652, 45.62867
182.7473, 45.40328
183.2294, 45.61980
183.7115, 46.12953
184.1937, 46.49276
184.6758, 46.55688
185.1579, 46.51828
185.6400, 46.78567
186.1221, 47.34309
186.6042, 47.86074
187.0864, 48.02895
187.5685, 47.91692
188.0506, 47.82704
188.5327, 47.85102
189.0148, 47.91074
189.4969, 47.76955
189.9791, 47.41633
190.4612, 47.12890
190.9433, 47.19347
191.4254, 47.56944
191.9075, 47.91805
192.3896, 48.16234
192.8718, 48.32674
193.3539, 48.52799
193.8360, 48.78789
194.3181, 48.92914
194.8002, 48.64149
195.2823, 47.93882
195.7645, 47.56731
196.2466, 47.78948
196.7287, 48.45153
197.2108, 48.98421
197.6929, 49.39947
198.1750, 49.62758
198.6572, 49.46637
199.1393, 48.88438
199.6214, 48.56420
200.1035, 48.70856
200.5856, 49.25362
201.0677, 49.88688
201.5499, 50.67673
202.0320, 51.34645
202.5141, 51.49739
202.9962, 51.03413
203.4783, 50.83081
203.9604, 51.16132
204.4426, 51.95327
204.9247, 52.57825
205.4068, 52.97971
205.8889, 53.34359
206.3710, 53.82190
206.8531, 54.40238
207.3353, 55.16941
207.8174, 56.18512
208.2995, 57.42997
208.7816, 58.65868
209.2637, 59.88424
209.7458, 61.04481
210.2280, 62.00204
210.7101, 62.63824
211.1922, 63.51196
211.6743, 64.82367
212.1564, 66.54324
212.6385, 68.10095
213.1207, 69.38809
213.6028, 70.66003
214.0849, 72.19477
214.5670, 74.04414
215.0491, 75.94815
215.5313, 77.84523
216.0134, 79.74438
216.4955, 81.71600
216.9776, 83.78988
217.4597, 85.91817
217.9418, 88.10494
218.4239, 90.37122
218.9061, 92.59055
219.3882, 94.78470
219.8703, 96.93702
220.3524, 98.81564
220.8345, 100.3329
221.3166, 101.6588
221.7988, 103.0532
222.2809, 104.7710
222.7630, 105.9348
223.2451, 106.3245
223.7272, 105.9375
224.2093, 105.1859
224.6915, 104.0781
225.1736, 102.5804
225.6557, 100.6883
226.1378, 98.31709
226.6199, 95.63848
227.1020, 92.49327
227.5842, 88.84962
228.0663, 85.98911
228.5484, 84.20915
229.0305, 82.85161
229.5126, 81.29271
229.9947, 79.38917
230.4769, 77.58003
230.9590, 75.92076
231.4411, 74.41847
231.9232, 73.03883
232.4053, 71.86011
232.8874, 70.70177
233.3696, 69.33854
233.8517, 67.43198
234.3338, 66.00743
234.8159, 65.41460
235.2980, 65.62527
235.7801, 65.38361
236.2623, 64.44220
236.7444, 63.31887
237.2265, 62.47883
237.7086, 62.22477
238.1907, 61.64934
238.6728, 60.47766
239.1550, 58.76129
239.6371, 57.38924
240.1192, 56.41936
240.6013, 55.72667
241.0834, 55.29646
241.5655, 55.48457
242.0477, 55.21838
242.5298, 54.20058
243.0119, 52.52138
243.4940, 51.10705
243.9761, 49.98030
244.4582, 49.09043
244.9404, 48.41796
245.4225, 48.03572
245.9046, 47.72918
246.3867, 47.51613
246.8688, 47.37255
247.3509, 47.11018
247.8331, 46.60183
248.3152, 46.13808
248.7973, 45.93519
249.2794, 46.18742
249.7615, 46.28065
250.2436, 46.10193
250.7258, 45.72038
251.2079, 45.47226
251.6900, 45.43850
252.1721, 45.42381
252.6542, 45.29984
253.1363, 44.97871
253.6185, 44.75720
254.1006, 44.65853
254.5827, 44.67149
255.0648, 44.79437
255.5469, 45.16125
256.0291, 45.42147
256.5112, 45.35081
256.9933, 44.75035
257.4754, 44.32582
257.9575, 44.14322
258.4396, 44.13728
258.9218, 44.15011
259.4039, 44.23900
259.8860, 44.24277
260.3681, 44.02233
260.8502, 43.37455
261.3323, 43.13039
261.8145, 43.45877
262.2966, 44.09789
262.7787, 44.46827
263.2608, 44.45523
263.7429, 44.41531
264.2250, 44.53323
264.7072, 44.90167
265.1893, 45.01274
265.6714, 44.74391
266.1535, 44.31909
266.6356, 44.15602
267.1177, 44.33685
267.5999, 44.55851
268.0820, 44.72548
268.5641, 44.84193
269.0462, 44.85630
269.5283, 44.69318
270.0104, 44.52372
270.4926, 44.64258
270.9747, 45.15245
271.4568, 45.59590
271.9389, 45.78812
272.4210, 45.72109
272.9031, 45.79937
273.3853, 46.05333
273.8674, 46.39952
274.3495, 46.78986
274.8316, 47.28141
275.3137, 47.51208
275.7958, 47.24365
276.2780, 46.54205
276.7601, 46.34962
277.2422, 46.77319
277.7243, 47.42915
278.2064, 47.96970
278.6885, 48.39857
279.1707, 48.65934
279.6528, 48.66704
280.1349, 48.49581
280.6170, 48.50957
281.0991, 48.70414
281.5812, 49.10355
282.0634, 49.84563
282.5455, 50.95499
283.0276, 51.81329
283.5097, 52.26295
283.9918, 52.41085
284.4739, 52.57140
284.9561, 52.74689
285.4382, 52.91915
285.9203, 52.97006
286.4024, 52.92438
286.8845, 53.27220
287.3666, 54.19491
287.8488, 55.39196
288.3309, 56.13319
288.8130, 56.40486
289.2951, 56.76490
289.7772, 57.76287
290.2593, 59.23967
290.7415, 60.24339
291.2236, 60.55740
291.7057, 60.64497
292.1878, 61.24968
292.6699, 62.34118
293.1520, 63.54931
293.6342, 64.57642
294.1163, 65.54620
294.5984, 66.83442
295.0805, 68.48600
295.5626, 70.39763
296.0447, 72.54723
296.5269, 74.89909
297.0090, 77.28825
297.4911, 79.41284
297.9732, 81.54534
298.4553, 84.38451
298.9374, 87.98013
299.4196, 91.65898
299.9017, 94.78737
300.3838, 97.42793
300.8659, 99.72063
301.3480, 101.7571
301.8301, 103.4353
302.3123, 104.7321
302.7944, 105.6453
303.2765, 105.7951
303.7586, 104.7149
304.2407, 102.6868
304.7228, 100.1644
305.2050, 97.13632
305.6871, 93.83999
306.1692, 90.35024
306.6513, 86.73246
307.1334, 83.65833
307.6155, 81.64282
308.0977, 80.37222
308.5798, 79.43884
309.0619, 78.72115
309.5440, 78.34398
310.0261, 78.50891
310.5082, 79.11605
310.9904, 79.85950
311.4725, 80.31873
311.9546, 80.98474
312.4367, 82.41957
312.9188, 84.93823
313.4009, 87.48516
313.8831, 89.78228
314.3652, 91.60860
314.8473, 92.59293
315.3294, 91.93794
315.8115, 90.86469
316.2936, 90.11026
316.7758, 89.78380
317.2579, 89.52541
317.7400, 88.99622
318.2221, 88.49660
318.7042, 88.39465
319.1863, 89.03970
319.6685, 89.89824
320.1506, 90.73259
320.6327, 91.52931
321.1148, 92.54074
321.5969, 93.77081
322.0790, 95.27345
322.5612, 97.12316
323.0433, 99.51937
323.5254, 102.0553
324.0075, 104.8600
324.4896, 107.8533
324.9717, 110.3469
325.4539, 112.4525
325.9360, 113.9082
326.4181, 114.5429
326.9002, 113.8934
327.3823, 113.0126
327.8644, 111.9194
328.3466, 110.6342
328.8287, 109.2189
329.3108, 107.7704
329.7929, 106.0886
330.2750, 104.0454
330.7571, 101.1448
331.2393, 98.94927
331.7214, 97.60493
332.2035, 96.90873
332.6856, 96.57114
333.1677, 96.77463
333.6498, 97.06680
334.1320, 97.33890
334.6141, 97.57983
335.0962, 97.87240
335.5783, 98.35574
336.0604, 98.74609
336.5425, 98.75368
337.0247, 98.32988
337.5068, 97.66493
337.9889, 96.89526
338.4710, 95.95260
338.9531, 94.10616
339.4352, 91.04967
339.9173, 87.75573
340.3994, 85.12679
340.8816, 83.31994
341.3637, 80.97595
341.8458, 77.71152
342.3279, 73.97408
342.8100, 70.71245
343.2921, 67.96830
343.7743, 65.59856
344.2564, 63.63153
344.7385, 62.03535
345.2206, 60.54002
345.7027, 59.12902
346.1848, 57.78005
346.6670, 56.37022
347.1491, 54.91863
347.6312, 53.73029
348.1133, 53.05886
348.5954, 52.75550
349.0775, 52.25312
349.5597, 51.51897
350.0418, 50.87897
350.5239, 50.78020
351.0060, 51.06946
351.4881, 51.27306
351.9702, 51.19324
352.4524, 50.98692
352.9345, 50.86217
353.4166, 50.81818
353.8987, 50.84661
354.3808, 50.99735
354.8629, 51.20229
355.3451, 51.35255
355.8272, 51.41019
356.3093, 51.44025
356.7914, 51.37403
357.2735, 51.30688
357.7556, 51.50312
358.2378, 52.31252
358.7199, 53.31879
359.2020, 54.18632
359.6841, 54.86894
360.1662, 55.45427
360.6483, 55.92043
361.1305, 56.33588
361.6126, 56.79688
362.0947, 57.23120
362.5768, 57.81305
363.0589, 58.60612
363.5410, 59.61420
364.0232, 60.86068
364.5053, 62.51381
364.9874, 64.32251
365.4695, 66.09180
365.9516, 67.55865
366.4337, 69.23113
366.9159, 71.28902
367.3980, 73.65881
367.8801, 76.05635
368.3622, 78.65376
368.8443, 81.07883
369.3264, 83.21503
369.8086, 85.38741
370.2907, 86.65730
370.7728, 86.80672
371.2549, 86.12526
371.7370, 85.08925
372.2191, 83.92500
372.7013, 82.07048
373.1834, 79.23295
373.6655, 75.27721
374.1476, 71.51967
374.6297, 67.98009
375.1118, 64.72010
375.5940, 61.85561
376.0761, 59.50651
376.5582, 57.25927
377.0403, 55.04208
377.5224, 52.88588
378.0045, 50.76302
378.4867, 48.64283
378.9688, 46.81141
379.4509, 45.57024
379.9330, 44.94131
380.4151, 44.21585
380.8972, 43.33159
381.3794, 42.36271
381.8615, 41.38148
382.3436, 40.38150
382.8257, 39.59094
383.3078, 39.21537
383.7899, 39.12696
384.2721, 38.87940
384.7542, 38.46607
385.2363, 37.97232
385.7184, 37.44646
386.2005, 36.90598
386.6826, 36.35624
387.1648, 35.73218
387.6469, 35.18059
388.1290, 34.91964
388.6111, 34.91781
389.0932, 34.98444
389.5753, 35.02979
390.0575, 35.06073
390.5396, 35.11296
391.0217, 35.23787
391.5038, 35.24622
391.9859, 34.90224
392.4680, 34.35868
392.9502, 33.88837
393.4323, 33.55853
393.9144, 33.38020
394.3965, 33.40615
394.8786, 33.64555
395.3607, 33.89104
395.8429, 34.09779
396.3250, 34.26467
396.8071, 34.39173
397.2892, 34.21236
397.7713, 34.28232
398.2534, 34.84447
398.7356, 35.80170
399.2177, 36.67268
399.6998, 37.21627
400.1819, 37.82215
400.6640, 38.67057
401.1461, 39.90178
401.6283, 41.08325
402.1104, 42.15102
402.5925, 43.19596
403.0746, 44.36577
403.5567, 45.63721
404.0388, 47.08360
404.5210, 48.79343
405.0031, 50.76709
405.4852, 52.55645
405.9673, 54.18719
406.4494, 55.59460
406.9315, 56.82642
407.4137, 57.95864
407.8958, 58.35476
408.3779, 57.81927
408.8600, 56.60157
409.3421, 55.21365
409.8242, 53.64945
410.3064, 52.11952
410.7885, 50.70601
411.2706, 49.40530
411.7527, 48.19990
412.2348, 47.06140
412.7169, 46.13276
413.1991, 45.57730
413.6812, 45.37278
414.1633, 45.47510
414.6454, 45.98745
415.1275, 46.70235
415.6096, 47.34613
416.0918, 47.92889
416.5739, 48.56847
417.0560, 49.45718
417.5381, 50.40120
418.0202, 51.17342
418.5023, 51.70291
418.9845, 52.11979
419.4666, 52.41244
419.9487, 52.65391
420.4308, 52.97413
420.9129, 53.47030
421.3951, 54.02228
421.8772, 54.52352
422.3593, 54.94136
422.8414, 55.59528
423.3235, 56.73513
423.8056, 58.05499
424.2878, 59.29831
424.7699, 60.29216
425.2520, 61.36689
425.7341, 62.39181
426.2162, 63.47795
426.6983, 65.13712
427.1805, 67.99467
427.6626, 70.68465
428.1447, 72.67854
428.6268, 73.77876
429.1089, 74.90466
429.5910, 76.32743
430.0732, 77.50202
430.5553, 77.67701
431.0374, 76.62946
431.5195, 75.49339
432.0016, 74.63969
432.4837, 73.88025
432.9659, 72.16296
433.4480, 69.35777
433.9301, 66.40999
434.4122, 63.96408
434.8943, 61.97358
435.3764, 60.10189
435.8586, 58.30783
436.3407, 56.65204
436.8228, 55.27792
437.3049, 54.13148
437.7870, 53.01377
438.2691, 51.85527
438.7513, 50.65296
439.2334, 49.35787
439.7155, 47.97941
440.1976, 46.66765
440.6797, 45.50917
441.1618, 44.48771
441.6440, 43.59916
442.1261, 42.92551
442.6082, 42.24672
443.0903, 41.31304
443.5724, 40.28229
444.0545, 39.49543
444.5367, 39.27841
445.0188, 39.16813
445.5009, 38.93847
445.9830, 38.55474
446.4651, 38.20415
446.9472, 37.89870
447.4294, 37.65103
447.9115, 37.47570
448.3936, 37.53600
448.8757, 37.45699
449.3578, 37.05265
449.8399, 36.48476
450.3221, 36.31243
450.8042, 36.77140
451.2863, 37.25179
451.7684, 37.50350
452.2505, 37.48628
452.7326, 37.50026
453.2148, 37.55339
453.6969, 37.62504
454.1790, 37.69976
454.6611, 37.78096
455.1432, 37.81826
455.6253, 37.77363
456.1075, 37.69791
456.5896, 37.74106
457.0717, 37.90074
457.5538, 38.07348
458.0359, 38.12260
458.5180, 38.14046
459.0002, 38.40560
459.4823, 38.97659
459.9644, 39.53051
460.4465, 39.70675
460.9286, 39.63623
461.4107, 39.56153
461.8929, 39.48302
462.3750, 39.51740
462.8571, 39.89331
463.3392, 40.51600
463.8213, 40.92477
464.3034, 40.56505
464.7856, 40.14968
465.2677, 40.22395
465.7498, 41.10439
466.2319, 41.81101
466.7140, 41.95021
467.1961, 41.83269
467.6783, 41.85833
468.1604, 42.27912
468.6425, 42.61419
469.1246, 42.67721
469.6067, 42.51286
470.0888, 42.70912
470.5710, 43.62230
471.0531, 44.40916
471.5352, 44.51655
472.0173, 43.64154
472.4994, 43.22045
472.9815, 43.38795
473.4637, 43.85561
473.9458, 44.20636
474.4279, 44.43972
474.9100, 44.59050
475.3921, 44.61287
475.8742, 44.58545
476.3564, 44.79136
476.8385, 45.22822
477.3206, 45.66331
477.8027, 45.91700
478.2848, 46.03881
478.7669, 46.06298
479.2491, 45.93508
479.7312, 45.97259
480.2133, 46.73169
480.6954, 47.84846
481.1775, 48.64758
481.6596, 48.47407
482.1418, 48.18901
482.6239, 48.36895
483.1060, 48.95522
483.5881, 49.48811
484.0702, 49.83384
484.5523, 50.04041
485.0345, 50.05702
485.5166, 49.54516
485.9987, 49.59147
486.4808, 50.68755
486.9629, 52.31290
487.4450, 53.80148
487.9272, 55.87119
488.4093, 56.74648
488.8914, 55.64821
489.3735, 52.86704
489.8556, 51.10513
490.3377, 50.52056
490.8199, 50.52840
491.3020, 50.96817
491.7841, 51.90596
492.2662, 52.38240
492.7483, 52.25917
493.2304, 51.95111
493.7126, 52.12281
494.1947, 52.69249
494.6768, 53.00439
495.1589, 52.72871
495.6410, 52.17952
496.1231, 51.91301
496.6053, 51.89109
497.0874, 51.88849
497.5695, 51.66410
498.0516, 51.42216
498.5337, 51.49257
499.0158, 51.98902
499.4980, 52.29034
499.9801, 51.73612
500.4622, 50.87644
500.9443, 50.35209
501.4264, 50.76368
501.9085, 51.12941
502.3907, 51.02472
502.8728, 50.59993
503.3549, 50.48251
503.8370, 51.25153
504.3191, 51.88269
504.8012, 51.94138
505.2834, 51.24012
505.7655, 50.81345
506.2476, 50.79633
506.7297, 50.90175
507.2118, 50.83292
507.6939, 50.52755
508.1761, 50.29721
508.6582, 50.17339
509.1403, 50.16240
509.6224, 50.29259
510.1045, 50.56508
510.5866, 50.92055
511.0688, 51.41166
511.5509, 51.96040
512.0330, 52.31109
512.5151, 52.46108
512.9973, 52.54940
513.4794, 52.65580
513.9615, 52.79155
514.4436, 52.96633
514.9257, 53.16175
515.4078, 53.44418
515.8900, 53.99726
516.3721, 54.65905
516.8542, 55.12181
517.3363, 55.03426
517.8184, 54.94901
518.3005, 55.08040
518.7827, 55.43638
519.2648, 55.92358
519.7469, 56.69478
520.2290, 57.46533
520.7111, 58.03286
521.1932, 57.98529
521.6754, 58.62852
522.1575, 60.34943
522.6396, 62.44756
523.1217, 63.89119
523.6038, 64.51743
524.0859, 65.06618
524.5681, 65.61041
525.0502, 66.23991
525.5323, 67.34119
526.0144, 68.93722
526.4965, 70.68787
526.9786, 72.40140
527.4608, 74.12013
527.9429, 75.94534
528.4250, 77.90421
528.9071, 79.91283
529.3892, 81.93190
529.8713, 83.95303
530.3535, 85.90388
530.8356, 87.67321
531.3177, 89.53749
531.7998, 91.76844
532.2819, 94.24320
532.7640, 96.56377
533.2462, 98.12505
533.7283, 99.97549
534.2104, 102.7179
534.6925, 106.4490
535.1746, 110.0186
535.6567, 113.1229
536.1389, 116.1929
536.6210, 119.3877
537.1031, 122.6960
537.5852, 126.2718
538.0673, 130.2311
538.5494, 134.3949
539.0316, 138.5640
539.5137, 142.8248
539.9958, 146.7806
540.4779, 150.4126
540.9600, 153.6139
541.4421, 156.2397
541.9243, 158.2634
542.4064, 159.1668
542.8885, 158.7236
543.3706, 156.8652
543.8527, 153.3295
544.3348, 148.0496
544.8170, 141.6689
545.2991, 134.0108
545.7812, 125.8231
546.2633, 117.9224
546.7454, 110.5929
547.2275, 103.6489
547.7097, 96.72215
548.1918, 90.10043
548.6739, 84.56544
549.1560, 80.69379
549.6381, 77.45383
550.1202, 74.63884
550.6024, 72.24392
551.0845, 70.12275
551.5666, 68.32961
552.0487, 66.73099
552.5308, 65.25352
553.0129, 63.87465
553.4951, 62.67330
553.9772, 61.61910
554.4593, 60.81414
554.9414, 60.57347
555.4235, 60.83464
555.9056, 60.82969
556.3878, 60.19261
556.8699, 59.33329
557.3520, 58.90216
557.8341, 58.85173
558.3162, 58.99120
558.7983, 59.45619
559.2805, 59.90446
559.7626, 59.93476
560.2447, 59.51250
560.7268, 59.13548
561.2089, 58.93053
561.6910, 58.92924
562.1732, 59.17894
562.6553, 59.96177
563.1374, 60.56168
563.6195, 60.81458
564.1016, 60.85643
564.5837, 60.86172
565.0659, 60.69065
565.5480, 60.74351
566.0301, 61.12915
566.5122, 61.80398
566.9943, 62.59723
567.4764, 63.53932
567.9586, 64.42222
568.4407, 65.09196
568.9228, 65.57901
569.4049, 66.00816
569.8870, 66.35880
570.3691, 66.86881
570.8513, 67.80869
571.3334, 69.06976
571.8155, 70.40279
572.2976, 71.76881
572.7797, 73.20162
573.2618, 74.90451
573.7440, 76.67539
574.2261, 78.18923
574.7082, 78.77027
575.1903, 79.60325
575.6724, 81.14729
576.1545, 83.36108
576.6367, 85.84958
577.1188, 89.08315
577.6009, 92.04015
578.0830, 94.23621
578.5651, 95.43181
579.0472, 97.03885
579.5294, 99.08845
580.0115, 101.5369
580.4936, 104.4598
580.9757, 107.8917
581.4578, 111.3422
581.9399, 114.7781
582.4221, 118.1132
582.9042, 121.0364
583.3863, 123.6931
583.8684, 126.8367
584.3505, 131.2211
584.8326, 135.9113
585.3148, 139.9550
585.7969, 143.4500
586.2789, 146.6763
586.7610, 149.5714
587.2432, 152.4222
587.7253, 155.5850
588.2074, 159.2943
588.6895, 162.1068
589.1716, 163.8111
