##NAMES=Forsterite
##RRUFFID=R100101
##IDEAL CHEMISTRY=Mg_2_SiO_4_
##LOCALITY=Yancey County,  North Carolina, USA
##OWNER=RRUFF
##SOURCE=American Museum of Natural History
##DESCRIPTION=Pale green consolidated aggregate of grains
##STATUS=The identification of this mineral is confirmed by single-crystal X-ray diffraction and chemical analysis.
##URL=rruff.info/R100101
##MEASURED CHEMISTRY=(Mg_1.809_Fe_0.183_Ni_0.008_Mn_0.003_)_Î£=2.003_Si_0.999_O_4_
140.2270, 39.18654
140.7091, 39.83239
141.1912, 40.39604
141.6733, 40.71940
142.1555, 40.79212
142.6376, 40.56610
143.1197, 39.51094
143.6018, 38.73230
144.0839, 38.47514
144.5660, 38.55695
145.0482, 38.71167
145.5303, 38.80532
146.0124, 38.82255
146.4945, 38.64737
146.9766, 38.01683
147.4587, 37.49382
147.9409, 37.45193
148.4230, 37.78685
148.9051, 37.97869
149.3872, 37.53951
149.8693, 36.63939
150.3514, 36.27213
150.8336, 37.05943
151.3157, 38.01395
151.7978, 38.13475
152.2799, 37.29528
152.7620, 36.39529
153.2441, 36.21663
153.7263, 36.44564
154.2084, 36.57990
154.6905, 36.39483
155.1726, 36.01282
155.6547, 35.68854
156.1368, 35.41252
156.6190, 35.22602
157.1011, 35.19185
157.5832, 35.24854
158.0653, 35.27478
158.5474, 35.17004
159.0295, 34.94814
159.5117, 34.79911
159.9938, 34.85237
160.4759, 34.84897
160.9580, 34.66639
161.4401, 34.34356
161.9222, 33.98742
162.4044, 33.66750
162.8865, 33.35551
163.3686, 33.25316
163.8507, 33.49574
164.3328, 33.81244
164.8149, 34.15545
165.2971, 34.48444
165.7792, 34.73321
166.2613, 34.84872
166.7434, 34.90237
167.2255, 34.52361
167.7076, 33.14783
168.1898, 31.78022
168.6719, 31.23419
169.1540, 31.63602
169.6361, 32.40320
170.1182, 32.71566
170.6003, 32.32345
171.0825, 32.08271
171.5646, 32.13234
172.0467, 32.31196
172.5288, 32.43995
173.0109, 32.46223
173.4930, 32.44285
173.9752, 32.50213
174.4573, 32.65858
174.9394, 32.76006
175.4215, 32.75699
175.9036, 32.66720
176.3857, 32.53016
176.8679, 32.35442
177.3500, 32.13088
177.8321, 31.82492
178.3142, 31.42135
178.7963, 31.07449
179.2784, 30.93082
179.7606, 30.95855
180.2427, 30.89617
180.7248, 30.55952
181.2069, 30.21112
181.6890, 30.12760
182.1711, 30.33910
182.6533, 30.55705
183.1354, 30.44147
183.6175, 29.93138
184.0996, 29.57211
184.5817, 29.67910
185.0638, 29.86234
185.5460, 29.90265
186.0281, 29.75284
186.5102, 29.50742
186.9923, 29.30131
187.4744, 29.16995
187.9565, 28.98010
188.4387, 28.52017
188.9208, 28.11705
189.4029, 28.08867
189.8850, 28.51265
190.3671, 29.11261
190.8492, 29.36138
191.3314, 29.03683
191.8135, 28.68152
192.2956, 28.13081
192.7777, 27.66411
193.2598, 27.58889
193.7419, 28.01698
194.2241, 28.74020
194.7062, 29.25666
195.1883, 29.42779
195.6704, 29.52376
196.1525, 29.40000
196.6346, 29.25171
197.1168, 29.40101
197.5989, 30.00677
198.0810, 30.79471
198.5631, 30.93503
199.0452, 29.68497
199.5273, 28.80972
200.0095, 28.81733
200.4916, 29.34866
200.9737, 29.81548
201.4558, 29.94964
201.9379, 29.88052
202.4200, 30.00855
202.9022, 30.52793
203.3843, 30.87811
203.8664, 30.71163
204.3485, 30.20167
204.8306, 29.82574
205.3127, 29.79744
205.7949, 30.02432
206.2770, 30.28119
206.7591, 30.59450
207.2412, 30.88245
207.7233, 31.08777
208.2054, 31.22131
208.6876, 31.33544
209.1697, 31.40416
209.6518, 31.50632
210.1339, 31.73753
210.6160, 32.11249
211.0981, 32.58191
211.5803, 33.19888
212.0624, 33.96362
212.5445, 34.51741
213.0266, 34.43734
213.5087, 34.26723
213.9908, 34.57546
214.4730, 35.50463
214.9551, 36.57000
215.4372, 37.24516
215.9193, 37.49128
216.4014, 37.60557
216.8836, 37.39913
217.3657, 37.24501
217.8478, 37.47101
218.3299, 38.16114
218.8120, 38.99281
219.2941, 39.53046
219.7763, 39.71493
220.2584, 39.78791
220.7405, 39.54908
221.2226, 39.36908
221.7047, 39.60466
222.1868, 40.33340
222.6690, 41.19735
223.1511, 41.61945
223.6332, 41.43398
224.1153, 41.15792
224.5974, 40.84804
225.0795, 40.48349
225.5617, 39.96729
226.0438, 39.29810
226.5259, 38.66851
227.0080, 38.47711
227.4901, 39.24698
227.9722, 39.47783
228.4544, 38.71913
228.9365, 37.72982
229.4186, 37.09572
229.9007, 36.98091
230.3828, 37.15467
230.8649, 37.21319
231.3471, 36.95803
231.8292, 36.91985
232.3113, 37.39713
232.7934, 37.90028
233.2755, 37.96680
233.7576, 37.48821
234.2398, 36.77046
234.7219, 36.32547
235.2040, 36.35761
235.6861, 36.32089
236.1682, 36.06196
236.6503, 35.81666
237.1325, 35.90724
237.6146, 36.39711
238.0967, 36.91668
238.5788, 36.88448
239.0609, 35.95701
239.5430, 35.24343
240.0252, 35.01699
240.5073, 34.90428
240.9894, 34.44358
241.4715, 33.52543
241.9536, 32.58663
242.4357, 32.28892
242.9179, 32.85482
243.4000, 33.06615
243.8821, 32.63217
244.3642, 31.87097
244.8463, 31.05235
245.3284, 30.21650
245.8106, 29.47602
246.2927, 28.95326
246.7748, 28.64253
247.2569, 28.56968
247.7390, 29.01207
248.2211, 29.57827
248.7033, 29.77665
249.1854, 29.51185
249.6675, 29.05659
250.1496, 28.63600
250.6317, 28.24353
251.1138, 27.86456
251.5960, 27.43208
252.0781, 27.03699
252.5602, 26.82986
253.0423, 26.85277
253.5244, 26.90494
254.0065, 26.79599
254.4887, 26.57706
254.9708, 26.38164
255.4529, 26.27894
255.9350, 26.20404
256.4171, 26.08547
256.8992, 25.93073
257.3813, 25.68840
257.8635, 25.13438
258.3456, 24.47747
258.8277, 24.09896
259.3098, 24.22007
259.7919, 24.61325
260.2740, 25.00480
260.7562, 25.41887
261.2383, 25.72539
261.7204, 25.87141
262.2025, 25.85732
262.6846, 25.60236
263.1667, 24.89874
263.6489, 24.16943
264.1310, 24.14874
264.6131, 25.04551
265.0952, 25.74069
265.5773, 25.50422
266.0594, 24.89851
266.5416, 24.39657
267.0237, 24.10682
267.5058, 24.00622
267.9879, 24.11901
268.4700, 24.50302
268.9521, 24.83222
269.4343, 25.08155
269.9164, 25.18316
270.3985, 24.97433
270.8806, 24.38581
271.3627, 23.78473
271.8448, 23.70203
272.3270, 24.26359
272.8091, 24.68384
273.2912, 24.65006
273.7733, 24.49191
274.2554, 24.39418
274.7375, 24.38952
275.2197, 24.41292
275.7018, 24.37614
276.1839, 24.25976
276.6660, 24.20987
277.1481, 24.30465
277.6302, 24.43295
278.1124, 24.53040
278.5945, 24.59908
279.0766, 24.69605
279.5587, 24.90423
280.0408, 25.24460
280.5229, 25.51128
281.0051, 25.63774
281.4872, 25.73253
281.9693, 25.72302
282.4514, 25.69046
282.9335, 25.87515
283.4156, 26.63417
283.8978, 27.99142
284.3799, 28.78290
284.8620, 28.34672
285.3441, 27.97845
285.8262, 28.16847
286.3083, 28.77655
286.7905, 29.45790
287.2726, 30.00751
287.7547, 30.41789
288.2368, 30.57046
288.7189, 29.94991
289.2010, 29.70329
289.6832, 30.39266
290.1653, 31.58907
290.6474, 32.62611
291.1295, 33.08741
291.6116, 33.15425
292.0938, 33.56680
292.5759, 34.54922
293.0580, 35.58488
293.5401, 36.57655
294.0222, 37.55842
294.5043, 38.54473
294.9865, 39.53916
295.4686, 40.58860
295.9507, 41.77893
296.4328, 42.96041
296.9149, 44.60012
297.3970, 47.08678
297.8792, 49.79105
298.3613, 52.16322
298.8434, 54.04395
299.3255, 55.64077
299.8076, 57.31968
300.2897, 59.25378
300.7719, 60.85853
301.2540, 62.44391
301.7361, 63.52019
302.2182, 63.72544
302.7003, 63.02697
303.1824, 61.70864
303.6646, 60.01197
304.1467, 57.78589
304.6288, 55.74839
305.1109, 54.20121
305.5930, 52.55659
306.0751, 50.37425
306.5573, 47.78782
307.0394, 45.32549
307.5215, 43.48917
308.0036, 42.31035
308.4857, 41.16005
308.9678, 39.88092
309.4500, 38.78746
309.9321, 38.03157
310.4142, 37.53121
310.8963, 37.10784
311.3784, 36.63055
311.8605, 36.12537
312.3427, 35.79907
312.8248, 35.58128
313.3069, 35.66249
313.7890, 36.38012
314.2711, 37.31934
314.7532, 37.97525
315.2354, 38.09558
315.7175, 37.78092
316.1996, 37.28764
316.6817, 36.38583
317.1638, 35.67157
317.6459, 35.30146
318.1281, 35.07461
318.6102, 34.81716
319.0923, 34.47341
319.5744, 34.10352
320.0565, 33.79427
320.5386, 33.51548
321.0208, 33.38026
321.5029, 33.38074
321.9850, 33.50900
322.4671, 33.86505
322.9492, 34.40097
323.4313, 34.86951
323.9135, 34.95489
324.3956, 34.54102
324.8777, 34.33350
325.3598, 34.57092
325.8419, 34.79322
326.3240, 34.96660
326.8062, 34.98884
327.2883, 34.63669
327.7704, 33.62701
328.2525, 32.02557
328.7346, 30.98910
329.2167, 31.19940
329.6989, 31.22330
330.1810, 30.51176
330.6631, 29.43942
331.1452, 28.56490
331.6273, 28.18537
332.1094, 28.20358
332.5916, 28.34689
333.0737, 28.75707
333.5558, 29.04554
334.0379, 29.16500
334.5200, 29.14496
335.0021, 28.93916
335.4843, 28.54334
335.9664, 28.15238
336.4485, 28.13153
336.9306, 28.66256
337.4127, 29.01951
337.8948, 29.18814
338.3770, 29.13210
338.8591, 28.70842
339.3412, 27.96589
339.8233, 27.20057
340.3055, 26.72256
340.7876, 26.56423
341.2697, 26.38561
341.7518, 26.21607
342.2339, 25.99276
342.7160, 25.58585
343.1982, 25.09920
343.6803, 24.78474
344.1624, 24.88530
344.6445, 25.28341
345.1266, 25.37534
345.6087, 25.00875
346.0909, 24.56523
346.5730, 23.97544
347.0551, 23.45821
347.5372, 23.36825
348.0193, 23.92279
348.5014, 24.70789
348.9836, 24.93321
349.4657, 24.42980
349.9478, 23.92865
350.4299, 23.52994
350.9120, 23.26003
351.3941, 23.20025
351.8763, 23.35890
352.3584, 23.55618
352.8405, 23.58149
353.3226, 23.42792
353.8047, 23.35714
354.2868, 23.43010
354.7690, 23.57323
355.2511, 23.79150
355.7332, 24.05273
356.2153, 24.23448
356.6974, 24.20075
357.1795, 24.01451
357.6617, 23.94055
358.1438, 24.05252
358.6259, 24.12854
359.1080, 23.98727
359.5901, 23.74003
360.0722, 23.57394
360.5544, 23.61363
361.0365, 23.69580
361.5186, 23.54104
362.0007, 23.10936
362.4828, 22.76577
362.9649, 22.74029
363.4471, 22.83583
363.9292, 22.80878
364.4113, 22.60349
364.8934, 22.41771
365.3755, 22.44157
365.8576, 22.63366
366.3398, 22.75990
366.8219, 22.74273
367.3040, 22.67959
367.7861, 22.64606
368.2682, 22.64290
368.7503, 22.72303
369.2325, 22.98795
369.7146, 23.32686
370.1967, 23.56375
370.6788, 23.68622
371.1609, 23.69259
371.6430, 23.55248
372.1252, 23.28735
372.6073, 22.97445
373.0894, 22.63941
373.5715, 22.24728
374.0536, 21.65692
374.5357, 20.93078
375.0179, 20.46497
375.5000, 20.54457
375.9821, 20.92822
376.4642, 21.03992
376.9463, 20.82202
377.4284, 20.51505
377.9106, 20.05228
378.3927, 19.59134
378.8748, 19.49228
379.3569, 19.88857
379.8390, 20.35741
380.3211, 20.29673
380.8033, 19.56989
381.2854, 19.12071
381.7675, 19.21477
382.2496, 19.46822
382.7317, 19.63373
383.2138, 19.67722
383.6960, 19.59638
384.1781, 19.36388
384.6602, 18.99613
385.1423, 18.72800
385.6244, 18.52212
386.1065, 18.43351
386.5887, 18.66029
387.0708, 18.98523
387.5529, 18.95309
388.0350, 18.34313
388.5171, 17.52535
388.9992, 17.32444
389.4814, 18.42924
389.9635, 19.11273
390.4456, 19.08569
390.9277, 18.83706
391.4098, 18.80608
391.8919, 19.02382
392.3741, 19.15694
392.8562, 18.79443
393.3383, 17.79892
393.8204, 17.36969
394.3025, 17.97034
394.7846, 18.61302
395.2668, 18.97958
395.7489, 19.14168
396.2310, 19.30169
396.7131, 19.58654
397.1952, 19.91945
397.6773, 20.01870
398.1595, 19.68480
398.6416, 19.44241
399.1237, 19.32213
399.6058, 19.33004
400.0879, 19.51994
400.5700, 19.88487
401.0522, 20.28223
401.5343, 20.53767
402.0164, 20.62707
402.4985, 20.70720
402.9806, 20.73003
403.4627, 20.79721
403.9449, 20.96845
404.4270, 21.22084
404.9091, 21.48807
405.3912, 21.71396
405.8733, 21.93307
406.3554, 22.31477
406.8376, 23.03754
407.3197, 23.47672
407.8018, 22.94242
408.2839, 22.20518
408.7660, 22.14100
409.2481, 23.04544
409.7303, 24.14166
410.2124, 24.55839
410.6945, 24.35191
411.1766, 24.43377
411.6587, 25.11189
412.1408, 25.99804
412.6230, 26.73362
413.1051, 27.33602
413.5872, 27.92775
414.0693, 28.61974
414.5514, 29.31159
415.0335, 29.85002
415.5157, 30.22674
415.9978, 30.43508
416.4799, 30.34095
416.9620, 30.09417
417.4441, 30.15856
417.9262, 30.81968
418.4084, 31.43660
418.8905, 31.51288
419.3726, 31.25790
419.8547, 31.23167
420.3368, 31.64913
420.8189, 32.28664
421.3011, 32.76932
421.7832, 33.01939
422.2653, 33.45142
422.7474, 34.30438
423.2295, 35.22573
423.7116, 35.80426
424.1938, 36.07802
424.6759, 36.53733
425.1580, 37.61439
425.6401, 39.26125
426.1222, 40.61703
426.6043, 41.35896
427.0865, 42.23096
427.5686, 43.59912
428.0507, 45.15471
428.5328, 46.46039
429.0149, 47.35192
429.4970, 47.98580
429.9792, 48.63519
430.4613, 49.31198
430.9434, 49.98642
431.4255, 50.96909
431.9076, 51.68895
432.3897, 51.72041
432.8719, 51.17222
433.3540, 50.47301
433.8361, 49.94601
434.3182, 49.56600
434.8003, 49.15339
435.2824, 48.79625
435.7646, 48.25823
436.2467, 47.47356
436.7288, 46.51111
437.2109, 45.45257
437.6930, 44.32355
438.1751, 43.07799
438.6573, 41.62234
439.1394, 39.94314
439.6215, 38.23325
440.1036, 36.46478
440.5857, 34.72638
441.0678, 33.01556
441.5500, 31.36077
442.0321, 29.86478
442.5142, 28.59861
442.9963, 27.51028
443.4784, 26.52266
443.9605, 25.64809
444.4427, 24.77146
444.9248, 23.78898
445.4069, 22.80000
445.8890, 21.95661
446.3711, 21.23979
446.8532, 20.73084
447.3354, 20.65665
447.8175, 20.80424
448.2996, 20.66721
448.7817, 20.10387
449.2638, 19.43947
449.7459, 19.02184
450.2281, 18.86967
450.7102, 18.71295
451.1923, 18.55466
451.6744, 18.37797
452.1565, 18.09328
452.6386, 17.77172
453.1208, 17.64056
453.6029, 17.83546
454.0850, 18.23596
454.5671, 18.51070
455.0492, 18.77001
455.5313, 18.72443
456.0135, 18.04117
456.4956, 17.27387
456.9777, 16.88280
457.4598, 16.90943
457.9419, 17.08644
458.4240, 17.17177
458.9062, 17.16417
459.3883, 17.14146
459.8704, 17.12975
460.3525, 17.06905
460.8346, 16.89461
461.3167, 16.68308
461.7989, 16.54468
462.2810, 16.52221
462.7631, 16.53015
463.2452, 16.41385
463.7273, 16.13887
464.2094, 15.94304
464.6916, 15.86411
465.1737, 15.87177
465.6558, 16.05956
466.1379, 16.34138
466.6200, 16.42242
467.1021, 15.93560
467.5843, 15.23568
468.0664, 15.09410
468.5485, 15.58219
469.0306, 16.11832
469.5127, 16.51285
469.9948, 16.75651
470.4770, 16.83504
470.9591, 16.71632
471.4412, 16.55217
471.9233, 16.45505
472.4054, 16.35495
472.8875, 16.05337
473.3697, 15.49749
473.8518, 15.01630
474.3339, 14.89900
474.8160, 15.16353
475.2981, 15.57126
475.7802, 16.49027
476.2624, 17.16220
476.7445, 17.09577
477.2266, 16.56645
477.7087, 16.05745
478.1908, 15.75441
478.6729, 15.65349
479.1551, 15.77229
479.6372, 16.30180
480.1193, 16.59776
480.6014, 16.57744
481.0835, 16.43302
481.5656, 16.13999
482.0478, 15.80809
482.5299, 15.70204
483.0120, 16.03994
483.4941, 16.64911
483.9762, 16.83542
484.4583, 16.34546
484.9405, 15.94633
485.4226, 15.81844
485.9047, 15.80920
486.3868, 15.80388
486.8689, 15.78872
487.3510, 15.83046
487.8332, 16.05965
488.3153, 16.41277
488.7974, 16.57564
489.2795, 16.50288
489.7616, 16.32187
490.2437, 16.02266
490.7259, 15.68406
491.2080, 15.41754
491.6901, 15.22620
492.1722, 15.14735
492.6543, 15.23445
493.1364, 15.45769
493.6186, 15.78332
494.1007, 16.24850
494.5828, 16.62126
495.0649, 16.58661
495.5470, 16.09422
496.0291, 15.73594
496.5113, 15.58625
496.9934, 15.52195
497.4755, 15.46505
497.9576, 15.43523
498.4397, 15.50541
498.9218, 15.71444
499.4040, 15.99939
499.8861, 16.22702
500.3682, 16.45971
500.8503, 16.50129
501.3324, 16.27170
501.8145, 15.94362
502.2967, 15.50493
502.7788, 15.04899
503.2609, 14.81267
503.7430, 15.01410
504.2251, 15.49696
504.7072, 15.60873
505.1894, 15.11975
505.6715, 14.78806
506.1536, 14.87815
506.6357, 15.14992
507.1178, 15.48658
507.5999, 15.85736
508.0821, 16.14115
508.5642, 16.19930
509.0463, 16.10263
509.5284, 16.06110
510.0105, 16.09533
510.4926, 16.14668
510.9748, 16.19284
511.4569, 16.22657
511.9390, 16.22894
512.4211, 16.17100
512.9032, 16.13287
513.3853, 16.27851
513.8674, 16.43683
514.3495, 16.17228
514.8317, 15.38863
515.3138, 14.72966
515.7959, 14.93791
516.2780, 16.10914
516.7601, 16.67829
517.2422, 16.23194
517.7244, 15.75287
518.2065, 15.51743
518.6886, 15.47352
519.1707, 15.55111
519.6528, 15.71696
520.1349, 15.90712
520.6171, 15.99448
521.0992, 15.90750
521.5813, 16.01157
522.0634, 16.55610
522.5455, 17.04948
523.0276, 17.30443
523.5098, 17.38128
523.9919, 17.40540
524.4740, 17.42962
524.9561, 17.43289
525.4382, 17.30804
525.9203, 17.04929
526.4025, 17.08923
526.8846, 17.73746
527.3667, 18.43536
527.8488, 18.55414
528.3309, 18.19260
528.8130, 17.99178
529.2952, 18.27663
529.7773, 18.69535
530.2594, 19.05977
530.7415, 19.30673
531.2236, 19.07291
531.7057, 18.05883
532.1879, 16.88853
532.6700, 16.81594
533.1521, 18.52587
533.6342, 19.81555
534.1163, 20.30581
534.5984, 20.65194
535.0806, 21.27393
535.5627, 22.12967
536.0448, 22.98130
536.5269, 23.67985
537.0090, 24.26646
537.4911, 24.84854
537.9733, 25.42048
538.4554, 26.01233
538.9375, 26.69770
539.4196, 27.34555
539.9017, 27.85969
540.3839, 28.25606
540.8660, 28.62870
541.3481, 29.04520
541.8302, 29.47542
542.3123, 29.95787
542.7944, 30.54956
543.2766, 30.68468
543.7587, 30.03879
544.2408, 28.87774
544.7229, 27.50509
545.2050, 25.85436
545.6871, 24.56004
546.1693, 24.06465
546.6514, 23.90081
547.1335, 23.66403
547.6156, 23.29047
548.0977, 22.63589
548.5798, 21.54585
549.0620, 20.21666
549.5441, 19.31866
550.0262, 19.03497
550.5083, 18.97947
550.9904, 19.50364
551.4725, 19.98885
551.9547, 19.89110
552.4368, 19.27906
552.9189, 18.59575
553.4010, 18.14181
553.8831, 17.90892
554.3652, 17.90618
554.8474, 18.24087
555.3295, 18.53478
555.8116, 18.74134
556.2937, 18.83628
556.7758, 18.72793
557.2579, 18.43755
557.7401, 18.20613
558.2222, 18.15687
558.7043, 18.26399
559.1864, 18.55612
559.6685, 19.03289
560.1506, 19.38677
560.6328, 19.41597
561.1149, 19.27846
561.5970, 19.32076
562.0791, 19.56589
562.5612, 19.86652
563.0433, 20.30686
563.5255, 20.70838
564.0076, 20.79108
564.4897, 20.66021
564.9718, 20.78763
565.4539, 21.50546
565.9360, 22.60176
566.4182, 23.35287
566.9003, 23.61609
567.3824, 23.79972
567.8645, 23.78049
568.3466, 23.82920
568.8287, 24.08896
569.3109, 24.57143
569.7930, 25.25847
570.2751, 26.23460
570.7572, 27.31386
571.2393, 28.01687
571.7214, 28.29378
572.2036, 28.79552
572.6857, 29.89282
573.1678, 31.11234
573.6499, 31.73068
574.1320, 31.76338
574.6141, 32.31467
575.0963, 34.19044
575.5784, 36.30161
576.0605, 37.65224
576.5426, 38.40023
577.0247, 39.20744
577.5068, 40.36798
577.9890, 41.75167
578.4711, 43.11848
578.9532, 44.44164
579.4353, 45.81837
579.9174, 47.16243
580.3995, 48.63895
580.8817, 50.61202
581.3638, 52.72338
581.8459, 54.23605
582.3280, 54.76426
582.8101, 54.87895
583.2922, 55.69892
583.7744, 57.32600
584.2565, 58.05788
584.7386, 57.20406
585.2207, 56.07473
585.7029, 55.67512
586.1850, 55.72957
586.6671, 55.53690
587.1492, 54.87675
587.6313, 53.99102
588.1135, 52.97697
588.5956, 51.87824
589.0777, 50.78480
589.5598, 49.72014
590.0419, 48.68738
590.5240, 47.67035
591.0062, 46.66273
591.4883, 45.91499
591.9704, 45.79033
592.4525, 45.45400
592.9346, 44.37893
593.4167, 43.14849
593.8989, 42.47622
594.3810, 42.49194
594.8631, 42.70978
595.3452, 42.60332
595.8273, 42.21742
596.3094, 42.04042
596.7916, 42.01497
597.2737, 42.32804
597.7558, 43.33250
598.2379, 44.59253
598.7200, 45.68574
599.2021, 46.56524
599.6843, 47.30597
600.1664, 47.84729
600.6485, 48.32436
601.1306, 48.95079
601.6127, 49.72495
602.0948, 50.50865
602.5770, 51.23589
603.0591, 51.89370
603.5412, 52.44841
604.0233, 52.92470
604.5054, 53.23798
604.9875, 53.38750
605.4697, 53.37878
605.9518, 53.16840
606.4339, 52.80312
606.9160, 52.42735
607.3981, 52.15095
607.8802, 51.77687
608.3624, 50.90740
608.8445, 49.51595
609.3266, 47.79482
609.8087, 45.40283
610.2908, 43.17681
610.7729, 41.88313
611.2551, 41.24048
611.7372, 40.40755
612.2193, 39.10365
612.7014, 37.63271
613.1835, 36.09580
613.6656, 34.56905
614.1478, 33.25936
614.6299, 32.22104
615.1120, 31.21744
615.5941, 29.96897
616.0762, 28.47099
616.5583, 27.38413
617.0405, 27.07284
617.5226, 26.71035
618.0047, 26.15967
618.4868, 25.49585
618.9689, 24.72025
619.4510, 23.88153
619.9332, 23.18517
620.4153, 22.89998
620.8974, 22.87376
621.3795, 22.49039
621.8616, 21.64775
622.3438, 21.00585
622.8259, 20.92497
623.3080, 21.06578
623.7901, 21.01335
624.2722, 20.77039
624.7543, 20.34969
625.2365, 19.44467
625.7186, 18.62032
626.2007, 18.50270
626.6828, 18.86547
627.1649, 19.01081
627.6470, 18.64067
628.1292, 18.07778
628.6113, 17.85263
629.0934, 18.06438
629.5755, 18.19846
630.0576, 18.29363
630.5397, 18.26019
631.0219, 17.92141
631.5040, 17.49352
631.9861, 17.31195
632.4682, 17.48157
632.9503, 17.66525
633.4324, 17.47774
633.9146, 17.05645
634.3967, 16.89051
634.8788, 17.05112
635.3609, 17.14850
