##NAMES=Forsterite
##RRUFFID=R100100
##IDEAL CHEMISTRY=Mg_2_SiO_4_
##LOCALITY=Scott Creek, Jackson County,  North Carolina, USA
##OWNER=RRUFF
##SOURCE=American Museum of Natural History
##DESCRIPTION=Pale greenish-yellow fragments
##STATUS=The identification of this mineral is confirmed by single-crystal X-ray diffraction and chemical analysis.
##URL=rruff.info/R100100
##MEASURED CHEMISTRY=(Mg_1.832_Fe_0.153_Ni_0.008_Mn_0.002_Zn_0.001_)_Î£=1.996_Si_1.000_O_4_
112.2642, 96.51548
112.7463, 96.37528
113.2285, 96.49609
113.7106, 96.55083
114.1927, 96.50057
114.6748, 96.33616
115.1569, 96.06269
115.6390, 95.71196
116.1212, 95.13736
116.6033, 94.08665
117.0854, 92.89868
117.5675, 91.92764
118.0496, 91.36803
118.5317, 91.11629
119.0139, 90.67683
119.4960, 89.59131
119.9781, 88.81277
120.4602, 88.65038
120.9423, 88.91043
121.4244, 89.27445
121.9066, 89.52317
122.3887, 89.66768
122.8708, 89.48917
123.3529, 88.68384
123.8350, 87.90200
124.3171, 87.52303
124.7993, 87.52308
125.2814, 87.55649
125.7635, 87.27218
126.2456, 86.58566
126.7277, 85.90601
127.2098, 84.90150
127.6920, 84.05679
128.1741, 84.10867
128.6562, 85.35843
129.1383, 86.74516
129.6204, 86.78133
130.1025, 85.63860
130.5847, 84.42085
131.0668, 83.53490
131.5489, 82.91675
132.0310, 82.33408
132.5131, 81.66428
132.9952, 81.11523
133.4774, 80.94323
133.9595, 81.14404
134.4416, 81.28366
134.9237, 80.81631
135.4058, 79.59058
135.8879, 78.81006
136.3701, 79.39552
136.8522, 80.06138
137.3343, 79.96770
137.8164, 78.92297
138.2985, 77.50011
138.7806, 76.68810
139.2628, 76.88990
139.7449, 77.00965
140.2270, 76.83475
140.7091, 76.58955
141.1912, 76.56290
141.6733, 76.88315
142.1555, 77.34062
142.6376, 77.20553
143.1197, 75.52588
143.6018, 74.27957
144.0839, 73.83054
144.5660, 73.93346
145.0482, 74.22769
145.5303, 74.53537
146.0124, 74.82971
146.4945, 74.91380
146.9766, 74.71309
147.4587, 74.42997
147.9409, 74.04092
148.4230, 73.59822
148.9051, 73.32875
149.3872, 73.45293
149.8693, 73.90826
150.3514, 74.20843
150.8336, 74.41405
151.3157, 74.42068
151.7978, 73.99971
152.2799, 73.07299
152.7620, 72.23940
153.2441, 72.17941
153.7263, 72.52170
154.2084, 72.64304
154.6905, 72.20694
155.1726, 71.43066
155.6547, 70.76534
156.1368, 70.19407
156.6190, 69.79251
157.1011, 69.66279
157.5832, 69.70337
158.0653, 69.71712
158.5474, 69.57130
159.0295, 69.27734
159.5117, 68.98764
159.9938, 68.67622
160.4759, 68.39565
160.9580, 68.20995
161.4401, 68.07938
161.9222, 67.90314
162.4044, 67.56529
162.8865, 67.01200
163.3686, 66.60596
163.8507, 66.27812
164.3328, 66.13535
164.8149, 66.36347
165.2971, 66.89281
165.7792, 67.42854
166.2613, 67.62930
166.7434, 67.39114
167.2255, 67.06028
167.7076, 66.38703
168.1898, 65.79764
168.6719, 65.66681
169.1540, 66.04533
169.6361, 66.62189
170.1182, 66.98109
170.6003, 67.09168
171.0825, 67.00346
171.5646, 66.49232
172.0467, 65.86905
172.5288, 65.50188
173.0109, 65.50707
173.4930, 65.70924
173.9752, 65.83139
174.4573, 65.85075
174.9394, 65.94167
175.4215, 66.25855
175.9036, 66.68348
176.3857, 66.96718
176.8679, 67.06605
177.3500, 66.93981
177.8321, 66.49773
178.3142, 65.70805
178.7963, 64.96919
179.2784, 64.52627
179.7606, 64.35162
180.2427, 64.26618
180.7248, 64.33286
181.2069, 64.37458
181.6890, 64.28876
182.1711, 64.07003
182.6533, 63.64533
183.1354, 62.76268
183.6175, 61.30844
184.0996, 60.29952
184.5817, 60.62810
185.0638, 61.08036
185.5460, 60.85106
186.0281, 59.78368
186.5102, 58.47783
186.9923, 57.83538
187.4744, 58.20304
187.9565, 58.31563
188.4387, 57.74127
188.9208, 57.05299
189.4029, 56.68115
189.8850, 56.74996
190.3671, 57.05156
190.8492, 57.21695
191.3314, 57.32625
191.8135, 57.11427
192.2956, 56.13365
192.7777, 55.07869
193.2598, 54.60902
193.7419, 54.97688
194.2241, 55.88643
194.7062, 56.62408
195.1883, 56.96733
195.6704, 57.38683
196.1525, 58.04293
196.6346, 58.73022
197.1168, 59.22642
197.5989, 59.43698
198.0810, 59.38668
198.5631, 59.11823
199.0452, 58.29725
199.5273, 57.70927
200.0095, 57.67477
200.4916, 57.92802
200.9737, 57.98713
201.4558, 57.58840
201.9379, 56.96675
202.4200, 56.83935
202.9022, 57.48999
203.3843, 58.02953
203.8664, 58.02848
204.3485, 57.65874
204.8306, 57.40794
205.3127, 57.52661
205.7949, 57.84339
206.2770, 57.94378
206.7591, 57.69060
207.2412, 57.53080
207.7233, 57.78673
208.2054, 58.39895
208.6876, 58.98957
209.1697, 59.37205
209.6518, 59.68336
210.1339, 60.10665
210.6160, 60.64312
211.0981, 61.30157
211.5803, 62.17390
212.0624, 63.25953
212.5445, 64.20154
213.0266, 64.57251
213.5087, 64.93056
213.9908, 65.84785
214.4730, 67.46069
214.9551, 69.31297
215.4372, 70.95942
215.9193, 72.41331
216.4014, 73.61851
216.8836, 74.11366
217.3657, 74.60596
217.8478, 75.60210
218.3299, 77.22224
218.8120, 79.20345
219.2941, 81.22864
219.7763, 83.33178
220.2584, 85.35778
220.7405, 87.25753
221.2226, 89.09946
221.7047, 90.93542
222.1868, 92.77819
222.6690, 94.59515
223.1511, 96.43542
223.6332, 98.67654
224.1153, 100.0193
224.5974, 100.2356
225.0795, 99.75423
225.5617, 98.73548
226.0438, 97.26717
226.5259, 95.53974
227.0080, 93.86679
227.4901, 92.26350
227.9722, 90.71174
228.4544, 89.11063
228.9365, 87.61185
229.4186, 86.40232
229.9007, 85.51529
230.3828, 84.77323
230.8649, 83.82626
231.3471, 81.93639
231.8292, 81.12364
232.3113, 82.24760
232.7934, 83.84721
233.2755, 84.78933
233.7576, 84.74272
234.2398, 84.04575
234.7219, 83.23192
235.2040, 82.10304
235.6861, 81.22683
236.1682, 80.62322
236.6503, 80.25068
237.1325, 80.19164
237.6146, 80.44592
238.0967, 80.73485
238.5788, 80.65363
239.0609, 80.13040
239.5430, 79.30933
240.0252, 78.07326
240.5073, 76.60020
240.9894, 74.93264
241.4715, 73.07697
241.9536, 71.39715
242.4357, 70.50082
242.9179, 70.67664
243.4000, 70.34372
243.8821, 69.05118
244.3642, 67.32081
244.8463, 65.58252
245.3284, 63.89571
245.8106, 62.49775
246.2927, 61.75613
246.7748, 61.68571
247.2569, 61.71574
247.7390, 62.02806
248.2211, 62.28518
248.7033, 61.98877
249.1854, 61.01319
249.6675, 59.88275
250.1496, 59.12854
250.6317, 58.69014
251.1138, 58.23242
251.5960, 57.52673
252.0781, 56.83024
252.5602, 56.57323
253.0423, 56.87362
253.5244, 57.16391
254.0065, 56.87861
254.4887, 56.18351
254.9708, 55.49025
255.4529, 54.91425
255.9350, 54.39213
256.4171, 53.80731
256.8992, 53.12290
257.3813, 52.53056
257.8635, 52.17178
258.3456, 51.99889
258.8277, 51.97545
259.3098, 52.14261
259.7919, 52.42456
260.2740, 52.78100
260.7562, 53.27087
261.2383, 53.57837
261.7204, 53.37410
262.2025, 52.91157
262.6846, 52.44950
263.1667, 51.97713
263.6489, 51.63930
264.1310, 51.76283
264.6131, 52.50200
265.0952, 53.02929
265.5773, 52.78428
266.0594, 52.21001
266.5416, 51.64814
267.0237, 51.14258
267.5058, 50.80404
267.9879, 50.83054
268.4700, 51.29436
268.9521, 51.79225
269.4343, 52.52645
269.9164, 53.05917
270.3985, 52.86024
270.8806, 51.74514
271.3627, 50.46654
271.8448, 50.03706
272.3270, 50.63762
272.8091, 51.13287
273.2912, 51.11657
273.7733, 50.99663
274.2554, 51.04072
274.7375, 51.29023
275.2197, 51.55775
275.7018, 51.58626
276.1839, 51.31538
276.6660, 51.19684
277.1481, 51.34767
277.6302, 51.63973
278.1124, 52.10469
278.5945, 52.70487
279.0766, 53.25513
279.5587, 53.45637
280.0408, 53.22472
280.5229, 53.41539
281.0051, 54.86410
281.4872, 56.05555
281.9693, 56.03022
282.4514, 55.07502
282.9335, 54.28203
283.4156, 54.76911
283.8978, 56.57787
284.3799, 57.68099
284.8620, 57.21457
285.3441, 56.87513
285.8262, 57.25201
286.3083, 58.21159
286.7905, 59.41294
287.2726, 60.69172
287.7547, 62.00963
288.2368, 62.92694
288.7189, 62.70037
289.2010, 62.97989
289.6832, 64.41499
290.1653, 66.57452
290.6474, 68.78978
291.1295, 70.64342
291.6116, 72.30116
292.0938, 74.43560
292.5759, 77.26950
293.0580, 80.30676
293.5401, 83.25388
294.0222, 86.39797
294.5043, 89.96236
294.9865, 94.03696
295.4686, 98.74124
295.9507, 104.3577
296.4328, 110.9071
296.9149, 118.4742
297.3970, 127.2456
297.8792, 136.7401
298.3613, 146.5909
298.8434, 156.6899
299.3255, 166.9644
299.8076, 177.5181
300.2897, 189.2808
300.7719, 199.0950
301.2540, 207.6545
301.7361, 214.0169
302.2182, 217.7778
302.7003, 218.7579
303.1824, 216.9043
303.6646, 211.8736
304.1467, 203.0502
304.6288, 193.1926
305.1109, 181.6865
305.5930, 169.6908
306.0751, 157.0378
306.5573, 144.2287
307.0394, 132.4866
307.5215, 123.0216
308.0036, 115.9049
308.4857, 109.3215
308.9678, 102.8110
309.4500, 97.31615
309.9321, 93.41468
310.4142, 90.74162
310.8963, 88.59814
311.3784, 86.53606
311.8605, 84.55538
312.3427, 82.67290
312.8248, 80.23763
313.3069, 78.72899
313.7890, 79.02653
314.2711, 80.19810
314.7532, 81.09084
315.2354, 81.13565
315.7175, 80.53297
316.1996, 79.83595
316.6817, 78.96372
317.1638, 78.11602
317.6459, 77.28120
318.1281, 76.49491
318.6102, 75.78667
319.0923, 75.16679
319.5744, 74.63769
320.0565, 74.13291
320.5386, 73.36086
321.0208, 73.34193
321.5029, 74.38049
321.9850, 75.85303
322.4671, 77.61853
322.9492, 79.52954
323.4313, 81.21616
323.9135, 82.21585
324.3956, 82.35063
324.8777, 82.68951
325.3598, 83.85645
325.8419, 84.65013
326.3240, 84.63148
326.8062, 83.83143
327.2883, 82.47187
327.7704, 80.66686
328.2525, 78.43620
328.7346, 76.07678
329.2167, 73.47336
329.6989, 70.84617
330.1810, 67.90048
330.6631, 65.03661
331.1452, 62.84995
331.6273, 61.67154
332.1094, 61.32428
332.5916, 61.32639
333.0737, 62.03440
333.5558, 62.47665
334.0379, 62.52543
334.5200, 62.26051
335.0021, 61.62422
335.4843, 60.61674
335.9664, 59.58199
336.4485, 59.14754
336.9306, 59.58503
337.4127, 59.80888
337.8948, 59.89436
338.3770, 59.61448
338.8591, 58.60298
339.3412, 56.94676
339.8233, 55.26973
340.3055, 54.22459
340.7876, 53.87948
341.2697, 53.52376
341.7518, 53.34139
342.2339, 52.95188
342.7160, 51.88298
343.1982, 50.46934
343.6803, 49.53321
344.1624, 49.84816
344.6445, 51.05285
345.1266, 51.23376
345.6087, 49.59005
346.0909, 48.21201
346.5730, 47.81780
347.0551, 48.02740
347.5372, 48.45124
348.0193, 48.99821
348.5014, 49.46662
348.9836, 49.41519
349.4657, 48.65478
349.9478, 48.01078
350.4299, 47.74977
350.9120, 47.65449
351.3941, 47.58228
351.8763, 47.50605
352.3584, 47.48886
352.8405, 47.65266
353.3226, 48.00681
353.8047, 48.20289
354.2868, 47.97248
354.7690, 47.81025
355.2511, 48.12459
355.7332, 48.81309
356.2153, 49.41403
356.6974, 49.57184
357.1795, 49.39239
357.6617, 49.27888
358.1438, 49.23582
358.6259, 49.26197
359.1080, 49.38990
359.5901, 49.57511
360.0722, 49.76848
360.5544, 50.03160
361.0365, 50.20322
361.5186, 49.94709
362.0007, 49.18860
362.4828, 48.62138
362.9649, 48.89002
363.4471, 49.27897
363.9292, 48.79641
364.4113, 47.10677
364.8934, 45.61195
365.3755, 45.70046
365.8576, 47.05429
366.3398, 47.83705
366.8219, 47.32194
367.3040, 46.57798
367.7861, 46.84434
368.2682, 48.01600
368.7503, 49.06731
369.2325, 49.53151
369.7146, 49.63721
370.1967, 49.78151
370.6788, 50.01701
371.1609, 50.18623
371.6430, 50.20099
372.1252, 50.04659
372.6073, 49.67793
373.0894, 48.98290
373.5715, 48.15511
374.0536, 47.26220
374.5357, 46.33746
375.0179, 45.57494
375.5000, 45.11953
375.9821, 44.85356
376.4642, 44.49929
376.9463, 44.07214
377.4284, 43.54654
377.9106, 42.62260
378.3927, 41.65750
378.8748, 41.38603
379.3569, 42.05724
379.8390, 43.02531
380.3211, 43.46218
380.8033, 43.26046
381.2854, 43.11873
381.7675, 43.17847
382.2496, 43.24820
382.7317, 43.22237
383.2138, 43.07479
383.6960, 42.73473
384.1781, 42.09660
384.6602, 41.19781
385.1423, 40.56274
385.6244, 40.07327
386.1065, 39.91542
386.5887, 40.54993
387.0708, 41.48737
387.5529, 41.78784
388.0350, 41.00946
388.5171, 39.74083
388.9992, 39.28577
389.4814, 40.48366
389.9635, 41.24385
390.4456, 41.25650
390.9277, 41.04520
391.4098, 41.09294
391.8919, 41.42736
392.3741, 41.66137
392.8562, 41.32453
393.3383, 40.26891
393.8204, 39.78536
394.3025, 40.37431
394.7846, 40.97314
395.2668, 41.22985
395.7489, 41.23177
396.2310, 41.17372
396.7131, 41.15761
397.1952, 41.20420
397.6773, 41.40594
398.1595, 41.96381
398.6416, 42.33847
399.1237, 42.37052
399.6058, 42.27039
400.0879, 42.14136
400.5700, 42.03617
401.0522, 42.08348
401.5343, 42.51216
402.0164, 43.40893
402.4985, 44.15901
402.9806, 44.59512
403.4627, 45.01414
403.9449, 45.50312
404.4270, 46.07578
404.9091, 46.74247
405.3912, 47.52315
405.8733, 48.39718
406.3554, 49.37136
406.8376, 50.65076
407.3197, 51.52466
407.8018, 51.09955
408.2839, 50.41164
408.7660, 50.60084
409.2481, 52.03134
409.7303, 53.83673
410.2124, 55.13038
410.6945, 55.95244
411.1766, 56.97687
411.6587, 58.41395
412.1408, 60.02473
412.6230, 61.45753
413.1051, 62.77058
413.5872, 64.45366
414.0693, 67.22874
414.5514, 70.31161
415.0335, 72.35716
415.5157, 73.23058
415.9978, 73.73134
416.4799, 74.22652
416.9620, 74.75324
417.4441, 75.44498
417.9262, 76.79814
418.4084, 77.66241
418.8905, 77.10552
419.3726, 75.54440
419.8547, 74.00457
420.3368, 72.80408
420.8189, 71.85863
421.3011, 71.02158
421.7832, 70.21897
422.2653, 69.82687
422.7474, 70.19014
423.2295, 70.77702
423.7116, 70.98241
424.1938, 70.85491
424.6759, 71.06086
425.1580, 72.16406
425.6401, 74.11254
426.1222, 75.98537
426.6043, 77.25919
427.0865, 79.06978
427.5686, 82.16747
428.0507, 85.83288
428.5328, 89.09032
429.0149, 91.57029
429.4970, 93.54427
429.9792, 95.50842
430.4613, 97.59172
430.9434, 99.38399
431.4255, 101.1357
431.9076, 102.4495
432.3897, 102.9297
432.8719, 102.7370
433.3540, 102.4141
433.8361, 102.4001
434.3182, 102.6244
434.8003, 102.5587
435.2824, 102.0653
435.7646, 101.4748
436.2467, 100.9253
436.7288, 100.3124
437.2109, 99.75648
437.6930, 99.30833
438.1751, 98.19144
438.6573, 94.97285
439.1394, 89.44359
439.6215, 84.79931
440.1036, 82.17887
440.5857, 79.74617
441.0678, 76.06625
441.5500, 71.47046
442.0321, 67.28440
442.5142, 64.37902
442.9963, 62.21132
443.4784, 59.67240
443.9605, 56.66639
444.4427, 54.04180
444.9248, 52.37838
445.4069, 51.31536
445.8890, 50.16861
446.3711, 48.79766
446.8532, 47.64735
447.3354, 47.23812
447.8175, 47.19884
448.2996, 46.61456
448.7817, 45.21389
449.2638, 43.70342
449.7459, 42.87212
450.2281, 42.77178
450.7102, 42.60468
451.1923, 42.31979
451.6744, 41.98043
452.1565, 41.55633
452.6386, 41.10291
453.1208, 40.77446
453.6029, 40.65362
454.0850, 40.69563
454.5671, 40.78155
455.0492, 41.30016
455.5313, 41.30159
456.0135, 40.25054
456.4956, 39.03178
456.9777, 38.35767
457.4598, 38.30661
457.9419, 38.51091
458.4240, 38.64074
458.9062, 38.69495
459.3883, 38.74572
459.8704, 38.87623
460.3525, 38.90263
460.8346, 38.81148
461.3167, 38.58475
461.7989, 38.13253
462.2810, 37.41276
462.7631, 36.68104
463.2452, 36.34752
463.7273, 36.46512
464.2094, 36.67804
464.6916, 37.16587
465.1737, 37.51820
465.6558, 37.45953
466.1379, 37.05291
466.6200, 36.55054
467.1021, 35.96545
467.5843, 35.42816
468.0664, 35.22675
468.5485, 35.38871
469.0306, 35.69334
469.5127, 36.13060
469.9948, 36.60542
470.4770, 36.98645
470.9591, 37.28450
471.4412, 37.43163
471.9233, 37.37700
472.4054, 37.15314
472.8875, 36.74249
473.3697, 36.12481
473.8518, 35.57951
474.3339, 35.31528
474.8160, 35.36155
475.2981, 35.76438
475.7802, 37.14419
476.2624, 38.21880
476.7445, 38.26228
477.2266, 37.61882
477.7087, 36.86089
478.1908, 36.20402
478.6729, 35.77558
479.1551, 35.85082
479.6372, 36.83799
480.1193, 37.36385
480.6014, 37.28046
481.0835, 36.93808
481.5656, 36.27757
482.0478, 35.51259
482.5299, 35.14299
483.0120, 35.56368
483.4941, 36.49823
483.9762, 36.84801
484.4583, 36.25285
484.9405, 35.80444
485.4226, 35.79803
485.9047, 35.95127
486.3868, 36.07104
486.8689, 36.12556
487.3510, 36.16682
487.8332, 36.24128
488.3153, 36.34029
488.7974, 36.45008
489.2795, 36.62662
489.7616, 36.67222
490.2437, 36.30681
490.7259, 35.76717
491.2080, 35.42682
491.6901, 35.44138
492.1722, 35.49075
492.6543, 35.18849
493.1364, 34.72951
493.6186, 34.78865
494.1007, 35.63966
494.5828, 36.60528
495.0649, 36.89684
495.5470, 36.44002
496.0291, 35.99592
496.5113, 35.50187
496.9934, 35.10524
497.4755, 34.91813
497.9576, 34.89703
498.4397, 34.92145
498.9218, 34.93064
499.4040, 34.97980
499.8861, 35.21491
500.3682, 35.91409
500.8503, 36.27110
501.3324, 36.18304
501.8145, 35.88571
502.2967, 35.37730
502.7788, 34.77350
503.2609, 34.34252
503.7430, 34.30416
504.2251, 34.53955
504.7072, 34.55877
505.1894, 34.20493
505.6715, 33.99672
506.1536, 34.08996
506.6357, 34.36079
507.1178, 34.83465
507.5999, 35.48366
508.0821, 35.95645
508.5642, 35.85107
509.0463, 35.37289
509.5284, 35.14601
510.0105, 35.24897
510.4926, 35.41994
510.9748, 35.58810
511.4569, 35.68227
511.9390, 35.52028
512.4211, 34.87667
512.9032, 34.37465
513.3853, 34.58929
513.8674, 35.07788
514.3495, 34.87252
514.8317, 33.75982
515.3138, 32.79638
515.7959, 33.17445
516.2780, 35.03507
516.7601, 36.10392
517.2422, 35.98528
517.7244, 35.66084
518.2065, 35.27090
518.6886, 34.94469
519.1707, 34.89241
519.6528, 35.17303
520.1349, 35.54348
520.6171, 35.55497
521.0992, 34.99891
521.5813, 34.94018
522.0634, 36.07349
522.5455, 37.02533
523.0276, 37.17250
523.5098, 36.79779
523.9919, 36.46264
524.4740, 36.41766
524.9561, 36.50389
525.4382, 36.42600
525.9203, 36.17707
526.4025, 36.25437
526.8846, 37.06405
527.3667, 37.84231
527.8488, 37.69690
528.3309, 36.78431
528.8130, 36.10740
529.2952, 36.07201
529.7773, 36.30882
530.2594, 36.69738
530.7415, 37.11779
531.2236, 36.97943
531.7057, 35.89600
532.1879, 34.48108
532.6700, 33.92695
533.1521, 34.62759
533.6342, 35.35716
534.1163, 36.04184
534.5984, 36.79308
535.0806, 37.76670
535.5627, 38.87642
536.0448, 39.91498
536.5269, 40.76440
537.0090, 41.39394
537.4911, 41.62133
537.9733, 41.05809
538.4554, 40.96286
538.9375, 41.80923
539.4196, 42.87255
539.9017, 43.72903
540.3839, 44.38808
540.8660, 45.09547
541.3481, 46.12019
541.8302, 47.23930
542.3123, 48.01008
542.7944, 48.44441
543.2766, 48.41150
543.7587, 47.71938
544.2408, 46.62193
544.7229, 45.43783
545.2050, 44.12893
545.6871, 43.05320
546.1693, 42.47312
546.6514, 42.10627
547.1335, 41.75041
547.6156, 41.34458
548.0977, 40.60509
548.5798, 39.24600
549.0620, 37.60929
549.5441, 36.85715
550.0262, 37.73085
550.5083, 38.55395
550.9904, 39.70898
551.4725, 40.51730
551.9547, 40.15691
552.4368, 38.88088
552.9189, 37.76220
553.4010, 37.62633
553.8831, 38.24239
554.3652, 38.71497
554.8474, 39.03657
555.3295, 39.22805
555.8116, 39.22904
556.2937, 39.14367
556.7758, 38.98230
557.2579, 38.76871
557.7401, 38.66486
558.2222, 38.84038
558.7043, 39.15717
559.1864, 39.38453
559.6685, 39.51467
560.1506, 39.58598
560.6328, 39.53489
561.1149, 39.51236
561.5970, 39.93221
562.0791, 40.97499
562.5612, 41.78508
563.0433, 42.04412
563.5255, 42.12862
564.0076, 42.25633
564.4897, 42.49560
564.9718, 42.99071
565.4539, 43.87281
565.9360, 44.95166
566.4182, 45.54509
566.9003, 45.26364
567.3824, 45.23800
567.8645, 45.54018
568.3466, 46.09336
568.8287, 46.86828
569.3109, 47.85602
569.7930, 49.05655
570.2751, 50.59083
570.7572, 52.22335
571.2393, 53.28276
571.7214, 53.67823
572.2036, 54.59404
572.6857, 56.70337
573.1678, 59.15458
573.6499, 60.74394
574.1320, 61.49121
574.6141, 62.90503
575.0963, 65.87553
575.5784, 69.29024
576.0605, 72.34599
576.5426, 75.01758
577.0247, 77.27869
577.5068, 79.04289
577.9890, 80.80981
578.4711, 83.56963
578.9532, 87.87284
579.4353, 91.78578
579.9174, 94.92716
580.3995, 98.11461
580.8817, 101.9446
581.3638, 106.0677
581.8459, 109.7640
582.3280, 112.6875
582.8101, 115.1405
583.2922, 117.9492
583.7744, 121.2408
584.2565, 122.7652
584.7386, 121.3529
585.2207, 119.3470
585.7029, 118.4478
586.1850, 118.2644
586.6671, 117.8201
587.1492, 116.9034
587.6313, 115.6255
588.1135, 113.9532
588.5956, 111.9918
589.0777, 109.9435
589.5598, 107.8587
590.0419, 105.7970
590.5240, 103.7492
591.0062, 101.6905
591.4883, 100.4234
591.9704, 100.5305
592.4525, 100.6206
592.9346, 100.0775
593.4167, 99.47762
593.8989, 99.43684
594.3810, 100.1132
594.8631, 101.3371
595.3452, 102.9977
595.8273, 105.0749
596.3094, 107.2933
596.7916, 109.4548
597.2737, 112.2296
597.7558, 116.3175
598.2379, 120.9986
598.7200, 125.5204
599.2021, 129.7648
599.6843, 134.2319
600.1664, 139.2733
600.6485, 144.6626
601.1306, 150.2837
601.6127, 156.0354
602.0948, 161.3810
602.5770, 165.9318
603.0591, 169.9944
603.5412, 174.4567
604.0233, 180.5865
604.5054, 184.9346
604.9875, 186.7545
605.4697, 187.4955
605.9518, 188.0747
606.4339, 188.3605
606.9160, 187.8418
607.3981, 186.2871
