##NAMES=Forsterite
##RRUFFID=R100140
##IDEAL CHEMISTRY=Mg_2_SiO_4_
##LOCALITY=Pakistan
##OWNER=RRUFF
##SOURCE=William W. Pinch
##DESCRIPTION=Pale green cut gemstone
##STATUS=The identification of this mineral has been confirmed by single-crystal X-ray diffraction.
##URL=rruff.info/R100140
90.60547, 209.4706
91.08759, 216.9514
91.56970, 222.6673
92.05182, 221.6211
92.53394, 217.1280
93.01605, 211.3117
93.49817, 205.4855
93.98029, 199.8175
94.46240, 193.4800
94.94452, 185.4118
95.42664, 177.6929
95.90874, 171.5396
96.39086, 166.9377
96.87298, 163.2515
97.35509, 159.7302
97.83721, 156.0834
98.31933, 152.8236
98.80145, 150.7792
99.28356, 148.5597
99.76568, 144.9784
100.2478, 139.6824
100.7299, 133.5126
101.2120, 128.5877
101.6941, 125.3318
102.1763, 122.9221
102.6584, 121.6082
103.1405, 121.0206
103.6226, 120.7683
104.1047, 120.6838
104.5868, 120.6857
105.0690, 120.2247
105.5511, 119.3420
106.0332, 118.0809
106.5153, 116.5013
106.9974, 114.5862
107.4795, 112.1712
107.9617, 108.9202
108.4438, 105.0203
108.9259, 101.2362
109.4080, 97.41890
109.8901, 93.83125
110.3722, 90.83803
110.8544, 88.51591
111.3365, 86.68973
111.8186, 85.28771
112.3007, 84.23064
112.7828, 83.40946
113.2649, 82.81885
113.7471, 82.44356
114.2292, 82.12682
114.7113, 81.95841
115.1934, 81.76199
115.6755, 81.40195
116.1576, 80.92589
116.6397, 80.50567
117.1219, 80.39075
117.6040, 80.82896
118.0861, 80.77969
118.5682, 79.78895
119.0503, 78.73323
119.5324, 78.16602
120.0146, 78.18793
120.4967, 78.48180
120.9788, 78.51835
121.4609, 77.95715
121.9430, 77.64101
122.4251, 77.91003
122.9073, 78.31322
123.3894, 78.25661
123.8715, 77.46675
124.3536, 76.26810
124.8357, 75.52489
125.3178, 75.41507
125.8000, 75.24667
126.2821, 74.51250
126.7642, 73.42656
127.2463, 72.88363
127.7284, 73.67844
128.2105, 74.99625
128.6927, 75.35452
129.1748, 74.39235
129.6569, 72.98318
130.1390, 71.91129
130.6211, 71.21351
131.1032, 70.63808
131.5854, 69.93155
132.0675, 69.33613
132.5496, 69.22057
133.0317, 69.90977
133.5138, 70.89750
133.9959, 70.88262
134.4781, 69.05340
134.9602, 67.48293
135.4423, 66.66829
135.9244, 66.43586
136.4065, 66.60806
136.8886, 67.13097
137.3708, 67.96332
137.8529, 68.48486
138.3350, 68.33150
138.8171, 68.21130
139.2992, 68.49952
139.7813, 68.97991
140.2635, 69.11555
140.7456, 68.38210
141.2277, 66.61028
141.7098, 65.51498
142.1919, 65.63697
142.6740, 65.83886
143.1561, 65.41698
143.6383, 64.36523
144.1204, 63.24161
144.6025, 62.56856
145.0846, 62.41500
145.5667, 62.63498
146.0488, 63.94849
146.5310, 65.30904
147.0131, 65.40090
147.4952, 63.83674
147.9773, 61.82300
148.4594, 60.60771
148.9415, 60.06272
149.4237, 59.98088
149.9058, 60.66253
150.3879, 61.78511
150.8700, 62.44516
151.3521, 62.44438
151.8342, 61.96478
152.3164, 61.09888
152.7985, 59.90238
153.2806, 58.77035
153.7627, 57.93181
154.2448, 57.38239
154.7269, 57.20851
155.2091, 57.89417
155.6912, 58.62487
156.1733, 59.01191
156.6554, 59.01805
157.1375, 58.80904
157.6196, 58.53498
158.1018, 58.11791
158.5839, 57.87489
159.0660, 57.95247
159.5481, 58.09565
160.0302, 58.17524
160.5123, 58.14901
160.9945, 58.02747
161.4766, 57.81725
161.9587, 57.35176
162.4408, 57.05298
162.9229, 57.13580
163.4050, 57.27333
163.8871, 57.12677
164.3693, 56.57272
164.8514, 55.79308
165.3335, 55.22545
165.8156, 54.95814
166.2977, 54.78223
166.7798, 54.76650
167.2620, 54.81398
167.7441, 54.74535
168.2262, 54.45353
168.7083, 54.06812
169.1904, 53.98944
169.6725, 54.41092
170.1547, 54.72581
170.6368, 54.50378
171.1189, 53.92980
171.6010, 53.65917
172.0831, 54.07330
172.5652, 54.92461
173.0474, 55.69910
173.5295, 56.53268
174.0116, 57.03593
174.4937, 56.66678
174.9758, 55.42736
175.4579, 54.44648
175.9401, 54.44505
176.4222, 54.85666
176.9043, 55.07358
177.3864, 54.94753
177.8685, 54.70263
178.3506, 54.60871
178.8328, 54.68394
179.3149, 54.85307
179.7970, 55.25653
180.2791, 55.66387
180.7612, 55.85138
181.2433, 55.72414
181.7255, 55.39877
182.2076, 55.13588
182.6897, 55.03888
183.1718, 54.80219
183.6539, 54.02883
184.1360, 53.23469
184.6181, 53.04237
185.1003, 53.78305
185.5824, 55.13569
186.0645, 55.95196
186.5466, 55.78181
187.0287, 55.56988
187.5108, 55.50948
187.9930, 55.46468
188.4751, 55.17250
188.9572, 54.46171
189.4393, 53.48694
189.9214, 53.14165
190.4035, 54.42171
190.8857, 55.22637
191.3678, 54.57904
191.8499, 53.23212
192.3320, 52.64154
192.8141, 53.81873
193.2962, 56.39107
193.7784, 57.40642
194.2605, 55.67153
194.7426, 54.05590
195.2247, 53.79477
195.7068, 54.49313
196.1889, 54.87753
196.6711, 54.02223
197.1532, 52.29109
197.6353, 51.55856
198.1174, 52.55668
198.5995, 53.76467
199.0816, 54.44907
199.5638, 54.64008
200.0459, 54.51877
200.5280, 54.00089
201.0101, 53.30127
201.4922, 53.02369
201.9743, 53.39890
202.4565, 53.98860
202.9386, 54.46698
203.4207, 54.83425
203.9028, 55.13271
204.3849, 55.36168
204.8670, 55.53793
205.3492, 55.66750
205.8313, 55.69897
206.3134, 55.75261
206.7955, 55.93900
207.2776, 56.23714
207.7597, 56.77059
208.2419, 57.88200
208.7240, 59.15440
209.2061, 60.15332
209.6882, 60.68232
210.1703, 61.00006
210.6524, 61.57898
211.1346, 62.54653
211.6167, 63.43621
212.0988, 63.81197
212.5809, 64.16129
213.0630, 65.00108
213.5451, 66.56226
214.0273, 68.59035
214.5094, 70.50839
214.9915, 72.20040
215.4736, 73.99979
215.9557, 76.03269
216.4378, 78.16044
216.9200, 80.20178
217.4021, 82.05463
217.8842, 83.90408
218.3663, 86.25452
218.8484, 89.40791
219.3305, 92.67995
219.8127, 96.04298
220.2948, 99.45753
220.7769, 103.0045
221.2590, 106.7218
221.7411, 110.3865
222.2232, 113.3408
222.7054, 115.3087
223.1875, 116.7716
223.6696, 118.0124
224.1517, 118.6886
224.6338, 118.3587
225.1159, 116.8264
225.5980, 114.2977
226.0802, 111.3374
226.5623, 107.4870
227.0444, 103.7466
227.5265, 100.2449
228.0086, 96.87550
228.4907, 93.49270
228.9729, 90.02128
229.4550, 86.61521
229.9371, 83.73904
230.4192, 81.39948
230.9013, 79.51622
231.3834, 78.42883
231.8656, 77.72493
232.3477, 76.74417
232.8298, 75.19783
233.3119, 73.41650
233.7940, 72.14274
234.2761, 71.49395
234.7583, 70.91727
235.2404, 70.23645
235.7225, 69.54593
236.2046, 69.07973
236.6867, 68.99306
237.1688, 68.94997
237.6510, 68.23148
238.1331, 66.72868
238.6152, 65.41551
239.0973, 64.85825
239.5794, 64.70568
240.0615, 64.15324
240.5437, 62.86196
241.0258, 61.36360
241.5079, 60.37039
241.9900, 59.85749
242.4721, 59.44088
242.9542, 59.07146
243.4364, 58.68335
243.9185, 58.11006
244.4006, 57.32074
244.8827, 56.32475
245.3648, 54.91742
245.8469, 53.18253
246.3290, 51.89308
246.8112, 51.78891
247.2933, 52.45713
247.7754, 52.58362
248.2575, 51.78434
248.7396, 50.78353
249.2217, 50.10994
249.7039, 49.70615
250.1860, 49.40523
250.6681, 49.10208
251.1502, 48.82813
251.6323, 48.75554
252.1144, 49.13079
252.5966, 49.29888
253.0787, 48.73888
253.5608, 47.70741
254.0429, 46.77100
254.5250, 46.27678
255.0071, 46.13157
255.4893, 45.94691
255.9714, 45.57570
256.4535, 45.42634
256.9356, 45.86821
257.4177, 46.58862
257.8998, 47.07281
258.3820, 46.99705
258.8641, 46.50041
259.3462, 46.02930
259.8283, 45.42131
260.3104, 45.14276
260.7925, 45.65516
261.2747, 46.44140
261.7568, 46.77020
262.2389, 46.20434
262.7210, 45.09853
263.2031, 44.48839
263.6852, 44.60802
264.1674, 44.86537
264.6495, 45.17043
265.1316, 45.49276
265.6137, 45.84633
266.0958, 46.24884
266.5779, 46.58324
267.0601, 46.53577
267.5422, 45.85191
268.0243, 45.22713
268.5064, 44.67509
268.9885, 44.26090
269.4706, 44.00113
269.9528, 43.90770
270.4349, 44.06789
270.9170, 44.76320
271.3991, 46.64471
271.8812, 47.73034
272.3633, 47.61632
272.8455, 46.97805
273.3276, 46.16844
273.8097, 45.33570
274.2918, 44.63069
274.7739, 44.32708
275.2560, 44.71900
275.7382, 44.89054
276.2202, 44.59967
276.7024, 44.31465
277.1845, 44.34879
277.6666, 44.73199
278.1487, 45.27488
278.6308, 45.77326
279.1129, 46.26546
279.5951, 46.55973
280.0772, 46.47072
280.5593, 46.38016
281.0414, 46.51697
281.5235, 46.86163
282.0056, 47.22558
282.4878, 47.40749
282.9699, 47.35195
283.4520, 47.53776
283.9341, 48.25972
284.4162, 48.90403
284.8983, 49.20302
285.3805, 49.20781
285.8626, 49.10302
286.3447, 49.01858
286.8268, 48.95540
287.3089, 48.94865
287.7910, 48.91918
288.2732, 49.02284
288.7553, 49.39624
289.2374, 49.93230
289.7195, 50.44616
290.2016, 50.83350
290.6837, 51.09423
291.1659, 51.22466
291.6480, 50.89153
292.1301, 50.81637
292.6122, 51.06544
293.0943, 51.65697
293.5764, 52.63354
294.0586, 54.02445
294.5407, 55.75069
295.0228, 57.60815
295.5049, 59.75835
295.9870, 61.85058
296.4691, 63.45002
296.9513, 65.16808
297.4334, 67.72051
297.9155, 71.31601
298.3976, 75.58144
298.8797, 79.91100
299.3618, 84.41537
299.8440, 88.76904
300.3261, 93.37074
300.8082, 97.55099
301.2903, 100.9681
301.7724, 103.4744
302.2545, 104.8987
302.7367, 105.0124
303.2188, 103.5851
303.7009, 101.3497
304.1830, 97.92197
304.6651, 94.07730
305.1472, 90.25541
305.6294, 86.48267
306.1115, 82.48150
306.5936, 77.85350
307.0757, 72.48878
307.5578, 68.86325
308.0399, 67.94984
308.5221, 67.45793
309.0042, 66.34938
309.4863, 64.83482
309.9684, 63.64278
310.4505, 63.24214
310.9326, 63.55835
311.4148, 64.12173
311.8969, 64.79622
312.3790, 65.82710
312.8611, 67.68804
313.3432, 69.87039
313.8253, 71.58324
314.3075, 72.45560
314.7896, 72.69032
315.2717, 72.80112
315.7538, 73.32414
316.2359, 72.93115
316.7180, 71.11121
317.2001, 68.49952
317.6823, 65.57071
318.1644, 62.48315
318.6465, 59.60266
319.1286, 57.51284
319.6107, 56.73624
320.0928, 55.56293
320.5750, 53.24430
321.0571, 51.04662
321.5392, 50.24519
322.0213, 50.82112
322.5034, 51.42750
322.9855, 50.59376
323.4677, 47.95247
323.9498, 46.64943
324.4319, 47.61328
324.9140, 48.82721
325.3961, 49.48095
325.8782, 49.53498
326.3604, 49.13959
326.8425, 48.34145
327.3246, 47.19341
327.8067, 46.28208
328.2888, 45.57780
328.7709, 45.10190
329.2531, 44.94463
329.7352, 45.00890
330.2173, 45.22711
330.6994, 45.58784
331.1815, 45.91627
331.6636, 45.73114
332.1458, 44.09322
332.6279, 43.10560
333.1100, 43.38785
333.5921, 44.07656
334.0742, 44.23032
334.5563, 43.61524
335.0385, 42.82085
335.5206, 42.75728
336.0027, 43.96696
336.4848, 44.49340
336.9669, 43.74537
337.4490, 42.85938
337.9312, 42.65184
338.4133, 43.09894
338.8954, 43.58632
339.3775, 43.51104
339.8596, 42.79854
340.3417, 42.46241
340.8239, 42.89328
341.3060, 43.24242
341.7881, 43.23360
342.2702, 42.91175
342.7523, 42.33717
343.2344, 41.50702
343.7166, 40.56498
344.1987, 40.22393
344.6808, 41.27547
345.1629, 42.05818
345.6450, 42.33356
346.1271, 42.29976
346.6093, 42.15177
347.0914, 41.96912
347.5735, 41.75928
348.0556, 41.50299
348.5377, 40.90114
349.0198, 40.83732
349.5020, 41.83100
349.9841, 42.90008
350.4662, 43.30178
350.9483, 43.00730
351.4304, 42.53988
351.9125, 42.46495
352.3947, 42.84751
352.8768, 43.19051
353.3589, 43.24009
353.8410, 43.49962
354.3231, 44.45702
354.8052, 45.76031
355.2874, 46.64276
355.7695, 46.51216
356.2516, 45.60069
356.7337, 45.23970
357.2158, 45.77488
357.6979, 46.44063
358.1800, 47.27916
358.6621, 48.08990
359.1443, 48.60656
359.6264, 48.73187
360.1085, 48.69478
360.5906, 48.90005
361.0727, 49.39186
361.5548, 50.02510
362.0370, 50.96671
362.5191, 51.89677
363.0012, 52.43987
363.4833, 52.66604
363.9654, 53.12389
364.4475, 54.42882
364.9297, 56.62788
365.4118, 58.86604
365.8939, 60.80504
366.3760, 63.19541
366.8581, 66.34007
367.3402, 70.12890
367.8224, 74.39952
368.3045, 79.24543
368.7866, 84.31876
369.2687, 88.64624
369.7508, 92.23882
370.2329, 94.97205
370.7151, 96.98885
371.1972, 98.13595
371.6793, 98.27813
372.1614, 97.38864
372.6435, 95.33016
373.1256, 91.62736
373.6078, 86.17744
374.0899, 80.64320
374.5720, 74.74801
375.0541, 69.47747
375.5362, 65.75193
376.0183, 63.44494
376.5005, 61.38849
376.9826, 58.65444
377.4647, 55.52308
377.9468, 53.05972
378.4289, 51.50423
378.9110, 50.23488
379.3932, 48.62748
379.8753, 47.00261
380.3574, 46.08112
380.8395, 46.52545
381.3216, 47.36641
381.8037, 47.44209
382.2859, 46.74358
382.7680, 45.73705
383.2501, 44.32027
383.7322, 42.92048
384.2143, 42.20710
384.6964, 42.35905
385.1786, 42.62133
385.6607, 42.54356
386.1428, 42.24812
386.6249, 42.13774
387.1070, 42.41228
387.5891, 42.58518
388.0713, 41.80045
388.5534, 40.16461
389.0355, 39.09855
389.5176, 39.46758
389.9997, 40.17645
390.4818, 39.94318
390.9640, 38.76748
391.4461, 37.84658
391.9282, 38.11323
392.4103, 39.30901
392.8924, 39.93758
393.3745, 39.37360
393.8567, 38.97742
394.3388, 39.58633
394.8209, 40.70441
395.3030, 41.27544
395.7851, 40.86302
396.2672, 40.04570
396.7494, 39.88293
397.2315, 40.82317
397.7136, 41.34739
398.1957, 40.80284
398.6778, 40.21595
399.1599, 40.56118
399.6420, 41.84591
400.1241, 43.30620
400.6063, 44.25028
401.0884, 44.65946
401.5705, 45.31787
402.0526, 46.10008
402.5347, 47.22550
403.0168, 48.92670
403.4990, 50.98616
403.9811, 53.02781
404.4632, 54.86081
404.9453, 56.64880
405.4274, 58.83215
405.9095, 61.98911
406.3917, 64.51871
406.8738, 66.40065
407.3559, 67.69152
407.8380, 68.60938
408.3201, 69.07053
408.8022, 68.59699
409.2844, 66.44241
409.7665, 62.45782
410.2486, 59.31940
410.7307, 57.87378
411.2128, 56.40599
411.6949, 54.15320
412.1771, 51.59758
412.6592, 49.52431
413.1413, 48.32776
413.6234, 47.79540
414.1055, 47.57827
414.5876, 47.85166
415.0698, 47.90006
415.5519, 47.28394
416.0340, 46.56522
416.5161, 46.10694
416.9982, 45.95327
417.4803, 45.95676
417.9625, 45.90021
418.4446, 45.84689
418.9267, 46.31493
419.4088, 47.63200
419.8909, 48.94028
420.3730, 49.68182
420.8552, 50.01565
421.3373, 50.18419
421.8194, 49.95639
422.3015, 49.91957
422.7836, 50.99169
423.2657, 53.15548
423.7479, 55.15633
424.2300, 56.36694
424.7121, 57.26499
425.1942, 58.55170
425.6763, 60.20896
426.1584, 62.27628
426.6406, 64.59958
427.1227, 67.39798
427.6048, 71.32854
428.0869, 76.61533
428.5690, 81.85708
429.0511, 85.71010
429.5333, 88.13824
430.0154, 90.71252
430.4975, 94.23479
430.9796, 97.15815
431.4617, 98.65201
431.9438, 98.84521
432.4260, 98.05092
432.9081, 96.36176
433.3902, 93.98868
433.8723, 91.38538
434.3544, 88.01029
434.8365, 85.34235
435.3187, 84.18776
435.8008, 83.25314
436.2829, 81.33785
436.7650, 78.41267
437.2471, 75.39674
437.7292, 73.19402
438.2114, 71.82739
438.6935, 70.02708
439.1756, 67.30734
439.6577, 64.68260
440.1398, 62.36787
440.6219, 60.29404
441.1040, 58.38563
441.5862, 56.61726
442.0683, 54.95162
442.5504, 53.35558
443.0325, 51.85908
443.5146, 50.32610
443.9967, 48.53708
444.4789, 46.88819
444.9610, 45.66152
445.4431, 44.79844
445.9252, 43.99586
446.4073, 42.98327
446.8894, 41.87713
447.3716, 41.19069
447.8537, 41.12119
448.3358, 40.97937
448.8179, 40.18045
449.3000, 39.26856
449.7821, 38.89695
450.2643, 39.28025
450.7464, 39.82059
451.2285, 40.16467
451.7106, 40.27207
452.1927, 39.79198
452.6748, 38.37066
453.1570, 36.94057
453.6391, 36.57337
454.1212, 37.05835
454.6033, 37.57399
455.0854, 38.13052
455.5675, 38.49120
456.0497, 38.30844
456.5318, 37.66940
457.0139, 37.11544
457.4960, 36.95222
457.9781, 37.01169
458.4602, 36.77942
458.9424, 35.85646
459.4245, 35.50121
459.9066, 36.75593
460.3887, 38.22437
460.8708, 38.22251
461.3529, 36.63970
461.8351, 34.85566
462.3172, 34.17547
462.7993, 34.64386
463.2814, 34.96022
463.7635, 35.02959
464.2456, 35.06767
464.7278, 35.01461
465.2099, 35.00108
465.6920, 35.24568
466.1741, 35.82587
466.6562, 36.52769
467.1383, 37.02144
467.6205, 37.33011
468.1026, 37.36359
468.5847, 36.84477
469.0668, 36.29325
469.5489, 35.82438
470.0310, 35.51163
470.5132, 35.53311
470.9953, 36.18104
471.4774, 37.06093
471.9595, 37.00117
472.4416, 35.67124
472.9237, 34.63764
473.4059, 34.79426
473.8880, 35.30113
474.3701, 35.33207
474.8522, 34.77782
475.3343, 34.34837
475.8164, 34.60540
476.2986, 35.31895
476.7807, 36.05208
477.2628, 36.83840
477.7449, 37.15543
478.2270, 36.19887
478.7091, 34.40079
479.1913, 33.58955
479.6734, 34.50648
480.1555, 35.70314
480.6376, 36.73953
481.1197, 37.48455
481.6018, 37.51720
482.0839, 36.66019
482.5660, 35.54735
483.0482, 35.06451
483.5303, 35.41895
484.0124, 35.72348
484.4945, 36.04543
484.9766, 36.25804
485.4587, 36.24493
485.9409, 36.06731
486.4230, 35.88248
486.9051, 35.78173
487.3872, 35.52220
487.8693, 35.50029
488.3514, 35.02438
488.8336, 34.64508
489.3157, 34.34739
489.7978, 34.17016
490.2799, 34.14654
490.7620, 34.27250
491.2441, 34.52396
491.7263, 34.91402
492.2084, 35.41145
492.6905, 35.89093
493.1726, 36.41309
493.6547, 36.76821
494.1368, 36.89808
494.6190, 36.80049
495.1011, 36.35042
495.5832, 35.47037
496.0653, 34.68907
496.5474, 34.60010
497.0295, 34.93784
497.5117, 34.76271
497.9938, 33.77869
498.4759, 32.95963
498.9580, 33.29697
499.4401, 34.54948
499.9222, 35.34608
500.4044, 35.37408
500.8865, 35.17041
501.3686, 34.87136
501.8507, 34.55944
502.3328, 34.39611
502.8149, 34.43774
503.2971, 34.63354
503.7792, 34.92929
504.2613, 35.38336
504.7434, 35.73139
505.2255, 36.14067
505.7076, 36.29485
506.1898, 35.90525
506.6719, 35.15977
507.1540, 34.37038
507.6361, 33.68390
508.1182, 33.21654
508.6003, 33.34607
509.0825, 34.46953
509.5646, 35.12263
510.0467, 34.60457
510.5288, 34.05945
511.0109, 34.26477
511.4930, 35.04326
511.9752, 35.58638
512.4573, 35.21743
512.9394, 34.38623
513.4215, 34.22839
513.9036, 34.87859
514.3857, 35.33541
514.8679, 35.07893
515.3500, 34.53267
515.8321, 34.25460
516.3142, 34.28100
516.7963, 34.34031
517.2784, 34.26916
517.7606, 34.18392
518.2427, 34.31829
518.7248, 34.67372
519.2069, 34.90053
519.6890, 34.70607
520.1711, 34.21588
520.6533, 34.07185
521.1354, 34.82322
521.6175, 35.13711
522.0996, 34.09484
522.5817, 32.91440
523.0638, 33.08551
523.5460, 34.67782
524.0281, 36.41942
524.5102, 37.09228
524.9923, 36.72289
525.4744, 36.21025
525.9565, 35.38716
526.4387, 34.64351
526.9208, 33.94419
527.4029, 33.41389
527.8850, 33.21506
528.3671, 33.37914
528.8492, 33.72783
529.3314, 34.19268
529.8135, 34.73583
530.2956, 34.94323
530.7777, 34.64873
531.2598, 34.31384
531.7419, 34.16935
532.2241, 34.18668
532.7062, 34.38720
533.1883, 34.94672
533.6704, 35.33870
534.1525, 34.95584
534.6346, 34.16112
535.1168, 33.86995
535.5989, 34.31798
536.0810, 34.96602
536.5631, 35.25837
537.0452, 35.17441
537.5273, 35.30984
538.0095, 35.89880
538.4916, 36.42545
538.9737, 36.70277
539.4558, 36.79842
539.9379, 36.71077
540.4200, 36.47321
540.9022, 36.40065
541.3843, 37.02613
541.8664, 38.55584
542.3485, 39.62383
542.8306, 40.26313
543.3127, 40.34659
543.7948, 39.26671
544.2769, 37.76947
544.7590, 37.03500
545.2411, 37.55310
545.7233, 38.49281
546.2054, 38.85381
546.6875, 38.67124
547.1696, 38.42637
547.6517, 38.14270
548.1339, 37.90256
548.6160, 37.84693
549.0981, 37.89936
549.5802, 37.83214
550.0623, 37.48642
550.5444, 37.13478
551.0266, 36.88691
551.5087, 36.76995
551.9908, 36.91719
552.4729, 37.38155
552.9550, 37.86028
553.4371, 37.94005
553.9193, 37.50484
554.4014, 37.38661
554.8835, 38.06340
555.3656, 38.48344
555.8477, 37.86375
556.3298, 36.87759
556.8120, 36.63324
557.2941, 37.50982
557.7762, 38.77074
558.2583, 39.24803
558.7404, 38.76884
559.2225, 38.99099
559.7047, 40.71000
560.1868, 42.13545
560.6689, 42.22798
561.1510, 41.55425
561.6331, 41.06374
562.1152, 41.05165
562.5974, 41.25742
563.0795, 41.50928
563.5616, 41.78810
564.0437, 42.01541
564.5258, 42.16758
565.0079, 42.29470
565.4901, 42.33898
565.9722, 42.35012
566.4543, 42.88084
566.9364, 44.35802
567.4185, 45.86060
567.9006, 47.01035
568.3828, 47.98230
568.8649, 49.14352
569.3470, 50.54077
569.8291, 51.74335
570.3112, 52.12753
570.7933, 51.60884
571.2755, 51.84126
571.7576, 53.45803
572.2397, 55.06354
572.7218, 56.02917
573.2039, 56.95653
573.6860, 58.52623
574.1682, 60.91207
574.6503, 63.78392
575.1324, 67.16053
575.6145, 70.82468
576.0966, 73.67274
576.5787, 75.42262
577.0609, 77.17852
577.5430, 79.45869
578.0251, 82.25987
578.5072, 85.50202
578.9893, 89.36350
579.4714, 93.25979
579.9536, 97.01760
580.4357, 100.6593
580.9178, 104.1335
581.3999, 107.4786
581.8820, 111.0259
582.3641, 115.0473
582.8463, 119.4675
583.3284, 123.8887
583.8105, 128.5041
584.2926, 132.8499
584.7747, 136.8485
585.2568, 140.6339
585.7390, 144.2148
586.2211, 147.6642
586.7032, 151.2251
587.1853, 155.2542
587.6674, 159.3887
588.1495, 162.6100
588.6317, 164.8819
589.1138, 166.5313
589.5959, 168.0258
590.0780, 168.5361
