##NAMES=Forsterite
##RRUFFID=R040018
##IDEAL CHEMISTRY=Mg_2_SiO_4_
##LOCALITY=Trudy's mine, San Carlos, Gila County, Arizona, USA
##OWNER=RRUFF
##SOURCE=Bob Downs
##DESCRIPTION=Green fragments from xenoliths in a basalt flow
##STATUS=The identification of this mineral has been confirmed by X-ray diffraction and chemical analysis
##URL=rruff.info/R040018
##MEASURED CHEMISTRY=(Mg_1.81_Fe_0.18_Ni_0.01_)_Î£=2_Si_1.00_O_4_; trace amounts of Mn and Ca
112.8305, 115.0319
113.3126, 115.4137
113.7947, 115.9155
114.2769, 116.1978
114.7590, 116.1231
115.2411, 115.9815
115.7232, 115.9249
116.2053, 115.9163
116.6874, 115.7659
117.1696, 115.2285
117.6517, 114.1244
118.1338, 113.4880
118.6159, 113.5535
119.0980, 113.9162
119.5801, 114.2672
120.0623, 114.5394
120.5444, 114.7897
121.0265, 115.2120
121.5086, 115.8585
121.9907, 116.0693
122.4728, 115.2498
122.9550, 113.8236
123.4371, 112.9174
123.9192, 113.0713
124.4013, 113.5404
124.8834, 113.3841
125.3655, 112.5640
125.8476, 111.8001
126.3298, 111.7423
126.8119, 112.4483
127.2940, 113.1437
127.7761, 113.7021
128.2582, 114.1346
128.7404, 114.4394
129.2225, 114.6159
129.7046, 114.6589
130.1867, 114.5481
130.6688, 114.2188
131.1509, 113.8404
131.6331, 113.4826
132.1152, 113.0805
132.5973, 112.4625
133.0794, 111.5375
133.5615, 110.5001
134.0436, 110.1905
134.5258, 111.4590
135.0079, 112.5884
135.4900, 113.4258
135.9721, 113.9681
136.4542, 114.2218
136.9363, 114.1607
137.4185, 113.8078
137.9006, 113.5703
138.3827, 113.3976
138.8648, 113.3512
139.3469, 113.7292
139.8290, 114.4093
140.3112, 114.6554
140.7933, 113.6517
141.2754, 111.5565
141.7575, 110.0849
142.2396, 109.3555
142.7217, 109.2829
143.2039, 110.0976
143.6860, 112.0527
144.1681, 113.7980
144.6502, 113.8245
145.1323, 112.7502
145.6144, 111.8490
146.0966, 111.8951
146.5787, 112.5399
147.0608, 112.6158
147.5429, 111.6314
148.0250, 110.6776
148.5071, 110.3190
148.9893, 110.4762
149.4714, 110.9041
149.9535, 111.5365
150.4356, 112.4068
150.9177, 113.0319
151.3998, 113.3518
151.8820, 113.4392
152.3641, 113.1416
152.8462, 112.5502
153.3283, 111.9928
153.8104, 111.9076
154.2925, 112.6198
154.7747, 112.8834
155.2568, 112.6117
155.7389, 112.0659
156.2210, 111.2872
156.7031, 110.3367
157.1852, 109.3830
157.6673, 108.6797
158.1495, 108.2183
158.6316, 108.1202
159.1137, 108.7809
159.5958, 109.6201
160.0779, 109.9583
160.5600, 109.5469
161.0422, 108.8390
161.5243, 108.8744
162.0064, 110.1912
162.4885, 110.9211
162.9706, 110.0847
163.4527, 108.4047
163.9349, 107.4229
164.4170, 107.9795
164.8991, 109.1360
165.3812, 108.9857
165.8633, 107.0778
166.3454, 105.3619
166.8276, 105.0873
167.3097, 106.0922
167.7918, 107.1650
168.2739, 108.0050
168.7560, 108.5574
169.2381, 108.7656
169.7203, 108.5707
170.2024, 108.1933
170.6845, 107.8845
171.1666, 107.6895
171.6487, 107.3029
172.1308, 106.2397
172.6130, 105.1260
173.0951, 104.4397
173.5772, 104.3329
174.0593, 104.6553
174.5414, 105.2313
175.0235, 106.3183
175.5057, 107.0957
175.9878, 107.4934
176.4699, 107.5251
176.9520, 107.0421
177.4341, 105.9360
177.9162, 104.5662
178.3984, 104.0741
178.8805, 105.4817
179.3626, 106.5142
179.8447, 106.7813
180.3268, 106.5609
180.8089, 106.1474
181.2911, 105.6860
181.7732, 105.2333
182.2553, 105.1228
182.7374, 105.5762
183.2195, 106.1272
183.7016, 106.9412
184.1838, 107.7830
184.6659, 108.2372
185.1480, 108.0240
185.6301, 107.2030
186.1122, 106.3892
186.5943, 105.1149
187.0765, 104.3027
187.5586, 104.6497
188.0407, 105.8535
188.5228, 106.8921
189.0049, 107.0210
189.4870, 106.3911
189.9692, 106.1752
190.4513, 106.6908
190.9334, 107.3289
191.4155, 107.7587
191.8976, 107.9742
192.3797, 108.0041
192.8619, 107.7821
193.3440, 107.3867
193.8261, 107.0587
194.3082, 106.8792
194.7903, 106.7409
195.2724, 106.4684
195.7546, 106.0178
196.2367, 105.7260
196.7188, 106.0782
197.2009, 106.6820
197.6830, 106.9803
198.1651, 106.5626
198.6473, 105.9152
199.1294, 105.9942
199.6115, 107.1622
200.0936, 108.1476
200.5757, 108.1263
201.0578, 107.6459
201.5400, 107.3861
202.0221, 107.7014
202.5042, 108.4152
202.9863, 109.0195
203.4684, 109.4490
203.9505, 109.8598
204.4327, 110.3016
204.9148, 110.7601
205.3969, 111.2036
205.8790, 111.5986
206.3611, 111.9778
206.8432, 112.5235
207.3254, 113.3890
207.8075, 114.2554
208.2896, 115.2180
208.7717, 116.1079
209.2538, 116.5801
209.7359, 116.3208
210.2181, 115.5058
210.7002, 115.7877
211.1823, 119.1333
211.6644, 121.5789
212.1465, 121.7326
212.6286, 120.4873
213.1108, 119.4359
213.5929, 119.6525
214.0750, 121.0387
214.5571, 122.1515
215.0392, 123.0337
215.5213, 123.6435
216.0035, 123.5300
216.4856, 123.1049
216.9677, 123.3608
217.4498, 125.1232
217.9319, 128.1745
218.4140, 129.5704
218.8962, 127.7815
219.3783, 126.2768
219.8604, 126.8841
220.3425, 128.9959
220.8246, 130.5856
221.3067, 130.2158
221.7889, 128.2168
222.2710, 127.1511
222.7531, 127.8809
223.2352, 128.6052
223.7173, 128.3840
224.1994, 127.3378
224.6816, 126.0981
225.1637, 124.9645
225.6458, 123.9573
226.1279, 123.0648
226.6100, 122.1235
227.0921, 121.4484
227.5743, 121.5235
228.0564, 122.2535
228.5385, 122.6038
229.0206, 121.7198
229.5027, 120.1929
229.9848, 119.3755
230.4670, 119.6695
230.9491, 120.2459
231.4312, 120.4020
231.9133, 120.1357
232.3954, 119.8630
232.8775, 119.8818
233.3597, 119.9458
233.8418, 119.7483
234.3239, 119.2335
234.8060, 118.4748
235.2881, 117.2663
235.7702, 115.4833
236.2524, 114.4456
236.7345, 115.7244
237.2166, 117.4586
237.6987, 117.9199
238.1808, 116.6230
238.6629, 114.6239
239.1451, 113.0798
239.6272, 112.0038
240.1093, 111.2988
240.5914, 111.3570
241.0735, 111.5570
241.5556, 111.5147
242.0378, 111.1392
242.5199, 110.4859
243.0020, 109.4411
243.4841, 107.7426
243.9662, 106.6701
244.4483, 106.8540
244.9305, 107.4622
245.4126, 108.1533
245.8947, 108.8084
246.3768, 109.2168
246.8589, 109.0239
247.3410, 108.0271
247.8232, 107.0500
248.3053, 105.6987
248.7874, 104.7086
249.2695, 104.8028
249.7516, 105.9896
250.2337, 107.4335
250.7159, 108.0303
251.1980, 107.5425
251.6801, 106.8054
252.1622, 105.1904
252.6443, 103.8466
253.1264, 103.6561
253.6086, 104.5995
254.0907, 105.8501
254.5728, 106.4052
255.0549, 106.1187
255.5370, 105.5305
256.0191, 104.0327
256.5013, 102.7682
256.9834, 102.5236
257.4655, 103.2532
257.9476, 104.2979
258.4297, 104.9804
258.9118, 105.3088
259.3940, 105.1882
259.8761, 104.0638
260.3582, 103.0612
260.8403, 102.9085
261.3224, 103.5065
261.8045, 104.1813
262.2867, 104.2669
262.7688, 103.6267
263.2509, 103.3283
263.7330, 103.4025
264.2151, 103.7030
264.6972, 104.4096
265.1794, 105.3460
265.6615, 105.9970
266.1436, 105.8833
266.6257, 104.9567
267.1078, 104.3941
267.5899, 104.3849
268.0721, 104.4608
268.5542, 104.3882
269.0363, 104.2223
269.5184, 104.1952
270.0005, 104.5160
270.4826, 105.1352
270.9648, 105.2997
271.4469, 104.4273
271.9290, 103.8078
272.4111, 104.1059
272.8932, 105.0443
273.3753, 105.9434
273.8575, 106.4179
274.3396, 106.5311
274.8217, 106.6018
275.3038, 106.5644
275.7859, 106.5663
276.2680, 106.5596
276.7502, 106.6257
277.2323, 106.9675
277.7144, 107.7172
278.1965, 108.7318
278.6786, 109.5766
279.1607, 110.0726
279.6429, 110.7414
280.1250, 111.9156
280.6071, 113.3384
281.0892, 114.5720
281.5713, 115.4837
282.0534, 116.0817
282.5356, 116.2340
283.0177, 115.7127
283.4998, 115.5793
283.9819, 116.2582
284.4640, 117.4430
284.9461, 118.8115
285.4283, 120.3546
285.9104, 121.6803
286.3925, 122.0309
286.8746, 121.3175
287.3567, 120.8579
287.8388, 120.9079
288.3210, 121.3598
288.8031, 122.1584
289.2852, 123.3277
289.7673, 124.5859
290.2494, 125.5443
290.7315, 126.2356
291.2137, 127.2611
291.6958, 129.0308
292.1779, 131.0152
292.6600, 132.5634
293.1421, 133.5998
293.6242, 134.6449
294.1064, 136.0523
294.5885, 137.8346
295.0706, 139.9191
295.5527, 142.8595
296.0348, 145.7137
296.5169, 147.3284
296.9991, 147.7474
297.4812, 148.6274
297.9633, 151.5294
298.4454, 155.5304
298.9275, 157.7845
299.4096, 157.0645
299.8918, 155.8537
300.3739, 156.1058
300.8560, 157.5782
301.3381, 158.6051
301.8202, 158.5719
302.3023, 157.4515
302.7845, 155.3062
303.2666, 151.6483
303.7487, 148.1868
304.2308, 146.3613
304.7129, 145.6443
305.1950, 144.0152
305.6772, 140.4546
306.1593, 136.2274
306.6414, 133.1103
307.1235, 131.0980
307.6056, 129.5727
308.0877, 128.5257
308.5699, 127.7532
309.0520, 126.6918
309.5341, 125.0816
310.0162, 123.5261
310.4983, 122.7938
310.9804, 122.7566
311.4626, 122.8595
311.9447, 122.9721
312.4268, 123.1025
312.9089, 123.2845
313.3910, 123.5372
313.8731, 123.7605
314.3553, 123.8582
314.8374, 123.8555
315.3195, 123.8253
315.8016, 123.9875
316.2837, 124.0062
316.7658, 123.4280
317.2480, 122.2312
317.7301, 120.8939
318.2122, 119.3028
318.6943, 117.9135
319.1764, 117.7990
319.6585, 120.0348
320.1407, 122.3087
320.6228, 122.4802
321.1049, 120.8642
321.5870, 119.8299
322.0691, 120.6581
322.5512, 122.4167
323.0334, 123.4345
323.5155, 123.6718
323.9976, 123.3501
324.4797, 122.1569
324.9618, 120.4373
325.4439, 119.2906
325.9261, 119.1122
326.4082, 119.4239
326.8903, 119.8375
327.3724, 120.3955
327.8545, 120.2957
328.3366, 118.6760
328.8188, 116.3762
329.3009, 114.8107
329.7830, 114.2619
330.2651, 114.1143
330.7472, 113.9419
331.2293, 113.7196
331.7115, 113.2480
332.1936, 112.0625
332.6757, 110.8617
333.1578, 110.5766
333.6399, 111.2460
334.1220, 111.7723
334.6042, 111.3567
335.0863, 110.2073
335.5684, 109.2637
336.0505, 108.4408
336.5326, 107.9423
337.0147, 108.1293
337.4969, 108.8389
337.9790, 109.3568
338.4611, 109.4189
338.9432, 109.0188
339.4253, 108.1111
339.9074, 106.4806
340.3896, 104.9765
340.8717, 103.8258
341.3538, 103.0446
341.8359, 102.7163
342.3180, 102.9114
342.8001, 103.3915
343.2823, 103.9352
343.7644, 104.5923
344.2465, 104.9125
344.7286, 104.6926
345.2107, 104.1541
345.6928, 103.4029
346.1750, 102.4591
346.6571, 101.7030
347.1392, 101.5427
347.6213, 102.0094
348.1034, 102.2864
348.5855, 102.3181
349.0677, 102.2082
349.5498, 101.9034
350.0319, 101.4737
350.5140, 101.2239
350.9961, 101.3725
351.4782, 101.8249
351.9604, 102.1243
352.4425, 102.3364
352.9246, 102.3561
353.4067, 101.9974
353.8888, 101.4472
354.3709, 100.9470
354.8531, 100.5512
355.3352, 100.4782
355.8173, 101.2875
356.2994, 103.7980
356.7815, 105.2777
357.2636, 104.9448
357.7458, 103.7829
358.2279, 102.5490
358.7100, 101.4385
359.1921, 100.5453
359.6742, 99.95804
360.1563, 99.67296
360.6385, 99.90640
361.1206, 101.3057
361.6027, 102.5836
362.0848, 102.9314
362.5669, 102.5170
363.0490, 102.0151
363.5312, 101.8816
364.0133, 102.0654
364.4954, 102.1595
364.9775, 102.4004
365.4596, 102.2832
365.9417, 101.0957
366.4239, 99.67213
366.9060, 99.31945
367.3881, 100.5610
367.8702, 102.5567
368.3523, 103.5710
368.8344, 102.8383
369.3166, 102.3010
369.7987, 102.1029
370.2808, 101.9807
370.7629, 101.7852
371.2450, 101.4712
371.7271, 101.0066
372.2093, 100.3080
372.6914, 99.27136
373.1735, 98.65714
373.6556, 98.89937
374.1377, 99.10478
374.6198, 98.91555
375.1020, 98.44283
375.5841, 97.93697
376.0662, 97.53527
376.5483, 97.26920
377.0304, 97.34888
377.5125, 98.45521
377.9947, 98.88941
378.4768, 97.81999
378.9589, 96.28340
379.4410, 95.37591
379.9231, 95.44433
380.4052, 95.90536
380.8874, 95.78889
381.3695, 94.79554
381.8516, 94.21410
382.3337, 94.63778
382.8158, 95.08574
383.2979, 94.90725
383.7801, 94.20840
384.2622, 93.64934
384.7443, 93.86930
385.2264, 94.79290
385.7085, 95.51197
386.1906, 96.14439
386.6728, 96.35548
387.1549, 95.71793
387.6370, 94.70472
388.1191, 94.02800
388.6012, 94.00607
389.0833, 94.43156
389.5655, 95.10086
390.0476, 96.17339
390.5297, 96.75030
391.0118, 95.86456
391.4939, 94.77142
391.9760, 94.54614
392.4582, 95.34612
392.9403, 96.36345
393.4224, 96.99737
393.9045, 97.29107
394.3866, 97.49703
394.8687, 97.60582
395.3509, 97.70238
395.8330, 97.77276
396.3151, 97.86544
396.7972, 98.17078
397.2793, 99.07365
397.7614, 100.0860
398.2436, 100.4355
398.7257, 100.0717
399.2078, 99.63038
399.6899, 99.37403
400.1720, 99.32592
400.6541, 99.54385
401.1363, 100.2929
401.6184, 100.8139
402.1005, 100.2894
402.5826, 99.15807
403.0647, 98.71395
403.5468, 99.45338
404.0290, 100.7197
404.5111, 101.5810
404.9932, 101.9925
405.4753, 102.5773
405.9574, 103.7152
406.4395, 104.9056
406.9217, 105.5632
407.4038, 105.6859
407.8859, 105.8313
408.3680, 106.4863
408.8501, 107.5818
409.3322, 108.2056
409.8144, 107.8151
410.2965, 107.6337
410.7786, 108.2928
411.2607, 109.4185
411.7428, 110.3804
412.2249, 110.9175
412.7071, 111.1329
413.1892, 111.1734
413.6713, 110.4011
414.1534, 110.7008
414.6355, 113.2437
415.1176, 115.9514
415.5998, 117.2640
416.0819, 117.1367
416.5640, 116.4760
417.0461, 116.0440
417.5282, 115.8408
418.0103, 115.8448
418.4925, 116.1348
418.9746, 116.5578
419.4567, 117.3581
419.9388, 118.1897
420.4209, 118.4175
420.9030, 117.7363
421.3852, 116.8430
421.8673, 117.3267
422.3494, 119.9890
422.8315, 121.9749
423.3136, 122.3260
423.7957, 122.5081
424.2779, 123.4967
424.7600, 125.2649
425.2421, 127.0569
425.7242, 128.2306
426.2063, 128.8447
426.6884, 129.3946
427.1706, 129.7756
427.6527, 130.2733
428.1348, 131.3492
428.6169, 132.5168
429.0990, 133.0349
429.5811, 132.5543
430.0633, 131.5834
430.5454, 130.7807
431.0275, 130.1555
431.5096, 129.2158
431.9917, 127.5375
432.4738, 125.7763
432.9560, 124.6369
433.4381, 124.1127
433.9202, 123.6755
434.4023, 123.0602
434.8844, 122.3745
435.3665, 121.9410
435.8487, 121.8460
436.3308, 121.4456
436.8129, 120.1926
437.2950, 118.2145
437.7771, 116.2343
438.2592, 114.3246
438.7414, 112.3487
439.2235, 110.0146
439.7056, 107.5627
440.1877, 105.5882
440.6698, 104.3193
441.1519, 103.5621
441.6341, 103.0869
442.1162, 103.1703
442.5983, 102.6808
443.0804, 101.0378
443.5625, 99.20202
444.0446, 97.83271
444.5268, 96.96834
445.0089, 96.33681
445.4910, 95.74828
445.9731, 95.20649
446.4552, 94.73880
446.9373, 94.16936
447.4195, 93.88600
447.9016, 94.31330
448.3837, 94.88784
448.8658, 94.86883
449.3479, 94.07918
449.8300, 93.10599
450.3122, 92.91291
450.7943, 93.89578
451.2764, 94.16727
451.7585, 92.83464
452.2406, 91.61417
452.7227, 91.19453
453.2049, 91.42027
453.6870, 91.85986
454.1691, 92.32710
454.6512, 92.74603
455.1333, 92.89133
455.6154, 92.66519
456.0976, 92.45650
456.5797, 92.34058
457.0618, 92.32070
457.5439, 92.52110
458.0260, 92.95159
458.5081, 93.16685
458.9903, 92.47169
459.4724, 91.23978
459.9545, 91.00597
460.4366, 92.30027
460.9187, 93.56499
461.4008, 93.39040
461.8830, 92.27451
462.3651, 91.37328
462.8472, 90.59304
463.3293, 90.38398
463.8114, 91.59565
464.2935, 93.77393
464.7756, 95.27551
465.2578, 95.48344
465.7399, 94.77837
466.2220, 93.55664
466.7041, 91.47478
467.1862, 90.29553
467.6683, 90.89048
468.1505, 91.97440
468.6326, 92.56902
469.1147, 92.62667
469.5968, 92.47037
470.0789, 92.28820
470.5610, 92.11702
471.0432, 92.20839
471.5253, 93.18578
472.0074, 93.65121
472.4895, 93.04147
472.9716, 92.07162
473.4537, 91.42754
473.9359, 91.27831
474.4180, 91.38467
474.9001, 91.46320
475.3822, 91.49171
475.8643, 91.68102
476.3464, 92.44767
476.8286, 92.91427
477.3107, 92.65487
477.7928, 91.94382
478.2749, 91.14503
478.7570, 90.34241
479.2391, 89.80887
479.7213, 90.21850
480.2034, 91.73875
480.6855, 92.74106
481.1676, 92.43056
481.6497, 91.89947
482.1318, 92.12464
482.6140, 93.02048
483.0961, 93.79816
483.5782, 94.01990
484.0603, 93.92195
484.5424, 93.98885
485.0245, 94.25254
485.5067, 94.02927
485.9888, 92.64542
486.4709, 90.68613
486.9530, 89.72939
487.4351, 90.25505
487.9172, 90.65281
488.3994, 90.06921
488.8815, 89.16566
489.3636, 88.94634
489.8457, 89.57084
490.3278, 90.27979
490.8099, 90.26667
491.2921, 89.47028
491.7742, 89.48137
492.2563, 91.22730
492.7384, 92.58010
493.2205, 92.77589
493.7026, 92.22023
494.1848, 91.38735
494.6669, 90.48154
495.1490, 89.67458
495.6311, 89.21328
496.1132, 89.08770
496.5953, 89.35297
497.0775, 90.79842
497.5596, 91.88708
498.0417, 91.74010
498.5238, 90.76490
499.0059, 89.84783
499.4880, 89.37592
499.9702, 89.37125
500.4523, 90.13156
500.9344, 91.88287
501.4165, 92.93325
501.8986, 92.22582
502.3807, 91.12835
502.8629, 91.03170
503.3450, 91.91462
503.8271, 92.56564
504.3092, 92.15948
504.7913, 91.27627
505.2734, 90.72245
505.7556, 90.54350
506.2377, 90.81021
506.7198, 91.82551
507.2019, 93.17286
507.6840, 93.52503
508.1661, 92.41961
508.6483, 91.35205
509.1304, 90.78783
509.6125, 90.42546
510.0946, 89.69477
510.5767, 88.61454
511.0588, 88.13002
511.5410, 89.33878
512.0231, 92.21938
512.5052, 93.33085
512.9873, 90.18612
513.4694, 88.21794
513.9515, 89.46213
514.4337, 91.95668
514.9158, 93.39402
515.3979, 93.13567
515.8800, 92.31603
516.3621, 92.44460
516.8442, 93.65715
517.3264, 94.34306
517.8085, 94.04939
518.2906, 93.79573
518.7727, 94.30489
519.2548, 95.09760
519.7369, 95.29974
520.2191, 94.45545
520.7012, 93.35062
521.1833, 92.78452
521.6654, 92.72504
522.1475, 93.00813
522.6296, 93.78136
523.1118, 94.51587
523.5939, 94.42622
524.0760, 93.65054
524.5581, 93.25633
525.0402, 93.61019
525.5223, 94.23248
526.0045, 94.98238
526.4866, 95.72964
526.9687, 96.16005
527.4508, 96.13303
527.9329, 95.73032
528.4150, 95.02568
528.8972, 93.49706
529.3793, 92.96098
529.8614, 94.10528
530.3435, 95.53718
530.8256, 96.77219
531.3077, 97.63711
531.7899, 97.81130
532.2720, 97.00005
532.7541, 95.83796
533.2362, 96.16051
533.7183, 98.70939
534.2004, 100.6404
534.6826, 100.9820
535.1647, 100.9538
535.6468, 101.1473
536.1289, 101.5957
536.6110, 102.1543
537.0931, 102.7034
537.5753, 103.3246
538.0574, 104.3559
538.5395, 105.8420
539.0216, 106.7633
539.5037, 106.4629
539.9858, 105.5692
540.4680, 105.1474
540.9501, 105.2562
541.4322, 105.3730
541.9143, 105.5389
542.3964, 105.5212
542.8785, 104.9616
543.3607, 103.9372
543.8428, 102.9459
544.3249, 102.3326
544.8070, 101.9496
545.2891, 101.2494
545.7712, 99.95250
546.2534, 98.70341
546.7355, 97.21905
547.2176, 96.01997
547.6997, 95.73825
548.1818, 96.19924
548.6639, 96.53140
549.1461, 95.96397
549.6282, 94.79781
550.1103, 94.39684
550.5924, 95.15224
551.0745, 95.65108
551.5566, 95.08212
552.0388, 94.32396
552.5209, 94.07310
553.0030, 94.38438
553.4851, 94.83947
553.9672, 95.43046
554.4493, 95.92771
554.9315, 95.62985
555.4136, 94.49769
555.8957, 94.05625
556.3778, 95.51115
556.8599, 97.92775
557.3420, 98.62868
557.8242, 96.91521
558.3063, 95.49702
558.7884, 94.59921
559.2705, 94.41574
559.7526, 95.62680
560.2347, 97.89998
560.7169, 99.82849
561.1990, 100.3730
561.6811, 99.78503
562.1632, 99.12292
562.6453, 97.79713
563.1274, 97.46671
563.6096, 98.88624
564.0917, 100.7753
564.5738, 102.3592
565.0559, 103.5364
565.5380, 104.4707
566.0201, 105.2605
566.5023, 105.9020
566.9844, 106.3272
567.4665, 106.4916
567.9486, 106.7174
568.4307, 106.9301
568.9128, 107.4513
569.3950, 108.9179
569.8771, 111.4722
570.3592, 113.3710
570.8413, 113.2582
571.3234, 112.7551
571.8055, 113.8165
572.2877, 116.2024
572.7698, 118.1060
573.2519, 118.4347
573.7340, 117.9411
574.2161, 118.5778
574.6982, 121.5830
575.1804, 123.5638
575.6625, 123.5173
576.1446, 123.3821
576.6267, 124.3795
577.1088, 126.3057
577.5909, 128.3869
578.0731, 130.2035
578.5552, 131.7614
579.0373, 133.0275
579.5194, 133.9483
580.0015, 134.8693
580.4836, 135.9403
580.9658, 136.9311
581.4479, 137.6628
581.9300, 138.1720
582.4121, 138.6219
582.8942, 139.0532
583.3763, 139.4671
583.8585, 140.0449
584.3406, 140.6422
584.8227, 140.6841
585.3048, 139.9473
585.7869, 138.6929
586.2690, 137.1230
586.7512, 134.9797
587.2333, 133.9562
587.7154, 134.9772
588.1975, 136.0373
588.6796, 136.2820
589.1617, 136.0025
589.6439, 135.8596
590.1260, 136.0725
590.6081, 136.0691
591.0902, 134.7553
591.5723, 131.8947
592.0544, 130.0714
592.5366, 129.9058
593.0187, 129.9465
593.5008, 129.2129
593.9829, 128.3323
594.4650, 128.4399
594.9471, 130.1155
595.4293, 131.5851
595.9114, 130.9180
596.3935, 129.1225
596.8756, 128.7284
597.3577, 130.1534
597.8398, 131.9178
598.3220, 132.9729
598.8041, 133.3910
599.2862, 133.6565
599.7683, 133.7352
600.2504, 133.7359
600.7325, 133.3526
601.2147, 133.1120
601.6968, 133.7194
602.1789, 135.0686
602.6610, 136.3240
603.1431, 136.8079
603.6252, 136.6655
604.1074, 136.5389
604.5895, 136.5677
605.0716, 136.2430
605.5537, 135.2329
606.0358, 133.9594
606.5179, 132.7801
607.0001, 131.6646
607.4822, 130.2160
607.9643, 127.8438
