##NAMES=Forsterite
##RRUFFID=R100101
##IDEAL CHEMISTRY=Mg_2_SiO_4_
##LOCALITY=Yancey County,  North Carolina, USA
##OWNER=RRUFF
##SOURCE=American Museum of Natural History
##DESCRIPTION=Pale green consolidated aggregate of grains
##STATUS=The identification of this mineral is confirmed by single-crystal X-ray diffraction and chemical analysis.
##URL=rruff.info/R100101
##MEASURED CHEMISTRY=(Mg_1.809_Fe_0.183_Ni_0.008_Mn_0.003_)_Î£=2.003_Si_0.999_O_4_
126.6509, 8.224250
127.1331, 8.905459
127.6152, 10.39892
128.0973, 11.64914
128.5794, 11.71121
129.0615, 10.98705
129.5436, 10.43949
130.0258, 10.32885
130.5079, 10.43257
130.9900, 10.28990
131.4721, 9.902330
131.9542, 9.615787
132.4363, 9.879430
132.9185, 10.59668
133.4006, 11.07709
133.8827, 10.98840
134.3648, 10.54622
134.8469, 10.59336
135.3290, 11.21236
135.8112, 11.96105
136.2933, 12.30068
136.7754, 12.20704
137.2575, 12.10667
137.7396, 12.02530
138.2217, 11.97589
138.7039, 12.48711
139.1860, 13.67072
139.6681, 15.24310
140.1502, 16.98464
140.6323, 19.10818
141.1144, 20.63095
141.5966, 20.88320
142.0787, 19.35283
142.5608, 18.90664
143.0429, 19.88809
143.5250, 21.75460
144.0071, 23.31520
144.4893, 24.54007
144.9714, 25.48447
145.4535, 26.10824
145.9356, 26.12775
146.4177, 26.40451
146.8998, 26.97000
147.3820, 27.80280
147.8641, 28.85777
148.3462, 30.27401
148.8283, 31.76799
149.3104, 33.20963
149.7925, 34.61853
150.2747, 35.93719
150.7568, 37.09335
151.2389, 38.10416
151.7210, 39.17978
152.2031, 40.49232
152.6852, 41.75467
153.1674, 42.80250
153.6495, 43.07920
154.1316, 43.70658
154.6137, 45.08363
155.0958, 47.23218
155.5779, 48.94735
156.0601, 49.95039
156.5422, 50.52790
157.0243, 50.91082
157.5064, 51.05386
157.9885, 51.08700
158.4706, 50.91567
158.9528, 50.47644
159.4349, 50.40068
159.9170, 51.09701
160.3991, 52.16958
160.8812, 53.16080
161.3633, 53.82332
161.8455, 54.46953
162.3276, 55.25488
162.8097, 56.21246
163.2918, 57.16387
163.7739, 58.05783
164.2560, 58.82709
164.7382, 59.09939
165.2203, 59.29474
165.7024, 59.35893
166.1845, 59.05117
166.6666, 58.13332
167.1487, 57.53815
167.6309, 58.06488
168.1130, 59.28245
168.5951, 60.27260
169.0772, 60.38598
169.5593, 60.21784
170.0414, 60.27935
170.5236, 60.71584
171.0057, 61.25354
171.4878, 61.83533
171.9699, 62.39482
172.4520, 62.71523
172.9341, 62.26011
173.4163, 61.65349
173.8984, 61.74598
174.3805, 63.15608
174.8626, 64.58498
175.3447, 64.68580
175.8268, 63.67357
176.3090, 62.52688
176.7911, 61.81853
177.2732, 61.43179
177.7553, 61.20978
178.2374, 61.19850
178.7195, 61.23397
179.2017, 61.03741
179.6838, 60.63717
180.1659, 60.32790
180.6480, 60.48979
181.1301, 60.91618
181.6122, 61.09325
182.0944, 60.64462
182.5765, 60.03637
183.0586, 60.21381
183.5407, 61.16308
184.0228, 62.10829
184.5049, 62.20040
184.9871, 61.66380
185.4692, 61.30109
185.9513, 61.40943
186.4334, 61.83488
186.9155, 62.25338
187.3976, 62.66442
187.8798, 63.05401
188.3619, 63.43106
188.8440, 63.78886
189.3261, 64.05939
189.8082, 64.24637
190.2903, 64.33112
190.7725, 64.17010
191.2546, 63.71012
191.7367, 63.27332
192.2188, 63.21877
192.7009, 63.53426
193.1830, 64.03059
193.6652, 64.73343
194.1473, 65.59313
194.6294, 66.22620
195.1115, 66.59309
195.5936, 66.86743
196.0757, 67.29128
196.5579, 67.87061
197.0400, 68.42404
197.5221, 68.89915
198.0042, 69.29378
198.4863, 69.58186
198.9684, 69.75338
199.4506, 69.83840
199.9327, 69.78579
200.4148, 69.55244
200.8969, 69.55840
201.3790, 70.08451
201.8611, 71.15300
202.3433, 71.96402
202.8254, 72.40945
203.3075, 72.77048
203.7896, 73.60777
204.2717, 75.04379
204.7538, 76.34664
205.2360, 77.10933
205.7181, 77.24392
206.2002, 77.65266
206.6823, 78.37997
207.1644, 79.32471
207.6465, 80.28650
208.1287, 81.21336
208.6108, 82.30334
209.0929, 83.72593
209.5750, 85.59883
210.0571, 87.17363
210.5392, 88.35654
211.0214, 89.34172
211.5035, 90.50039
211.9856, 91.79919
212.4677, 93.33089
212.9498, 95.25316
213.4319, 97.73422
213.9140, 99.78771
214.3962, 101.2466
214.8783, 102.3831
215.3604, 103.8286
215.8425, 105.7380
216.3246, 107.6306
216.8067, 109.2454
217.2889, 110.3860
217.7710, 111.9087
218.2531, 114.0498
218.7352, 116.4574
219.2173, 118.2816
219.6994, 119.2501
220.1816, 120.1625
220.6637, 121.4955
221.1458, 123.6280
221.6279, 125.0953
222.1100, 125.8158
222.5921, 125.8985
223.0743, 125.6349
223.5564, 125.0618
224.0385, 124.0868
224.5206, 122.6498
225.0027, 120.5875
225.4848, 118.4525
225.9670, 116.2090
226.4491, 113.9344
226.9312, 111.8007
227.4133, 109.9013
227.8954, 108.0102
228.3775, 106.0676
228.8597, 104.0232
229.3418, 101.9361
229.8239, 99.65807
230.3060, 97.36443
230.7881, 95.65461
231.2702, 94.79836
231.7524, 94.07795
232.2345, 93.16995
232.7166, 91.92080
233.1987, 90.82142
233.6808, 89.99677
234.1629, 89.29629
234.6451, 88.21368
235.1272, 86.26176
235.6093, 84.67014
236.0914, 84.14634
236.5735, 85.64421
237.0556, 85.97698
237.5378, 84.61488
238.0199, 82.24809
238.5020, 80.68725
238.9841, 80.52700
239.4662, 80.26864
239.9483, 79.15646
240.4305, 76.49692
240.9126, 74.67184
241.3947, 74.01099
241.8768, 74.07778
242.3589, 73.83707
242.8410, 73.30795
243.3232, 72.44152
243.8053, 71.09326
244.2874, 68.70752
244.7695, 67.22345
245.2516, 67.00227
245.7337, 67.52850
246.2159, 67.63619
246.6980, 67.06039
247.1801, 66.48506
247.6622, 66.23108
248.1443, 66.56430
248.6264, 66.43257
249.1086, 65.57805
249.5907, 64.38546
250.0728, 63.65986
250.5549, 63.58926
251.0370, 63.67128
251.5191, 63.77986
252.0013, 64.02857
252.4834, 63.87176
252.9655, 63.04533
253.4476, 61.97191
253.9297, 61.48462
254.4118, 61.89304
254.8940, 62.31732
255.3761, 62.46045
255.8582, 62.28384
256.3403, 61.93666
256.8224, 61.25412
257.3046, 60.52709
257.7867, 60.27696
258.2688, 60.66349
258.7509, 61.19649
259.2330, 61.82095
259.7151, 62.65252
260.1973, 62.85731
260.6794, 62.13759
261.1615, 61.08031
261.6436, 60.55600
262.1257, 60.69156
262.6078, 61.05370
263.0900, 61.64651
263.5721, 62.55758
264.0542, 62.79116
264.5363, 62.00917
265.0184, 60.95539
265.5005, 60.62738
265.9827, 61.28725
266.4648, 61.91216
266.9469, 62.17709
267.4290, 62.06962
267.9111, 62.18859
268.3932, 62.70010
268.8754, 63.17757
269.3575, 63.01629
269.8396, 61.95927
270.3217, 61.21022
270.8038, 61.12197
271.2859, 61.66033
271.7681, 62.19970
272.2502, 62.78772
272.7323, 63.27969
273.2144, 63.45124
273.6965, 63.22340
274.1786, 63.11312
274.6608, 63.25312
275.1429, 63.61047
275.6250, 63.96086
276.1071, 64.30976
276.5892, 64.63588
277.0714, 64.87855
277.5535, 65.01897
278.0356, 65.26118
278.5177, 65.64897
278.9998, 66.16592
279.4819, 66.77998
279.9641, 67.52985
280.4462, 68.24333
280.9283, 68.69057
281.4104, 68.85081
281.8925, 69.32558
282.3746, 70.30480
282.8568, 71.58222
283.3389, 72.51052
283.8210, 73.03732
284.3031, 73.61853
284.7852, 74.55782
285.2673, 75.83825
285.7495, 77.37913
286.2316, 79.27989
286.7137, 81.27535
287.1958, 82.67272
287.6779, 83.44692
288.1600, 84.36259
288.6422, 86.09669
289.1243, 88.51221
289.6064, 90.41301
290.0885, 91.59542
290.5706, 92.56501
291.0527, 94.23721
291.5349, 96.56266
292.0170, 98.81723
292.4991, 100.3568
292.9812, 101.4647
293.4633, 103.0947
293.9454, 105.3218
294.4276, 108.0045
294.9097, 111.0025
295.3918, 114.3025
295.8739, 117.7887
296.3560, 121.4249
296.8381, 125.1969
297.3203, 128.9494
297.8024, 132.6472
298.2845, 136.4621
298.7666, 140.6911
299.2487, 145.1764
299.7308, 149.5664
300.2130, 153.9724
300.6951, 158.0960
301.1772, 161.8039
301.6593, 165.0872
302.1414, 167.0502
302.6235, 166.4788
303.1057, 164.0143
303.5878, 160.9779
304.0699, 158.0840
304.5520, 154.5820
305.0341, 148.9800
305.5162, 141.5619
305.9984, 134.4864
306.4805, 129.7541
306.9626, 126.2592
307.4447, 122.5219
307.9268, 117.7793
308.4089, 113.0736
308.8911, 109.2736
309.3732, 106.2780
309.8553, 103.6728
310.3374, 101.0775
310.8195, 98.80735
311.3016, 97.23427
311.7838, 96.53449
312.2659, 96.32726
312.7480, 96.54551
313.2301, 97.09214
313.7122, 97.72659
314.1943, 98.68620
314.6765, 99.47756
315.1586, 99.67272
315.6407, 99.05451
316.1228, 98.40246
316.6049, 98.12753
317.0870, 98.05783
317.5692, 97.91411
318.0513, 97.52547
318.5334, 97.09280
319.0155, 96.66329
319.4976, 96.21160
319.9797, 95.94685
320.4619, 95.74284
320.9440, 95.82700
321.4261, 96.45222
321.9082, 98.41798
322.3903, 100.2197
322.8724, 101.3304
323.3546, 101.7222
323.8367, 102.0769
324.3188, 102.5282
324.8009, 102.9917
325.2830, 103.3978
325.7651, 104.2041
326.2473, 104.4485
326.7294, 103.7262
327.2115, 102.1735
327.6936, 100.8552
328.1757, 100.0675
328.6578, 99.37025
329.1400, 98.54704
329.6221, 97.67799
330.1042, 96.57287
330.5863, 94.80886
331.0684, 92.78925
331.5505, 91.77065
332.0327, 92.57754
332.5148, 93.39896
332.9969, 93.45126
333.4790, 92.24730
333.9611, 91.61325
334.4432, 91.67114
334.9254, 92.22981
335.4075, 93.05386
335.8896, 94.47182
336.3717, 95.50166
336.8538, 95.75890
337.3359, 95.17137
337.8180, 94.59328
338.3001, 93.99149
338.7823, 93.45242
339.2644, 93.20523
339.7465, 93.42085
340.2286, 93.17064
340.7107, 92.18594
341.1928, 90.52744
341.6750, 88.55003
342.1571, 86.02968
342.6392, 83.90956
343.1213, 83.42346
343.6034, 84.61490
344.0855, 84.61296
344.5677, 82.63823
345.0498, 79.51887
345.5319, 77.16862
346.0140, 75.59331
346.4961, 74.61344
346.9782, 74.41125
347.4604, 74.79639
347.9425, 74.81628
348.4246, 74.32413
348.9067, 73.63059
349.3888, 73.18406
349.8709, 72.94239
350.3531, 72.66790
350.8352, 72.04758
351.3173, 71.35729
351.7994, 71.20084
352.2815, 71.63129
352.7636, 72.21465
353.2458, 72.59290
353.7279, 72.81162
354.2100, 72.96964
354.6921, 73.12626
355.1742, 73.22411
355.6563, 73.14619
356.1385, 72.91184
356.6206, 72.72472
357.1027, 72.75359
357.5848, 72.89680
358.0669, 73.03758
358.5490, 73.14977
359.0312, 73.24380
359.5133, 73.29675
359.9954, 73.33080
360.4775, 73.41579
360.9596, 73.60339
361.4417, 73.84083
361.9239, 74.15112
362.4060, 74.65389
362.8881, 74.88321
363.3702, 74.24938
363.8523, 73.31013
364.3344, 72.92057
364.8166, 73.88386
365.2987, 74.94013
365.7808, 75.51470
366.2629, 75.49870
366.7450, 75.75801
367.2271, 76.67017
367.7093, 77.79784
368.1914, 78.75668
368.6735, 79.31875
369.1556, 79.93433
369.6377, 80.78080
370.1198, 81.80539
370.6020, 82.46057
371.0841, 82.63216
371.5662, 82.54085
372.0483, 82.32687
372.5304, 82.20039
373.0125, 81.52725
373.4947, 80.08848
373.9768, 78.17758
374.4589, 76.44910
374.9410, 74.93889
375.4231, 73.53203
375.9052, 72.19748
376.3874, 70.94540
376.8695, 69.56018
377.3516, 67.82238
377.8337, 66.29771
378.3158, 65.84819
378.7979, 66.64771
379.2801, 67.19455
379.7622, 66.98925
380.2443, 66.22225
380.7264, 65.74015
381.2085, 65.56930
381.6906, 65.51579
382.1728, 65.52713
382.6549, 65.55865
383.1370, 65.26621
383.6191, 64.46152
384.1012, 63.53616
384.5833, 63.19603
385.0655, 63.37687
385.5476, 63.58379
386.0297, 63.56959
386.5118, 63.37904
386.9939, 62.97579
387.4760, 62.29883
387.9582, 61.83569
388.4403, 62.38939
388.9224, 63.48796
389.4045, 64.14892
389.8866, 63.47559
390.3687, 62.53832
390.8509, 62.35416
391.3330, 62.85941
391.8151, 63.26464
392.2972, 62.92620
392.7793, 62.34092
393.2614, 61.98513
393.7436, 62.05971
394.2257, 62.27692
394.7078, 62.61096
395.1899, 63.00593
395.6720, 63.31492
396.1541, 63.46041
396.6363, 63.53520
397.1184, 63.54327
397.6005, 63.40590
398.0826, 63.45542
398.5647, 63.76253
399.0468, 64.27591
399.5290, 64.93336
400.0111, 66.10452
400.4932, 67.00990
400.9753, 67.31927
401.4574, 67.03855
401.9395, 67.31454
402.4217, 68.46118
402.9038, 69.83301
403.3859, 71.01791
403.8680, 71.98054
404.3501, 72.83004
404.8322, 73.51769
405.3144, 74.11822
405.7965, 74.88087
406.2786, 75.94035
406.7607, 76.72529
407.2428, 76.74613
407.7249, 75.95773
408.2071, 76.12112
408.6892, 77.47054
409.1713, 79.08083
409.6534, 79.66465
410.1355, 79.27715
410.6176, 79.10336
411.0998, 79.55213
411.5819, 80.39909
412.0640, 81.05793
412.5461, 81.53679
413.0282, 82.19498
413.5103, 83.61361
413.9925, 85.36235
414.4746, 86.51076
414.9567, 86.79948
415.4388, 86.78132
415.9209, 86.82869
416.4030, 87.00749
416.8852, 87.48455
417.3673, 88.88493
417.8494, 90.25658
418.3315, 90.60410
418.8136, 89.85461
419.2957, 89.27110
419.7779, 89.68429
420.2600, 90.56417
420.7421, 91.37326
421.2242, 92.01546
421.7063, 92.50964
422.1884, 92.76231
422.6706, 92.85157
423.1527, 93.08151
423.6348, 93.26299
424.1169, 93.80522
424.5990, 94.98930
425.0811, 97.26182
425.5633, 99.18244
426.0454, 100.4361
426.5275, 101.4226
427.0096, 102.6715
427.4917, 104.3727
427.9738, 106.0411
428.4560, 107.5941
428.9381, 109.0435
429.4202, 110.3570
429.9023, 111.4813
430.3844, 112.5381
430.8665, 113.6866
431.3487, 115.0204
431.8308, 115.8249
432.3129, 115.9373
432.7950, 115.6222
433.2771, 115.4668
433.7592, 115.4876
434.2414, 115.2538
434.7235, 114.5153
435.2056, 113.3519
435.6877, 111.9841
436.1698, 110.3921
436.6519, 108.8950
437.1341, 108.1728
437.6162, 107.8309
438.0983, 106.7817
438.5804, 104.5379
439.0625, 101.7460
439.5446, 99.03938
440.0268, 96.39293
440.5089, 93.71218
440.9910, 90.76807
441.4731, 87.87378
441.9552, 85.28445
442.4373, 83.08753
442.9195, 81.01905
443.4016, 78.88970
443.8837, 76.83591
444.3658, 75.02348
444.8479, 73.64394
445.3300, 72.36968
445.8122, 70.90453
446.2943, 69.34112
446.7764, 68.38158
447.2585, 69.04463
447.7406, 69.63305
448.2227, 69.20260
448.7049, 66.73914
449.1870, 65.22383
449.6691, 65.08664
450.1512, 65.69201
450.6333, 66.09972
451.1154, 66.39200
451.5976, 66.28204
452.0797, 65.46443
452.5618, 64.03376
453.0439, 63.59642
453.5260, 64.42793
454.0081, 65.41579
454.4903, 65.64819
454.9724, 65.13416
455.4545, 64.58572
455.9366, 64.04726
456.4187, 63.60234
456.9008, 63.44548
457.3830, 63.54840
457.8651, 63.70266
458.3472, 63.78437
458.8293, 63.85966
459.3114, 64.15054
459.7935, 64.65066
460.2757, 64.97433
460.7578, 64.64150
461.2399, 63.98709
461.7220, 63.49072
462.2041, 63.36870
462.6862, 63.26598
463.1684, 62.79087
463.6505, 62.15103
464.1326, 61.83970
464.6147, 62.42588
465.0968, 63.08356
465.5789, 63.35471
466.0611, 63.15321
466.5432, 62.98742
467.0253, 62.83894
467.5074, 62.83108
467.9895, 63.06969
468.4716, 63.90788
468.9538, 64.55743
469.4359, 64.99815
469.9180, 65.21538
470.4001, 65.11557
470.8822, 64.52373
471.3643, 63.92774
471.8465, 63.52269
472.3286, 63.32386
472.8107, 63.16295
473.2928, 63.04008
473.7749, 62.96156
474.2570, 62.89898
474.7392, 62.85386
475.2213, 63.02850
475.7034, 63.56821
476.1855, 64.22974
476.6676, 64.52126
477.1497, 64.46060
477.6319, 64.21767
478.1140, 63.56729
478.5961, 62.90098
479.0782, 63.07994
479.5603, 64.22708
480.0424, 65.25652
480.5246, 65.14014
481.0067, 64.38921
481.4888, 63.72260
481.9709, 63.28758
482.4530, 63.08319
482.9352, 63.25377
483.4173, 63.68100
483.8994, 63.99115
484.3815, 64.07879
484.8636, 64.00323
485.3457, 63.75976
485.8279, 63.29341
486.3100, 62.87201
486.7921, 62.27409
487.2742, 61.86789
487.7563, 62.03254
488.2384, 63.37952
488.7206, 64.23589
489.2027, 64.28895
489.6848, 63.74096
490.1669, 63.26810
490.6490, 62.86351
491.1311, 62.56879
491.6133, 62.44853
492.0954, 62.49865
492.5775, 62.41754
493.0596, 62.14811
493.5417, 61.99541
494.0238, 62.47855
494.5060, 63.43102
494.9881, 64.05382
495.4702, 64.07529
495.9523, 63.78338
496.4344, 63.50384
496.9165, 63.24110
497.3987, 63.01307
497.8808, 62.71387
498.3629, 62.52077
498.8450, 62.63366
499.3271, 63.07597
499.8092, 63.61726
500.2914, 64.38882
500.7735, 65.07839
501.2556, 65.40788
501.7377, 65.07824
502.2198, 64.65089
502.7019, 64.02249
503.1841, 63.36914
503.6662, 63.16692
504.1483, 63.99679
504.6304, 64.70311
505.1125, 64.92892
505.5946, 64.63690
506.0768, 64.35606
506.5589, 64.00930
507.0410, 63.79382
507.5231, 63.91504
508.0052, 64.42789
508.4873, 64.93058
508.9695, 65.40529
509.4516, 65.79794
509.9337, 65.93363
510.4158, 65.82861
510.8979, 65.79320
511.3800, 66.05850
511.8622, 66.45589
512.3443, 66.55756
512.8264, 66.37798
513.3085, 66.21063
513.7906, 66.43825
514.2728, 66.75087
514.7549, 66.61187
515.2370, 65.65437
515.7191, 65.05441
516.2012, 66.06841
516.6833, 67.80465
517.1655, 68.90914
517.6476, 68.31803
518.1297, 67.64756
518.6118, 67.41515
519.0939, 67.61059
519.5760, 67.93185
520.0582, 68.58522
520.5403, 69.14705
521.0224, 69.34418
521.5045, 68.81983
521.9866, 69.04887
522.4688, 70.46018
522.9509, 72.15121
523.4330, 72.93911
523.9151, 72.63419
524.3972, 72.46452
524.8793, 72.68904
525.3615, 73.21278
525.8436, 73.82388
526.3257, 74.52477
526.8078, 75.28293
527.2899, 76.22161
527.7720, 77.19026
528.2542, 77.78135
528.7363, 77.96779
529.2184, 78.07046
529.7005, 78.20406
530.1826, 78.46577
530.6647, 79.03549
531.1469, 80.22066
531.6290, 81.28392
532.1111, 81.53540
532.5932, 81.38139
533.0753, 81.64845
533.5574, 82.79333
534.0396, 84.19084
534.5217, 85.72603
535.0038, 87.38991
535.4859, 88.89871
535.9680, 89.85890
536.4501, 91.02586
536.9323, 92.94784
537.4144, 96.20772
537.8965, 98.55930
538.3786, 99.64946
538.8607, 100.2464
539.3428, 101.5850
539.8250, 103.7552
540.3071, 105.5937
540.7892, 106.6719
541.2713, 107.2717
541.7534, 108.1549
542.2355, 109.2632
542.7177, 109.9682
543.1998, 110.1231
543.6819, 109.5284
544.1640, 107.7174
544.6461, 104.6273
545.1282, 101.1214
545.6104, 97.37972
546.0925, 93.75973
546.5746, 90.68251
547.0567, 88.60758
547.5388, 86.61083
548.0209, 84.26780
548.5031, 81.81386
548.9852, 79.71471
549.4673, 78.12231
549.9494, 76.81281
550.4315, 75.71228
550.9136, 74.82125
551.3958, 74.34734
551.8779, 74.58358
552.3600, 74.74296
552.8421, 74.21760
553.3242, 72.90110
553.8063, 71.89645
554.2885, 71.24677
554.7706, 70.91895
555.2527, 70.97205
555.7348, 71.35372
556.2169, 71.76997
556.6990, 72.25105
557.1812, 72.56445
557.6633, 72.14011
558.1454, 71.18839
558.6275, 70.49895
559.1096, 70.68909
559.5917, 71.21911
560.0739, 71.74043
560.5560, 72.23174
561.0381, 72.53578
561.5202, 72.20555
562.0023, 71.89482
562.4844, 72.10664
562.9666, 73.42186
563.4487, 74.49277
563.9308, 75.08224
564.4129, 75.45847
564.8950, 76.01402
565.3771, 76.75412
565.8593, 77.65757
566.3414, 78.78071
566.8235, 80.05112
567.3056, 81.18163
567.7877, 82.15034
568.2698, 83.08915
568.7520, 83.98643
569.2341, 84.90782
569.7162, 86.17915
570.1983, 87.81039
570.6804, 89.61278
571.1625, 91.49067
571.6447, 93.38367
572.1268, 95.14873
572.6089, 96.64011
573.0910, 98.27796
573.5731, 100.6124
574.0552, 103.2437
574.5374, 105.5249
575.0195, 106.3213
575.5016, 107.6463
575.9837, 110.5284
576.4658, 114.8068
576.9479, 118.4591
577.4301, 121.1305
577.9122, 123.4901
578.3943, 125.7453
578.8764, 127.7852
579.3585, 130.3582
579.8406, 133.6218
580.3228, 137.0692
580.8049, 140.2319
581.2870, 143.1016
581.7691, 145.8007
582.2512, 148.3917
582.7333, 150.6620
583.2155, 151.9472
583.6975, 152.5698
584.1796, 153.6161
584.6617, 156.6159
585.1439, 159.4938
585.6260, 160.0354
586.1081, 158.6278
586.5902, 157.2514
587.0723, 156.9019
587.5544, 156.7977
588.0366, 156.5409
588.5187, 156.1184
589.0008, 155.4221
589.4829, 154.4959
589.9650, 153.2515
590.4471, 151.6033
590.9293, 149.4589
591.4114, 147.0811
591.8935, 144.3567
592.3756, 141.5279
592.8577, 139.1272
593.3398, 137.2161
593.8220, 134.9862
594.3041, 131.8799
594.7862, 128.5155
595.2683, 126.3924
595.7504, 125.4228
596.2325, 124.8304
596.7147, 124.1719
597.1968, 123.6100
597.6789, 123.1781
598.1610, 122.8722
598.6431, 123.2363
599.1252, 125.3012
599.6074, 127.7359
600.0895, 129.4340
600.5716, 129.7406
601.0537, 130.1069
601.5358, 130.8711
602.0179, 131.7540
602.5001, 132.3627
602.9822, 132.4325
603.4643, 132.7609
603.9464, 133.5635
604.4285, 134.6821
604.9106, 135.7702
605.3928, 136.8740
605.8749, 137.4333
606.3570, 137.0263
606.8391, 135.8641
607.3212, 134.5976
607.8033, 133.2309
608.2855, 131.7260
608.7676, 130.2429
609.2497, 128.5363
609.7318, 126.2377
610.2139, 123.1688
610.6960, 120.0221
611.1782, 117.0274
611.6603, 114.2256
612.1424, 111.6241
612.6245, 109.4303
613.1066, 107.2345
613.5887, 104.9752
614.0709, 102.6764
614.5530, 100.2994
615.0351, 97.80576
615.5172, 95.39610
615.9993, 93.04268
616.4814, 90.80830
616.9636, 89.03069
617.4457, 87.74295
617.9278, 86.60005
618.4099, 85.33632
618.8920, 84.07224
619.3741, 83.24780
619.8563, 82.88035
620.3384, 82.34357
620.8205, 80.76310
621.3026, 78.87020
621.7847, 77.60079
