##NAMES=Forsterite
##RRUFFID=R040018
##IDEAL CHEMISTRY=Mg_2_SiO_4_
##LOCALITY=Trudy's mine, San Carlos, Gila County, Arizona, USA
##OWNER=RRUFF
##SOURCE=Bob Downs
##DESCRIPTION=Green fragments from xenoliths in a basalt flow
##STATUS=The identification of this mineral has been confirmed by X-ray diffraction and chemical analysis
##URL=rruff.info/R040018
##MEASURED CHEMISTRY=(Mg_1.81_Fe_0.18_Ni_0.01_)_Î£=2_Si_1.00_O_4_; trace amounts of Mn and Ca
127.6365, 840.4424
128.1186, 843.0729
128.6008, 861.6040
129.0829, 884.6742
129.5650, 895.8420
130.0471, 895.6489
130.5292, 890.3141
131.0113, 882.5951
131.4935, 873.3301
131.9756, 866.2586
132.4577, 863.5109
132.9398, 863.2013
133.4219, 858.7820
133.9040, 849.4767
134.3862, 841.6558
134.8683, 843.3009
135.3504, 854.1719
135.8325, 865.3483
136.3146, 873.4754
136.7967, 879.0421
137.2789, 887.9312
137.7610, 901.1427
138.2431, 915.4247
138.7252, 927.7454
139.2073, 938.9077
139.6894, 944.6085
140.1716, 942.1214
140.6537, 930.1594
141.1358, 919.5210
141.6179, 909.9930
142.1000, 901.7140
142.5821, 894.5955
143.0643, 887.2520
143.5464, 883.7480
144.0285, 887.5160
144.5106, 905.3422
144.9927, 912.0753
145.4748, 902.3478
145.9570, 882.5231
146.4391, 871.6036
146.9212, 874.6548
147.4033, 880.2405
147.8854, 883.0374
148.3675, 880.0299
148.8497, 878.9601
149.3318, 881.1646
149.8139, 885.8141
150.2960, 888.7858
150.7781, 887.2739
151.2602, 886.0964
151.7424, 887.8563
152.2245, 901.0602
152.7066, 907.5348
153.1887, 901.3524
153.6708, 884.0446
154.1529, 874.1213
154.6351, 880.9537
155.1172, 890.6456
155.5993, 893.8922
156.0814, 878.1017
156.5635, 867.6279
157.0456, 871.0331
157.5278, 888.3378
158.0099, 899.8080
158.4920, 898.4242
158.9741, 891.0724
159.4562, 883.8988
159.9383, 874.9038
160.4205, 869.4235
160.9026, 871.2837
161.3847, 881.1534
161.8668, 888.7048
162.3489, 887.7487
162.8310, 883.3478
163.3132, 881.3932
163.7953, 888.1340
164.2774, 894.5165
164.7595, 894.2791
165.2416, 885.6650
165.7237, 879.7823
166.2059, 885.5415
166.6880, 896.9467
167.1701, 904.8854
167.6522, 901.7633
168.1343, 896.1256
168.6164, 893.9549
169.0986, 896.2426
169.5807, 900.3818
170.0628, 907.7878
170.5449, 915.8293
171.0270, 919.2482
171.5091, 910.7975
171.9913, 898.7809
172.4734, 891.4790
172.9555, 890.8226
173.4376, 892.1240
173.9197, 891.1950
174.4018, 888.9564
174.8840, 887.9344
175.3661, 890.8836
175.8482, 895.4626
176.3303, 898.3289
176.8124, 898.3167
177.2945, 898.0955
177.7767, 901.6779
178.2588, 908.0335
178.7409, 912.7562
179.2230, 910.8226
179.7051, 905.6760
180.1872, 904.2556
180.6694, 909.0692
181.1515, 915.5292
181.6336, 917.3168
182.1157, 914.8470
182.5978, 911.0558
183.0799, 906.3489
183.5621, 901.7327
184.0442, 900.2866
184.5263, 903.3958
185.0084, 908.8089
185.4905, 913.4795
185.9726, 917.3569
186.4547, 919.7772
186.9369, 920.2277
187.4190, 918.8029
187.9011, 915.5820
188.3832, 909.7338
188.8653, 902.8688
189.3474, 898.1946
189.8296, 895.6794
190.3117, 895.1572
190.7938, 897.1155
191.2759, 901.2905
191.7580, 905.7816
192.2401, 910.9023
192.7223, 915.7142
193.2044, 917.1375
193.6865, 914.9219
194.1686, 911.3457
194.6507, 907.0806
195.1328, 902.2780
195.6150, 901.4232
196.0971, 906.6017
196.5792, 916.2792
197.0613, 925.4121
197.5434, 934.3998
198.0255, 940.8326
198.5077, 940.3484
198.9898, 932.5620
199.4719, 927.8644
199.9540, 929.8537
200.4361, 936.9979
200.9182, 940.4061
201.4004, 939.0095
201.8825, 937.0931
202.3646, 939.2891
202.8467, 946.0425
203.3288, 953.1824
203.8109, 960.4069
204.2931, 967.3987
204.7752, 970.3914
205.2573, 967.7694
205.7394, 965.0217
206.2215, 968.9798
206.7036, 981.2516
207.1858, 991.4064
207.6679, 996.0573
208.1500, 995.7020
208.6321, 998.5563
209.1142, 1005.999
209.5963, 1014.064
210.0785, 1017.984
210.5606, 1016.403
211.0427, 1015.468
211.5248, 1015.686
212.0069, 1017.150
212.4890, 1025.093
212.9712, 1042.067
213.4533, 1061.664
213.9354, 1076.414
214.4175, 1085.013
214.8996, 1093.203
215.3817, 1102.983
215.8639, 1114.285
216.3460, 1121.792
216.8281, 1124.078
217.3102, 1124.459
217.7923, 1126.428
218.2744, 1130.163
218.7566, 1135.120
219.2387, 1141.490
219.7208, 1149.381
220.2029, 1156.262
220.6850, 1162.124
221.1671, 1166.909
221.6493, 1170.832
222.1314, 1175.066
222.6135, 1175.678
223.0956, 1170.737
223.5777, 1159.875
224.0598, 1151.334
224.5420, 1145.702
225.0241, 1141.654
225.5062, 1138.262
225.9883, 1137.411
226.4704, 1133.130
226.9525, 1123.237
227.4347, 1107.290
227.9168, 1093.194
228.3989, 1080.128
228.8810, 1069.769
229.3631, 1064.691
229.8452, 1068.189
230.3274, 1070.294
230.8095, 1068.345
231.2916, 1062.127
231.7737, 1058.306
232.2558, 1058.762
232.7379, 1059.676
233.2201, 1056.957
233.7022, 1048.551
234.1843, 1040.477
234.6664, 1033.218
235.1485, 1026.788
235.6306, 1024.520
236.1128, 1029.059
236.5949, 1035.025
237.0770, 1037.505
237.5591, 1035.941
238.0412, 1031.896
238.5233, 1024.897
239.0055, 1014.918
239.4876, 1005.960
239.9697, 997.3365
240.4518, 990.3895
240.9339, 986.7579
241.4160, 988.9589
241.8982, 989.4523
242.3803, 986.1910
242.8624, 979.3251
243.3445, 974.8419
243.8266, 973.5438
244.3087, 973.6580
244.7909, 973.9114
245.2730, 974.8333
245.7551, 974.7362
246.2372, 972.8107
246.7193, 969.2775
247.2014, 967.9546
247.6836, 972.5754
248.1657, 974.8794
248.6478, 966.6751
249.1299, 937.9637
249.6120, 920.8875
250.0941, 923.6066
250.5762, 943.0364
251.0584, 953.9708
251.5405, 952.4496
252.0226, 947.6328
252.5047, 945.8812
252.9868, 948.7423
253.4689, 950.9515
253.9511, 951.4000
254.4332, 950.6805
254.9153, 952.5541
255.3974, 959.2145
255.8795, 965.1208
256.3617, 966.1818
256.8438, 959.7013
257.3259, 955.6722
257.8080, 956.0059
258.2901, 959.2729
258.7722, 959.5975
259.2544, 955.3447
259.7365, 950.8693
260.2186, 947.9730
260.7007, 945.7767
261.1828, 948.5988
261.6649, 960.2461
262.1471, 975.8721
262.6292, 979.8550
263.1113, 966.6794
263.5934, 952.9247
264.0755, 947.0809
264.5576, 950.9755
265.0398, 956.4023
265.5219, 964.2795
266.0040, 972.8931
266.4861, 978.5125
266.9682, 980.7736
267.4503, 980.8640
267.9325, 978.1686
268.4146, 971.0363
268.8967, 969.3065
269.3788, 975.0554
269.8609, 984.1365
270.3430, 988.2878
270.8252, 986.1327
271.3073, 983.6503
271.7894, 983.6678
272.2715, 986.5869
272.7536, 987.1558
273.2357, 984.2370
273.7179, 980.5911
274.2000, 980.7848
274.6821, 985.6273
275.1642, 990.7126
275.6463, 994.9562
276.1284, 998.3539
276.6106, 998.8345
277.0927, 995.0957
277.5748, 991.2596
278.0569, 993.7992
278.5390, 1003.725
279.0211, 1011.548
279.5032, 1013.460
279.9854, 1010.264
280.4675, 1008.819
280.9496, 1008.933
281.4317, 1011.461
281.9138, 1018.524
282.3959, 1030.348
282.8781, 1040.882
283.3602, 1048.741
283.8423, 1054.121
284.3244, 1057.115
284.8065, 1057.431
285.2886, 1057.325
285.7708, 1058.559
286.2529, 1061.114
286.7350, 1064.991
287.2171, 1071.006
287.6992, 1077.782
288.1813, 1080.623
288.6635, 1079.317
289.1456, 1078.170
289.6277, 1081.320
290.1098, 1088.043
290.5919, 1092.756
291.0740, 1093.279
291.5562, 1093.388
292.0383, 1102.386
292.5204, 1119.874
293.0025, 1135.782
293.4846, 1141.527
293.9667, 1140.126
294.4489, 1142.119
294.9310, 1148.995
295.4131, 1158.897
295.8952, 1170.605
296.3773, 1183.633
296.8594, 1195.093
297.3416, 1201.416
297.8237, 1205.309
298.3058, 1212.994
298.7879, 1225.242
299.2700, 1239.887
299.7521, 1256.338
300.2343, 1273.474
300.7164, 1286.856
301.1985, 1294.801
301.6806, 1297.690
302.1627, 1294.805
302.6448, 1285.799
303.1270, 1275.372
303.6091, 1266.885
304.0912, 1260.166
304.5733, 1254.466
305.0554, 1251.932
305.5375, 1248.993
306.0197, 1239.828
306.5018, 1224.911
306.9839, 1211.948
307.4660, 1208.406
307.9481, 1210.122
308.4302, 1211.115
308.9124, 1207.652
309.3945, 1204.651
309.8766, 1206.928
310.3587, 1213.670
310.8408, 1220.473
311.3229, 1222.752
311.8051, 1224.670
312.2872, 1230.897
312.7693, 1245.509
313.2514, 1259.624
313.7335, 1267.893
314.2156, 1271.518
314.6978, 1274.164
315.1799, 1278.721
315.6620, 1282.207
316.1441, 1281.830
316.6262, 1275.559
317.1083, 1269.765
317.5905, 1266.842
318.0726, 1266.232
318.5547, 1266.949
319.0368, 1268.812
319.5189, 1271.810
320.0010, 1276.383
320.4832, 1283.045
320.9653, 1288.820
321.4474, 1292.078
321.9295, 1294.278
322.4116, 1297.136
322.8937, 1300.073
323.3759, 1304.661
323.8580, 1313.553
324.3401, 1327.171
324.8222, 1334.970
325.3043, 1330.516
325.7864, 1322.333
326.2686, 1316.992
326.7507, 1320.935
327.2328, 1321.316
327.7149, 1314.639
328.1970, 1301.699
328.6791, 1290.807
329.1613, 1282.661
329.6434, 1276.180
330.1255, 1270.932
330.6076, 1268.830
331.0897, 1265.094
331.5718, 1257.876
332.0540, 1249.018
332.5361, 1243.893
333.0182, 1244.839
333.5003, 1246.399
333.9824, 1246.644
334.4645, 1245.730
334.9467, 1242.896
335.4288, 1237.260
335.9109, 1230.354
336.3930, 1225.186
336.8751, 1223.250
337.3572, 1219.336
337.8394, 1210.605
338.3215, 1196.719
338.8036, 1188.490
339.2857, 1188.535
339.7678, 1189.668
340.2499, 1182.487
340.7321, 1165.110
341.2142, 1151.830
341.6963, 1147.928
342.1784, 1150.479
342.6605, 1144.648
343.1426, 1128.954
343.6248, 1112.025
344.1069, 1099.705
344.5890, 1092.113
345.0711, 1090.577
345.5532, 1097.827
346.0353, 1107.707
346.5175, 1104.844
346.9996, 1089.428
347.4817, 1075.737
347.9638, 1074.372
348.4459, 1082.096
348.9280, 1087.369
349.4102, 1089.242
349.8923, 1089.026
350.3744, 1087.573
350.8565, 1085.205
351.3386, 1083.134
351.8207, 1081.352
352.3029, 1080.450
352.7850, 1081.257
353.2671, 1083.792
353.7492, 1088.107
354.2313, 1097.579
354.7134, 1108.412
355.1956, 1113.714
355.6777, 1106.714
356.1598, 1097.423
356.6419, 1095.755
357.1240, 1100.515
357.6061, 1105.278
358.0883, 1104.749
358.5704, 1102.974
359.0525, 1104.531
359.5346, 1112.790
360.0167, 1119.664
360.4988, 1118.660
360.9810, 1112.717
361.4631, 1108.293
361.9452, 1106.904
362.4273, 1108.610
362.9094, 1114.107
363.3915, 1124.206
363.8737, 1134.534
364.3558, 1144.011
364.8379, 1152.736
365.3200, 1160.775
365.8021, 1167.677
366.2842, 1174.371
366.7664, 1182.283
367.2485, 1191.506
367.7306, 1196.373
368.2127, 1191.731
368.6948, 1185.349
369.1769, 1182.359
369.6591, 1187.533
370.1412, 1190.540
370.6233, 1191.921
371.1054, 1190.995
371.5875, 1184.581
372.0696, 1166.812
372.5518, 1150.787
373.0339, 1142.562
373.5160, 1146.048
373.9981, 1146.151
374.4802, 1142.368
374.9623, 1135.593
375.4445, 1126.465
375.9266, 1112.977
376.4087, 1102.559
376.8908, 1098.248
377.3729, 1099.778
377.8550, 1099.446
378.3372, 1096.545
378.8193, 1093.668
379.3014, 1094.000
379.7835, 1097.744
380.2656, 1100.124
380.7477, 1099.942
381.2299, 1098.107
381.7120, 1097.040
382.1941, 1096.770
382.6762, 1095.944
383.1583, 1092.620
383.6404, 1087.762
384.1226, 1085.531
384.6047, 1086.666
385.0868, 1089.210
385.5689, 1091.831
386.0510, 1094.064
386.5331, 1094.244
387.0153, 1089.303
387.4974, 1082.801
387.9795, 1080.294
388.4616, 1081.850
388.9437, 1083.997
389.4258, 1083.836
389.9080, 1082.638
390.3901, 1082.232
390.8722, 1083.565
391.3543, 1085.426
391.8364, 1086.471
392.3185, 1087.163
392.8007, 1089.242
393.2828, 1095.692
393.7649, 1102.446
394.2470, 1106.431
394.7291, 1106.382
395.2112, 1105.680
395.6934, 1105.692
396.1755, 1105.724
396.6576, 1104.751
397.1397, 1098.968
397.6218, 1095.488
398.1039, 1097.550
398.5861, 1105.808
399.0682, 1113.096
399.5503, 1117.250
400.0324, 1121.104
400.5145, 1126.773
400.9966, 1137.348
401.4788, 1145.457
401.9609, 1149.712
402.4430, 1151.071
402.9251, 1153.111
403.4072, 1155.681
403.8893, 1159.208
404.3714, 1164.124
404.8535, 1171.024
405.3357, 1177.120
405.8178, 1182.734
406.2999, 1187.021
406.7820, 1188.351
407.2641, 1186.280
407.7462, 1183.609
408.2284, 1180.227
408.7105, 1176.928
409.1926, 1178.890
409.6747, 1186.944
410.1568, 1194.158
410.6389, 1192.435
411.1211, 1183.748
411.6032, 1179.506
412.0853, 1182.275
412.5674, 1188.919
413.0495, 1194.687
413.5316, 1200.090
414.0138, 1207.490
414.4959, 1220.558
414.9780, 1235.698
415.4601, 1247.568
415.9422, 1255.949
416.4243, 1261.582
416.9065, 1262.462
417.3886, 1261.596
417.8707, 1263.489
418.3528, 1272.601
418.8349, 1282.186
419.3170, 1286.752
419.7992, 1287.665
420.2813, 1291.071
420.7634, 1302.167
421.2455, 1315.084
421.7276, 1325.368
422.2097, 1330.027
422.6919, 1337.803
423.1740, 1352.800
423.6561, 1371.811
424.1382, 1390.309
424.6203, 1406.524
425.1024, 1422.757
425.5846, 1440.229
426.0667, 1459.058
426.5488, 1475.937
427.0309, 1492.483
427.5130, 1505.835
427.9951, 1513.779
428.4773, 1514.256
428.9594, 1513.797
429.4415, 1512.856
429.9236, 1511.271
430.4057, 1510.132
430.8878, 1512.199
431.3700, 1506.021
431.8521, 1482.927
432.3342, 1442.934
432.8163, 1412.661
433.2984, 1393.578
433.7805, 1379.111
434.2627, 1361.915
434.7448, 1342.384
435.2269, 1324.506
435.7090, 1309.101
436.1911, 1295.820
436.6732, 1285.128
437.1554, 1276.592
437.6375, 1267.143
438.1196, 1252.357
438.6017, 1235.982
439.0838, 1225.259
439.5659, 1222.017
440.0481, 1218.634
440.5302, 1205.658
441.0123, 1188.508
441.4944, 1176.282
441.9765, 1175.945
442.4586, 1178.986
442.9408, 1182.066
443.4229, 1184.708
443.9050, 1184.103
444.3871, 1175.581
444.8692, 1165.750
445.3513, 1159.016
445.8335, 1157.520
446.3156, 1156.560
446.7977, 1155.333
447.2798, 1154.124
447.7619, 1153.450
448.2440, 1154.190
448.7262, 1154.525
449.2083, 1153.636
449.6904, 1151.375
450.1725, 1151.010
450.6546, 1154.392
451.1367, 1157.373
451.6189, 1156.765
452.1010, 1151.890
452.5831, 1144.749
453.0652, 1132.889
453.5473, 1121.218
454.0294, 1123.284
454.5116, 1141.088
454.9937, 1156.513
455.4758, 1159.727
455.9579, 1153.116
456.4400, 1150.745
456.9221, 1152.989
457.4043, 1155.690
457.8864, 1153.776
458.3685, 1148.939
458.8506, 1146.249
459.3327, 1147.664
459.8148, 1150.588
460.2970, 1151.818
460.7791, 1151.932
461.2612, 1152.815
461.7433, 1156.271
462.2254, 1160.493
462.7076, 1164.219
463.1897, 1167.448
463.6718, 1169.321
464.1539, 1169.073
464.6360, 1167.405
465.1181, 1165.004
465.6003, 1158.212
466.0824, 1154.890
466.5645, 1159.871
467.0466, 1170.635
467.5287, 1177.492
468.0108, 1175.904
468.4930, 1173.319
468.9751, 1172.485
469.4572, 1174.190
469.9393, 1174.488
470.4214, 1171.769
470.9035, 1169.087
471.3857, 1170.390
471.8678, 1177.651
472.3499, 1182.516
472.8320, 1183.066
473.3141, 1180.486
473.7962, 1178.533
474.2784, 1177.148
474.7605, 1176.891
475.2426, 1178.653
475.7247, 1182.064
476.2068, 1185.094
476.6889, 1187.835
477.1711, 1189.346
477.6532, 1188.070
478.1353, 1184.680
478.6174, 1180.655
479.0995, 1174.052
479.5816, 1169.765
480.0638, 1176.676
480.5459, 1191.657
481.0280, 1202.965
481.5101, 1200.733
481.9922, 1194.207
482.4743, 1190.175
482.9565, 1189.396
483.4386, 1191.246
483.9207, 1198.718
484.4028, 1207.332
484.8849, 1212.380
485.3670, 1211.666
485.8492, 1208.625
486.3313, 1201.046
486.8134, 1190.726
487.2955, 1186.605
487.7776, 1193.508
488.2597, 1200.965
488.7419, 1204.912
489.2240, 1204.690
489.7061, 1203.847
490.1882, 1201.774
490.6703, 1199.987
491.1524, 1200.827
491.6346, 1204.875
492.1167, 1206.677
492.5988, 1204.270
493.0809, 1199.845
493.5630, 1198.964
494.0451, 1201.542
494.5273, 1205.605
495.0094, 1213.297
495.4915, 1221.115
495.9736, 1219.414
496.4557, 1207.331
496.9378, 1194.149
497.4200, 1187.278
497.9021, 1184.912
498.3842, 1184.353
498.8663, 1184.027
499.3484, 1186.380
499.8305, 1196.032
500.3127, 1209.791
500.7948, 1219.498
501.2769, 1219.391
501.7590, 1217.077
502.2411, 1215.728
502.7232, 1215.625
503.2054, 1216.166
503.6875, 1218.311
504.1696, 1220.404
504.6517, 1221.184
505.1338, 1219.856
505.6159, 1218.503
506.0981, 1216.763
506.5802, 1215.260
507.0623, 1215.930
507.5444, 1219.848
508.0265, 1222.298
508.5086, 1219.903
508.9908, 1213.926
509.4729, 1216.779
509.9550, 1229.629
510.4371, 1242.081
510.9192, 1243.837
511.4013, 1237.234
511.8835, 1230.414
512.3655, 1223.798
512.8477, 1219.835
513.3298, 1224.437
513.8119, 1234.056
514.2940, 1240.229
514.7761, 1235.256
515.2582, 1228.353
515.7404, 1225.937
516.2225, 1227.839
516.7046, 1231.971
517.1867, 1241.746
517.6688, 1250.429
518.1509, 1252.388
518.6331, 1241.620
519.1152, 1236.987
519.5973, 1247.719
520.0794, 1263.827
520.5615, 1272.381
521.0436, 1266.969
521.5258, 1264.064
522.0079, 1267.077
522.4900, 1274.647
522.9721, 1279.986
523.4542, 1282.206
523.9363, 1284.491
524.4185, 1288.232
524.9006, 1293.459
525.3827, 1300.583
525.8648, 1310.040
526.3469, 1319.470
526.8290, 1325.303
527.3112, 1328.719
527.7933, 1334.639
528.2754, 1345.538
528.7575, 1357.169
529.2396, 1364.010
529.7217, 1367.436
530.2039, 1371.340
530.6860, 1377.149
531.1681, 1384.644
531.6502, 1393.737
532.1323, 1404.460
532.6144, 1416.873
533.0966, 1432.985
533.5787, 1449.577
534.0608, 1464.472
534.5429, 1475.054
535.0250, 1487.441
535.5071, 1503.033
535.9893, 1520.193
536.4714, 1536.267
536.9535, 1550.678
537.4356, 1564.897
537.9177, 1578.173
538.3998, 1591.373
538.8820, 1610.862
539.3641, 1638.351
539.8462, 1663.224
540.3283, 1678.385
540.8104, 1684.625
541.2925, 1687.446
541.7747, 1686.949
542.2568, 1683.620
542.7389, 1679.762
543.2210, 1673.437
543.7031, 1659.508
544.1852, 1634.041
544.6674, 1604.647
545.1495, 1576.769
545.6316, 1550.544
546.1137, 1526.300
546.5958, 1506.377
547.0779, 1486.621
547.5601, 1463.088
548.0422, 1435.418
548.5243, 1413.371
549.0064, 1403.164
549.4885, 1396.288
549.9706, 1387.104
550.4528, 1370.486
550.9349, 1361.462
551.4170, 1363.869
551.8991, 1370.647
552.3812, 1370.453
552.8633, 1360.745
553.3455, 1354.785
553.8276, 1357.383
554.3097, 1365.018
554.7918, 1365.556
555.2739, 1359.005
555.7560, 1352.070
556.2382, 1348.351
556.7203, 1347.267
557.2024, 1348.077
557.6845, 1350.807
558.1666, 1353.677
558.6487, 1354.402
559.1309, 1354.686
559.6130, 1356.917
560.0951, 1362.917
560.5772, 1368.548
561.0593, 1371.693
561.5414, 1373.156
562.0236, 1374.323
562.5057, 1371.980
562.9878, 1373.053
563.4699, 1382.192
563.9520, 1398.151
564.4341, 1408.088
564.9163, 1408.620
565.3984, 1407.844
565.8805, 1409.198
566.3626, 1412.595
566.8447, 1419.516
567.3268, 1430.951
567.8090, 1443.355
568.2911, 1452.142
568.7732, 1457.844
569.2553, 1464.753
569.7374, 1474.388
570.2195, 1484.464
570.7017, 1490.409
571.1838, 1494.068
571.6659, 1501.105
572.1480, 1516.409
572.6301, 1534.845
573.1122, 1553.779
573.5944, 1572.847
574.0765, 1588.525
574.5586, 1594.126
575.0407, 1599.641
575.5228, 1612.276
576.0049, 1637.067
576.4871, 1656.804
576.9692, 1666.726
577.4513, 1673.313
577.9334, 1683.036
578.4155, 1698.221
578.8976, 1710.488
579.3798, 1717.869
579.8619, 1722.583
580.3440, 1730.220
580.8261, 1741.069
581.3082, 1750.919
581.7903, 1758.154
582.2725, 1762.997
582.7546, 1764.176
583.2367, 1762.125
583.7188, 1762.836
584.2009, 1773.045
584.6830, 1787.643
585.1652, 1801.084
585.6473, 1813.212
586.1294, 1820.422
586.6115, 1817.466
587.0936, 1809.973
587.5757, 1803.887
588.0579, 1801.518
588.5400, 1799.694
589.0221, 1800.937
589.5042, 1802.016
589.9863, 1795.463
590.4684, 1777.279
590.9506, 1757.877
591.4327, 1738.775
591.9148, 1720.382
592.3969, 1707.746
592.8790, 1702.615
593.3611, 1695.832
593.8433, 1679.162
594.3254, 1655.155
594.8075, 1635.867
595.2896, 1621.859
595.7717, 1611.901
596.2538, 1606.681
596.7360, 1604.310
597.2181, 1601.121
597.7002, 1595.339
598.1823, 1590.588
598.6644, 1589.744
599.1465, 1591.531
599.6287, 1593.761
600.1108, 1594.545
600.5929, 1596.865
601.0750, 1603.374
601.5571, 1613.145
602.0392, 1618.762
602.5214, 1618.441
603.0035, 1616.263
603.4856, 1613.223
603.9677, 1609.070
604.4498, 1607.640
604.9319, 1609.776
605.4141, 1611.904
605.8962, 1610.820
606.3783, 1606.769
606.8604, 1601.153
607.3425, 1593.816
607.8246, 1586.174
608.3068, 1580.363
608.7889, 1575.534
609.2710, 1569.990
609.7531, 1563.054
610.2352, 1555.314
610.7173, 1546.141
611.1995, 1536.366
611.6816, 1528.158
612.1637, 1525.398
612.6458, 1521.231
613.1279, 1511.797
613.6100, 1496.884
614.0922, 1485.014
614.5743, 1476.852
615.0564, 1470.712
615.5385, 1465.409
616.0206, 1460.466
616.5027, 1460.082
616.9849, 1465.883
617.4670, 1471.372
617.9491, 1466.771
618.4312, 1454.417
618.9133, 1446.639
619.3954, 1446.476
619.8776, 1450.011
620.3597, 1455.243
620.8418, 1460.501
621.3239, 1462.024
621.8060, 1454.330
622.2881, 1446.087
622.7703, 1442.200
