##NAMES=Forsterite
##RRUFFID=R060539
##IDEAL CHEMISTRY=Mg_2_SiO_4_
##LOCALITY=Sri Lanka
##OWNER=RRUFF
##SOURCE=Gemological Institute of America
##DESCRIPTION=Brown cut gemstone
##STATUS=The identification of this mineral has been confirmed by X-ray diffraction and chemical analysis
##URL=rruff.info/R060539
##MEASURED CHEMISTRY=(Mg_1.67_Fe_0.33_)_Î£=2_Si_1.00_O_4_; trace amounts of Mn and Ca
91.72394, 0.0000000E+00
92.20605, 56.09337
92.68817, 56.77747
93.17029, 57.46522
93.65240, 57.34127
94.13452, 56.92372
94.61664, 56.30762
95.09875, 55.59303
95.58087, 54.80343
96.06299, 53.82977
96.54510, 52.39427
97.02721, 51.18502
97.50933, 50.36659
97.99145, 49.84339
98.47356, 49.51817
98.95568, 49.32421
99.43780, 49.19634
99.91991, 48.75966
100.4020, 47.78873
100.8841, 46.81948
101.3663, 46.03276
101.8484, 45.43119
102.3305, 44.93189
102.8126, 44.43823
103.2947, 43.92032
103.7768, 43.63356
104.2590, 43.81331
104.7411, 44.10785
105.2232, 44.12992
105.7053, 43.77086
106.1874, 43.24496
106.6695, 42.78752
107.1517, 42.38679
107.6338, 42.02985
108.1159, 41.74378
108.5980, 41.50823
109.0801, 41.21075
109.5622, 40.74410
110.0444, 40.27635
110.5265, 39.94575
111.0086, 39.76363
111.4907, 39.64991
111.9728, 39.51361
112.4549, 39.33870
112.9371, 39.19926
113.4192, 38.95022
113.9013, 38.81922
114.3834, 39.10088
114.8655, 39.90479
115.3476, 40.92705
115.8298, 41.32897
116.3119, 40.33873
116.7940, 39.64135
117.2761, 39.53656
117.7582, 39.78453
118.2403, 40.08467
118.7225, 40.26660
119.2046, 40.33426
119.6867, 40.31868
120.1688, 40.09389
120.6509, 39.92678
121.1330, 39.99825
121.6152, 40.24285
122.0973, 40.40586
122.5794, 40.26963
123.0615, 39.82496
123.5436, 39.43991
124.0257, 39.03763
124.5079, 38.73619
124.9900, 38.70747
125.4721, 39.00030
125.9542, 39.33564
126.4363, 39.42443
126.9184, 39.35293
127.4006, 39.31094
127.8827, 39.41877
128.3648, 39.61644
128.8469, 39.71144
129.3290, 39.63610
129.8111, 39.52432
130.2932, 39.49783
130.7754, 39.52336
131.2575, 39.48368
131.7396, 39.19129
132.2217, 38.58624
132.7038, 38.27647
133.1859, 38.52680
133.6681, 38.90150
134.1502, 39.27906
134.6323, 39.61940
135.1144, 39.90125
135.5965, 40.08698
136.0786, 40.10422
136.5608, 40.17040
137.0429, 40.25372
137.5250, 40.39344
138.0071, 40.67186
138.4892, 41.09990
138.9713, 41.55707
139.4535, 41.78272
139.9356, 41.57280
140.4177, 41.40158
140.8998, 41.41601
141.3819, 41.45595
141.8640, 41.20149
142.3462, 40.43575
142.8283, 39.49275
143.3104, 39.39823
143.7925, 40.57909
144.2746, 41.66315
144.7567, 42.07370
145.2388, 41.90723
145.7210, 41.54737
146.2031, 41.03458
146.6852, 40.53004
147.1673, 40.31487
147.6494, 40.50677
148.1315, 40.83367
148.6137, 41.09495
149.0958, 41.30171
149.5779, 41.36323
150.0600, 41.02750
150.5421, 40.59100
151.0242, 40.37329
151.5064, 40.56765
151.9885, 40.91840
152.4706, 40.84566
152.9527, 40.01618
153.4348, 39.39054
153.9169, 39.36376
154.3991, 39.64669
154.8812, 39.89971
155.3633, 39.93660
155.8454, 39.78461
156.3275, 39.60885
156.8096, 39.51152
157.2918, 39.26762
157.7739, 38.67451
158.2560, 37.90813
158.7381, 37.27194
159.2202, 37.00100
159.7023, 37.10592
160.1845, 37.18354
160.6666, 37.23737
161.1487, 37.26574
161.6308, 37.29669
162.1129, 37.30976
162.5950, 37.23537
163.0772, 36.99524
163.5593, 36.55730
164.0414, 36.23321
164.5235, 36.11181
165.0056, 36.02805
165.4877, 35.84881
165.9698, 35.56649
166.4520, 35.30200
166.9341, 35.17137
167.4162, 35.17990
167.8983, 35.27208
168.3804, 35.52857
168.8625, 35.83283
169.3447, 36.06264
169.8268, 36.21340
170.3089, 36.24189
170.7910, 36.01784
171.2731, 35.60815
171.7552, 35.24329
172.2374, 35.02528
172.7195, 34.92123
173.2016, 34.83365
173.6837, 34.72746
174.1658, 34.68263
174.6479, 34.76971
175.1301, 34.96250
175.6122, 35.16271
176.0943, 35.35979
176.5764, 35.54692
177.0585, 35.52022
177.5406, 34.91507
178.0228, 34.42094
178.5049, 34.44609
178.9870, 34.92334
179.4691, 35.49000
179.9512, 35.81311
180.4333, 35.85794
180.9155, 35.81100
181.3976, 35.52599
181.8797, 35.26906
182.3618, 35.16178
182.8439, 35.21405
183.3260, 35.36896
183.8082, 35.58619
184.2903, 35.97919
184.7724, 36.11500
185.2545, 35.78900
185.7366, 35.41061
186.2187, 35.24864
186.7009, 35.34802
187.1830, 35.56329
187.6651, 35.68214
188.1472, 35.60564
188.6293, 35.64595
189.1114, 35.96027
189.5936, 36.29988
190.0757, 36.38115
190.5578, 36.13612
191.0399, 35.83044
191.5220, 35.92017
192.0041, 36.60712
192.4863, 37.12773
192.9684, 37.37082
193.4505, 37.41351
193.9326, 37.31271
194.4147, 37.06087
194.8968, 36.76682
195.3790, 36.57421
195.8611, 36.43878
196.3432, 36.52118
196.8253, 37.04799
197.3074, 37.82181
197.7895, 38.38872
198.2717, 38.55945
198.7538, 38.60571
199.2359, 38.89832
199.7180, 39.44153
200.2001, 39.96721
200.6822, 40.29923
201.1644, 40.48120
201.6465, 40.73788
202.1286, 41.21465
202.6107, 41.66907
203.0928, 41.86733
203.5749, 41.81227
204.0571, 41.70379
204.5392, 41.60564
205.0213, 41.52066
205.5034, 41.72801
205.9855, 42.58867
206.4676, 43.50601
206.9497, 44.10287
207.4319, 44.36673
207.9140, 44.52600
208.3961, 44.74424
208.8782, 44.99428
209.3603, 45.47908
209.8424, 46.62605
210.3246, 47.71631
210.8067, 48.31313
211.2888, 48.41419
211.7709, 48.39071
212.2530, 48.72993
212.7351, 49.62251
213.2173, 50.26280
213.6994, 50.53762
214.1815, 50.65952
214.6636, 50.72002
215.1457, 50.74158
215.6278, 50.71226
216.1100, 50.61587
216.5921, 50.44521
217.0742, 50.21370
217.5563, 49.91786
218.0384, 49.57865
218.5205, 49.23029
219.0027, 48.86856
219.4848, 48.42637
219.9669, 47.78748
220.4490, 46.74318
220.9311, 46.05751
221.4132, 46.01508
221.8954, 46.09454
222.3775, 45.89678
222.8596, 45.35849
223.3417, 44.70390
223.8238, 44.20550
224.3059, 43.89384
224.7881, 43.71773
225.2702, 43.74462
225.7523, 43.86326
226.2344, 44.06416
226.7165, 44.33053
227.1986, 44.45574
227.6807, 44.10138
228.1629, 43.10421
228.6450, 42.49657
229.1271, 42.63668
229.6092, 43.04711
230.0913, 43.29302
230.5734, 43.29966
231.0556, 43.10405
231.5377, 42.61781
232.0198, 41.84441
232.5019, 41.37378
232.9840, 41.63296
233.4661, 42.10455
233.9483, 42.04274
234.4304, 41.26680
234.9125, 40.48234
235.3946, 40.59019
235.8767, 41.36129
236.3588, 41.80917
236.8410, 41.49296
237.3231, 40.77373
237.8052, 40.14990
238.2873, 39.64787
238.7694, 39.26874
239.2515, 39.11957
239.7337, 39.10060
240.2158, 38.98295
240.6979, 38.62850
241.1800, 38.13987
241.6621, 37.67085
242.1442, 37.17153
242.6264, 36.83593
243.1085, 36.95075
243.5906, 37.28632
244.0727, 37.46887
244.5548, 37.31311
245.0369, 36.92399
245.5191, 36.52660
246.0012, 36.15000
246.4833, 35.69194
246.9654, 34.92709
247.4475, 34.09885
247.9296, 33.57056
248.4117, 33.58957
248.8939, 33.90827
249.3760, 33.95356
249.8581, 33.59815
250.3402, 33.22948
250.8223, 32.95570
251.3044, 32.75551
251.7866, 32.60614
252.2687, 32.49402
252.7508, 32.43715
253.2329, 32.52518
253.7150, 32.95692
254.1971, 33.10756
254.6793, 32.53448
255.1614, 31.78534
255.6435, 31.44864
256.1256, 31.78055
256.6077, 32.42206
257.0898, 32.58852
257.5720, 31.97122
258.0541, 31.47007
258.5362, 31.22375
259.0183, 31.13033
259.5004, 31.14404
259.9825, 31.24355
260.4647, 31.35711
260.9468, 31.32270
261.4289, 30.95988
261.9110, 30.81521
262.3931, 31.08290
262.8752, 31.44566
263.3574, 31.68725
263.8395, 31.74147
264.3216, 31.64355
264.8037, 31.42034
265.2858, 30.91840
265.7679, 30.60884
266.2501, 30.52795
266.7322, 30.58056
267.2143, 30.76773
267.6964, 31.05661
268.1785, 31.33170
268.6606, 31.43087
269.1428, 31.27730
269.6249, 31.13605
270.1070, 30.96742
270.5891, 30.83783
271.0712, 30.81667
271.5533, 30.89271
272.0355, 30.96637
272.5176, 30.89265
272.9997, 30.54456
273.4818, 30.63228
273.9639, 31.53553
274.4460, 32.45293
274.9282, 32.94575
275.4103, 33.03661
275.8924, 33.00118
276.3745, 33.07993
276.8566, 33.28409
277.3387, 33.50542
277.8208, 33.72939
278.3029, 33.98014
278.7851, 34.31995
279.2672, 34.70655
279.7493, 34.99540
280.2314, 35.04583
280.7135, 34.87558
281.1956, 35.07682
281.6778, 35.91224
282.1599, 36.76164
282.6420, 37.51545
283.1241, 38.12313
283.6062, 38.45545
284.0883, 38.38847
284.5705, 38.04124
285.0526, 38.12655
285.5347, 38.94831
286.0168, 39.77480
286.4989, 40.45514
286.9810, 41.02405
287.4632, 41.53353
287.9453, 42.00129
288.4274, 42.45115
288.9095, 42.96366
289.3916, 43.63255
289.8737, 44.21923
290.3559, 44.48121
290.8380, 44.69732
291.3201, 45.26324
291.8022, 46.32279
292.2843, 47.69047
292.7664, 49.06834
293.2486, 50.42367
293.7307, 51.85475
294.2128, 53.64166
294.6949, 55.38404
295.1770, 56.55200
295.6591, 57.03156
296.1413, 57.29493
296.6234, 58.00064
297.1055, 59.37895
297.5876, 60.18664
298.0697, 59.98518
298.5518, 59.44510
299.0340, 59.16030
299.5161, 59.19238
299.9982, 59.20434
300.4803, 58.88856
300.9624, 58.20219
301.4445, 57.43291
301.9267, 56.67273
302.4088, 55.76559
302.8909, 54.46583
303.3730, 52.84651
303.8551, 51.33618
304.3372, 50.25076
304.8194, 49.55299
305.3015, 48.77227
305.7836, 47.68353
306.2657, 46.73619
306.7478, 46.13445
307.2299, 45.84610
307.7121, 45.77891
308.1942, 45.90926
308.6763, 46.20453
309.1584, 46.56770
309.6405, 47.17267
310.1227, 47.58018
310.6048, 47.66097
311.0869, 47.44726
311.5690, 46.94585
312.0511, 46.12661
312.5332, 45.13935
313.0154, 44.28196
313.4975, 43.58220
313.9796, 42.88865
314.4617, 42.19172
314.9438, 41.47861
315.4259, 40.73971
315.9081, 39.97683
316.3902, 39.14452
316.8723, 38.09578
317.3544, 36.73467
317.8365, 35.83104
318.3186, 35.72766
318.8007, 35.93344
319.2828, 36.12817
319.7650, 36.25028
320.2471, 36.12861
320.7292, 35.53398
321.2113, 34.46165
321.6934, 33.66193
322.1755, 33.26151
322.6577, 33.00880
323.1398, 32.78889
323.6219, 32.59005
324.1040, 32.39716
324.5861, 32.20180
325.0682, 32.00559
325.5504, 31.82428
326.0325, 31.66548
326.5146, 31.50965
326.9967, 31.28456
327.4788, 31.05960
327.9609, 31.00397
328.4431, 31.21400
328.9252, 31.56547
329.4073, 31.76964
329.8894, 31.79977
330.3715, 31.77152
330.8536, 31.74499
331.3358, 31.65607
331.8179, 31.34995
332.3000, 30.78227
332.7821, 30.21626
333.2642, 30.01554
333.7463, 30.30210
334.2285, 30.55619
334.7106, 30.81285
335.1927, 30.99646
335.6748, 30.98699
336.1569, 30.79977
336.6390, 30.63887
337.1212, 30.70708
337.6033, 31.01719
338.0854, 31.14856
338.5675, 30.99566
339.0496, 30.79050
339.5317, 30.58465
340.0139, 30.41331
340.4960, 30.36440
340.9781, 30.50454
341.4602, 30.79061
341.9423, 31.00708
342.4244, 31.10233
342.9066, 31.20103
343.3887, 31.30931
343.8708, 31.44147
344.3529, 31.64899
344.8350, 31.95394
345.3171, 32.26085
345.7993, 32.38679
346.2814, 32.23729
346.7635, 32.04255
347.2456, 31.64622
347.7277, 31.30182
348.2098, 31.28744
348.6920, 31.61899
349.1741, 32.03263
349.6562, 32.21425
350.1383, 32.07737
350.6204, 32.15942
351.1025, 32.87317
351.5847, 33.39270
352.0668, 33.11340
352.5489, 32.24586
353.0310, 31.46330
353.5131, 31.27024
353.9952, 31.59461
354.4774, 31.68453
354.9595, 31.22058
355.4416, 30.89373
355.9237, 30.90604
356.4058, 31.11326
356.8879, 31.32392
357.3701, 31.45220
357.8522, 31.52680
358.3343, 31.62001
358.8164, 31.81250
359.2985, 31.89016
359.7806, 31.73266
360.2627, 31.54544
360.7448, 31.54997
361.2270, 31.75049
361.7091, 31.91065
362.1912, 31.70701
362.6733, 30.99078
363.1554, 30.57694
363.6375, 30.65286
364.1197, 30.82940
364.6018, 31.01262
365.0839, 31.16874
365.5660, 31.26823
366.0481, 31.29039
366.5302, 31.23779
367.0124, 31.12398
367.4945, 30.84204
367.9766, 30.64008
368.4587, 30.72338
368.9408, 30.85016
369.4229, 30.73003
369.9051, 30.24381
370.3872, 29.52005
370.8693, 28.73164
371.3514, 27.72204
371.8335, 27.07347
372.3156, 27.06810
372.7978, 27.25648
373.2799, 27.46435
373.7620, 27.62119
374.2441, 27.61627
374.7262, 27.19396
375.2083, 26.31809
375.6905, 25.90604
376.1726, 26.50387
376.6547, 26.95518
377.1368, 26.65456
377.6189, 25.84491
378.1010, 25.04002
378.5832, 24.46231
379.0653, 24.12335
379.5474, 24.12990
380.0295, 24.67444
380.5116, 25.05327
380.9937, 24.82499
381.4759, 24.39100
381.9580, 24.12971
382.4401, 24.14492
382.9222, 24.26587
383.4043, 24.30605
383.8864, 24.26665
384.3686, 24.29586
384.8507, 24.52786
385.3328, 24.72348
385.8149, 24.68204
386.2970, 24.41892
386.7791, 24.08280
387.2613, 23.51487
387.7434, 22.96019
388.2255, 23.16455
388.7076, 24.41910
389.1897, 25.59529
389.6718, 25.70962
390.1540, 25.18100
390.6361, 24.81634
391.1182, 24.85086
391.6003, 25.02375
392.0824, 25.12463
392.5645, 25.15923
393.0467, 25.16776
393.5288, 25.14841
394.0109, 25.13140
394.4930, 25.14159
394.9751, 25.13634
395.4572, 25.29826
395.9394, 25.78427
396.4215, 26.46130
396.9036, 27.09634
397.3857, 27.64223
397.8678, 28.19915
398.3499, 28.91801
398.8321, 29.81046
399.3142, 30.51693
399.7963, 30.83146
400.2784, 31.11749
400.7605, 31.70856
401.2426, 32.53004
401.7247, 33.19475
402.2068, 33.42440
402.6890, 33.36477
403.1711, 33.67419
403.6532, 34.85372
404.1353, 35.71961
404.6174, 35.92239
405.0995, 35.75621
405.5817, 35.46740
406.0638, 35.15248
406.5459, 35.01086
407.0280, 35.37696
407.5101, 36.54246
407.9922, 37.27523
408.4744, 37.16431
408.9565, 37.04217
409.4386, 37.44365
409.9207, 38.25687
410.4028, 39.02924
410.8849, 39.44068
411.3671, 39.53336
411.8492, 39.64539
412.3313, 39.70763
412.8134, 39.88459
413.2955, 40.28435
413.7776, 40.76681
414.2598, 41.12550
414.7419, 41.30754
415.2240, 41.53775
415.7061, 42.22565
416.1882, 43.57577
416.6703, 44.67883
417.1525, 45.15078
417.6346, 45.65851
418.1167, 46.59670
418.5988, 47.86253
419.0809, 49.03479
419.5630, 49.75556
420.0452, 50.16536
420.5273, 50.89318
421.0094, 52.04669
421.4915, 53.29190
421.9736, 54.70096
422.4557, 56.03623
422.9379, 56.95819
423.4200, 57.32594
423.9021, 57.55860
424.3842, 58.27923
424.8663, 59.44440
425.3484, 59.96406
425.8306, 59.35247
426.3127, 58.33688
426.7948, 57.56355
427.2769, 56.99956
427.7590, 56.42443
428.2411, 55.77289
428.7233, 55.04200
429.2054, 54.19734
429.6875, 53.22355
430.1696, 52.27646
430.6517, 51.43419
431.1339, 50.70366
431.6160, 50.08039
432.0981, 49.67033
432.5802, 49.19868
433.0623, 48.60965
433.5444, 47.85574
434.0266, 46.76154
434.5087, 45.24614
434.9908, 43.60678
435.4729, 42.27580
435.9550, 41.37422
436.4371, 40.23215
436.9193, 38.57018
437.4014, 36.86881
437.8835, 35.52319
438.3656, 34.47003
438.8477, 33.31975
439.3298, 31.76499
439.8120, 29.96778
440.2941, 28.84487
440.7762, 29.18483
441.2583, 29.22588
441.7404, 28.57516
442.2225, 27.65561
442.7046, 26.85770
443.1867, 26.29975
443.6689, 25.91582
444.1510, 25.65587
444.6331, 25.56672
445.1152, 25.36241
445.5973, 24.95274
446.0794, 24.51610
446.5616, 24.06419
447.0437, 23.63858
447.5258, 23.30304
448.0079, 23.10523
448.4900, 22.99767
448.9721, 22.86090
449.4543, 22.67537
449.9364, 22.51773
450.4185, 22.37836
450.9006, 22.29205
451.3827, 22.34356
451.8648, 22.52246
452.3470, 22.62737
452.8291, 22.38821
453.3112, 21.91656
453.7933, 21.75160
454.2754, 22.03873
454.7575, 22.35326
455.2397, 22.40723
455.7218, 22.29755
456.2039, 22.17252
456.6860, 22.08047
457.1681, 21.95900
457.6502, 21.67148
458.1324, 21.28209
458.6145, 21.10544
459.0966, 21.29465
459.5787, 21.63849
460.0608, 21.83450
460.5429, 21.88135
461.0251, 21.89160
461.5072, 21.78324
461.9893, 21.71652
462.4714, 21.96223
462.9535, 22.45197
463.4356, 22.70188
463.9178, 22.31594
464.3999, 21.47240
464.8820, 21.15439
465.3641, 21.86552
465.8462, 22.41984
466.3283, 22.62413
466.8105, 22.61059
467.2926, 22.46332
467.7747, 22.22929
468.2568, 22.01888
468.7389, 21.97450
469.2210, 22.12962
469.7032, 22.22663
470.1853, 22.24955
470.6674, 22.22888
471.1495, 22.11560
471.6316, 21.97659
472.1137, 21.94007
472.5959, 22.07900
473.0780, 22.26118
473.5601, 22.23147
474.0422, 21.95526
474.5243, 21.61176
475.0064, 21.00141
475.4886, 20.53086
475.9707, 20.54443
476.4528, 20.97429
476.9349, 21.40066
477.4170, 21.58502
477.8991, 21.58231
478.3813, 21.46127
478.8634, 21.18325
479.3455, 21.03251
479.8276, 21.25294
480.3097, 21.64989
480.7918, 21.86354
481.2740, 21.82192
481.7561, 21.76014
482.2382, 21.81775
482.7203, 21.93078
483.2024, 21.98859
483.6845, 21.97003
484.1666, 21.87809
484.6487, 21.67676
485.1309, 21.36449
485.6130, 21.23721
486.0951, 21.36361
486.5772, 21.58805
487.0593, 22.00646
487.5414, 22.44736
488.0236, 22.56515
488.5057, 22.22394
488.9878, 21.67676
489.4699, 21.37969
489.9520, 21.47333
490.4341, 21.47055
490.9163, 21.33554
491.3984, 21.15487
491.8805, 20.91895
492.3626, 20.67434
492.8447, 20.51741
493.3268, 20.51914
493.8090, 20.62857
494.2911, 20.68790
494.7732, 20.65617
495.2553, 20.68598
495.7374, 20.97001
496.2195, 21.21771
496.7017, 21.15580
497.1838, 20.79366
497.6659, 20.46373
498.1480, 20.45628
498.6301, 20.65562
499.1122, 20.73218
499.5944, 20.65062
500.0765, 20.56503
500.5586, 20.61973
501.0407, 20.70621
501.5228, 20.56650
502.0049, 20.00042
502.4871, 19.61663
502.9692, 19.94209
503.4513, 20.59746
503.9334, 20.86828
504.4155, 20.59586
504.8976, 20.13526
505.3798, 19.77511
505.8619, 19.51081
506.3440, 19.62246
506.8261, 20.68485
507.3082, 21.44556
507.7903, 21.20000
508.2725, 20.42583
508.7546, 19.84872
509.2367, 19.74344
509.7188, 19.93652
510.2009, 20.19503
510.6830, 20.60405
511.1652, 20.79047
511.6473, 20.48962
512.1294, 20.22747
512.6115, 20.24192
513.0936, 20.44509
513.5757, 20.64284
514.0579, 20.74051
514.5400, 20.77335
515.0221, 20.80871
515.5042, 20.85221
515.9863, 20.85646
516.4684, 20.81026
516.9506, 20.71744
517.4327, 20.56130
517.9148, 20.35390
518.3969, 20.18093
518.8790, 20.12989
519.3611, 20.10277
519.8433, 19.87242
520.3254, 19.46914
520.8075, 19.36982
521.2896, 19.92018
521.7717, 20.77731
522.2538, 21.10783
522.7360, 20.77701
523.2181, 20.43316
523.7002, 20.08443
524.1823, 19.83517
524.6644, 19.88667
525.1465, 20.17165
525.6287, 20.33765
526.1108, 20.10514
526.5929, 19.57095
527.0750, 19.23516
527.5571, 19.09590
528.0392, 19.19019
528.5214, 19.77378
529.0035, 20.40413
529.4856, 20.70815
529.9677, 20.65647
530.4498, 20.47993
530.9319, 20.38071
531.4141, 20.33368
531.8962, 20.13510
532.3783, 19.63435
532.8604, 19.33471
533.3425, 19.57818
533.8246, 20.07665
534.3068, 20.59754
534.7889, 21.12519
535.2710, 21.53724
535.7531, 21.72056
536.2352, 21.73956
536.7173, 21.73040
537.1995, 21.71098
537.6816, 21.63680
538.1637, 21.40304
538.6458, 21.08526
539.1279, 21.10742
539.6100, 21.86804
540.0922, 22.44899
540.5743, 22.55398
541.0564, 22.35839
541.5385, 21.98519
542.0206, 21.50384
542.5027, 21.10992
542.9849, 21.03883
543.4670, 21.30184
543.9491, 21.38095
544.4312, 20.85414
544.9133, 20.65778
545.3954, 21.37522
545.8775, 22.31822
546.3596, 22.62423
546.8417, 22.10005
547.3239, 21.42356
547.8060, 21.33849
548.2881, 21.79791
548.7702, 22.30413
549.2523, 22.95196
549.7344, 23.39259
550.2166, 23.17213
550.6987, 22.66076
551.1808, 22.44369
551.6629, 22.71750
552.1450, 23.06063
552.6271, 23.14024
553.1093, 23.11393
553.5914, 23.35554
554.0735, 23.94522
554.5556, 24.58281
555.0377, 25.00299
555.5198, 25.20842
556.0020, 25.36700
556.4841, 25.41767
556.9662, 25.50228
557.4483, 25.53646
557.9304, 25.68234
558.4125, 26.25876
558.8947, 27.28131
559.3768, 28.26532
559.8589, 28.57738
560.3410, 28.18966
560.8231, 28.35712
561.3052, 29.63286
561.7874, 30.65713
562.2695, 30.69766
562.7516, 30.42730
563.2337, 30.66237
563.7158, 31.61834
564.1979, 32.76577
564.6801, 33.71133
565.1622, 34.48509
565.6443, 35.11399
566.1264, 35.54393
566.6085, 36.15078
567.0906, 37.25953
567.5728, 38.75556
568.0549, 40.15215
568.5370, 41.50707
569.0191, 42.67417
569.5012, 43.33485
569.9833, 43.91144
570.4655, 45.08568
570.9476, 46.87074
571.4297, 48.55275
571.9118, 49.42474
572.3939, 49.57928
572.8760, 50.17036
573.3582, 51.59986
573.8403, 52.93671
574.3224, 53.81358
574.8045, 54.70839
575.2866, 56.18855
575.7687, 58.24840
576.2509, 60.22071
576.7330, 61.50362
577.2151, 62.24370
577.6972, 62.97074
578.1793, 63.66496
578.6614, 64.43472
579.1436, 65.39131
579.6257, 66.40247
580.1078, 67.24785
580.5899, 67.88673
581.0720, 68.58529
581.5541, 69.64056
582.0363, 70.68523
582.5184, 71.30408
583.0005, 71.49625
583.4826, 71.47348
583.9647, 71.34338
584.4468, 71.12190
584.9290, 70.85513
585.4111, 70.53458
585.8932, 70.17558
586.3753, 69.91147
586.8574, 69.49536
587.3395, 68.75343
587.8217, 67.72114
588.3038, 66.51324
