##NAMES=Forsterite
##RRUFFID=R040057
##IDEAL CHEMISTRY=Mg_2_SiO_4_
##LOCALITY=Trudy's mine, San Carlos, Gila County, Arizona, USA
##OWNER=RRUFF
##SOURCE=Bob Downs
##DESCRIPTION=Dark green crystal fragments from xenoliths in a basalt flow
##STATUS=The identification of this mineral has been confirmed by X-ray diffraction and chemical analysis
##URL=rruff.info/R040057
##MEASURED CHEMISTRY=(Mg_1.67_Fe_0.32_Ni_0.01_)_Î£=2_Si_1.00_O_4_; trace amounts of Mn and Ca
91.72394, 0.0000000E+00
92.20605, 79.56301
92.68817, 80.37244
93.17029, 81.27590
93.65240, 81.30148
94.13452, 80.92661
94.61664, 80.07791
95.09875, 78.81934
95.58087, 77.25478
96.06299, 75.40459
96.54510, 72.88330
97.02721, 70.64652
97.50933, 68.94445
97.99145, 67.62691
98.47356, 66.52341
98.95568, 65.50688
99.43780, 64.48775
99.91991, 63.18053
100.4020, 61.36212
100.8841, 59.55383
101.3663, 57.92106
101.8484, 56.46780
102.3305, 55.13125
102.8126, 53.82427
103.2947, 52.50481
103.7768, 51.53072
104.2590, 51.22571
104.7411, 51.10264
105.2232, 50.61542
105.7053, 49.59938
106.1874, 48.40498
106.6695, 47.47881
107.1517, 46.79229
107.6338, 46.12676
108.1159, 45.38353
108.5980, 44.57499
109.0801, 43.73750
109.5622, 42.68743
110.0444, 41.80554
110.5265, 41.43892
111.0086, 41.62289
111.4907, 41.99806
111.9728, 42.21246
112.4549, 42.28060
112.9371, 42.11540
113.4192, 41.40310
113.9013, 40.63892
114.3834, 40.22836
114.8655, 40.32779
115.3476, 40.72490
115.8298, 40.85419
116.3119, 40.47446
116.7940, 40.09311
117.2761, 39.64983
117.7582, 39.25840
118.2403, 39.09684
118.7225, 39.29239
119.2046, 39.79453
119.6867, 40.00019
120.1688, 39.62078
120.6509, 39.29732
121.1330, 39.37305
121.6152, 39.74960
122.0973, 40.00303
122.5794, 39.72307
123.0615, 38.93565
123.5436, 38.56250
124.0257, 38.92583
124.5079, 39.51879
124.9900, 39.89678
125.4721, 40.01661
125.9542, 39.98501
126.4363, 39.76732
126.9184, 39.44841
127.4006, 39.25205
127.8827, 39.43988
128.3648, 39.83667
128.8469, 39.82946
129.3290, 38.96669
129.8111, 38.26727
130.2932, 38.53283
130.7754, 39.52929
131.2575, 40.42801
131.7396, 40.40094
132.2217, 39.30226
132.7038, 38.60300
133.1859, 38.67933
133.6681, 38.92830
134.1502, 39.13717
134.6323, 39.26892
135.1144, 39.38807
135.5965, 39.60366
136.0786, 40.06762
136.5608, 40.30451
137.0429, 40.06075
137.5250, 39.78331
138.0071, 39.88339
138.4892, 40.46444
138.9713, 41.24240
139.4535, 41.61745
139.9356, 41.27030
140.4177, 40.93792
140.8998, 40.70402
141.3819, 40.49603
141.8640, 40.14937
142.3462, 39.54392
142.8283, 38.88520
143.3104, 38.81767
143.7925, 39.65771
144.2746, 40.40196
144.7567, 40.56514
145.2388, 40.25725
145.7210, 39.94192
146.2031, 39.81956
146.6852, 39.84563
147.1673, 39.90400
147.6494, 40.01487
148.1315, 40.12226
148.6137, 40.18616
149.0958, 40.20949
149.5779, 40.16759
150.0600, 39.89677
150.5421, 39.60462
151.0242, 39.53061
151.5064, 39.82780
151.9885, 40.28483
152.4706, 40.42601
152.9527, 40.00050
153.4348, 39.73569
153.9169, 40.12728
154.3991, 40.71245
154.8812, 40.87936
155.3633, 40.21400
155.8454, 38.89249
156.3275, 37.99972
156.8096, 38.08843
157.2918, 38.06656
157.7739, 37.59235
158.2560, 36.85314
158.7381, 36.20198
159.2202, 35.91014
159.7023, 35.98895
160.1845, 36.00521
160.6666, 35.83955
161.1487, 35.73271
161.6308, 35.83234
162.1129, 36.09113
162.5950, 36.34454
163.0772, 36.46111
163.5593, 36.42818
164.0414, 36.22356
164.5235, 35.72752
165.0056, 35.16791
165.4877, 34.64956
165.9698, 34.19271
166.4520, 33.85889
166.9341, 33.73501
167.4162, 33.82686
167.8983, 33.97819
168.3804, 34.24345
168.8625, 34.53325
169.3447, 34.78887
169.8268, 35.04144
170.3089, 35.10172
170.7910, 34.54439
171.2731, 33.55106
171.7552, 32.81868
172.2374, 32.81739
172.7195, 33.29800
173.2016, 33.53095
173.6837, 33.29293
174.1658, 33.01399
174.6479, 33.03175
175.1301, 33.28524
175.6122, 33.54232
176.0943, 33.72932
176.5764, 33.83797
177.0585, 33.60910
177.5406, 32.47047
178.0228, 31.50769
178.5049, 31.37045
178.9870, 31.94870
179.4691, 32.65937
179.9512, 32.93649
180.4333, 32.68480
180.9155, 32.43007
181.3976, 32.25779
181.8797, 32.01506
182.3618, 31.50278
182.8439, 30.77674
183.3260, 30.14552
183.8082, 30.04561
184.2903, 30.83468
184.7724, 31.21478
185.2545, 30.95713
185.7366, 30.55033
186.2187, 30.26813
186.7009, 30.17620
187.1830, 30.20582
187.6651, 30.26898
188.1472, 30.42571
188.6293, 30.47812
189.1114, 30.37534
189.5936, 30.20188
190.0757, 29.96415
190.5578, 29.67257
191.0399, 29.46973
191.5220, 29.62619
192.0041, 30.31850
192.4863, 30.87915
192.9684, 31.31064
193.4505, 31.54811
193.9326, 31.39715
194.4147, 30.72986
194.8968, 29.95818
195.3790, 29.85283
195.8611, 30.44180
196.3432, 31.01786
196.8253, 31.39617
197.3074, 31.60979
197.7895, 31.70258
198.2717, 31.62797
198.7538, 31.53790
199.2359, 31.67214
199.7180, 32.03947
200.2001, 32.32587
200.6822, 32.27221
201.1644, 31.96128
201.6465, 31.81895
202.1286, 32.07487
202.6107, 32.37653
203.0928, 32.33923
203.5749, 31.96840
204.0571, 31.65724
204.5392, 31.74391
205.0213, 32.22288
205.5034, 32.71875
205.9855, 33.33073
206.4676, 33.79224
206.9497, 33.79893
207.4319, 33.38774
207.9140, 33.02796
208.3961, 33.29701
208.8782, 34.33714
209.3603, 35.10531
209.8424, 35.13306
210.3246, 35.13312
210.8067, 35.52190
211.2888, 36.30291
211.7709, 37.12474
212.2530, 37.51526
212.7351, 37.26198
213.2173, 37.24322
213.6994, 37.65625
214.1815, 38.14350
214.6636, 38.50905
215.1457, 38.72887
215.6278, 38.91646
216.1100, 39.25125
216.5921, 39.92804
217.0742, 40.24012
217.5563, 39.98956
218.0384, 39.60403
218.5205, 39.30861
219.0027, 39.16053
219.4848, 39.12298
219.9669, 39.16030
220.4490, 39.33881
220.9311, 39.42104
221.4132, 39.30966
221.8954, 39.17884
222.3775, 39.15412
222.8596, 39.25811
223.3417, 39.43316
223.8238, 39.60759
224.3059, 39.77302
224.7881, 39.96794
225.2702, 40.21950
225.7523, 40.48402
226.2344, 40.75624
226.7165, 41.02995
227.1986, 41.22218
227.6807, 41.18153
228.1629, 40.82080
228.6450, 40.70250
229.1271, 41.05122
229.6092, 41.56269
230.0913, 41.96975
230.5734, 42.22787
231.0556, 42.31884
231.5377, 42.12273
232.0198, 41.64310
232.5019, 41.35011
232.9840, 41.53226
233.4661, 41.84972
233.9483, 41.79341
234.4304, 41.23179
234.9125, 40.70463
235.3946, 40.88423
235.8767, 41.60346
236.3588, 42.18451
236.8410, 42.55324
237.3231, 42.65229
237.8052, 42.29215
238.2873, 41.33242
238.7694, 40.35268
239.2515, 39.85529
239.7337, 39.68978
240.2158, 39.56461
240.6979, 39.34414
241.1800, 39.11037
241.6621, 39.05993
242.1442, 39.28281
242.6264, 39.44721
243.1085, 39.36182
243.5906, 39.08186
244.0727, 38.65152
244.5548, 37.96411
245.0369, 37.19204
245.5191, 36.76564
246.0012, 36.87234
246.4833, 36.87874
246.9654, 36.30811
247.4475, 35.50153
247.9296, 34.92270
248.4117, 34.81602
248.8939, 35.00744
249.3760, 35.11124
249.8581, 35.09536
250.3402, 35.05424
250.8223, 35.12543
251.3044, 35.15963
251.7866, 34.92249
252.2687, 34.24597
252.7508, 33.41381
253.2329, 33.14290
253.7150, 33.85851
254.1971, 34.26433
254.6793, 33.66716
255.1614, 32.82642
255.6435, 32.58603
256.1256, 33.31798
256.6077, 34.44810
257.0898, 34.71320
257.5720, 33.57903
258.0541, 32.59581
258.5362, 31.95611
259.0183, 31.56613
259.5004, 31.41479
259.9825, 31.48933
260.4647, 31.64171
260.9468, 31.54888
261.4289, 30.89866
261.9110, 30.63842
262.3931, 31.11202
262.8752, 31.75510
263.3574, 32.11687
263.8395, 32.08604
264.3216, 31.88053
264.8037, 31.87527
265.2858, 32.32405
265.7679, 32.44609
266.2501, 31.93901
266.7322, 31.36817
267.2143, 31.13305
267.6964, 31.29533
268.1785, 31.63944
268.6606, 31.88579
269.1428, 31.99535
269.6249, 32.09932
270.1070, 32.16277
270.5891, 32.24787
271.0712, 32.45453
271.5533, 32.75426
272.0355, 32.95950
272.5176, 32.79216
272.9997, 31.99813
273.4818, 31.98622
273.9639, 33.37407
274.4460, 34.84102
274.9282, 35.72840
275.4103, 36.03048
275.8924, 36.03715
276.3745, 35.95341
276.8566, 35.72325
277.3387, 35.98766
277.8208, 37.06982
278.3029, 38.21164
278.7851, 39.13976
279.2672, 39.85362
279.7493, 40.41803
280.2314, 40.84926
280.7135, 41.15859
281.1956, 41.75604
281.6778, 42.74065
282.1599, 43.84435
282.6420, 45.18171
283.1241, 46.57331
283.6062, 47.56300
284.0883, 47.79697
284.5705, 47.51125
285.0526, 48.10654
285.5347, 50.46180
286.0168, 52.53694
286.4989, 53.64588
286.9810, 54.18540
287.4632, 54.81821
287.9453, 55.84917
288.4274, 57.17849
288.9095, 58.55339
289.3916, 59.92457
289.8737, 61.39909
290.3559, 62.95813
290.8380, 64.63457
291.3201, 66.45461
291.8022, 68.42692
292.2843, 70.55644
292.7664, 72.93030
293.2486, 75.73750
293.7307, 78.30460
294.2128, 80.30601
294.6949, 82.15646
295.1770, 84.39400
295.6591, 87.14947
296.1413, 89.95875
296.6234, 92.26696
297.1055, 93.99766
297.5876, 95.36681
298.0697, 96.53310
298.5518, 97.24513
299.0340, 97.30494
299.5161, 96.68555
299.9982, 95.40862
300.4803, 93.37702
300.9624, 90.49496
301.4445, 87.79219
301.9267, 85.59293
302.4088, 83.32858
302.8909, 80.42200
303.3730, 76.98206
303.8551, 73.72630
304.3372, 71.17516
304.8194, 69.27310
305.3015, 67.26756
305.7836, 65.02972
306.2657, 62.81685
306.7478, 60.62988
307.2299, 58.54463
307.7121, 56.78159
308.1942, 55.47253
308.6763, 54.55278
309.1584, 53.83362
309.6405, 53.44376
310.1227, 53.01587
310.6048, 52.43597
311.0869, 51.73822
311.5690, 50.95465
312.0511, 50.07380
312.5332, 49.20195
313.0154, 48.58274
313.4975, 48.26958
313.9796, 47.97935
314.4617, 47.73188
314.9438, 47.45034
315.4259, 47.03804
315.9081, 46.47276
316.3902, 45.77063
316.8723, 44.89445
317.3544, 43.78971
317.8365, 42.86838
318.3186, 42.09948
318.8007, 41.56706
319.2828, 41.52365
319.7650, 41.94780
320.2471, 42.25773
320.7292, 41.90284
321.2113, 40.86054
321.6934, 39.99461
322.1755, 39.50146
322.6577, 39.00507
323.1398, 38.19334
323.6219, 37.13961
324.1040, 36.19936
324.5861, 35.63071
325.0682, 35.34028
325.5504, 34.86262
326.0325, 33.98553
326.5146, 33.18493
326.9967, 32.62647
327.4788, 32.26347
327.9609, 32.01451
328.4431, 31.86163
328.9252, 31.75877
329.4073, 31.57801
329.8894, 31.19543
330.3715, 31.00618
330.8536, 31.37703
331.3358, 31.87192
331.8179, 31.84367
332.3000, 31.11642
332.7821, 30.19604
333.2642, 29.75618
333.7463, 29.96124
334.2285, 30.10568
334.7106, 30.16539
335.1927, 30.15883
335.6748, 30.04969
336.1569, 29.85684
336.6390, 29.72305
337.1212, 29.80380
337.6033, 30.11088
338.0854, 30.21669
338.5675, 29.89375
339.0496, 29.61316
339.5317, 29.63936
340.0139, 29.90701
340.4960, 30.22766
340.9781, 30.51597
341.4602, 30.73985
341.9423, 30.71345
342.4244, 30.15560
342.9066, 29.72475
343.3887, 29.65088
343.8708, 29.75909
344.3529, 29.79676
344.8350, 29.66650
345.3171, 29.44835
345.7993, 29.29417
346.2814, 29.26527
346.7635, 29.19757
347.2456, 28.98235
347.7277, 28.79434
348.2098, 28.83160
348.6920, 29.10299
349.1741, 29.41052
349.6562, 29.51958
350.1383, 29.36723
350.6204, 29.33471
351.1025, 29.64536
351.5847, 29.85203
352.0668, 29.65324
352.5489, 29.14156
353.0310, 28.63288
353.5131, 28.37095
353.9952, 28.31388
354.4774, 28.01069
354.9595, 27.04102
355.4416, 26.31454
355.9237, 26.18519
356.4058, 26.35097
356.8879, 26.38486
357.3701, 26.09481
357.8522, 25.62966
358.3343, 25.33572
358.8164, 25.38560
359.2985, 25.34631
359.7806, 25.10112
360.2627, 24.84193
360.7448, 24.82753
361.2270, 25.04322
361.7091, 25.13836
362.1912, 24.63165
362.6733, 23.29996
363.1554, 22.36039
363.6375, 21.76522
364.1197, 21.57429
364.6018, 22.17921
365.0839, 23.24060
365.5660, 23.96814
366.0481, 23.73320
366.5302, 22.68980
367.0124, 22.03673
367.4945, 22.06075
367.9766, 22.13571
368.4587, 22.20581
368.9408, 22.23001
369.4229, 22.15569
369.9051, 21.96084
370.3872, 21.69967
370.8693, 21.45017
371.3514, 21.16041
371.8335, 21.02677
372.3156, 21.15491
372.7978, 21.37218
373.2799, 21.66384
373.7620, 21.98080
374.2441, 22.15151
374.7262, 21.84071
375.2083, 21.00577
375.6905, 20.71479
376.1726, 21.54258
376.6547, 22.28177
377.1368, 22.39758
377.6189, 22.03983
378.1010, 21.52192
378.5832, 20.91068
379.0653, 20.33617
379.5474, 20.19617
380.0295, 20.65739
380.5116, 21.11648
380.9937, 21.40208
381.4759, 21.54982
381.9580, 21.55913
382.4401, 21.41721
382.9222, 21.21786
383.4043, 21.01874
383.8864, 20.82034
384.3686, 20.76266
384.8507, 20.96202
385.3328, 21.22661
385.8149, 21.45920
386.2970, 21.64043
386.7791, 21.63443
387.2613, 21.02819
387.7434, 20.21741
388.2255, 20.30816
388.7076, 21.63766
389.1897, 22.95269
389.6718, 23.20812
390.1540, 22.82058
390.6361, 22.58814
391.1182, 22.69599
391.6003, 22.98316
392.0824, 23.38091
392.5645, 23.87036
393.0467, 24.26737
393.5288, 24.48887
394.0109, 24.57813
394.4930, 24.58981
394.9751, 24.47028
395.4572, 24.47587
395.9394, 24.74496
396.4215, 25.19389
396.9036, 25.69057
397.3857, 26.21427
397.8678, 26.77001
398.3499, 27.38921
398.8321, 28.07594
399.3142, 28.68260
399.7963, 29.13983
400.2784, 29.57226
400.7605, 30.03863
401.2426, 30.55214
401.7247, 31.14422
402.2068, 31.83901
402.6890, 32.62132
403.1711, 33.41397
403.6532, 34.09911
404.1353, 34.93813
404.6174, 36.16341
405.0995, 37.49543
405.5817, 38.51360
406.0638, 39.10663
406.5459, 39.61692
407.0280, 40.55436
407.5101, 42.14545
407.9922, 43.42630
408.4744, 44.20356
408.9565, 44.88138
409.4386, 45.80387
409.9207, 46.84643
410.4028, 47.58865
410.8849, 47.70893
411.3671, 47.28825
411.8492, 46.96648
412.3313, 47.03352
412.8134, 46.82638
413.2955, 46.05053
413.7776, 45.05831
414.2598, 44.17604
414.7419, 43.52135
415.2240, 43.08235
415.7061, 42.88485
416.1882, 43.01706
416.6703, 43.07957
417.1525, 42.83142
417.6346, 42.70553
418.1167, 42.98306
418.5988, 43.57905
419.0809, 44.18554
419.5630, 44.59385
420.0452, 44.84080
420.5273, 45.06547
421.0094, 45.19693
421.4915, 45.45966
421.9736, 46.07907
422.4557, 46.80367
422.9379, 47.33974
423.4200, 47.58847
423.9021, 47.75608
424.3842, 48.13811
424.8663, 48.71497
425.3484, 48.97260
425.8306, 48.55822
426.3127, 48.10931
426.7948, 48.39119
427.2769, 49.25708
427.7590, 49.72439
428.2411, 48.95387
428.7233, 47.71222
429.2054, 47.31334
429.6875, 47.86698
430.1696, 48.30146
430.6517, 47.89084
431.1339, 46.88870
431.6160, 46.17551
432.0981, 46.02882
432.5802, 45.73426
433.0623, 44.81721
433.5444, 43.51208
434.0266, 42.30751
434.5087, 41.36193
434.9908, 40.50214
435.4729, 39.52936
435.9550, 38.45984
436.4371, 37.13976
436.9193, 35.28902
437.4014, 33.40761
437.8835, 31.85726
438.3656, 30.60944
438.8477, 29.41347
439.3298, 28.08047
439.8120, 26.69481
440.2941, 25.74796
440.7762, 25.73201
441.2583, 25.54762
441.7404, 24.93193
442.2225, 24.17643
442.7046, 23.57925
443.1867, 23.21679
443.6689, 22.96426
444.1510, 22.66509
444.6331, 22.29627
445.1152, 21.99281
445.5973, 21.58068
446.0794, 21.41234
446.5616, 21.95126
447.0437, 22.78954
447.5258, 23.15052
448.0079, 22.54344
448.4900, 21.34197
448.9721, 20.42536
449.4543, 19.80058
449.9364, 19.44729
450.4185, 19.59954
450.9006, 19.86112
451.3827, 19.96956
451.8648, 19.89570
452.3470, 19.76003
452.8291, 19.62189
453.3112, 19.49319
453.7933, 19.43782
454.2754, 19.47781
454.7575, 19.54668
455.2397, 19.68472
455.7218, 19.81011
456.2039, 19.74686
456.6860, 19.33005
457.1681, 18.89607
457.6502, 18.73234
458.1324, 18.79860
458.6145, 18.92551
459.0966, 19.08621
459.5787, 19.23012
460.0608, 19.24601
460.5429, 19.11542
461.0251, 19.08198
461.5072, 19.32782
461.9893, 19.59318
462.4714, 19.64781
462.9535, 19.48923
463.4356, 19.19866
463.9178, 18.77999
464.3999, 18.30476
464.8820, 18.16661
465.3641, 18.64424
465.8462, 19.07720
466.3283, 19.40285
466.8105, 19.62841
467.2926, 19.72427
467.7747, 19.70248
468.2568, 19.67294
468.7389, 19.78882
469.2210, 20.10263
469.7032, 20.21542
470.1853, 20.06396
470.6674, 19.77003
471.1495, 19.13897
471.6316, 18.43756
472.1137, 18.13228
472.5959, 18.47223
473.0780, 19.10158
473.5601, 19.33072
474.0422, 19.06088
474.5243, 18.81199
475.0064, 18.61422
475.4886, 18.51934
475.9707, 18.65086
476.4528, 18.95284
476.9349, 19.14866
477.4170, 18.99485
477.8991, 18.63099
478.3813, 18.33965
478.8634, 18.11080
479.3455, 18.03277
479.8276, 18.23517
480.3097, 18.58513
480.7918, 18.84360
481.2740, 18.98691
481.7561, 19.07771
482.2382, 19.10717
482.7203, 19.11461
483.2024, 19.19423
483.6845, 19.36884
484.1666, 19.52863
484.6487, 19.56450
485.1309, 19.46987
485.6130, 19.38666
486.0951, 19.31443
486.5772, 19.25328
487.0593, 19.18635
487.5414, 19.13336
488.0236, 19.15408
488.5057, 19.27182
488.9878, 19.39709
489.4699, 19.35706
489.9520, 19.02411
490.4341, 18.84048
490.9163, 18.85593
491.3984, 18.94745
491.8805, 19.12599
492.3626, 19.32876
492.8447, 19.42929
493.3268, 19.33718
493.8090, 19.11235
494.2911, 18.91818
494.7732, 18.74277
495.2553, 18.63228
495.7374, 18.71564
496.2195, 18.78634
496.7017, 18.59976
497.1838, 18.17993
497.6659, 17.92808
498.1480, 18.36175
498.6301, 19.16297
499.1122, 19.37082
499.5944, 18.83453
500.0765, 18.25854
500.5586, 18.00965
501.0407, 18.00529
501.5228, 18.06469
502.0049, 18.20337
502.4871, 18.35067
502.9692, 18.54322
503.4513, 18.70360
503.9334, 18.64700
504.4155, 18.33010
504.8976, 17.97379
505.3798, 17.77106
505.8619, 17.72626
506.3440, 17.88371
506.8261, 18.60088
507.3082, 19.10318
507.7903, 18.97855
508.2725, 18.49215
508.7546, 17.99941
509.2367, 17.64427
509.7188, 17.48082
510.2009, 17.66743
510.6830, 18.43389
511.1652, 18.77135
511.6473, 18.15107
512.1294, 17.62393
512.6115, 17.67686
513.0936, 18.12160
513.5757, 18.55723
514.0579, 18.79985
514.5400, 18.87654
515.0221, 18.78888
515.5042, 18.50369
515.9863, 18.30463
516.4684, 18.27844
516.9506, 18.34251
517.4327, 18.43514
517.9148, 18.55249
518.3969, 18.67533
518.8790, 18.87024
519.3611, 19.02428
519.8433, 18.89296
520.3254, 18.50653
520.8075, 18.32455
521.2896, 18.63473
521.7717, 19.20441
522.2538, 19.49090
522.7360, 19.45843
523.2181, 19.32399
523.7002, 18.93575
524.1823, 18.58965
524.6644, 18.66431
525.1465, 19.09031
525.6287, 19.40270
526.1108, 19.23887
526.5929, 18.71139
527.0750, 18.40588
527.5571, 18.35970
528.0392, 18.51324
528.5214, 19.13981
529.0035, 19.76079
529.4856, 19.90362
529.9677, 19.57255
530.4498, 19.21237
530.9319, 19.26516
531.4141, 19.63802
531.8962, 19.69738
532.3783, 19.21188
532.8604, 18.95090
533.3425, 19.44794
533.8246, 20.24442
534.3068, 20.93598
534.7889, 21.47594
535.2710, 21.81131
535.7531, 21.74960
536.2352, 21.49095
536.7173, 21.49772
537.1995, 21.84407
537.6816, 22.24557
538.1637, 22.50390
538.6458, 22.63490
539.1279, 22.75129
539.6100, 22.78121
540.0922, 22.88580
540.5743, 23.33955
541.0564, 23.78797
541.5385, 23.70759
542.0206, 23.03536
542.5027, 22.20703
542.9849, 21.67193
543.4670, 21.43629
543.9491, 21.21136
544.4312, 20.83788
544.9133, 20.68033
545.3954, 21.02883
545.8775, 21.52145
546.3596, 21.71016
546.8417, 21.49355
547.3239, 21.21419
547.8060, 21.27015
548.2881, 21.62935
548.7702, 21.92158
549.2523, 22.13665
549.7344, 22.26923
550.2166, 22.19823
550.6987, 22.06982
551.1808, 22.13922
551.6629, 22.53431
552.1450, 22.93055
552.6271, 23.09346
553.1093, 23.11902
553.5914, 23.19990
554.0735, 23.37465
554.5556, 23.60788
555.0377, 23.89411
555.5198, 24.23038
556.0020, 24.40714
556.4841, 24.23552
556.9662, 24.15705
557.4483, 24.26576
557.9304, 24.54148
558.4125, 25.01178
558.8947, 25.65656
559.3768, 26.30766
559.8589, 26.74767
560.3410, 26.96497
560.8231, 27.40522
561.3052, 28.34432
561.7874, 29.09369
562.2695, 29.30688
562.7516, 29.29877
563.2337, 29.39481
563.7158, 29.66828
564.1979, 30.13760
564.6801, 30.89725
565.1622, 31.86966
565.6443, 32.79377
566.1264, 33.63735
566.6085, 34.47991
567.0906, 35.36105
567.5728, 36.28961
568.0549, 37.29202
568.5370, 38.51184
569.0191, 39.57999
569.5012, 40.15467
569.9833, 40.61448
570.4655, 41.52198
570.9476, 42.90729
571.4297, 44.26453
571.9118, 45.06893
572.3939, 45.40675
572.8760, 46.36201
573.3582, 48.63264
573.8403, 50.58464
574.3224, 51.86882
574.8045, 52.84615
575.2866, 53.73743
575.7687, 54.63092
576.2509, 55.66417
576.7330, 57.05489
577.2151, 58.68081
577.6972, 60.08844
578.1793, 61.27723
578.6614, 62.23323
579.1436, 62.78653
579.6257, 63.19085
580.1078, 63.85286
580.5899, 64.83807
581.0720, 65.72678
581.5541, 66.40813
582.0363, 66.88341
582.5184, 67.08000
583.0005, 67.04235
583.4826, 66.98836
583.9647, 67.02948
584.4468, 67.18359
584.9290, 67.50600
585.4111, 68.13227
585.8932, 68.72442
586.3753, 69.17040
586.8574, 69.68370
