##NAMES=Forsterite
##RRUFFID=R060535
##IDEAL CHEMISTRY=Mg_2_SiO_4_
##LOCALITY=unknown
##OWNER=RRUFF
##SOURCE=Gemological Institute of America
##DESCRIPTION=Transparent brown gemstone
##STATUS=The identification of this mineral has been confirmed by X-ray diffraction and chemical analysis
##URL=rruff.info/R060535
##MEASURED CHEMISTRY=(Mg_1.81_Fe_0.18_Ni_0.01_)_Î£=2_Si_1.00_O_4_
92.20605, 52.10101
92.68817, 52.54951
93.17029, 53.10461
93.65240, 53.05350
94.13452, 52.82315
94.61664, 52.51111
95.09875, 52.24357
95.58087, 51.92890
96.06299, 51.14069
96.54510, 49.44494
97.02722, 47.91559
97.50933, 46.70929
97.99145, 45.80634
98.47356, 45.20304
98.95568, 44.90019
99.43780, 44.83570
99.91991, 44.51798
100.4020, 43.83230
100.8841, 43.08864
101.3663, 42.40990
101.8484, 41.78715
102.3305, 41.11587
102.8126, 40.23507
103.2947, 39.02105
103.7768, 38.29599
104.2590, 38.52980
104.7411, 39.02371
105.2232, 38.96901
105.7053, 38.11381
106.1874, 37.04128
106.6695, 36.50924
107.1517, 36.45964
107.6338, 36.51377
108.1159, 36.53020
108.5980, 36.51628
109.0801, 36.53306
109.5622, 36.73826
110.0444, 36.82963
110.5265, 36.52328
111.0086, 35.78666
111.4907, 34.92822
111.9728, 34.26654
112.4549, 33.82118
112.9371, 33.52808
113.4192, 33.35141
113.9013, 33.31301
114.3834, 33.51449
114.8655, 33.99255
115.3476, 34.58064
115.8298, 34.82354
116.3119, 34.39363
116.7940, 33.98597
117.2761, 33.60661
117.7582, 33.30358
118.2403, 33.15131
118.7225, 33.20553
119.2046, 33.43974
119.6867, 33.54158
120.1688, 33.42071
120.6509, 33.28811
121.1330, 33.22833
121.6152, 33.22714
122.0973, 33.20872
122.5794, 33.09510
123.0615, 32.89558
123.5436, 32.80536
124.0257, 32.89095
124.5079, 33.04717
124.9900, 33.16584
125.4721, 33.22848
125.9542, 33.31893
126.4363, 33.56267
126.9184, 33.90125
127.4006, 34.19948
127.8827, 34.43394
128.3648, 34.59163
128.8469, 34.61972
129.3290, 34.46223
129.8111, 34.23199
130.2932, 34.01204
130.7754, 33.79227
131.2575, 33.53576
131.7396, 33.15638
132.2217, 32.62027
132.7038, 32.27193
133.1859, 32.24337
133.6681, 32.32024
134.1502, 32.42909
134.6323, 32.55778
135.1144, 32.73018
135.5965, 33.01306
136.0786, 33.60535
136.5608, 33.88045
137.0429, 33.68043
137.5250, 33.32185
138.0071, 33.00311
138.4892, 32.79377
138.9713, 32.68346
139.4535, 32.66005
139.9356, 32.85331
140.4177, 32.95411
140.8998, 32.94087
141.3819, 32.82730
141.8640, 32.58751
142.3462, 32.17886
142.8283, 31.71755
143.3104, 31.55427
143.7925, 31.78439
144.2746, 32.06287
144.7567, 32.26470
145.2388, 32.40203
145.7210, 32.53820
146.2031, 32.74752
146.6852, 32.93643
147.1673, 32.94278
147.6494, 32.68472
148.1315, 32.35431
148.6137, 32.11263
149.0958, 31.96278
149.5779, 31.87912
150.0600, 31.76038
150.5421, 31.73462
151.0242, 32.02096
151.5064, 32.83609
151.9885, 33.80441
152.4706, 34.08005
152.9527, 33.22461
153.4348, 32.48317
153.9169, 32.34279
154.3991, 32.49583
154.8812, 32.54491
155.3633, 32.23386
155.8454, 31.65752
156.3275, 31.40603
156.8096, 31.93966
157.2918, 32.33947
157.7739, 32.34215
158.2560, 32.08110
158.7381, 31.79533
159.2202, 31.65463
159.7023, 31.66061
160.1845, 31.75998
160.6666, 32.02391
161.1487, 32.29824
161.6308, 32.62873
162.1129, 32.94784
162.5950, 33.05613
163.0772, 32.73348
163.5593, 31.89854
164.0414, 31.35365
164.5235, 31.24193
165.0056, 31.28333
165.4877, 31.32030
165.9698, 31.33120
166.4520, 31.33224
166.9341, 31.33010
167.4162, 31.32615
167.8983, 31.36103
168.3804, 31.46689
168.8625, 31.60331
169.3447, 31.75772
169.8268, 31.95783
170.3089, 32.05703
170.7910, 31.79892
171.2731, 31.28025
171.7552, 30.84372
172.2374, 30.60594
172.7195, 30.55041
173.2016, 30.66160
173.6837, 31.04677
174.1658, 31.43609
174.6479, 31.65843
175.1301, 31.73075
175.6122, 31.71621
176.0943, 31.62698
176.5764, 31.46674
177.0585, 31.32774
177.5406, 31.19827
178.0228, 31.11253
178.5049, 31.06672
178.9870, 31.07122
179.4691, 31.15702
179.9512, 31.41397
180.4333, 31.92619
180.9155, 32.21639
181.3976, 32.13386
181.8797, 31.95729
182.3618, 31.77149
182.8439, 31.60354
183.3260, 31.46509
183.8082, 31.37180
184.2903, 31.33594
184.7724, 31.31882
185.2545, 31.32059
185.7366, 31.33632
186.2187, 31.36008
186.7009, 31.39205
187.1830, 31.44575
187.6651, 31.55634
188.1472, 31.86860
188.6293, 31.89585
189.1114, 31.31470
189.5936, 30.63888
190.0757, 30.33410
190.5578, 30.52308
191.0399, 30.97332
191.5220, 31.34855
192.0041, 31.66212
192.4863, 31.85270
192.9684, 31.88645
193.4505, 31.80062
193.9326, 31.60357
194.4147, 31.27454
194.8968, 30.92978
195.3790, 30.76081
195.8611, 30.74665
196.3432, 30.85745
196.8253, 31.19444
197.3074, 31.64673
197.7895, 31.96917
198.2717, 32.07684
198.7538, 32.06311
199.2359, 32.07534
199.7180, 32.12238
200.2001, 32.06852
200.6822, 31.66432
201.1644, 31.03118
201.6465, 30.80759
202.1286, 31.40026
202.6107, 32.16393
203.0928, 32.49278
203.5749, 32.38691
204.0571, 32.17678
204.5392, 32.06182
205.0213, 32.04198
205.5034, 32.16304
205.9855, 32.59778
206.4676, 33.04338
206.9497, 33.30356
207.4319, 33.37370
207.9140, 33.38403
208.3961, 33.41492
208.8782, 33.43968
209.3603, 33.65689
209.8424, 34.38916
210.3246, 35.09886
210.8067, 35.48279
211.2888, 35.53098
211.7709, 35.47188
212.2530, 35.56332
212.7351, 35.82742
213.2173, 36.17915
213.6994, 36.64476
214.1815, 37.16436
214.6636, 37.72604
215.1457, 38.31732
215.6278, 38.92223
216.1100, 39.53508
216.5921, 40.22785
217.0742, 40.73120
217.5563, 40.98934
218.0384, 41.14516
218.5205, 41.22163
219.0027, 41.25555
219.4848, 41.35473
219.9669, 41.67116
220.4490, 42.30855
220.9311, 42.92810
221.4132, 43.68709
221.8954, 44.33163
222.3775, 44.66777
222.8596, 44.66530
223.3417, 44.43080
223.8238, 44.07869
224.3059, 43.53344
224.7881, 43.07866
225.2702, 42.79753
225.7523, 42.55497
226.2344, 42.27007
226.7165, 41.92133
227.1986, 41.46439
227.6807, 40.80014
228.1629, 39.85899
228.6450, 39.09081
229.1271, 38.60247
229.6092, 38.26049
230.0913, 37.97868
230.5734, 37.74596
231.0556, 37.47099
231.5377, 36.96048
232.0198, 36.21704
232.5019, 35.78365
232.9840, 36.11266
233.4661, 36.64399
233.9483, 36.58341
234.4304, 35.74398
234.9125, 34.83610
235.3946, 34.69523
235.8767, 35.13326
236.3588, 35.36399
236.8410, 34.99157
237.3231, 34.36356
237.8052, 34.03721
238.2873, 34.13113
238.7694, 34.24591
239.2515, 33.96530
239.7337, 33.45171
240.2158, 33.06102
240.6979, 33.03063
241.1800, 33.17207
241.6621, 33.11753
242.1442, 32.79952
242.6264, 32.45501
243.1085, 32.22014
243.5906, 32.06171
244.0727, 31.94182
244.5548, 31.89683
245.0369, 31.85928
245.5191, 31.66747
246.0012, 31.26452
246.4833, 30.83957
246.9654, 30.36606
247.4475, 29.95348
247.9296, 29.78539
248.4117, 30.01197
248.8939, 30.45754
249.3760, 30.75832
249.8581, 30.94502
250.3402, 30.89376
250.8223, 30.39855
251.3044, 29.73514
251.7866, 29.20425
252.2687, 28.93789
252.7508, 28.85812
253.2329, 28.79170
253.7150, 28.73164
254.1971, 28.70317
254.6793, 28.73564
255.1614, 28.78650
255.6435, 28.81012
256.1256, 28.78669
256.6077, 28.74392
257.0898, 28.75787
257.5720, 28.92499
258.0541, 28.94843
258.5362, 28.61948
259.0183, 28.24343
259.5004, 28.13519
259.9825, 28.39499
260.4647, 28.78281
260.9468, 28.79516
261.4289, 28.03358
261.9110, 27.69632
262.3931, 28.18657
262.8752, 28.85692
263.3574, 29.19433
263.8395, 29.07044
264.3216, 28.72668
264.8037, 28.56089
265.2858, 28.75945
265.7679, 28.75449
266.2501, 28.32277
266.7322, 27.87382
267.2143, 27.72633
267.6964, 27.91545
268.1785, 28.21681
268.6606, 28.31664
269.1428, 28.06636
269.6249, 28.00747
270.1070, 28.30042
270.5891, 28.62040
271.0712, 28.83394
271.5533, 28.89384
272.0355, 28.73642
272.5176, 28.21278
272.9997, 27.07402
273.4818, 26.71079
273.9639, 27.65919
274.4460, 28.75054
274.9282, 29.44207
275.4103, 29.70206
275.8924, 29.71481
276.3745, 29.61487
276.8566, 29.37234
277.3387, 29.31692
277.8208, 29.53775
278.3029, 29.81162
278.7851, 30.10737
279.2672, 30.38428
279.7493, 30.54752
280.2314, 30.50643
280.7135, 30.27247
281.1956, 30.20544
281.6778, 30.47030
282.1599, 30.69320
282.6420, 30.70712
283.1241, 30.58003
283.6062, 30.46792
284.0883, 30.46105
284.5705, 30.54686
285.0526, 30.65647
285.5347, 30.74626
286.0168, 30.90442
286.4989, 31.23118
286.9810, 31.62943
287.4632, 31.93624
287.9453, 32.07413
288.4274, 32.08110
288.9095, 32.05902
289.3916, 31.99922
289.8737, 31.92617
290.3559, 31.78328
290.8380, 31.64689
291.3201, 31.61235
291.8022, 31.71138
292.2843, 31.93890
292.7664, 32.32719
293.2486, 33.03364
293.7307, 33.51402
294.2128, 33.48074
294.6949, 33.30441
295.1770, 33.38738
295.6591, 33.82446
296.1413, 34.44864
296.6234, 35.07912
297.1055, 35.73840
297.5876, 36.28662
298.0697, 36.66041
298.5518, 36.95809
299.0340, 37.23657
299.5161, 37.50916
299.9982, 37.82196
300.4803, 38.24210
300.9624, 38.78237
301.4445, 39.18595
301.9267, 39.47136
302.4088, 39.60759
302.8909, 39.51336
303.3730, 39.21957
303.8551, 38.91005
304.3372, 38.72632
304.8194, 38.64174
305.3015, 38.42293
305.7836, 37.91396
306.2657, 37.43810
306.7478, 37.14863
307.2299, 37.01739
307.7121, 36.93504
308.1942, 36.82167
308.6763, 36.74623
309.1584, 36.96677
309.6405, 37.67803
310.1227, 38.32769
310.6048, 38.65200
311.0869, 38.80260
311.5690, 39.06890
312.0511, 39.56720
312.5332, 40.19249
313.0154, 40.75722
313.4975, 41.29962
313.9796, 41.70085
314.4617, 41.94301
314.9438, 42.02831
315.4259, 41.91217
315.9081, 41.57555
316.3902, 41.18005
316.8723, 40.91683
317.3544, 40.80091
317.8365, 40.74145
318.3186, 40.73689
318.8007, 40.78315
319.2828, 40.82924
319.7650, 40.88268
320.2471, 41.09734
320.7292, 41.64563
321.2113, 42.53790
321.6934, 43.34886
322.1755, 44.13025
322.6577, 44.79410
323.1398, 45.21569
323.6219, 45.44418
324.1040, 45.72910
324.5861, 46.27511
325.0682, 46.97399
325.5504, 47.26756
326.0325, 46.90532
326.5146, 46.48882
326.9967, 46.25039
327.4788, 46.10888
327.9609, 45.90504
328.4431, 45.57854
328.9252, 45.13062
329.4073, 44.52308
329.8894, 43.60637
330.3715, 42.87281
330.8536, 42.60566
331.3358, 42.50151
331.8179, 42.06715
332.3000, 41.16681
332.7821, 40.29729
333.2642, 40.18337
333.7463, 41.13982
334.2285, 41.72551
334.7106, 41.71598
335.1927, 41.44041
335.6748, 41.11186
336.1569, 40.76905
336.6390, 40.40137
337.1212, 39.98787
337.6033, 39.52516
338.0854, 39.16586
338.5675, 39.18658
339.0496, 39.03333
339.5317, 38.32232
340.0139, 37.19155
340.4960, 36.05566
340.9781, 35.15476
341.4602, 34.44868
341.9423, 33.75399
342.4244, 33.02492
342.9066, 32.36056
343.3887, 31.75876
343.8708, 31.23889
344.3529, 30.85396
344.8350, 30.62764
345.3171, 30.48905
345.7993, 30.30754
346.2814, 30.06611
346.7635, 29.80298
347.2456, 29.36193
347.7277, 28.99628
348.2098, 29.00921
348.6920, 29.40924
349.1741, 29.87363
349.6562, 30.03391
350.1383, 29.81932
350.6204, 29.63425
351.1025, 29.39008
351.5847, 29.24918
352.0668, 29.35409
352.5489, 29.64378
353.0310, 29.94467
353.5131, 30.13399
353.9952, 30.22002
354.4774, 30.28954
354.9595, 30.25892
355.4416, 30.30800
355.9237, 30.45855
356.4058, 30.71278
356.8879, 31.11524
357.3701, 31.68661
357.8522, 32.31405
358.3343, 32.74746
358.8164, 32.97297
359.2985, 32.99080
359.7806, 32.44958
360.2627, 31.94855
360.7448, 32.08442
361.2270, 32.88743
361.7091, 33.80256
362.1912, 34.12843
362.6733, 33.65031
363.1554, 33.54013
363.6375, 33.92873
364.1197, 34.52995
364.6018, 35.38521
365.0839, 36.37123
365.5660, 37.21905
366.0481, 37.70788
366.5302, 37.90198
367.0124, 38.30980
367.4945, 39.18430
367.9766, 39.94988
368.4587, 40.53844
368.9408, 40.94361
369.4229, 41.18512
369.9051, 41.27124
370.3872, 41.14629
370.8693, 40.64797
371.3514, 39.58928
371.8335, 38.63646
372.3156, 37.98070
372.7978, 37.36316
373.2799, 36.61000
373.7620, 35.71087
374.2441, 34.76260
374.7262, 33.79034
375.2083, 32.78117
375.6905, 32.09166
376.1726, 32.01559
376.6547, 31.94098
377.1368, 31.66550
377.6189, 31.19038
378.1010, 30.50919
378.5832, 29.48928
379.0653, 28.35709
379.5474, 27.76569
380.0295, 27.90857
380.5116, 28.08704
380.9937, 28.07625
381.4759, 27.95473
381.9580, 27.77009
382.4401, 27.52454
382.9222, 27.27694
383.4043, 27.09149
383.8864, 26.96737
384.3686, 26.87613
384.8507, 26.89961
385.3328, 26.85247
385.8149, 26.50703
386.2970, 25.90660
386.7791, 25.41745
387.2613, 25.23315
387.7434, 25.30818
388.2255, 25.62806
388.7076, 26.30567
389.1897, 26.83330
389.6718, 26.59207
390.1540, 25.95722
390.6361, 25.71053
391.1182, 26.34544
391.6003, 27.06672
392.0824, 27.02256
392.5645, 26.31002
393.0467, 25.81496
393.5288, 26.00035
394.0109, 26.51036
394.4930, 26.66053
394.9751, 26.36005
395.4572, 26.09811
395.9394, 26.03939
396.4215, 26.14921
396.9036, 26.42136
397.3857, 26.87439
397.8678, 27.32018
398.3499, 27.53702
398.8321, 27.50658
399.3142, 27.57310
399.7963, 27.92258
400.2784, 28.23386
400.7605, 28.16156
401.2426, 27.80728
401.7247, 27.61162
402.2068, 27.83109
402.6890, 28.41631
403.1711, 29.16479
403.6532, 30.30031
404.1353, 31.29498
404.6174, 32.09688
405.0995, 32.69323
405.5817, 33.01112
406.0638, 33.03949
406.5459, 32.94136
407.0280, 32.97025
407.5101, 33.28279
407.9922, 33.18983
408.4744, 32.35995
408.9565, 31.47605
409.4386, 30.93157
409.9207, 30.67156
410.4028, 30.40847
410.8849, 29.92215
411.3671, 29.25849
411.8492, 28.75767
412.3313, 28.52874
412.8134, 28.34277
413.2955, 28.08524
413.7776, 27.89248
414.2598, 27.97568
414.7419, 28.38701
415.2240, 28.87903
415.7061, 29.03079
416.1882, 28.68705
416.6703, 28.54908
417.1525, 28.78370
417.6346, 29.11855
418.1167, 29.48913
418.5988, 29.86447
419.0809, 30.19077
419.5630, 30.42706
420.0452, 30.58706
420.5273, 30.72788
421.0094, 30.83645
421.4915, 30.95262
421.9736, 31.04562
422.4557, 31.17242
422.9379, 31.35869
423.4200, 31.58534
423.9021, 32.01474
424.3842, 32.99574
424.8663, 34.49249
425.3484, 35.62463
425.8306, 36.04949
426.3127, 36.24926
426.7948, 36.69833
427.2769, 37.35054
427.7590, 37.90655
428.2411, 38.12444
428.7233, 38.21905
429.2054, 38.62870
429.6875, 39.40797
430.1696, 39.94045
430.6517, 39.84428
431.1339, 39.19176
431.6160, 38.35558
432.0981, 37.24595
432.5802, 36.09548
433.0623, 34.97835
433.5444, 33.91313
434.0266, 32.91739
434.5087, 31.99515
434.9908, 31.18675
435.4729, 30.56928
435.9550, 30.19360
436.4371, 29.80740
436.9193, 29.36192
437.4014, 28.93619
437.8835, 28.65030
438.3656, 28.45319
438.8477, 28.12519
439.3298, 27.49386
439.8120, 26.64873
440.2941, 26.08891
440.7762, 25.99828
441.2583, 25.97113
441.7404, 26.04588
442.2225, 26.12589
442.7046, 26.11423
443.1867, 25.98805
443.6689, 25.79267
444.1510, 25.58628
444.6331, 25.37477
445.1152, 25.11920
445.5973, 24.65940
446.0794, 24.31662
446.5616, 24.26607
447.0437, 24.41109
447.5258, 24.57319
448.0079, 24.66100
448.4900, 24.68247
448.9721, 24.63648
449.4543, 24.47499
449.9364, 24.38533
450.4185, 24.43746
450.9006, 24.56035
451.3827, 24.78343
451.8648, 25.08487
452.3470, 25.24602
452.8291, 24.95466
453.3112, 24.34655
453.7933, 24.06214
454.2754, 24.24519
454.7575, 24.49150
455.2397, 24.51933
455.7218, 24.42980
456.2039, 24.39105
456.6860, 24.46732
457.1681, 24.56442
457.6502, 24.60926
458.1324, 24.60806
458.6145, 24.58578
459.0966, 24.54362
459.5787, 24.49710
460.0608, 24.46094
460.5429, 24.42919
461.0251, 24.44568
461.5072, 24.61814
461.9893, 24.77344
462.4714, 24.71946
462.9535, 24.47563
463.4356, 24.21087
463.9178, 24.01296
464.3999, 23.90181
464.8820, 23.99077
465.3641, 24.58491
465.8462, 24.97613
466.3283, 24.95092
466.8105, 24.73592
467.2926, 24.50874
467.7747, 24.33937
468.2568, 24.31980
468.7389, 24.60592
469.2210, 25.29101
469.7032, 25.67312
470.1853, 25.52086
470.6674, 25.29907
471.1495, 25.07228
471.6316, 24.88230
472.1137, 24.78895
472.5959, 24.82678
473.0780, 24.92854
473.5601, 24.98797
474.0422, 25.02226
474.5243, 24.93696
475.0064, 24.48641
475.4886, 24.10184
475.9707, 24.16181
476.4528, 24.58564
476.9349, 24.88840
477.4170, 24.60004
477.8991, 24.01812
478.3813, 23.85945
478.8634, 24.18865
479.3455, 24.56772
479.8276, 24.80639
480.3097, 24.94011
480.7918, 25.03086
481.2740, 25.06079
481.7561, 25.10562
482.2382, 25.22984
482.7203, 25.38902
483.2024, 25.51907
483.6845, 25.61006
484.1666, 25.61394
484.6487, 25.45282
485.1309, 25.12070
485.6130, 24.91198
486.0951, 24.91023
486.5772, 24.93455
487.0593, 24.88623
487.5414, 24.81408
488.0236, 24.82984
488.5057, 24.97756
488.9878, 25.16976
489.4699, 25.25130
489.9520, 25.18732
490.4341, 25.09269
490.9163, 24.95815
491.3984, 24.80728
491.8805, 24.61830
492.3626, 24.42329
492.8447, 24.28812
493.3268, 24.25484
493.8090, 24.30945
494.2911, 24.42985
494.7732, 24.66312
495.2553, 24.83361
495.7374, 24.91859
496.2195, 24.91121
496.7017, 24.68906
497.1838, 24.28940
497.6659, 24.07920
498.1480, 24.56633
498.6301, 25.42318
499.1122, 25.64975
499.5944, 25.08064
500.0765, 24.50230
500.5586, 24.38905
501.0407, 24.56046
501.5228, 24.61940
502.0049, 24.46918
502.4871, 24.37291
502.9692, 24.55006
503.4513, 24.84754
503.9334, 24.96564
504.4155, 24.83703
504.8976, 24.65270
505.3798, 24.58495
505.8619, 24.63897
506.3440, 24.79667
506.8261, 25.26360
507.3082, 25.59628
507.7903, 25.57627
508.2725, 25.33317
508.7546, 25.03816
509.2367, 24.76152
509.7188, 24.53980
510.2009, 24.43867
510.6830, 24.48706
511.1652, 24.55838
511.6473, 24.56398
512.1294, 24.68085
512.6115, 25.09656
513.0936, 25.66387
513.5757, 26.08555
514.0579, 26.19171
514.5400, 26.13441
515.0221, 26.21354
515.5042, 26.46104
515.9863, 26.60168
516.4684, 26.53878
516.9506, 26.37555
517.4327, 26.13407
517.9148, 25.84438
518.3969, 25.71061
518.8790, 25.93900
519.3611, 26.30105
519.8433, 26.45132
520.3254, 26.40801
520.8075, 26.51030
521.2896, 26.95695
521.7717, 27.60570
522.2538, 28.11938
522.7360, 28.46070
523.2181, 28.81028
523.7002, 29.25463
524.1823, 29.67883
524.6644, 29.90360
525.1465, 29.97494
525.6287, 30.18637
526.1108, 30.78921
526.5929, 31.65614
527.0750, 32.10674
527.5571, 31.63102
528.0392, 31.45946
528.5214, 31.87262
529.0035, 32.49691
529.4856, 33.09019
529.9677, 33.58788
530.4498, 33.97065
530.9319, 34.14685
531.4141, 34.18030
531.8962, 34.47709
532.3783, 35.09295
532.8604, 35.84318
533.3425, 36.66175
533.8246, 37.56911
534.3068, 38.66645
534.7889, 40.00787
535.2710, 41.24121
535.7531, 41.91327
536.2352, 42.35957
536.7173, 43.40688
537.1995, 45.19908
537.6816, 47.05713
538.1637, 48.46204
538.6458, 49.49333
539.1279, 50.64219
539.6100, 52.12929
540.0922, 53.45860
540.5743, 54.58766
541.0564, 55.44479
541.5385, 55.99841
542.0206, 56.21813
542.5027, 55.97077
542.9849, 55.08085
543.4670, 53.53675
543.9491, 51.86450
544.4312, 50.01184
544.9133, 48.09434
545.3954, 46.08199
545.8775, 44.04683
546.3596, 42.02543
546.8417, 40.03865
547.3239, 38.21349
547.8060, 36.69814
548.2881, 35.48219
548.7702, 34.54665
549.2523, 33.98903
549.7344, 33.50318
550.2166, 32.89363
550.6987, 32.23905
551.1808, 31.65082
551.6629, 31.14066
552.1450, 30.71930
552.6271, 30.40144
553.1093, 30.17443
553.5914, 30.02446
554.0735, 29.95002
554.5556, 29.90915
555.0377, 29.87574
555.5198, 29.84823
556.0020, 29.75618
556.4841, 29.60800
556.9662, 29.39642
557.4483, 28.97761
557.9304, 28.55906
558.4125, 28.44948
558.8947, 28.69307
559.3768, 29.00083
559.8589, 29.01402
560.3410, 28.72083
560.8231, 28.69767
561.3052, 29.35484
561.7874, 29.66993
562.2695, 28.95568
562.7516, 27.93992
563.2337, 27.47191
563.7158, 27.77230
564.1979, 28.39430
564.6801, 29.08780
565.1622, 29.80058
565.6443, 30.33889
566.1264, 30.66294
566.6085, 30.92522
567.0906, 31.20598
567.5728, 31.51057
568.0549, 31.85564
568.5370, 32.32290
569.0191, 32.70256
569.5012, 32.75209
569.9833, 32.75884
570.4655, 33.14297
570.9476, 33.92999
571.4297, 34.77650
571.9118, 35.37162
572.3939, 35.73470
572.8760, 36.07829
573.3582, 36.20841
573.8403, 36.60042
574.3224, 37.56062
574.8045, 38.64080
575.2866, 39.38494
575.7687, 39.77387
576.2509, 40.20512
576.7330, 41.16517
577.2151, 42.44122
577.6972, 43.07990
578.1793, 42.87370
578.6614, 42.94293
579.1436, 44.01712
579.6257, 45.49190
580.1078, 46.44372
580.5899, 46.77387
581.0720, 47.08846
581.5541, 47.50233
582.0363, 48.08638
582.5184, 49.05332
583.0005, 50.32693
583.4826, 51.43339
583.9647, 52.04692
584.4468, 52.40834
584.9290, 53.23473
585.4111, 55.00624
585.8932, 56.50690
586.3753, 57.81438
586.8574, 58.81063
587.3395, 59.27934
587.8217, 59.36777
588.3038, 59.50161
588.7859, 59.99388
589.2680, 60.51943
