##NAMES=Fourmarierite
##RRUFFID=R100187
##IDEAL CHEMISTRY=Pb^2+^_1-x_O_3-2x_(U^6+^O_2_)_4_(OH)_4+2x_&#183;4H_2_O
##LOCALITY=Shinkolobwe mine, Kasolo, Katanga, Congo
##OWNER=RRUFF
##SOURCE=James Shigley
##DESCRIPTION=Orange-yellow blocky to tabular crystals
##STATUS=The identification of this mineral has been confirmed by single-crystal X-ray diffraction.
##URL=rruff.info/R100187
161.4766, 110.7667
161.9587, 111.1212
162.4408, 111.6294
162.9229, 112.6440
163.4050, 113.6298
163.8871, 114.0177
164.3693, 113.6039
164.8514, 112.7067
165.3335, 112.0920
165.8156, 112.1225
166.2977, 111.9317
166.7798, 111.1877
167.2620, 110.2083
167.7441, 109.4517
168.2262, 109.1041
168.7083, 109.1278
169.1904, 109.4981
169.6725, 110.5387
170.1547, 111.2928
170.6368, 111.2903
171.1189, 110.6700
171.6010, 109.8466
172.0831, 108.8128
172.5652, 107.8594
173.0474, 107.5415
173.5295, 108.2183
174.0116, 108.8454
174.4937, 108.3903
174.9758, 106.8555
175.4579, 105.6799
175.9401, 105.7755
176.4222, 106.4359
176.9043, 106.9411
177.3864, 107.1714
177.8685, 107.2055
178.3506, 107.0370
178.8328, 106.5250
179.3149, 106.3315
179.7970, 107.1752
180.2791, 108.2037
180.7612, 108.6218
181.2433, 108.0943
181.7255, 107.0164
182.2076, 106.2156
182.6897, 105.7884
183.1718, 105.4919
183.6539, 105.3875
184.1360, 105.3154
184.6181, 105.0991
185.1003, 104.6469
185.5824, 104.0291
186.0645, 103.4869
186.5466, 102.8249
187.0287, 102.5180
187.5108, 103.0127
187.9930, 103.7894
188.4751, 104.1311
188.9572, 103.6093
189.4393, 102.4381
189.9214, 101.8236
190.4035, 102.1110
190.8857, 102.5706
191.3678, 103.3235
191.8499, 104.1422
192.3320, 104.6424
192.8141, 104.5652
193.2962, 103.9932
193.7784, 103.5538
194.2605, 103.4279
194.7426, 103.2120
195.2247, 102.6241
195.7068, 101.8061
196.1889, 101.1652
196.6711, 100.9625
197.1532, 101.1466
197.6353, 101.3461
198.1174, 101.6498
198.5995, 101.8884
199.0816, 101.9915
199.5638, 101.9575
200.0459, 101.7711
200.5280, 101.3681
201.0101, 100.8084
201.4922, 100.2968
201.9743, 99.75802
202.4565, 99.34926
202.9386, 99.24803
203.4207, 99.46086
203.9028, 99.73823
204.3849, 99.95446
204.8670, 100.1545
205.3492, 100.4315
205.8313, 100.9198
206.3134, 101.3385
206.7955, 101.2957
207.2776, 100.7149
207.7597, 100.0258
208.2419, 98.90960
208.7240, 97.97524
209.2061, 98.02381
209.6882, 99.54673
210.1703, 101.6725
210.6524, 102.8692
211.1346, 102.8170
211.6167, 102.6127
212.0988, 102.4814
212.5809, 102.4348
213.0630, 102.5087
213.5451, 102.7286
214.0273, 103.0287
214.5094, 103.2953
214.9915, 103.6712
215.4736, 103.7164
215.9557, 103.1826
216.4378, 102.4143
216.9200, 101.6453
217.4021, 100.9682
217.8842, 100.5286
218.3663, 100.8034
218.8484, 102.6239
219.3305, 103.9716
219.8127, 104.6073
220.2948, 104.7052
220.7769, 104.3306
221.2590, 103.5121
221.7411, 102.4745
222.2232, 101.8809
222.7054, 101.9980
223.1875, 102.3062
223.6696, 103.0917
224.1517, 103.9413
224.6338, 104.2633
225.1159, 103.7896
225.5980, 102.9054
226.0802, 102.7355
226.5623, 104.5881
227.0444, 105.6003
227.5265, 104.9470
228.0086, 103.5124
228.4907, 102.3378
228.9729, 101.8461
229.4550, 101.9582
229.9371, 102.5554
230.4192, 104.1921
230.9013, 105.4250
231.3834, 105.9403
231.8656, 105.9363
232.3477, 105.5842
232.8298, 104.8860
233.3119, 104.1203
233.7940, 103.9497
234.2761, 104.4965
234.7583, 105.1565
235.2404, 106.0685
235.7225, 106.9537
236.2046, 107.2141
236.6867, 106.5168
237.1688, 105.4687
237.6510, 105.2488
238.1331, 106.0035
238.6152, 106.4926
239.0973, 105.9905
239.5794, 104.9471
240.0615, 104.3751
240.5437, 104.6524
241.0258, 105.2494
241.5079, 105.3972
241.9900, 105.0949
242.4721, 104.9717
242.9542, 105.4497
243.4364, 106.3082
243.9185, 106.9954
244.4006, 107.4123
244.8827, 107.6106
245.3648, 107.6650
245.8469, 107.5826
246.3290, 107.3194
246.8112, 106.7027
247.2933, 105.8759
247.7754, 105.2727
248.2575, 105.0017
248.7396, 104.8848
249.2217, 104.7950
249.7039, 104.7308
250.1860, 104.6918
250.6681, 104.7345
251.1502, 104.8123
251.6323, 104.7491
252.1144, 104.5122
252.5966, 104.1621
253.0787, 103.6816
253.5608, 103.1299
254.0429, 102.6350
254.5250, 102.2824
255.0071, 102.0461
255.4893, 101.8216
255.9714, 101.5977
256.4535, 101.4099
256.9356, 101.3039
257.4177, 101.2344
257.8998, 101.1267
258.3820, 100.9359
258.8641, 100.6797
259.3462, 100.4277
259.8283, 100.2281
260.3104, 99.94490
260.7925, 99.46532
261.2747, 98.90740
261.7568, 98.44554
262.2389, 98.18739
262.7210, 98.03422
263.2031, 97.61198
263.6852, 96.40207
264.1674, 95.86454
264.6495, 96.91028
265.1316, 98.45804
265.6137, 99.25518
266.0958, 98.72745
266.5779, 97.50848
267.0601, 97.19626
267.5422, 98.68994
268.0243, 99.45666
268.5064, 98.56676
268.9885, 97.20768
269.4706, 96.48363
269.9528, 96.77291
270.4349, 97.56557
270.9170, 97.88447
271.3991, 97.45679
271.8812, 97.06468
272.3633, 96.39626
272.8455, 96.00163
273.3276, 96.66805
273.8097, 98.43442
274.2918, 100.2554
274.7739, 100.3649
275.2560, 97.39169
275.7382, 95.62805
276.2202, 95.55064
276.7024, 96.04688
277.1845, 96.58775
277.6666, 97.01067
278.1487, 97.27976
278.6308, 97.33501
279.1129, 97.10571
279.5951, 96.89865
280.0772, 96.56336
280.5593, 96.36790
281.0414, 96.61215
281.5235, 97.19112
282.0056, 97.65827
282.4878, 97.53395
282.9699, 96.67564
283.4520, 96.26797
283.9341, 96.54330
284.4162, 96.96748
284.8983, 97.39377
285.3805, 97.79450
285.8626, 98.19839
286.3447, 98.65522
286.8268, 99.15736
287.3089, 99.27321
287.7910, 98.62512
288.2732, 98.03095
288.7553, 97.92349
289.2374, 98.02946
289.7195, 97.72137
290.2016, 96.56037
290.6837, 94.80724
291.1659, 93.92255
291.6480, 94.49875
292.1301, 95.24731
292.6122, 96.26061
293.0943, 97.24956
293.5764, 97.75151
294.0586, 97.54136
294.5407, 96.91870
295.0228, 96.69509
295.5049, 97.36929
295.9870, 97.84929
296.4691, 98.04643
296.9513, 98.05335
297.4334, 97.92527
297.9155, 97.68751
298.3976, 97.41733
298.8797, 97.24955
299.3618, 97.29278
299.8440, 97.23344
300.3261, 96.85902
300.8082, 96.51627
301.2903, 96.50397
301.7724, 96.86929
302.2545, 97.44509
302.7367, 98.07861
303.2188, 98.85203
303.7009, 99.28488
304.1830, 99.38186
304.6651, 99.17724
305.1472, 98.42472
305.6294, 97.27945
306.1115, 96.38017
306.5936, 96.30338
307.0757, 97.10182
307.5578, 97.85249
308.0399, 98.99936
308.5221, 99.68520
309.0042, 99.16726
309.4863, 97.83863
309.9684, 96.75454
310.4505, 96.63150
310.9326, 97.29563
311.4148, 97.53480
311.8969, 97.05587
312.3790, 96.56552
312.8611, 96.24409
313.3432, 96.01865
313.8253, 95.71397
314.3075, 95.23675
314.7896, 94.73771
315.2717, 94.61422
315.7538, 95.12566
316.2359, 95.64376
316.7180, 96.29546
317.2001, 96.85447
317.6823, 97.05070
318.1644, 96.81027
318.6465, 96.27149
319.1286, 95.57801
319.6107, 94.40659
320.0928, 93.97255
320.5750, 95.04926
321.0571, 96.30608
321.5392, 96.61328
322.0213, 95.90981
322.5034, 95.02134
322.9855, 94.80828
323.4677, 95.42077
323.9498, 95.57527
324.4319, 95.13943
324.9140, 94.44920
325.3961, 93.27642
325.8782, 91.92522
326.3604, 91.23801
326.8425, 91.90491
327.3246, 93.76503
327.8067, 94.99277
328.2888, 95.59173
328.7709, 95.66800
329.2531, 94.83302
329.7352, 93.56111
330.2173, 92.59593
330.6994, 92.29406
331.1815, 92.47025
331.6636, 92.62734
332.1458, 92.67235
332.6279, 92.81833
333.1100, 93.28793
333.5921, 93.75404
334.0742, 93.80373
334.5563, 93.34853
335.0385, 92.75329
335.5206, 92.55933
336.0027, 92.96749
336.4848, 93.28687
336.9669, 93.60523
337.4490, 93.78176
337.9312, 93.68958
338.4133, 93.34730
338.8954, 92.85809
339.3775, 92.26382
339.8596, 91.51126
340.3417, 91.32935
340.8239, 92.11252
341.3060, 92.97005
341.7881, 93.68530
342.2702, 94.23159
342.7523, 94.60779
343.2344, 94.80702
343.7166, 94.84921
344.1987, 94.82813
344.6808, 94.73856
345.1629, 94.58081
345.6450, 94.14268
346.1271, 93.72319
346.6093, 93.69395
347.0914, 94.18130
347.5735, 94.96634
348.0556, 95.64689
348.5377, 96.27127
349.0198, 96.68445
349.5020, 96.90722
349.9841, 96.94211
350.4662, 96.69801
350.9483, 96.22145
351.4304, 95.72280
351.9125, 95.44013
352.3947, 95.41344
352.8768, 95.33973
353.3589, 95.15503
353.8410, 94.98735
354.3231, 94.84739
354.8052, 94.76022
355.2874, 94.77927
355.7695, 94.95927
356.2516, 95.25674
356.7337, 95.41869
357.2158, 95.26242
357.6979, 95.21952
358.1800, 95.44707
358.6621, 95.78617
359.1443, 96.09719
359.6264, 96.32693
360.1085, 96.43121
360.5906, 96.27036
361.0727, 95.63885
361.5548, 95.28822
362.0370, 95.84329
362.5191, 96.27274
363.0012, 95.75842
363.4833, 94.32866
363.9654, 92.79018
364.4475, 91.99275
364.9297, 91.98783
365.4118, 91.85545
365.8939, 91.50074
366.3760, 91.11227
366.8581, 90.71815
367.3402, 90.35061
367.8224, 90.08470
368.3045, 90.02715
368.7866, 90.05221
369.2687, 89.70455
369.7508, 88.68266
370.2329, 87.96993
370.7151, 88.18356
371.1972, 88.70641
371.6793, 88.98050
372.1614, 88.85022
372.6435, 88.40939
373.1256, 87.64673
373.6078, 86.52634
374.0899, 85.63444
374.5720, 85.27524
375.0541, 85.02982
375.5362, 84.58926
376.0183, 83.95617
376.5005, 83.29813
376.9826, 82.48051
377.4647, 81.68912
377.9468, 81.80736
378.4289, 83.41590
378.9110, 84.75395
379.3932, 84.12483
379.8753, 82.43004
380.3574, 81.41387
380.8395, 82.11204
381.3216, 83.26952
381.8037, 83.21451
382.2859, 81.92018
382.7680, 80.75007
383.2501, 80.31609
383.7322, 80.35480
384.2143, 80.36535
384.6964, 80.29103
385.1786, 80.36059
385.6607, 80.88945
386.1428, 81.66665
386.6249, 82.09267
387.1070, 81.96346
387.5891, 81.63944
388.0713, 81.57191
388.5534, 81.73272
389.0355, 81.72601
389.5176, 81.23425
389.9997, 80.68668
390.4818, 80.54078
390.9640, 80.80591
391.4461, 81.20078
391.9282, 81.61298
392.4103, 81.98240
392.8924, 82.05122
393.3745, 81.21221
393.8567, 80.75794
394.3388, 81.55312
394.8209, 83.05074
395.3030, 84.19603
395.7851, 84.60236
396.2672, 84.51574
396.7494, 84.33236
397.2315, 83.92561
397.7136, 83.73955
398.1957, 83.82544
398.6778, 84.11552
399.1599, 84.69117
399.6420, 85.48278
400.1241, 86.14945
400.6063, 86.37089
401.0884, 86.13354
401.5705, 85.93365
402.0526, 85.75208
402.5347, 85.62340
403.0168, 85.56892
403.4990, 85.57315
403.9811, 85.60407
404.4632, 85.64561
404.9453, 85.72456
405.4274, 85.93098
405.9095, 86.53801
406.3917, 86.79044
406.8738, 86.37194
407.3559, 85.84440
407.8380, 85.64260
408.3201, 85.78979
408.8022, 85.97802
409.2844, 85.85985
409.7665, 85.40036
410.2486, 85.20463
410.7307, 85.53003
411.2128, 85.85307
411.6949, 85.95034
412.1771, 85.95634
412.6592, 86.13811
413.1413, 86.66560
413.6234, 87.30791
414.1055, 87.50244
414.5876, 87.04121
415.0698, 86.77001
415.5519, 87.05132
416.0340, 87.48518
416.5161, 87.88769
416.9982, 88.21542
417.4803, 88.34973
417.9625, 88.09135
418.4446, 87.50771
418.9267, 87.06770
419.4088, 86.87047
419.8909, 86.70104
420.3730, 86.45628
420.8552, 86.13792
421.3373, 85.71877
421.8194, 85.01005
422.3015, 84.38204
422.7836, 84.31804
423.2657, 84.81383
423.7479, 85.51963
424.2300, 86.47395
424.7121, 87.40388
425.1942, 87.91659
425.6763, 87.97670
426.1584, 87.83384
426.6406, 87.43668
427.1227, 86.95021
427.6048, 86.68550
428.0869, 86.70406
428.5690, 86.77505
429.0511, 86.61925
429.5333, 86.25991
430.0154, 86.31813
430.4975, 87.24730
430.9796, 88.17008
431.4617, 88.63565
431.9438, 88.70017
432.4260, 88.54000
432.9081, 88.22944
433.3902, 87.77283
433.8723, 87.15733
434.3544, 86.00200
434.8365, 85.34268
435.3187, 85.44186
435.8008, 85.89651
436.2829, 86.55424
436.7650, 87.29201
437.2471, 87.79128
437.7292, 87.69756
438.2114, 86.98631
438.6935, 86.65107
439.1756, 87.24019
439.6577, 87.59849
440.1398, 87.21152
440.6219, 86.51967
441.1040, 86.11453
441.5862, 86.24626
442.0683, 86.74064
442.5504, 87.39668
443.0325, 88.46738
443.5146, 88.92155
443.9967, 87.93193
444.4789, 86.92277
444.9610, 86.62287
445.4431, 86.99073
445.9252, 87.60120
446.4073, 88.18931
446.8894, 88.77357
447.3716, 89.47258
447.8537, 90.41003
448.3358, 91.14807
448.8179, 91.48672
449.3000, 91.52984
449.7821, 91.30819
450.2643, 90.78050
450.7464, 90.21281
451.2285, 89.81493
451.7106, 89.56951
452.1927, 89.38265
452.6748, 89.18839
453.1570, 89.14839
453.6391, 89.50274
454.1212, 90.17687
454.6033, 90.89795
455.0854, 91.84483
455.5675, 92.63124
456.0497, 92.81879
456.5318, 92.47864
457.0139, 92.06692
457.4960, 91.79350
457.9781, 91.62260
458.4602, 91.44759
458.9424, 91.17227
459.4245, 91.08400
459.9066, 91.46739
460.3887, 91.93161
460.8708, 92.03362
461.3529, 91.73283
461.8351, 91.33526
462.3172, 91.12947
462.7993, 91.12540
463.2814, 91.03728
463.7635, 90.75249
464.2456, 90.51841
464.7278, 90.20484
465.2099, 90.04192
465.6920, 90.50921
466.1741, 91.76572
466.6562, 93.16521
467.1383, 93.54053
467.6205, 92.49166
468.1026, 91.66738
468.5847, 91.28464
469.0668, 90.99071
469.5489, 90.60108
470.0310, 90.16795
470.5132, 89.88157
470.9953, 89.91825
471.4774, 90.12238
471.9595, 90.06275
472.4416, 89.65783
472.9237, 89.29703
473.4059, 89.24010
473.8880, 89.21409
474.3701, 88.83371
474.8522, 88.03517
475.3343, 87.55037
475.8164, 88.42245
476.2986, 89.90896
476.7807, 89.92751
477.2628, 87.99920
477.7449, 85.95181
478.2270, 85.18782
478.7091, 85.46505
479.1913, 85.62972
479.6734, 85.68841
480.1555, 85.55367
480.6376, 85.01979
481.1197, 84.27548
481.6018, 83.73950
482.0839, 83.55598
482.5660, 83.51675
483.0482, 83.34311
483.5303, 83.01385
484.0124, 82.59495
484.4945, 81.91403
484.9766, 81.31113
485.4587, 81.07897
485.9409, 81.07159
486.4230, 80.90142
486.9051, 80.33796
487.3872, 79.54312
487.8693, 79.00817
488.3514, 78.95487
488.8336, 78.73682
489.3157, 78.19207
489.7978, 77.58643
490.2799, 77.05539
490.7620, 76.62946
491.2441, 76.33786
491.7263, 76.34688
492.2084, 76.50332
492.6905, 75.99732
493.1726, 74.58570
493.6547, 73.10046
494.1368, 71.56775
494.6190, 70.29662
495.1011, 69.79712
495.5832, 70.25979
496.0653, 70.67933
496.5474, 70.07690
497.0295, 68.82101
497.5117, 68.13939
497.9938, 68.34878
498.4759, 68.54024
498.9580, 67.79715
499.4401, 66.34161
499.9222, 65.40727
500.4044, 65.51704
500.8865, 65.69680
501.3686, 65.35803
501.8507, 64.73527
502.3328, 64.34659
502.8149, 64.37617
503.2971, 64.54289
503.7792, 64.44320
504.2613, 63.97551
504.7434, 63.59283
505.2255, 63.40744
505.7076, 63.18801
506.1898, 62.92218
506.6719, 62.52653
507.1540, 61.75048
507.6361, 60.43208
508.1182, 58.98299
508.6003, 58.45380
509.0825, 59.29346
509.5646, 59.84748
510.0467, 59.84916
510.5288, 59.61770
511.0109, 59.23103
511.4930, 58.74469
511.9752, 58.27750
512.4573, 57.92568
512.9394, 57.62768
513.4215, 57.27345
513.9036, 56.88017
514.3857, 56.28270
514.8679, 55.11367
515.3500, 53.93744
515.8321, 53.61120
516.3142, 54.27441
516.7963, 54.64750
517.2784, 53.90880
517.7606, 52.68299
518.2427, 51.80489
518.7248, 51.34882
519.2069, 51.07190
519.6890, 50.81591
520.1711, 50.60685
520.6533, 50.59175
521.1354, 50.76537
521.6175, 51.10231
522.0996, 52.00144
522.5817, 52.83118
523.0638, 52.79802
523.5460, 51.87283
524.0281, 50.76574
524.5102, 50.16101
524.9923, 50.04449
525.4744, 49.86055
525.9565, 49.55671
526.4387, 49.25275
526.9208, 48.94959
527.4029, 48.66923
527.8850, 48.49868
528.3671, 48.44387
528.8492, 48.27393
529.3314, 47.51396
529.8135, 46.28322
530.2956, 45.89045
530.7777, 46.86118
531.2598, 47.73170
531.7419, 47.13144
532.2241, 45.92607
532.7062, 45.63223
533.1883, 47.05279
533.6704, 48.34350
534.1525, 48.07422
534.6346, 46.75388
535.1168, 45.44073
535.5989, 44.33680
536.0810, 43.67144
536.5631, 43.81145
537.0452, 44.80601
537.5273, 45.30965
538.0095, 44.87174
538.4916, 44.49424
538.9737, 44.70377
539.4558, 45.15449
539.9379, 45.33906
540.4200, 45.08853
540.9022, 44.52892
541.3843, 43.71524
541.8664, 42.46621
542.3485, 42.00026
542.8306, 43.17597
543.3127, 44.23305
543.7948, 44.75820
544.2769, 44.77008
544.7590, 44.20948
545.2411, 42.98276
545.7233, 41.69624
546.2054, 41.14220
546.6875, 41.27795
547.1696, 41.52997
547.6517, 41.87873
548.1339, 42.20034
548.6160, 42.34791
549.0981, 42.37936
549.5802, 42.45779
550.0623, 42.66482
550.5444, 42.87071
551.0266, 43.10023
551.5087, 43.25732
551.9908, 43.07249
552.4729, 42.45507
552.9550, 41.65774
553.4371, 40.96526
553.9193, 40.36054
554.4014, 39.97864
554.8835, 39.92240
555.3656, 39.94031
555.8477, 39.99827
556.3298, 40.05328
556.8120, 40.06803
557.2941, 40.02646
557.7762, 39.90635
558.2583, 39.58897
558.7404, 39.00840
559.2225, 38.81543
559.7047, 39.31875
560.1868, 39.83929
560.6689, 40.19498
561.1510, 40.32262
561.6331, 40.02821
562.1152, 39.07141
562.5974, 38.19854
563.0795, 38.41961
563.5616, 39.34473
564.0437, 39.43483
564.5258, 38.25286
565.0079, 36.80312
565.4901, 35.86926
565.9722, 35.49318
566.4543, 35.60394
566.9364, 36.79016
567.4185, 37.78711
567.9006, 37.98442
568.3828, 37.74908
568.8649, 37.55308
569.3470, 37.54123
569.8291, 37.69146
570.3112, 38.01753
570.7933, 38.54284
571.2755, 38.84178
571.7576, 38.80657
572.2397, 38.66506
572.7218, 38.29414
573.2039, 37.93776
573.6860, 38.01245
574.1682, 38.59966
574.6503, 39.00286
575.1324, 38.29264
575.6145, 36.78491
576.0966, 35.89045
576.5787, 35.74652
577.0609, 36.04457
577.5430, 36.95632
578.0251, 38.06989
578.5072, 38.35012
578.9893, 37.27187
579.4714, 36.49994
579.9536, 37.00408
580.4357, 37.98706
580.9178, 38.58228
581.3999, 38.64256
581.8820, 38.21293
582.3641, 37.23919
582.8463, 35.87738
583.3284, 35.02612
583.8105, 34.88017
584.2926, 35.00114
584.7747, 35.68789
585.2568, 36.36365
585.7390, 36.43776
586.2211, 36.01328
586.7032, 35.78298
587.1853, 36.37042
587.6674, 37.41114
588.1495, 37.85569
588.6317, 37.60579
589.1138, 37.37811
589.5959, 37.47641
590.0780, 37.62220
590.5601, 37.41953
591.0422, 36.87563
591.5244, 36.51817
592.0065, 36.46658
592.4886, 36.70198
592.9707, 37.51172
593.4528, 38.63717
593.9349, 39.19813
594.4171, 38.77562
594.8992, 37.81791
595.3813, 37.06715
595.8634, 36.46595
596.3455, 36.26894
596.8276, 36.94610
597.3098, 37.47627
597.7919, 37.13888
598.2740, 36.43633
598.7561, 36.33319
599.2382, 37.24658
599.7203, 38.41176
600.2025, 38.72801
600.6846, 38.22393
601.1667, 37.93377
601.6488, 38.02543
602.1309, 38.20879
602.6130, 38.30641
603.0952, 38.35263
603.5773, 38.42677
604.0594, 38.62681
604.5415, 38.69029
605.0236, 38.35653
605.5057, 37.85006
605.9879, 37.50062
606.4700, 37.36478
606.9521, 37.36573
607.4342, 37.45842
607.9163, 37.62617
608.3984, 37.74541
608.8806, 37.81614
609.3627, 37.83113
609.8448, 37.79110
610.3269, 37.69585
610.8090, 37.32578
611.2911, 36.83758
611.7733, 36.88591
612.2554, 38.22422
612.7375, 40.13462
613.2196, 40.82587
613.7017, 40.17999
614.1838, 39.60127
614.6660, 39.57900
615.1481, 39.70750
615.6302, 39.37047
616.1123, 38.61272
616.5944, 38.31836
617.0765, 39.35471
617.5587, 40.26049
618.0408, 39.68355
618.5229, 38.26578
619.0050, 37.43560
619.4871, 37.69330
619.9692, 38.61985
620.4514, 39.75317
620.9335, 41.20061
621.4156, 42.05924
621.8977, 41.77348
622.3798, 41.53541
622.8619, 41.75364
623.3441, 42.12675
623.8262, 42.34325
624.3083, 42.32313
624.7904, 42.06272
625.2725, 41.19499
625.7546, 40.12168
626.2367, 40.19169
626.7188, 41.58539
627.2009, 42.75222
627.6830, 42.76159
628.1652, 42.14048
628.6473, 42.14103
629.1294, 42.97954
629.6115, 43.61634
630.0936, 43.89959
630.5757, 43.93425
631.0579, 43.67016
631.5400, 43.22677
632.0221, 42.79936
632.5042, 42.47929
632.9863, 42.40388
633.4684, 42.99836
633.9506, 44.53709
634.4327, 45.35209
634.9148, 44.71267
635.3969, 44.15326
635.8790, 44.67828
636.3611, 45.72280
636.8433, 46.22949
637.3254, 45.74119
637.8075, 45.30928
638.2896, 45.90777
638.7717, 47.03254
639.2538, 47.76058
639.7360, 47.95723
640.2181, 47.74424
640.7002, 47.07309
641.1823, 46.17599
641.6644, 46.00261
642.1465, 47.44927
642.6287, 48.39879
643.1108, 48.52850
643.5929, 48.41313
644.0750, 48.29628
644.5571, 48.27380
645.0392, 48.45777
645.5214, 48.92437
646.0035, 49.57752
646.4856, 50.43093
646.9677, 51.48142
647.4498, 51.82865
647.9319, 51.04446
648.4141, 50.07617
648.8962, 49.47586
649.3783, 49.31432
649.8604, 49.91757
650.3425, 52.12923
650.8246, 53.99475
651.3068, 54.63833
651.7889, 54.56520
652.2710, 54.05586
652.7531, 53.35637
653.2352, 53.27134
653.7173, 54.56234
654.1995, 56.74704
654.6816, 57.71087
655.1637, 56.80572
655.6458, 56.22421
656.1279, 56.69199
656.6100, 57.25843
657.0922, 57.12020
657.5743, 56.57943
658.0564, 56.76862
658.5385, 58.63898
