##NAMES=Fourmarierite
##RRUFFID=R100187
##IDEAL CHEMISTRY=Pb^2+^_1-x_O_3-2x_(U^6+^O_2_)_4_(OH)_4+2x_&#183;4H_2_O
##LOCALITY=Shinkolobwe mine, Kasolo, Katanga, Congo
##OWNER=RRUFF
##SOURCE=James Shigley
##DESCRIPTION=Orange-yellow blocky to tabular crystals
##STATUS=The identification of this mineral has been confirmed by single-crystal X-ray diffraction.
##URL=rruff.info/R100187
174.9236, 86.46621
175.4057, 85.99224
175.8878, 86.03873
176.3699, 86.58321
176.8520, 88.26990
177.3341, 90.46297
177.8163, 91.77283
178.2984, 90.53916
178.7805, 88.43874
179.2626, 88.35062
179.7447, 90.47401
180.2268, 92.72079
180.7090, 92.63435
181.1911, 90.86136
181.6732, 89.38130
182.1553, 89.47785
182.6374, 90.43962
183.1195, 90.59318
183.6017, 89.76074
184.0838, 88.93253
184.5659, 89.54602
185.0480, 91.30956
185.5301, 92.77788
186.0123, 92.92374
186.4944, 92.19955
186.9765, 92.09405
187.4586, 92.75845
187.9407, 93.65471
188.4228, 93.89570
188.9050, 93.55763
189.3871, 93.48011
189.8692, 94.03985
190.3513, 95.19698
190.8334, 97.06065
191.3155, 99.90628
191.7977, 102.7294
192.2798, 103.7667
192.7619, 103.0287
193.2440, 101.9481
193.7261, 101.2442
194.2082, 100.8773
194.6904, 100.2118
195.1725, 99.03543
195.6546, 97.89433
196.1367, 98.18624
196.6188, 100.0497
197.1009, 101.5251
197.5831, 101.1910
198.0652, 99.05593
198.5473, 97.83582
199.0294, 97.89727
199.5115, 98.62488
199.9937, 98.78262
200.4758, 98.31457
200.9579, 97.64062
201.4400, 96.91328
201.9221, 96.11457
202.4042, 95.42673
202.8864, 94.71422
203.3685, 94.25658
203.8506, 95.00069
204.3327, 97.28955
204.8148, 99.35674
205.2969, 100.2744
205.7791, 99.97726
206.2612, 98.91720
206.7433, 96.80492
207.2254, 94.18479
207.7075, 92.29161
208.1896, 90.98828
208.6718, 90.78918
209.1539, 92.49973
209.6360, 96.78454
210.1181, 99.38245
210.6002, 99.50871
211.0823, 98.12707
211.5645, 98.08643
212.0466, 99.95129
212.5287, 101.8280
213.0108, 102.5876
213.4929, 101.8714
213.9750, 101.5042
214.4572, 101.7107
214.9393, 102.2777
215.4214, 102.5760
215.9035, 102.5288
216.3856, 102.3688
216.8678, 102.1293
217.3499, 101.6144
217.8320, 101.7094
218.3141, 102.7875
218.7962, 104.4003
219.2783, 105.0949
219.7605, 104.5797
220.2426, 103.6611
220.7247, 102.5604
221.2068, 100.7834
221.6889, 100.3272
222.1710, 101.8172
222.6532, 104.5579
223.1353, 106.3406
223.6174, 106.9785
224.0995, 107.0086
224.5816, 106.5050
225.0637, 104.8129
225.5459, 104.3463
226.0280, 105.7791
226.5101, 108.3525
226.9922, 109.6085
227.4743, 108.8056
227.9564, 107.8741
228.4386, 107.7364
228.9207, 108.6286
229.4028, 109.8021
229.8849, 111.6003
230.3670, 113.5866
230.8492, 114.5332
231.3313, 114.0347
231.8134, 113.1012
232.2955, 112.0446
232.7776, 110.4276
233.2597, 109.8219
233.7419, 110.7606
234.2240, 112.5719
234.7061, 113.4400
235.1882, 112.9211
235.6703, 112.1455
236.1524, 111.5326
236.6346, 110.9830
237.1167, 110.8963
237.5988, 111.6427
238.0809, 112.7201
238.5630, 112.8865
239.0451, 111.5582
239.5273, 110.1891
240.0094, 109.3641
240.4915, 109.2481
240.9736, 109.2344
241.4557, 109.2749
241.9378, 109.4338
242.4200, 109.9257
242.9021, 111.2176
243.3842, 112.1163
243.8663, 112.0590
244.3484, 110.5724
244.8306, 109.5921
245.3127, 109.5111
245.7948, 109.7374
246.2769, 109.0358
246.7590, 106.5536
247.2411, 104.6119
247.7233, 104.1724
248.2054, 105.7712
248.6875, 106.8640
249.1696, 107.2522
249.6517, 107.2620
250.1338, 107.4376
250.6160, 107.9658
251.0981, 108.3195
251.5802, 108.2402
252.0623, 107.5643
252.5444, 107.3616
253.0265, 107.9950
253.5087, 108.8064
253.9908, 108.7480
254.4729, 107.2449
254.9550, 106.0465
255.4371, 105.7367
255.9192, 106.4543
256.4014, 106.9675
256.8835, 107.3139
257.3656, 107.4173
257.8477, 107.1519
258.3298, 106.3651
258.8120, 105.5484
259.2941, 104.8329
259.7762, 104.2277
260.2583, 103.4883
260.7404, 102.5241
261.2225, 101.5262
261.7047, 100.6425
262.1868, 99.81590
262.6689, 99.25925
263.1510, 99.10725
263.6331, 99.34367
264.1152, 99.34270
264.5974, 99.06239
265.0795, 98.60716
265.5616, 97.93520
266.0437, 96.74868
266.5258, 96.35574
267.0079, 97.29983
267.4901, 99.36597
267.9722, 100.5309
268.4543, 100.6335
268.9364, 100.1881
269.4185, 99.46898
269.9006, 98.32552
270.3828, 97.62286
270.8649, 97.70152
271.3470, 98.29874
271.8291, 97.94288
272.3112, 96.14988
272.7933, 94.65803
273.2755, 95.16830
273.7576, 98.15072
274.2397, 99.78079
274.7218, 99.26829
275.2039, 97.30215
275.6860, 95.88686
276.1682, 95.03152
276.6503, 94.64246
277.1324, 94.92674
277.6145, 95.98519
278.0966, 96.22836
278.5787, 95.21714
279.0609, 93.70862
279.5430, 93.49462
280.0251, 94.76418
280.5072, 96.19039
280.9893, 97.24385
281.4715, 97.91750
281.9536, 97.75772
282.4357, 96.51787
282.9178, 94.88045
283.3999, 93.91195
283.8820, 93.61770
284.3642, 93.85832
284.8463, 94.81070
285.3284, 96.39385
285.8105, 97.66987
286.2926, 98.65474
286.7747, 99.27827
287.2569, 99.38949
287.7390, 98.99673
288.2211, 98.35098
288.7032, 97.44175
289.1853, 96.34413
289.6674, 95.28930
290.1496, 94.23347
290.6317, 93.46578
291.1138, 93.42991
291.5959, 94.04472
292.0780, 94.75705
292.5602, 95.57400
293.0423, 96.30325
293.5244, 96.25809
294.0065, 95.40524
294.4886, 94.57150
294.9707, 94.65374
295.4529, 95.41323
295.9350, 95.98817
296.4171, 96.14382
296.8992, 96.00808
297.3813, 95.71437
297.8634, 95.28052
298.3456, 94.89330
298.8277, 94.72208
299.3098, 94.70376
299.7919, 94.70095
300.2740, 94.67568
300.7561, 94.67313
301.2383, 94.70110
301.7204, 94.78233
302.2025, 95.02177
302.6846, 95.77026
303.1667, 96.63880
303.6488, 96.96858
304.1310, 96.51883
304.6131, 95.95348
305.0952, 95.96841
305.5773, 96.40398
306.0594, 96.82737
306.5415, 96.96369
307.0237, 96.99637
307.5058, 97.15922
307.9879, 97.50061
308.4700, 97.77505
308.9521, 97.80840
309.4343, 97.64518
309.9164, 97.36876
310.3985, 96.58369
310.8806, 95.98969
311.3627, 96.29323
311.8448, 97.53614
312.3270, 98.75536
312.8091, 99.50240
313.2912, 99.86297
313.7733, 99.93836
314.2554, 99.32117
314.7375, 98.81086
315.2197, 98.91274
315.7018, 99.56458
316.1839, 100.2152
316.6660, 100.6749
317.1481, 100.9998
317.6302, 101.2328
318.1124, 101.4151
318.5945, 101.4732
319.0766, 101.0590
319.5587, 100.4236
320.0408, 100.4245
320.5229, 102.3716
321.0051, 104.2989
321.4872, 104.9631
321.9693, 103.0920
322.4514, 101.9806
322.9335, 103.2160
323.4156, 105.5850
323.8978, 106.7497
324.3799, 104.9167
324.8620, 103.0256
325.3441, 102.1289
325.8262, 102.5620
326.3083, 103.1910
326.7905, 104.0951
327.2726, 105.1004
327.7547, 105.9807
328.2368, 107.2406
328.7189, 107.8463
329.2010, 107.2939
329.6832, 105.4237
330.1653, 104.2267
330.6474, 103.8989
331.1295, 104.1043
331.6116, 104.6054
332.0938, 105.6981
332.5759, 106.6292
333.0580, 107.3727
333.5401, 107.9048
334.0222, 107.9413
334.5043, 107.1187
334.9865, 106.3017
335.4686, 106.0139
335.9507, 106.4161
336.4328, 106.9623
336.9149, 107.8196
337.3970, 108.7149
337.8792, 108.8688
338.3613, 108.1349
338.8434, 107.0870
339.3255, 105.7412
339.8076, 103.9298
340.2898, 103.2492
340.7719, 104.0259
341.2540, 105.3624
341.7361, 105.8017
342.2182, 105.2068
342.7003, 104.9749
343.1825, 105.7897
343.6646, 107.4460
344.1467, 108.5111
344.6288, 108.9469
345.1109, 109.0295
345.5930, 108.9764
346.0752, 108.7945
346.5573, 108.5047
347.0394, 107.9254
347.5215, 107.3982
348.0036, 107.8407
348.4857, 109.2318
348.9679, 110.7417
349.4500, 111.9772
349.9321, 112.8710
350.4142, 113.1157
350.8963, 112.4793
351.3784, 111.6725
351.8606, 111.6635
352.3427, 112.2972
352.8248, 113.0052
353.3069, 113.6568
353.7890, 114.1139
354.2711, 113.9987
354.7533, 113.1944
355.2354, 112.6291
355.7175, 113.2117
356.1996, 114.5710
356.6817, 116.0590
357.1638, 117.7101
357.6460, 119.1627
358.1281, 120.0186
358.6102, 120.3209
359.0923, 120.6796
359.5744, 121.4527
360.0565, 122.4387
360.5387, 123.4489
361.0208, 124.4980
361.5029, 125.4832
361.9850, 126.3965
362.4671, 127.2144
362.9492, 127.8478
363.4314, 128.2863
363.9135, 128.5183
364.3956, 128.4003
364.8777, 127.4635
365.3598, 127.2698
365.8419, 128.6118
366.3241, 130.7877
366.8062, 132.7411
367.2883, 134.7230
367.7704, 136.0851
368.2526, 136.4142
368.7347, 135.4468
369.2168, 134.9619
369.6989, 135.3346
370.1810, 135.9811
370.6631, 136.4183
371.1453, 136.3823
371.6274, 136.5460
372.1095, 137.1736
372.5916, 138.1336
373.0737, 138.5194
373.5558, 138.1422
374.0380, 137.4769
374.5201, 136.7757
375.0022, 136.0883
375.4843, 135.1861
375.9664, 133.9287
376.4485, 132.5699
376.9307, 131.6111
377.4128, 131.1285
377.8949, 130.7773
378.3770, 130.7212
378.8591, 130.8923
379.3412, 129.4323
379.8234, 125.9400
380.3055, 122.2745
380.7876, 120.9510
381.2697, 121.8040
381.7518, 122.0252
382.2339, 120.5748
382.7161, 118.2627
383.1982, 116.9981
383.6803, 116.7635
384.1624, 116.7434
384.6445, 116.2960
385.1266, 115.6077
385.6088, 115.1558
386.0909, 115.0438
386.5730, 115.0821
387.0551, 115.2849
387.5372, 115.5006
388.0193, 115.2895
388.5015, 114.0082
388.9836, 112.4026
389.4657, 111.1658
389.9478, 110.3308
390.4299, 109.9793
390.9120, 110.4644
391.3942, 111.3713
391.8763, 112.1895
392.3584, 113.1781
392.8405, 113.6191
393.3226, 112.6510
393.8047, 110.6344
394.2869, 109.2182
394.7690, 109.6359
395.2511, 110.4504
395.7332, 110.7766
396.2154, 110.3021
396.6975, 109.7031
397.1796, 108.9079
397.6617, 108.1049
398.1438, 107.6195
398.6259, 107.4268
399.1081, 107.6121
399.5902, 108.4228
400.0723, 110.0408
400.5544, 110.9932
401.0365, 110.9423
401.5186, 110.4726
402.0008, 110.0379
402.4829, 109.5805
402.9650, 109.2580
403.4471, 109.0987
403.9292, 109.0863
404.4113, 109.1238
404.8935, 109.1266
405.3756, 109.3700
405.8577, 110.2214
406.3398, 111.8728
406.8219, 112.5099
407.3040, 111.8157
407.7862, 110.6802
408.2683, 110.5027
408.7504, 111.3192
409.2325, 111.9376
409.7146, 111.8681
410.1967, 111.3167
410.6789, 110.9576
411.1610, 110.7977
411.6431, 110.6826
412.1252, 110.3094
412.6073, 109.8630
413.0894, 109.9732
413.5716, 110.9514
414.0537, 112.0965
414.5358, 112.4791
415.0179, 112.2822
415.5000, 112.1186
415.9821, 112.2867
416.4643, 112.6726
416.9464, 113.2405
417.4285, 113.9997
417.9106, 114.6599
418.3927, 114.9456
418.8748, 115.0536
419.3570, 115.2133
419.8391, 115.9831
420.3212, 116.3580
420.8033, 115.5701
421.2854, 113.9011
421.7675, 112.6608
422.2497, 112.5128
422.7318, 112.7028
423.2139, 112.7903
423.6960, 112.4310
424.1781, 112.6194
424.6602, 113.9446
425.1424, 115.7544
425.6245, 117.0950
426.1066, 117.9877
426.5887, 118.3456
427.0709, 117.9184
427.5530, 116.7063
428.0351, 116.0493
428.5172, 116.2686
428.9993, 116.5914
429.4814, 116.3541
429.9636, 115.2678
430.4457, 114.7663
430.9278, 115.0882
431.4099, 115.9351
431.8920, 116.8609
432.3741, 117.9631
432.8563, 118.4317
433.3384, 117.5408
433.8205, 115.5562
434.3026, 114.2878
434.7847, 113.7477
435.2668, 113.7477
435.7490, 114.4301
436.2311, 115.5631
436.7132, 116.3087
437.1953, 116.4529
437.6774, 116.1019
438.1595, 114.9692
438.6417, 113.3179
439.1238, 112.2380
439.6059, 112.8461
440.0880, 114.1251
440.5701, 115.1290
441.0522, 115.7940
441.5344, 115.9065
442.0165, 114.4755
442.4986, 112.6931
442.9807, 112.0302
443.4628, 114.7079
443.9449, 116.8953
444.4271, 116.6579
444.9092, 114.4215
445.3913, 112.6970
445.8734, 112.1447
446.3555, 112.2548
446.8376, 112.8279
447.3198, 114.0559
447.8019, 115.3519
448.2840, 116.9605
448.7661, 118.5099
449.2482, 119.4796
449.7303, 119.7612
450.2125, 119.6114
450.6946, 118.9248
451.1767, 117.7566
451.6588, 116.9389
452.1409, 116.4594
452.6230, 116.3420
453.1052, 116.6705
453.5873, 117.4763
454.0694, 118.3614
454.5515, 119.3055
455.0337, 120.2904
455.5158, 121.3640
455.9979, 122.5120
456.4800, 123.3807
456.9621, 123.7097
457.4442, 123.6954
457.9264, 123.8442
458.4085, 124.1460
458.8906, 124.3284
459.3727, 123.9529
459.8548, 123.3642
460.3369, 123.1174
460.8191, 123.3556
461.3012, 123.9000
461.7833, 124.8610
462.2654, 126.0160
462.7475, 126.8977
463.2296, 127.3196
463.7118, 127.4101
464.1939, 126.8863
464.6760, 125.7142
465.1581, 125.4327
465.6402, 127.1712
466.1223, 129.5789
466.6045, 131.6900
467.0866, 133.8214
467.5687, 135.0813
468.0508, 134.8560
468.5329, 133.7910
469.0150, 133.3306
469.4972, 133.8530
469.9793, 134.4126
470.4614, 134.7063
470.9435, 134.7173
471.4256, 134.8438
471.9077, 135.1614
472.3899, 135.4485
472.8720, 135.2919
473.3541, 134.5868
473.8362, 134.9226
474.3183, 136.9375
474.8004, 139.4387
475.2826, 139.6442
475.7647, 137.7366
476.2468, 136.3146
476.7289, 137.3277
477.2110, 139.6423
477.6931, 140.6552
478.1753, 140.3528
478.6574, 139.7432
479.1395, 139.2175
479.6216, 139.0364
480.1037, 139.7650
480.5858, 142.2619
481.0680, 144.3604
481.5501, 144.1234
482.0322, 142.4212
482.5143, 141.0637
482.9964, 140.8731
483.4786, 141.0928
483.9607, 141.6199
484.4428, 142.4961
484.9249, 142.7167
485.4070, 141.2737
485.8892, 139.6167
486.3713, 138.7900
486.8534, 139.5504
487.3355, 140.0410
487.8176, 140.0176
488.2997, 139.7656
488.7819, 139.9653
489.2640, 140.9366
489.7461, 141.6227
490.2282, 141.5881
490.7103, 140.8834
491.1924, 140.3608
491.6746, 139.9917
492.1567, 139.9001
492.6388, 140.5508
493.1209, 141.7803
493.6030, 141.9978
494.0851, 140.8231
494.5673, 139.0592
495.0494, 137.5392
495.5315, 136.3400
496.0136, 135.7946
496.4957, 137.0059
496.9778, 138.3804
497.4600, 137.6570
497.9421, 135.0783
498.4242, 133.0680
498.9063, 133.8471
499.3884, 135.3824
499.8705, 135.8601
500.3527, 134.5534
500.8348, 133.0999
501.3169, 132.0621
501.7990, 131.2473
502.2811, 130.3772
502.7632, 128.7674
503.2454, 127.7995
503.7275, 128.2786
504.2096, 129.9879
504.6917, 130.5170
505.1738, 129.3510
505.6559, 127.7086
506.1381, 126.1499
506.6202, 124.6218
507.1023, 123.4514
507.5844, 122.7668
508.0665, 122.2145
508.5486, 121.2677
509.0308, 119.9096
509.5129, 118.7224
509.9950, 117.9239
510.4771, 117.3084
510.9592, 116.3574
511.4413, 115.1113
511.9235, 113.9403
512.4056, 113.1846
512.8877, 112.6115
513.3698, 111.8816
513.8519, 110.9683
514.3340, 109.9081
514.8162, 108.6519
515.2983, 107.2926
515.7804, 105.9177
516.2625, 104.1805
516.7446, 102.9086
517.2267, 102.9868
517.7089, 103.8034
518.1910, 103.8508
518.6731, 102.1897
519.1552, 100.2874
519.6373, 98.47914
520.1194, 96.69369
520.6016, 95.67728
521.0837, 95.87660
521.5658, 96.35548
522.0479, 96.35362
522.5300, 95.56526
523.0121, 95.52834
523.4943, 96.68727
523.9764, 98.18034
524.4585, 98.32853
524.9406, 97.10172
525.4227, 95.84352
525.9048, 95.01971
526.3870, 94.50591
526.8691, 94.03153
527.3513, 93.58819
527.8334, 93.08286
528.3155, 92.33192
528.7976, 91.51329
529.2797, 90.94308
529.7618, 90.70840
530.2440, 90.39385
530.7261, 89.44971
531.2082, 88.33279
531.6903, 87.64471
532.1724, 88.07541
532.6545, 88.43062
533.1367, 88.10997
533.6188, 87.36197
534.1009, 87.06773
534.5830, 87.92136
535.0651, 88.71291
535.5472, 89.13108
536.0294, 89.20972
536.5115, 88.58309
536.9936, 86.74367
537.4757, 84.90871
537.9578, 84.16917
538.4399, 84.69149
538.9221, 85.24911
539.4042, 85.76931
539.8863, 86.19416
540.3684, 86.47784
540.8505, 86.60836
541.3326, 86.43881
541.8148, 85.87437
542.2969, 84.99808
542.7790, 83.53172
543.2611, 81.63899
543.7432, 80.55321
544.2253, 81.92119
544.7075, 84.08858
545.1896, 85.40809
545.6717, 85.61899
546.1538, 85.18608
546.6359, 83.70425
547.1180, 81.96178
547.6002, 80.81591
548.0823, 80.84275
548.5644, 81.04549
549.0465, 81.39809
549.5286, 81.80579
550.0107, 81.97739
550.4929, 81.65977
550.9750, 81.49180
551.4571, 81.74992
551.9392, 82.43826
552.4213, 82.91752
552.9034, 83.25417
553.3856, 83.18948
553.8677, 82.29270
554.3498, 80.65401
554.8319, 79.35726
555.3140, 78.51598
555.7961, 78.00829
556.2783, 77.83152
556.7604, 77.87892
557.2425, 77.83573
557.7246, 77.39125
558.2067, 77.01111
558.6888, 77.43062
559.1710, 78.36478
559.6531, 78.83591
560.1352, 77.72498
560.6173, 76.51391
561.0994, 76.22994
561.5815, 77.09743
562.0637, 77.60471
562.5458, 77.29604
563.0279, 76.62125
563.5100, 75.87456
563.9921, 74.62338
564.4742, 74.15085
564.9564, 75.00407
565.4385, 76.23984
565.9206, 76.10837
566.4027, 74.31583
566.8848, 72.59486
567.3669, 71.32581
567.8491, 70.54546
568.3312, 70.54166
568.8133, 71.29192
569.2954, 72.26633
569.7775, 73.45969
570.2596, 74.54674
570.7418, 74.67024
571.2239, 73.74931
571.7060, 72.98071
572.1881, 73.57936
572.6702, 74.68867
573.1523, 75.38220
573.6345, 75.39876
574.1166, 75.01574
574.5987, 73.75461
575.0808, 72.27689
575.5629, 71.66707
576.0450, 73.48786
576.5272, 74.63408
577.0093, 74.25414
577.4914, 72.61375
577.9735, 71.36524
578.4556, 70.40105
578.9377, 70.08186
579.4199, 70.96389
579.9020, 73.07810
580.3841, 73.76589
580.8662, 72.81644
581.3483, 71.57720
581.8304, 71.46892
582.3126, 72.20695
582.7947, 72.84256
583.2768, 73.24069
583.7589, 73.36915
584.2410, 73.22105
584.7231, 72.77492
585.2053, 71.98858
585.6874, 70.14778
586.1696, 68.60556
586.6517, 68.20824
587.1338, 68.77100
587.6159, 69.44743
588.0980, 70.12714
588.5801, 70.77563
589.0623, 71.42306
589.5444, 72.11340
590.0265, 72.50680
590.5086, 72.49676
590.9907, 72.32700
591.4728, 72.15233
591.9550, 71.95881
592.4371, 71.89296
592.9192, 72.00917
593.4013, 72.15840
593.8834, 71.96806
594.3655, 71.54062
594.8477, 71.57288
595.3298, 72.56441
595.8119, 73.77393
596.2940, 74.27418
596.7761, 74.14892
597.2582, 73.69564
597.7404, 72.53135
598.2225, 71.50835
598.7046, 71.47231
599.1867, 72.44744
599.6688, 72.96609
600.1509, 71.87166
600.6331, 70.70439
601.1152, 70.50300
601.5973, 71.89363
602.0794, 72.81870
602.5615, 73.09682
603.0436, 73.07487
603.5258, 73.13069
604.0079, 73.28956
604.4900, 73.34738
604.9721, 73.16661
605.4542, 73.02274
605.9363, 73.84812
606.4185, 75.46353
606.9006, 76.30244
607.3827, 75.00559
607.8648, 72.91264
608.3469, 72.00656
608.8290, 72.12411
609.3112, 72.39725
609.7933, 72.20525
610.2754, 72.04060
610.7575, 72.44581
611.2396, 73.59840
611.7217, 74.27195
612.2039, 73.71906
612.6860, 72.80468
613.1681, 72.13871
613.6502, 71.22702
614.1323, 71.57486
614.6144, 74.08009
615.0966, 77.06803
615.5787, 77.91898
616.0608, 76.23982
616.5429, 74.91991
617.0250, 74.74464
617.5071, 75.19218
617.9893, 75.07094
618.4714, 74.44912
618.9535, 73.86440
619.4356, 73.70778
619.9177, 73.67934
620.3998, 73.27198
620.8820, 72.54606
621.3641, 72.07584
621.8462, 72.07087
622.3283, 72.51762
622.8104, 73.58198
623.2925, 75.57560
623.7747, 77.00134
624.2568, 77.11620
624.7389, 76.84653
625.2210, 76.96217
625.7031, 77.80770
626.1852, 78.27052
626.6674, 78.22523
627.1495, 77.84512
627.6316, 77.25257
628.1137, 76.42104
628.5958, 76.07355
629.0779, 76.59575
629.5601, 77.51851
630.0422, 77.84734
630.5243, 77.71036
631.0064, 77.72441
631.4885, 78.63167
631.9706, 79.57810
632.4528, 79.63295
632.9349, 78.84574
633.4170, 78.09428
633.8991, 77.60036
634.3812, 77.38467
634.8633, 77.44383
635.3455, 77.75944
635.8276, 78.48106
636.3097, 80.21278
636.7918, 81.79012
637.2739, 81.98555
637.7560, 80.17519
638.2382, 79.64014
638.7203, 81.01134
639.2024, 83.02500
639.6845, 83.61056
640.1666, 82.96025
640.6487, 82.67223
641.1309, 83.40960
641.6130, 84.48335
642.0951, 85.00498
642.5772, 85.07719
643.0594, 84.96579
643.5415, 84.44801
644.0236, 84.09551
644.5057, 84.42276
644.9879, 85.34712
645.4700, 85.99441
645.9521, 86.00556
646.4342, 85.83718
646.9163, 85.59023
647.3984, 85.16948
647.8806, 85.36293
648.3627, 86.36437
648.8448, 87.62292
649.3269, 88.92467
649.8090, 90.26517
650.2911, 90.69444
650.7733, 90.04675
651.2554, 88.95577
651.7375, 87.52176
652.2196, 86.24871
652.7017, 86.55501
653.1838, 89.63841
653.6660, 92.81802
654.1481, 94.01625
654.6302, 93.86850
655.1123, 93.50769
655.5944, 92.44568
656.0765, 92.13133
656.5587, 93.76868
657.0408, 96.72996
657.5229, 98.01919
658.0050, 96.45861
658.4871, 95.20949
658.9692, 95.60157
659.4514, 97.41650
659.9335, 98.05315
660.4156, 97.36972
660.8977, 96.66541
661.3798, 96.97913
661.8619, 97.98030
662.3441, 98.77679
662.8262, 99.31213
663.3083, 99.87508
663.7904, 100.6216
664.2725, 101.5568
664.7546, 102.7896
665.2368, 104.6291
665.7189, 105.9817
666.2010, 106.3895
666.6831, 106.1799
667.1652, 105.6492
667.6473, 103.7907
668.1295, 103.4031
668.6116, 105.2877
669.0937, 108.2981
669.5758, 110.1506
670.0579, 110.7505
670.5400, 111.2056
671.0222, 111.8220
671.5043, 112.5086
671.9864, 112.9059
