##NAMES=Franciscanite
##RRUFFID=R060056
##IDEAL CHEMISTRY=Mn^2+^_6_(V^5+^[box])(SiO_4_)_2_O_3_(OH)_3_
##LOCALITY=Pennsylvania mine, Santa Clara County, California, USA
##OWNER=RRUFF
##SOURCE=Marcus Origlieri
##DESCRIPTION=Black to deep red granular massive
##STATUS=The identification of this mineral has been confirmed by X-ray diffraction and chemical analysis
##URL=rruff.info/R060056
##MEASURED CHEMISTRY=Mn^2+^_6.00_(V^5+^_0.86_Fe^3+^_0.10_Ti_0.04_)_Î£=1_(Si_1.00_O_4_)_2_((OH)_3.24_O_2.76_)_6_
110.0098, 208.0174
110.4919, 213.1086
110.9740, 220.9019
111.4561, 231.9829
111.9382, 244.0682
112.4203, 256.2281
112.9025, 268.4564
113.3846, 280.7029
113.8667, 293.3739
114.3488, 305.8561
114.8309, 317.2017
115.3130, 327.0813
115.7952, 335.9967
116.2773, 345.0699
116.7594, 354.9104
117.2415, 363.1334
117.7236, 367.7556
118.2057, 370.6915
118.6879, 374.1517
119.1700, 379.4455
119.6521, 386.3355
120.1342, 392.9083
120.6163, 398.4647
121.0984, 404.3940
121.5805, 411.0568
122.0627, 418.3459
122.5448, 426.0400
123.0269, 434.0515
123.5090, 442.5745
123.9911, 450.0198
124.4732, 456.3367
124.9554, 461.8975
125.4375, 467.0320
125.9196, 471.6907
126.4017, 475.5053
126.8838, 478.0753
127.3659, 479.1923
127.8481, 478.9274
128.3302, 476.9911
128.8123, 473.7918
129.2944, 469.2562
129.7765, 463.0667
130.2586, 456.8261
130.7408, 453.0934
131.2229, 451.6478
131.7050, 451.4599
132.1871, 452.8096
132.6692, 455.2838
133.1513, 457.6451
133.6335, 460.9115
134.1156, 462.2287
134.5977, 459.8721
135.0798, 453.8315
135.5619, 443.4005
136.0440, 426.9184
136.5262, 403.5676
137.0083, 379.4703
137.4904, 354.2090
137.9725, 329.8546
138.4546, 307.6864
138.9367, 288.1617
139.4189, 271.3788
139.9010, 257.7806
140.3831, 248.5905
140.8652, 240.9710
141.3473, 234.6128
141.8294, 229.2961
142.3116, 224.7591
142.7937, 220.8264
143.2758, 217.7320
143.7579, 216.4511
144.2400, 218.8357
144.7221, 221.1923
145.2043, 222.9931
145.6864, 224.4252
146.1685, 225.8765
146.6506, 227.6236
147.1327, 229.6270
147.6148, 231.3442
148.0969, 232.6606
148.5791, 233.8733
149.0612, 234.9413
149.5433, 235.9462
150.0254, 237.2674
150.5075, 239.2760
150.9896, 241.9433
151.4718, 244.4037
151.9539, 246.6965
152.4360, 248.7556
152.9181, 250.6390
153.4002, 252.3834
153.8823, 253.6344
154.3645, 254.1471
154.8466, 253.9571
155.3287, 252.8161
155.8108, 250.7307
156.2929, 247.6243
156.7750, 243.3575
157.2572, 237.9746
157.7393, 231.1080
158.2214, 221.8809
158.7035, 211.1811
159.1856, 201.0256
159.6677, 192.9250
160.1499, 186.7767
160.6320, 180.4392
161.1141, 172.7726
161.5962, 166.1499
162.0783, 161.8218
162.5604, 159.4124
163.0426, 157.7272
163.5247, 155.5919
164.0068, 152.7918
164.4889, 150.7312
164.9710, 150.0445
165.4531, 149.5060
165.9353, 148.4704
166.4174, 146.9512
166.8995, 145.4623
167.3816, 144.7408
167.8637, 145.5016
168.3458, 145.0372
168.8279, 142.5006
169.3101, 139.4836
169.7922, 137.1981
170.2743, 135.8830
170.7564, 134.8665
171.2385, 133.1647
171.7206, 130.5889
172.2028, 127.6316
172.6849, 123.9563
173.1670, 120.0404
173.6491, 116.4937
174.1312, 113.5142
174.6133, 110.7349
175.0955, 107.4208
175.5776, 103.4137
176.0597, 99.79275
176.5418, 97.02583
177.0239, 94.86886
177.5060, 92.70185
177.9882, 90.26637
178.4703, 87.89335
178.9524, 85.95665
179.4345, 84.44501
179.9166, 83.24663
180.3987, 82.48221
180.8809, 82.08110
181.3630, 81.44667
181.8451, 80.08585
182.3272, 78.73488
182.8093, 78.08241
183.2914, 78.20612
183.7736, 78.57848
184.2557, 78.65930
184.7378, 78.38484
185.2199, 78.32347
185.7020, 78.86769
186.1841, 79.51114
186.6663, 79.96104
187.1484, 80.15605
187.6305, 80.23474
188.1126, 80.39014
188.5947, 80.65932
189.0768, 80.90379
189.5589, 80.99887
190.0411, 81.13021
190.5232, 81.43968
191.0053, 81.96867
191.4874, 82.64314
191.9695, 83.30421
192.4516, 83.71285
192.9338, 84.54364
193.4159, 86.19374
193.8980, 88.04732
194.3801, 89.61932
194.8622, 90.72720
195.3443, 91.42448
195.8265, 91.84107
196.3086, 91.71190
196.7907, 91.57858
197.2728, 91.14207
197.7549, 90.80849
198.2370, 91.20145
198.7192, 92.60506
199.2013, 94.52620
199.6834, 95.59008
200.1655, 95.50359
200.6476, 95.06905
201.1297, 94.09381
201.6119, 92.89122
202.0940, 92.00874
202.5761, 91.72028
203.0582, 91.80060
203.5403, 91.60590
204.0224, 90.78475
204.5046, 90.39966
204.9867, 91.06052
205.4688, 92.47366
205.9509, 93.89085
206.4330, 95.02370
206.9151, 95.97036
207.3973, 96.81468
207.8794, 97.28088
208.3615, 98.32091
208.8436, 100.5375
209.3257, 103.8292
209.8078, 107.7159
210.2899, 112.2826
210.7721, 117.1768
211.2542, 121.7423
211.7363, 125.7638
212.2184, 130.2106
212.7005, 136.2277
213.1826, 143.8365
213.6648, 150.8845
214.1469, 156.0881
214.6290, 160.9012
215.1111, 166.5778
215.5932, 173.3380
216.0753, 180.4678
216.5575, 187.4400
217.0396, 194.2845
217.5217, 200.5703
218.0038, 205.2911
218.4859, 209.9654
218.9680, 215.7227
219.4502, 222.7671
219.9323, 230.0489
220.4144, 236.0771
220.8965, 240.2968
221.3786, 245.1570
221.8607, 251.2110
222.3429, 257.8121
222.8250, 264.6079
223.3071, 271.5389
223.7892, 278.6766
224.2713, 286.2397
224.7534, 294.6203
225.2356, 302.5025
225.7177, 309.1622
226.1998, 315.8634
226.6819, 323.6918
227.1640, 332.7535
227.6461, 342.1364
228.1283, 350.3445
228.6104, 356.9162
229.0925, 363.1032
229.5746, 368.3658
230.0567, 373.6505
230.5388, 379.8463
231.0210, 387.0641
231.5031, 394.6014
231.9852, 401.6315
232.4673, 408.8776
232.9494, 413.6696
233.4315, 415.4394
233.9137, 415.3809
234.3958, 414.3569
234.8779, 412.5730
235.3600, 409.7407
235.8421, 405.4214
236.3242, 399.0802
236.8064, 392.1569
237.2885, 384.4147
237.7706, 376.2115
238.2527, 367.6883
238.7348, 358.8957
239.2169, 350.2083
239.6991, 342.1640
240.1812, 334.8260
240.6633, 327.8524
241.1454, 321.0915
241.6275, 314.7521
242.1096, 309.1910
242.5918, 304.4951
243.0739, 299.9106
243.5560, 294.5911
244.0381, 288.4450
244.5202, 282.5360
245.0023, 277.2001
245.4845, 271.9918
245.9666, 266.3500
246.4487, 260.1691
246.9308, 254.0704
247.4129, 248.8634
247.8950, 244.4046
248.3772, 239.5227
248.8593, 233.6791
249.3414, 227.4833
249.8235, 221.6584
250.3056, 216.2788
250.7877, 211.0721
251.2698, 205.8035
251.7520, 200.5569
252.2341, 195.5618
252.7162, 190.8816
253.1983, 186.4793
253.6804, 182.3908
254.1625, 178.6069
254.6447, 175.1043
255.1268, 172.0966
255.6089, 169.3326
256.0910, 166.3127
256.5731, 162.4551
257.0552, 158.5936
257.5374, 156.0561
258.0195, 155.1102
258.5016, 154.1305
258.9837, 151.9973
259.4658, 149.3410
259.9479, 146.8649
260.4301, 144.7979
260.9122, 142.9207
261.3943, 140.9135
261.8764, 138.7115
262.3585, 136.6409
262.8406, 134.8067
263.3228, 133.2022
263.8049, 132.0003
264.2870, 131.3999
264.7691, 130.7163
265.2512, 128.7350
265.7333, 125.0260
266.2155, 122.0792
266.6976, 121.3879
267.1797, 121.3959
267.6618, 120.9997
268.1439, 119.9266
268.6260, 118.7317
269.1082, 118.1806
269.5903, 118.4333
270.0724, 118.4859
270.5545, 118.0821
271.0366, 117.4329
271.5187, 116.5091
272.0009, 115.3440
272.4830, 114.2655
272.9651, 113.8052
273.4472, 114.1693
273.9293, 113.9676
274.4114, 112.4602
274.8936, 110.7703
275.3757, 109.3710
275.8578, 108.3141
276.3399, 107.3982
276.8220, 106.4772
277.3041, 105.5755
277.7863, 104.5207
278.2684, 103.1758
278.7505, 101.7731
279.2326, 100.4449
279.7147, 99.15289
280.1968, 97.73118
280.6789, 95.96376
281.1610, 93.82240
281.6432, 92.06405
282.1253, 91.04515
282.6074, 90.09161
283.0895, 88.90099
283.5716, 87.61334
284.0537, 86.58887
284.5359, 86.15498
285.0180, 86.23318
285.5001, 85.90477
285.9822, 84.66982
286.4643, 83.57297
286.9464, 82.67567
287.4286, 82.10564
287.9107, 82.14964
288.3928, 83.05571
288.8749, 84.50587
289.3570, 85.04399
289.8391, 83.46398
290.3213, 82.53176
290.8034, 83.18916
291.2855, 84.49602
291.7676, 85.36207
292.2497, 85.28298
292.7318, 84.59522
293.2140, 84.13548
293.6961, 83.85931
294.1782, 83.93210
294.6603, 84.72000
295.1424, 85.63312
295.6245, 86.00700
296.1067, 85.67848
296.5888, 85.20076
297.0709, 85.62016
297.5530, 87.81200
298.0351, 89.21387
298.5172, 89.45111
298.9994, 89.27280
299.4815, 88.96635
299.9636, 88.69527
300.4457, 88.75256
300.9278, 89.63365
301.4099, 91.88225
301.8921, 93.14968
302.3742, 92.71590
302.8563, 92.10963
303.3384, 92.10811
303.8205, 92.70284
304.3026, 93.45160
304.7848, 93.94427
305.2669, 94.15343
305.7490, 94.43088
306.2311, 95.04108
306.7132, 95.45328
307.1953, 95.32706
307.6775, 94.85286
308.1596, 94.49029
308.6417, 94.60003
309.1238, 95.09784
309.6059, 95.08215
310.0880, 93.89004
310.5702, 92.88752
311.0523, 92.11916
311.5344, 91.73705
312.0165, 92.08960
312.4986, 93.39357
312.9807, 95.19209
313.4629, 96.03474
313.9450, 94.79640
314.4271, 93.99478
314.9092, 94.04397
315.3913, 94.47240
315.8734, 94.82452
316.3556, 94.94319
316.8377, 94.96546
317.3198, 95.16094
317.8019, 95.78816
318.2840, 96.10260
318.7661, 95.71495
319.2483, 95.32896
319.7304, 95.58332
320.2125, 96.48795
320.6946, 97.45882
321.1767, 97.80592
321.6588, 97.39035
322.1409, 96.86690
322.6230, 96.33904
323.1052, 95.63069
323.5873, 94.67529
324.0694, 93.46124
324.5515, 91.93980
325.0336, 89.95451
325.5157, 87.51229
325.9979, 86.03763
326.4800, 86.68501
326.9621, 87.08678
327.4442, 86.47662
327.9263, 85.24818
328.4084, 84.08450
328.8906, 83.36871
329.3727, 83.04116
329.8548, 82.86504
330.3369, 82.69783
330.8190, 82.91289
331.3011, 84.01832
331.7833, 85.29405
332.2654, 85.89876
332.7475, 85.54571
333.2296, 84.77833
333.7117, 84.66986
334.1938, 85.84090
334.6760, 86.47668
335.1581, 86.09480
335.6402, 85.57007
336.1223, 85.62206
336.6044, 86.27348
337.0865, 86.91985
337.5687, 86.85567
338.0508, 85.93592
338.5329, 84.98093
339.0150, 83.82582
339.4971, 82.79491
339.9792, 81.91827
340.4614, 81.27238
340.9435, 81.04424
341.4256, 81.48804
341.9077, 82.50183
342.3898, 82.81517
342.8719, 81.98850
343.3541, 80.88815
343.8362, 79.35353
344.3183, 77.75590
344.8004, 76.57977
345.2825, 76.07080
345.7646, 76.04771
346.2468, 76.07317
346.7289, 76.24030
347.2110, 76.27250
347.6931, 76.21175
348.1752, 75.98296
348.6573, 75.26791
349.1395, 74.07697
349.6216, 73.13024
350.1037, 73.70898
350.5858, 76.51205
351.0679, 78.06328
351.5500, 77.36076
352.0322, 76.03932
352.5143, 74.56728
352.9964, 73.09704
353.4785, 71.75191
353.9606, 70.60461
354.4427, 69.66263
354.9249, 69.04797
355.4070, 69.08448
355.8891, 69.04588
356.3712, 68.72484
356.8533, 68.16084
357.3354, 67.38443
357.8176, 66.34748
358.2997, 65.22185
358.7818, 64.43341
359.2639, 64.02998
359.7460, 63.84661
360.2281, 63.95782
360.7103, 64.18463
361.1924, 64.37617
361.6745, 64.49318
362.1566, 64.61148
362.6387, 64.83279
363.1208, 65.16835
363.6029, 65.46844
364.0851, 65.46748
364.5672, 65.66531
365.0493, 66.48616
365.5314, 67.84872
366.0135, 69.24131
366.4956, 70.22113
366.9778, 70.90520
367.4599, 71.87147
367.9420, 73.25524
368.4241, 74.69578
368.9062, 75.76865
369.3883, 76.77208
369.8705, 78.31124
370.3526, 80.91060
370.8347, 83.83494
371.3168, 85.90603
371.7989, 86.99904
372.2810, 88.25343
372.7632, 90.29538
373.2453, 92.67714
373.7274, 94.74757
374.2095, 96.31252
374.6916, 98.17582
375.1737, 101.2283
375.6559, 105.1964
376.1380, 108.7678
376.6201, 111.6624
377.1022, 114.0563
377.5843, 115.9403
378.0664, 117.3828
378.5486, 119.1680
379.0307, 121.9484
379.5128, 125.0911
379.9949, 127.6297
380.4770, 129.4631
380.9591, 130.9975
381.4413, 132.0562
381.9234, 133.0773
382.4055, 135.5186
382.8876, 141.1873
383.3697, 146.6918
383.8518, 149.3332
384.3340, 149.7359
384.8161, 150.4676
385.2982, 152.6946
385.7803, 155.7553
386.2624, 158.1890
386.7445, 160.0189
387.2267, 161.4299
387.7088, 162.4481
388.1909, 163.0932
388.6730, 163.1370
389.1551, 162.5315
389.6372, 162.1489
390.1194, 163.1218
390.6015, 165.7904
391.0836, 167.3345
391.5657, 167.3290
392.0478, 166.5883
392.5299, 165.3255
393.0121, 163.7104
393.4942, 162.1595
393.9763, 160.9649
394.4584, 160.0010
394.9405, 158.5714
395.4226, 156.3715
395.9048, 154.1324
396.3869, 151.5913
396.8690, 149.2130
397.3511, 147.7353
397.8332, 147.3476
398.3153, 147.2634
398.7975, 146.2613
399.2796, 143.8890
399.7617, 141.6916
400.2438, 139.6215
400.7259, 137.7369
401.2080, 136.1327
401.6902, 134.7604
402.1723, 133.5125
402.6544, 132.3295
403.1365, 131.1914
403.6186, 129.8267
404.1007, 127.5043
404.5828, 125.8647
405.0649, 125.6564
405.5471, 126.1037
406.0292, 126.3925
406.5113, 126.1997
406.9934, 125.5354
407.4755, 124.2409
407.9576, 121.9033
408.4398, 120.2069
408.9219, 119.5056
409.4040, 119.3187
409.8861, 119.6691
410.3682, 120.3950
410.8503, 120.9801
411.3325, 120.8059
411.8146, 120.0442
412.2967, 120.0515
412.7788, 121.1532
413.2609, 122.5012
413.7430, 123.8503
414.2252, 125.1567
414.7073, 126.3322
415.1894, 127.3055
415.6715, 128.2573
416.1536, 129.5498
416.6357, 131.2174
417.1179, 132.5217
417.6000, 133.1932
418.0821, 133.4420
418.5642, 133.2812
419.0463, 132.7234
419.5284, 132.6673
420.0106, 134.2542
420.4927, 136.5799
420.9748, 137.4882
421.4569, 136.5516
421.9390, 135.2962
422.4211, 134.9770
422.9033, 135.2504
423.3854, 134.9842
423.8675, 133.4093
424.3496, 131.8777
424.8317, 131.5175
425.3138, 132.0306
425.7960, 132.3117
426.2781, 131.8493
426.7602, 131.0566
427.2423, 130.7222
427.7244, 130.8533
428.2065, 131.2752
428.6887, 131.9618
429.1708, 132.9243
429.6529, 134.3599
430.1350, 136.2084
430.6171, 137.9088
431.0992, 138.9232
431.5814, 139.2340
432.0635, 139.9028
432.5456, 141.0219
433.0277, 142.3115
433.5098, 143.9470
433.9919, 145.6406
434.4741, 146.7458
434.9562, 146.9968
435.4383, 147.1394
435.9204, 148.7637
436.4025, 153.2549
436.8846, 156.6534
437.3668, 158.2892
437.8489, 159.5581
438.3310, 161.3309
438.8131, 163.5813
439.2952, 165.7101
439.7773, 167.1228
440.2595, 167.9531
440.7416, 169.6006
441.2237, 172.7502
441.7058, 175.7362
442.1879, 178.2819
442.6700, 180.3772
443.1522, 181.8939
443.6343, 182.7732
444.1164, 183.5384
444.5985, 184.9429
445.0806, 187.0352
445.5627, 189.0362
446.0448, 190.8465
446.5269, 192.5028
447.0091, 194.3487
447.4912, 196.1639
447.9733, 197.1496
448.4554, 196.1438
448.9375, 194.3663
449.4196, 194.2896
449.9018, 196.1435
450.3839, 197.7623
450.8660, 198.1924
451.3481, 197.6354
451.8302, 196.5232
452.3123, 194.7122
452.7945, 192.7865
453.2766, 191.2271
453.7587, 189.7399
454.2408, 187.7226
454.7229, 185.0436
455.2050, 181.8575
455.6872, 178.1809
456.1693, 173.9646
456.6514, 170.0842
457.1335, 166.9873
457.6156, 163.7998
458.0977, 159.6430
458.5799, 154.9809
459.0620, 151.2815
459.5441, 149.3738
460.0262, 148.2345
460.5083, 145.4073
460.9904, 139.2642
461.4726, 133.8718
461.9547, 129.0902
462.4368, 125.1396
462.9189, 122.7395
463.4010, 121.5499
463.8831, 120.1276
464.3653, 117.1376
464.8474, 112.7081
465.3295, 108.9333
465.8116, 106.1261
466.2937, 103.6271
466.7758, 101.3712
467.2580, 99.31894
467.7401, 97.46201
468.2222, 95.80779
468.7043, 94.24225
469.1864, 92.63142
469.6685, 90.97250
470.1507, 89.33366
470.6328, 87.62974
471.1149, 86.06525
471.5970, 84.76176
472.0791, 83.66999
472.5612, 82.66028
473.0434, 81.71425
473.5255, 80.77724
474.0076, 79.70642
474.4897, 78.49374
474.9718, 77.47619
475.4539, 76.94550
475.9361, 76.52425
476.4182, 75.47374
476.9003, 73.61438
477.3824, 72.41377
477.8645, 73.11598
478.3466, 74.48238
478.8288, 74.76723
479.3109, 73.79266
479.7930, 72.41634
480.2751, 71.12849
480.7572, 69.99348
481.2393, 69.41543
481.7215, 69.64778
482.2036, 70.05389
482.6857, 70.58583
483.1678, 71.13959
483.6499, 71.54970
484.1320, 71.77751
484.6142, 71.98013
485.0963, 72.36032
485.5784, 72.94234
486.0605, 73.59261
486.5426, 74.68185
487.0247, 75.45454
487.5068, 75.22861
487.9890, 74.56052
488.4711, 74.42973
488.9532, 75.33269
489.4353, 76.90871
489.9174, 78.50474
490.3995, 80.21660
490.8817, 81.59295
491.3638, 82.26857
491.8459, 82.80952
492.3280, 83.55399
492.8101, 84.46080
493.2922, 85.23448
493.7744, 85.33778
494.2565, 85.30846
494.7386, 86.57288
495.2207, 89.34731
495.7028, 92.02657
496.1849, 93.90242
496.6671, 95.24092
497.1492, 96.37346
497.6313, 97.12361
498.1134, 98.42980
498.5955, 101.4024
499.0776, 104.9792
499.5598, 107.3337
500.0419, 108.1970
500.5240, 108.7087
501.0061, 109.8088
501.4882, 111.4259
501.9703, 112.5945
502.4525, 113.0472
502.9346, 113.4140
503.4167, 113.7242
503.8988, 114.1181
504.3809, 114.8656
504.8630, 116.0208
505.3452, 117.2370
505.8273, 118.0387
506.3094, 118.3233
506.7915, 118.7245
507.2736, 119.4417
507.7557, 120.0650
508.2379, 120.3725
508.7200, 120.5170
509.2021, 120.7580
509.6842, 121.2168
510.1663, 121.7751
510.6484, 122.2316
511.1306, 122.5667
511.6127, 122.9338
512.0948, 123.4960
512.5769, 123.9390
513.0590, 124.1643
513.5411, 124.1257
514.0233, 123.6667
514.5054, 122.4834
514.9875, 121.0108
515.4696, 119.9573
515.9517, 119.2895
516.4338, 118.3449
516.9160, 116.9418
517.3981, 115.0379
517.8802, 112.3319
518.3623, 108.6831
518.8444, 105.3566
519.3265, 102.8102
519.8087, 100.5822
520.2908, 98.13848
520.7729, 95.54819
521.2550, 93.35104
521.7371, 91.93463
522.2192, 91.10909
522.7014, 90.12105
523.1835, 88.88685
523.6656, 87.58408
524.1477, 86.02967
524.6298, 84.54411
525.1119, 83.51644
525.5941, 82.86510
526.0762, 82.07094
526.5583, 80.61593
527.0404, 78.63173
527.5225, 76.93429
528.0046, 75.24860
528.4868, 74.41373
528.9689, 75.45814
529.4510, 76.96367
529.9331, 77.59120
530.4152, 77.11292
530.8973, 76.35229
531.3795, 75.93709
531.8616, 75.73185
532.3437, 75.17988
532.8258, 74.08909
533.3079, 73.47676
533.7900, 74.41531
534.2722, 76.27071
534.7543, 76.99790
535.2364, 75.72710
535.7185, 74.77132
536.2006, 75.37089
536.6827, 76.75171
537.1649, 77.81297
537.6470, 78.33713
538.1291, 78.66676
538.6112, 79.12569
539.0933, 79.71637
539.5754, 80.23848
540.0576, 80.45787
540.5397, 80.89225
541.0218, 81.77735
541.5039, 82.87750
541.9860, 84.02725
542.4681, 85.13822
542.9503, 86.00241
543.4324, 86.30472
543.9145, 86.02424
544.3966, 85.74035
544.8787, 85.07042
545.3608, 85.01590
545.8430, 86.31926
546.3251, 88.30225
546.8072, 90.13541
547.2892, 91.65409
547.7714, 92.73808
548.2535, 92.97249
548.7356, 92.65025
549.2177, 92.81762
549.6998, 93.70187
550.1819, 94.87222
550.6641, 96.15175
551.1462, 97.44672
551.6283, 98.20443
552.1104, 97.81258
552.5925, 97.56801
553.0746, 98.26286
553.5568, 99.33632
554.0389, 99.94896
554.5210, 99.88808
555.0031, 99.50526
555.4852, 99.25920
555.9673, 99.22684
556.4495, 98.41798
556.9316, 95.74536
557.4137, 93.49239
557.8958, 92.63599
558.3779, 92.27882
558.8600, 91.17036
559.3422, 88.97881
559.8243, 86.75044
560.3064, 85.86868
560.7885, 86.22291
561.2706, 86.14491
561.7527, 85.48519
562.2349, 84.52055
562.7170, 83.28975
563.1991, 81.89433
563.6812, 80.40179
564.1633, 78.56775
564.6454, 77.23787
565.1276, 77.27254
565.6097, 78.10971
566.0918, 78.70626
566.5739, 78.86509
567.0560, 78.76975
567.5381, 78.53925
568.0203, 78.18209
568.5024, 77.89710
568.9845, 77.35130
569.4666, 77.27585
569.9487, 78.45235
570.4308, 79.83591
570.9130, 80.07565
571.3951, 79.05537
571.8772, 77.97287
572.3593, 78.13496
572.8414, 79.42695
573.3235, 79.96497
573.8057, 79.31025
574.2878, 78.67862
574.7699, 78.39980
575.2520, 78.36475
575.7341, 78.56792
576.2162, 79.00912
576.6984, 79.35957
577.1805, 79.17932
577.6626, 78.80105
578.1447, 79.13788
578.6268, 80.30250
579.1089, 81.05235
579.5911, 80.47374
580.0732, 79.07766
580.5553, 78.36651
581.0374, 78.45326
581.5195, 78.84998
582.0016, 79.94671
582.4838, 80.97817
582.9659, 81.31207
583.4480, 80.89713
583.9301, 79.86745
584.4122, 78.25279
584.8943, 76.24254
585.3765, 74.46568
585.8586, 72.77812
586.3407, 71.66177
586.8228, 71.59382
587.3049, 71.73333
587.7870, 71.59046
588.2692, 71.17786
588.7513, 70.73655
589.2334, 70.35046
589.7155, 70.06429
590.1976, 70.07457
590.6797, 70.36951
591.1619, 70.31453
591.6440, 69.55121
592.1261, 68.61136
592.6082, 68.28109
593.0903, 68.55931
593.5724, 68.57860
594.0546, 67.88749
594.5367, 67.22664
595.0188, 67.06252
595.5009, 67.27991
595.9830, 67.69701
596.4651, 68.23670
596.9473, 68.61337
597.4294, 68.26291
597.9115, 66.84892
598.3936, 66.34753
598.8757, 68.10729
599.3578, 69.36402
599.8400, 68.90450
600.3221, 67.59380
600.8042, 66.62866
601.2863, 66.39189
601.7684, 66.50556
602.2505, 66.66158
602.7327, 66.85284
603.2148, 67.14442
603.6969, 67.65993
604.1790, 67.76301
