##NAMES=Franklinite
##RRUFFID=R070137
##IDEAL CHEMISTRY=Zn^2+^Fe^3+^_2_O_4_
##LOCALITY=Franklin mine, Franklin, Sussex County, New Jersey, USA
##OWNER=RRUFF
##SOURCE=Michael Scott
##DESCRIPTION=Gray semi-metallic octahedral crystals associated with calcite
##STATUS=The identification of this mineral has been confirmed by X-ray diffraction and chemical analysis
##URL=rruff.info/R070137
##MEASURED CHEMISTRY=(Zn_0.63_Mn_0.36_Mg_0.01_)_Σ=1_(Fe^3+^_1.96_Al_0.04_)_Σ=2_O_4_
132.3433, 556.6678
132.8255, 581.9007
133.3076, 615.5426
133.7897, 631.9177
134.2718, 628.5552
134.7539, 621.0143
135.2360, 622.8402
135.7182, 634.6255
136.2003, 647.9131
136.6824, 659.7538
137.1645, 670.7759
137.6466, 690.4130
138.1287, 722.4370
138.6109, 756.8701
139.0930, 782.1638
139.5751, 799.7708
140.0572, 803.4100
140.5393, 785.1428
141.0214, 735.4589
141.5036, 708.0112
141.9857, 711.0879
142.4678, 732.2302
142.9499, 742.2449
143.4320, 732.8142
143.9141, 724.5055
144.3963, 727.4862
144.8784, 749.1402
145.3605, 768.2773
145.8426, 782.5533
146.3247, 793.0123
146.8068, 807.4799
147.2890, 830.9319
147.7711, 854.4092
148.2532, 872.1522
148.7353, 882.5621
149.2174, 889.1225
149.6995, 889.6220
150.1817, 882.9469
150.6638, 882.1644
151.1459, 890.3016
151.6280, 903.1764
152.1101, 916.8221
152.5922, 932.0331
153.0744, 946.9785
153.5565, 962.2054
154.0386, 978.9880
154.5207, 991.2991
155.0028, 998.1171
155.4849, 1000.015
155.9671, 997.9030
156.4492, 989.1373
156.9313, 978.5402
157.4134, 967.5399
157.8955, 953.7043
158.3777, 944.1649
158.8598, 941.8994
159.3419, 945.5847
159.8240, 951.3582
160.3061, 961.5767
160.7882, 971.3710
161.2704, 977.4227
161.7525, 975.8147
162.2346, 973.7093
162.7167, 974.4481
163.1988, 977.5787
163.6809, 979.7622
164.1631, 980.1791
164.6452, 978.6130
165.1273, 974.8260
165.6094, 963.3715
166.0915, 953.7240
166.5736, 953.8910
167.0558, 964.2624
167.5379, 973.0839
168.0200, 968.1442
168.5021, 957.4901
168.9842, 953.3732
169.4663, 966.3239
169.9485, 985.3621
170.4306, 1002.687
170.9127, 1018.316
171.3948, 1027.907
171.8769, 1023.195
172.3590, 1008.963
172.8412, 996.8199
173.3233, 995.0081
173.8054, 998.3453
174.2875, 1000.672
174.7696, 1001.231
175.2517, 1000.201
175.7339, 994.9131
176.2160, 986.9265
176.6981, 983.4924
177.1802, 994.0190
177.6623, 1011.964
178.1444, 1024.528
178.6266, 1027.743
179.1087, 1025.962
179.5908, 1026.107
180.0729, 1027.851
180.5550, 1026.685
181.0371, 1015.593
181.5193, 998.0286
182.0014, 984.6161
182.4835, 979.0850
182.9656, 979.2167
183.4477, 980.1721
183.9298, 981.8227
184.4120, 986.2268
184.8941, 999.8321
185.3762, 1020.130
185.8583, 1033.057
186.3404, 1030.885
186.8225, 1017.142
187.3047, 1002.671
187.7868, 987.0581
188.2689, 972.8322
188.7510, 961.8968
189.2331, 954.4456
189.7152, 953.1238
190.1974, 963.6528
190.6795, 983.4353
191.1616, 994.8174
191.6437, 995.5225
192.1258, 991.2246
192.6080, 992.5427
193.0901, 999.8317
193.5722, 1004.596
194.0543, 1000.530
194.5364, 988.1609
195.0185, 977.7303
195.5007, 970.5709
195.9828, 965.2651
196.4649, 956.6995
196.9470, 943.4319
197.4291, 935.3950
197.9112, 943.5558
198.3934, 969.0959
198.8755, 985.0926
199.3576, 986.0162
199.8397, 975.9283
200.3218, 968.0197
200.8039, 962.1096
201.2861, 959.0157
201.7682, 960.0997
202.2503, 965.8993
202.7324, 972.2510
203.2145, 979.5241
203.6966, 986.9605
204.1788, 989.0135
204.6609, 984.9066
205.1430, 977.2088
205.6251, 965.7305
206.1072, 947.6119
206.5893, 939.1740
207.0715, 948.7293
207.5536, 975.2566
208.0357, 986.4084
208.5178, 976.6517
208.9999, 960.3391
209.4820, 954.7518
209.9642, 963.1969
210.4463, 971.8032
210.9284, 977.1490
211.4105, 979.1625
211.8926, 978.1326
212.3747, 973.5345
212.8569, 966.4573
213.3390, 956.8082
213.8211, 941.2736
214.3032, 931.9365
214.7853, 935.5435
215.2674, 956.2783
215.7496, 968.2268
216.2317, 968.8718
216.7138, 962.5224
217.1959, 956.8535
217.6780, 951.6500
218.1601, 947.4641
218.6423, 944.0017
219.1244, 939.8159
219.6065, 941.4510
220.0886, 952.5443
220.5707, 968.0366
221.0528, 974.0532
221.5350, 965.7884
222.0171, 956.6926
222.4992, 953.3180
222.9813, 958.6633
223.4634, 961.9745
223.9455, 961.7726
224.4277, 959.4263
224.9098, 959.9194
225.3919, 964.9118
225.8740, 970.2198
226.3561, 973.4396
226.8382, 973.2376
227.3204, 974.0471
227.8025, 977.0054
228.2846, 981.3123
228.7667, 982.7820
229.2488, 979.4655
229.7310, 975.8801
230.2131, 975.0096
230.6952, 978.4241
231.1773, 981.2979
231.6594, 983.3043
232.1415, 984.4405
232.6237, 984.6617
233.1058, 983.3287
233.5879, 981.8422
234.0700, 980.9895
234.5521, 979.9941
235.0342, 981.3967
235.5164, 987.2363
235.9985, 997.0107
236.4806, 1000.661
236.9627, 993.0510
237.4448, 984.9883
237.9269, 986.2024
238.4091, 1004.293
238.8912, 1017.098
239.3733, 1019.086
239.8554, 1010.362
240.3375, 1007.006
240.8196, 1012.039
241.3018, 1019.417
241.7839, 1023.926
242.2660, 1025.502
242.7481, 1024.226
243.2302, 1019.299
243.7123, 1010.516
244.1945, 1002.934
244.6766, 996.5551
245.1587, 991.3820
245.6408, 987.1873
246.1229, 983.2654
246.6050, 981.8047
247.0872, 984.4854
247.5693, 991.9955
248.0514, 994.9879
248.5335, 991.0188
249.0156, 984.7078
249.4977, 981.4686
249.9799, 982.6368
250.4620, 984.3985
250.9441, 987.2148
251.4262, 991.9544
251.9083, 988.7561
252.3904, 972.9661
252.8726, 953.4912
253.3547, 941.9229
253.8368, 941.6645
254.3189, 942.1867
254.8010, 940.1057
255.2831, 934.4968
255.7653, 933.7299
256.2474, 940.4940
256.7295, 949.6576
257.2116, 954.1097
257.6937, 952.5804
258.1758, 949.1270
258.6580, 944.5817
259.1401, 938.7384
259.6222, 932.7289
260.1043, 924.8589
260.5864, 918.5503
261.0685, 919.4849
261.5507, 930.2588
262.0328, 941.9522
262.5149, 952.4330
262.9970, 961.8881
263.4791, 969.1285
263.9612, 974.7275
264.4434, 977.5817
264.9255, 974.6630
265.4076, 962.8132
265.8897, 954.2609
266.3718, 954.9462
266.8539, 966.7200
267.3361, 969.5183
267.8182, 958.4448
268.3003, 944.3722
268.7824, 945.7437
269.2645, 968.4108
269.7466, 987.4498
270.2288, 993.3898
270.7109, 985.0074
271.1930, 977.4521
271.6751, 969.4645
272.1572, 964.0067
272.6393, 969.0921
273.1215, 989.1073
273.6036, 1000.156
274.0857, 988.2887
274.5678, 952.0079
275.0499, 931.6743
275.5320, 929.7515
276.0142, 939.1730
276.4963, 951.6596
276.9784, 968.2566
277.4605, 981.5825
277.9426, 988.4683
278.4247, 989.0175
278.9069, 987.3750
279.3890, 982.3181
279.8711, 977.7161
280.3532, 981.0392
280.8354, 993.1772
281.3175, 1002.578
281.7996, 1001.368
282.2817, 991.0643
282.7638, 992.7171
283.2459, 1009.588
283.7281, 1029.018
284.2102, 1031.366
284.6923, 1016.521
285.1744, 1003.337
285.6565, 1001.407
286.1386, 1008.481
286.6208, 1009.957
287.1029, 1004.577
287.5850, 998.3756
288.0671, 999.0949
288.5492, 1006.348
289.0313, 1015.290
289.5135, 1025.834
289.9956, 1036.701
290.4777, 1042.759
290.9598, 1043.679
291.4419, 1042.116
291.9240, 1040.794
292.4062, 1039.584
292.8883, 1037.719
293.3704, 1031.975
293.8525, 1025.691
294.3346, 1029.391
294.8167, 1043.917
295.2989, 1059.459
295.7810, 1065.090
296.2631, 1062.943
296.7452, 1060.570
297.2273, 1058.623
297.7094, 1059.128
298.1916, 1067.551
298.6737, 1084.069
299.1558, 1101.195
299.6379, 1111.182
300.1200, 1116.337
300.6021, 1122.497
301.0843, 1134.179
301.5664, 1146.747
302.0485, 1153.226
302.5306, 1153.807
303.0127, 1153.556
303.4948, 1155.967
303.9770, 1160.412
304.4591, 1165.954
304.9412, 1174.401
305.4233, 1182.198
305.9054, 1183.599
306.3875, 1179.357
306.8697, 1178.077
307.3518, 1190.465
307.8339, 1208.142
308.3160, 1219.657
308.7981, 1213.649
309.2802, 1207.378
309.7624, 1216.724
310.2445, 1239.258
310.7266, 1259.177
311.2087, 1266.263
311.6908, 1266.991
312.1729, 1267.859
312.6551, 1271.066
313.1372, 1274.446
313.6193, 1274.544
314.1014, 1272.903
314.5835, 1276.423
315.0656, 1294.302
315.5478, 1315.265
316.0299, 1330.141
316.5120, 1329.395
316.9941, 1315.418
317.4762, 1343.062
317.9583, 1362.019
318.4405, 1372.754
318.9226, 1350.642
319.4047, 1370.944
319.8868, 1374.249
320.3689, 1376.856
320.8510, 1403.128
321.3332, 1385.794
321.8153, 1411.691
322.2974, 1420.331
322.7795, 1436.869
323.2616, 1436.303
323.7437, 1441.021
324.2259, 1462.848
324.7080, 1475.200
325.1901, 1463.211
325.6722, 1474.699
326.1543, 1484.416
326.6364, 1488.886
327.1186, 1494.386
327.6007, 1502.728
328.0828, 1514.001
328.5649, 1528.083
329.0470, 1550.146
329.5291, 1573.453
330.0113, 1586.892
330.4934, 1581.808
330.9755, 1578.263
331.4576, 1582.353
331.9397, 1595.911
332.4218, 1607.816
332.9040, 1615.327
333.3861, 1623.307
333.8682, 1639.115
334.3503, 1668.378
334.8324, 1693.650
335.3145, 1708.683
335.7967, 1712.882
336.2788, 1725.312
336.7609, 1748.745
337.2430, 1776.407
337.7251, 1800.058
338.2072, 1818.679
338.6894, 1839.666
339.1715, 1866.883
339.6536, 1898.579
340.1357, 1919.625
340.6178, 1927.614
341.0999, 1933.459
341.5821, 1945.545
342.0642, 1963.629
342.5463, 1990.347
343.0284, 2030.709
343.5105, 2076.915
343.9926, 2102.711
344.4748, 2106.935
344.9569, 2107.146
345.4390, 2118.558
345.9211, 2138.475
346.4032, 2151.349
346.8853, 2153.423
347.3675, 2149.628
347.8496, 2147.951
348.3317, 2148.125
348.8138, 2147.732
349.2959, 2148.745
349.7780, 2147.735
350.2602, 2135.855
350.7423, 2110.196
351.2244, 2079.384
351.7065, 2051.753
352.1887, 2026.687
352.6708, 2003.072
353.1529, 1981.579
353.6350, 1960.627
354.1171, 1938.927
354.5992, 1916.576
355.0814, 1890.692
355.5635, 1859.358
356.0456, 1822.822
356.5277, 1781.523
357.0098, 1726.252
357.4919, 1673.056
357.9741, 1633.819
358.4562, 1609.435
358.9383, 1589.100
359.4204, 1570.517
359.9025, 1552.059
360.3846, 1531.911
360.8668, 1505.654
361.3489, 1481.027
361.8310, 1460.178
362.3131, 1443.239
362.7952, 1432.309
363.2773, 1440.155
363.7595, 1447.334
364.2416, 1440.299
364.7237, 1393.094
365.2058, 1357.426
365.6879, 1349.955
366.1700, 1363.871
366.6522, 1367.779
367.1343, 1349.651
367.6164, 1327.808
368.0985, 1310.590
368.5806, 1302.429
369.0627, 1292.276
369.5449, 1279.365
370.0270, 1264.656
370.5091, 1249.279
370.9912, 1229.969
371.4733, 1214.406
371.9554, 1206.142
372.4376, 1207.236
372.9197, 1207.802
373.4018, 1208.875
373.8839, 1208.439
374.3660, 1202.695
374.8481, 1189.643
375.3303, 1177.755
375.8124, 1169.640
376.2945, 1165.243
376.7766, 1161.997
377.2587, 1160.870
377.7408, 1158.354
378.2230, 1147.692
378.7051, 1128.551
379.1872, 1118.142
379.6693, 1124.727
380.1514, 1140.931
380.6335, 1143.849
381.1157, 1133.073
381.5978, 1117.040
382.0799, 1098.612
382.5620, 1079.727
383.0441, 1068.093
383.5262, 1065.909
384.0084, 1069.611
384.4905, 1077.984
384.9726, 1089.387
385.4547, 1095.068
385.9368, 1081.849
386.4189, 1062.411
386.9011, 1057.080
387.3832, 1070.434
387.8653, 1087.195
388.3474, 1096.275
388.8295, 1099.128
389.3116, 1098.414
389.7938, 1090.557
390.2759, 1083.033
390.7580, 1083.015
391.2401, 1091.346
391.7222, 1097.047
392.2043, 1091.991
392.6865, 1082.450
393.1686, 1074.891
393.6507, 1072.780
394.1328, 1071.700
394.6149, 1070.309
395.0970, 1068.658
395.5792, 1067.417
396.0613, 1070.061
396.5434, 1070.955
397.0255, 1066.707
397.5076, 1049.413
397.9897, 1036.343
398.4719, 1027.641
398.9540, 1023.815
399.4361, 1026.975
399.9182, 1048.159
400.4003, 1064.174
400.8824, 1064.827
401.3646, 1042.235
401.8467, 1028.125
402.3288, 1024.833
402.8109, 1028.069
403.2930, 1032.020
403.7751, 1036.861
404.2573, 1042.051
404.7394, 1048.287
405.2215, 1055.387
405.7036, 1057.794
406.1857, 1054.659
406.6678, 1049.473
407.1500, 1043.882
407.6321, 1037.882
408.1142, 1037.983
408.5963, 1048.201
409.0784, 1063.024
409.5605, 1067.533
410.0427, 1061.841
410.5248, 1056.168
411.0069, 1058.792
411.4890, 1066.911
411.9711, 1072.789
412.4532, 1075.127
412.9354, 1076.085
413.4175, 1078.341
413.8996, 1081.297
414.3817, 1083.219
414.8638, 1084.075
415.3459, 1082.953
415.8281, 1076.630
416.3102, 1064.448
416.7923, 1056.371
417.2744, 1064.310
417.7565, 1078.621
418.2386, 1087.397
418.7208, 1078.096
419.2029, 1070.397
419.6850, 1074.930
420.1671, 1090.038
420.6492, 1103.138
421.1313, 1111.043
421.6135, 1115.037
422.0956, 1115.639
422.5777, 1106.371
423.0598, 1103.091
423.5420, 1111.982
424.0241, 1127.998
424.5062, 1139.079
424.9883, 1141.453
425.4704, 1142.820
425.9525, 1145.490
426.4347, 1149.795
426.9168, 1153.720
427.3989, 1156.520
427.8810, 1159.724
428.3631, 1165.839
428.8452, 1176.496
429.3274, 1184.548
429.8095, 1187.413
430.2916, 1186.199
430.7737, 1186.895
431.2558, 1189.516
431.7379, 1193.921
432.2201, 1200.871
432.7022, 1210.085
433.1843, 1218.188
433.6664, 1224.872
434.1485, 1229.784
434.6306, 1230.319
435.1128, 1227.438
435.5949, 1227.348
436.0770, 1235.267
436.5591, 1247.775
437.0412, 1258.422
437.5233, 1266.738
438.0055, 1275.377
438.4876, 1290.266
438.9697, 1306.486
439.4518, 1315.754
439.9339, 1304.801
440.4160, 1294.356
440.8982, 1303.054
441.3803, 1327.121
441.8624, 1342.577
442.3445, 1325.561
442.8266, 1304.271
443.3087, 1299.266
443.7909, 1325.353
444.2730, 1349.455
444.7551, 1366.860
445.2372, 1377.270
445.7193, 1380.515
446.2014, 1362.325
446.6836, 1350.877
447.1657, 1356.401
447.6478, 1383.297
448.1299, 1403.096
448.6120, 1413.359
449.0941, 1418.539
449.5763, 1423.056
450.0584, 1428.283
450.5405, 1428.643
451.0226, 1420.532
451.5047, 1407.358
451.9868, 1403.755
452.4690, 1411.108
452.9511, 1422.318
453.4332, 1435.780
453.9153, 1450.908
454.3974, 1456.290
454.8795, 1448.991
455.3617, 1438.358
455.8438, 1439.169
456.3259, 1449.129
456.8080, 1456.687
457.2901, 1453.810
457.7722, 1446.350
458.2544, 1443.315
458.7365, 1444.565
459.2186, 1447.274
459.7007, 1450.952
460.1828, 1454.305
460.6649, 1455.259
461.1471, 1450.424
461.6292, 1447.496
462.1113, 1452.568
462.5934, 1463.136
463.0755, 1472.464
463.5576, 1480.119
464.0398, 1484.385
464.5219, 1482.339
465.0040, 1470.308
465.4861, 1465.585
465.9682, 1478.375
466.4503, 1496.385
466.9325, 1506.521
467.4146, 1498.273
467.8967, 1496.130
468.3788, 1507.863
468.8609, 1530.344
469.3430, 1538.900
469.8252, 1525.901
470.3073, 1512.560
470.7894, 1513.320
471.2715, 1531.615
471.7536, 1541.095
472.2357, 1537.515
472.7179, 1530.256
473.2000, 1537.084
473.6821, 1557.838
474.1642, 1575.500
474.6463, 1581.532
475.1284, 1580.003
475.6106, 1580.733
476.0927, 1583.744
476.5748, 1590.653
477.0569, 1605.791
477.5390, 1625.258
478.0211, 1642.210
478.5033, 1655.012
478.9854, 1665.059
479.4675, 1672.499
479.9496, 1677.976
480.4317, 1682.984
480.9138, 1687.019
481.3960, 1691.658
481.8781, 1699.542
482.3602, 1711.967
482.8423, 1718.654
483.3244, 1706.571
483.8065, 1692.453
484.2887, 1691.480
484.7708, 1724.825
485.2529, 1748.784
485.7350, 1754.886
486.2171, 1747.716
486.6992, 1746.318
487.1814, 1755.471
487.6635, 1763.233
488.1456, 1762.397
488.6277, 1749.312
489.1098, 1748.809
489.5919, 1765.865
490.0741, 1786.310
490.5562, 1790.535
491.0383, 1777.903
491.5204, 1766.864
492.0026, 1762.035
492.4847, 1762.271
492.9668, 1765.390
493.4489, 1771.260
493.9310, 1778.255
494.4131, 1784.453
494.8953, 1791.144
495.3774, 1802.176
495.8595, 1819.933
496.3416, 1834.015
496.8237, 1833.895
497.3058, 1824.809
497.7880, 1815.590
498.2701, 1810.553
498.7522, 1805.758
499.2343, 1796.375
499.7164, 1783.453
500.1985, 1778.411
500.6807, 1794.082
501.1628, 1812.250
501.6449, 1821.909
502.1270, 1811.813
502.6091, 1809.586
503.0912, 1821.409
503.5734, 1839.335
504.0555, 1850.356
504.5376, 1851.990
505.0197, 1851.531
505.5018, 1851.242
505.9839, 1850.839
506.4661, 1844.353
506.9482, 1829.175
507.4303, 1816.347
507.9124, 1817.055
508.3945, 1830.221
508.8766, 1840.127
509.3588, 1844.488
509.8409, 1846.060
510.3230, 1848.056
510.8051, 1850.553
511.2872, 1853.794
511.7693, 1856.611
512.2515, 1860.935
512.7336, 1869.409
513.2157, 1881.943
513.6978, 1896.449
514.1799, 1918.995
514.6620, 1939.164
515.1442, 1945.933
515.6263, 1927.302
516.1084, 1911.768
516.5905, 1912.592
517.0726, 1922.381
517.5547, 1926.574
518.0369, 1904.882
518.5190, 1896.109
519.0011, 1915.830
519.4832, 1966.398
519.9653, 2002.705
520.4474, 2023.293
520.9296, 2031.032
521.4117, 2024.255
521.8938, 1997.587
522.3759, 1981.752
522.8580, 1980.784
523.3401, 1989.777
523.8223, 1999.960
524.3044, 2011.277
524.7865, 2026.157
525.2686, 2051.962
525.7507, 2080.282
526.2328, 2086.554
526.7150, 2071.294
527.1971, 2054.909
527.6792, 2053.087
528.1613, 2060.413
528.6434, 2069.683
529.1255, 2079.885
529.6077, 2090.342
530.0898, 2102.297
530.5719, 2113.957
531.0540, 2122.341
531.5361, 2122.888
532.0182, 2123.197
532.5004, 2127.185
532.9825, 2135.113
533.4646, 2139.318
533.9467, 2137.765
534.4288, 2133.587
534.9109, 2128.090
535.3931, 2119.895
535.8752, 2113.213
536.3573, 2107.054
536.8394, 2103.452
537.3215, 2107.144
537.8036, 2119.389
538.2858, 2130.465
538.7679, 2137.133
539.2500, 2140.456
539.7321, 2143.319
540.2142, 2145.729
540.6964, 2150.211
541.1785, 2161.734
541.6606, 2176.101
542.1427, 2183.977
542.6248, 2182.952
543.1069, 2180.960
543.5891, 2182.854
544.0712, 2188.522
544.5533, 2197.796
545.0354, 2221.799
545.5175, 2238.671
545.9996, 2230.526
546.4818, 2202.907
546.9639, 2189.791
547.4460, 2214.285
547.9281, 2242.000
548.4102, 2255.943
548.8923, 2248.411
549.3745, 2250.545
549.8566, 2268.259
550.3387, 2289.911
550.8208, 2302.401
551.3029, 2304.282
551.7850, 2302.035
552.2672, 2293.453
552.7493, 2284.316
553.2314, 2293.509
553.7135, 2320.920
554.1956, 2347.721
554.6777, 2362.056
555.1599, 2368.106
555.6420, 2374.843
556.1241, 2382.669
556.6062, 2390.247
557.0883, 2394.380
557.5704, 2398.239
558.0526, 2406.051
558.5347, 2420.506
559.0168, 2436.847
559.4989, 2451.166
559.9810, 2465.560
560.4631, 2484.252
560.9453, 2518.697
561.4274, 2547.648
561.9095, 2559.995
562.3916, 2554.797
562.8737, 2558.569
563.3558, 2574.117
563.8380, 2594.902
564.3201, 2616.575
564.8022, 2638.186
565.2843, 2664.641
565.7664, 2697.312
566.2485, 2733.047
566.7307, 2770.268
567.2128, 2808.290
567.6949, 2837.868
568.1770, 2848.342
568.6591, 2854.441
569.1412, 2888.363
569.6234, 2945.553
570.1055, 2999.171
570.5876, 3017.832
571.0697, 3031.500
571.5518, 3074.869
572.0339, 3158.381
572.5161, 3234.854
572.9982, 3270.416
573.4803, 3293.683
573.9624, 3333.420
574.4445, 3409.999
574.9266, 3486.555
575.4088, 3554.160
575.8909, 3619.097
576.3730, 3698.559
576.8551, 3800.606
577.3372, 3901.507
577.8193, 3991.293
578.3015, 4070.044
578.7836, 4152.140
579.2657, 4236.121
579.7478, 4324.912
580.2299, 4418.234
580.7120, 4518.097
581.1942, 4631.803
581.6763, 4762.888
582.1584, 4899.971
582.6405, 5032.537
583.1226, 5160.593
583.6047, 5280.047
584.0869, 5377.766
584.5690, 5476.468
585.0511, 5592.953
585.5332, 5724.060
586.0153, 5853.337
586.4974, 5972.707
586.9796, 6090.970
587.4617, 6214.995
587.9438, 6349.454
588.4259, 6474.008
588.9080, 6586.175
589.3901, 6690.040
589.8723, 6787.938
590.3544, 6880.698
590.8365, 6967.613
591.3186, 7049.657
591.8007, 7125.489
592.2828, 7190.736
592.7650, 7245.732
593.2471, 7297.901
593.7292, 7352.014
594.2113, 7404.751
594.6934, 7452.795
595.1755, 7495.401
595.6577, 7529.242
596.1398, 7549.130
596.6219, 7560.606
597.1040, 7569.516
597.5862, 7577.826
598.0683, 7579.221
598.5504, 7564.829
599.0325, 7544.776
599.5146, 7530.607
599.9968, 7543.778
600.4789, 7537.391
600.9610, 7498.456
601.4431, 7438.111
601.9252, 7388.007
602.4073, 7348.291
602.8895, 7321.624
603.3716, 7317.146
603.8537, 7329.917
604.3358, 7311.349
604.8179, 7258.889
605.3000, 7205.540
605.7822, 7188.281
606.2643, 7190.357
606.7464, 7168.058
607.2285, 7110.461
607.7106, 7049.538
608.1927, 7016.846
608.6749, 6998.100
609.1570, 6972.725
609.6391, 6922.348
610.1212, 6875.152
610.6033, 6843.441
611.0854, 6823.244
611.5676, 6801.077
612.0497, 6774.346
612.5318, 6745.921
613.0139, 6714.239
613.4960, 6678.089
613.9781, 6657.001
614.4603, 6657.320
614.9424, 6657.161
615.4245, 6638.285
615.9066, 6601.630
616.3887, 6562.085
616.8708, 6520.323
617.3530, 6479.329
617.8351, 6436.913
618.3172, 6398.515
618.7993, 6379.064
619.2814, 6399.708
619.7635, 6423.618
620.2457, 6420.907
620.7278, 6397.285
621.2099, 6369.402
621.6920, 6333.426
622.1741, 6303.824
622.6563, 6292.104
623.1384, 6301.770
623.6205, 6295.795
624.1026, 6263.553
624.5847, 6226.098
625.0668, 6195.654
625.5490, 6173.134
626.0311, 6155.804
626.5132, 6147.272
626.9953, 6135.516
