##NAMES=Frankamenite
##RRUFFID=R060100
##IDEAL CHEMISTRY=K_3_Na_3_Ca_5_Si_12_O_30_(F,OH)_4_&#183;H_2_O
##LOCALITY=Murun Massif, Sakka, Yakutia, Russia
##OWNER=RRUFF
##SOURCE=University of Arizona Mineral Museum
##DESCRIPTION=Gray thin laths associated with purple charoite
##STATUS=The identification of this mineral is confirmed by single-crystal X-ray diffraction and chemical analysis.
##URL=rruff.info/R060100
##MEASURED CHEMISTRY=(K_2.95_Na_0.05_)_Σ=3_Na_3.00_(Ca_4.90_Mn_0.10_)_Σ=5_Si_12.00_O_30_F_4.00_
89.78156, 0.0000000E+00
90.26367, 38.39501
90.74579, 38.27055
91.22791, 38.37724
91.71002, 38.67985
92.19214, 38.86266
92.67426, 38.55682
93.15638, 37.91504
93.63850, 37.34171
94.12061, 36.88107
94.60273, 36.59539
95.08485, 36.71778
95.56696, 37.29035
96.04908, 37.97840
96.53120, 38.46059
97.01331, 38.72829
97.49543, 38.77095
97.97755, 38.43061
98.45966, 37.74392
98.94178, 37.37786
99.42390, 37.40778
99.90602, 37.65668
100.3881, 37.78939
100.8703, 37.77752
101.3524, 37.75188
101.8345, 37.78205
102.3166, 37.88105
102.7987, 37.97916
103.2808, 38.07074
103.7630, 38.15815
104.2451, 38.23042
104.7272, 38.21571
105.2093, 38.28196
105.6914, 38.57070
106.1735, 39.29513
106.6557, 39.86372
107.1378, 40.08269
107.6199, 39.93376
108.1020, 40.13624
108.5841, 40.69387
109.0662, 41.60484
109.5484, 42.87317
110.0305, 44.57795
110.5126, 46.57441
110.9947, 48.83172
111.4768, 51.36639
111.9590, 54.17855
112.4411, 57.18052
112.9232, 60.50548
113.4053, 64.23473
113.8874, 67.97916
114.3695, 72.48610
114.8517, 78.01293
115.3338, 84.64902
115.8159, 92.12905
116.2980, 100.4176
116.7801, 109.5746
117.2622, 119.6280
117.7444, 130.3848
118.2265, 142.2460
118.7086, 155.4367
119.1907, 170.2645
119.6728, 186.2840
120.1549, 203.3401
120.6371, 221.4268
121.1192, 240.6026
121.6013, 261.1486
122.0834, 282.5428
122.5655, 304.1425
123.0476, 326.0514
123.5298, 347.8279
124.0119, 369.3140
124.4940, 390.4719
124.9761, 410.8548
125.4582, 430.0539
125.9404, 448.0899
126.4225, 464.8181
126.9046, 478.7936
127.3867, 491.8499
127.8688, 506.8290
128.3509, 523.7768
128.8331, 542.2016
129.3152, 561.5457
129.7973, 581.9742
130.2794, 603.7723
130.7615, 626.7037
131.2436, 651.0787
131.7258, 677.8616
132.2079, 707.3097
132.6900, 738.5179
133.1721, 770.6604
133.6542, 803.6102
134.1364, 836.3817
134.6185, 869.1779
135.1006, 902.0630
135.5827, 932.9172
136.0648, 961.6757
136.5469, 988.5578
137.0291, 1014.365
137.5112, 1039.175
137.9933, 1061.876
138.4754, 1081.836
138.9575, 1098.667
139.4396, 1114.113
139.9218, 1128.283
140.4039, 1141.140
140.8860, 1151.677
141.3681, 1158.459
141.8502, 1165.359
142.3323, 1175.362
142.8145, 1189.706
143.2966, 1204.240
143.7787, 1217.860
144.2608, 1230.732
144.7429, 1245.508
145.2250, 1262.844
145.7072, 1281.683
146.1893, 1301.024
146.6714, 1319.958
147.1535, 1340.760
147.6356, 1364.689
148.1178, 1392.544
148.5999, 1417.523
149.0820, 1438.511
149.5641, 1456.984
150.0462, 1474.419
150.5283, 1489.397
151.0105, 1504.529
151.4926, 1507.783
151.9747, 1513.274
152.4568, 1513.303
152.9389, 1506.821
153.4210, 1495.296
153.9032, 1480.517
154.3853, 1460.455
154.8674, 1439.467
155.3495, 1419.118
155.8316, 1399.949
156.3137, 1379.832
156.7959, 1356.704
157.2780, 1332.463
157.7601, 1310.811
158.2422, 1292.301
158.7243, 1276.374
159.2065, 1262.645
159.6886, 1251.667
160.1707, 1241.649
160.6528, 1231.893
161.1349, 1222.630
161.6170, 1214.524
162.0992, 1208.154
162.5813, 1202.758
163.0634, 1197.818
163.5455, 1193.028
164.0276, 1188.897
164.5097, 1185.468
164.9919, 1182.809
165.4740, 1181.222
165.9561, 1181.679
166.4382, 1182.902
166.9203, 1183.710
167.4024, 1183.038
167.8846, 1182.626
168.3667, 1183.762
168.8488, 1186.259
169.3309, 1188.909
169.8130, 1190.898
170.2952, 1192.643
170.7773, 1194.622
171.2594, 1196.595
171.7415, 1199.150
172.2236, 1203.152
172.7057, 1208.498
173.1879, 1213.846
173.6700, 1218.411
174.1521, 1222.265
174.6342, 1225.560
175.1163, 1227.486
175.5984, 1229.318
176.0806, 1232.608
176.5627, 1237.358
177.0448, 1242.730
177.5269, 1248.751
178.0090, 1254.869
178.4911, 1259.935
178.9733, 1262.604
179.4554, 1264.139
179.9375, 1266.419
180.4196, 1269.445
180.9017, 1273.272
181.3838, 1277.570
181.8660, 1282.581
182.3481, 1289.344
182.8302, 1300.397
183.3123, 1313.349
183.7944, 1322.107
184.2766, 1326.135
184.7587, 1328.606
185.2408, 1333.269
185.7229, 1339.842
186.2050, 1346.868
186.6871, 1353.952
187.1693, 1360.996
187.6514, 1367.279
188.1335, 1372.907
188.6156, 1377.627
189.0977, 1381.583
189.5798, 1384.674
190.0620, 1385.696
190.5441, 1384.015
191.0262, 1379.663
191.5083, 1373.023
191.9904, 1363.841
192.4725, 1352.756
192.9547, 1340.332
193.4368, 1326.422
193.9189, 1312.609
194.4010, 1299.754
194.8831, 1287.818
195.3652, 1275.946
195.8474, 1263.828
196.3295, 1252.171
196.8116, 1242.656
197.2937, 1235.487
197.7758, 1228.794
198.2579, 1221.378
198.7401, 1213.200
199.2222, 1205.909
199.7043, 1199.645
200.1864, 1194.389
200.6685, 1190.261
201.1507, 1187.407
201.6328, 1185.033
202.1149, 1182.751
202.5970, 1180.567
203.0791, 1178.301
203.5612, 1175.869
204.0434, 1173.427
204.5255, 1171.487
205.0076, 1170.155
205.4897, 1168.986
205.9718, 1167.672
206.4539, 1166.155
206.9361, 1164.885
207.4182, 1163.849
207.9003, 1163.123
208.3824, 1163.002
208.8645, 1163.670
209.3466, 1164.486
209.8288, 1165.064
210.3109, 1165.356
210.7930, 1165.688
211.2751, 1166.250
211.7572, 1166.834
212.2393, 1166.481
212.7215, 1164.668
213.2036, 1163.055
213.6857, 1162.801
214.1678, 1164.316
214.6499, 1165.772
215.1320, 1166.995
215.6142, 1168.041
216.0963, 1169.237
216.5784, 1170.816
217.0605, 1172.092
217.5426, 1172.507
218.0247, 1171.674
218.5069, 1171.099
218.9890, 1170.873
219.4711, 1171.014
219.9532, 1171.595
220.4353, 1172.679
220.9175, 1174.128
221.3996, 1175.912
221.8817, 1178.101
222.3638, 1180.494
222.8459, 1183.432
223.3280, 1186.614
223.8102, 1188.187
224.2923, 1187.447
224.7744, 1186.214
225.2565, 1185.466
225.7386, 1184.868
226.2207, 1185.604
226.7029, 1188.319
227.1850, 1192.529
227.6671, 1195.622
228.1492, 1197.269
228.6313, 1198.266
229.1134, 1198.956
229.5956, 1198.884
230.0777, 1199.584
230.5598, 1201.487
231.0419, 1204.312
231.5240, 1206.686
232.0062, 1208.462
232.4883, 1210.017
232.9704, 1211.493
233.4525, 1212.560
233.9346, 1214.334
234.4167, 1217.216
234.8989, 1220.904
235.3810, 1223.900
235.8631, 1225.696
236.3452, 1227.491
236.8273, 1230.000
237.3094, 1233.465
237.7916, 1237.060
238.2737, 1240.837
238.7558, 1244.708
239.2379, 1248.439
239.7200, 1252.196
240.2021, 1255.568
240.6843, 1258.272
241.1664, 1259.801
241.6485, 1261.800
242.1306, 1264.557
242.6127, 1267.863
243.0948, 1270.736
243.5770, 1272.744
244.0591, 1274.984
244.5412, 1278.157
245.0233, 1283.233
245.5054, 1287.109
245.9876, 1288.994
246.4697, 1289.724
246.9518, 1292.051
247.4339, 1296.634
247.9160, 1301.850
248.3981, 1306.965
248.8803, 1312.177
249.3624, 1316.756
249.8445, 1320.025
250.3266, 1322.797
250.8087, 1327.600
251.2908, 1335.825
251.7730, 1343.715
252.2551, 1349.275
252.7372, 1351.214
253.2193, 1354.250
253.7014, 1358.772
254.1835, 1364.180
254.6657, 1368.966
255.1478, 1372.547
255.6299, 1376.566
256.1120, 1382.216
256.5941, 1390.852
257.0763, 1396.488
257.5584, 1397.978
258.0405, 1397.275
258.5226, 1398.277
259.0047, 1401.637
259.4868, 1405.398
259.9690, 1408.898
260.4511, 1412.168
260.9332, 1414.890
261.4153, 1416.485
261.8974, 1418.068
262.3795, 1421.676
262.8617, 1428.144
263.3438, 1434.712
263.8259, 1440.723
264.3080, 1446.233
264.7901, 1450.327
265.2722, 1452.446
265.7544, 1453.797
266.2365, 1456.074
266.7186, 1459.461
267.2007, 1463.220
267.6828, 1467.538
268.1649, 1472.617
268.6471, 1475.326
269.1292, 1475.101
269.6113, 1473.499
270.0934, 1472.296
270.5755, 1471.469
271.0576, 1471.112
271.5398, 1471.291
272.0219, 1471.999
272.5040, 1473.012
272.9861, 1474.404
273.4682, 1475.905
273.9503, 1477.422
274.4325, 1479.089
274.9146, 1479.843
275.3967, 1478.903
275.8788, 1476.656
276.3610, 1476.604
276.8431, 1479.260
277.3252, 1482.542
277.8073, 1484.452
278.2894, 1484.867
278.7715, 1485.421
279.2537, 1486.413
279.7358, 1487.829
280.2179, 1489.982
280.7000, 1493.226
281.1821, 1495.702
281.6642, 1495.370
282.1464, 1492.212
282.6285, 1489.878
283.1106, 1489.064
283.5927, 1489.344
284.0748, 1489.778
284.5569, 1490.403
285.0391, 1490.722
285.5212, 1490.287
286.0033, 1489.130
286.4854, 1487.855
286.9675, 1486.547
287.4496, 1485.092
287.9318, 1483.239
288.4139, 1480.961
288.8960, 1478.518
289.3781, 1475.931
289.8602, 1473.254
290.3423, 1470.667
290.8245, 1468.117
291.3066, 1465.884
291.7887, 1464.661
292.2708, 1464.354
292.7529, 1464.030
293.2350, 1463.211
293.7172, 1461.996
294.1993, 1460.607
294.6814, 1458.996
295.1635, 1457.469
295.6456, 1456.212
296.1277, 1455.295
296.6099, 1455.082
297.0920, 1456.297
297.5741, 1458.204
298.0562, 1459.466
298.5383, 1460.055
299.0204, 1459.952
299.5026, 1458.649
299.9847, 1456.588
300.4668, 1454.894
300.9489, 1454.154
301.4311, 1454.002
301.9132, 1453.772
302.3953, 1453.501
302.8774, 1453.944
303.3595, 1456.705
303.8416, 1460.475
304.3238, 1462.935
304.8059, 1462.426
305.2880, 1461.151
305.7701, 1461.356
306.2522, 1462.858
306.7343, 1464.553
307.2165, 1465.522
307.6986, 1466.324
308.1807, 1467.655
308.6628, 1469.751
309.1449, 1472.313
309.6270, 1475.499
310.1092, 1479.072
310.5913, 1482.192
311.0734, 1484.026
311.5555, 1485.395
312.0376, 1486.843
312.5197, 1488.234
313.0019, 1490.328
313.4840, 1494.183
313.9661, 1499.065
314.4482, 1503.515
314.9303, 1506.430
315.4124, 1509.085
315.8946, 1512.172
316.3767, 1515.801
316.8588, 1519.850
317.3409, 1524.935
317.8230, 1530.290
318.3051, 1534.884
318.7873, 1537.360
319.2694, 1540.000
319.7515, 1544.052
320.2336, 1549.709
320.7157, 1554.844
321.1978, 1558.037
321.6800, 1560.764
322.1621, 1564.341
322.6442, 1569.764
323.1263, 1575.281
323.6084, 1579.913
324.0905, 1583.814
324.5727, 1589.506
325.0548, 1599.534
325.5369, 1610.017
326.0190, 1618.594
326.5012, 1622.506
326.9833, 1627.578
327.4654, 1635.166
327.9475, 1644.500
328.4296, 1652.338
328.9117, 1657.866
329.3939, 1662.602
329.8760, 1667.135
330.3581, 1671.235
330.8402, 1675.513
331.3223, 1679.961
331.8044, 1684.562
332.2866, 1689.351
332.7687, 1694.514
333.2508, 1699.470
333.7329, 1704.447
334.2150, 1710.035
334.6971, 1712.525
335.1793, 1710.892
335.6614, 1707.186
336.1435, 1704.151
336.6256, 1702.301
337.1077, 1699.790
337.5898, 1696.162
338.0720, 1691.458
338.5541, 1686.695
339.0362, 1681.847
339.5183, 1677.045
340.0004, 1672.611
340.4825, 1668.650
340.9647, 1664.125
341.4468, 1658.595
341.9289, 1652.546
342.4110, 1647.423
342.8931, 1643.298
343.3752, 1639.772
343.8574, 1636.878
344.3395, 1634.503
344.8216, 1631.562
345.3037, 1627.725
345.7858, 1623.623
346.2679, 1620.338
346.7501, 1617.802
347.2322, 1615.666
347.7143, 1614.009
348.1964, 1612.595
348.6785, 1610.617
349.1607, 1607.963
349.6428, 1605.063
350.1249, 1602.379
350.6070, 1599.838
351.0891, 1597.123
351.5713, 1593.959
352.0534, 1590.683
352.5355, 1587.526
353.0176, 1584.561
353.4997, 1582.281
353.9818, 1581.719
354.4640, 1581.977
354.9461, 1581.598
355.4282, 1579.706
355.9103, 1577.652
356.3924, 1576.753
356.8745, 1576.768
357.3567, 1576.741
357.8388, 1575.616
358.3209, 1574.505
358.8030, 1574.505
359.2851, 1576.192
359.7672, 1577.973
360.2494, 1578.864
360.7315, 1579.271
361.2136, 1579.928
361.6957, 1580.787
362.1778, 1582.226
362.6599, 1584.663
363.1421, 1588.269
363.6242, 1591.641
364.1063, 1593.829
364.5884, 1595.783
365.0705, 1598.456
365.5526, 1602.709
366.0348, 1606.961
366.5169, 1610.818
366.9990, 1614.289
367.4811, 1617.801
367.9632, 1620.817
368.4453, 1624.282
368.9275, 1628.748
369.4096, 1635.456
369.8917, 1641.400
370.3738, 1646.076
370.8559, 1649.992
371.3380, 1654.493
371.8202, 1660.039
372.3023, 1665.612
372.7844, 1670.641
373.2665, 1674.715
373.7487, 1679.967
374.2308, 1687.067
374.7129, 1694.687
375.1950, 1700.976
375.6771, 1705.431
376.1592, 1710.246
376.6414, 1716.072
377.1235, 1722.827
377.6056, 1729.838
378.0877, 1737.187
378.5698, 1744.755
379.0519, 1753.092
379.5341, 1762.151
380.0162, 1769.322
380.4983, 1773.528
380.9804, 1776.300
381.4625, 1781.257
381.9446, 1788.403
382.4268, 1795.088
382.9089, 1799.984
383.3910, 1803.167
383.8731, 1804.931
384.3552, 1805.195
384.8373, 1804.418
385.3195, 1803.181
385.8016, 1801.359
386.2837, 1798.551
386.7658, 1793.528
387.2479, 1787.969
387.7300, 1784.289
388.2122, 1782.426
388.6943, 1780.394
389.1764, 1776.119
389.6585, 1771.028
390.1406, 1766.995
390.6227, 1764.637
391.1049, 1763.317
391.5870, 1763.545
392.0691, 1764.663
392.5512, 1764.695
393.0333, 1761.032
393.5154, 1757.180
393.9976, 1755.549
394.4797, 1757.043
394.9618, 1758.775
395.4439, 1760.043
395.9260, 1760.969
396.4081, 1761.711
396.8903, 1761.891
397.3724, 1762.326
397.8545, 1763.121
398.3366, 1764.273
398.8188, 1766.186
399.3009, 1770.066
399.7830, 1773.934
400.2651, 1776.495
400.7472, 1776.438
401.2293, 1777.041
401.7115, 1778.734
402.1936, 1781.159
402.6757, 1783.138
403.1578, 1784.069
403.6399, 1785.594
404.1220, 1788.724
404.6042, 1794.006
405.0863, 1797.680
405.5684, 1799.384
406.0505, 1799.992
406.5326, 1800.481
407.0147, 1800.826
407.4969, 1801.331
407.9790, 1802.349
408.4611, 1803.549
408.9432, 1803.162
409.4253, 1801.022
409.9074, 1799.172
410.3896, 1799.412
410.8717, 1801.370
411.3538, 1803.600
411.8359, 1806.160
412.3180, 1808.187
412.8001, 1808.065
413.2823, 1806.199
413.7644, 1804.221
414.2465, 1802.330
414.7286, 1801.097
415.2107, 1801.716
415.6928, 1804.279
416.1750, 1806.735
416.6571, 1807.363
417.1392, 1806.961
417.6213, 1806.619
418.1034, 1806.573
418.5855, 1806.814
419.0677, 1807.215
419.5498, 1807.872
420.0319, 1809.118
420.5140, 1811.698
420.9961, 1814.498
421.4782, 1816.758
421.9604, 1817.990
422.4425, 1819.707
422.9246, 1822.898
423.4067, 1826.552
423.8889, 1829.324
424.3710, 1829.247
424.8531, 1830.153
425.3352, 1833.295
425.8173, 1838.678
426.2994, 1843.138
426.7816, 1845.953
427.2637, 1848.538
427.7458, 1851.896
428.2279, 1856.698
428.7100, 1860.648
429.1921, 1863.175
429.6743, 1865.017
430.1564, 1867.954
430.6385, 1872.317
431.1206, 1876.480
431.6027, 1879.459
432.0848, 1881.371
432.5670, 1884.454
433.0491, 1888.816
433.5312, 1893.975
434.0133, 1899.867
434.4954, 1906.339
434.9775, 1912.342
435.4597, 1917.616
435.9418, 1922.313
436.4239, 1926.404
436.9060, 1929.941
437.3881, 1933.455
437.8702, 1938.174
438.3524, 1942.736
438.8345, 1945.124
439.3166, 1945.015
439.7987, 1943.378
440.2808, 1940.495
440.7629, 1936.644
441.2451, 1932.298
441.7272, 1926.668
442.2093, 1921.447
442.6914, 1917.769
443.1735, 1915.449
443.6556, 1913.179
444.1378, 1910.010
444.6199, 1907.081
445.1020, 1905.118
445.5841, 1904.298
446.0662, 1904.372
446.5483, 1905.324
447.0305, 1907.189
447.5126, 1910.065
447.9947, 1914.913
448.4768, 1919.542
448.9590, 1923.325
449.4411, 1926.211
449.9232, 1929.605
450.4053, 1933.611
450.8874, 1937.968
451.3695, 1942.350
451.8517, 1946.613
452.3338, 1951.648
452.8159, 1957.784
453.2980, 1964.324
453.7801, 1969.806
454.2622, 1974.098
454.7444, 1978.480
455.2265, 1982.888
455.7086, 1987.781
456.1907, 1995.434
456.6728, 2006.143
457.1549, 2017.219
457.6371, 2026.221
458.1192, 2033.842
458.6013, 2042.073
459.0834, 2051.558
459.5655, 2061.363
460.0476, 2070.691
460.5298, 2079.542
461.0119, 2087.434
461.4940, 2093.499
461.9761, 2099.149
462.4582, 2106.015
462.9403, 2114.478
463.4225, 2121.345
463.9046, 2126.852
464.3867, 2129.336
464.8688, 2127.116
465.3509, 2117.126
465.8330, 2105.508
466.3152, 2092.899
466.7973, 2079.536
467.2794, 2066.277
467.7615, 2051.681
468.2436, 2038.493
468.7257, 2027.767
469.2079, 2020.115
469.6900, 2012.569
470.1721, 2004.690
470.6542, 1997.442
471.1363, 1991.775
471.6184, 1987.710
472.1006, 1985.255
472.5827, 1984.857
473.0648, 1985.794
473.5469, 1985.986
474.0291, 1985.427
474.5112, 1984.290
474.9933, 1982.131
475.4754, 1979.375
475.9575, 1977.972
476.4396, 1978.086
476.9218, 1978.845
477.4039, 1979.330
477.8860, 1979.740
478.3681, 1980.608
478.8502, 1982.505
479.3323, 1984.396
479.8145, 1984.882
480.2966, 1984.366
480.7787, 1984.359
481.2608, 1985.993
481.7429, 1988.131
482.2250, 1990.131
482.7072, 1991.979
483.1893, 1993.255
483.6714, 1993.658
484.1535, 1993.493
484.6356, 1993.077
485.1177, 1992.303
485.5999, 1991.517
486.0820, 1990.266
486.5641, 1988.981
487.0462, 1989.330
487.5283, 1992.616
488.0104, 1995.858
488.4926, 1997.887
488.9747, 1998.489
489.4568, 1999.161
489.9389, 1999.788
490.4210, 2000.689
490.9031, 2002.403
491.3853, 2005.001
491.8674, 2007.125
492.3495, 2008.336
492.8316, 2009.048
493.3137, 2009.872
493.7958, 2010.849
494.2780, 2012.597
494.7601, 2016.222
495.2422, 2020.650
495.7243, 2023.562
496.2064, 2024.830
496.6885, 2025.951
497.1707, 2027.986
497.6528, 2030.704
498.1349, 2033.910
498.6170, 2038.484
499.0992, 2042.184
499.5813, 2042.911
500.0634, 2041.818
500.5455, 2041.753
501.0276, 2045.029
501.5097, 2048.276
501.9919, 2049.904
502.4740, 2049.480
502.9561, 2049.754
503.4382, 2051.398
503.9203, 2053.491
504.4024, 2055.564
504.8846, 2058.352
505.3667, 2059.361
505.8488, 2057.217
506.3309, 2053.987
506.8130, 2054.563
507.2951, 2059.777
507.7773, 2065.096
508.2594, 2068.904
508.7415, 2071.383
509.2236, 2073.667
509.7057, 2075.762
510.1878, 2077.652
510.6700, 2079.152
511.1521, 2080.448
511.6342, 2082.191
512.1163, 2084.587
512.5984, 2087.018
513.0806, 2088.547
513.5627, 2089.626
514.0448, 2091.194
514.5269, 2094.164
515.0090, 2097.331
515.4911, 2099.671
515.9733, 2101.345
516.4554, 2103.472
516.9375, 2106.705
517.4196, 2110.344
517.9017, 2114.073
518.3839, 2118.143
518.8660, 2121.559
519.3481, 2123.901
519.8302, 2125.652
520.3123, 2127.185
520.7944, 2127.941
521.2766, 2129.597
521.7587, 2132.728
522.2408, 2136.935
522.7229, 2140.831
523.2050, 2144.520
523.6871, 2147.662
524.1693, 2149.531
524.6514, 2150.331
525.1335, 2153.076
525.6156, 2157.946
526.0977, 2163.760
526.5798, 2170.198
527.0620, 2176.746
527.5441, 2181.516
528.0262, 2183.320
528.5083, 2184.682
528.9904, 2188.448
529.4725, 2193.841
529.9547, 2199.000
530.4368, 2202.963
530.9189, 2206.321
531.4010, 2209.051
531.8831, 2211.211
532.3652, 2213.894
532.8474, 2218.802
533.3295, 2223.449
533.8116, 2226.248
534.2937, 2225.715
534.7758, 2225.561
535.2579, 2227.038
535.7401, 2228.407
536.2222, 2226.941
536.7043, 2221.294
537.1864, 2215.971
537.6685, 2211.833
538.1506, 2208.798
538.6328, 2206.734
539.1149, 2205.749
539.5970, 2205.104
540.0791, 2204.145
540.5612, 2203.095
541.0433, 2203.379
541.5255, 2205.173
542.0076, 2206.925
542.4897, 2206.535
542.9718, 2205.032
543.4539, 2204.578
543.9360, 2206.190
544.4182, 2208.188
544.9003, 2208.693
545.3824, 2208.552
545.8645, 2209.677
546.3466, 2214.595
546.8287, 2219.342
547.3109, 2221.649
547.7930, 2221.348
548.2751, 2221.877
548.7572, 2224.812
549.2393, 2227.890
549.7214, 2229.928
550.2036, 2230.682
550.6857, 2230.914
551.1678, 2230.223
551.6499, 2229.475
552.1320, 2230.146
552.6141, 2232.582
553.0963, 2234.260
553.5784, 2234.293
554.0605, 2233.495
554.5426, 2234.113
555.0247, 2236.082
555.5068, 2238.129
555.9890, 2239.219
556.4711, 2239.950
556.9532, 2241.362
557.4353, 2243.483
557.9174, 2245.987
558.3995, 2249.048
558.8817, 2252.117
559.3638, 2254.500
559.8459, 2255.540
560.3281, 2256.823
560.8102, 2259.208
561.2923, 2262.178
561.7744, 2264.901
562.2565, 2267.437
562.7386, 2269.476
563.2208, 2270.493
563.7029, 2270.784
564.1850, 2272.691
564.6671, 2277.449
565.1492, 2281.620
565.6313, 2283.182
566.1135, 2281.863
566.5956, 2281.488
567.0777, 2282.095
567.5598, 2283.524
568.0419, 2285.757
568.5240, 2288.694
569.0062, 2292.138
569.4883, 2296.252
569.9704, 2300.258
570.4525, 2303.131
570.9346, 2305.094
571.4167, 2306.600
571.8989, 2306.868
572.3810, 2307.633
572.8631, 2310.690
573.3452, 2315.643
573.8273, 2319.913
574.3094, 2322.300
574.7916, 2323.905
575.2737, 2325.153
575.7558, 2325.764
576.2379, 2327.053
576.7200, 2329.346
577.2021, 2332.041
577.6843, 2334.488
578.1664, 2336.157
578.6485, 2339.218
579.1306, 2344.448
579.6127, 2350.556
580.0948, 2354.970
580.5770, 2357.663
581.0591, 2360.329
581.5412, 2364.001
582.0233, 2367.841
582.5054, 2369.640
582.9875, 2369.623
583.4697, 2369.664
