##NAMES=Frankamenite
##RRUFFID=R060100
##IDEAL CHEMISTRY=K_3_Na_3_Ca_5_Si_12_O_30_(F,OH)_4_&#183;H_2_O
##LOCALITY=Murun Massif, Sakka, Yakutia, Russia
##OWNER=RRUFF
##SOURCE=University of Arizona Mineral Museum
##DESCRIPTION=Gray thin laths associated with purple charoite
##STATUS=The identification of this mineral is confirmed by single-crystal X-ray diffraction and chemical analysis.
##URL=rruff.info/R060100
##MEASURED CHEMISTRY=(K_2.95_Na_0.05_)_Σ=3_Na_3.00_(Ca_4.90_Mn_0.10_)_Σ=5_Si_12.00_O_30_F_4.00_
92.02539, 98.91333
92.50751, 96.23579
92.98962, 95.68584
93.47174, 96.50412
93.95386, 98.78467
94.43597, 102.1622
94.91809, 106.8020
95.40021, 112.4106
95.88232, 117.6316
96.36444, 121.8137
96.84656, 126.5087
97.32867, 132.3422
97.81078, 138.9594
98.29290, 145.8606
98.77502, 152.8144
99.25713, 159.9456
99.73925, 164.4202
100.2214, 166.2680
100.7035, 166.4364
101.1856, 165.1870
101.6677, 162.6373
102.1498, 158.8665
102.6320, 153.9112
103.1141, 147.2703
103.5962, 140.2765
104.0783, 132.6750
104.5604, 124.7700
105.0425, 116.8468
105.5247, 108.8824
106.0068, 101.1203
106.4889, 93.91835
106.9710, 87.09127
107.4531, 81.04280
107.9352, 76.04888
108.4173, 72.01863
108.8995, 68.42708
109.3816, 65.09236
109.8637, 62.18188
110.3458, 59.82550
110.8279, 58.05228
111.3100, 56.73315
111.7922, 55.74731
112.2743, 55.13913
112.7564, 54.75408
113.2385, 54.66982
113.7206, 54.70559
114.2027, 54.67524
114.6849, 54.47401
115.1670, 54.21633
115.6491, 54.31800
116.1312, 55.15241
116.6133, 55.94787
117.0954, 56.52551
117.5776, 56.98609
118.0597, 57.46330
118.5418, 58.03077
119.0239, 58.68640
119.5060, 59.75423
119.9881, 61.53613
120.4703, 63.35653
120.9524, 64.91779
121.4345, 66.23833
121.9166, 67.53338
122.3987, 68.97147
122.8808, 70.57941
123.3630, 72.34533
123.8451, 74.24794
124.3272, 76.32162
124.8093, 78.65721
125.2914, 81.31572
125.7735, 83.99773
126.2557, 86.18056
126.7378, 87.98341
127.2199, 90.07337
127.7020, 92.78508
128.1841, 95.98908
128.6662, 99.23935
129.1483, 102.5032
129.6305, 105.7780
130.1126, 109.2208
130.5947, 112.7903
131.0768, 116.0771
131.5589, 118.6807
132.0410, 120.5371
132.5232, 122.2281
133.0053, 123.7563
133.4874, 125.1902
133.9695, 126.6199
134.4516, 128.0418
134.9337, 129.2889
135.4159, 130.0767
135.8980, 130.1088
136.3801, 130.2151
136.8622, 130.6196
137.3443, 131.0137
137.8264, 131.1215
138.3086, 130.8412
138.7907, 130.2833
139.2728, 129.7555
139.7549, 128.9918
140.2370, 128.5746
140.7191, 128.5758
141.2013, 128.9444
141.6834, 129.6418
142.1655, 130.6718
142.6476, 131.9793
143.1297, 133.2949
143.6118, 134.4180
144.0939, 135.7404
144.5761, 137.4817
145.0582, 139.5854
145.5403, 141.8102
146.0224, 144.0381
146.5045, 146.2837
146.9866, 148.5816
147.4688, 150.8841
147.9509, 153.2726
148.4330, 155.8648
148.9151, 158.6965
149.3972, 161.5298
149.8793, 164.5216
150.3615, 167.3933
150.8436, 169.7479
151.3257, 171.4456
151.8078, 172.5296
152.2899, 173.1395
152.7720, 173.5263
153.2542, 172.8528
153.7363, 171.0774
154.2184, 168.2261
154.7005, 164.2756
155.1826, 159.1462
155.6647, 152.8891
156.1469, 146.0824
156.6290, 138.0587
157.1111, 130.1264
157.5932, 122.5942
158.0753, 115.4136
158.5574, 108.4561
159.0396, 101.5580
159.5217, 94.64880
160.0038, 88.51791
160.4859, 83.29925
160.9680, 78.59375
161.4501, 74.30186
161.9323, 70.40305
162.4144, 66.92361
162.8965, 63.94722
163.3786, 61.58824
163.8607, 59.25839
164.3428, 56.80100
164.8250, 54.47868
165.3071, 52.51191
165.7892, 50.92526
166.2713, 49.58170
166.7534, 48.34483
167.2355, 47.22130
167.7177, 46.20290
168.1998, 45.34557
168.6819, 44.56926
169.1640, 43.76563
169.6461, 42.90236
170.1282, 42.05339
170.6104, 41.35174
171.0925, 40.78017
171.5746, 40.16492
172.0567, 39.37375
172.5388, 38.48118
173.0209, 37.69825
173.5031, 37.04795
173.9852, 36.55806
174.4673, 36.26241
174.9494, 36.14336
175.4315, 36.02843
175.9136, 35.75696
176.3958, 35.33689
176.8779, 35.03320
177.3600, 35.02304
177.8421, 35.02367
178.3242, 34.82515
178.8063, 34.44014
179.2885, 34.07878
179.7706, 33.98845
180.2527, 34.24531
180.7348, 34.44360
181.2169, 34.47380
181.6990, 34.50055
182.1812, 34.55787
182.6633, 34.67535
183.1454, 34.92265
183.6275, 35.44442
184.1096, 36.49448
184.5917, 37.27259
185.0738, 37.55508
185.5560, 37.76298
186.0381, 38.18902
186.5202, 38.90610
187.0023, 39.78613
187.4844, 40.61079
187.9665, 41.36815
188.4487, 42.08091
188.9308, 42.78019
189.4129, 43.41800
189.8950, 43.98418
190.3771, 44.47028
190.8592, 44.81059
191.3414, 44.85661
191.8235, 44.52602
192.3056, 44.05184
192.7877, 43.44036
193.2698, 42.70381
193.7519, 41.84087
194.2341, 40.84074
194.7162, 39.74549
195.1983, 38.60940
195.6804, 37.40239
196.1625, 36.25407
196.6446, 35.21863
197.1268, 34.26762
197.6089, 33.30983
198.0910, 32.27022
198.5731, 31.29117
199.0552, 30.60727
199.5373, 30.24607
200.0195, 29.93591
200.5016, 29.52236
200.9837, 29.02807
201.4658, 28.57442
201.9479, 28.20069
202.4300, 27.88086
202.9122, 27.59236
203.3943, 27.33700
203.8764, 27.07645
204.3585, 26.75327
204.8406, 26.36758
205.3227, 26.05837
205.8048, 25.93044
206.2870, 25.84245
206.7691, 25.70400
207.2512, 25.50455
207.7333, 25.26492
208.2154, 24.97492
208.6975, 24.60826
209.1797, 24.34897
209.6618, 24.35879
210.1439, 24.39847
210.6260, 24.31486
211.1081, 24.09065
211.5902, 23.84859
212.0724, 23.76121
212.5545, 23.89281
213.0366, 23.98687
213.5187, 24.03796
214.0008, 24.04143
214.4829, 23.97189
214.9651, 23.83374
215.4472, 23.67541
215.9293, 23.57067
216.4114, 23.55470
216.8935, 23.52141
217.3756, 23.48441
217.8578, 23.42450
218.3399, 23.31345
218.8220, 23.15208
219.3041, 22.97777
219.7862, 22.84657
220.2683, 22.76150
220.7505, 22.72512
221.2326, 22.78112
221.7147, 22.85306
222.1968, 22.87179
222.6789, 22.82465
223.1610, 22.76072
223.6432, 22.75153
224.1253, 22.81681
224.6074, 22.90944
225.0895, 23.10457
225.5716, 23.28599
226.0537, 23.33011
226.5358, 23.21141
227.0180, 23.02216
227.5001, 22.88175
227.9822, 22.79297
228.4643, 22.75941
228.9464, 22.84045
229.4285, 22.95007
229.9107, 22.99530
230.3928, 22.95493
230.8749, 22.86753
231.3570, 22.74319
231.8391, 22.56142
232.3212, 22.54285
232.8034, 22.88052
233.2855, 23.34028
233.7676, 23.61499
234.2497, 23.63534
234.7318, 23.55744
235.2139, 23.51927
235.6961, 23.51777
236.1782, 23.58582
236.6603, 23.80310
237.1424, 24.07374
237.6245, 24.22688
238.1066, 24.20698
238.5888, 24.18973
239.0709, 24.40402
239.5530, 24.77345
240.0351, 25.05466
240.5172, 25.11465
240.9993, 25.04284
241.4815, 25.00372
241.9636, 25.01060
242.4457, 25.04097
242.9278, 25.05383
243.4099, 25.07379
243.8920, 25.16455
244.3742, 25.39732
244.8563, 25.71215
245.3384, 25.97785
245.8205, 26.19450
246.3026, 26.35678
246.7847, 26.42914
247.2668, 26.45451
247.7490, 26.49962
248.2311, 26.59174
248.7132, 26.72419
249.1953, 26.88690
249.6774, 27.09085
250.1595, 27.30388
250.6417, 27.51928
251.1238, 27.73215
251.6059, 27.93322
252.0880, 28.11428
252.5701, 28.28617
253.0522, 28.47967
253.5344, 28.70264
254.0165, 28.93118
254.4986, 29.14088
254.9807, 29.35702
255.4628, 29.62821
255.9449, 29.98721
256.4271, 30.36484
256.9092, 30.58572
257.3913, 30.54313
257.8734, 30.54161
258.3555, 30.54394
258.8376, 30.65241
259.3198, 31.02552
259.8019, 31.72831
260.2840, 32.56393
260.7661, 33.10217
261.2482, 33.14616
261.7303, 33.25637
262.2125, 33.44707
262.6946, 33.74781
263.1767, 34.22029
263.6588, 34.87622
264.1409, 35.60822
264.6230, 36.23981
265.1052, 36.76628
265.5873, 37.18391
266.0694, 37.34859
266.5515, 37.51627
267.0336, 37.90217
267.5157, 38.54026
267.9979, 39.28021
268.4800, 39.91663
268.9621, 40.48256
269.4442, 40.84047
269.9263, 40.89058
270.4084, 40.85057
270.8906, 40.84773
271.3727, 40.90499
271.8548, 40.97882
272.3369, 41.02276
272.8190, 41.05081
273.3011, 40.99266
273.7833, 40.75841
274.2654, 40.53034
274.7475, 40.41860
275.2296, 40.42054
275.7117, 40.46115
276.1938, 40.46383
276.6760, 40.41380
277.1581, 40.42134
277.6402, 40.44016
278.1223, 40.54235
278.6044, 40.80817
279.0865, 41.19976
279.5686, 41.59448
280.0508, 41.89054
280.5329, 42.08437
281.0150, 42.32276
281.4971, 42.63454
281.9792, 42.95206
282.4613, 43.34442
282.9435, 43.72860
283.4256, 43.90131
283.9077, 43.70569
284.3898, 43.19550
284.8719, 42.86784
285.3540, 42.87591
285.8362, 42.86143
286.3183, 42.71756
286.8004, 42.48773
287.2825, 42.26120
287.7646, 42.08656
288.2467, 41.93737
288.7289, 41.71420
289.2110, 41.39015
289.6931, 41.03447
290.1752, 40.61596
290.6573, 40.18386
291.1394, 39.81713
291.6216, 39.54795
292.1037, 39.33675
292.5858, 39.09554
293.0679, 38.77192
293.5500, 38.52306
294.0321, 38.44452
294.5143, 38.41398
294.9964, 38.27297
295.4785, 37.97893
295.9606, 37.65191
296.4427, 37.47179
296.9248, 37.51785
297.4070, 37.47047
297.8891, 37.23585
298.3712, 36.95297
298.8533, 36.74028
299.3354, 36.61687
299.8175, 36.53831
300.2997, 36.46722
300.7818, 36.40612
301.2639, 36.32562
301.7460, 36.28112
302.2281, 36.17600
302.7102, 35.86531
303.1924, 35.38514
303.6745, 34.99070
304.1566, 34.90097
304.6387, 35.10081
305.1208, 35.17511
305.6029, 35.03210
306.0851, 34.86632
306.5672, 34.79192
307.0493, 34.78014
307.5314, 34.71468
308.0135, 34.50671
308.4956, 34.21402
308.9778, 34.09579
309.4599, 34.24789
309.9420, 34.41863
310.4241, 34.55459
310.9062, 34.65156
311.3883, 34.67695
311.8705, 34.60072
312.3526, 34.49818
312.8347, 34.55511
313.3168, 34.84191
313.7989, 35.09241
314.2810, 35.18233
314.7632, 35.23188
315.2453, 35.41919
315.7274, 35.79637
316.2095, 36.25046
316.6916, 36.64723
317.1737, 36.99463
317.6559, 37.23708
318.1380, 37.27258
318.6201, 37.25879
319.1022, 37.30632
319.5843, 37.43782
320.0664, 37.69667
320.5485, 38.15918
321.0306, 38.84444
321.5128, 39.41148
321.9949, 39.77957
322.4770, 40.10420
322.9591, 40.42225
323.4412, 40.76458
323.9233, 41.25018
324.4055, 41.97710
324.8876, 42.91603
325.3697, 43.79305
325.8518, 44.58470
326.3339, 45.35374
326.8160, 46.04873
327.2982, 46.73989
327.7803, 47.60421
328.2624, 48.74363
328.7445, 50.05944
329.2266, 51.30403
329.7087, 52.51780
330.1909, 53.60689
330.6730, 54.46833
331.1551, 55.22109
331.6372, 56.04399
332.1193, 56.99089
332.6014, 57.93157
333.0836, 58.68571
333.5657, 59.20841
334.0478, 59.63329
334.5299, 59.92654
335.0120, 60.14526
335.4941, 60.39014
335.9763, 60.64849
336.4584, 60.74659
336.9405, 60.50298
337.4226, 59.88069
337.9047, 59.25476
338.3868, 58.82753
338.8690, 58.20639
339.3511, 57.05779
339.8332, 55.51630
340.3153, 54.00295
340.7974, 52.77738
341.2795, 51.80595
341.7617, 50.90397
342.2438, 50.19881
342.7259, 49.40607
343.2080, 48.36908
343.6901, 47.22597
344.1722, 46.20720
344.6544, 45.41424
345.1365, 44.73326
345.6186, 43.92961
346.1007, 42.83651
346.5828, 41.87341
347.0649, 41.10105
347.5471, 40.43225
348.0292, 39.84876
348.5113, 39.32624
348.9934, 38.73349
349.4755, 37.88577
349.9576, 36.63478
350.4398, 35.75982
350.9219, 35.54288
351.4040, 35.38267
351.8861, 34.98955
352.3682, 34.37749
352.8503, 33.66870
353.3325, 32.93460
353.8146, 32.19058
354.2967, 31.67516
354.7788, 31.73053
355.2609, 31.62401
355.7430, 31.06516
356.2252, 30.28737
356.7073, 29.63042
357.1894, 29.25791
357.6715, 29.06116
358.1536, 28.75665
358.6357, 28.19047
359.1179, 27.75445
359.5999, 27.58992
360.0821, 27.46966
360.5642, 27.15368
361.0463, 26.62255
361.5284, 26.11083
362.0105, 25.94138
362.4926, 26.24813
362.9748, 26.37886
363.4569, 26.17022
363.9390, 25.95070
364.4211, 25.84212
364.9032, 25.84301
365.3853, 25.91369
365.8675, 26.03608
366.3496, 26.20038
366.8317, 26.30510
367.3138, 26.20466
367.7959, 26.23718
368.2780, 26.54121
368.7602, 26.98851
369.2423, 27.41739
369.7244, 27.75485
370.2065, 28.06337
370.6886, 28.46770
371.1707, 28.98813
371.6529, 29.55681
372.1350, 30.11094
372.6171, 30.74381
373.0992, 31.54902
373.5813, 32.52406
374.0634, 33.57956
374.5456, 34.60487
375.0277, 35.59119
375.5098, 36.68702
375.9919, 37.86291
376.4740, 39.21001
376.9561, 40.75802
377.4383, 42.49956
377.9204, 44.41354
378.4025, 46.57922
378.8846, 48.86976
379.3667, 50.85121
379.8488, 52.27370
380.3310, 54.04341
380.8131, 56.95800
381.2952, 60.20874
381.7773, 62.94357
382.2594, 64.88891
382.7415, 66.56470
383.2237, 68.67421
383.7058, 71.21597
384.1879, 73.16892
384.6700, 74.23390
385.1521, 74.61626
385.6342, 74.64687
386.1164, 74.31386
386.5985, 73.41609
387.0806, 71.57693
387.5627, 69.12413
388.0448, 66.82382
388.5269, 64.77702
389.0091, 62.76921
389.4912, 60.58224
389.9733, 58.30972
390.4554, 56.16166
390.9375, 54.20778
391.4196, 52.36840
391.9018, 50.60172
392.3839, 48.89524
392.8660, 47.18018
393.3481, 45.36087
393.8302, 43.58383
394.3123, 42.12423
394.7945, 41.02806
395.2766, 40.04623
395.7587, 39.09046
396.2408, 38.18574
396.7229, 37.39598
397.2050, 36.73272
397.6872, 36.14164
398.1693, 35.55619
398.6514, 34.97573
399.1335, 34.46325
399.6156, 34.02387
400.0977, 33.64611
400.5798, 33.35964
401.0620, 33.13864
401.5441, 32.87357
402.0262, 32.48063
402.5083, 32.00232
402.9904, 31.66698
403.4725, 31.52110
403.9547, 31.43546
404.4368, 31.36465
404.9189, 31.34903
405.4010, 31.49429
405.8831, 31.82180
406.3652, 32.15788
406.8474, 32.23457
407.3295, 31.92899
407.8116, 31.70951
408.2937, 31.64874
408.7758, 31.59977
409.2579, 31.42950
409.7401, 31.18682
410.2222, 31.06061
410.7043, 31.22016
411.1864, 31.60546
411.6685, 31.68937
412.1506, 31.14699
412.6328, 30.68818
413.1149, 30.48221
413.5970, 30.38242
414.0791, 30.24860
414.5612, 30.02776
415.0433, 29.70847
415.5255, 29.23759
416.0076, 28.53393
416.4897, 27.95289
416.9718, 27.57956
417.4539, 27.28392
417.9360, 27.04451
418.4182, 26.83727
418.9003, 26.61445
419.3824, 26.31923
419.8645, 25.98195
420.3466, 25.73144
420.8287, 25.57573
421.3109, 25.49695
421.7930, 25.53433
422.2751, 25.62004
422.7572, 25.67760
423.2393, 25.68203
423.7214, 25.67454
424.2036, 25.72340
424.6857, 25.82348
425.1678, 25.82568
425.6499, 25.59937
426.1320, 25.39146
426.6141, 25.44160
427.0963, 25.72306
427.5784, 26.03963
428.0605, 26.27444
428.5426, 26.50943
429.0247, 26.91620
429.5068, 27.51992
429.9890, 28.04709
430.4711, 28.22843
430.9532, 28.22886
431.4353, 28.56775
431.9174, 29.45056
432.3995, 30.37008
432.8817, 30.89168
433.3638, 31.28040
433.8459, 32.15822
434.3280, 33.74453
434.8101, 35.65941
435.2922, 37.37383
435.7744, 38.79318
436.2565, 40.40266
436.7386, 42.45784
437.2207, 44.51682
437.7028, 46.34930
438.1849, 47.90766
438.6671, 49.14955
439.1492, 50.03938
439.6313, 50.59752
440.1134, 50.91499
440.5955, 51.31285
441.0776, 51.05460
441.5598, 49.81076
442.0418, 47.99819
442.5240, 45.94316
443.0061, 43.78040
443.4882, 41.59040
443.9703, 39.47898
444.4524, 37.42317
444.9345, 35.53041
445.4167, 33.79154
445.8988, 32.23421
446.3809, 30.89929
446.8630, 29.76466
447.3451, 28.78574
447.8272, 27.96188
448.3094, 27.24895
448.7915, 26.51623
449.2736, 25.70206
449.7557, 25.04756
450.2378, 24.77316
450.7199, 24.56952
451.2021, 24.19056
451.6842, 23.61871
452.1663, 23.06523
452.6484, 22.72238
453.1305, 22.54376
453.6126, 22.31194
454.0948, 21.95704
454.5769, 21.68811
455.0590, 21.72314
455.5411, 21.93334
456.0232, 22.10537
456.5053, 22.17636
456.9875, 22.21820
457.4696, 22.21022
457.9517, 22.19939
458.4338, 22.43098
458.9159, 23.04146
459.3980, 23.82221
459.8802, 24.48154
460.3623, 25.02281
460.8444, 25.49340
461.3265, 25.73100
461.8086, 26.01553
462.2907, 26.70313
462.7729, 27.74046
463.2550, 28.70664
463.7371, 29.32786
464.2192, 29.63703
464.7013, 29.83583
465.1834, 29.98805
465.6656, 29.95913
466.1477, 29.74702
466.6298, 29.33479
467.1119, 28.65529
467.5940, 27.71399
468.0761, 26.66141
468.5583, 25.67297
469.0404, 24.74911
469.5225, 23.83625
470.0046, 22.76602
470.4867, 21.88510
470.9688, 21.42390
471.4510, 21.20149
471.9331, 20.92083
472.4152, 20.43444
472.8973, 19.86522
473.3794, 19.42736
473.8615, 19.11786
474.3437, 18.95640
474.8258, 19.10541
475.3079, 19.28076
475.7900, 19.29620
476.2721, 19.16549
476.7542, 19.02498
477.2364, 18.97574
477.7185, 18.97172
478.2006, 18.90732
478.6827, 18.77789
479.1648, 18.61344
479.6469, 18.40430
480.1291, 18.18030
480.6112, 17.98610
481.0933, 17.80939
481.5754, 17.70312
482.0575, 17.72890
482.5396, 17.83582
483.0217, 17.96008
483.5038, 18.09401
483.9860, 18.14805
484.4681, 18.02271
484.9502, 17.70785
485.4323, 17.39599
485.9144, 17.04899
486.3965, 16.74535
486.8787, 16.47817
487.3608, 16.28391
487.8429, 16.26386
488.3250, 16.45759
488.8071, 16.72224
489.2892, 16.79757
489.7714, 16.59311
490.2535, 16.41638
490.7356, 16.26520
491.2177, 16.13891
491.6998, 16.04727
492.1819, 15.98083
492.6641, 15.91896
493.1462, 15.84821
493.6283, 15.77511
494.1104, 15.71319
494.5925, 15.64935
495.0746, 15.63296
495.5568, 15.78754
496.0389, 15.91532
496.5210, 15.82809
497.0031, 15.53301
497.4852, 15.26271
497.9673, 15.21381
498.4495, 15.31259
498.9316, 15.36905
499.4137, 15.38128
499.8958, 15.32461
500.3779, 15.11020
500.8600, 14.84160
501.3422, 14.74736
501.8243, 14.93707
502.3064, 15.08580
502.7885, 14.96024
503.2706, 14.70262
503.7527, 14.57679
504.2349, 14.64106
504.7170, 14.77511
505.1991, 14.87894
505.6812, 14.95331
506.1633, 14.93343
506.6454, 14.70708
507.1276, 14.52184
507.6097, 14.50164
508.0918, 14.57184
508.5739, 14.61925
509.0560, 14.60097
509.5381, 14.54110
510.0203, 14.47569
510.5024, 14.40343
510.9845, 14.32995
511.4666, 14.12863
511.9487, 14.05267
512.4308, 14.34929
512.9130, 14.82848
513.3951, 15.09901
513.8772, 14.92862
514.3593, 14.55678
514.8414, 14.45106
515.3235, 14.65960
515.8057, 14.75528
516.2878, 14.53358
516.7699, 14.27629
517.2520, 14.24159
517.7341, 14.40201
518.2162, 14.54399
518.6984, 14.59083
519.1805, 14.56341
519.6626, 14.46645
520.1447, 14.30605
520.6268, 14.13928
521.1089, 13.96533
521.5911, 13.83385
522.0732, 13.89374
522.5553, 14.22652
523.0374, 14.47557
523.5195, 14.53155
524.0016, 14.51427
524.4838, 14.53290
524.9659, 14.58583
525.4480, 14.59543
525.9301, 14.49687
526.4122, 14.32138
526.8943, 14.22925
527.3765, 14.26870
527.8586, 14.33008
528.3407, 14.41379
528.8228, 14.50744
529.3049, 14.61110
529.7870, 14.71847
530.2692, 14.80703
530.7513, 14.85165
531.2334, 14.85974
531.7155, 14.88083
532.1976, 14.93329
532.6797, 14.95544
533.1619, 14.86607
533.6440, 14.76020
534.1261, 14.75825
534.6082, 14.89484
535.0903, 14.99719
535.5724, 14.92210
536.0546, 14.73918
536.5367, 14.56957
537.0188, 14.42199
537.5009, 14.37947
537.9830, 14.55946
538.4651, 14.89769
538.9473, 15.03468
539.4294, 14.88149
539.9115, 14.66033
540.3936, 14.31727
540.8757, 13.99339
541.3578, 13.92240
541.8400, 14.12003
542.3221, 14.32512
542.8042, 14.25305
543.2863, 13.89723
543.7684, 13.67381
544.2505, 13.70948
544.7326, 13.73282
545.2147, 13.66163
545.6968, 13.56850
546.1790, 13.55166
546.6611, 13.63058
547.1432, 13.71145
547.6253, 13.67148
548.1074, 13.52502
548.5895, 13.43612
549.0717, 13.40831
549.5538, 13.44438
550.0359, 13.63507
550.5180, 13.86842
551.0001, 13.96288
551.4822, 13.84713
551.9644, 13.69233
552.4465, 13.58961
552.9286, 13.52677
553.4107, 13.50080
553.8928, 13.51301
554.3749, 13.47389
554.8571, 13.27341
555.3392, 12.91989
555.8213, 12.74403
556.3034, 12.88083
556.7855, 13.00237
557.2676, 12.97960
557.7498, 12.91747
558.2319, 12.96712
558.7140, 13.15082
559.1961, 13.33777
559.6782, 13.37220
560.1603, 13.25154
560.6425, 13.19824
561.1246, 13.25469
561.6067, 13.31977
562.0888, 13.36201
562.5709, 13.39502
563.0530, 13.44127
563.5352, 13.50709
564.0173, 13.55573
564.4994, 13.53156
564.9815, 13.46397
565.4636, 13.46821
565.9457, 13.57422
566.4279, 13.64526
566.9100, 13.54160
567.3921, 13.33966
567.8742, 13.31320
568.3563, 13.60545
568.8384, 13.83323
569.3206, 13.79564
569.8027, 13.65856
570.2848, 13.64457
570.7669, 13.77331
571.2490, 13.88817
571.7311, 13.84365
572.2133, 13.65961
572.6954, 13.55510
573.1775, 13.54725
573.6596, 13.60290
574.1417, 13.76855
574.6238, 13.95888
575.1060, 14.09752
575.5881, 14.17865
576.0702, 14.25121
576.5523, 14.36383
577.0344, 14.50001
577.5165, 14.59088
577.9987, 14.62377
578.4808, 14.66763
578.9629, 14.76330
579.4450, 14.87723
579.9271, 14.96489
580.4092, 15.02482
580.8914, 15.06400
581.3735, 15.07010
581.8556, 15.06606
582.3377, 15.05349
582.8198, 15.04641
583.3019, 15.11412
583.7841, 15.30603
584.2662, 15.57665
584.7483, 15.80129
585.2304, 15.94798
585.7125, 16.10002
