##NAMES=Freieslebenite
##RRUFFID=R060174
##IDEAL CHEMISTRY=Ag^1+^Pb^2+^Sb^3+^S^2-^_3_
##LOCALITY=Van Silver mine, Vancouver, British Columbia, Canada
##OWNER=RRUFF
##SOURCE=Ty Balacko, TB
##DESCRIPTION=Pale steel-gray striated prismatic crystals
##STATUS=The identification of this mineral is confirmed by single-crystal X-ray diffraction and chemical analysis.
##URL=rruff.info/R060174
##MEASURED CHEMISTRY=Ag_1.00_(Pb_0.95_Fe_0.05_)_Î£=1_Sb_1.00_S_3.00_
89.78156, 0.0000000E+00
90.26367, 5.894355
90.74579, 5.792140
91.22791, 5.871735
91.71002, 6.106268
92.19214, 6.255318
92.67426, 6.009429
93.15638, 5.509652
93.63850, 5.138223
94.12061, 5.073835
94.60273, 5.204958
95.08485, 5.294927
95.56696, 5.345063
96.04908, 5.339740
96.53120, 5.215486
97.01331, 4.982192
97.49543, 4.796089
97.97755, 4.753901
98.45966, 4.846270
98.94178, 4.883272
99.42390, 4.846901
99.90602, 4.779145
100.3881, 4.769257
100.8703, 4.836528
101.3524, 4.892858
101.8345, 4.862588
102.3166, 4.694669
102.7987, 4.681024
103.2808, 4.927197
103.7630, 5.340096
104.2451, 5.482721
104.7272, 5.227065
105.2093, 4.871882
105.6914, 4.602105
106.1735, 4.436089
106.6557, 4.329134
107.1378, 4.286276
107.6199, 4.308546
108.1020, 4.354570
108.5841, 4.514575
109.0662, 4.650979
109.5484, 4.642592
110.0305, 4.244258
110.5126, 3.944357
110.9947, 3.868999
111.4768, 4.084297
111.9590, 4.218632
112.4411, 4.122523
112.9232, 3.955911
113.4053, 3.927256
113.8874, 4.123405
114.3695, 4.421436
114.8517, 4.820607
115.3338, 5.426843
115.8159, 5.858019
116.2980, 5.813578
116.7801, 5.508867
117.2622, 5.413103
117.7444, 5.868531
118.2265, 6.491466
118.7086, 7.021658
119.1907, 7.346443
119.6728, 7.666350
120.1549, 8.087605
120.6371, 8.597422
121.1192, 9.146338
121.6013, 9.716800
122.0834, 10.30256
122.5655, 10.88386
123.0476, 11.32765
123.5298, 11.87584
124.0119, 12.86705
124.4940, 14.26873
124.9761, 15.62679
125.4582, 16.55316
125.9404, 17.17015
126.4225, 17.70747
126.9046, 18.26970
127.3867, 18.80212
127.8688, 19.16867
128.3509, 19.35145
128.8331, 19.54288
129.3152, 19.97079
129.7973, 20.60371
130.2794, 21.27049
130.7615, 21.84522
131.2436, 22.38472
131.7258, 23.10710
132.2079, 24.05632
132.6900, 25.08336
133.1721, 25.89086
133.6542, 26.47111
134.1364, 27.19312
134.6185, 28.38556
135.1006, 30.02769
135.5827, 31.39988
136.0648, 32.40826
136.5469, 33.18148
137.0291, 34.03611
137.5112, 34.99358
137.9933, 35.92052
138.4754, 36.75312
138.9575, 37.48501
139.4396, 38.10529
139.9218, 38.56472
140.4039, 38.90954
140.8860, 39.37724
141.3681, 40.03047
141.8502, 40.69010
142.3323, 41.16099
142.8145, 41.30410
143.2966, 41.64818
143.7787, 42.37904
144.2608, 43.49096
144.7429, 44.19698
145.2250, 44.10130
145.7072, 43.96375
146.1893, 44.56939
146.6714, 46.66372
147.1535, 48.38046
147.6356, 49.23161
148.1178, 49.04992
148.5999, 49.12304
149.0820, 49.48511
149.5641, 50.08906
150.0462, 50.88135
150.5283, 52.09861
151.0105, 53.25811
151.4926, 53.76288
151.9747, 53.98865
152.4568, 54.17017
152.9389, 54.26204
153.4210, 54.32662
153.9032, 54.45330
154.3853, 54.77107
154.8674, 55.04397
155.3495, 55.17741
155.8316, 55.08098
156.3137, 55.04998
156.7959, 55.13278
157.2780, 55.30766
157.7601, 55.53450
158.2422, 55.98396
158.7243, 56.35217
159.2065, 56.46918
159.6886, 56.11947
160.1707, 55.85423
160.6528, 55.84992
161.1349, 56.04848
161.6170, 56.30043
162.0992, 56.63628
162.5813, 56.95611
163.0634, 57.18978
163.5455, 57.27023
164.0276, 57.33355
164.5097, 57.41527
164.9919, 57.52193
165.4740, 57.68066
165.9561, 57.86354
166.4382, 58.12170
166.9203, 58.52166
167.4024, 59.38565
167.8846, 60.08667
168.3667, 60.05044
168.8488, 59.39637
169.3309, 58.89319
169.8130, 59.23034
170.2952, 59.92187
170.7773, 60.36005
171.2594, 60.19216
171.7415, 59.81220
172.2236, 59.47403
172.7057, 59.18209
173.1879, 59.02429
173.6700, 59.21172
174.1521, 59.56061
174.6342, 59.76160
175.1163, 59.45400
175.5984, 59.05798
176.0806, 59.16574
176.5627, 59.78066
177.0448, 60.39416
177.5269, 60.50921
178.0090, 60.27448
178.4911, 60.04515
178.9733, 59.98660
179.4554, 60.02314
179.9375, 60.02628
180.4196, 59.98914
180.9017, 59.97355
181.3838, 60.08847
181.8660, 60.29282
182.3481, 60.44276
182.8302, 60.37045
183.3123, 60.20635
183.7944, 60.30138
184.2766, 60.70616
184.7587, 61.15532
185.2408, 61.28755
185.7229, 61.15076
186.2050, 61.04159
186.6871, 61.19084
187.1693, 61.50068
187.6514, 61.55733
188.1335, 61.29065
188.6156, 60.95255
189.0977, 60.91298
189.5798, 61.16032
190.0620, 61.47522
190.5441, 61.78965
191.0262, 62.09190
191.5083, 62.30389
191.9904, 62.41560
192.4725, 62.45736
192.9547, 62.46712
193.4368, 62.44415
193.9189, 62.42182
194.4010, 62.41346
194.8831, 62.41991
195.3652, 62.45890
195.8474, 62.54807
196.3295, 62.64519
196.8116, 62.62728
197.2937, 62.47489
197.7758, 62.38915
198.2579, 62.54724
198.7401, 62.95698
199.2222, 63.21718
199.7043, 63.25909
200.1864, 63.17777
200.6685, 63.20023
201.1507, 63.34852
201.6328, 63.49339
202.1149, 63.54235
202.5970, 63.48212
203.0791, 63.45849
203.5612, 63.48254
204.0434, 63.55076
204.5255, 63.65599
205.0076, 63.80029
205.4897, 63.97570
205.9718, 64.23969
206.4539, 64.65143
206.9361, 64.76912
207.4182, 64.44032
207.9003, 63.84532
208.3824, 63.57053
208.8645, 63.69398
209.3466, 63.93353
209.8288, 64.16061
210.3109, 64.41206
210.7930, 64.47109
211.2751, 64.23672
211.7572, 63.81748
212.2393, 63.60521
212.7215, 63.63494
213.2036, 63.79602
213.6857, 64.06528
214.1678, 64.52502
214.6499, 64.80589
215.1320, 64.83564
215.6142, 64.66676
216.0963, 64.51829
216.5784, 64.37993
217.0605, 64.28082
217.5426, 64.23324
218.0247, 64.22408
218.5069, 64.31283
218.9890, 64.54448
219.4711, 64.88032
219.9532, 65.14909
220.4353, 65.36911
220.9175, 65.49796
221.3996, 65.47633
221.8817, 65.19215
222.3638, 65.05597
222.8459, 65.13699
223.3280, 65.40034
223.8102, 65.68066
224.2923, 66.05215
224.7744, 66.33499
225.2565, 66.39107
225.7386, 66.10942
226.2207, 65.86555
226.7029, 65.68304
227.1850, 65.56133
227.6671, 65.51289
228.1492, 65.56211
228.6313, 65.64942
229.1134, 65.74709
229.5956, 65.88389
230.0777, 65.96317
230.5598, 65.93765
231.0419, 65.84425
231.5240, 65.87218
232.0062, 66.08939
232.4883, 66.33687
232.9704, 66.53703
233.4525, 66.74126
233.9346, 66.77219
234.4167, 66.50520
234.8989, 66.04031
235.3810, 65.86603
235.8631, 66.14001
236.3452, 66.49406
236.8273, 66.72463
237.3094, 66.79487
237.7916, 66.81194
238.2737, 66.73674
238.7558, 66.60893
239.2379, 66.61224
239.7200, 66.86045
240.2021, 67.08469
240.6843, 67.11397
241.1664, 66.77087
241.6485, 66.63709
242.1306, 66.86168
242.6127, 67.31470
243.0948, 67.46108
243.5770, 67.05704
244.0591, 66.68711
244.5412, 66.69728
245.0233, 67.39342
245.5054, 67.77684
245.9876, 67.69614
246.4697, 67.29901
246.9518, 67.03761
247.4339, 66.92030
247.9160, 66.92583
248.3981, 67.08121
248.8803, 67.54158
249.3624, 67.76608
249.8445, 67.62789
250.3266, 67.27685
250.8087, 67.12643
251.2908, 67.24401
251.7730, 67.45275
252.2551, 67.68314
252.7372, 67.95757
253.2193, 68.20792
253.7014, 68.47790
254.1835, 68.70264
254.6657, 68.69019
255.1478, 68.25884
255.6299, 67.91009
256.1120, 67.86698
256.5941, 68.22939
257.0763, 68.59286
257.5584, 68.98959
258.0405, 69.37234
258.5226, 69.62832
259.0047, 69.70336
259.4868, 69.77084
259.9690, 69.92813
260.4511, 70.24010
260.9332, 70.31352
261.4153, 70.01089
261.8974, 69.59079
262.3795, 69.53587
262.8617, 70.02219
263.3438, 70.44524
263.8259, 70.56087
264.3080, 70.30170
264.7901, 70.22903
265.2722, 70.41944
265.7544, 70.70427
266.2365, 70.83652
266.7186, 70.78209
267.2007, 70.67577
267.6828, 70.52843
268.1649, 70.32954
268.6471, 70.26939
269.1292, 70.38634
269.6113, 70.58000
270.0934, 70.73234
270.5755, 70.84061
271.0576, 70.91788
271.5398, 70.92704
272.0219, 70.87513
272.5040, 71.05440
272.9861, 71.55251
273.4682, 72.08682
273.9503, 72.37037
274.4325, 72.38039
274.9146, 72.23341
275.3967, 71.86726
275.8788, 71.33836
276.3610, 71.15012
276.8431, 71.35562
277.3252, 71.74281
277.8073, 72.20539
278.2894, 72.77112
278.7715, 73.08284
279.2537, 73.00606
279.7358, 72.63856
280.2179, 72.40708
280.7000, 72.34436
281.1821, 72.26970
281.6642, 71.92744
282.1464, 71.31420
282.6285, 71.07085
283.1106, 71.42687
283.5927, 72.11282
284.0748, 72.36977
284.5569, 72.16084
285.0391, 71.85139
285.5212, 71.70340
286.0033, 71.69878
286.4854, 71.61968
286.9675, 71.41024
287.4496, 71.15542
287.9318, 71.05460
288.4139, 71.10941
288.8960, 71.14233
289.3781, 70.98909
289.8602, 70.70271
290.3423, 70.56236
290.8245, 70.61214
291.3066, 70.76435
291.7887, 70.91453
292.2708, 71.05960
292.7529, 71.15745
293.2350, 71.09429
293.7172, 70.95975
294.1993, 71.10825
294.6814, 71.61814
295.1635, 72.11765
295.6456, 72.01910
296.1277, 71.45670
296.6099, 71.00278
297.0920, 71.07565
297.5741, 71.40914
298.0562, 71.41819
298.5383, 71.06870
299.0204, 70.73360
299.5026, 70.83066
299.9847, 71.24089
300.4668, 71.65293
300.9489, 71.90183
301.4311, 72.10023
301.9132, 72.47569
302.3953, 73.01955
302.8774, 73.41936
303.3595, 73.24961
303.8416, 72.79050
304.3238, 72.54600
304.8059, 72.86187
305.2880, 73.28339
305.7701, 73.26484
306.2522, 72.87932
306.7343, 72.57412
307.2165, 72.68034
307.6986, 73.02400
308.1807, 73.41174
308.6628, 73.89084
309.1449, 74.25267
309.6270, 74.21506
310.1092, 73.90020
310.5913, 73.70362
311.0734, 73.94983
311.5555, 74.35050
312.0376, 74.65441
312.5197, 74.79826
313.0019, 74.89163
313.4840, 75.01955
313.9661, 75.14347
314.4482, 75.18667
314.9303, 75.02079
315.4124, 74.83347
315.8946, 74.76561
316.3767, 74.86766
316.8588, 74.91652
317.3409, 74.85550
317.8230, 74.68022
318.3051, 74.38608
318.7873, 73.72083
319.2694, 73.15315
319.7515, 72.91837
320.2336, 73.05015
320.7157, 73.19641
321.1978, 73.35706
321.6800, 73.44234
322.1621, 73.36982
322.6442, 72.89335
323.1263, 72.49335
323.6084, 72.32594
324.0905, 72.37580
324.5727, 72.37594
325.0548, 72.25243
325.5369, 72.09166
326.0190, 71.94624
326.5012, 71.68962
326.9833, 71.60246
327.4654, 71.81248
327.9475, 72.23840
328.4296, 72.55201
328.9117, 72.81612
329.3939, 72.91113
329.8760, 72.77071
330.3581, 72.21067
330.8402, 71.74422
331.3223, 71.32912
331.8044, 71.01394
332.2866, 70.90810
332.7687, 71.10405
333.2508, 71.37543
333.7329, 71.69362
334.2150, 72.11248
334.6971, 72.30283
335.1793, 72.19195
335.6614, 71.92513
336.1435, 71.66148
336.6256, 71.34367
337.1077, 71.19425
337.5898, 71.36475
338.0720, 71.82756
338.5541, 71.88581
339.0362, 71.38230
339.5183, 70.83249
340.0004, 70.80905
340.4825, 71.42678
340.9647, 71.72916
341.4468, 71.42986
341.9289, 70.77212
342.4110, 70.56528
342.8931, 70.25915
343.3752, 70.78368
343.8574, 71.12957
344.3395, 71.30638
344.8216, 70.80775
345.3037, 71.18130
345.7858, 71.20531
346.2679, 71.21499
346.7501, 71.46907
347.2322, 71.75580
347.7143, 71.86386
348.1964, 71.80286
348.6785, 71.06644
349.1607, 71.20216
349.6428, 70.98837
350.1249, 70.76025
350.6070, 71.01876
351.0891, 70.53096
351.5713, 70.98476
352.0534, 71.25989
352.5355, 71.36594
353.0176, 70.79658
353.4997, 71.09939
353.9818, 71.05267
354.4640, 70.99162
354.9461, 71.41718
355.4282, 70.94604
355.9103, 71.36388
356.3924, 71.51266
356.8745, 71.86066
357.3567, 72.09112
357.8388, 72.01775
358.3209, 71.84825
358.8030, 71.76597
359.2851, 71.82939
359.7672, 71.91504
360.2494, 72.00712
360.7315, 72.07169
361.2136, 72.04556
361.6957, 71.69283
362.1778, 71.41589
362.6599, 71.51917
363.1421, 72.10011
363.6242, 72.45194
364.1063, 72.05983
364.5884, 71.45582
365.0705, 71.18731
365.5526, 71.72336
366.0348, 72.22778
366.5169, 72.51752
366.9990, 72.59645
367.4811, 72.61239
367.9632, 72.38145
368.4453, 72.22605
368.9275, 72.33942
369.4096, 73.13451
369.8917, 73.62693
370.3738, 73.67839
370.8559, 73.42065
371.3380, 73.21255
371.8202, 73.03206
372.3023, 72.92930
372.7844, 72.94084
373.2665, 73.10380
373.7487, 73.23730
374.2308, 73.36736
374.7129, 73.44244
375.1950, 73.35947
375.6771, 73.04003
376.1592, 72.81663
376.6414, 72.80166
377.1235, 72.97193
377.6056, 73.09576
378.0877, 73.17603
378.5698, 73.20615
379.0519, 73.14342
379.5341, 72.98746
380.0162, 72.92652
380.4983, 73.01529
380.9804, 73.18994
381.4625, 73.28329
381.9446, 73.29893
382.4268, 73.36043
382.9089, 73.68124
383.3910, 74.12022
383.8731, 74.13960
384.3552, 73.62435
384.8373, 73.04343
385.3195, 72.97996
385.8016, 73.30664
386.2837, 73.64974
386.7658, 73.88685
387.2479, 74.02522
387.7300, 74.02953
388.2122, 73.90645
388.6943, 73.80716
389.1764, 73.85708
389.6585, 73.99223
390.1406, 74.12617
390.6227, 74.19102
391.1049, 74.31099
391.5870, 74.71023
392.0691, 75.25690
392.5512, 75.55400
393.0333, 75.12569
393.5154, 74.59403
393.9976, 74.37893
394.4797, 74.62514
394.9618, 74.88509
395.4439, 75.04980
395.9260, 75.13734
396.4081, 75.17165
396.8903, 75.04433
397.3724, 74.97813
397.8545, 75.11089
398.3366, 75.45869
398.8188, 75.59773
399.3009, 75.20849
399.7830, 74.79477
400.2651, 74.68607
400.7472, 75.23213
401.2293, 75.54971
401.7115, 75.47166
402.1936, 75.14881
402.6757, 75.06075
403.1578, 75.36492
403.6399, 75.63171
404.1220, 75.64693
404.6042, 75.34412
405.0863, 75.18494
405.5684, 75.20374
406.0505, 75.31269
406.5326, 75.42393
407.0147, 75.54774
407.4969, 75.59028
407.9790, 75.49268
408.4611, 75.30318
408.9432, 75.19930
409.4253, 75.18119
409.9074, 75.26143
410.3896, 75.53845
410.8717, 75.94786
411.3538, 76.17696
411.8359, 76.13637
412.3180, 76.00628
412.8001, 76.02693
413.2823, 76.17447
413.7644, 76.35476
414.2465, 76.61335
414.7286, 76.83378
415.2107, 76.80604
415.6928, 76.51327
416.1750, 76.23943
416.6571, 76.22695
417.1392, 76.35787
417.6213, 76.46944
418.1034, 76.43141
418.5855, 76.44080
419.0677, 76.71101
419.5498, 77.15395
420.0319, 77.42836
420.5140, 77.29646
420.9961, 77.02747
421.4782, 76.75020
421.9604, 76.41563
422.4425, 76.25776
422.9246, 76.46822
423.4067, 76.84626
423.8889, 77.11975
424.3710, 77.13627
424.8531, 77.16995
425.3352, 77.30486
425.8173, 77.54222
426.2994, 77.68391
426.7816, 77.67996
427.2637, 77.62949
427.7458, 77.60432
428.2279, 77.65118
428.7100, 77.59238
429.1921, 77.35207
429.6743, 77.04194
430.1564, 76.97632
430.6385, 77.23849
431.1206, 77.41903
431.6027, 77.25628
432.0848, 76.77641
432.5670, 76.69360
433.0491, 77.08031
433.5312, 77.56809
434.0133, 77.74763
434.4954, 77.66343
434.9775, 77.61755
435.4597, 77.70089
435.9418, 77.84097
436.4239, 77.92741
436.9060, 77.96009
437.3881, 77.94164
437.8702, 77.70898
438.3524, 77.48415
438.8345, 77.48552
439.3166, 77.93779
439.7987, 78.21140
440.2808, 78.31596
440.7629, 77.74508
441.2451, 78.04638
441.7272, 77.99815
442.2093, 77.93559
442.6914, 78.35965
443.1735, 77.88701
443.6556, 78.30335
444.1378, 78.00866
444.6199, 77.89608
445.1020, 77.84958
445.5841, 77.89648
446.0662, 77.97231
446.5483, 77.99533
447.0305, 78.05875
447.5126, 77.94183
447.9947, 78.38649
448.4768, 78.65248
448.9590, 78.74942
449.4411, 78.17092
449.9232, 78.46460
450.4053, 78.40875
450.8874, 78.33857
451.3695, 78.75500
451.8517, 78.27475
452.3338, 78.68347
452.8159, 78.73732
453.2980, 78.95359
453.7801, 78.81817
454.2622, 78.79137
454.7444, 79.11639
455.2265, 79.17783
455.7086, 79.82910
456.1907, 79.94821
456.6728, 79.50267
457.1549, 78.96144
457.6371, 78.72019
458.1192, 78.71394
458.6013, 78.78342
459.0834, 78.89795
459.5655, 79.06036
460.0476, 79.36109
460.5298, 79.72885
461.0119, 79.93934
461.4940, 79.70628
461.9761, 79.39151
462.4582, 79.30427
462.9403, 79.48521
463.4225, 79.65376
463.9046, 79.49368
464.3867, 79.34739
464.8688, 78.95629
465.3509, 79.46622
465.8330, 79.79749
466.3152, 79.95971
466.7973, 79.44648
467.2794, 79.80543
467.7615, 79.81484
468.2436, 79.80993
468.7257, 80.29163
469.2079, 80.22548
469.6900, 80.24455
470.1721, 80.52868
470.6542, 80.84554
471.1363, 80.93684
471.6184, 80.74789
472.1006, 80.52676
472.5827, 80.24816
473.0648, 80.00729
473.5469, 80.19106
474.0291, 80.84103
474.5112, 81.42967
474.9933, 81.62247
475.4754, 81.49368
475.9575, 81.33994
476.4396, 81.16658
476.9218, 81.00919
477.4039, 80.89751
477.8860, 80.83157
478.3681, 80.81094
478.8502, 80.81947
479.3323, 80.89188
479.8145, 81.12690
480.2966, 81.47411
480.7787, 81.73989
481.2608, 81.76614
481.7429, 81.72080
482.2250, 81.74085
482.7072, 81.86788
483.1893, 81.90318
483.6714, 81.63646
484.1535, 81.30689
484.6356, 81.15546
485.1177, 81.48544
485.5999, 81.69298
486.0820, 81.60725
486.5641, 81.31593
487.0462, 81.13583
487.5283, 81.11662
488.0104, 81.14326
488.4926, 81.14800
488.9747, 81.09815
489.4568, 81.27779
489.9389, 81.78874
490.4210, 82.34364
490.9031, 82.59541
491.3853, 82.52827
491.8674, 82.44033
492.3495, 82.37764
492.8316, 82.34328
493.3137, 82.36772
493.7958, 82.44333
494.2780, 82.48847
494.7601, 82.31993
495.2422, 82.12199
495.7243, 82.35800
496.2064, 83.07068
496.6885, 83.69782
497.1707, 83.71854
497.6528, 83.40677
498.1349, 83.13338
498.6170, 82.99475
499.0992, 82.92770
499.5813, 82.87043
500.0634, 82.85645
500.5455, 82.96618
501.0276, 83.42089
501.5097, 83.82908
501.9919, 84.00665
502.4740, 83.90291
502.9561, 83.83607
503.4382, 83.86040
503.9203, 83.90778
504.4024, 83.94313
504.8846, 84.02534
505.3667, 83.96436
505.8488, 83.68486
506.3309, 83.29710
506.8130, 83.00290
507.2951, 82.77479
507.7773, 82.77819
508.2594, 83.20985
508.7415, 83.94426
509.2236, 84.21348
509.7057, 83.98616
510.1878, 83.69580
510.6700, 83.70499
511.1521, 83.93737
511.6342, 84.18623
512.1163, 84.43670
512.5984, 84.62809
513.0806, 84.65913
513.5627, 84.58367
514.0448, 84.51424
514.5269, 84.47753
515.0090, 84.48125
515.4911, 84.53323
515.9733, 84.63140
516.4554, 84.76180
516.9375, 85.09295
517.4196, 85.32719
517.9017, 85.23833
518.3839, 84.58237
518.8660, 84.13968
519.3481, 84.06358
519.8302, 84.21181
520.3123, 84.46518
520.7944, 84.98677
521.2766, 85.32053
521.7587, 85.37957
522.2408, 85.20457
522.7229, 84.89845
523.2050, 84.39717
523.6871, 84.00719
524.1693, 83.93922
524.6514, 84.16635
525.1335, 84.32397
525.6156, 84.40807
526.0977, 84.45430
526.5798, 84.43394
527.0620, 84.40026
527.5441, 84.53730
528.0262, 84.95947
528.5083, 85.41619
528.9904, 85.66177
529.4725, 85.72873
529.9547, 85.69298
530.4368, 85.44585
530.9189, 85.22085
531.4010, 85.13546
531.8831, 85.19676
532.3652, 84.88383
532.8474, 85.60945
533.3295, 86.02879
533.8116, 86.15829
534.2937, 85.12992
534.7758, 85.59671
535.2579, 85.46431
535.7401, 85.30735
536.2222, 85.98457
536.7043, 85.12462
537.1864, 85.78861
537.6685, 85.84428
538.1506, 85.89204
538.6328, 85.82211
539.1149, 85.47283
539.5970, 85.20869
540.0791, 85.31863
540.5612, 85.71914
541.0433, 86.02317
541.5255, 86.21408
542.0076, 86.33005
542.4897, 86.34199
542.9718, 86.31438
543.4539, 86.39355
543.9360, 86.69067
544.4182, 86.97520
544.9003, 87.02023
545.3824, 86.91262
545.8645, 86.84661
546.3466, 86.94718
546.8287, 87.06367
547.3109, 87.09954
547.7930, 87.04834
548.2751, 87.08991
548.7572, 87.37791
549.2393, 87.66768
549.7214, 87.84534
550.2036, 87.97189
550.6857, 87.80546
551.1678, 87.12132
551.6499, 86.37476
552.1320, 86.28313
552.6141, 86.96117
553.0963, 87.53796
553.5784, 87.78928
554.0605, 87.83157
554.5426, 87.99262
555.0247, 88.26164
555.5068, 88.43864
555.9890, 88.27914
556.4711, 87.98726
556.9532, 88.01280
557.4353, 88.36987
557.9174, 88.60055
558.3995, 88.14214
558.8817, 87.46782
559.3638, 87.10886
559.8459, 87.30898
560.3281, 87.59854
560.8102, 87.87003
561.2923, 88.09357
561.7744, 88.21960
562.2565, 88.24133
562.7386, 88.15824
563.2208, 87.90330
563.7029, 87.51864
564.1850, 87.28590
564.6671, 87.25120
565.1492, 87.29188
565.6313, 87.37039
566.1135, 87.49289
566.5956, 87.53304
567.0777, 87.45451
567.5598, 87.42074
568.0419, 87.68591
568.5240, 88.17437
569.0062, 88.48670
569.4883, 88.48997
569.9704, 88.41383
570.4525, 88.59629
570.9346, 88.93596
571.4167, 89.16320
571.8989, 88.99608
572.3810, 88.80985
572.8631, 88.93786
573.3452, 89.32314
573.8273, 89.57057
574.3094, 89.44027
574.7916, 89.20252
575.2737, 88.97148
575.7558, 88.70733
576.2379, 88.62219
576.7200, 88.81825
577.2021, 89.11171
577.6843, 89.29712
578.1664, 88.65034
578.6485, 89.37942
579.1306, 89.80222
579.6127, 89.93519
580.0948, 88.91029
580.5770, 89.38055
581.0591, 89.25161
581.5412, 89.09811
582.0233, 89.77880
582.5054, 88.92231
582.9875, 89.58978
583.4697, 89.64891
583.9518, 89.98645
584.4339, 89.72111
584.9160, 89.64198
