##NAMES=Freieslebenite
##RRUFFID=R060174
##IDEAL CHEMISTRY=Ag^1+^Pb^2+^Sb^3+^S^2-^_3_
##LOCALITY=Van Silver mine, Vancouver, British Columbia, Canada
##OWNER=RRUFF
##SOURCE=Ty Balacko, TB
##DESCRIPTION=Pale steel-gray striated prismatic crystals
##STATUS=The identification of this mineral is confirmed by single-crystal X-ray diffraction and chemical analysis.
##URL=rruff.info/R060174
##MEASURED CHEMISTRY=Ag_1.00_(Pb_0.95_Fe_0.05_)_Î£=1_Sb_1.00_S_3.00_
92.02539, 48.25385
92.50751, 48.23254
92.98962, 48.57198
93.47174, 48.93401
93.95386, 49.26993
94.43597, 49.09454
94.91809, 48.18184
95.40021, 46.81061
95.88232, 45.72363
96.36444, 45.08545
96.84656, 44.50403
97.32867, 43.95348
97.81078, 43.40382
98.29290, 42.79200
98.77502, 41.99894
99.25713, 40.88858
99.73925, 40.20813
100.2214, 40.42672
100.7035, 40.56507
101.1856, 40.07646
101.6677, 38.97699
102.1498, 37.72816
102.6320, 36.87729
103.1141, 36.55156
103.5962, 36.38877
104.0783, 36.45592
104.5604, 36.64944
105.0425, 36.88053
105.5247, 37.13685
106.0068, 37.36953
106.4889, 37.51154
106.9710, 37.60484
107.4531, 37.51554
107.9352, 37.09369
108.4173, 36.39475
108.8995, 35.71936
109.3816, 35.15246
109.8637, 34.67492
110.3458, 34.25377
110.8279, 33.88046
111.3100, 33.57423
111.7922, 33.35819
112.2743, 33.23846
112.7564, 33.19821
113.2385, 33.33862
113.7206, 33.50162
114.2027, 33.53628
114.6849, 33.36576
115.1670, 33.05047
115.6491, 32.80391
116.1312, 32.64100
116.6133, 32.54029
117.0954, 32.51576
117.5776, 32.54557
118.0597, 32.60095
118.5418, 32.66334
119.0239, 32.73274
119.5060, 32.80632
119.9881, 32.83244
120.4703, 32.90682
120.9524, 33.14216
121.4345, 33.49574
121.9166, 33.77720
122.3987, 33.78306
122.8808, 33.45487
123.3630, 33.25515
123.8451, 33.31547
124.3272, 33.43672
124.8093, 33.39484
125.2914, 33.13275
125.7735, 32.84274
126.2557, 32.74366
126.7378, 32.79943
127.2199, 32.93468
127.7020, 33.23203
128.1841, 33.60588
128.6662, 33.75663
129.1483, 33.50980
129.6305, 33.17340
130.1126, 32.98399
130.5947, 32.93505
131.0768, 32.93494
131.5589, 32.90170
132.0410, 32.82636
132.5232, 32.79252
133.0053, 32.81637
133.4874, 32.88261
133.9695, 33.03423
134.4516, 33.26303
134.9337, 33.46508
135.4159, 33.45692
135.8980, 33.04344
136.3801, 32.78784
136.8622, 32.77864
137.3443, 32.87801
137.8264, 32.98635
138.3086, 33.06294
138.7907, 33.11390
139.2728, 33.15409
139.7549, 33.15725
140.2370, 33.18007
140.7191, 33.22727
141.2013, 33.29665
141.6834, 33.38118
142.1655, 33.47378
142.6476, 33.58446
143.1297, 33.75636
143.6118, 34.17267
144.0939, 34.45411
144.5761, 34.33631
145.0582, 33.90215
145.5403, 33.53125
146.0224, 33.45058
146.5045, 33.61452
146.9866, 33.81367
147.4688, 34.13659
147.9509, 34.41297
148.4330, 34.39986
148.9151, 34.03612
149.3972, 33.76684
149.8793, 33.98436
150.3615, 34.43827
150.8436, 34.84374
151.3257, 35.09120
151.8078, 35.23080
152.2899, 35.37143
152.7720, 35.52446
153.2542, 35.65804
153.7363, 35.80607
154.2184, 35.92603
154.7005, 35.94125
155.1826, 35.76684
155.6647, 35.43193
156.1469, 35.24281
156.6290, 35.27617
157.1111, 35.40368
157.5932, 35.65094
158.0753, 35.97027
158.5574, 36.27530
159.0396, 36.49066
159.5217, 36.60479
160.0038, 36.73267
160.4859, 36.92889
160.9680, 37.08954
161.4501, 37.15306
161.9323, 37.12973
162.4144, 37.08063
162.8965, 37.07045
163.3786, 37.11648
163.8607, 37.12091
164.3428, 37.05497
164.8250, 36.97156
165.3071, 36.88852
165.7892, 36.81274
166.2713, 36.78398
166.7534, 36.88289
167.2355, 37.14058
167.7177, 37.28098
168.1998, 37.25866
168.6819, 37.10944
169.1640, 36.85667
169.6461, 36.48865
170.1282, 36.07948
170.6104, 35.68894
171.0925, 35.31450
171.5746, 35.02840
172.0567, 34.85972
172.5388, 34.80205
173.0209, 34.86550
173.5031, 35.15350
173.9852, 35.41764
174.4673, 35.42681
174.9494, 35.20284
175.4315, 34.94803
175.9136, 34.79623
176.3958, 34.74452
176.8779, 34.72101
177.3600, 34.72374
177.8421, 34.74998
178.3242, 34.83457
178.8063, 34.96432
179.2885, 35.04895
179.7706, 34.95051
180.2527, 34.59381
180.7348, 34.38557
181.2169, 34.52251
181.6990, 34.68611
182.1812, 34.71305
182.6633, 34.57710
183.1454, 34.35407
183.6275, 34.13387
184.1096, 33.86872
184.5917, 33.72008
185.0738, 33.76522
185.5560, 33.85197
186.0381, 33.87743
186.5202, 33.81471
187.0023, 33.70264
187.4844, 33.60386
187.9665, 33.48537
188.4487, 33.44345
188.9308, 33.54346
189.4129, 33.68431
189.8950, 33.74412
190.3771, 33.68472
190.8592, 33.61122
191.3414, 33.75308
191.8235, 34.35794
192.3056, 34.70544
192.7877, 34.54052
193.2698, 34.12456
193.7519, 33.79829
194.2341, 33.68296
194.7162, 33.69511
195.1983, 33.67783
195.6804, 33.62918
196.1625, 33.57195
196.6446, 33.54177
197.1268, 33.50814
197.6089, 33.36840
198.0910, 33.02069
198.5731, 32.66355
199.0552, 32.64087
199.5373, 33.00596
200.0195, 33.35368
200.5016, 33.49927
200.9837, 33.45339
201.4658, 33.24793
201.9479, 32.77472
202.4300, 32.25702
202.9122, 31.92597
203.3943, 31.79104
203.8764, 31.78598
204.3585, 31.94515
204.8406, 32.26720
205.3227, 32.41652
205.8048, 32.07423
206.2870, 31.70897
206.7691, 31.71690
207.2512, 32.13616
207.7333, 32.60354
208.2154, 32.73164
208.6975, 32.47490
209.1797, 32.14691
209.6618, 31.61863
210.1439, 31.15509
210.6260, 30.95628
211.1081, 31.03941
211.5902, 31.21509
212.0724, 31.21541
212.5545, 30.93781
213.0366, 30.80033
213.5187, 30.98776
214.0008, 31.20155
214.4829, 31.20758
214.9651, 30.98374
215.4472, 30.73477
215.9293, 30.81014
216.4114, 31.55453
216.8935, 31.89060
217.3756, 31.55200
217.8578, 31.06639
218.3399, 30.77103
218.8220, 30.74969
219.3041, 30.88833
219.7862, 31.02322
220.2683, 31.18456
220.7505, 31.27360
221.2326, 31.21356
221.7147, 31.13721
222.1968, 31.15746
222.6789, 31.29705
223.1610, 31.48706
223.6432, 31.62615
224.1253, 31.68318
224.6074, 31.74679
225.0895, 31.87666
225.5716, 31.98089
226.0537, 31.94438
226.5358, 31.74550
227.0180, 31.50882
227.5001, 31.42867
227.9822, 31.60345
228.4643, 31.60862
228.9464, 31.19052
229.4285, 30.69589
229.9107, 30.53491
230.3928, 30.80530
230.8749, 31.23339
231.3570, 31.48835
231.8391, 31.56259
232.3212, 31.57834
232.8034, 31.49215
233.2855, 31.38027
233.7676, 31.37342
234.2497, 31.51600
234.7318, 31.63827
235.2139, 31.46364
235.6961, 31.03625
236.1782, 30.75666
236.6603, 30.82108
237.1424, 31.06486
237.6245, 31.22935
238.1066, 31.26292
238.5888, 31.28761
239.0709, 31.51099
239.5530, 31.84908
240.0351, 31.99469
240.5172, 31.68760
240.9993, 31.15049
241.4815, 30.79394
241.9636, 30.64810
242.4457, 30.67203
242.9278, 30.96060
243.4099, 31.39261
243.8920, 31.70940
244.3742, 31.75885
244.8563, 31.62528
245.3384, 31.48336
245.8205, 31.30928
246.3026, 31.18435
246.7847, 31.21389
247.2668, 31.31136
247.7490, 31.32416
248.2311, 31.10883
248.7132, 30.80109
249.1953, 30.77577
249.6774, 31.21403
250.1595, 31.56643
250.6417, 31.57920
251.1238, 31.38890
251.6059, 31.14673
252.0880, 30.89697
252.5701, 30.66698
253.0522, 30.53392
253.5344, 30.55319
254.0165, 30.56470
254.4986, 30.42222
254.9807, 30.28210
255.4628, 30.35736
255.9449, 30.77040
256.4271, 31.33578
256.9092, 31.58688
257.3913, 31.26787
257.8734, 31.12064
258.3555, 31.36425
258.8376, 31.78162
259.3198, 32.17890
259.8019, 32.47950
260.2840, 32.73328
260.7661, 33.05621
261.2482, 33.53626
261.7303, 33.91131
262.2125, 34.14598
262.6946, 34.29060
263.1767, 34.34652
263.6588, 34.32454
264.1409, 34.30598
264.6230, 34.45410
265.1052, 34.91553
265.5873, 35.25658
266.0694, 35.35666
266.5515, 35.41521
267.0336, 35.58839
267.5157, 35.90553
267.9979, 36.27497
268.4800, 36.55744
268.9621, 36.69574
269.4442, 36.86686
269.9263, 37.05059
270.4084, 37.27431
270.8906, 37.60564
271.3727, 38.02589
271.8548, 38.40857
272.3369, 38.58410
272.8190, 38.45598
273.3011, 38.43816
273.7833, 38.50421
274.2654, 38.67604
274.7475, 39.02187
275.2296, 39.50805
275.7117, 40.01074
276.1938, 40.41821
276.6760, 40.73878
277.1581, 40.89432
277.6402, 40.80302
278.1223, 40.66473
278.6044, 40.54046
279.0865, 40.44652
279.5686, 40.41282
280.0508, 40.48837
280.5329, 40.68102
281.0150, 40.59291
281.4971, 40.04495
281.9792, 39.45925
282.4613, 38.92967
282.9435, 38.48358
283.4256, 38.16248
283.9077, 38.00683
284.3898, 37.99210
284.8719, 37.90816
285.3540, 37.77809
285.8362, 37.56649
286.3183, 37.21728
286.8004, 36.78396
287.2825, 36.37051
287.7646, 36.03588
288.2467, 35.73940
288.7289, 35.32691
289.2110, 34.63739
289.6931, 34.04095
290.1752, 33.57887
290.6573, 33.25002
291.1394, 33.07879
291.6216, 33.07938
292.1037, 33.18832
292.5858, 33.27275
293.0679, 33.24631
293.5500, 33.36340
294.0321, 33.78118
294.5143, 34.29825
294.9964, 34.65340
295.4785, 34.77905
295.9606, 34.86985
296.4427, 35.22393
296.9248, 35.98752
297.4070, 36.57018
297.8891, 36.80011
298.3712, 36.93174
298.8533, 37.18411
299.3354, 37.58961
299.8175, 38.06156
300.2997, 38.51112
300.7818, 38.93008
301.2639, 39.41207
301.7460, 40.01139
302.2281, 40.62566
302.7102, 41.13524
303.1924, 41.56352
303.6745, 42.12729
304.1566, 43.06964
304.6387, 44.34322
305.1208, 45.17201
305.6029, 45.12426
306.0851, 45.09853
306.5672, 45.58298
307.0493, 46.47601
307.5314, 47.40804
308.0135, 48.16802
308.4956, 48.81097
308.9778, 49.56947
309.4599, 50.56443
309.9420, 51.50500
310.4241, 52.23972
310.9062, 52.85912
311.3883, 53.54358
311.8705, 54.37646
312.3526, 55.27293
312.8347, 56.02003
313.3168, 56.55033
313.7989, 57.12416
314.2810, 57.88233
314.7632, 58.68074
315.2453, 59.36375
315.7274, 59.89104
316.2095, 60.23507
316.6916, 60.34702
317.1737, 60.20604
317.6559, 59.88965
318.1380, 59.46870
318.6201, 58.83525
319.1022, 57.83735
319.5843, 56.46563
320.0664, 54.92297
320.5485, 53.36354
321.0306, 51.79299
321.5128, 50.27643
321.9949, 48.81022
322.4770, 47.39166
322.9591, 45.99397
323.4412, 44.63506
323.9233, 43.36718
324.4055, 42.23957
324.8876, 41.23747
325.3697, 40.29417
325.8518, 39.47791
326.3339, 38.63449
326.8160, 37.61214
327.2982, 36.52025
327.7803, 35.59550
328.2624, 34.95803
328.7445, 34.52678
329.2266, 34.09086
329.7087, 33.62199
330.1909, 33.19789
330.6730, 32.92068
331.1551, 32.66703
331.6372, 32.23201
332.1193, 31.55296
332.6014, 30.82475
333.0836, 30.32574
333.5657, 30.13531
334.0478, 29.97401
334.5299, 29.86471
335.0120, 29.76239
335.4941, 29.60878
335.9763, 29.40698
336.4584, 29.23654
336.9405, 29.18802
337.4226, 29.27769
337.9047, 29.26136
338.3868, 29.06946
338.8690, 28.85018
339.3511, 28.69853
339.8332, 28.58801
340.3153, 28.41088
340.7974, 28.07977
341.2795, 27.63960
341.7617, 27.39262
342.2438, 27.46139
342.7259, 27.54707
343.2080, 27.63305
343.6901, 27.68314
344.1722, 27.62395
344.6544, 27.42276
345.1365, 27.15582
345.6186, 26.98145
346.1007, 26.95905
346.5828, 26.95015
347.0649, 26.95340
347.5471, 26.97075
348.0292, 27.02843
348.5113, 27.12054
348.9934, 27.18431
349.4755, 27.14309
349.9576, 26.97809
350.4398, 26.76894
350.9219, 26.39331
351.4040, 26.08884
351.8861, 26.04941
352.3682, 26.20790
352.8503, 26.32204
353.3325, 26.18631
353.8146, 25.83093
354.2967, 25.74427
354.7788, 26.37162
355.2609, 26.75841
355.7430, 26.45129
356.2252, 25.84753
356.7073, 25.55488
357.1894, 25.86714
357.6715, 26.51643
358.1536, 26.82145
358.6357, 26.44573
359.1179, 26.22437
359.5999, 26.37688
360.0821, 26.56458
360.5642, 26.46095
361.0463, 26.02822
361.5284, 25.52723
362.0105, 25.29383
362.4926, 25.41351
362.9748, 25.47392
363.4569, 25.36044
363.9390, 25.29795
364.4211, 25.46485
364.9032, 25.77747
365.3853, 25.99245
365.8675, 25.90136
366.3496, 25.54816
366.8317, 25.35823
367.3138, 25.45423
367.7959, 25.57008
368.2780, 25.66506
368.7602, 25.73940
369.2423, 25.78391
369.7244, 25.79180
370.2065, 25.80346
370.6886, 25.93561
371.1707, 26.31470
371.6529, 26.48443
372.1350, 26.19473
372.6171, 25.82359
373.0992, 25.63398
373.5813, 25.65213
374.0634, 25.69596
374.5456, 25.53539
375.0277, 25.15365
375.5098, 24.94129
375.9919, 24.98928
376.4740, 25.13461
376.9561, 25.38109
377.4383, 25.66217
377.9204, 25.83347
378.4025, 25.78829
378.8846, 25.59148
379.3667, 25.40581
379.8488, 25.20553
380.3310, 25.08598
380.8131, 25.17571
381.2952, 25.32389
381.7773, 25.37022
382.2594, 25.26261
382.7415, 25.10141
383.2237, 24.97393
383.7058, 24.87993
384.1879, 24.86376
384.6700, 25.04080
385.1521, 25.18687
385.6342, 25.03638
386.1164, 24.61680
386.5985, 24.30747
387.0806, 24.37084
387.5627, 24.69187
388.0448, 25.04540
388.5269, 25.46252
389.0091, 25.74297
389.4912, 25.59286
389.9733, 25.19465
390.4554, 24.95256
390.9375, 25.06052
391.4196, 25.25039
391.9018, 25.25328
392.3839, 25.09318
392.8660, 25.00094
393.3481, 25.11679
393.8302, 25.32114
394.3123, 25.37017
394.7945, 25.22127
395.2766, 25.07489
395.7587, 25.00968
396.2408, 24.99781
396.7229, 25.00912
397.2050, 25.04211
397.6872, 25.04526
398.1693, 24.92233
398.6514, 24.65491
399.1335, 24.56963
399.6156, 24.90352
400.0977, 25.24364
400.5798, 25.24189
401.0620, 24.95557
401.5441, 24.70454
402.0262, 24.69615
402.5083, 24.87240
402.9904, 24.94109
403.4725, 24.69232
403.9547, 24.61077
404.4368, 24.97133
404.9189, 25.47983
405.4010, 25.73541
405.8831, 25.62020
406.3652, 25.35571
406.8474, 25.26975
407.3295, 25.45388
407.8116, 25.55680
408.2937, 25.58498
408.7758, 25.53818
409.2579, 25.34768
409.7401, 25.07106
410.2222, 24.86775
410.7043, 24.86304
411.1864, 25.03147
411.6685, 25.14755
412.1506, 25.21645
412.6328, 25.21793
413.1149, 25.07840
413.5970, 24.90298
414.0791, 24.81149
414.5612, 24.84338
415.0433, 24.93579
415.5255, 25.01353
416.0076, 25.10938
416.4897, 25.07565
416.9718, 24.64804
417.4539, 24.30757
417.9360, 24.35508
418.4182, 24.71474
418.9003, 25.07590
419.3824, 25.20450
419.8645, 25.15613
420.3466, 25.19503
420.8287, 25.38655
421.3109, 25.52702
421.7930, 25.50267
422.2751, 25.39981
422.7572, 25.30091
423.2393, 25.22230
423.7214, 25.18034
424.2036, 25.24519
424.6857, 25.40773
425.1678, 25.41147
425.6499, 25.07869
426.1320, 24.72337
426.6141, 24.64635
427.0963, 24.81865
427.5784, 25.02425
428.0605, 25.25569
428.5426, 25.43292
429.0247, 25.37519
429.5068, 25.05721
429.9890, 24.77598
430.4711, 24.73330
430.9532, 24.87040
431.4353, 24.96472
431.9174, 25.01015
432.3995, 25.02090
432.8817, 24.95684
433.3638, 24.86739
433.8459, 24.87881
434.3280, 25.04151
434.8101, 25.23946
435.2922, 25.29938
435.7744, 25.16807
436.2565, 25.11504
436.7386, 25.27848
437.2207, 25.41939
437.7028, 25.32057
438.1849, 25.02741
438.6671, 24.76208
439.1492, 24.67832
439.6313, 24.74176
440.1134, 24.75327
440.5955, 24.71715
441.0776, 24.62153
441.5598, 24.32616
442.0418, 24.04110
442.5240, 24.02108
443.0061, 24.31372
443.4882, 24.72252
443.9703, 24.99571
444.4524, 25.10897
444.9345, 25.20404
445.4167, 25.34589
445.8988, 25.40381
446.3809, 25.21525
446.8630, 24.91822
447.3451, 24.79379
447.8272, 25.03480
448.3094, 25.46646
448.7915, 25.64257
449.2736, 25.49549
449.7557, 25.28344
450.2378, 24.93015
450.7199, 24.62647
451.2021, 24.55626
451.6842, 24.72549
452.1663, 24.91253
452.6484, 24.91007
453.1305, 24.77091
453.6126, 24.73882
454.0948, 24.86268
454.5769, 25.01267
455.0590, 25.13624
455.5411, 25.22144
456.0232, 25.23397
456.5053, 25.14991
456.9875, 25.01388
457.4696, 24.82510
457.9517, 24.60479
458.4338, 24.45067
458.9159, 24.40322
459.3980, 24.41965
459.8802, 24.44629
460.3623, 24.48424
460.8444, 24.51779
461.3265, 24.57847
461.8086, 24.60977
462.2907, 24.51493
462.7729, 24.31793
463.2550, 24.18401
463.7371, 24.23909
464.2192, 24.44199
464.7013, 24.55573
465.1834, 24.44804
465.6656, 24.42566
466.1477, 24.63216
466.6298, 24.89545
467.1119, 25.00119
467.5940, 24.91368
468.0761, 24.79585
468.5583, 24.86123
469.0404, 25.16254
469.5225, 25.30776
470.0046, 25.16385
470.4867, 24.99845
470.9688, 24.90352
471.4510, 24.83810
471.9331, 24.70490
472.4152, 24.44624
472.8973, 24.17326
473.3794, 24.12812
473.8615, 24.37921
474.3437, 24.56517
474.8258, 24.53868
475.3079, 24.49289
475.7900, 24.56550
476.2721, 24.74026
476.7542, 24.89341
477.2364, 24.94502
477.7185, 24.92239
478.2006, 24.85355
478.6827, 24.71490
479.1648, 24.68762
479.6469, 25.00499
480.1291, 25.42624
480.6112, 25.50900
481.0933, 25.13720
481.5754, 24.70239
482.0575, 24.29973
482.5396, 23.99162
483.0217, 23.95462
483.5038, 24.23553
483.9860, 24.54375
484.4681, 24.58067
484.9502, 24.33308
485.4323, 24.23784
485.9144, 24.49477
486.3965, 24.68248
486.8787, 24.51562
487.3608, 24.17348
487.8429, 24.02741
488.3250, 24.22521
488.8071, 24.53851
489.2892, 24.53150
489.7714, 23.93275
490.2535, 23.68854
490.7356, 24.09783
491.2177, 24.52227
491.6998, 24.61433
492.1819, 24.44820
492.6641, 24.27663
493.1462, 24.26099
493.6283, 24.34304
494.1104, 24.34552
494.5925, 24.23021
495.0746, 24.13935
495.5568, 24.08649
496.0389, 24.08460
496.5210, 24.17403
497.0031, 24.34589
497.4852, 24.50299
497.9673, 24.61986
498.4495, 24.66663
498.9316, 24.50096
499.4137, 24.05511
499.8958, 23.69593
500.3779, 23.68846
500.8600, 23.89355
501.3422, 24.01091
501.8243, 23.98598
502.3064, 23.95952
502.7885, 24.03621
503.2706, 24.15037
503.7527, 24.16495
504.2349, 24.04895
504.7170, 23.91785
505.1991, 23.88396
505.6812, 23.95334
506.1633, 24.03001
506.6454, 24.19159
507.1276, 24.27480
507.6097, 24.15622
508.0918, 23.93873
508.5739, 23.78202
509.0560, 23.74496
509.5381, 23.77008
510.0203, 23.76946
510.5024, 23.73831
510.9845, 23.69787
511.4666, 23.58118
511.9487, 23.52204
512.4308, 23.60669
512.9130, 23.78431
513.3951, 23.95590
513.8772, 24.07426
514.3593, 24.15416
514.8414, 24.23189
515.3235, 24.31571
515.8057, 24.32748
516.2878, 24.15884
516.7699, 24.00454
517.2520, 24.08144
517.7341, 24.34944
518.2162, 24.51645
518.6984, 24.34521
519.1805, 24.07194
519.6626, 24.04841
520.1447, 24.25651
520.6268, 24.36355
521.1089, 24.17263
521.5911, 23.83108
522.0732, 23.68785
522.5553, 23.79208
523.0374, 23.90187
523.5195, 24.03024
524.0016, 24.11115
524.4838, 24.05117
524.9659, 23.87212
525.4480, 23.69352
525.9301, 23.60070
526.4122, 23.58173
526.8943, 23.57371
527.3765, 23.55599
527.8586, 23.58279
528.3407, 23.68519
528.8228, 23.81269
529.3049, 23.94809
529.7870, 24.07467
530.2692, 24.14648
530.7513, 24.09817
531.2334, 23.95728
531.7155, 23.88841
532.1976, 23.90700
532.6797, 23.96279
533.1619, 24.13018
533.6440, 24.27706
534.1261, 24.24216
534.6082, 23.98345
535.0903, 23.69013
535.5724, 23.42636
536.0546, 23.22661
536.5367, 23.18377
537.0188, 23.31656
537.5009, 23.50997
537.9830, 23.70421
538.4651, 23.88777
538.9473, 24.00349
539.4294, 24.04851
539.9115, 24.03694
540.3936, 23.96039
540.8757, 23.83512
541.3578, 23.61780
541.8400, 23.33007
542.3221, 23.16554
542.8042, 23.36589
543.2863, 23.94155
543.7684, 24.23167
544.2505, 23.91542
544.7326, 23.68848
545.2147, 23.75991
545.6968, 23.94687
546.1790, 24.05109
546.6611, 24.02149
547.1432, 23.93124
547.6253, 23.84449
548.1074, 23.76190
548.5895, 23.69028
549.0717, 23.61823
549.5538, 23.58250
550.0359, 23.64913
550.5180, 23.75524
551.0001, 23.79944
551.4822, 23.73796
551.9644, 23.68018
552.4465, 23.75749
552.9286, 23.87504
553.4107, 23.76763
553.8928, 23.37692
554.3749, 23.06901
554.8571, 23.22993
555.3392, 23.83929
555.8213, 24.10009
556.3034, 23.74155
556.7855, 23.41984
557.2676, 23.30870
557.7498, 23.32232
558.2319, 23.38503
558.7140, 23.46404
559.1961, 23.50801
559.6782, 23.42462
560.1603, 23.20998
560.6425, 23.25284
561.1246, 23.92637
561.6067, 24.29749
562.0888, 23.75666
562.5709, 22.95748
563.0530, 22.70874
563.5352, 23.21976
564.0173, 23.82241
564.4994, 23.91170
564.9815, 23.63321
565.4636, 23.45837
565.9457, 23.43816
566.4279, 23.49211
566.9100, 23.62545
567.3921, 23.78010
567.8742, 23.76058
568.3563, 23.42113
568.8384, 23.15156
569.3206, 23.12098
569.8027, 23.21361
570.2848, 23.32048
570.7669, 23.40932
571.2490, 23.43987
571.7311, 23.36361
572.2133, 23.19653
572.6954, 23.11901
573.1775, 23.19955
573.6596, 23.27965
574.1417, 23.38526
574.6238, 23.45187
575.1060, 23.38920
575.5881, 23.20841
576.0702, 23.04284
576.5523, 22.98534
577.0344, 23.03288
577.5165, 23.21283
577.9987, 23.57334
578.4808, 23.85482
578.9629, 23.93514
579.4450, 23.87686
579.9271, 23.75814
580.4092, 23.56721
580.8914, 23.40899
581.3735, 23.35328
581.8556, 23.33138
582.3377, 23.22434
582.8198, 23.05681
583.3019, 23.02635
583.7841, 23.27950
584.2662, 23.66418
584.7483, 23.75557
585.2304, 23.27581
585.7125, 22.95275
586.1946, 22.82285
586.6768, 22.80483
587.1589, 22.87238
