##NAMES=Fresnoite
##RRUFFID=R050595
##IDEAL CHEMISTRY=Ba_2_Ti^4+^O(Si_2_O_7_)
##LOCALITY=Junnila claim, Clear Creek area, New Idria district, San Benito County, California, USA
##OWNER=RRUFF
##SOURCE=Scott Kleine
##DESCRIPTION=Pink to yellow massive fragment
##STATUS=The identification of this mineral is confirmed by single-crystal X-ray diffraction and chemical analysis.
##URL=rruff.info/R050595
##MEASURED CHEMISTRY=Ba_2.00_Ti_1.00_O(Si_2.00_O_7_)
91.11523, 30.95000
91.59735, 31.46023
92.07947, 31.19563
92.56158, 30.31783
93.04370, 29.33029
93.52582, 28.40066
94.00793, 27.57409
94.49006, 26.87914
94.97218, 26.20468
95.45429, 25.92682
95.93641, 27.10015
96.41853, 29.68093
96.90064, 31.88130
97.38276, 32.01072
97.86488, 30.29067
98.34699, 29.23267
98.82911, 29.39001
99.31123, 30.39274
99.79334, 31.09131
100.2755, 31.47598
100.7576, 31.56838
101.2397, 31.26403
101.7218, 30.43110
102.2039, 29.80962
102.6861, 29.52048
103.1682, 29.56244
103.6503, 30.10649
104.1324, 31.64007
104.6145, 33.14383
105.0966, 33.21916
105.5788, 30.69737
106.0609, 28.77906
106.5430, 28.48025
107.0251, 30.43715
107.5072, 31.71689
107.9893, 31.88648
108.4715, 31.49238
108.9536, 31.50483
109.4357, 31.48169
109.9178, 32.26662
110.3999, 34.26929
110.8820, 38.76178
111.3642, 42.34837
111.8463, 44.39771
112.3284, 45.40508
112.8105, 46.76777
113.2926, 48.03468
113.7747, 50.14697
114.2569, 53.57352
114.7390, 59.17511
115.2211, 65.20556
115.7032, 70.75551
116.1853, 76.15699
116.6674, 83.06344
117.1496, 91.04720
117.6317, 101.3346
118.1138, 114.8244
118.5959, 134.4762
119.0780, 155.2160
119.5602, 175.0401
120.0423, 194.0920
120.5244, 212.2194
121.0065, 228.1804
121.4886, 243.4502
121.9707, 260.0478
122.4529, 280.4793
122.9350, 301.3942
123.4171, 319.3740
123.8992, 334.0463
124.3813, 348.7451
124.8634, 366.2979
125.3456, 385.9552
125.8277, 406.1014
126.3098, 424.6139
126.7919, 443.3309
127.2740, 464.3572
127.7561, 487.5620
128.2383, 514.3026
128.7204, 546.6718
129.2025, 584.2653
129.6846, 624.9594
130.1667, 667.7274
130.6488, 712.2253
131.1310, 760.4431
131.6131, 813.2869
132.0952, 868.6296
132.5773, 922.5899
133.0594, 975.3672
133.5415, 1028.422
134.0237, 1083.135
134.5058, 1139.740
134.9879, 1197.871
135.4700, 1258.969
135.9521, 1321.057
136.4343, 1379.897
136.9164, 1435.514
137.3985, 1488.494
137.8806, 1539.775
138.3627, 1589.715
138.8448, 1637.855
139.3270, 1684.334
139.8091, 1729.558
140.2912, 1774.379
140.7733, 1817.552
141.2554, 1863.236
141.7375, 1914.872
142.2197, 1973.206
142.7018, 2036.956
143.1839, 2105.755
143.6660, 2179.189
144.1481, 2259.897
144.6302, 2351.106
145.1124, 2446.292
145.5945, 2537.188
146.0766, 2632.581
146.5587, 2711.877
147.0408, 2771.088
147.5230, 2811.229
148.0051, 2826.376
148.4872, 2801.954
148.9693, 2737.724
149.4514, 2656.362
149.9335, 2541.671
150.4157, 2427.321
150.8978, 2323.255
151.3799, 2224.506
151.8620, 2141.806
152.3441, 2078.867
152.8262, 2030.508
153.3084, 1988.707
153.7905, 1953.359
154.2726, 1923.826
154.7547, 1899.743
155.2368, 1884.223
155.7189, 1869.328
156.2011, 1852.642
156.6832, 1835.629
157.1653, 1822.462
157.6474, 1816.323
158.1295, 1812.337
158.6116, 1808.022
159.0938, 1802.218
159.5759, 1797.001
160.0580, 1791.658
160.5401, 1786.928
161.0222, 1785.472
161.5044, 1788.583
161.9865, 1794.897
162.4686, 1803.477
162.9507, 1813.934
163.4328, 1826.720
163.9149, 1842.611
164.3971, 1861.350
164.8792, 1881.009
165.3613, 1900.268
165.8434, 1920.241
166.3255, 1942.105
166.8076, 1970.331
167.2898, 1996.695
167.7719, 2016.751
168.2540, 2030.862
168.7361, 2041.764
169.2182, 2052.829
169.7003, 2061.166
170.1825, 2063.304
170.6646, 2056.745
171.1467, 2044.424
171.6288, 2028.441
172.1109, 2008.916
172.5931, 1985.103
173.0752, 1955.116
173.5573, 1920.671
174.0394, 1884.393
174.5215, 1845.801
175.0036, 1806.858
175.4858, 1770.452
175.9679, 1736.301
176.4500, 1703.606
176.9321, 1671.522
177.4142, 1639.909
177.8963, 1609.030
178.3785, 1578.186
178.8606, 1547.862
179.3427, 1519.455
179.8248, 1492.658
180.3069, 1467.927
180.7890, 1446.461
181.2712, 1427.730
181.7533, 1410.313
182.2354, 1394.198
182.7175, 1378.898
183.1996, 1363.610
183.6818, 1347.969
184.1639, 1333.139
184.6460, 1320.228
185.1281, 1309.105
185.6102, 1298.419
186.0923, 1287.440
186.5745, 1276.401
187.0566, 1266.325
187.5387, 1257.072
188.0208, 1249.033
188.5029, 1242.887
188.9850, 1238.535
189.4672, 1234.340
189.9493, 1229.346
190.4314, 1223.782
190.9135, 1218.832
191.3956, 1214.932
191.8777, 1210.790
192.3599, 1203.956
192.8420, 1194.445
193.3241, 1184.301
193.8062, 1174.234
194.2883, 1164.209
194.7704, 1155.395
195.2526, 1148.414
195.7347, 1141.525
196.2168, 1131.053
196.6989, 1116.704
197.1810, 1102.100
197.6632, 1089.705
198.1453, 1079.393
198.6274, 1067.260
199.1095, 1052.699
199.5916, 1036.732
200.0737, 1021.403
200.5559, 1006.570
201.0380, 992.8257
201.5201, 980.2977
202.0022, 968.8195
202.4843, 959.8135
202.9664, 953.9493
203.4486, 950.0173
203.9307, 945.0398
204.4128, 938.6909
204.8949, 932.8583
205.3770, 928.5140
205.8591, 925.7053
206.3413, 923.9995
206.8234, 923.3791
207.3055, 923.8115
207.7876, 925.4667
208.2697, 928.6708
208.7519, 932.0137
209.2340, 934.9709
209.7161, 937.6883
210.1982, 939.0914
210.6803, 938.6953
211.1624, 937.1898
211.6446, 936.4148
212.1267, 936.4461
212.6088, 937.0670
213.0909, 938.3521
213.5730, 940.6113
214.0551, 942.3339
214.5373, 943.1431
215.0194, 943.5235
215.5015, 944.8146
215.9836, 947.0495
216.4657, 950.1834
216.9478, 954.5519
217.4300, 960.8981
217.9121, 966.0197
218.3942, 969.3840
218.8763, 971.5198
219.3584, 973.9588
219.8405, 976.8640
220.3227, 979.6779
220.8048, 982.0163
221.2869, 983.5624
221.7690, 985.5623
222.2511, 988.1858
222.7333, 991.2409
223.2154, 994.1553
223.6975, 997.1627
224.1796, 999.7209
224.6617, 1001.544
225.1438, 1002.448
225.6260, 1003.142
226.1081, 1003.498
226.5902, 1003.729
227.0723, 1004.533
227.5544, 1006.619
228.0365, 1008.207
228.5187, 1008.289
229.0008, 1005.890
229.4829, 1004.372
229.9650, 1004.023
230.4471, 1004.470
230.9292, 1004.860
231.4114, 1005.640
231.8935, 1005.611
232.3756, 1004.094
232.8577, 1000.177
233.3398, 996.8282
233.8220, 994.3027
234.3041, 992.2360
234.7862, 989.9117
235.2683, 987.7253
235.7504, 984.7023
236.2325, 980.0104
236.7147, 972.1802
237.1968, 966.8870
237.6789, 965.2726
238.1610, 965.7883
238.6431, 965.1012
239.1252, 963.1360
239.6074, 960.1197
240.0895, 955.7621
240.5716, 948.9865
241.0537, 944.2267
241.5358, 942.3264
242.0179, 942.0261
242.5001, 940.9583
242.9822, 939.1814
243.4643, 936.4738
243.9464, 932.4222
244.4285, 926.1377
244.9106, 921.2997
245.3928, 918.0572
245.8749, 916.0858
246.3570, 914.8745
246.8391, 914.5040
247.3212, 914.7101
247.8034, 915.3069
248.2855, 916.1025
248.7676, 918.1540
249.2497, 921.6453
249.7318, 926.2813
250.2139, 931.6954
250.6961, 938.2108
251.1782, 944.9827
251.6603, 951.8400
252.1424, 958.8137
252.6245, 965.7445
253.1066, 971.8244
253.5888, 978.6517
254.0709, 988.7171
254.5530, 1003.577
255.0351, 1018.515
255.5172, 1031.730
255.9993, 1042.884
256.4815, 1056.656
256.9636, 1073.680
257.4457, 1092.442
257.9278, 1111.287
258.4099, 1129.698
258.8921, 1149.498
259.3742, 1171.545
259.8563, 1195.678
260.3384, 1220.043
260.8205, 1244.017
261.3026, 1268.713
261.7848, 1295.587
262.2669, 1324.671
262.7490, 1355.308
263.2311, 1387.491
263.7132, 1421.214
264.1953, 1454.213
264.6775, 1485.995
265.1596, 1517.476
265.6417, 1549.923
266.1238, 1584.190
266.6059, 1616.169
267.0880, 1644.962
267.5702, 1670.853
268.0523, 1694.265
268.5344, 1716.227
269.0165, 1734.140
269.4986, 1746.283
269.9807, 1752.494
270.4629, 1753.937
270.9450, 1750.226
271.4271, 1741.990
271.9092, 1731.636
272.3913, 1718.941
272.8734, 1704.749
273.3556, 1689.581
273.8377, 1673.454
274.3198, 1656.051
274.8019, 1636.653
275.2840, 1616.251
275.7661, 1598.039
276.2483, 1582.960
276.7304, 1566.300
277.2125, 1545.319
277.6946, 1519.690
278.1768, 1493.214
278.6589, 1465.682
279.1410, 1438.019
279.6231, 1412.126
280.1052, 1387.841
280.5873, 1364.804
281.0695, 1342.849
281.5516, 1321.890
282.0337, 1302.890
282.5158, 1285.869
282.9979, 1270.823
283.4800, 1257.651
283.9622, 1246.323
284.4443, 1237.266
284.9264, 1231.911
285.4085, 1229.682
285.8906, 1225.151
286.3727, 1218.218
286.8549, 1209.289
287.3370, 1198.891
287.8191, 1187.007
288.3012, 1173.223
288.7833, 1156.801
289.2654, 1138.526
289.7476, 1120.938
290.2297, 1104.110
290.7118, 1087.473
291.1939, 1070.106
291.6760, 1052.357
292.1581, 1035.297
292.6403, 1019.155
293.1224, 1004.041
293.6045, 989.4541
294.0866, 975.5110
294.5687, 963.1580
295.0508, 953.8593
295.5330, 946.9523
296.0151, 940.2643
296.4972, 932.9272
296.9793, 925.8386
297.4614, 920.7317
297.9435, 917.4547
298.4257, 915.2643
298.9078, 913.9760
299.3899, 913.3679
299.8720, 913.0434
300.3541, 912.9922
300.8362, 913.0550
301.3184, 912.6541
301.8005, 912.0508
302.2826, 912.3317
302.7647, 914.5506
303.2469, 917.9240
303.7290, 921.5655
304.2111, 925.4883
304.6932, 929.0184
305.1753, 930.8196
305.6574, 931.6085
306.1396, 933.0162
306.6217, 935.5135
307.1038, 939.2297
307.5859, 944.5270
308.0680, 951.5600
308.5501, 959.1971
309.0323, 966.5188
309.5144, 973.9017
309.9965, 981.9111
310.4786, 990.0403
310.9607, 999.5131
311.4428, 1011.833
311.9250, 1026.872
312.4071, 1042.300
312.8892, 1056.221
313.3713, 1069.664
313.8534, 1083.828
314.3355, 1099.176
314.8177, 1115.133
315.2998, 1131.266
315.7819, 1147.612
316.2640, 1164.904
316.7461, 1183.729
317.2282, 1203.268
317.7104, 1223.077
318.1925, 1242.822
318.6746, 1263.124
319.1567, 1283.102
319.6388, 1303.746
320.1209, 1327.200
320.6031, 1354.760
321.0852, 1384.818
321.5673, 1416.578
322.0494, 1449.117
322.5315, 1485.250
323.0136, 1526.557
323.4958, 1571.663
323.9779, 1618.332
324.4600, 1665.459
324.9421, 1715.001
325.4242, 1767.277
325.9064, 1822.824
326.3885, 1880.061
326.8706, 1941.175
327.3527, 2002.880
327.8348, 2062.508
328.3170, 2118.049
328.7991, 2173.799
329.2812, 2229.579
329.7633, 2285.591
330.2454, 2342.737
330.7275, 2399.445
331.2097, 2457.828
331.6918, 2518.962
332.1739, 2580.969
332.6560, 2649.219
333.1381, 2722.898
333.6202, 2802.445
334.1024, 2887.762
334.5845, 2977.754
335.0666, 3073.526
335.5487, 3176.875
336.0308, 3289.887
336.5129, 3401.498
336.9951, 3512.441
337.4772, 3620.964
337.9593, 3729.968
338.4414, 3843.464
338.9235, 3947.122
339.4056, 4038.218
339.8878, 4116.597
340.3699, 4176.975
340.8520, 4221.435
341.3341, 4244.214
341.8162, 4241.247
342.2983, 4213.314
342.7805, 4151.166
343.2626, 4048.043
343.7447, 3907.730
344.2268, 3753.129
344.7089, 3581.767
345.1910, 3400.992
345.6732, 3214.844
346.1553, 3022.706
346.6374, 2839.881
347.1195, 2666.009
347.6016, 2504.245
348.0837, 2360.052
348.5659, 2232.110
349.0480, 2118.305
349.5301, 2020.168
350.0122, 1934.999
350.4944, 1859.830
350.9765, 1794.597
351.4586, 1738.718
351.9407, 1694.886
352.4228, 1661.276
352.9049, 1631.832
353.3871, 1603.632
353.8692, 1577.734
354.3513, 1555.222
354.8334, 1536.101
355.3155, 1521.072
355.7976, 1512.188
356.2798, 1507.369
356.7619, 1503.175
357.2440, 1497.143
357.7261, 1492.160
358.2082, 1490.991
358.6903, 1493.168
359.1725, 1495.556
359.6546, 1496.640
360.1367, 1497.053
360.6188, 1497.243
361.1009, 1496.768
361.5830, 1496.957
362.0652, 1498.656
362.5473, 1501.475
363.0294, 1504.441
363.5115, 1508.957
363.9936, 1512.237
364.4757, 1512.470
364.9579, 1508.472
365.4400, 1504.791
365.9221, 1501.927
366.4042, 1500.024
366.8863, 1499.267
367.3684, 1501.687
367.8506, 1503.265
368.3327, 1502.174
368.8148, 1497.999
369.2969, 1496.543
369.7790, 1498.298
370.2611, 1502.434
370.7433, 1508.473
371.2254, 1516.928
371.7075, 1526.370
372.1896, 1536.995
372.6717, 1548.585
373.1538, 1560.052
373.6360, 1571.390
374.1181, 1582.547
374.6002, 1593.570
375.0823, 1604.970
375.5645, 1614.834
376.0466, 1623.621
376.5287, 1630.244
377.0108, 1632.737
377.4929, 1630.834
377.9750, 1625.981
378.4572, 1618.663
378.9393, 1608.864
379.4214, 1595.965
379.9035, 1579.690
380.3856, 1561.975
380.8677, 1544.955
381.3499, 1528.526
381.8320, 1511.059
382.3141, 1490.973
382.7962, 1470.815
383.2783, 1455.576
383.7604, 1445.178
384.2426, 1437.241
384.7247, 1431.095
385.2068, 1426.137
385.6889, 1420.619
386.1710, 1414.283
386.6531, 1407.786
387.1353, 1401.967
387.6174, 1396.532
388.0995, 1390.677
388.5816, 1384.339
389.0637, 1377.184
389.5458, 1368.930
390.0280, 1359.506
390.5101, 1348.725
390.9922, 1335.953
391.4743, 1322.008
391.9564, 1307.618
392.4385, 1293.176
392.9207, 1278.232
393.4028, 1261.251
393.8849, 1243.456
394.3670, 1228.456
394.8491, 1220.036
395.3312, 1213.182
395.8134, 1204.943
396.2955, 1194.108
396.7776, 1184.169
397.2597, 1176.542
397.7418, 1170.136
398.2239, 1163.474
398.7061, 1155.836
399.1882, 1148.549
399.6703, 1142.291
400.1524, 1137.149
400.6346, 1130.892
401.1167, 1123.023
401.5988, 1114.550
402.0809, 1106.067
402.5630, 1097.143
403.0451, 1089.070
403.5273, 1082.433
404.0094, 1076.593
404.4915, 1069.725
404.9736, 1061.374
405.4557, 1053.015
405.9378, 1045.216
406.4200, 1038.013
406.9021, 1030.999
407.3842, 1024.432
407.8663, 1017.637
408.3484, 1009.302
408.8305, 999.3593
409.3127, 990.6439
409.7948, 984.3929
410.2769, 979.6774
410.7590, 974.1556
411.2411, 967.8152
411.7232, 960.9637
412.2054, 953.5305
412.6875, 945.6466
413.1696, 938.1451
413.6517, 931.2958
414.1338, 923.9813
414.6159, 914.4167
415.0981, 903.2995
415.5802, 892.6112
416.0623, 884.0123
416.5444, 875.9537
417.0265, 866.9282
417.5086, 856.8121
417.9908, 846.9971
418.4729, 838.7416
418.9550, 831.1455
419.4371, 823.3647
419.9192, 814.3572
420.4013, 805.9614
420.8835, 798.9858
421.3656, 793.2606
421.8477, 788.1367
422.3298, 783.5486
422.8119, 779.5131
423.2940, 776.1793
423.7762, 774.0162
424.2583, 771.2660
424.7404, 767.0596
425.2225, 762.4970
425.7047, 758.7211
426.1868, 756.2111
426.6689, 753.8995
427.1510, 751.3362
427.6331, 748.6573
428.1152, 747.3881
428.5974, 748.1882
429.0795, 749.3929
429.5616, 750.1938
430.0437, 750.7434
430.5258, 750.0790
431.0079, 747.7458
431.4901, 744.6888
431.9722, 742.5355
432.4543, 741.3260
432.9364, 740.6215
433.4185, 740.5243
433.9006, 740.8190
434.3828, 740.3148
434.8649, 738.9319
435.3470, 737.7458
435.8291, 738.0118
436.3112, 739.3201
436.7933, 740.3427
437.2755, 740.8234
437.7576, 740.9559
438.2397, 740.5900
438.7218, 739.9886
439.2039, 740.0107
439.6860, 741.5478
440.1682, 743.7249
440.6503, 745.8220
441.1324, 747.8228
441.6145, 749.1786
442.0966, 748.2806
442.5787, 747.0463
443.0609, 747.5568
443.5430, 752.5975
444.0251, 757.1628
444.5072, 758.6312
444.9893, 757.9862
445.4714, 758.8217
445.9536, 762.6959
446.4357, 767.5976
446.9178, 772.7864
447.3999, 778.4167
447.8820, 783.8329
448.3641, 788.2234
448.8463, 792.8949
449.3284, 799.3951
449.8105, 808.3850
450.2926, 817.8805
450.7747, 827.3434
451.2569, 837.0427
451.7390, 848.4262
452.2211, 862.0514
452.7032, 876.2117
453.1853, 889.7449
453.6674, 902.6703
454.1496, 916.2218
454.6317, 930.3601
455.1138, 945.5529
455.5959, 962.3014
456.0780, 980.6935
456.5602, 1000.234
457.0423, 1021.181
457.5244, 1042.837
458.0065, 1063.887
458.4886, 1084.285
458.9707, 1105.526
459.4529, 1128.624
459.9350, 1153.257
460.4171, 1177.824
460.8992, 1202.066
461.3813, 1227.913
461.8634, 1257.826
462.3456, 1290.397
462.8277, 1322.572
463.3098, 1351.323
463.7919, 1381.423
464.2740, 1416.483
464.7561, 1456.152
465.2383, 1494.623
465.7204, 1529.032
466.2025, 1562.482
466.6846, 1596.617
467.1667, 1632.990
467.6488, 1667.643
468.1310, 1700.245
468.6131, 1731.161
469.0952, 1761.997
469.5773, 1794.851
470.0594, 1824.155
470.5415, 1848.755
471.0237, 1868.597
471.5058, 1885.366
471.9879, 1899.055
472.4700, 1909.768
472.9521, 1917.274
473.4342, 1921.574
473.9164, 1923.493
474.3985, 1922.648
474.8806, 1920.474
475.3627, 1919.837
475.8448, 1920.469
476.3270, 1919.605
476.8091, 1916.977
477.2912, 1911.720
477.7733, 1902.739
478.2554, 1889.942
478.7375, 1871.853
479.2197, 1847.616
479.7018, 1817.190
480.1839, 1780.142
480.6660, 1735.261
481.1481, 1687.476
481.6302, 1639.325
482.1124, 1590.639
482.5945, 1541.130
483.0766, 1487.376
483.5587, 1435.615
484.0408, 1389.313
484.5229, 1348.622
485.0051, 1309.318
485.4872, 1270.527
485.9693, 1232.876
486.4514, 1197.065
486.9335, 1162.489
487.4156, 1130.347
487.8978, 1100.625
488.3799, 1073.474
488.8620, 1048.299
489.3441, 1025.461
489.8262, 1003.498
490.3083, 981.4459
490.7905, 959.6191
491.2726, 941.4494
491.7547, 927.2728
492.2368, 914.4816
492.7189, 901.2158
493.2010, 887.6082
493.6832, 875.9617
494.1653, 866.5032
494.6474, 858.5035
495.1295, 851.1133
495.6116, 844.3292
496.0938, 838.0482
496.5759, 832.1794
497.0580, 826.8168
497.5401, 822.3331
498.0222, 818.5764
498.5044, 815.0062
498.9865, 811.2806
499.4686, 807.5875
499.9507, 804.2114
500.4328, 801.4264
500.9149, 798.0713
501.3971, 793.5334
501.8792, 788.2767
502.3613, 782.8423
502.8434, 777.0732
503.3255, 771.3298
503.8076, 765.4373
504.2898, 759.5408
504.7719, 754.4130
505.2540, 750.6877
505.7361, 746.7816
506.2182, 741.6306
506.7003, 734.7687
507.1825, 730.0500
507.6646, 727.9781
508.1467, 726.9773
508.6288, 725.3056
509.1109, 722.9733
509.5930, 721.1089
510.0752, 720.1512
510.5573, 719.4852
511.0394, 717.7832
511.5215, 715.2098
512.0037, 712.7706
512.4858, 711.3844
512.9679, 710.3138
513.4500, 708.1591
513.9321, 704.9003
514.4142, 702.2452
514.8964, 702.0180
515.3785, 702.7267
515.8606, 702.7930
516.3427, 701.7073
516.8248, 700.1550
517.3069, 697.3461
517.7891, 694.3740
518.2712, 693.2660
518.7533, 697.3143
519.2354, 700.4070
519.7175, 700.1039
520.1996, 696.4973
520.6818, 694.4748
521.1639, 694.7737
521.6460, 695.7537
522.1281, 696.4630
522.6102, 696.7473
523.0923, 697.5059
523.5745, 699.0794
524.0566, 700.5989
524.5387, 700.1345
525.0208, 697.6830
525.5029, 697.1630
525.9850, 700.6207
526.4672, 705.9118
526.9493, 708.4578
527.4314, 708.4681
527.9135, 707.7175
528.3956, 706.2670
528.8777, 705.1803
529.3599, 706.3914
529.8420, 710.2234
530.3241, 713.9167
530.8062, 715.2366
531.2883, 715.6246
531.7704, 716.6869
532.2526, 719.7448
532.7347, 722.4075
533.2168, 723.3156
533.6989, 723.3235
534.1810, 724.4573
534.6631, 728.4433
535.1453, 732.1166
535.6274, 734.2750
536.1095, 734.8801
536.5916, 736.6639
537.0737, 740.0264
537.5558, 743.9872
538.0380, 748.0114
538.5201, 752.1970
539.0022, 755.8987
539.4843, 758.8572
539.9664, 761.7232
540.4485, 765.8182
540.9307, 770.8823
541.4128, 774.8773
541.8949, 776.7605
542.3770, 777.4859
542.8591, 778.3542
543.3412, 779.3709
543.8234, 780.6556
544.3055, 783.1689
544.7876, 785.4440
545.2697, 785.7054
545.7518, 783.6361
546.2339, 781.6194
546.7161, 780.0580
547.1982, 779.4894
547.6803, 780.3851
548.1624, 784.5400
548.6445, 788.0486
549.1266, 790.6321
549.6088, 792.2170
550.0909, 792.5302
550.5730, 790.4821
551.0551, 788.9957
551.5372, 789.1078
552.0193, 790.5994
552.5015, 791.1466
552.9836, 790.5965
553.4657, 789.6597
553.9478, 788.7977
554.4299, 787.9759
554.9120, 786.6912
555.3942, 784.7742
555.8763, 783.1464
556.3584, 783.1877
556.8405, 784.3445
557.3226, 785.0984
557.8047, 784.3116
558.2869, 783.9676
558.7690, 785.4622
559.2511, 788.8139
559.7332, 794.0930
560.2154, 803.8331
560.6975, 813.3669
561.1796, 819.7230
561.6617, 822.6942
562.1439, 826.9777
562.6260, 834.1311
563.1081, 842.4254
563.5902, 850.9139
564.0723, 859.2316
564.5544, 868.5326
565.0366, 878.7316
565.5187, 890.1091
566.0008, 903.0364
566.4829, 917.8121
566.9650, 933.0928
567.4471, 948.5275
567.9293, 964.3429
568.4114, 980.7216
568.8935, 997.6971
569.3756, 1015.046
569.8577, 1032.350
570.3398, 1050.015
570.8220, 1068.601
571.3041, 1088.255
571.7862, 1106.852
572.2683, 1124.135
572.7504, 1139.189
573.2325, 1151.599
573.7147, 1161.716
574.1968, 1167.720
574.6789, 1168.926
575.1610, 1165.683
575.6431, 1158.415
576.1252, 1142.509
576.6074, 1128.147
577.0895, 1116.346
577.5716, 1107.037
578.0537, 1099.348
578.5358, 1092.039
579.0179, 1089.285
579.5001, 1093.406
579.9822, 1104.101
580.4643, 1115.585
580.9464, 1127.584
581.4285, 1142.150
581.9106, 1161.227
582.3928, 1184.515
582.8749, 1210.796
583.3570, 1240.072
583.8391, 1272.013
584.3212, 1304.768
584.8033, 1340.535
585.2855, 1383.214
585.7676, 1434.184
586.2497, 1492.508
