##NAMES=Fresnoite
##RRUFFID=R050595
##IDEAL CHEMISTRY=Ba_2_Ti^4+^O(Si_2_O_7_)
##LOCALITY=Junnila claim, Clear Creek area, New Idria district, San Benito County, California, USA
##OWNER=RRUFF
##SOURCE=Scott Kleine
##DESCRIPTION=Pink to yellow massive fragment
##STATUS=The identification of this mineral is confirmed by single-crystal X-ray diffraction and chemical analysis.
##URL=rruff.info/R050595
##MEASURED CHEMISTRY=Ba_2.00_Ti_1.00_O(Si_2.00_O_7_)
92.06543, 468.7854
92.54755, 466.0152
93.02966, 467.5995
93.51178, 472.1274
93.99390, 473.7686
94.47601, 472.3995
94.95813, 469.0146
95.44025, 464.7279
95.92236, 460.1720
96.40448, 455.0705
96.88660, 452.2938
97.36871, 453.1706
97.85082, 455.1660
98.33294, 457.0323
98.81506, 458.3358
99.29717, 457.9073
99.77929, 457.0722
100.2614, 456.1348
100.7435, 451.9930
101.2256, 442.3991
101.7078, 429.0622
102.1899, 415.6863
102.6720, 402.3569
103.1541, 389.9921
103.6362, 378.7169
104.1183, 368.4969
104.6005, 360.0781
105.0826, 354.6830
105.5647, 352.6452
106.0468, 350.5346
106.5289, 347.6244
107.0110, 344.3214
107.4931, 340.6571
107.9753, 336.6362
108.4574, 332.6131
108.9395, 329.2681
109.4216, 326.7422
109.9037, 324.7669
110.3858, 322.7404
110.8680, 321.3279
111.3501, 321.5346
111.8322, 323.9859
112.3143, 328.1608
112.7964, 330.7592
113.2785, 330.4017
113.7607, 330.0938
114.2428, 330.1687
114.7249, 330.8276
115.2070, 332.5313
115.6891, 335.8264
116.1712, 340.6972
116.6534, 344.7153
117.1355, 347.4073
117.6176, 349.6494
118.0997, 351.9549
118.5818, 354.3566
119.0639, 357.0474
119.5461, 360.4119
120.0282, 364.2532
120.5103, 368.0099
120.9924, 371.5200
121.4745, 374.8235
121.9566, 378.0132
122.4388, 380.9911
122.9209, 383.9954
123.4030, 387.5071
123.8851, 391.2866
124.3672, 394.5307
124.8493, 395.9838
125.3315, 395.4161
125.8136, 396.4513
126.2957, 400.0943
126.7778, 404.9379
127.2599, 410.9591
127.7420, 417.9080
128.2242, 425.1759
128.7063, 431.8610
129.1884, 437.5884
129.6705, 443.5263
130.1526, 449.2150
130.6347, 455.3560
131.1169, 462.6153
131.5990, 471.1762
132.0811, 480.5180
132.5632, 489.4780
133.0453, 496.7353
133.5274, 505.3334
134.0096, 515.8111
134.4917, 527.6507
134.9738, 540.2302
135.4559, 553.4066
135.9380, 566.9442
136.4201, 579.8387
136.9023, 591.7969
137.3844, 603.6926
137.8665, 615.9968
138.3486, 628.5751
138.8307, 640.8783
139.3128, 652.5205
139.7950, 663.5588
140.2771, 674.0154
140.7592, 682.9973
141.2413, 692.3575
141.7234, 703.8339
142.2055, 717.4232
142.6877, 732.9571
143.1698, 752.0455
143.6519, 772.5035
144.1340, 792.0577
144.6161, 810.0331
145.0982, 826.4337
145.5803, 842.0513
146.0625, 860.1449
146.5446, 871.2753
147.0267, 872.6572
147.5088, 866.1544
147.9909, 854.2946
148.4730, 837.9915
148.9552, 817.4301
149.4373, 797.2750
149.9194, 775.9076
150.4015, 756.3574
150.8836, 738.9504
151.3657, 724.0333
151.8479, 711.9638
152.3300, 703.3505
152.8121, 698.5958
153.2942, 694.6696
153.7763, 691.4044
154.2584, 688.8492
154.7406, 687.1984
155.2227, 686.3751
155.7048, 685.9403
156.1869, 685.3643
156.6690, 684.4387
157.1511, 684.4347
157.6333, 686.5247
158.1154, 688.8655
158.5975, 689.3294
159.0796, 687.4058
159.5617, 685.2648
160.0438, 686.0383
160.5260, 689.7817
161.0081, 693.6749
161.4902, 696.4906
161.9723, 699.1347
162.4544, 703.1544
162.9365, 708.7453
163.4187, 716.1816
163.9008, 726.2382
164.3829, 738.7371
164.8650, 751.0134
165.3471, 761.5446
165.8292, 770.5105
166.3113, 778.9328
166.7935, 787.0361
167.2756, 794.5394
167.7577, 801.8078
168.2398, 808.7857
168.7219, 814.1359
169.2040, 816.3926
169.6862, 815.3051
170.1683, 812.7881
170.6504, 809.4137
171.1325, 804.4335
171.6146, 797.2120
172.0967, 787.6550
172.5789, 776.1697
173.0610, 763.2043
173.5431, 748.3600
174.0252, 732.7805
174.5073, 715.0182
174.9894, 697.4898
175.4716, 682.1163
175.9537, 669.5164
176.4358, 658.5646
176.9179, 647.0289
177.4000, 633.9068
177.8821, 621.5959
178.3643, 610.1478
178.8464, 599.5170
179.3285, 589.8020
179.8106, 581.0046
180.2927, 572.9844
180.7748, 565.4603
181.2570, 558.2284
181.7391, 551.7319
182.2212, 546.2098
182.7033, 541.4347
183.1854, 537.2435
183.6675, 533.6498
184.1497, 530.3807
184.6318, 526.4459
185.1139, 520.8224
185.5960, 516.1718
186.0781, 513.6769
186.5602, 512.9296
187.0423, 512.8530
187.5245, 513.1290
188.0066, 513.6310
188.4887, 514.0884
188.9708, 514.6946
189.4529, 514.9385
189.9350, 514.2034
190.4172, 512.5955
190.8993, 511.2970
191.3814, 511.1846
191.8635, 511.4913
192.3456, 511.1874
192.8277, 510.2016
193.3099, 508.5309
193.7920, 505.9843
194.2741, 502.4523
194.7562, 498.8265
195.2383, 495.6571
195.7204, 492.4767
196.2026, 488.9954
196.6847, 485.2130
197.1668, 480.8224
197.6489, 475.0812
198.1310, 467.3626
198.6131, 460.0982
199.0953, 454.0972
199.5774, 448.7378
200.0595, 443.6216
200.5416, 438.5828
201.0237, 433.6364
201.5058, 428.6949
201.9880, 422.9341
202.4701, 418.8078
202.9522, 417.1118
203.4343, 416.8189
203.9164, 417.0512
204.3985, 417.4178
204.8807, 417.9118
205.3628, 418.5464
205.8449, 419.8470
206.3270, 420.5445
206.8091, 419.2347
207.2912, 417.6972
207.7733, 418.3006
208.2555, 422.2869
208.7376, 428.4832
209.2197, 432.5213
209.7018, 432.2835
210.1839, 432.1278
210.6660, 432.7511
211.1482, 433.6518
211.6303, 433.9060
212.1124, 432.9615
212.5945, 431.3400
213.0766, 431.2364
213.5587, 433.7685
214.0409, 436.3416
214.5230, 438.2087
215.0051, 439.7926
215.4872, 442.1027
215.9693, 445.8518
216.4514, 450.3425
216.9336, 452.7376
217.4157, 451.4984
217.8978, 450.6824
218.3799, 452.1803
218.8620, 455.1636
219.3441, 457.4670
219.8263, 457.8264
220.3084, 457.0858
220.7905, 457.6319
221.2726, 460.2404
221.7547, 462.6473
222.2368, 463.6620
222.7190, 463.5107
223.2011, 463.0506
223.6832, 462.4526
224.1653, 461.9227
224.6474, 461.9424
225.1295, 462.9404
225.6117, 463.4781
226.0938, 462.4121
226.5759, 459.8910
227.0580, 457.1576
227.5401, 454.5956
228.0222, 452.0766
228.5043, 449.3864
228.9865, 446.4790
229.4686, 443.6037
229.9507, 441.1054
230.4328, 438.9850
230.9149, 436.6327
231.3970, 433.7343
231.8792, 430.6236
232.3613, 427.5215
232.8434, 424.4529
233.3255, 421.4994
233.8076, 418.8216
234.2897, 416.4568
234.7719, 413.9441
235.2540, 410.8490
235.7361, 407.7885
236.2182, 405.4445
236.7003, 403.8526
237.1824, 401.9577
237.6646, 398.0083
238.1467, 391.2762
238.6288, 386.5014
239.1109, 386.4361
239.5930, 387.0598
240.0751, 386.4945
240.5573, 384.4445
241.0394, 381.5170
241.5215, 377.9185
242.0036, 372.9606
242.4857, 370.1446
242.9678, 372.0233
243.4500, 374.1861
243.9321, 374.2894
244.4142, 372.2312
244.8963, 369.5564
245.3784, 367.9864
245.8605, 367.7772
246.3427, 367.7845
246.8248, 368.3034
247.3069, 368.7834
247.7890, 368.7034
248.2711, 368.2057
248.7532, 367.9782
249.2354, 368.7455
249.7175, 370.6245
250.1996, 373.0907
250.6817, 377.0083
251.1638, 380.6754
251.6459, 382.9192
252.1281, 384.0028
252.6102, 385.1855
253.0923, 387.7562
253.5744, 391.9695
254.0565, 395.9548
254.5386, 398.9825
255.0208, 402.4741
255.5029, 407.3203
255.9850, 413.3055
256.4671, 419.4801
256.9492, 424.9521
257.4313, 429.5239
257.9135, 435.6830
258.3956, 444.4251
258.8777, 453.3927
259.3598, 461.3281
259.8419, 468.5703
260.3240, 476.4068
260.8062, 485.8557
261.2883, 496.9280
261.7704, 507.9911
262.2525, 518.9860
262.7346, 530.1441
263.2167, 541.3550
263.6989, 552.7860
264.1810, 564.7020
264.6631, 577.3564
265.1452, 590.6889
265.6273, 604.2214
266.1094, 618.8971
266.5916, 632.7044
267.0737, 645.5372
267.5558, 656.9382
268.0379, 665.9540
268.5200, 671.9987
269.0021, 675.2856
269.4843, 676.6271
269.9664, 675.1605
270.4485, 673.2870
270.9306, 672.6676
271.4127, 672.1751
271.8948, 669.1871
272.3770, 662.2413
272.8591, 652.6804
273.3412, 643.7428
273.8233, 635.8488
274.3054, 627.6082
274.7875, 618.6097
275.2697, 608.9979
275.7518, 598.9853
276.2339, 588.5645
276.7160, 577.9694
277.1981, 567.8221
277.6802, 558.2715
278.1623, 548.3052
278.6444, 537.5461
279.1266, 526.1600
279.6087, 514.0580
280.0908, 500.8832
280.5729, 488.2555
281.0550, 478.9167
281.5371, 472.7413
282.0193, 466.6503
282.5014, 459.8595
282.9835, 452.7015
283.4656, 445.4650
283.9477, 438.1115
284.4298, 431.1991
284.9120, 425.4656
285.3941, 420.7814
285.8762, 416.8026
286.3583, 414.2091
286.8404, 411.9401
287.3225, 408.9418
287.8047, 405.1625
288.2868, 400.1515
288.7689, 392.7534
289.2510, 383.6729
289.7331, 375.2607
290.2152, 368.0535
290.6974, 361.6336
291.1795, 355.6286
291.6616, 350.0272
292.1437, 345.0309
292.6258, 341.0179
293.1079, 337.6459
293.5901, 334.0080
294.0722, 329.6822
294.5543, 325.4428
295.0364, 321.8383
295.5185, 318.8550
296.0006, 316.5157
296.4828, 314.9265
296.9649, 314.0062
297.4470, 313.5166
297.9291, 313.5934
298.4112, 313.7658
298.8933, 313.8103
299.3755, 313.7070
299.8576, 313.2220
300.3397, 311.8201
300.8218, 310.5261
301.3039, 310.7968
301.7860, 312.8288
302.2682, 314.8854
302.7503, 315.7901
303.2324, 315.9120
303.7145, 316.5387
304.1966, 317.9652
304.6787, 319.9720
305.1609, 322.6386
305.6430, 325.8698
306.1251, 328.5421
306.6072, 329.6001
307.0893, 329.8304
307.5714, 330.9088
308.0536, 333.0654
308.5357, 335.9417
309.0178, 339.0897
309.4999, 342.6397
309.9820, 347.2467
310.4641, 353.8135
310.9463, 361.2722
311.4284, 367.8875
311.9105, 373.4266
312.3926, 379.0954
312.8747, 386.0001
313.3568, 393.4876
313.8390, 400.3162
314.3211, 405.8384
314.8032, 411.0457
315.2853, 416.8878
315.7674, 423.3561
316.2495, 430.3725
316.7317, 438.1378
317.2138, 446.3908
317.6959, 454.6618
318.1780, 462.9267
318.6601, 471.1888
319.1422, 478.7669
319.6243, 486.0082
320.1064, 495.2585
320.5886, 507.9089
321.0707, 522.2468
321.5528, 535.7653
322.0349, 548.3536
322.5170, 562.0828
322.9991, 578.2594
323.4813, 596.4084
323.9634, 615.7455
324.4455, 636.5731
324.9276, 657.3733
325.4097, 676.4476
325.8918, 694.0950
326.3740, 710.8428
326.8561, 726.0976
327.3382, 740.8766
327.8203, 757.2279
328.3024, 775.6458
328.7845, 794.0056
329.2667, 809.9938
329.7488, 824.6906
330.2309, 840.9350
330.7130, 859.4802
331.1951, 879.5760
331.6772, 899.7953
332.1594, 920.1813
332.6415, 943.7191
333.1236, 972.9250
333.6057, 1006.326
334.0878, 1040.014
334.5699, 1073.154
335.0521, 1107.530
335.5342, 1144.055
336.0163, 1182.649
336.4984, 1224.755
336.9805, 1272.500
337.4626, 1321.351
337.9448, 1364.489
338.4269, 1402.601
338.9090, 1435.891
339.3911, 1466.243
339.8732, 1491.644
340.3553, 1508.750
340.8375, 1517.441
341.3196, 1515.694
341.8017, 1499.320
342.2838, 1469.512
342.7659, 1430.500
343.2480, 1380.434
343.7302, 1322.953
344.2123, 1260.457
344.6944, 1193.485
345.1765, 1125.390
345.6586, 1057.074
346.1407, 989.9699
346.6229, 928.9387
347.1050, 876.3547
347.5871, 828.3308
348.0692, 781.7380
348.5513, 737.7037
349.0334, 699.5448
349.5156, 669.7355
349.9977, 646.6815
350.4798, 626.4701
350.9619, 609.1682
351.4440, 593.8409
351.9261, 580.4435
352.4083, 568.9268
352.8904, 559.2299
353.3725, 551.4099
353.8546, 545.1826
354.3367, 540.3142
354.8188, 537.0436
355.3010, 534.1978
355.7831, 531.2952
356.2652, 529.0165
356.7473, 528.1583
357.2294, 528.7413
357.7115, 529.8910
358.1937, 530.8237
358.6758, 531.5314
359.1579, 532.9565
359.6400, 535.4028
360.1221, 538.1865
360.6042, 541.3519
361.0863, 544.6172
361.5685, 547.2366
362.0506, 548.7394
362.5327, 549.4060
363.0148, 550.3828
363.4969, 551.3024
363.9790, 552.9569
364.4612, 556.3346
364.9433, 560.1869
365.4254, 562.8348
365.9075, 563.7545
366.3896, 563.8107
366.8717, 564.2588
367.3539, 564.5651
367.8360, 566.7568
368.3181, 571.9641
368.8002, 578.0246
369.2823, 583.3176
369.7644, 587.8749
370.2466, 592.9867
370.7287, 599.9771
371.2108, 608.9958
371.6929, 617.2681
372.1750, 624.2534
372.6571, 631.1494
373.1393, 638.6462
373.6214, 646.2755
374.1035, 653.4439
374.5856, 659.8300
375.0677, 665.2797
375.5498, 669.3165
376.0320, 671.5068
376.5141, 672.7314
376.9962, 673.2076
377.4783, 672.7815
377.9604, 671.4269
378.4425, 669.0870
378.9247, 665.5384
379.4068, 660.3356
379.8889, 653.1173
380.3710, 645.4810
380.8531, 636.5369
381.3352, 627.9674
381.8174, 620.5101
382.2995, 614.0900
382.7816, 608.2117
383.2637, 602.4222
383.7458, 596.8676
384.2279, 592.5705
384.7101, 589.1281
385.1922, 587.8085
385.6743, 590.4558
386.1564, 594.5470
386.6385, 597.0767
387.1206, 596.8054
387.6028, 594.8427
388.0849, 592.6879
388.5670, 590.2303
389.0491, 588.1517
389.5312, 587.4242
390.0133, 586.5263
390.4955, 584.2440
390.9776, 580.5671
391.4597, 576.7141
391.9418, 573.4848
392.4239, 570.8411
392.9060, 568.7852
393.3882, 567.8126
393.8703, 566.5363
394.3524, 563.2318
394.8345, 558.9836
395.3166, 556.2694
395.7987, 557.0564
396.2809, 559.0052
396.7630, 558.4307
397.2451, 555.1021
397.7272, 552.8557
398.2093, 554.3203
398.6914, 557.3399
399.1736, 558.5149
399.6557, 557.4722
400.1378, 555.4725
400.6199, 552.8563
401.1020, 549.8470
401.5841, 547.1456
402.0662, 545.0455
402.5483, 542.8826
403.0305, 539.5256
403.5126, 535.0642
403.9947, 531.5375
404.4768, 530.4952
404.9589, 529.7507
405.4410, 527.1812
405.9232, 522.7892
406.4053, 517.7369
406.8874, 512.5112
407.3695, 507.3377
407.8516, 503.1400
408.3337, 501.2511
408.8159, 498.6756
409.2980, 493.8806
409.7801, 487.9333
410.2622, 482.6215
410.7443, 478.5253
411.2264, 474.9220
411.7086, 470.6690
412.1907, 465.6889
412.6728, 460.1130
413.1549, 453.5674
413.6370, 446.7406
414.1191, 440.0780
414.6013, 433.5814
415.0834, 426.9442
415.5655, 419.8481
416.0476, 412.3448
416.5297, 405.8220
417.0118, 402.3481
417.4940, 397.5162
417.9761, 388.7196
418.4582, 378.8240
418.9403, 371.9729
419.4224, 369.6233
419.9045, 369.0441
420.3867, 365.0287
420.8688, 355.3992
421.3509, 348.2343
421.8330, 345.8232
422.3151, 344.1789
422.7972, 341.2362
423.2794, 337.0996
423.7615, 333.0229
424.2436, 329.9854
424.7257, 327.8647
425.2078, 325.8755
425.6899, 324.3789
426.1721, 322.3535
426.6542, 319.0421
427.1363, 315.2144
427.6184, 311.7621
428.1005, 308.9787
428.5826, 306.5455
429.0648, 303.8423
429.5469, 300.8322
430.0290, 299.1039
430.5111, 299.9764
430.9932, 301.1809
431.4753, 300.6715
431.9575, 298.6115
432.4396, 296.3482
432.9217, 294.4325
433.4038, 292.7585
433.8859, 291.1075
434.3680, 289.4596
434.8502, 287.9747
435.3323, 286.5629
435.8144, 285.4781
436.2965, 285.3546
436.7786, 287.1491
437.2607, 288.4906
437.7429, 287.6291
438.2250, 285.3895
438.7071, 283.5752
439.1892, 282.7028
439.6713, 282.5985
440.1534, 283.2286
440.6356, 284.8977
441.1177, 285.8611
441.5998, 285.5368
442.0819, 284.8644
442.5640, 284.2164
443.0461, 283.7777
443.5282, 284.0644
444.0103, 285.5708
444.4925, 287.9302
444.9746, 289.0464
445.4567, 286.7586
445.9388, 285.9058
446.4209, 287.7125
446.9030, 290.8202
447.3852, 294.2305
447.8673, 297.5218
448.3494, 300.2846
448.8315, 301.7846
449.3136, 301.5550
449.7957, 302.4082
450.2779, 304.8024
450.7600, 307.8735
451.2421, 311.6419
451.7242, 315.8524
452.2063, 320.0578
452.6884, 323.9243
453.1706, 327.8099
453.6527, 332.6295
454.1348, 338.7078
454.6169, 344.6249
455.0990, 350.0143
455.5811, 355.1248
456.0633, 359.9691
456.5454, 364.5853
457.0275, 369.3776
457.5096, 374.5294
457.9917, 380.0871
458.4738, 386.3792
458.9560, 393.5999
459.4381, 401.1048
459.9202, 408.5824
460.4023, 416.0254
460.8844, 423.3705
461.3665, 430.0155
461.8487, 437.3719
462.3308, 447.4324
462.8129, 459.2577
463.2950, 469.0942
463.7771, 475.2054
464.2592, 480.5242
464.7414, 489.9334
465.2235, 504.2899
465.7056, 516.4575
466.1877, 523.6102
466.6698, 529.9446
467.1519, 539.2042
467.6341, 550.9900
468.1162, 562.3199
468.5983, 571.3029
469.0804, 578.3214
469.5625, 584.7645
470.0446, 591.5604
470.5268, 596.5529
471.0089, 599.0255
471.4910, 599.9255
471.9731, 599.7444
472.4552, 598.7780
472.9373, 597.6749
473.4195, 597.3812
473.9016, 598.1003
474.3837, 596.8480
474.8658, 591.3287
475.3479, 586.2941
475.8300, 583.6788
476.3122, 582.1816
476.7943, 579.9669
477.2764, 576.3105
477.7585, 571.4714
478.2406, 565.9921
478.7227, 560.0256
479.2049, 552.2125
479.6870, 541.8436
480.1691, 529.8588
480.6512, 516.7641
481.1333, 502.7583
481.6154, 488.5066
482.0976, 474.3441
482.5797, 460.1205
483.0618, 445.2138
483.5439, 429.5821
484.0260, 414.8431
484.5081, 401.7336
484.9902, 390.0350
485.4724, 379.0905
485.9545, 369.0193
486.4366, 359.2935
486.9187, 349.5708
487.4008, 340.1006
487.8829, 331.2060
488.3651, 322.9218
488.8472, 315.2724
489.3293, 308.4341
489.8114, 302.3597
490.2935, 296.0009
490.7756, 288.4095
491.2578, 281.7007
491.7399, 277.0869
492.2220, 273.4988
492.7041, 269.3008
493.1862, 264.0177
493.6683, 258.8236
494.1505, 255.6751
494.6326, 255.4147
495.1147, 253.8938
495.5968, 249.2717
496.0789, 245.1882
496.5610, 243.4967
497.0432, 243.2682
497.5253, 242.5698
498.0074, 240.3657
498.4895, 237.3838
498.9716, 234.8351
499.4537, 232.6864
499.9359, 231.2232
500.4180, 231.2321
500.9001, 231.2864
501.3822, 230.1798
501.8643, 227.9688
502.3464, 225.5087
502.8286, 222.7364
503.3107, 220.1513
503.7928, 218.5957
504.2749, 218.0991
504.7570, 217.9637
505.2391, 218.0932
505.7213, 218.1438
506.2034, 217.1767
506.6855, 214.8228
507.1676, 212.4712
507.6497, 210.1175
508.1318, 208.1514
508.6140, 207.2587
509.0961, 207.4148
509.5782, 207.7505
510.0603, 207.5500
510.5424, 206.8271
511.0245, 205.8123
511.5067, 204.3186
511.9888, 202.7586
512.4709, 200.7368
512.9530, 198.9083
513.4351, 198.1231
513.9172, 198.5326
514.3994, 199.3715
514.8815, 199.7939
515.3636, 199.7897
515.8457, 199.5414
516.3278, 199.1218
516.8099, 198.3258
517.2921, 196.5557
517.7742, 194.5437
518.2563, 193.5141
518.7384, 194.0481
519.2205, 195.0435
519.7026, 195.3188
520.1848, 194.9542
520.6669, 194.5482
521.1490, 194.1633
521.6311, 193.8882
522.1132, 193.9208
522.5953, 194.1902
523.0775, 194.2999
523.5596, 193.9849
524.0417, 193.6651
524.5238, 193.4370
525.0059, 193.4343
525.4880, 194.2379
525.9702, 196.1920
526.4523, 198.3027
526.9344, 198.7731
527.4165, 196.5539
527.8986, 195.4218
528.3807, 196.2563
528.8629, 197.2661
529.3450, 197.3838
529.8271, 196.8770
530.3092, 196.5664
530.7913, 196.9270
531.2734, 197.6918
531.7556, 198.1823
532.2377, 198.2328
532.7198, 198.4763
533.2019, 198.8920
533.6840, 199.6234
534.1661, 201.1542
534.6483, 203.1974
535.1304, 204.6105
535.6125, 204.2284
536.0946, 203.1445
536.5767, 203.4588
537.0588, 205.2330
537.5410, 207.0988
538.0231, 208.5162
538.5052, 209.7528
538.9873, 211.3564
539.4694, 213.4630
539.9515, 214.9719
540.4337, 215.4511
540.9158, 215.2838
541.3979, 214.5474
541.8800, 213.4297
542.3621, 212.6662
542.8442, 212.7692
543.3264, 213.4437
543.8085, 213.6831
544.2906, 213.2419
544.7726, 212.6710
545.2548, 212.4545
545.7369, 211.7499
546.2190, 209.1832
546.7011, 205.3531
547.1832, 202.5727
547.6653, 202.8458
548.1475, 205.3350
548.6296, 206.6577
549.1117, 206.3647
549.5938, 206.0877
550.0759, 206.5540
550.5580, 207.0342
551.0402, 206.7326
551.5223, 205.6640
552.0044, 205.0396
552.4865, 205.9625
552.9686, 207.6374
553.4507, 208.7334
553.9329, 209.1940
554.4150, 209.1856
554.8971, 208.6402
555.3792, 207.8039
555.8613, 207.3313
556.3434, 207.3576
556.8256, 207.3275
557.3077, 206.7197
557.7898, 206.2954
558.2719, 206.6110
558.7540, 207.7717
559.2361, 209.9899
559.7183, 213.6177
560.2004, 218.0254
560.6825, 220.5282
561.1646, 219.5793
561.6467, 219.3035
562.1288, 220.4561
562.6110, 222.0492
563.0931, 223.1206
563.5752, 223.8494
564.0573, 225.4141
564.5394, 228.9014
565.0215, 233.6652
565.5037, 237.9383
565.9858, 241.5811
566.4679, 245.7935
566.9500, 251.2934
567.4321, 257.3736
567.9142, 262.8870
568.3964, 267.7364
568.8785, 273.3444
569.3606, 280.5233
569.8427, 288.4531
570.3248, 296.6851
570.8069, 304.9802
571.2891, 312.9347
571.7712, 320.3421
572.2533, 326.9684
572.7354, 332.1733
573.2175, 336.0954
573.6996, 338.1539
574.1818, 338.0731
574.6639, 336.5088
575.1460, 333.1512
575.6281, 328.6488
576.1102, 324.3339
576.5923, 320.9452
577.0745, 318.3292
577.5566, 316.0598
578.0387, 314.0145
578.5208, 312.9767
579.0029, 313.0096
579.4850, 314.2977
579.9672, 316.7207
580.4493, 320.3435
580.9314, 325.4444
581.4135, 332.7823
581.8956, 341.0947
582.3777, 349.3100
582.8599, 357.4825
583.3420, 365.6412
583.8241, 373.5835
584.3062, 382.5756
584.7883, 394.2462
585.2704, 408.8639
585.7526, 425.7507
586.2347, 446.1839
586.7168, 467.4357
587.1989, 487.9581
