##NAMES=Friedelite
##RRUFFID=R070085
##IDEAL CHEMISTRY=Mn^2+^_8_Si_6_O_15_(OH)_10_
##LOCALITY=Sterling Hill mine, Ogdensburg, New Jersey, USA
##OWNER=RRUFF
##SOURCE=Bob Jenkins
##DESCRIPTION=Orange-brown coarsely crystalline
##STATUS=The identification of this mineral is confirmed by single-crystal X-ray diffraction and chemical analysis.
##URL=rruff.info/R070085
##MEASURED CHEMISTRY=(Mn^2+^_7.02_Fe^2+^_0.49_Mg_0.36_Zn_0.11_Al_0.02_)_Σ=8_(Si_5.98_Al_0.02_)_Σ=6_O_15_((OH)_9.13_Cl_0.87_)_Σ=10_; OH estimated by difference and charge balance
174.3428, 2095.090
174.8250, 2083.055
175.3071, 2096.119
175.7892, 2120.208
176.2713, 2137.296
176.7534, 2144.529
177.2355, 2145.937
177.7177, 2143.026
178.1998, 2136.642
178.6819, 2131.713
179.1640, 2131.185
179.6461, 2132.252
180.1283, 2130.292
180.6104, 2124.121
181.0925, 2117.827
181.5746, 2116.521
182.0567, 2118.590
182.5388, 2118.631
183.0210, 2111.229
183.5031, 2102.149
183.9852, 2102.265
184.4673, 2114.837
184.9494, 2126.865
185.4315, 2124.695
185.9137, 2113.536
186.3958, 2104.880
186.8779, 2104.311
187.3600, 2107.581
187.8421, 2108.084
188.3242, 2105.332
188.8064, 2100.953
189.2885, 2092.598
189.7706, 2083.429
190.2527, 2080.213
190.7348, 2086.954
191.2169, 2100.092
191.6991, 2116.447
192.1812, 2138.312
192.6633, 2154.612
193.1454, 2150.333
193.6275, 2137.057
194.1096, 2132.139
194.5918, 2146.108
195.0739, 2167.181
195.5560, 2176.030
196.0381, 2168.856
196.5202, 2164.821
197.0023, 2182.056
197.4845, 2206.501
197.9666, 2221.391
198.4487, 2221.255
198.9308, 2210.428
199.4129, 2190.777
199.8950, 2158.812
200.3771, 2134.611
200.8593, 2131.426
201.3414, 2139.672
201.8235, 2153.066
202.3056, 2173.076
202.7877, 2191.187
203.2698, 2195.671
203.7520, 2184.846
204.2341, 2170.885
204.7162, 2155.330
205.1983, 2140.155
205.6804, 2127.447
206.1625, 2117.847
206.6447, 2109.594
207.1268, 2100.535
207.6089, 2090.477
208.0910, 2081.460
208.5731, 2073.530
209.0552, 2067.403
209.5374, 2064.457
210.0195, 2065.155
210.5016, 2066.363
210.9837, 2063.975
211.4658, 2057.687
211.9479, 2054.771
212.4301, 2060.572
212.9122, 2067.526
213.3943, 2069.437
213.8764, 2065.885
214.3585, 2061.672
214.8406, 2061.660
215.3228, 2065.699
215.8049, 2067.544
216.2870, 2065.279
216.7691, 2061.307
217.2512, 2056.180
217.7333, 2050.355
218.2155, 2046.485
218.6976, 2049.509
219.1797, 2058.002
219.6618, 2058.618
220.1439, 2044.811
220.6260, 2029.250
221.1082, 2019.515
221.5903, 2014.900
222.0724, 2012.390
222.5545, 2008.893
223.0366, 2005.574
223.5187, 2008.829
224.0009, 2022.819
224.4830, 2037.081
224.9651, 2048.532
225.4472, 2055.974
225.9293, 2056.290
226.4114, 2043.367
226.8936, 2022.869
227.3757, 2010.843
227.8578, 2009.674
228.3399, 2011.979
228.8220, 2014.012
229.3041, 2016.706
229.7863, 2022.053
230.2684, 2032.792
230.7505, 2044.879
231.2326, 2050.174
231.7147, 2046.654
232.1968, 2043.186
232.6790, 2045.816
233.1611, 2049.993
233.6432, 2049.493
234.1253, 2039.797
234.6074, 2030.648
235.0895, 2038.673
235.5717, 2067.213
236.0538, 2087.651
236.5359, 2080.135
237.0180, 2064.383
237.5001, 2059.070
237.9822, 2068.231
238.4644, 2082.297
238.9465, 2092.955
239.4286, 2100.220
239.9107, 2106.587
240.3928, 2111.751
240.8749, 2117.044
241.3571, 2124.301
241.8392, 2133.718
242.3213, 2142.114
242.8034, 2145.973
243.2855, 2146.297
243.7676, 2148.865
244.2497, 2154.801
244.7319, 2163.346
245.2140, 2174.765
245.6961, 2188.599
246.1782, 2200.825
246.6603, 2207.968
247.1424, 2212.046
247.6246, 2218.797
248.1067, 2229.601
248.5888, 2241.240
249.0709, 2248.482
249.5530, 2253.913
250.0351, 2265.990
250.5173, 2295.624
250.9994, 2330.646
251.4815, 2349.356
251.9636, 2347.748
252.4457, 2348.379
252.9278, 2369.751
253.4100, 2404.040
253.8921, 2435.077
254.3742, 2460.308
254.8563, 2481.029
255.3384, 2494.329
255.8205, 2500.469
256.3027, 2515.845
256.7848, 2555.980
257.2669, 2607.217
257.7490, 2639.602
258.2311, 2644.758
258.7133, 2644.305
259.1954, 2651.416
259.6775, 2664.522
260.1596, 2676.521
260.6417, 2683.632
261.1238, 2690.011
261.6060, 2704.002
262.0880, 2727.871
262.5702, 2748.887
263.0523, 2756.997
263.5344, 2759.349
264.0165, 2773.620
264.4986, 2807.740
264.9807, 2841.352
265.4629, 2843.579
265.9450, 2813.253
266.4271, 2786.223
266.9092, 2770.590
267.3913, 2760.787
267.8734, 2751.145
268.3556, 2740.836
268.8377, 2731.061
269.3198, 2723.014
269.8019, 2716.886
270.2840, 2710.499
270.7661, 2706.325
271.2483, 2699.863
271.7304, 2686.964
272.2125, 2668.415
272.6946, 2648.963
273.1767, 2631.646
273.6588, 2616.008
274.1410, 2598.517
274.6231, 2578.024
275.1052, 2557.395
275.5873, 2535.387
276.0694, 2514.009
276.5515, 2498.067
277.0337, 2490.235
277.5158, 2487.137
277.9979, 2479.837
278.4800, 2463.002
278.9621, 2449.660
279.4442, 2443.883
279.9264, 2440.804
280.4085, 2436.210
280.8906, 2428.725
281.3727, 2417.523
281.8548, 2400.414
282.3369, 2371.865
282.8191, 2352.383
283.3012, 2344.413
283.7833, 2342.578
284.2654, 2347.202
284.7475, 2355.894
285.2296, 2361.133
285.7118, 2354.632
286.1939, 2334.626
286.6760, 2324.668
287.1581, 2334.914
287.6402, 2343.968
288.1223, 2343.855
288.6045, 2337.405
289.0866, 2331.182
289.5687, 2329.353
290.0508, 2330.569
290.5329, 2328.372
291.0150, 2318.402
291.4972, 2310.882
291.9793, 2307.823
292.4614, 2307.498
292.9435, 2308.950
293.4256, 2311.742
293.9077, 2314.123
294.3899, 2312.104
294.8720, 2302.451
295.3541, 2297.243
295.8362, 2300.797
296.3183, 2306.501
296.8004, 2308.471
297.2826, 2307.208
297.7647, 2309.835
298.2468, 2327.504
298.7289, 2361.448
299.2110, 2383.025
299.6931, 2381.472
300.1753, 2378.628
300.6574, 2385.150
301.1395, 2398.363
301.6216, 2411.037
302.1037, 2418.790
302.5858, 2423.126
303.0680, 2427.584
303.5501, 2430.824
304.0322, 2437.659
304.5143, 2455.369
304.9964, 2476.000
305.4785, 2489.527
305.9607, 2491.120
306.4428, 2489.464
306.9249, 2493.614
307.4070, 2503.563
307.8891, 2516.728
308.3712, 2534.405
308.8534, 2553.290
309.3355, 2568.776
309.8176, 2580.377
310.2997, 2593.128
310.7818, 2611.333
311.2639, 2632.847
311.7461, 2652.602
312.2282, 2670.002
312.7103, 2684.708
313.1924, 2695.734
313.6745, 2703.556
314.1566, 2709.777
314.6388, 2712.085
315.1209, 2714.609
315.6030, 2721.131
316.0851, 2731.808
316.5672, 2746.283
317.0493, 2766.697
317.5315, 2790.370
318.0136, 2804.188
318.4957, 2799.792
318.9778, 2795.476
319.4599, 2797.425
319.9420, 2804.583
320.4242, 2816.202
320.9063, 2832.535
321.3884, 2849.839
321.8705, 2860.593
322.3526, 2863.298
322.8347, 2861.466
323.3169, 2853.782
323.7990, 2842.488
324.2811, 2827.734
324.7632, 2810.368
325.2453, 2794.570
325.7274, 2785.973
326.2096, 2787.304
326.6917, 2775.845
327.1738, 2746.714
327.6559, 2711.620
328.1380, 2671.319
328.6201, 2628.674
329.1023, 2587.778
329.5844, 2551.291
330.0665, 2518.079
330.5486, 2484.439
331.0307, 2448.221
331.5128, 2414.888
331.9950, 2382.333
332.4771, 2354.233
332.9592, 2335.416
333.4413, 2326.878
333.9234, 2323.749
334.4055, 2320.608
334.8877, 2317.742
335.3698, 2313.308
335.8519, 2309.009
336.3340, 2301.148
336.8161, 2285.383
337.2982, 2263.820
337.7804, 2243.679
338.2625, 2230.334
338.7446, 2222.128
339.2267, 2212.669
339.7088, 2199.841
340.1909, 2191.238
340.6731, 2198.930
341.1552, 2210.986
341.6373, 2209.666
342.1194, 2185.431
342.6015, 2156.908
343.0836, 2142.803
343.5658, 2141.817
344.0479, 2142.530
344.5300, 2143.072
345.0121, 2141.506
345.4942, 2133.625
345.9763, 2118.392
346.4584, 2106.839
346.9406, 2105.740
347.4227, 2109.431
347.9048, 2109.305
348.3869, 2104.053
348.8690, 2099.156
349.3511, 2100.403
349.8333, 2107.694
350.3154, 2109.142
350.7975, 2096.923
351.2796, 2086.719
351.7617, 2086.557
352.2438, 2094.686
352.7260, 2108.200
353.2081, 2126.585
353.6902, 2145.224
354.1723, 2151.329
354.6544, 2129.360
355.1365, 2113.787
355.6187, 2106.067
356.1008, 2103.853
356.5829, 2106.368
357.0650, 2112.840
357.5471, 2121.141
358.0292, 2129.118
358.5114, 2136.699
358.9935, 2144.292
359.4756, 2154.023
359.9577, 2161.546
360.4398, 2163.548
360.9219, 2162.594
361.4041, 2163.912
361.8862, 2171.103
362.3683, 2180.273
362.8504, 2180.112
363.3325, 2165.151
363.8146, 2156.032
364.2968, 2164.056
364.7789, 2175.993
365.2610, 2180.810
365.7431, 2176.973
366.2252, 2174.314
366.7073, 2183.379
367.1895, 2201.622
367.6716, 2214.947
368.1537, 2221.385
368.6358, 2223.545
369.1179, 2218.179
369.6000, 2209.501
370.0822, 2210.018
370.5643, 2235.667
371.0464, 2263.242
371.5285, 2263.767
372.0106, 2241.270
372.4927, 2228.703
372.9749, 2244.301
373.4570, 2276.671
373.9391, 2298.588
374.4212, 2307.946
374.9033, 2314.152
375.3854, 2319.580
375.8676, 2323.050
376.3497, 2320.896
376.8318, 2313.053
377.3139, 2307.291
377.7960, 2312.521
378.2781, 2330.780
378.7603, 2342.767
379.2424, 2347.630
379.7245, 2348.395
380.2066, 2340.632
380.6887, 2330.441
381.1708, 2329.098
381.6530, 2342.589
382.1351, 2365.400
382.6172, 2383.767
383.0993, 2397.370
383.5814, 2406.916
384.0635, 2412.224
384.5457, 2414.317
385.0278, 2411.593
385.5099, 2405.203
385.9920, 2400.790
386.4741, 2404.507
386.9562, 2415.368
387.4384, 2424.082
387.9205, 2430.854
388.4026, 2435.016
388.8847, 2434.897
389.3668, 2432.528
389.8489, 2429.905
390.3311, 2425.179
390.8132, 2425.190
391.2953, 2442.952
391.7774, 2475.460
392.2595, 2495.319
392.7416, 2490.238
393.2238, 2475.945
393.7059, 2474.397
394.1880, 2485.674
394.6701, 2494.912
395.1522, 2495.986
395.6343, 2494.803
396.1165, 2497.827
396.5986, 2505.080
397.0807, 2512.286
397.5628, 2516.686
398.0449, 2518.483
398.5270, 2519.009
399.0092, 2511.931
399.4913, 2511.493
399.9734, 2530.451
400.4555, 2552.921
400.9376, 2558.272
401.4197, 2541.659
401.9019, 2517.747
402.3840, 2505.773
402.8661, 2508.347
403.3482, 2511.374
403.8303, 2516.276
404.3124, 2520.218
404.7946, 2523.640
405.2767, 2525.178
405.7588, 2521.286
406.2409, 2508.270
406.7230, 2492.798
407.2051, 2491.941
407.6873, 2510.716
408.1694, 2522.363
408.6515, 2518.030
409.1336, 2504.357
409.6157, 2483.683
410.0978, 2456.407
410.5800, 2432.532
411.0621, 2419.629
411.5442, 2413.673
412.0263, 2406.991
412.5084, 2399.079
412.9905, 2389.822
413.4727, 2380.105
413.9548, 2368.769
414.4369, 2351.786
414.9190, 2322.179
415.4011, 2295.126
415.8832, 2275.954
416.3654, 2263.705
416.8475, 2259.768
417.3296, 2264.551
417.8117, 2268.137
418.2938, 2255.395
418.7759, 2218.375
419.2581, 2194.191
419.7402, 2192.093
420.2223, 2191.665
420.7044, 2182.503
421.1865, 2167.531
421.6686, 2155.281
422.1508, 2151.061
422.6329, 2150.517
423.1150, 2141.401
423.5971, 2119.927
424.0792, 2099.361
424.5613, 2075.805
425.0435, 2058.463
425.5256, 2059.628
426.0077, 2077.093
426.4898, 2089.605
426.9719, 2073.153
427.4540, 2040.561
427.9361, 2034.700
428.4182, 2063.519
428.9004, 2087.884
429.3825, 2079.857
429.8646, 2054.078
430.3467, 2042.371
430.8288, 2054.179
431.3109, 2065.181
431.7931, 2059.151
432.2752, 2044.908
432.7573, 2038.990
433.2394, 2045.348
433.7215, 2056.632
434.2036, 2065.712
434.6858, 2072.579
435.1679, 2075.925
435.6500, 2075.986
436.1321, 2072.756
436.6142, 2061.196
437.0963, 2047.453
437.5785, 2042.883
438.0606, 2052.551
438.5427, 2068.565
439.0248, 2074.688
439.5069, 2065.073
439.9890, 2063.113
440.4712, 2083.731
440.9533, 2100.359
441.4354, 2094.815
441.9175, 2073.573
442.3996, 2057.898
442.8817, 2062.882
443.3639, 2078.528
443.8460, 2082.223
444.3281, 2071.967
444.8102, 2070.714
445.2923, 2095.372
445.7744, 2126.641
446.2566, 2135.587
446.7387, 2118.958
447.2208, 2101.276
447.7029, 2091.678
448.1850, 2085.882
448.6671, 2077.246
449.1493, 2065.802
449.6314, 2058.758
450.1135, 2062.226
450.5956, 2074.242
451.0777, 2082.147
451.5598, 2081.260
452.0420, 2082.395
452.5241, 2090.587
453.0062, 2099.486
453.4883, 2101.565
453.9704, 2096.080
454.4525, 2089.543
454.9347, 2089.360
455.4168, 2095.619
455.8989, 2099.242
456.3810, 2098.211
456.8631, 2097.378
457.3452, 2102.187
457.8274, 2106.788
458.3095, 2101.522
458.7916, 2081.659
459.2737, 2061.748
459.7558, 2058.970
460.2379, 2069.494
460.7201, 2073.739
461.2022, 2067.588
461.6843, 2056.588
462.1664, 2044.915
462.6485, 2032.603
463.1306, 2019.798
463.6128, 2002.355
464.0949, 1988.583
464.5770, 1985.333
465.0591, 1988.986
465.5412, 1992.193
466.0233, 1992.245
466.5055, 1990.797
466.9876, 1990.446
467.4697, 1991.759
467.9518, 1992.412
468.4339, 1988.808
468.9160, 1988.193
469.3982, 1997.836
469.8803, 2012.301
470.3624, 2019.929
470.8445, 2013.956
471.3266, 2002.596
471.8087, 2000.796
472.2909, 2009.466
472.7730, 2021.592
473.2551, 2039.736
473.7372, 2056.656
474.2193, 2068.690
474.7014, 2075.300
475.1836, 2073.598
475.6657, 2051.764
476.1478, 2028.620
476.6299, 2025.554
477.1120, 2040.174
477.5941, 2058.484
478.0763, 2075.321
478.5584, 2090.292
479.0405, 2101.940
479.5226, 2106.091
480.0047, 2116.851
480.4868, 2146.010
480.9690, 2172.080
481.4511, 2177.983
481.9332, 2168.126
482.4153, 2156.481
482.8974, 2150.817
483.3795, 2152.060
483.8617, 2164.301
484.3438, 2192.181
484.8259, 2218.219
485.3080, 2238.530
485.7901, 2256.499
486.2722, 2272.132
486.7544, 2286.536
487.2365, 2304.230
487.7186, 2334.575
488.2007, 2366.600
488.6828, 2379.655
489.1649, 2374.183
489.6471, 2369.615
490.1292, 2375.387
490.6113, 2385.713
491.0934, 2389.754
491.5755, 2388.631
492.0576, 2379.583
492.5398, 2356.948
493.0219, 2330.283
493.5040, 2309.515
493.9861, 2292.271
494.4682, 2266.078
494.9503, 2221.991
495.4325, 2168.096
495.9146, 2133.220
496.3967, 2128.788
496.8788, 2119.497
497.3609, 2097.482
497.8430, 2073.194
498.3252, 2053.034
498.8073, 2036.825
499.2894, 2020.692
499.7715, 1999.596
500.2536, 1978.718
500.7357, 1969.849
501.2179, 1973.320
501.7000, 1975.105
502.1821, 1969.424
502.6642, 1959.892
503.1463, 1952.176
503.6284, 1946.576
504.1106, 1940.647
504.5927, 1931.104
505.0748, 1923.343
505.5569, 1923.488
506.0390, 1929.446
506.5211, 1933.705
507.0033, 1931.959
507.4854, 1926.596
507.9675, 1923.100
508.4496, 1919.726
508.9317, 1922.266
509.4138, 1938.877
509.8959, 1954.050
510.3781, 1957.845
510.8602, 1952.912
511.3423, 1948.927
511.8244, 1952.359
512.3065, 1957.672
512.7886, 1954.118
513.2708, 1942.051
513.7529, 1935.125
514.2350, 1939.637
514.7171, 1947.041
515.1992, 1946.678
515.6813, 1938.754
516.1635, 1928.788
516.6456, 1913.746
517.1277, 1900.392
517.6098, 1895.129
518.0919, 1894.718
518.5740, 1892.457
519.0562, 1885.535
519.5383, 1874.492
520.0204, 1858.566
520.5025, 1833.582
520.9846, 1818.528
521.4667, 1823.737
521.9489, 1828.945
522.4310, 1826.745
522.9131, 1819.554
523.3952, 1811.901
523.8773, 1805.237
524.3594, 1799.458
524.8416, 1794.735
525.3237, 1790.875
525.8058, 1787.088
526.2879, 1783.333
526.7700, 1779.058
527.2521, 1773.272
527.7343, 1766.208
528.2164, 1761.238
528.6985, 1760.814
529.1806, 1759.535
529.6627, 1752.721
530.1448, 1745.178
530.6270, 1744.762
531.1091, 1752.380
531.5912, 1760.397
532.0733, 1760.335
532.5554, 1752.437
533.0375, 1745.941
533.5197, 1741.771
534.0018, 1737.460
534.4839, 1727.054
534.9660, 1718.961
535.4481, 1724.528
535.9302, 1745.976
536.4124, 1766.617
536.8945, 1777.802
537.3766, 1780.058
537.8587, 1769.937
538.3408, 1747.969
538.8229, 1731.100
539.3051, 1730.211
539.7872, 1740.000
540.2693, 1744.692
540.7514, 1738.616
541.2335, 1737.098
541.7156, 1745.764
542.1978, 1755.058
542.6799, 1758.276
543.1620, 1755.953
543.6441, 1751.974
544.1262, 1748.700
544.6083, 1745.214
545.0905, 1738.273
545.5726, 1726.563
546.0547, 1720.246
546.5368, 1725.453
547.0189, 1731.646
547.5010, 1729.017
547.9832, 1719.427
548.4653, 1711.379
548.9474, 1705.293
549.4295, 1703.266
549.9116, 1711.481
550.3937, 1724.450
550.8759, 1728.176
551.3580, 1718.554
551.8401, 1705.823
552.3222, 1702.700
552.8043, 1710.396
553.2864, 1715.678
553.7686, 1713.215
554.2507, 1714.476
554.7328, 1726.892
555.2149, 1741.847
555.6970, 1749.655
556.1791, 1748.060
556.6613, 1741.563
557.1434, 1730.864
557.6255, 1718.496
558.1076, 1712.762
558.5897, 1714.509
559.0718, 1718.988
559.5540, 1725.497
560.0361, 1731.940
560.5182, 1732.390
561.0003, 1724.751
561.4824, 1717.727
561.9645, 1710.018
562.4467, 1705.477
562.9288, 1707.033
563.4109, 1714.422
563.8930, 1728.172
564.3751, 1749.500
564.8572, 1770.956
565.3394, 1774.027
565.8215, 1754.265
566.3036, 1738.873
566.7857, 1731.115
567.2678, 1728.379
567.7499, 1729.648
568.2321, 1734.171
568.7142, 1740.028
569.1963, 1746.997
569.6784, 1754.774
570.1605, 1766.526
570.6426, 1778.163
571.1248, 1779.701
571.6069, 1769.511
572.0890, 1757.715
572.5711, 1753.667
573.0532, 1756.871
573.5353, 1759.237
574.0175, 1755.552
574.4996, 1758.610
574.9817, 1777.264
575.4638, 1797.945
575.9459, 1810.008
576.4280, 1812.455
576.9102, 1809.725
577.3923, 1801.476
577.8744, 1791.734
578.3565, 1787.794
578.8386, 1789.538
579.3207, 1794.842
579.8029, 1803.617
580.2850, 1814.288
580.7671, 1825.251
581.2492, 1837.003
581.7313, 1845.838
582.2134, 1847.172
582.6956, 1850.463
583.1777, 1862.354
583.6598, 1877.886
584.1419, 1890.906
584.6240, 1899.090
585.1061, 1901.604
585.5883, 1892.861
586.0704, 1874.599
586.5525, 1872.083
587.0346, 1891.528
587.5167, 1908.179
587.9988, 1904.575
588.4810, 1894.803
588.9631, 1903.310
589.4452, 1935.476
589.9273, 1962.889
590.4094, 1971.038
590.8915, 1975.513
591.3737, 1990.469
591.8558, 2014.330
592.3379, 2038.864
592.8200, 2060.123
593.3021, 2080.207
593.7842, 2103.396
594.2664, 2130.316
594.7485, 2157.753
595.2306, 2184.831
595.7127, 2213.852
596.1948, 2243.667
596.6769, 2276.645
597.1591, 2317.213
597.6412, 2367.911
598.1233, 2422.084
598.6054, 2478.721
599.0875, 2534.806
599.5696, 2581.631
600.0518, 2620.130
600.5339, 2666.077
601.0160, 2730.103
601.4981, 2807.807
601.9802, 2884.292
602.4623, 2949.222
602.9445, 3033.053
603.4266, 3145.796
603.9087, 3267.478
604.3908, 3387.670
604.8729, 3508.090
605.3550, 3633.526
605.8372, 3765.018
606.3193, 3904.925
606.8014, 4057.618
607.2835, 4220.080
607.7656, 4382.540
608.2477, 4543.192
608.7299, 4710.736
609.2120, 4893.837
609.6941, 5090.101
610.1762, 5286.973
610.6583, 5489.965
611.1404, 5687.564
611.6226, 5885.389
612.1047, 6072.539
612.5868, 6242.580
613.0689, 6395.184
613.5510, 6530.875
614.0331, 6650.960
614.5153, 6752.691
614.9974, 6838.528
615.4795, 6905.536
615.9616, 6925.426
616.4437, 6890.990
616.9258, 6812.454
617.4080, 6693.794
617.8901, 6536.588
618.3722, 6363.617
618.8543, 6178.031
619.3364, 5973.919
619.8185, 5735.056
620.3007, 5488.688
620.7828, 5254.183
621.2649, 5034.682
621.7470, 4823.953
622.2291, 4619.495
622.7112, 4418.204
623.1934, 4209.469
623.6755, 3992.100
624.1576, 3792.979
624.6397, 3616.972
625.1218, 3461.845
625.6039, 3325.731
626.0861, 3208.966
626.5682, 3109.597
627.0503, 3042.042
627.5324, 2974.413
628.0145, 2892.873
628.4966, 2809.930
628.9788, 2738.648
629.4609, 2680.333
629.9430, 2631.774
630.4251, 2592.827
630.9072, 2558.106
631.3893, 2511.290
631.8715, 2450.507
632.3535, 2399.521
632.8356, 2364.930
633.3177, 2338.724
633.7999, 2316.693
634.2820, 2297.829
634.7641, 2276.175
635.2462, 2247.023
635.7283, 2220.320
636.2104, 2199.949
636.6926, 2183.546
637.1747, 2168.337
637.6568, 2154.234
638.1389, 2144.228
638.6210, 2142.179
639.1031, 2142.482
639.5853, 2126.671
640.0674, 2091.564
640.5495, 2068.340
641.0316, 2068.775
641.5137, 2073.125
641.9958, 2061.896
642.4780, 2039.430
642.9601, 2024.921
643.4422, 2026.230
643.9243, 2027.532
644.4064, 2026.398
644.8885, 2020.733
645.3707, 2004.763
645.8528, 1980.818
646.3349, 1960.286
646.8170, 1951.118
647.2991, 1949.678
647.7813, 1947.864
648.2634, 1945.672
648.7455, 1943.725
649.2276, 1943.804
649.7097, 1941.094
650.1918, 1929.334
650.6740, 1911.401
651.1561, 1898.082
651.6382, 1891.276
652.1203, 1887.258
652.6024, 1888.968
653.0845, 1890.117
653.5667, 1882.401
654.0488, 1867.909
654.5309, 1856.577
655.0130, 1854.992
655.4951, 1857.418
655.9772, 1851.468
656.4594, 1836.807
656.9415, 1827.787
657.4236, 1827.854
657.9057, 1829.475
658.3878, 1827.684
658.8699, 1823.401
659.3521, 1819.831
659.8342, 1815.614
660.3163, 1814.640
660.7984, 1823.128
661.2805, 1830.666
661.7626, 1828.027
662.2448, 1817.361
662.7269, 1805.308
663.2090, 1794.935
663.6911, 1786.360
664.1732, 1781.163
664.6553, 1778.678
665.1375, 1769.209
665.6196, 1748.535
666.1017, 1737.797
666.5838, 1755.344
667.0659, 1787.025
667.5480, 1796.255
