##NAMES=Friedelite
##RRUFFID=R070085
##IDEAL CHEMISTRY=Mn^2+^_8_Si_6_O_15_(OH)_10_
##LOCALITY=Sterling Hill mine, Ogdensburg, New Jersey, USA
##OWNER=RRUFF
##SOURCE=Bob Jenkins
##DESCRIPTION=Orange-brown coarsely crystalline
##STATUS=The identification of this mineral is confirmed by single-crystal X-ray diffraction and chemical analysis.
##URL=rruff.info/R070085
##MEASURED CHEMISTRY=(Mn^2+^_7.02_Fe^2+^_0.49_Mg_0.36_Zn_0.11_Al_0.02_)_Σ=8_(Si_5.98_Al_0.02_)_Σ=6_O_15_((OH)_9.13_Cl_0.87_)_Σ=10_; OH estimated by difference and charge balance
171.8768, 3540.344
172.3589, 3529.616
172.8411, 3522.285
173.3232, 3519.359
173.8053, 3520.978
174.2874, 3527.078
174.7695, 3540.909
175.2516, 3560.454
175.7338, 3577.473
176.2159, 3588.338
176.6980, 3592.667
177.1801, 3588.610
177.6622, 3571.483
178.1443, 3551.261
178.6264, 3541.313
179.1086, 3541.142
179.5907, 3544.435
180.0728, 3549.107
180.5549, 3553.591
181.0370, 3553.279
181.5191, 3542.974
182.0013, 3529.018
182.4834, 3526.382
182.9655, 3535.759
183.4476, 3544.385
183.9297, 3535.228
184.4118, 3512.153
184.8940, 3494.258
185.3761, 3493.206
185.8582, 3503.043
186.3403, 3502.440
186.8224, 3489.320
187.3046, 3474.849
187.7867, 3473.884
188.2688, 3485.784
188.7509, 3500.015
189.2330, 3511.892
189.7151, 3521.838
190.1973, 3533.514
190.6794, 3548.096
191.1615, 3561.997
191.6436, 3568.129
192.1257, 3566.094
192.6078, 3563.452
193.0900, 3563.249
193.5721, 3565.591
194.0542, 3572.987
194.5363, 3587.282
195.0184, 3604.947
195.5005, 3617.199
195.9826, 3623.612
196.4648, 3627.298
196.9469, 3629.669
197.4290, 3630.678
197.9111, 3632.908
198.3932, 3639.027
198.8753, 3645.891
199.3575, 3639.763
199.8396, 3618.033
200.3217, 3592.207
200.8038, 3570.627
201.2859, 3552.846
201.7680, 3542.151
202.2502, 3540.111
202.7323, 3546.043
203.2144, 3555.582
203.6965, 3571.253
204.1786, 3585.068
204.6607, 3587.106
205.1429, 3574.939
205.6250, 3562.203
206.1071, 3552.442
206.5892, 3545.596
207.0713, 3538.240
207.5534, 3529.225
208.0356, 3521.407
208.5177, 3520.556
208.9998, 3530.488
209.4819, 3534.963
209.9640, 3525.240
210.4461, 3497.541
210.9282, 3485.515
211.4104, 3495.943
211.8925, 3515.144
212.3746, 3518.196
212.8567, 3497.844
213.3388, 3478.762
213.8209, 3469.746
214.3031, 3471.780
214.7852, 3482.027
215.2673, 3506.939
215.7494, 3536.257
216.2315, 3544.798
216.7136, 3523.454
217.1958, 3498.854
217.6779, 3482.406
218.1600, 3475.512
218.6421, 3473.964
219.1242, 3481.544
219.6063, 3493.578
220.0885, 3494.010
220.5706, 3475.747
221.0527, 3457.354
221.5348, 3449.317
222.0169, 3456.260
222.4990, 3462.125
222.9812, 3464.456
223.4633, 3464.703
223.9454, 3470.501
224.4275, 3485.796
224.9096, 3501.347
225.3917, 3511.272
225.8739, 3512.734
226.3560, 3514.394
226.8381, 3516.027
227.3202, 3518.101
227.8023, 3525.884
228.2844, 3543.386
228.7665, 3561.895
229.2487, 3574.503
229.7308, 3580.092
230.2129, 3581.986
230.6950, 3578.434
231.1771, 3569.821
231.6592, 3567.742
232.1414, 3574.996
232.6235, 3586.044
233.1056, 3595.715
233.5877, 3602.267
234.0698, 3611.132
234.5519, 3624.338
235.0341, 3642.099
235.5162, 3656.640
235.9983, 3666.349
236.4804, 3674.129
236.9625, 3683.309
237.4446, 3696.046
237.9268, 3706.055
238.4089, 3711.489
238.8910, 3711.728
239.3731, 3712.297
239.8552, 3711.954
240.3373, 3712.931
240.8195, 3717.058
241.3016, 3720.484
241.7837, 3733.966
242.2658, 3763.761
242.7479, 3814.445
243.2300, 3853.815
243.7122, 3881.007
244.1943, 3897.503
244.6764, 3903.270
245.1585, 3888.519
245.6406, 3879.903
246.1227, 3885.746
246.6048, 3908.818
247.0870, 3933.936
247.5691, 3964.371
248.0512, 3994.752
248.5333, 4014.895
249.0154, 4014.260
249.4975, 4021.361
249.9797, 4048.579
250.4618, 4105.116
250.9439, 4145.158
251.4260, 4161.612
251.9081, 4165.792
252.3902, 4176.782
252.8724, 4194.836
253.3545, 4219.504
253.8366, 4250.869
254.3187, 4289.878
254.8008, 4334.392
255.2829, 4392.617
255.7651, 4451.524
256.2472, 4483.549
256.7293, 4471.230
257.2114, 4464.175
257.6935, 4484.917
258.1756, 4546.905
258.6577, 4590.981
259.1399, 4611.557
259.6220, 4617.880
260.1041, 4628.526
260.5862, 4643.336
261.0683, 4663.007
261.5504, 4690.897
262.0326, 4733.618
262.5147, 4759.892
262.9968, 4763.728
263.4789, 4754.631
263.9610, 4754.624
264.4431, 4769.005
264.9253, 4780.494
265.4074, 4779.883
265.8895, 4763.297
266.3716, 4750.478
266.8537, 4742.554
267.3358, 4738.075
267.8180, 4733.546
268.3001, 4728.427
268.7822, 4724.807
269.2643, 4726.222
269.7464, 4735.783
270.2285, 4733.075
270.7107, 4714.196
271.1928, 4685.438
271.6749, 4660.920
272.1570, 4641.351
272.6391, 4622.941
273.1212, 4602.338
273.6034, 4578.273
274.0855, 4563.559
274.5676, 4563.958
275.0497, 4568.709
275.5318, 4549.864
276.0139, 4501.225
276.4961, 4454.848
276.9782, 4428.370
277.4603, 4422.963
277.9424, 4422.290
278.4245, 4428.015
278.9066, 4434.801
279.3888, 4428.929
279.8709, 4408.056
280.3530, 4389.458
280.8351, 4383.154
281.3172, 4389.191
281.7993, 4398.517
282.2815, 4412.827
282.7636, 4426.728
283.2457, 4428.598
283.7278, 4417.790
284.2099, 4403.779
284.6920, 4387.513
285.1741, 4370.034
285.6563, 4367.968
286.1384, 4386.912
286.6205, 4412.234
287.1026, 4416.915
287.5847, 4401.120
288.0668, 4384.635
288.5490, 4376.650
289.0311, 4376.845
289.5132, 4385.711
289.9953, 4405.664
290.4774, 4427.505
290.9595, 4435.076
291.4417, 4429.559
291.9238, 4424.526
292.4059, 4427.444
292.8880, 4436.797
293.3701, 4447.897
293.8522, 4460.382
294.3344, 4474.439
294.8165, 4494.586
295.2986, 4518.828
295.7807, 4535.084
296.2628, 4527.171
296.7449, 4507.571
297.2271, 4507.369
297.7092, 4531.572
298.1913, 4562.759
298.6734, 4578.992
299.1555, 4584.347
299.6376, 4592.726
300.1198, 4617.495
300.6019, 4648.256
301.0840, 4663.539
301.5661, 4658.803
302.0482, 4657.516
302.5303, 4687.316
303.0125, 4738.916
303.4946, 4789.768
303.9767, 4832.837
304.4588, 4867.002
304.9409, 4885.688
305.4230, 4886.272
305.9052, 4889.500
306.3873, 4914.214
306.8694, 4953.480
307.3515, 4993.811
307.8336, 5029.865
308.3157, 5064.004
308.7979, 5098.485
309.2800, 5133.648
309.7621, 5166.015
310.2442, 5187.223
310.7263, 5205.274
311.2084, 5231.979
311.6906, 5282.773
312.1727, 5335.691
312.6548, 5375.008
313.1369, 5400.139
313.6190, 5425.281
314.1011, 5462.760
314.5833, 5502.987
315.0654, 5534.832
315.5475, 5541.704
316.0296, 5550.848
316.5117, 5578.841
316.9938, 5625.801
317.4760, 5667.732
317.9580, 5700.729
318.4402, 5721.936
318.9223, 5728.557
319.4044, 5698.410
319.8865, 5674.624
320.3686, 5676.703
320.8507, 5702.979
321.3329, 5719.557
321.8150, 5704.371
322.2971, 5684.100
322.7792, 5677.963
323.2613, 5719.646
323.7434, 5742.627
324.2256, 5729.086
324.7077, 5682.672
325.1898, 5635.857
325.6719, 5601.680
326.1540, 5561.721
326.6361, 5505.816
327.1183, 5417.260
327.6004, 5331.977
328.0825, 5248.250
328.5646, 5167.604
329.0467, 5099.502
329.5288, 5049.099
330.0110, 5005.844
330.4931, 4964.685
330.9752, 4927.046
331.4573, 4888.676
331.9394, 4846.163
332.4215, 4803.010
332.9037, 4769.612
333.3858, 4748.020
333.8679, 4733.609
334.3500, 4727.146
334.8321, 4737.289
335.3142, 4728.814
335.7964, 4691.339
336.2785, 4642.170
336.7606, 4618.198
337.2427, 4628.623
337.7248, 4640.052
338.2069, 4637.471
338.6891, 4618.785
339.1712, 4604.518
339.6533, 4594.608
340.1354, 4589.441
340.6175, 4592.413
341.0996, 4605.196
341.5818, 4613.676
342.0639, 4612.115
342.5460, 4601.241
343.0281, 4585.474
343.5102, 4563.047
343.9923, 4542.603
344.4745, 4536.568
344.9566, 4544.165
345.4387, 4553.689
345.9208, 4563.272
346.4029, 4571.406
346.8850, 4571.840
347.3672, 4564.168
347.8493, 4554.598
348.3314, 4547.341
348.8135, 4542.731
349.2956, 4542.385
349.7777, 4547.998
350.2599, 4556.984
350.7419, 4564.270
351.2241, 4570.290
351.7062, 4580.369
352.1883, 4605.996
352.6704, 4637.208
353.1525, 4654.772
353.6346, 4645.728
354.1168, 4633.806
354.5989, 4645.064
355.0810, 4674.375
355.5631, 4701.554
356.0452, 4710.119
356.5273, 4712.655
357.0095, 4722.841
357.4916, 4747.220
357.9737, 4770.381
358.4558, 4783.933
358.9379, 4789.456
359.4200, 4790.444
359.9022, 4776.425
360.3843, 4766.825
360.8664, 4773.379
361.3485, 4798.960
361.8306, 4835.927
362.3127, 4897.162
362.7949, 4964.942
363.2770, 5013.605
363.7591, 5020.012
364.2412, 5021.118
364.7233, 5030.105
365.2054, 5049.468
365.6876, 5066.275
366.1697, 5080.054
366.6518, 5089.990
367.1339, 5095.137
367.6160, 5080.492
368.0981, 5077.340
368.5803, 5094.339
369.0624, 5131.852
369.5445, 5165.481
370.0266, 5196.159
370.5087, 5222.099
370.9908, 5241.944
371.4730, 5254.654
371.9551, 5262.365
372.4372, 5261.957
372.9193, 5256.302
373.4014, 5259.595
373.8835, 5274.121
374.3657, 5293.203
374.8478, 5313.261
375.3299, 5334.571
375.8120, 5356.763
376.2941, 5380.935
376.7762, 5405.174
377.2584, 5424.734
377.7405, 5439.433
378.2226, 5451.694
378.7047, 5462.124
379.1868, 5470.790
379.6689, 5481.452
380.1511, 5495.128
380.6332, 5507.539
381.1153, 5508.377
381.5974, 5499.405
382.0795, 5498.468
382.5616, 5516.916
383.0438, 5547.576
383.5259, 5574.412
384.0080, 5597.289
384.4901, 5616.133
384.9722, 5628.076
385.4543, 5635.935
385.9364, 5647.213
386.4185, 5667.431
386.9007, 5688.940
387.3828, 5702.462
387.8649, 5708.911
388.3470, 5714.959
388.8291, 5725.221
389.3112, 5737.428
389.7934, 5748.499
390.2755, 5756.504
390.7576, 5765.665
391.2397, 5779.317
391.7218, 5796.236
392.2039, 5813.357
392.6861, 5831.856
393.1682, 5848.376
393.6503, 5859.618
394.1324, 5862.344
394.6145, 5868.927
395.0966, 5887.493
395.5788, 5910.939
396.0609, 5929.203
396.5430, 5937.961
397.0251, 5943.585
397.5072, 5946.869
397.9893, 5947.290
398.4715, 5949.400
398.9536, 5957.970
399.4357, 5965.477
399.9178, 5964.895
400.3999, 5942.017
400.8820, 5933.177
401.3642, 5950.024
401.8463, 5987.142
402.3284, 6008.234
402.8105, 6010.099
403.2926, 6001.089
403.7747, 5983.270
404.2569, 5952.176
404.7390, 5930.943
405.2211, 5923.711
405.7032, 5924.637
406.1853, 5921.511
406.6674, 5914.190
407.1496, 5903.741
407.6317, 5892.727
408.1138, 5880.441
408.5959, 5853.063
409.0780, 5806.388
409.5602, 5759.899
410.0423, 5746.853
410.5244, 5760.236
411.0065, 5763.499
411.4886, 5737.592
411.9707, 5695.583
412.4529, 5659.060
412.9350, 5627.771
413.4171, 5601.944
413.8992, 5588.150
414.3813, 5577.952
414.8634, 5557.005
415.3456, 5517.779
415.8277, 5472.221
416.3098, 5422.064
416.7919, 5371.949
417.2740, 5335.215
417.7561, 5332.001
418.2382, 5337.444
418.7203, 5335.153
419.2025, 5323.646
419.6846, 5301.106
420.1667, 5253.137
420.6488, 5196.651
421.1309, 5155.749
421.6130, 5155.101
422.0952, 5154.717
422.5773, 5138.998
423.0594, 5104.720
423.5415, 5079.458
424.0236, 5074.512
424.5057, 5074.442
424.9879, 5066.966
425.4700, 5041.467
425.9521, 5025.264
426.4342, 5027.724
426.9163, 5042.799
427.3984, 5038.303
427.8806, 4999.333
428.3627, 4966.372
428.8448, 4966.038
429.3269, 5008.771
429.8090, 5031.452
430.2911, 5026.117
430.7733, 5008.627
431.2554, 5008.137
431.7375, 5026.096
432.2196, 5040.248
432.7017, 5036.199
433.1838, 5019.848
433.6660, 5024.305
434.1481, 5051.639
434.6302, 5079.142
435.1123, 5079.702
435.5944, 5061.394
436.0765, 5049.245
436.5587, 5050.802
437.0408, 5061.102
437.5229, 5079.974
438.0050, 5104.411
438.4871, 5119.900
438.9692, 5107.160
439.4514, 5085.739
439.9335, 5076.172
440.4156, 5083.662
440.8977, 5097.230
441.3798, 5113.133
441.8619, 5130.334
442.3441, 5147.046
442.8262, 5166.161
443.3083, 5181.604
443.7904, 5187.708
444.2725, 5183.424
444.7546, 5185.035
445.2368, 5203.539
445.7189, 5224.956
446.2010, 5238.057
446.6831, 5234.750
447.1652, 5232.244
447.6473, 5230.500
448.1295, 5230.173
448.6116, 5234.918
449.0937, 5250.858
449.5758, 5262.842
450.0579, 5262.524
450.5400, 5245.946
451.0221, 5232.929
451.5042, 5221.718
451.9864, 5216.790
452.4685, 5229.128
452.9506, 5261.033
453.4327, 5286.654
453.9148, 5293.481
454.3969, 5288.083
454.8791, 5296.917
455.3612, 5320.577
455.8433, 5347.279
456.3254, 5370.636
456.8075, 5389.169
457.2896, 5396.981
457.7718, 5391.495
458.2539, 5378.447
458.7360, 5363.051
459.2181, 5345.321
459.7002, 5325.227
460.1823, 5298.215
460.6645, 5271.357
461.1466, 5250.389
461.6287, 5235.877
462.1108, 5226.869
462.5929, 5224.389
463.0750, 5226.506
463.5572, 5231.004
464.0393, 5245.368
464.5214, 5253.771
465.0035, 5245.737
465.4856, 5224.509
465.9677, 5213.844
466.4499, 5225.120
466.9320, 5240.851
467.4141, 5252.788
467.8962, 5256.387
468.3783, 5264.861
468.8604, 5277.298
469.3426, 5295.048
469.8247, 5322.425
470.3068, 5363.615
470.7889, 5403.053
471.2710, 5436.334
471.7531, 5463.753
472.2353, 5488.473
472.7174, 5510.251
473.1995, 5530.583
473.6816, 5549.039
474.1637, 5566.498
474.6458, 5590.133
475.1280, 5623.203
475.6101, 5659.205
476.0922, 5685.666
476.5743, 5704.824
477.0564, 5727.329
477.5385, 5760.617
478.0207, 5800.109
478.5028, 5842.004
478.9849, 5886.303
479.4670, 5928.486
479.9491, 5962.443
480.4312, 5993.559
480.9134, 6028.012
481.3955, 6077.196
481.8776, 6121.365
482.3597, 6144.129
482.8418, 6152.644
483.3239, 6175.560
483.8060, 6235.245
484.2881, 6299.298
484.7703, 6350.915
485.2524, 6383.694
485.7345, 6417.839
486.2166, 6453.864
486.6987, 6490.885
487.1808, 6529.336
487.6630, 6573.757
488.1451, 6610.311
488.6272, 6635.459
489.1093, 6649.870
489.5914, 6660.490
490.0735, 6669.639
490.5557, 6666.299
491.0378, 6640.113
491.5199, 6592.131
492.0020, 6538.398
492.4841, 6480.907
492.9662, 6417.623
493.4484, 6343.818
493.9305, 6260.621
494.4126, 6176.182
494.8947, 6086.027
495.3768, 6000.099
495.8589, 5934.949
496.3411, 5889.563
496.8232, 5842.075
497.3053, 5769.847
497.7874, 5691.660
498.2695, 5627.769
498.7516, 5586.394
499.2338, 5553.462
499.7159, 5524.405
500.1980, 5499.764
500.6801, 5481.717
501.1622, 5471.724
501.6443, 5467.159
502.1265, 5471.563
502.6086, 5488.249
503.0907, 5489.293
503.5728, 5464.459
504.0549, 5433.073
504.5370, 5409.677
505.0192, 5396.572
505.5013, 5385.721
505.9834, 5377.706
506.4655, 5370.559
506.9476, 5357.576
507.4297, 5337.128
507.9119, 5321.360
508.3940, 5316.383
508.8761, 5321.151
509.3582, 5333.053
509.8403, 5353.094
510.3224, 5369.587
510.8046, 5367.098
511.2867, 5352.634
511.7688, 5342.324
512.2509, 5342.684
512.7330, 5345.504
513.2151, 5344.538
513.6973, 5339.952
514.1794, 5332.229
514.6615, 5322.258
515.1436, 5308.739
515.6257, 5287.940
516.1078, 5257.411
516.5900, 5234.874
517.0721, 5232.630
517.5542, 5236.310
518.0363, 5233.218
518.5184, 5215.843
519.0005, 5199.144
519.4827, 5184.153
519.9648, 5170.418
520.4469, 5156.869
520.9290, 5142.576
521.4111, 5129.999
521.8932, 5120.323
522.3754, 5113.617
522.8575, 5109.137
523.3396, 5108.441
523.8217, 5104.885
524.3038, 5085.503
524.7859, 5053.775
525.2681, 5035.178
525.7502, 5038.428
526.2323, 5052.838
526.7144, 5065.424
527.1965, 5075.860
527.6786, 5082.514
528.1608, 5082.254
528.6429, 5079.080
529.1250, 5076.096
529.6071, 5073.412
530.0892, 5073.163
530.5714, 5084.703
531.0535, 5095.416
531.5356, 5092.999
532.0176, 5057.075
532.4998, 5027.813
532.9819, 5012.055
533.4640, 5008.530
533.9461, 5013.535
534.4282, 5042.465
534.9103, 5060.332
535.3925, 5049.854
535.8746, 5005.558
536.3567, 4992.306
536.8388, 5019.912
537.3209, 5059.561
537.8030, 5087.077
538.2852, 5102.325
538.7673, 5105.835
539.2494, 5093.655
539.7315, 5076.592
540.2136, 5075.870
540.6957, 5089.196
541.1779, 5102.061
541.6600, 5106.086
542.1421, 5105.750
542.6242, 5108.995
543.1063, 5115.640
543.5884, 5117.232
544.0706, 5097.160
544.5527, 5074.611
545.0348, 5070.096
545.5169, 5099.577
545.9990, 5125.916
546.4811, 5134.995
546.9633, 5132.922
547.4454, 5130.348
547.9275, 5130.569
548.4096, 5128.553
548.8917, 5119.146
549.3738, 5102.904
549.8560, 5104.402
550.3381, 5135.768
550.8202, 5165.271
551.3023, 5168.974
551.7844, 5142.651
552.2665, 5125.037
552.7487, 5118.124
553.2308, 5120.606
553.7129, 5134.137
554.1950, 5157.239
554.6771, 5178.978
555.1592, 5198.018
555.6414, 5211.385
556.1235, 5209.302
556.6056, 5194.976
557.0877, 5185.792
557.5698, 5201.841
558.0519, 5222.687
558.5341, 5226.296
559.0162, 5204.834
559.4983, 5190.719
559.9804, 5201.711
560.4625, 5224.640
560.9446, 5245.676
561.4268, 5268.515
561.9089, 5281.481
562.3910, 5275.993
562.8731, 5258.971
563.3552, 5255.768
563.8373, 5273.321
564.3195, 5291.866
564.8016, 5304.435
565.2837, 5311.108
565.7658, 5311.700
566.2479, 5305.497
566.7300, 5296.044
567.2122, 5280.558
567.6943, 5262.749
568.1764, 5265.926
568.6585, 5301.523
569.1406, 5341.797
569.6227, 5347.089
570.1049, 5328.620
570.5870, 5317.031
571.0691, 5333.246
571.5512, 5357.123
572.0333, 5375.377
572.5154, 5388.143
572.9976, 5399.581
573.4797, 5406.426
573.9618, 5415.986
574.4439, 5434.188
574.9260, 5471.621
575.4081, 5497.162
575.8903, 5502.710
576.3724, 5500.896
576.8545, 5508.465
577.3366, 5531.969
577.8187, 5546.455
578.3008, 5541.865
578.7830, 5527.255
579.2651, 5537.089
579.7472, 5572.921
580.2293, 5609.105
580.7114, 5631.429
581.1935, 5642.890
581.6757, 5648.471
582.1578, 5647.973
582.6399, 5650.923
583.1220, 5667.490
583.6041, 5691.916
584.0862, 5715.552
584.5684, 5732.857
585.0505, 5755.184
585.5326, 5793.133
586.0147, 5839.628
586.4968, 5881.524
586.9789, 5914.763
587.4611, 5943.133
587.9432, 5963.469
588.4253, 5976.701
588.9074, 6001.362
589.3895, 6043.683
589.8716, 6088.275
590.3538, 6123.688
590.8359, 6145.894
591.3180, 6187.118
591.8001, 6251.497
592.2822, 6324.605
592.7643, 6388.440
593.2465, 6444.675
593.7286, 6501.884
594.2107, 6558.222
594.6928, 6623.225
595.1749, 6717.983
595.6570, 6834.757
596.1392, 6949.038
596.6213, 7033.462
597.1034, 7121.777
597.5854, 7242.811
598.0676, 7398.939
598.5497, 7553.474
599.0318, 7678.676
599.5139, 7810.715
599.9960, 7976.325
600.4781, 8196.632
600.9603, 8413.280
601.4424, 8611.807
601.9245, 8820.108
602.4066, 9078.905
602.8887, 9394.803
603.3708, 9728.116
603.8530, 10071.06
604.3351, 10421.54
604.8172, 10759.44
605.2993, 11088.50
605.7814, 11426.28
606.2635, 11775.05
606.7457, 12143.91
607.2278, 12550.29
607.7099, 12998.05
608.1920, 13439.54
608.6741, 13835.96
609.1563, 14219.04
609.6384, 14623.96
610.1205, 15076.02
610.6026, 15514.11
611.0847, 15931.08
611.5668, 16324.68
612.0490, 16693.35
612.5311, 17042.26
613.0132, 17366.71
613.4953, 17685.49
613.9774, 17982.70
614.4595, 18178.85
614.9417, 18269.84
615.4238, 18288.82
615.9059, 18257.77
616.3880, 18172.43
616.8701, 18001.77
617.3522, 17744.29
617.8344, 17408.81
618.3165, 16975.96
618.7986, 16473.19
619.2807, 15953.53
619.7628, 15428.65
620.2449, 14885.61
620.7271, 14288.96
621.2092, 13675.04
621.6913, 13098.92
622.1734, 12582.36
622.6555, 12099.42
623.1376, 11644.30
623.6198, 11217.59
624.1019, 10824.65
624.5840, 10474.77
625.0661, 10143.81
625.5482, 9816.079
626.0303, 9493.612
626.5125, 9222.204
626.9946, 9008.226
627.4767, 8817.166
627.9588, 8615.336
628.4409, 8409.658
628.9230, 8226.798
629.4052, 8072.667
629.8873, 7940.226
630.3694, 7829.123
630.8515, 7734.647
631.3336, 7646.458
631.8157, 7558.584
632.2979, 7478.346
632.7800, 7415.541
633.2621, 7363.712
633.7442, 7303.817
634.2263, 7210.200
634.7084, 7129.582
635.1906, 7079.340
635.6727, 7060.866
636.1548, 7038.032
636.6369, 7010.937
637.1190, 6978.985
637.6011, 6939.544
638.0833, 6892.737
638.5654, 6853.008
639.0475, 6821.465
639.5296, 6797.625
640.0117, 6786.893
640.4938, 6783.547
640.9760, 6773.086
641.4581, 6750.065
641.9402, 6721.179
642.4223, 6687.417
642.9044, 6651.964
643.3865, 6620.915
643.8687, 6593.556
644.3508, 6574.223
644.8329, 6571.743
645.3150, 6584.686
645.7971, 6579.617
646.2792, 6547.290
646.7614, 6509.482
647.2435, 6471.544
647.7256, 6431.514
648.2077, 6419.132
648.6898, 6440.457
649.1719, 6466.819
649.6541, 6470.886
650.1362, 6456.245
650.6183, 6435.533
651.1004, 6408.342
651.5825, 6383.605
652.0646, 6374.711
652.5468, 6374.025
653.0289, 6368.161
653.5110, 6357.184
653.9931, 6428.170
654.4752, 6401.565
654.9573, 6379.498
655.4395, 6362.762
655.9216, 6308.866
656.4037, 6347.716
656.8858, 6376.757
657.3679, 6266.068
657.8500, 6268.902
658.3322, 6272.111
658.8143, 6274.344
659.2964, 6278.500
659.7785, 6282.485
660.2606, 6265.587
660.7427, 6223.480
661.2249, 6185.163
661.7070, 6187.247
662.1891, 6210.196
662.6712, 6219.605
663.1533, 6199.583
663.6354, 6178.639
664.1175, 6175.063
664.5996, 6180.909
665.0817, 6182.805
