##NAMES=Friedelite
##RRUFFID=R060364
##IDEAL CHEMISTRY=Mn^2+^_8_Si_6_O_15_(OH)_10_
##LOCALITY=Sterling Hill mine, Ogdensburg, Sussex County, New Jersey, USA
##OWNER=RRUFF
##SOURCE=Herb Obodda
##DESCRIPTION=Brownish-red fine-grained massive
##STATUS=The identification of this mineral has been confirmed by X-ray diffraction and chemical analysis
##URL=rruff.info/R060364
##MEASURED CHEMISTRY=(Mn^2+^_7.46_Mg_0.54_)_Σ=8_Si_6.00_O_15_((OH)_9.26_Cl_0.74_)_Σ=10_
117.0086, 5.771218
117.4907, 5.605621
117.9728, 5.568707
118.4550, 5.669298
118.9371, 5.689141
119.4192, 5.440680
119.9013, 5.074965
120.3834, 4.788390
120.8655, 4.711787
121.3477, 4.709907
121.8298, 4.672302
122.3119, 4.573013
122.7940, 4.531295
123.2761, 4.736062
123.7582, 5.071138
124.2404, 5.277811
124.7225, 5.006883
125.2046, 4.603404
125.6867, 4.555268
126.1688, 5.052309
126.6509, 5.620419
127.1331, 5.696838
127.6152, 5.359688
128.0973, 4.997313
128.5794, 4.851363
129.0615, 4.876843
129.5436, 4.990317
130.0258, 5.241238
130.5079, 5.498041
130.9900, 5.406011
131.4721, 4.966350
131.9542, 4.661360
132.4363, 5.076329
132.9185, 6.095333
133.4006, 6.898865
133.8827, 7.143496
134.3648, 7.023964
134.8469, 7.230290
135.3290, 7.770631
135.8112, 8.605636
136.2933, 9.747012
136.7754, 11.21540
137.2575, 12.74342
137.7396, 14.31551
138.2217, 15.89905
138.7039, 17.22855
139.1860, 18.21542
139.6681, 19.09074
140.1502, 20.28259
140.6323, 21.89960
141.1144, 23.42974
141.5966, 24.58731
142.0787, 25.19086
142.5608, 26.25445
143.0429, 27.97182
143.5250, 30.03573
144.0071, 31.70046
144.4893, 32.69745
144.9714, 33.70812
145.4535, 35.05455
145.9356, 37.04018
146.4177, 38.77423
146.8998, 40.14314
147.3820, 41.24325
147.8641, 42.52222
148.3462, 43.89259
148.8283, 45.50712
149.3104, 47.48623
149.7925, 50.31353
150.2747, 52.86071
150.7568, 54.91994
151.2389, 56.53439
151.7210, 58.21599
152.2031, 60.09180
152.6852, 61.94045
153.1674, 63.64509
153.6495, 64.88405
154.1316, 66.29437
154.6137, 68.03395
155.0958, 70.11073
155.5779, 72.13708
156.0601, 74.10143
156.5422, 75.98649
157.0243, 77.75378
157.5064, 79.64018
157.9885, 81.18362
158.4706, 81.96117
158.9528, 81.80201
159.4349, 82.29858
159.9170, 84.17301
160.3991, 86.82616
160.8812, 89.56545
161.3633, 92.33969
161.8455, 95.03985
162.3276, 97.65690
162.8097, 100.1764
163.2918, 102.5067
163.7739, 104.3125
164.2560, 105.8059
164.7382, 106.8325
165.2203, 108.4246
165.7024, 110.1869
166.1845, 111.7335
166.6666, 112.9886
167.1487, 114.1508
167.6309, 115.3873
168.1130, 116.6316
168.5951, 117.7193
169.0772, 118.6050
169.5593, 119.3048
170.0414, 119.7924
170.5236, 119.9773
171.0057, 120.1598
171.4878, 120.7508
171.9699, 121.5687
172.4520, 122.0472
172.9341, 121.4944
173.4163, 120.5710
173.8984, 120.1008
174.3805, 120.4735
174.8626, 120.9832
175.3447, 120.9133
175.8268, 120.3646
176.3090, 119.8028
176.7911, 119.8724
177.2732, 120.0854
177.7553, 119.5801
178.2374, 117.7807
178.7195, 115.5747
179.2017, 114.1301
179.6838, 113.3695
180.1659, 112.7127
180.6480, 111.5549
181.1301, 110.1511
181.6122, 109.1121
182.0944, 108.8826
182.5765, 108.9135
183.0586, 108.1893
183.5407, 106.7321
184.0228, 105.0834
184.5049, 103.6556
184.9871, 102.4245
185.4692, 101.3793
185.9513, 100.6531
186.4334, 100.0510
186.9155, 99.02644
187.3976, 97.55557
187.8798, 95.99693
188.3619, 94.57481
188.8440, 93.31213
189.3261, 92.47094
189.8082, 92.29419
190.2903, 92.59538
190.7725, 92.62993
191.2546, 92.33471
191.7367, 92.10686
192.2188, 92.66216
192.7009, 93.94215
193.1830, 94.71481
193.6652, 94.21470
194.1473, 92.70741
194.6294, 91.94632
195.1115, 92.03909
195.5936, 92.50831
196.0757, 92.72968
196.5579, 92.69231
197.0400, 92.73422
197.5221, 93.15840
198.0042, 93.90768
198.4863, 94.00469
198.9684, 93.31786
199.4506, 92.26869
199.9327, 91.55755
200.4148, 91.24399
200.8969, 90.70317
201.3790, 89.55885
201.8611, 87.78703
202.3433, 86.27987
202.8254, 85.12092
203.3075, 84.08395
203.7896, 82.71951
204.2717, 80.91456
204.7538, 79.31103
205.2360, 78.35214
205.7181, 78.16827
206.2002, 77.33695
206.6823, 75.62735
207.1644, 73.54934
207.6465, 72.03661
208.1287, 71.18356
208.6108, 70.60669
209.0929, 70.19335
209.5750, 69.98062
210.0571, 69.73890
210.5392, 69.48393
211.0214, 69.18640
211.5035, 68.76493
211.9856, 68.18597
212.4677, 67.59275
212.9498, 67.03044
213.4319, 66.48629
213.9140, 66.04777
214.3962, 65.71803
214.8783, 65.49050
215.3604, 65.38902
215.8425, 65.49756
216.3246, 65.53838
216.8067, 65.38460
217.2889, 65.01254
217.7710, 64.50240
218.2531, 63.74004
218.7352, 62.89833
219.2173, 62.43219
219.6994, 62.56673
220.1816, 62.64175
220.6637, 62.30155
221.1458, 61.30338
221.6279, 60.59588
222.1100, 60.26018
222.5921, 60.19293
223.0743, 60.10987
223.5564, 59.95740
224.0385, 59.88780
224.5206, 60.02459
225.0027, 60.56376
225.4848, 60.77061
225.9670, 60.48969
226.4491, 59.91843
226.9312, 59.57133
227.4133, 59.53945
227.8954, 59.58796
228.3775, 59.58366
228.8597, 59.39820
229.3418, 59.48637
229.8239, 59.95715
230.3060, 60.67482
230.7881, 61.29300
231.2702, 61.96795
231.7524, 62.31073
232.2345, 62.04444
232.7166, 60.65354
233.1987, 59.86490
233.6808, 59.88923
234.1629, 60.46514
234.6451, 60.92689
235.1272, 61.29371
235.6093, 61.51526
236.0914, 61.53534
236.5735, 61.18479
237.0556, 61.03960
237.5378, 61.22042
238.0199, 61.57409
238.5020, 61.70228
238.9841, 61.49926
239.4662, 61.23185
239.9483, 60.98877
240.4305, 60.70295
240.9126, 60.59995
241.3947, 60.68065
241.8768, 60.94164
242.3589, 61.41362
242.8410, 62.28249
243.3232, 63.07361
243.8053, 63.56066
244.2874, 63.58983
244.7695, 63.68591
245.2516, 63.86712
245.7337, 64.10796
246.2159, 64.33616
246.6980, 64.46518
247.1801, 64.72004
247.6622, 65.21347
248.1443, 66.05198
248.6264, 66.83742
249.1086, 67.55922
249.5907, 68.23956
250.0728, 68.90938
250.5549, 69.51201
251.0370, 70.20085
251.5191, 71.07561
252.0013, 72.23850
252.4834, 73.20204
252.9655, 73.85294
253.4476, 74.36208
253.9297, 75.01333
254.4118, 75.73206
254.8940, 76.72157
255.3761, 78.18399
255.8582, 80.39803
256.3403, 81.90458
256.8224, 82.28342
257.3046, 82.27932
257.7867, 83.23421
258.2688, 85.72923
258.7509, 87.97189
259.2330, 89.25034
259.7151, 89.35216
260.1973, 89.85033
260.6794, 90.94599
261.1615, 92.23414
261.6436, 93.07500
262.1257, 93.32088
262.6078, 93.49788
263.0900, 93.76832
263.5721, 94.15347
264.0542, 94.41965
264.5363, 94.49590
265.0184, 94.53832
265.5005, 94.78870
265.9827, 95.34900
266.4648, 95.81734
266.9469, 96.12219
267.4290, 96.26737
267.9111, 96.03545
268.3932, 95.30179
268.8754, 94.38448
269.3575, 93.65080
269.8396, 93.14660
270.3217, 92.64058
270.8038, 92.11303
271.2859, 91.55252
271.7681, 90.77663
272.2502, 89.71183
272.7323, 88.58614
273.2144, 87.67768
273.6965, 87.02615
274.1786, 86.34580
274.6608, 85.52869
275.1429, 84.61771
275.6250, 83.92538
276.1071, 83.50676
276.5892, 83.15125
277.0714, 82.76183
277.5535, 82.37193
278.0356, 81.59448
278.5177, 80.18580
278.9998, 78.37839
279.4819, 77.14832
279.9641, 76.54480
280.4462, 76.26738
280.9283, 76.18011
281.4104, 76.29483
281.8925, 76.25865
282.3746, 75.99317
282.8568, 75.56177
283.3389, 75.03293
283.8210, 74.35877
284.3031, 73.95219
284.7852, 74.30771
285.2673, 75.36325
285.7495, 76.04522
286.2316, 76.15734
286.7137, 75.92432
287.1958, 75.76615
287.6779, 75.68223
288.1600, 75.66240
288.6422, 75.74852
289.1243, 75.91636
289.6064, 75.94524
290.0885, 75.75600
290.5706, 75.57626
291.0527, 75.83050
291.5349, 76.49403
292.0170, 77.19901
292.4991, 77.70845
292.9812, 78.09151
293.4633, 78.62476
293.9454, 79.36954
294.4276, 80.08525
294.9097, 80.23886
295.3918, 79.97632
295.8739, 80.07002
296.3560, 81.20185
296.8381, 82.92661
297.3203, 84.08559
297.8024, 84.59459
298.2845, 85.05595
298.7666, 86.27660
299.2487, 87.99569
299.7308, 89.44714
300.2130, 90.01529
300.6951, 90.23532
301.1772, 91.07144
301.6593, 92.51751
302.1414, 94.00366
302.6235, 94.80179
303.1057, 95.28262
303.5878, 96.19170
304.0699, 98.13939
304.5520, 100.3634
305.0341, 101.9017
305.5162, 102.8244
305.9984, 103.7852
306.4805, 105.4733
306.9626, 107.4245
307.4447, 108.9126
307.9268, 109.4468
308.4089, 109.8776
308.8911, 110.9472
309.3732, 112.5602
309.8553, 114.3274
310.3374, 116.1196
310.8195, 117.9093
311.3016, 119.6809
311.7838, 121.5193
312.2659, 123.1463
312.7480, 124.2341
313.2301, 124.9388
313.7122, 125.6705
314.1943, 126.8023
314.6765, 127.9235
315.1586, 128.7756
315.6407, 129.3350
316.1228, 129.5778
316.6049, 129.1372
317.0870, 128.4125
317.5692, 128.0656
318.0513, 128.6362
318.5334, 129.3851
319.0155, 130.0466
319.4976, 130.6344
319.9797, 130.8783
320.4619, 130.3640
320.9440, 129.5678
321.4261, 129.0300
321.9082, 129.0779
322.3903, 129.2028
322.8724, 129.4317
323.3546, 129.7690
323.8367, 129.5480
324.3188, 128.3236
324.8009, 126.6666
325.2830, 125.0301
325.7651, 123.9749
326.2473, 122.3770
326.7294, 119.8681
327.2115, 116.5608
327.6936, 113.3296
328.1757, 110.4016
328.6578, 107.4659
329.1400, 104.3508
329.6221, 100.6709
330.1042, 97.38264
330.5863, 94.59418
331.0684, 92.19164
331.5505, 89.88036
332.0327, 87.43200
332.5148, 85.31847
332.9969, 83.79272
333.4790, 83.21738
333.9611, 82.27222
334.4432, 80.65503
334.9254, 78.83679
335.4075, 77.69980
335.8896, 77.60059
336.3717, 77.43884
336.8538, 76.80565
337.3359, 75.61992
337.8180, 74.81580
338.3001, 74.50290
338.7823, 74.40546
339.2644, 74.23592
339.7465, 73.98669
340.2286, 73.69384
340.7107, 73.35742
341.1928, 72.98044
341.6750, 72.62062
342.1571, 72.27490
342.6392, 71.93672
343.1213, 71.57706
343.6034, 71.19699
344.0855, 70.88152
344.5677, 70.64403
345.0498, 70.48206
345.5319, 70.50964
346.0140, 70.74186
346.4961, 70.74274
346.9782, 70.10751
347.4604, 68.95789
347.9425, 67.86983
348.4246, 66.85079
348.9067, 66.01241
349.3888, 65.53481
349.8709, 65.38986
350.3531, 65.41927
350.8352, 65.65306
351.3173, 65.98277
351.7994, 66.20540
352.2815, 66.31062
352.7636, 66.33956
353.2458, 66.22855
353.7279, 66.07064
354.2100, 66.06624
354.6921, 66.27795
355.1742, 66.68604
355.6563, 67.42626
356.1385, 68.45029
356.6206, 69.29493
357.1027, 69.44585
357.5848, 69.30948
358.0669, 69.37532
358.5490, 69.86488
359.0312, 70.44498
359.5133, 70.92797
359.9954, 71.33535
360.4775, 71.74165
360.9596, 72.06052
361.4417, 72.46915
361.9239, 73.14261
362.4060, 74.22997
362.8881, 75.21875
363.3702, 75.90793
363.8523, 76.37959
364.3344, 76.75980
364.8166, 76.87380
365.2987, 77.09305
365.7808, 77.57805
366.2629, 78.36485
366.7450, 79.19660
367.2271, 80.24919
367.7093, 81.22549
368.1914, 81.86446
368.6735, 81.52946
369.1556, 81.54351
369.6377, 82.23562
370.1198, 83.52127
370.6020, 84.65196
371.0841, 85.74939
371.5662, 86.58208
372.0483, 86.97102
372.5304, 86.48095
373.0125, 86.38055
373.4947, 86.81226
373.9768, 87.60516
374.4589, 88.38040
374.9410, 89.13713
375.4231, 89.88062
375.9052, 90.61485
376.3874, 91.34029
376.8695, 92.06224
377.3516, 92.76143
377.8337, 93.50269
378.3158, 94.47429
378.7979, 95.74306
379.2801, 96.73566
379.7622, 97.15971
380.2443, 97.20298
380.7264, 97.87968
381.2085, 99.28768
381.6906, 100.6084
382.1728, 100.9021
382.6549, 100.3757
383.1370, 100.3809
383.6191, 101.2727
384.1012, 102.5680
384.5833, 103.4870
385.0655, 104.0734
385.5476, 104.6543
386.0297, 105.5501
386.5118, 106.5480
386.9939, 107.2248
387.4760, 107.5041
387.9582, 107.7328
388.4403, 108.3449
388.9224, 109.1506
389.4045, 109.7521
389.8866, 109.7418
390.3687, 109.6330
390.8509, 109.8086
391.3330, 110.2666
391.8151, 110.9618
392.2972, 112.1839
392.7793, 113.4795
393.2614, 114.3916
393.7436, 114.5044
394.2257, 114.6256
394.7078, 115.0127
395.1899, 115.6564
395.6720, 116.5323
396.1541, 118.2504
396.6363, 119.7090
397.1184, 120.2087
397.6005, 119.1975
398.0826, 118.7531
398.5647, 119.8039
399.0468, 121.3768
399.5290, 122.2922
400.0111, 121.8295
400.4932, 121.3925
400.9753, 121.1944
401.4574, 121.2349
401.9395, 121.4079
402.4217, 121.9801
402.9038, 122.4048
403.3859, 122.2718
403.8680, 121.2952
404.3501, 120.4409
404.8322, 119.8317
405.3144, 119.3589
405.7965, 118.7297
406.2786, 117.8777
406.7607, 117.0780
407.2428, 116.4837
407.7249, 116.1005
408.2071, 115.7392
408.6892, 115.5007
409.1713, 114.9869
409.6534, 113.4344
410.1355, 110.9140
410.6176, 108.7722
411.0998, 107.6057
411.5819, 106.9262
412.0640, 105.5347
412.5461, 103.4614
413.0282, 101.1602
413.5103, 98.77737
413.9925, 96.46937
414.4746, 94.63070
414.9567, 93.47164
415.4388, 92.34805
415.9209, 90.47749
416.4030, 88.10078
416.8852, 85.76138
417.3673, 83.66115
417.8494, 81.79305
418.3315, 80.25028
418.8136, 79.05657
419.2957, 77.71385
419.7779, 75.73460
420.2600, 73.56663
420.7421, 71.69135
421.2242, 70.40350
421.7063, 69.24453
422.1884, 68.05461
422.6706, 66.86385
423.1527, 65.73757
423.6348, 64.76308
424.1169, 63.81480
424.5990, 62.82858
425.0811, 61.80075
425.5633, 60.74511
426.0454, 59.48492
426.5275, 58.27348
427.0096, 57.43083
427.4917, 57.16343
427.9738, 56.96672
428.4560, 56.76703
428.9381, 56.56032
429.4202, 56.30110
429.9023, 55.99937
430.3844, 55.63258
430.8665, 55.11632
431.3487, 54.37709
431.8308, 53.96061
432.3129, 53.97559
432.7950, 54.25270
433.2771, 54.46331
433.7592, 54.60258
434.2414, 54.74324
434.7235, 54.96757
435.2056, 55.22632
435.6877, 55.32311
436.1698, 55.25548
436.6519, 55.05761
437.1341, 54.56824
437.6162, 53.96876
438.0983, 53.76632
438.5804, 54.30233
439.0625, 54.99995
439.5446, 55.11580
440.0268, 54.79978
440.5089, 54.59835
440.9910, 54.87777
441.4731, 55.38573
441.9552, 55.99091
442.4373, 56.73209
442.9195, 57.21920
443.4016, 57.07967
443.8837, 56.63013
444.3658, 56.25542
444.8479, 55.98659
445.3300, 55.89296
445.8122, 56.12530
446.2943, 56.62634
446.7764, 56.91825
447.2585, 56.86154
447.7406, 56.63237
448.2227, 56.31156
448.7049, 55.90807
449.1870, 55.39884
449.6691, 54.67284
450.1512, 53.89849
450.6333, 53.36796
451.1154, 53.17451
451.5976, 53.01317
452.0797, 52.79174
452.5618, 52.52023
453.0439, 52.34903
453.5260, 52.26652
454.0081, 52.32756
454.4903, 52.63552
454.9724, 53.18363
455.4545, 53.67904
455.9366, 54.08109
456.4187, 54.41924
456.9008, 54.70754
457.3830, 54.95831
457.8651, 55.23358
458.3472, 55.73065
458.8293, 56.22463
459.3114, 56.29181
459.7935, 55.93045
460.2757, 55.35619
460.7578, 54.66064
461.2399, 53.88662
461.7220, 53.09269
462.2041, 52.27230
462.6862, 51.45613
463.1684, 50.64283
463.6505, 49.84267
464.1326, 49.09911
464.6147, 48.33152
465.0968, 47.70013
465.5789, 47.35804
466.0611, 47.35698
466.5432, 47.28717
467.0253, 46.92529
467.5074, 46.53795
467.9895, 46.34892
468.4716, 46.39722
468.9538, 46.61729
469.4359, 47.12956
469.9180, 47.80612
470.4001, 48.20403
470.8822, 48.10897
471.3643, 48.11377
471.8465, 48.48179
472.3286, 49.24857
472.8107, 50.01238
473.2928, 50.75460
473.7749, 51.51843
474.2570, 52.41814
474.7392, 53.45155
475.2213, 54.20085
475.7034, 54.47564
476.1855, 54.53686
476.6676, 54.92011
477.1497, 55.60533
477.6319, 56.37725
478.1140, 57.23137
478.5961, 58.05520
479.0782, 58.53026
479.5603, 58.59688
480.0424, 58.86613
480.5246, 60.11468
481.0067, 61.80359
481.4888, 63.16401
481.9709, 63.71436
482.4530, 64.16131
482.9352, 64.77328
483.4173, 65.55820
483.8994, 66.54139
484.3815, 67.99535
484.8636, 69.43739
485.3457, 70.56391
485.8279, 71.20069
486.3100, 72.13170
486.7921, 73.68593
487.2742, 75.41697
487.7563, 76.94007
488.2384, 78.05284
488.7206, 79.33859
489.2027, 81.00826
489.6848, 82.87541
490.1669, 84.29528
490.6490, 85.28216
491.1311, 85.74510
491.6133, 85.55045
492.0954, 84.70795
492.5775, 83.77943
493.0596, 82.83412
493.5417, 81.52337
494.0238, 79.28517
494.5060, 76.28846
494.9881, 73.33648
495.4702, 70.66065
495.9523, 68.11269
496.4344, 65.50284
496.9165, 62.86960
497.3987, 60.36866
497.8808, 58.06771
498.3629, 55.92264
498.8450, 53.84508
499.3271, 51.80183
499.8092, 50.03129
500.2914, 48.82561
500.7735, 47.85956
501.2556, 46.78695
501.7377, 45.30303
502.2198, 43.98898
502.7019, 42.89126
503.1841, 42.04466
503.6662, 41.53310
504.1483, 41.70205
504.6304, 41.83889
505.1125, 41.72144
505.5946, 41.32386
506.0768, 41.02266
506.5589, 40.86096
507.0410, 40.73614
507.5231, 40.55805
508.0052, 40.31397
508.4873, 40.09336
508.9695, 39.88386
509.4516, 39.74357
509.9337, 39.81732
510.4158, 40.09557
510.8979, 40.40020
511.3800, 40.69352
511.8622, 40.94915
512.3443, 41.15112
512.8264, 41.29139
513.3085, 41.25623
513.7906, 40.85133
514.2728, 40.25891
514.7549, 39.70868
515.2370, 39.24351
515.7191, 38.82722
516.2012, 38.46988
516.6833, 38.14130
517.1655, 37.78904
517.6476, 37.47094
518.1297, 37.05332
518.6118, 36.45087
519.0939, 35.67962
519.5760, 34.92255
520.0582, 34.17906
520.5403, 33.47896
521.0224, 32.84338
521.5045, 32.27118
521.9866, 31.75759
522.4688, 31.31412
522.9509, 30.91587
523.4330, 30.52781
523.9151, 30.14881
524.3972, 29.78977
524.8793, 29.47348
525.3615, 29.16593
525.8436, 28.72348
526.3257, 28.14783
526.8078, 27.66280
527.2899, 27.46281
527.7720, 27.43169
528.2542, 27.30078
528.7363, 27.05663
529.2184, 26.80365
529.7005, 26.57943
530.1826, 26.41904
530.6647, 26.40085
531.1469, 26.71211
531.6290, 26.89279
532.1111, 26.49298
532.5932, 25.79018
533.0753, 25.35166
533.5574, 25.55624
534.0396, 25.84164
534.5217, 26.01908
535.0038, 26.07178
535.4859, 26.15605
535.9680, 26.39350
536.4501, 26.54700
536.9323, 26.44857
537.4144, 25.94190
537.8965, 25.62155
538.3786, 25.52874
538.8607, 25.58231
539.3428, 25.68305
539.8250, 25.83552
540.3071, 26.00369
540.7892, 26.23759
541.2713, 26.43266
541.7534, 26.20960
542.2355, 25.61334
542.7177, 25.12068
543.1998, 25.17847
543.6819, 25.47565
544.1640, 25.48913
544.6461, 25.16614
545.1282, 24.87067
545.6104, 24.92081
546.0925, 25.11570
546.5746, 25.21946
547.0567, 24.98792
547.5388, 24.90692
548.0209, 25.38710
548.5031, 26.12122
548.9852, 26.44392
549.4673, 25.71246
549.9494, 25.13309
550.4315, 25.05211
550.9136, 25.46708
551.3958, 25.83765
551.8779, 26.25194
552.3600, 26.47356
552.8421, 26.25351
553.3242, 25.51517
553.8063, 25.06718
554.2885, 24.96102
554.7706, 25.09759
555.2527, 25.47674
555.7348, 26.03809
556.2169, 26.38216
556.6990, 26.28300
557.1812, 26.04152
557.6633, 26.09005
558.1454, 26.36990
558.6275, 26.66149
559.1096, 26.82269
559.5917, 26.95365
560.0739, 27.16721
560.5560, 27.47459
561.0381, 27.67972
561.5202, 27.48573
562.0023, 27.28969
562.4844, 27.39720
562.9666, 28.16419
563.4487, 28.76597
563.9308, 29.12809
564.4129, 29.31609
564.8950, 29.39718
565.3771, 29.26693
565.8593, 29.26682
566.3414, 29.50240
566.8235, 29.92177
567.3056, 30.34110
567.7877, 30.77406
568.2698, 31.08669
568.7520, 31.16378
569.2341, 31.05197
569.7162, 30.88652
570.1983, 30.66428
570.6804, 30.52791
571.1625, 30.55749
571.6447, 30.77746
572.1268, 31.28410
572.6089, 32.29585
573.0910, 33.18132
573.5731, 33.33122
574.0552, 33.11480
574.5374, 33.18124
575.0195, 34.14608
575.5016, 35.01646
575.9837, 35.34737
576.4658, 35.19084
576.9479, 35.31211
577.4301, 35.82335
577.9122, 36.50063
578.3943, 37.33962
578.8764, 38.44101
579.3585, 38.99868
579.8406, 38.75866
580.3228, 38.54025
580.8049, 39.36162
581.2870, 41.14939
581.7691, 42.66283
582.2512, 43.65170
582.7333, 44.35187
583.2155, 45.02646
583.6975, 45.68594
584.1796, 46.39940
584.6617, 47.10202
585.1439, 47.93306
585.6260, 49.11455
586.1081, 50.57605
586.5902, 51.96383
587.0723, 53.02317
587.5544, 54.02462
588.0366, 55.11551
588.5187, 56.28500
589.0008, 57.63418
589.4829, 59.05450
589.9650, 60.74590
590.4471, 62.92141
590.9293, 65.92930
591.4114, 68.60744
591.8935, 70.79122
592.3756, 72.73750
592.8577, 74.79147
593.3398, 76.91153
593.8220, 79.54326
594.3041, 82.87317
594.7862, 86.76966
595.2683, 91.07232
595.7504, 95.70729
596.2325, 100.4089
596.7147, 104.7147
597.1968, 109.1353
597.6789, 114.3108
598.1610, 120.2898
598.6431, 126.8332
599.1252, 133.6793
599.6074, 141.0271
600.0895, 149.1254
600.5716, 158.3342
601.0537, 167.7746
601.5358, 176.9259
602.0179, 186.3344
602.5001, 196.7142
602.9822, 208.2864
603.4643, 220.2303
603.9464, 232.5370
604.4285, 245.1141
604.9106, 257.9842
605.3928, 270.9841
605.8749, 284.7223
606.3570, 299.6898
606.8391, 315.5973
607.3212, 331.6636
607.8033, 347.8303
608.2855, 364.5338
608.7676, 381.8626
609.2497, 399.8694
609.7318, 418.3905
610.2139, 437.6613
610.6960, 457.0603
611.1782, 476.0309
611.6603, 495.0045
612.1424, 514.6809
