##NAMES=Friedelite
##RRUFFID=R060364
##IDEAL CHEMISTRY=Mn^2+^_8_Si_6_O_15_(OH)_10_
##LOCALITY=Sterling Hill mine, Ogdensburg, Sussex County, New Jersey, USA
##OWNER=RRUFF
##SOURCE=Herb Obodda
##DESCRIPTION=Brownish-red fine-grained massive
##STATUS=The identification of this mineral has been confirmed by X-ray diffraction and chemical analysis
##URL=rruff.info/R060364
##MEASURED CHEMISTRY=(Mn^2+^_7.46_Mg_0.54_)_Σ=8_Si_6.00_O_15_((OH)_9.26_Cl_0.74_)_Σ=10_
91.53320, 151.3572
92.01532, 153.5755
92.49744, 153.9853
92.97955, 153.8830
93.46167, 152.4091
93.94379, 150.1590
94.42590, 148.1660
94.90802, 146.4857
95.39014, 144.9277
95.87225, 143.6170
96.35437, 142.0081
96.83649, 139.5014
97.31860, 136.8714
97.80072, 135.0224
98.28284, 134.4705
98.76495, 134.7225
99.24707, 133.9661
99.72919, 130.6908
100.2113, 128.1722
100.6934, 127.4462
101.1755, 128.0636
101.6577, 129.0335
102.1398, 129.4604
102.6219, 129.1011
103.1040, 129.4668
103.5861, 131.1934
104.0682, 132.9095
104.5504, 133.7747
105.0325, 133.6977
105.5146, 133.2625
105.9967, 133.2502
106.4788, 133.8380
106.9609, 134.3845
107.4431, 134.9574
107.9252, 135.4392
108.4073, 135.6108
108.8894, 135.3298
109.3715, 134.8675
109.8536, 134.7006
110.3358, 134.8428
110.8179, 135.0813
111.3000, 135.1500
111.7821, 135.1056
112.2642, 135.5477
112.7463, 137.1020
113.2285, 139.0426
113.7106, 140.6990
114.1927, 141.9716
114.6748, 142.8956
115.1569, 143.4347
115.6390, 143.4315
116.1212, 143.4459
116.6033, 143.9003
117.0854, 144.3648
117.5675, 144.3729
118.0496, 143.6590
118.5317, 142.3686
119.0139, 141.2060
119.4960, 140.1383
119.9781, 139.2651
120.4602, 138.9910
120.9423, 138.9119
121.4244, 138.3772
121.9066, 136.8822
122.3887, 134.3795
122.8708, 131.4028
123.3529, 127.8031
123.8350, 123.9797
124.3171, 119.9577
124.7993, 115.8102
125.2814, 111.8090
125.7635, 108.1587
126.2456, 104.9017
126.7277, 102.2165
127.2098, 100.5577
127.6920, 99.27351
128.1741, 97.55006
128.6562, 95.14383
129.1383, 92.75281
129.6204, 91.37797
130.1025, 90.88522
130.5847, 90.52369
131.0668, 90.05132
131.5489, 89.48399
132.0310, 88.83458
132.5131, 87.87917
132.9952, 87.11730
133.4774, 86.98841
133.9595, 87.49446
134.4416, 88.19756
134.9237, 88.73241
135.4058, 89.07960
135.8879, 89.41397
136.3701, 89.47099
136.8522, 89.71627
137.3343, 90.61590
137.8164, 92.26025
138.2985, 94.08501
138.7806, 95.06945
139.2628, 94.51934
139.7449, 94.37565
140.2270, 95.10760
140.7091, 96.12846
141.1912, 96.92602
141.6733, 97.26566
142.1555, 97.26069
142.6376, 97.29060
143.1197, 97.33205
143.6018, 97.43710
144.0839, 97.64226
144.5660, 97.91117
145.0482, 98.19725
145.5303, 98.47966
146.0124, 98.74943
146.4945, 98.94656
146.9766, 99.07108
147.4587, 99.14188
147.9409, 99.21114
148.4230, 99.25283
148.9051, 99.13344
149.3872, 98.67746
149.8693, 97.96623
150.3514, 97.49529
150.8336, 97.48641
151.3157, 97.59003
151.7978, 97.47081
152.2799, 97.09322
152.7620, 96.69606
153.2441, 96.54894
153.7263, 96.50573
154.2084, 96.29407
154.6905, 95.51743
155.1726, 94.55563
155.6547, 94.34520
156.1368, 95.30706
156.6190, 96.28206
157.1011, 96.59635
157.5832, 96.46763
158.0653, 96.31334
158.5474, 96.40285
159.0295, 96.71564
159.5117, 96.97456
159.9938, 97.03713
160.4759, 97.19382
160.9580, 97.60567
161.4401, 98.20849
161.9222, 98.82384
162.4044, 99.27319
162.8865, 99.51048
163.3686, 99.86935
163.8507, 100.4847
164.3328, 101.0988
164.8149, 101.6110
165.2971, 102.0124
165.7792, 102.3434
166.2613, 102.6797
166.7434, 103.1452
167.2255, 103.1820
167.7076, 102.3138
168.1898, 101.4026
168.6719, 101.1985
169.1540, 101.8052
169.6361, 102.5863
170.1182, 102.6025
170.6003, 101.3765
171.0825, 100.5815
171.5646, 100.5730
172.0467, 100.9234
172.5288, 101.1988
173.0109, 101.2909
173.4930, 101.2106
173.9752, 100.8862
174.4573, 100.2775
174.9394, 99.76576
175.4215, 99.56512
175.9036, 99.53860
176.3857, 99.39079
176.8679, 99.04102
177.3500, 98.51833
177.8321, 97.85390
178.3142, 97.03483
178.7963, 96.21606
179.2784, 95.45451
179.7606, 94.75130
180.2427, 94.18481
180.7248, 93.91566
181.2069, 93.67031
181.6890, 93.26768
182.1711, 92.69497
182.6533, 91.89714
183.1354, 90.74339
183.6175, 89.18339
184.0996, 87.66836
184.5817, 86.19789
185.0638, 84.87111
185.5460, 83.79018
186.0281, 82.97288
186.5102, 82.32450
186.9923, 81.71693
187.4744, 81.13320
187.9565, 80.64446
188.4387, 80.18201
188.9208, 79.84443
189.4029, 79.76868
189.8850, 79.98153
190.3671, 80.31551
190.8492, 80.43764
191.3314, 80.11105
191.8135, 79.95664
192.2956, 80.01260
192.7777, 80.23157
193.2598, 80.71328
193.7419, 81.47552
194.2241, 82.23524
194.7062, 82.30929
195.1883, 80.81762
195.6704, 79.60114
196.1525, 78.63485
196.6346, 77.98685
197.1168, 77.85941
197.5989, 78.36445
198.0810, 79.19784
198.5631, 79.46018
199.0452, 78.75937
199.5273, 78.05452
200.0095, 77.52024
200.4916, 77.07466
200.9737, 76.61372
201.4558, 76.11551
201.9379, 75.51587
202.4200, 74.55700
202.9022, 72.94843
203.3843, 71.55811
203.8664, 70.95291
204.3485, 70.83877
204.8306, 70.34908
205.3127, 68.96004
205.7949, 67.14140
206.2770, 65.94887
206.7591, 65.55014
207.2412, 65.32301
207.7233, 64.89880
208.2054, 64.31987
208.6876, 63.86150
209.1697, 63.65461
209.6518, 63.62661
210.1339, 63.67562
210.6160, 63.84991
211.0981, 63.95181
211.5803, 63.76309
212.0624, 63.28342
212.5445, 62.85336
213.0266, 62.67387
213.5087, 62.55134
213.9908, 62.29907
214.4730, 61.87968
214.9551, 61.39798
215.4372, 60.95240
215.9193, 60.53630
216.4014, 60.18853
216.8836, 59.89664
217.3657, 59.69476
217.8478, 59.67204
218.3299, 59.85484
218.8120, 60.04873
219.2941, 59.95602
219.7763, 59.47315
220.2584, 59.04261
220.7405, 58.74524
221.2226, 58.52016
221.7047, 58.33135
222.1868, 58.16857
222.6690, 58.04159
223.1511, 57.99045
223.6332, 58.10814
224.1153, 58.07887
224.5974, 57.60639
225.0795, 57.16436
225.5617, 57.20458
226.0438, 57.81874
226.5259, 58.61739
227.0080, 58.89967
227.4901, 58.29847
227.9722, 57.82272
228.4544, 57.44496
228.9365, 57.22170
229.4186, 57.26079
229.9007, 57.57014
230.3828, 57.99834
230.8649, 58.27719
231.3471, 58.27692
231.8292, 58.32780
232.3113, 58.50718
232.7934, 58.68837
233.2755, 58.73790
233.7576, 58.62772
234.2398, 58.46894
234.7219, 58.44359
235.2040, 58.60041
235.6861, 58.83108
236.1682, 59.14307
236.6503, 59.52166
237.1325, 59.99237
237.6146, 60.55256
238.0967, 61.10723
238.5788, 61.50787
239.0609, 61.67234
239.5430, 61.85293
240.0252, 62.04782
240.5073, 62.26519
240.9894, 62.51054
241.4715, 62.78640
241.9536, 63.09367
242.4357, 63.45166
242.9179, 63.88490
243.4000, 64.24992
243.8821, 64.40537
244.3642, 64.54419
244.8463, 64.96235
245.3284, 65.73768
245.8106, 66.48598
246.2927, 66.64053
246.7748, 66.16731
247.2569, 66.00372
247.7390, 66.46677
248.2211, 67.23375
248.7033, 67.91084
249.1854, 68.42778
249.6675, 68.96741
250.1496, 69.84543
250.6317, 70.99094
251.1138, 71.80513
251.5960, 71.81506
252.0781, 71.57585
252.5602, 71.85392
253.0423, 72.77501
253.5244, 73.86705
254.0065, 74.79835
254.4887, 75.58566
254.9708, 76.23569
255.4529, 76.58558
255.9350, 76.86267
256.4171, 77.40421
256.8992, 78.26067
257.3813, 79.19273
257.8635, 80.01265
258.3456, 80.79430
258.8277, 81.68431
259.3098, 82.75912
259.7919, 83.93519
260.2740, 85.16648
260.7562, 86.51865
261.2383, 87.63750
261.7204, 88.18678
262.2025, 88.41066
262.6846, 88.57495
263.1667, 88.76159
263.6489, 88.91181
264.1310, 88.96025
264.6131, 88.91639
265.0952, 88.72742
265.5773, 88.19143
266.0594, 87.56861
266.5416, 87.12576
267.0237, 86.97536
267.5058, 86.91637
267.9879, 86.69002
268.4700, 86.28315
268.9521, 85.77357
269.4343, 84.96557
269.9164, 84.18055
270.3985, 83.80299
270.8806, 83.97013
271.3627, 84.10106
271.8448, 83.33618
272.3270, 81.45169
272.8091, 79.82216
273.2912, 78.87462
273.7733, 78.23050
274.2554, 77.80968
274.7375, 77.57069
275.2197, 77.22316
275.7018, 76.31509
276.1839, 74.71809
276.6660, 73.41904
277.1481, 72.86286
277.6302, 72.43150
278.1124, 71.82215
278.5945, 71.02142
279.0766, 70.22773
279.5587, 69.61455
280.0408, 69.18311
280.5229, 68.90701
281.0051, 68.88597
281.4872, 68.95254
281.9693, 69.17508
282.4514, 69.46062
282.9335, 69.54883
283.4156, 69.10916
283.8978, 68.12336
284.3799, 67.47751
284.8620, 67.48399
285.3441, 67.54336
285.8262, 67.42257
286.3083, 67.19084
286.7905, 67.03014
287.2726, 67.08541
287.7547, 67.33153
288.2368, 67.52723
288.7189, 67.61079
289.2010, 67.71557
289.6832, 67.93961
290.1653, 68.19535
290.6474, 68.32616
291.1295, 68.21413
291.6116, 67.95616
292.0938, 67.95731
292.5759, 68.40392
293.0580, 68.86329
293.5401, 69.28368
294.0222, 69.65746
294.5043, 69.96247
294.9865, 70.18677
295.4686, 70.37189
295.9507, 70.60200
296.4328, 70.79705
296.9149, 71.20241
297.3970, 72.03823
297.8792, 72.95591
298.3613, 73.52843
298.8434, 73.66140
299.3255, 73.78658
299.8076, 74.76302
300.2897, 77.35435
300.7719, 79.03652
301.2540, 79.00890
301.7361, 78.68532
302.2182, 78.97192
302.7003, 80.00248
303.1824, 81.30812
303.6646, 82.30449
304.1467, 82.82865
304.6288, 83.62981
305.1109, 85.02284
305.5930, 86.40636
306.0751, 87.44375
306.5573, 88.18522
307.0394, 88.92592
307.5215, 89.96838
308.0036, 91.35789
308.4857, 92.46246
308.9678, 93.07887
309.4500, 93.59794
309.9321, 94.09420
310.4142, 94.57951
310.8963, 95.03035
311.3784, 95.41287
311.8605, 95.75989
312.3427, 96.32064
312.8248, 97.27402
313.3069, 98.26025
313.7890, 99.40694
314.2711, 100.4927
314.7532, 101.2542
315.2354, 101.5549
315.7175, 101.4697
316.1996, 101.1525
316.6817, 100.1302
317.1638, 99.66216
317.6459, 100.1612
318.1281, 101.0554
318.6102, 101.9514
319.0923, 102.6938
319.5744, 103.1794
320.0565, 103.1889
320.5386, 102.4826
321.0208, 101.8384
321.5029, 101.3977
321.9850, 100.9362
322.4671, 100.3350
322.9492, 99.56651
323.4313, 98.65514
323.9135, 97.60941
324.3956, 96.41866
324.8777, 95.14252
325.3598, 93.83912
325.8419, 92.39229
326.3240, 90.71170
326.8062, 88.83182
327.2883, 86.82468
327.7704, 84.69582
328.2525, 82.46702
328.7346, 80.46305
329.2167, 79.06860
329.6989, 77.44947
330.1810, 75.17828
330.6631, 72.60604
331.1452, 70.22080
331.6273, 68.26003
332.1094, 66.72795
332.5916, 65.69022
333.0737, 65.50042
333.5558, 65.21908
334.0379, 64.68852
334.5200, 64.00385
335.0021, 63.23981
335.4843, 62.42143
335.9664, 61.56924
336.4485, 60.66427
336.9306, 59.56732
337.4127, 58.83884
337.8948, 58.83918
338.3770, 58.96938
338.8591, 58.96312
339.3412, 58.75573
339.8233, 58.33985
340.3055, 57.57253
340.7876, 56.38066
341.2697, 55.61312
341.7518, 55.66669
342.2339, 55.78954
342.7160, 55.70196
343.1982, 55.44830
343.6803, 55.19431
344.1624, 55.09246
344.6445, 55.07418
345.1266, 54.73136
345.6087, 53.65209
346.0909, 52.94115
346.5730, 53.30164
347.0551, 54.06233
347.5372, 54.36333
348.0193, 53.82316
348.5014, 52.79222
348.9836, 51.79339
349.4657, 50.71251
349.9478, 50.07032
350.4299, 50.34818
350.9120, 50.90639
351.3941, 51.34083
351.8763, 51.57008
352.3584, 51.66872
352.8405, 51.65007
353.3226, 51.50739
353.8047, 51.49721
354.2868, 51.75674
354.7690, 52.05442
355.2511, 52.20868
355.7332, 52.25723
356.2153, 52.37146
356.6974, 52.71549
357.1795, 53.22348
357.6617, 53.64252
358.1438, 53.96018
358.6259, 54.20052
359.1080, 54.35449
359.5901, 54.44906
360.0722, 54.52180
360.5544, 54.57539
361.0365, 54.62485
361.5186, 54.64289
362.0007, 54.60306
362.4828, 54.75243
362.9649, 55.33136
363.4471, 56.08226
363.9292, 56.72589
364.4113, 57.23031
364.8934, 57.64874
365.3755, 58.01142
365.8576, 58.32019
366.3398, 58.56756
366.8219, 58.69842
367.3040, 58.85134
367.7861, 59.16817
368.2682, 59.63591
368.7503, 60.17625
369.2325, 60.86576
369.7146, 61.57984
370.1967, 62.09154
370.6788, 62.36756
371.1609, 62.53184
371.6430, 62.58341
372.1252, 62.59228
372.6073, 62.79095
373.0894, 63.47679
373.5715, 64.14940
374.0536, 64.25771
374.5357, 63.91570
375.0179, 63.84497
375.5000, 64.48497
375.9821, 65.53213
376.4642, 66.26484
376.9463, 66.60693
377.4284, 66.86125
377.9106, 67.07520
378.3927, 67.28575
378.8748, 67.56273
379.3569, 67.92786
379.8390, 68.33950
380.3211, 68.77033
380.8033, 69.24036
381.2854, 69.58892
381.7675, 69.57106
382.2496, 69.59213
382.7317, 70.05234
383.2138, 70.92465
383.6960, 71.82338
384.1781, 72.47326
384.6602, 72.88361
385.1423, 73.25318
385.6244, 73.43728
386.1065, 73.74657
386.5887, 74.45857
387.0708, 75.33095
387.5529, 75.95324
388.0350, 76.14263
388.5171, 76.02548
388.9992, 75.87318
389.4814, 75.57098
389.9635, 75.42184
390.4456, 75.43635
390.9277, 75.59346
391.4098, 75.85247
391.8919, 76.22084
392.3741, 76.79777
392.8562, 77.75715
393.3383, 79.22814
393.8204, 80.09939
394.3025, 79.65756
394.7846, 79.39966
395.2668, 80.07852
395.7489, 81.29087
396.2310, 82.22674
396.7131, 82.39926
397.1952, 82.02075
397.6773, 81.82059
398.1595, 81.83015
398.6416, 81.98685
399.1237, 82.33267
399.6058, 82.76921
400.0879, 83.30473
400.5700, 83.90617
401.0522, 84.35762
401.5343, 84.30154
402.0164, 83.61039
402.4985, 83.17664
402.9806, 83.36156
403.4627, 83.49911
403.9449, 83.31261
404.4270, 82.84504
404.9091, 82.24830
405.3912, 81.58750
405.8733, 80.87817
406.3554, 80.17026
406.8376, 79.44711
407.3197, 78.75358
407.8018, 78.11996
408.2839, 77.51901
408.7660, 77.00589
409.2481, 76.64302
409.7303, 76.07448
410.2124, 74.71887
410.6945, 72.65076
411.1766, 71.03622
411.6587, 70.35172
412.1408, 69.89784
412.6230, 68.99147
413.1051, 67.69256
413.5872, 66.42892
414.0693, 65.44717
414.5514, 64.58503
415.0335, 63.58185
415.5157, 62.41260
415.9978, 61.21352
416.4799, 60.02420
416.9620, 58.88396
417.4441, 57.90551
417.9262, 57.31689
418.4084, 56.59037
418.8905, 55.22616
419.3726, 53.48708
419.8547, 52.09446
420.3368, 51.33414
420.8189, 50.87919
421.3011, 50.22533
421.7832, 49.33357
422.2653, 48.42768
422.7474, 47.35839
423.2295, 46.40169
423.7116, 45.86741
424.1938, 45.73098
424.6759, 45.64919
425.1580, 45.34099
425.6401, 44.82798
426.1222, 44.50801
426.6043, 44.63560
427.0865, 44.62954
427.5686, 44.17642
428.0507, 43.55502
428.5328, 43.16767
429.0149, 43.16588
429.4970, 43.38560
429.9792, 43.55845
430.4613, 43.75096
430.9434, 43.73474
431.4255, 43.29971
431.9076, 42.87706
432.3897, 42.73218
432.8719, 42.83019
433.3540, 42.98090
433.8361, 43.05638
434.3182, 43.05074
434.8003, 42.88903
435.2824, 42.32006
435.7646, 41.99539
436.2467, 42.24437
436.7288, 42.70699
437.2109, 42.98932
437.6930, 42.96674
438.1751, 42.84663
438.6573, 42.92780
439.1394, 43.23557
439.6215, 43.34593
440.1036, 42.80739
440.5857, 42.51849
441.0678, 43.31123
441.5500, 44.89458
442.0321, 46.15538
442.5142, 46.37995
442.9963, 45.99171
443.4784, 45.71600
443.9605, 45.55688
444.4427, 45.48860
444.9248, 45.59803
445.4069, 45.74014
445.8890, 45.62049
446.3711, 45.07753
446.8532, 44.69109
447.3354, 44.99504
447.8175, 45.66261
448.2996, 45.98653
448.7817, 45.80242
449.2638, 45.30536
449.7459, 44.61340
450.2281, 43.71037
450.7102, 43.02496
451.1923, 42.63294
451.6744, 42.40889
452.1565, 42.33031
452.6386, 42.36167
453.1208, 42.41838
453.6029, 42.45557
454.0850, 42.49247
454.5671, 42.58271
455.0492, 42.75043
455.5313, 42.94436
456.0135, 43.25859
456.4956, 43.53571
456.9777, 43.59296
457.4598, 43.44582
457.9419, 43.32122
458.4240, 43.47083
458.9062, 43.90221
459.3883, 44.04437
459.8704, 43.95405
460.3525, 43.46471
460.8346, 42.19283
461.3167, 40.63099
461.7989, 39.41277
462.2810, 38.77778
462.7631, 38.42315
463.2452, 37.83026
463.7273, 36.90867
464.2094, 36.28843
464.6916, 36.17297
465.1737, 36.28279
465.6558, 36.60315
466.1379, 37.03445
466.6200, 37.26896
467.1021, 36.98811
467.5843, 36.46853
468.0664, 36.25574
468.5485, 36.36873
469.0306, 36.67144
469.5127, 37.33054
469.9948, 38.00504
470.4770, 38.08544
470.9591, 37.34949
471.4412, 36.78667
471.9233, 36.97066
472.4054, 37.64276
472.8875, 38.39341
473.3697, 39.16074
473.8518, 39.85516
474.3339, 40.40673
474.8160, 40.80180
475.2981, 41.05109
475.7802, 41.17585
476.2624, 41.13775
476.7445, 40.71673
477.2266, 40.15179
477.7087, 39.94536
478.1908, 40.30056
478.6729, 40.89050
479.1551, 41.10362
479.6372, 40.63808
480.1193, 40.50946
480.6014, 40.88226
481.0835, 41.39505
481.5656, 41.86871
482.0478, 42.30704
482.5299, 42.79767
483.0120, 43.40806
483.4941, 44.09341
483.9762, 44.64656
484.4583, 44.95088
484.9405, 45.36443
485.4226, 45.90020
485.9047, 46.60079
486.3868, 47.57156
486.8689, 48.79778
487.3510, 50.03121
487.8332, 51.06755
488.3153, 51.92965
488.7974, 52.76316
489.2795, 53.58194
489.7616, 54.34693
490.2437, 55.27359
490.7259, 56.07283
491.2080, 56.21685
491.6901, 55.42765
492.1722, 54.32765
492.6543, 53.49339
493.1364, 52.71354
493.6186, 51.21177
494.1007, 48.62574
494.5828, 45.93959
495.0649, 44.37680
495.5470, 44.07778
496.0291, 43.34093
496.5113, 41.66924
496.9934, 39.95358
497.4755, 38.79451
497.9576, 38.00934
498.4397, 37.04763
498.9218, 35.63680
499.4040, 34.05258
499.8861, 32.93744
500.3682, 32.58123
500.8503, 32.19681
501.3324, 31.75776
501.8145, 31.31484
502.2967, 30.86758
502.7788, 30.43914
503.2609, 30.07107
503.7430, 29.78150
504.2251, 29.58419
504.7072, 29.55588
505.1894, 29.78249
505.6715, 29.98176
506.1536, 30.15450
506.6357, 30.22534
507.1178, 30.07100
507.5999, 29.69275
508.0821, 29.32900
508.5642, 29.05934
509.0463, 28.94139
509.5284, 29.23883
510.0105, 30.07121
510.4926, 30.85541
510.9748, 31.22476
511.4569, 31.28245
511.9390, 31.28789
512.4211, 31.21285
512.9032, 31.16031
513.3853, 31.29444
513.8674, 31.45427
514.3495, 31.29613
514.8317, 30.74326
515.3138, 30.13778
515.7959, 29.83245
516.2780, 29.85072
516.7601, 29.82145
517.2422, 29.89727
517.7244, 29.76432
518.2065, 29.25016
518.6886, 28.48401
519.1707, 27.59412
519.6528, 26.64211
520.1349, 25.73593
520.6171, 25.02772
521.0992, 24.50373
521.5813, 24.23689
522.0634, 24.59859
522.5455, 24.85364
523.0276, 24.65135
523.5098, 24.16238
523.9919, 23.74468
524.4740, 23.58729
524.9561, 23.47231
525.4382, 22.95844
525.9203, 22.03568
526.4025, 21.50318
526.8846, 21.75060
527.3667, 22.17942
527.8488, 22.18406
528.3309, 21.82989
528.8130, 21.52529
529.2952, 21.39313
529.7773, 21.35788
530.2594, 21.41984
530.7415, 21.53713
531.2236, 21.49036
531.7057, 21.13333
532.1879, 20.70845
532.6700, 20.71482
533.1521, 21.49634
533.6342, 21.92165
534.1163, 21.51716
534.5984, 21.13619
535.0806, 21.53690
535.5627, 22.46897
536.0448, 23.08899
536.5269, 22.84704
537.0090, 22.05145
537.4911, 21.65739
537.9733, 21.89340
538.4554, 22.02343
538.9375, 21.84908
539.4196, 21.64065
539.9017, 21.62955
540.3839, 21.76165
540.8660, 21.74092
541.3481, 21.21547
541.8302, 20.49908
542.3123, 20.40274
542.7944, 21.01559
543.2766, 21.45928
543.7587, 21.32425
544.2408, 20.89087
544.7229, 20.53593
545.2050, 20.24709
545.6871, 20.11951
546.1693, 20.18388
546.6514, 20.42850
547.1335, 20.96528
547.6156, 21.72773
548.0977, 22.34257
548.5798, 22.57619
549.0620, 22.50710
549.5441, 22.39993
550.0262, 22.13646
550.5083, 21.99697
550.9904, 22.17009
551.4725, 22.32512
551.9547, 22.17328
552.4368, 21.74975
552.9189, 21.27047
553.4010, 20.85633
553.8831, 20.55956
554.3652, 20.66120
554.8474, 21.38540
555.3295, 21.94019
555.8116, 22.03848
556.2937, 21.95052
556.7758, 21.78909
557.2579, 21.58659
557.7401, 21.47428
558.2222, 21.55480
558.7043, 21.76465
559.1864, 22.05211
559.6685, 22.41436
560.1506, 22.62193
560.6328, 22.46272
561.1149, 22.17449
561.5970, 22.35455
562.0791, 23.20731
562.5612, 23.77912
563.0433, 23.65389
563.5255, 23.35943
564.0076, 23.36658
564.4897, 23.64205
564.9718, 23.84104
565.4539, 23.72494
565.9360, 23.43227
566.4182, 23.46006
566.9003, 24.14147
567.3824, 24.51040
567.8645, 24.17643
568.3466, 23.82256
568.8287, 23.97168
569.3109, 24.51714
569.7930, 24.93684
570.2751, 24.82820
570.7572, 24.47538
571.2393, 24.49656
571.7214, 24.91826
572.2036, 25.38960
572.6857, 25.84171
573.1678, 26.24802
573.6499, 26.61427
574.1320, 26.94088
574.6141, 27.10439
575.0963, 26.88451
575.5784, 26.63486
576.0605, 26.57242
576.5426, 26.73580
577.0247, 27.30401
577.5068, 28.40768
577.9890, 29.62478
578.4711, 30.10431
578.9532, 29.28903
579.4353, 29.16684
579.9174, 30.36932
580.3995, 31.54412
580.8817, 31.84995
581.3638, 31.67412
581.8459, 31.87770
582.3280, 32.89708
582.8101, 34.22065
583.2922, 35.01403
583.7744, 35.24037
584.2565, 35.41362
584.7386, 35.43984
585.2207, 35.66087
585.7029, 36.39909
586.1850, 37.50460
586.6671, 38.61779
