##NAMES=Frolovite
##RRUFFID=R070469
##IDEAL CHEMISTRY=Ca[B(OH)_4_]_2_
##LOCALITY=Solongo B deposit, Vitim Plateau, Buriatia (Buryatia) Republic, Transbaikalia (Zabaykalye), Eastern-Siberian Region, Russia
##OWNER=RRUFF
##SOURCE=Michael Scott
##DESCRIPTION=Vitreous colorless vein, associated with calcite and yellow roweite, R130073
##STATUS=The identification of this mineral has been confirmed by single-crystal X-ray diffraction.
##URL=rruff.info/R070469
146.5480, 636.5988
147.0301, 648.0602
147.5122, 652.7852
147.9943, 660.8124
148.4765, 671.5791
148.9586, 686.0693
149.4407, 705.4617
149.9228, 737.2855
150.4049, 763.9882
150.8870, 783.2536
151.3692, 795.0949
151.8513, 805.1716
152.3334, 807.5743
152.8155, 811.1981
153.2976, 822.7946
153.7797, 852.0774
154.2619, 879.7463
154.7440, 901.7783
155.2261, 916.7529
155.7082, 933.4251
156.1903, 953.6937
156.6724, 976.0468
157.1546, 998.1216
157.6367, 1022.464
158.1188, 1044.198
158.6009, 1061.819
159.0830, 1075.551
159.5651, 1084.645
160.0473, 1088.997
160.5294, 1088.596
161.0115, 1083.418
161.4936, 1073.543
161.9757, 1058.860
162.4578, 1038.078
162.9400, 1004.771
163.4221, 975.8378
163.9042, 961.1595
164.3863, 957.1855
164.8684, 952.0001
165.3505, 938.2516
165.8327, 922.1383
166.3148, 908.4723
166.7969, 894.9390
167.2790, 887.8597
167.7611, 893.6680
168.2433, 911.1451
168.7254, 929.3818
169.2075, 940.4196
169.6896, 949.1733
170.1717, 961.3588
170.6538, 981.7663
171.1360, 1004.666
171.6181, 1025.646
172.1002, 1044.660
172.5823, 1063.648
173.0644, 1086.317
173.5465, 1109.931
174.0287, 1130.025
174.5108, 1141.091
174.9929, 1149.123
175.4750, 1161.283
175.9571, 1178.585
176.4392, 1196.896
176.9214, 1212.995
177.4035, 1226.929
177.8856, 1239.072
178.3677, 1247.381
178.8498, 1254.487
179.3319, 1266.161
179.8141, 1285.400
180.2962, 1303.361
180.7783, 1310.988
181.2604, 1308.486
181.7425, 1297.762
182.2246, 1274.613
182.7068, 1244.158
183.1889, 1218.183
183.6710, 1200.529
184.1531, 1186.201
184.6352, 1166.429
185.1173, 1141.420
185.5995, 1118.184
186.0816, 1102.946
186.5637, 1094.263
187.0458, 1086.647
187.5279, 1079.148
188.0100, 1071.759
188.4922, 1064.580
188.9743, 1057.532
189.4564, 1050.922
189.9385, 1044.381
190.4206, 1038.153
190.9027, 1034.278
191.3849, 1034.592
191.8670, 1037.662
192.3491, 1037.214
192.8312, 1032.488
193.3133, 1027.959
193.7954, 1030.374
194.2776, 1039.552
194.7597, 1046.466
195.2418, 1044.968
195.7239, 1036.875
196.2060, 1037.111
196.6881, 1046.495
197.1703, 1062.265
197.6524, 1081.244
198.1345, 1103.237
198.6166, 1127.427
199.0987, 1155.242
199.5808, 1186.690
200.0630, 1212.847
200.5451, 1233.821
201.0272, 1249.060
201.5093, 1255.663
201.9914, 1251.828
202.4735, 1248.412
202.9557, 1253.560
203.4378, 1268.771
203.9199, 1274.155
204.4020, 1267.240
204.8841, 1251.241
205.3662, 1232.018
205.8484, 1207.414
206.3305, 1186.805
206.8126, 1177.454
207.2947, 1181.699
207.7768, 1182.500
208.2589, 1177.569
208.7411, 1168.459
209.2232, 1160.747
209.7053, 1155.040
210.1874, 1149.190
210.6695, 1141.132
211.1517, 1129.983
211.6338, 1120.240
212.1159, 1111.948
212.5980, 1105.455
213.0801, 1103.888
213.5622, 1109.890
214.0444, 1115.858
214.5265, 1114.603
215.0086, 1103.004
215.4907, 1094.273
215.9728, 1090.899
216.4549, 1092.530
216.9371, 1094.564
217.4192, 1096.983
217.9013, 1099.809
218.3834, 1103.750
218.8655, 1110.582
219.3476, 1113.345
219.8298, 1108.155
220.3119, 1094.908
220.7940, 1091.387
221.2761, 1102.102
221.7582, 1117.379
222.2403, 1125.953
222.7225, 1123.060
223.2046, 1124.142
223.6867, 1133.941
224.1688, 1153.553
224.6509, 1170.513
225.1330, 1185.126
225.6152, 1197.005
226.0973, 1205.131
226.5794, 1207.751
227.0615, 1210.063
227.5436, 1213.816
228.0257, 1219.730
228.5079, 1222.231
228.9900, 1217.536
229.4721, 1212.322
229.9542, 1217.118
230.4363, 1237.278
230.9184, 1257.655
231.4006, 1273.944
231.8827, 1285.313
232.3648, 1295.284
232.8469, 1302.239
233.3290, 1308.842
233.8111, 1319.647
234.2933, 1335.114
234.7754, 1354.024
235.2575, 1376.042
235.7396, 1401.267
236.2217, 1429.577
236.7038, 1463.712
237.1860, 1499.911
237.6681, 1530.961
238.1502, 1555.773
238.6323, 1577.094
239.1144, 1595.958
239.5965, 1611.329
240.0787, 1627.345
240.5608, 1647.947
241.0429, 1667.747
241.5250, 1674.461
242.0071, 1665.008
242.4892, 1647.043
242.9714, 1624.228
243.4535, 1598.065
243.9356, 1562.168
244.4177, 1513.128
244.8998, 1455.205
245.3819, 1399.320
245.8641, 1345.715
246.3462, 1293.575
246.8283, 1241.851
247.3104, 1186.452
247.7925, 1142.285
248.2746, 1114.174
248.7568, 1096.390
249.2389, 1072.081
249.7210, 1036.284
250.2031, 1001.477
250.6852, 974.0190
251.1674, 957.8109
251.6495, 940.2661
252.1316, 921.1563
252.6137, 900.5764
253.0958, 878.3534
253.5779, 851.5385
254.0601, 827.5806
254.5422, 811.1960
255.0243, 805.7141
255.5064, 799.3332
255.9885, 791.4897
256.4706, 782.4636
256.9528, 772.7499
257.4349, 761.7129
257.9170, 751.0125
258.3991, 741.0282
258.8812, 730.9165
259.3633, 724.5726
259.8455, 724.4361
260.3276, 727.7540
260.8097, 723.8098
261.2918, 707.8945
261.7739, 693.2750
262.2560, 688.5094
262.7382, 698.2253
263.2203, 703.6862
263.7024, 702.6863
264.1845, 696.9671
264.6666, 692.3500
265.1487, 688.9935
265.6309, 686.4958
266.1130, 684.8293
266.5951, 684.2640
267.0772, 683.3509
267.5593, 681.4869
268.0414, 679.3630
268.5236, 679.8441
269.0057, 684.1205
269.4878, 688.1389
269.9699, 689.2376
270.4520, 686.7194
270.9341, 684.2488
271.4163, 681.6586
271.8984, 679.5309
272.3805, 679.8926
272.8626, 683.2681
273.3447, 687.6089
273.8268, 692.1716
274.3090, 697.2310
274.7911, 700.0772
275.2732, 699.1324
275.7553, 696.7018
276.2374, 700.2100
276.7195, 711.3358
277.2017, 722.0131
277.6838, 726.2494
278.1659, 723.3395
278.6480, 723.0674
279.1301, 727.1454
279.6122, 733.5239
280.0944, 736.9429
280.5765, 736.8058
281.0586, 736.9839
281.5407, 741.4487
282.0228, 750.2719
282.5049, 753.6247
282.9871, 749.7123
283.4692, 741.0823
283.9513, 732.3410
284.4334, 723.4069
284.9155, 715.3159
285.3976, 708.4606
285.8798, 702.8760
286.3619, 699.3548
286.8440, 698.5118
287.3261, 698.8303
287.8082, 697.4216
288.2903, 694.2728
288.7725, 690.7520
289.2546, 687.6141
289.7367, 684.8101
290.2188, 681.8181
290.7009, 678.4940
291.1830, 675.1903
291.6652, 672.9267
292.1473, 671.5699
292.6294, 669.5524
293.1115, 664.7454
293.5936, 658.3622
294.0757, 654.5724
294.5579, 653.7791
295.0400, 655.4222
295.5221, 660.5347
296.0042, 668.3277
296.4863, 673.8344
296.9684, 671.5961
297.4506, 665.3823
297.9327, 665.5657
298.4148, 674.2581
298.8969, 683.1233
299.3790, 680.0588
299.8611, 668.0295
300.3433, 657.2397
300.8254, 655.7615
301.3075, 658.1587
301.7896, 654.0444
302.2717, 641.7053
302.7538, 630.1605
303.2360, 629.4513
303.7181, 636.5755
304.2002, 644.3038
304.6823, 650.6190
305.1644, 655.0038
305.6465, 655.7252
306.1287, 652.3935
306.6108, 649.3606
307.0929, 652.2010
307.5750, 657.7000
308.0571, 660.0690
308.5392, 652.8159
309.0214, 643.7815
309.5035, 639.6216
309.9856, 640.6756
310.4677, 644.1031
310.9498, 650.5110
311.4319, 657.5741
311.9141, 662.1921
312.3962, 662.1812
312.8783, 660.1569
313.3604, 656.9827
313.8426, 652.7908
314.3247, 649.5413
314.8068, 649.4552
315.2889, 650.4529
315.7710, 650.3514
316.2531, 643.7294
316.7353, 640.0778
317.2174, 646.0549
317.6995, 660.6359
318.1816, 673.1092
318.6637, 679.9731
319.1458, 682.6435
319.6280, 682.2577
320.1101, 674.0492
320.5922, 667.9646
321.0743, 668.1290
321.5564, 673.4655
322.0385, 677.9160
322.5207, 681.3853
323.0028, 682.5622
323.4849, 680.5427
323.9670, 670.2255
324.4491, 662.6467
324.9312, 659.5897
325.4134, 660.5646
325.8955, 663.7280
326.3776, 672.7568
326.8597, 681.0151
327.3418, 685.3620
327.8239, 682.0891
328.3061, 679.7949
328.7882, 678.2620
329.2703, 677.8170
329.7524, 679.3850
330.2345, 685.5504
330.7166, 691.2018
331.1988, 694.4973
331.6809, 694.6547
332.1630, 694.0934
332.6451, 692.5082
333.1272, 690.3056
333.6093, 687.8920
334.0915, 683.0280
334.5736, 681.5060
335.0557, 686.8160
335.5378, 701.8295
336.0199, 709.4549
336.5020, 706.8696
336.9842, 699.7003
337.4663, 695.5220
337.9484, 694.8643
338.4305, 695.7938
338.9126, 697.9685
339.3947, 701.3875
339.8769, 706.0792
340.3590, 713.4757
340.8411, 719.3206
341.3232, 717.3029
341.8053, 706.0520
342.2874, 697.7255
342.7696, 696.0911
343.2517, 699.9593
343.7338, 703.6373
344.2159, 707.3541
344.6980, 709.9628
345.1801, 708.7477
345.6623, 704.2112
346.1444, 704.0623
346.6265, 711.3392
347.1086, 722.6995
347.5907, 731.5343
348.0728, 737.6960
348.5550, 740.6334
349.0371, 737.3967
349.5192, 730.1823
350.0013, 726.1417
350.4834, 726.9088
350.9655, 730.5513
351.4477, 735.1949
351.9298, 740.6346
352.4119, 745.5378
352.8940, 748.6080
353.3761, 750.7626
353.8582, 753.9565
354.3404, 759.0386
354.8225, 762.8039
355.3046, 759.8171
355.7867, 752.9268
356.2688, 748.9717
356.7509, 754.8149
357.2331, 763.1649
357.7152, 766.3765
358.1973, 763.2837
358.6794, 761.2683
359.1615, 766.9024
359.6436, 776.1404
360.1258, 783.3223
360.6079, 784.1343
361.0900, 784.0667
361.5721, 787.0095
362.0542, 792.9760
362.5363, 796.4333
363.0185, 790.6033
363.5006, 783.3211
363.9827, 781.6643
364.4648, 795.3113
364.9469, 806.5968
365.4290, 808.7294
365.9112, 803.1234
366.3933, 800.3067
366.8754, 803.8533
367.3575, 809.7000
367.8396, 815.4980
368.3217, 819.4251
368.8039, 825.3181
369.2860, 835.0458
369.7681, 847.0507
370.2502, 856.8854
370.7323, 862.6786
371.2144, 868.2064
371.6966, 875.0737
372.1787, 884.6523
372.6608, 892.0577
373.1429, 896.8135
373.6250, 899.6407
374.1071, 901.4943
374.5893, 901.3203
375.0714, 902.2252
375.5535, 904.5130
376.0356, 907.9228
376.5177, 916.9235
376.9998, 933.1794
377.4820, 952.0576
377.9641, 968.1160
378.4462, 981.1588
378.9283, 993.3514
379.4104, 1005.399
379.8925, 1016.934
380.3747, 1024.602
380.8568, 1027.435
381.3389, 1032.810
381.8210, 1050.132
382.3031, 1077.447
382.7852, 1099.576
383.2674, 1112.424
383.7495, 1120.318
384.2316, 1130.225
384.7137, 1142.137
385.1958, 1154.791
385.6779, 1167.327
386.1601, 1180.091
386.6422, 1193.423
387.1243, 1207.493
387.6064, 1222.336
388.0885, 1238.978
388.5706, 1256.790
389.0528, 1273.705
389.5349, 1288.494
390.0170, 1301.990
390.4991, 1313.827
390.9812, 1323.649
391.4633, 1336.713
391.9455, 1362.370
392.4276, 1391.570
392.9097, 1412.815
393.3918, 1413.438
393.8739, 1412.834
394.3561, 1420.639
394.8382, 1436.142
395.3203, 1451.674
395.8024, 1467.480
396.2845, 1480.348
396.7667, 1488.071
397.2488, 1490.888
397.7309, 1487.737
398.2130, 1472.127
398.6951, 1449.338
399.1772, 1435.977
399.6594, 1450.282
400.1415, 1460.143
400.6236, 1451.823
401.1057, 1412.103
401.5878, 1385.855
402.0699, 1379.536
402.5521, 1383.546
403.0342, 1384.229
403.5163, 1381.300
403.9984, 1375.269
404.4805, 1364.163
404.9626, 1347.864
405.4448, 1340.402
405.9269, 1344.911
406.4090, 1352.510
406.8911, 1355.384
407.3732, 1353.381
407.8553, 1346.974
408.3375, 1334.641
408.8196, 1318.953
409.3017, 1307.796
409.7838, 1301.301
410.2659, 1297.843
410.7480, 1296.411
411.2302, 1297.077
411.7123, 1301.341
412.1944, 1310.628
412.6765, 1319.820
413.1586, 1320.915
413.6407, 1315.400
414.1229, 1309.839
414.6050, 1305.870
415.0871, 1304.440
415.5692, 1309.738
416.0513, 1322.431
416.5334, 1331.100
417.0156, 1320.001
417.4977, 1300.537
417.9798, 1289.928
418.4619, 1301.967
418.9440, 1318.144
419.4261, 1325.752
419.9083, 1326.438
420.3904, 1330.782
420.8725, 1352.865
421.3546, 1374.556
421.8367, 1380.987
422.3188, 1355.089
422.8010, 1339.005
423.2831, 1352.464
423.7652, 1382.430
424.2473, 1401.099
424.7294, 1394.673
425.2115, 1385.668
425.6937, 1380.411
426.1758, 1378.932
426.6579, 1382.064
427.1400, 1397.211
427.6221, 1412.034
428.1042, 1412.795
428.5864, 1389.664
429.0685, 1372.429
429.5506, 1368.186
430.0327, 1374.931
430.5148, 1378.576
430.9969, 1379.778
431.4791, 1376.136
431.9612, 1364.063
432.4433, 1342.877
432.9254, 1324.817
433.4075, 1311.178
433.8896, 1301.102
434.3718, 1294.552
434.8539, 1291.384
435.3360, 1286.503
435.8181, 1277.125
436.3002, 1264.202
436.7823, 1249.373
437.2645, 1232.516
437.7466, 1216.205
438.2287, 1203.496
438.7108, 1193.217
439.1929, 1182.788
439.6750, 1171.808
440.1572, 1159.997
440.6393, 1147.001
441.1214, 1132.915
441.6035, 1118.218
442.0856, 1100.803
442.5677, 1084.273
443.0499, 1071.239
443.5320, 1062.185
444.0141, 1057.047
444.4962, 1060.681
444.9783, 1067.491
445.4604, 1068.104
445.9426, 1054.468
446.4247, 1039.532
446.9068, 1027.316
447.3889, 1018.448
447.8710, 1009.969
448.3531, 1001.102
448.8353, 992.9650
449.3174, 986.2955
449.7995, 981.2603
450.2816, 977.4815
450.7637, 975.5064
451.2458, 974.7555
451.7280, 973.1617
452.2101, 970.8239
452.6922, 967.4468
453.1743, 962.0114
453.6564, 954.0598
454.1385, 949.3163
454.6207, 948.1520
455.1028, 949.5524
455.5849, 952.8177
456.0670, 957.8123
456.5491, 962.4985
457.0313, 966.1967
457.5134, 969.0602
457.9955, 971.0641
458.4776, 972.2582
458.9597, 973.5232
459.4418, 975.7275
459.9240, 978.4349
460.4061, 981.2736
460.8882, 984.8365
461.3703, 986.8414
461.8524, 983.1758
462.3345, 976.2958
462.8167, 971.9804
463.2988, 974.4172
463.7809, 979.2259
464.2630, 984.2268
464.7451, 989.2921
465.2272, 993.6700
465.7094, 995.2894
466.1915, 996.9275
466.6736, 1001.113
467.1557, 1015.163
467.6378, 1024.004
468.1199, 1020.778
468.6021, 1009.188
469.0842, 1006.109
469.5663, 1017.212
470.0484, 1030.184
470.5305, 1040.220
471.0126, 1046.787
471.4948, 1051.980
471.9769, 1055.746
472.4590, 1058.261
472.9411, 1059.852
473.4232, 1060.610
473.9053, 1059.675
474.3875, 1055.762
474.8696, 1050.180
475.3517, 1049.077
475.8338, 1052.682
476.3159, 1056.238
476.7981, 1055.996
477.2802, 1052.742
477.7623, 1048.404
478.2444, 1042.718
478.7265, 1037.708
479.2086, 1036.727
479.6908, 1038.387
480.1729, 1039.224
480.6550, 1033.353
481.1371, 1028.840
481.6192, 1034.902
482.1013, 1051.350
482.5835, 1065.426
483.0656, 1071.288
483.5477, 1071.540
484.0298, 1068.021
484.5119, 1056.269
484.9940, 1047.322
485.4762, 1045.022
485.9583, 1047.254
486.4404, 1048.574
486.9225, 1045.882
487.4046, 1044.837
487.8867, 1047.884
488.3689, 1056.282
488.8510, 1060.865
489.3331, 1059.067
489.8152, 1056.588
490.2973, 1059.856
490.7794, 1070.804
491.2616, 1078.680
491.7437, 1080.314
492.2258, 1078.953
492.7079, 1085.496
493.1900, 1100.427
493.6721, 1112.536
494.1543, 1109.245
494.6364, 1097.306
495.1185, 1102.789
495.6006, 1128.467
496.0827, 1156.744
496.5648, 1168.538
497.0470, 1169.737
497.5291, 1172.005
498.0112, 1178.438
498.4933, 1188.551
498.9754, 1202.090
499.4576, 1219.034
499.9397, 1238.616
500.4218, 1265.349
500.9039, 1291.293
501.3860, 1311.855
501.8681, 1325.809
502.3503, 1335.790
502.8324, 1339.634
503.3145, 1340.837
503.7966, 1343.509
504.2787, 1346.168
504.7608, 1352.544
505.2430, 1363.906
505.7251, 1379.644
506.2072, 1396.700
506.6893, 1416.993
507.1714, 1435.005
507.6535, 1446.268
508.1357, 1449.251
508.6178, 1458.741
509.0999, 1476.839
509.5820, 1497.353
510.0641, 1510.375
510.5462, 1516.728
511.0284, 1526.223
511.5105, 1544.702
511.9926, 1566.466
512.4747, 1580.337
512.9568, 1586.969
513.4389, 1591.843
513.9210, 1598.008
514.4031, 1604.929
514.8853, 1612.108
515.3674, 1619.763
515.8495, 1626.609
516.3316, 1632.746
516.8137, 1637.363
517.2958, 1639.338
517.7780, 1641.584
518.2601, 1637.839
518.7422, 1620.643
519.2244, 1592.144
519.7065, 1573.905
520.1886, 1573.752
520.6707, 1579.854
521.1528, 1588.064
521.6349, 1600.925
522.1171, 1609.103
522.5992, 1611.050
523.0813, 1609.841
523.5634, 1608.973
524.0455, 1608.014
524.5276, 1610.256
525.0098, 1618.937
525.4919, 1630.379
525.9740, 1629.495
526.4561, 1615.870
526.9382, 1604.890
527.4203, 1611.671
527.9025, 1628.281
528.3846, 1633.495
528.8667, 1623.445
529.3488, 1614.480
529.8309, 1626.461
530.3130, 1649.077
530.7952, 1665.769
531.2773, 1663.093
531.7594, 1659.027
532.2415, 1663.037
532.7236, 1673.881
533.2057, 1685.997
533.6879, 1697.829
534.1700, 1710.476
534.6521, 1724.084
535.1342, 1737.479
535.6163, 1755.549
536.0984, 1784.347
536.5806, 1813.629
537.0627, 1830.642
537.5448, 1827.035
538.0269, 1832.380
538.5090, 1853.628
538.9911, 1885.784
539.4733, 1912.193
539.9554, 1932.759
540.4375, 1949.921
540.9196, 1964.736
541.4017, 1977.328
541.8839, 1987.324
542.3660, 1994.631
542.8481, 2000.478
543.3302, 2010.410
543.8123, 2019.330
544.2944, 2016.560
544.7766, 1995.102
545.2587, 1967.684
545.7408, 1944.655
546.2229, 1923.709
546.7050, 1898.596
547.1871, 1866.945
547.6693, 1830.412
548.1514, 1789.097
548.6335, 1742.662
549.1156, 1695.504
549.5977, 1639.864
550.0798, 1589.371
550.5620, 1554.873
551.0441, 1549.122
551.5262, 1532.837
552.0083, 1498.185
552.4904, 1456.753
552.9725, 1432.962
553.4547, 1430.217
553.9368, 1427.283
554.4189, 1416.768
554.9010, 1400.408
555.3831, 1385.043
555.8652, 1370.701
556.3474, 1355.880
556.8295, 1339.228
557.3116, 1321.204
557.7937, 1302.206
558.2758, 1281.396
558.7579, 1263.061
559.2401, 1254.504
559.7222, 1250.216
560.2043, 1241.725
560.6864, 1217.523
561.1685, 1196.458
561.6506, 1191.966
562.1328, 1199.970
562.6149, 1198.129
563.0970, 1169.849
563.5791, 1141.823
564.0612, 1124.820
564.5433, 1121.175
565.0255, 1120.407
565.5076, 1125.467
565.9897, 1129.905
566.4718, 1125.344
566.9539, 1109.570
567.4360, 1099.338
567.9182, 1098.379
568.4003, 1103.216
568.8824, 1107.533
569.3645, 1111.274
569.8466, 1114.219
570.3287, 1116.469
570.8109, 1117.714
571.2930, 1117.291
571.7751, 1115.212
572.2572, 1111.985
572.7393, 1104.314
573.2214, 1097.445
573.7036, 1097.708
574.1857, 1110.354
574.6678, 1120.968
575.1499, 1121.310
575.6320, 1117.130
576.1141, 1116.853
576.5963, 1129.300
577.0784, 1137.098
577.5605, 1135.111
578.0426, 1125.183
578.5247, 1118.655
579.0068, 1115.718
579.4890, 1115.906
579.9711, 1120.591
580.4532, 1130.245
580.9353, 1134.832
581.4174, 1133.806
581.8995, 1129.964
582.3817, 1125.141
582.8638, 1119.877
583.3459, 1116.537
583.8280, 1116.777
584.3101, 1117.054
584.7922, 1110.480
585.2744, 1100.548
585.7565, 1096.060
586.2386, 1107.403
586.7207, 1120.280
587.2028, 1126.234
587.6849, 1125.060
588.1671, 1122.666
588.6492, 1117.004
589.1313, 1113.189
589.6134, 1115.018
590.0955, 1127.371
590.5776, 1134.377
591.0598, 1133.597
591.5419, 1129.659
592.0240, 1129.224
592.5061, 1133.537
592.9882, 1134.731
593.4703, 1129.925
593.9525, 1122.109
594.4346, 1118.143
594.9167, 1117.954
595.3988, 1120.526
595.8809, 1128.443
596.3630, 1137.564
596.8452, 1140.246
597.3273, 1136.264
597.8094, 1131.634
598.2915, 1131.357
598.7736, 1131.895
599.2557, 1128.746
599.7379, 1115.569
600.2200, 1109.836
600.7021, 1124.209
601.1842, 1147.227
601.6663, 1160.569
602.1484, 1158.544
602.6306, 1153.467
603.1127, 1144.935
603.5948, 1134.637
604.0769, 1132.383
604.5590, 1140.408
605.0411, 1149.182
605.5233, 1153.999
606.0054, 1155.155
606.4875, 1153.219
606.9696, 1147.690
607.4517, 1144.245
607.9338, 1150.928
608.4160, 1163.378
608.8981, 1173.012
609.3802, 1179.053
609.8623, 1179.659
610.3444, 1167.202
610.8265, 1149.561
611.3087, 1139.692
611.7908, 1147.205
612.2729, 1158.224
612.7550, 1170.984
613.2371, 1184.340
613.7192, 1190.959
614.2014, 1187.274
614.6835, 1181.015
615.1656, 1174.683
615.6477, 1168.141
616.1298, 1162.964
616.6119, 1159.138
617.0941, 1156.806
617.5762, 1157.588
618.0583, 1160.762
618.5404, 1158.868
619.0225, 1148.853
619.5046, 1139.431
619.9868, 1145.973
620.4689, 1161.756
620.9510, 1170.650
621.4331, 1159.035
621.9152, 1144.175
622.3973, 1135.817
622.8795, 1133.387
623.3616, 1134.160
623.8437, 1139.243
624.3258, 1145.603
624.8079, 1152.729
625.2900, 1161.332
625.7722, 1165.531
626.2543, 1162.141
626.7364, 1158.304
627.2185, 1161.546
627.7006, 1174.608
628.1827, 1175.509
628.6649, 1159.867
629.1470, 1138.622
629.6291, 1126.336
630.1112, 1122.235
630.5933, 1122.561
631.0754, 1127.273
631.5576, 1134.430
632.0397, 1143.712
632.5218, 1153.785
633.0039, 1160.332
633.4860, 1158.426
633.9681, 1154.566
634.4503, 1151.640
634.9324, 1149.838
635.4145, 1150.418
635.8966, 1154.789
636.3787, 1160.754
636.8608, 1167.970
637.3430, 1179.505
637.8251, 1182.845
638.3072, 1174.626
638.7893, 1163.294
639.2714, 1159.037
639.7535, 1161.936
640.2357, 1167.348
640.7178, 1175.832
641.1999, 1183.686
641.6820, 1185.039
