##NAMES=Frolovite
##RRUFFID=R070469
##IDEAL CHEMISTRY=Ca[B(OH)_4_]_2_
##LOCALITY=Solongo B deposit, Vitim Plateau, Buriatia (Buryatia) Republic, Transbaikalia (Zabaykalye), Eastern-Siberian Region, Russia
##OWNER=RRUFF
##SOURCE=Michael Scott
##DESCRIPTION=Vitreous colorless vein, associated with calcite and yellow roweite, R130073
##STATUS=The identification of this mineral has been confirmed by single-crystal X-ray diffraction.
##URL=rruff.info/R070469
142.2423, 590.8613
142.7244, 605.7758
143.2065, 622.5452
143.6887, 641.2236
144.1708, 661.1892
144.6529, 680.9739
145.1350, 702.9746
145.6171, 729.2811
146.0992, 759.5404
146.5814, 791.1237
147.0635, 821.9478
147.5456, 852.0818
148.0277, 883.7685
148.5098, 917.7402
148.9919, 952.6384
149.4741, 988.4194
149.9562, 1025.120
150.4383, 1060.643
150.9204, 1094.382
151.4025, 1125.583
151.8846, 1151.682
152.3668, 1169.085
152.8489, 1183.360
153.3310, 1200.045
153.8131, 1219.575
154.2952, 1238.247
154.7773, 1251.894
155.2595, 1261.971
155.7416, 1274.582
156.2237, 1292.593
156.7058, 1312.662
157.1879, 1331.364
157.6700, 1348.541
158.1522, 1364.223
158.6343, 1378.833
159.1164, 1391.920
159.5985, 1401.677
160.0806, 1410.595
160.5627, 1414.804
161.0449, 1406.711
161.5270, 1383.766
162.0091, 1357.579
162.4912, 1337.215
162.9733, 1319.658
163.4554, 1298.641
163.9376, 1267.089
164.4197, 1232.236
164.9018, 1208.367
165.3839, 1198.287
165.8660, 1191.606
166.3481, 1180.258
166.8303, 1167.777
167.3124, 1160.687
167.7945, 1163.195
168.2766, 1172.248
168.7587, 1180.573
169.2408, 1186.086
169.7230, 1196.017
170.2051, 1215.834
170.6872, 1241.871
171.1693, 1268.827
171.6514, 1294.315
172.1335, 1319.160
172.6157, 1346.236
173.0978, 1378.337
173.5799, 1406.834
174.0620, 1426.452
174.5441, 1441.003
175.0262, 1455.141
175.5084, 1470.050
175.9905, 1486.744
176.4726, 1509.820
176.9547, 1545.943
177.4368, 1575.788
177.9189, 1585.352
178.4010, 1586.634
178.8832, 1597.391
179.3653, 1630.370
179.8474, 1674.819
180.3295, 1699.159
180.8116, 1697.381
181.2937, 1684.079
181.7759, 1662.092
182.2580, 1634.177
182.7401, 1603.819
183.2222, 1572.777
183.7043, 1540.204
184.1864, 1502.487
184.6686, 1453.760
185.1507, 1410.882
185.6328, 1381.254
186.1149, 1358.029
186.5970, 1332.144
187.0791, 1298.447
187.5613, 1262.457
188.0434, 1239.066
188.5255, 1236.271
189.0076, 1233.292
189.4897, 1225.273
189.9718, 1214.949
190.4540, 1205.110
190.9361, 1197.090
191.4182, 1189.955
191.9003, 1180.330
192.3824, 1161.288
192.8645, 1152.949
193.3467, 1167.785
193.8288, 1188.763
194.3109, 1197.870
194.7930, 1187.786
195.2751, 1168.494
195.7572, 1160.998
196.2394, 1167.380
196.7215, 1183.143
197.2036, 1213.008
197.6857, 1247.285
198.1678, 1277.212
198.6499, 1299.974
199.1321, 1319.374
199.6142, 1342.560
200.0963, 1371.682
200.5784, 1400.587
201.0605, 1431.033
201.5426, 1459.824
202.0248, 1484.841
202.5069, 1505.445
202.9890, 1521.051
203.4711, 1530.793
203.9532, 1534.376
204.4353, 1531.987
204.9175, 1526.051
205.3996, 1513.756
205.8817, 1490.116
206.3638, 1455.486
206.8459, 1417.936
207.3280, 1388.486
207.8102, 1370.703
208.2923, 1352.831
208.7744, 1334.804
209.2565, 1316.633
209.7386, 1296.724
210.2207, 1275.892
210.7029, 1257.863
211.1850, 1248.339
211.6671, 1251.347
212.1492, 1248.135
212.6313, 1229.494
213.1134, 1212.896
213.5956, 1209.376
214.0777, 1217.310
214.5598, 1226.296
215.0419, 1225.341
215.5240, 1212.254
216.0061, 1203.832
216.4883, 1204.063
216.9704, 1205.150
217.4525, 1203.980
217.9346, 1201.045
218.4167, 1198.314
218.8988, 1196.822
219.3810, 1196.445
219.8631, 1201.955
220.3452, 1217.865
220.8273, 1235.687
221.3094, 1255.000
221.7915, 1274.502
222.2737, 1292.031
222.7558, 1305.518
223.2379, 1315.669
223.7200, 1328.809
224.2021, 1344.504
224.6842, 1364.316
225.1664, 1393.354
225.6485, 1425.814
226.1306, 1453.097
226.6127, 1469.820
227.0948, 1478.387
227.5770, 1488.608
228.0591, 1499.192
228.5412, 1513.759
229.0233, 1534.714
229.5054, 1558.951
229.9875, 1584.713
230.4697, 1611.489
230.9518, 1635.683
231.4339, 1646.624
231.9160, 1629.111
232.3981, 1624.892
232.8802, 1644.307
233.3624, 1674.307
233.8445, 1704.627
234.3266, 1731.669
234.8087, 1757.377
235.2908, 1783.809
235.7729, 1807.817
236.2551, 1840.848
236.7372, 1889.509
237.2193, 1942.585
237.7014, 1993.926
238.1835, 2041.888
238.6656, 2087.692
239.1478, 2134.398
239.6299, 2184.792
240.1120, 2225.674
240.5941, 2256.393
241.0762, 2277.663
241.5583, 2291.906
242.0405, 2297.674
242.5226, 2289.281
243.0047, 2259.988
243.4868, 2208.648
243.9689, 2149.005
244.4510, 2076.805
244.9332, 1998.759
245.4153, 1916.579
245.8974, 1830.350
246.3795, 1739.696
246.8616, 1640.512
247.3437, 1534.699
247.8259, 1445.768
248.3080, 1385.205
248.7901, 1326.833
249.2722, 1258.660
249.7543, 1186.446
250.2364, 1120.245
250.7186, 1065.444
251.2007, 1019.509
251.6828, 975.0126
252.1649, 931.4150
252.6470, 890.2493
253.1291, 851.8134
253.6113, 815.8635
254.0934, 782.0574
254.5755, 750.1320
255.0576, 720.8983
255.5397, 696.6089
256.0219, 679.1342
256.5040, 659.7195
256.9861, 632.1818
257.4682, 603.9088
257.9503, 579.6482
258.4324, 560.4277
258.9146, 545.2731
259.3967, 534.0321
259.8788, 526.8534
260.3609, 519.8348
260.8430, 512.7520
261.3251, 505.0520
261.8073, 495.3870
262.2894, 484.0166
262.7715, 474.2095
263.2536, 470.2984
263.7357, 470.7574
264.2178, 465.7364
264.7000, 449.7689
265.1821, 435.2104
265.6642, 432.6364
266.1463, 439.0065
266.6284, 444.4827
267.1105, 443.2447
267.5927, 438.1917
268.0748, 435.9596
268.5569, 437.7938
269.0390, 438.8907
269.5211, 433.2159
270.0032, 424.7409
270.4854, 420.6927
270.9675, 426.4300
271.4496, 434.4861
271.9317, 435.4353
272.4138, 429.0360
272.8959, 423.8529
273.3781, 424.4656
273.8602, 428.9666
274.3423, 433.4839
274.8244, 438.5637
275.3065, 442.3558
275.7886, 441.8966
276.2708, 438.5843
276.7529, 438.5600
277.2350, 444.9690
277.7171, 454.3620
278.1992, 461.5047
278.6813, 466.7379
279.1635, 469.2686
279.6456, 466.8885
280.1277, 462.0212
280.6098, 458.7286
281.0919, 457.9100
281.5740, 458.6741
282.0562, 461.0032
282.5383, 465.2933
283.0204, 465.9107
283.5025, 457.7495
283.9846, 448.4728
284.4667, 446.4423
284.9489, 451.7568
285.4310, 456.6080
285.9131, 454.5753
286.3952, 445.6005
286.8773, 436.9816
287.3594, 430.4586
287.8416, 422.5842
288.3237, 409.6001
288.8058, 393.6630
289.2879, 380.9695
289.7700, 375.3545
290.2521, 374.8799
290.7343, 371.5208
291.2164, 361.5677
291.6985, 353.5052
292.1806, 349.3750
292.6627, 347.5493
293.1448, 346.5276
293.6270, 345.7292
294.1091, 344.3625
294.5912, 340.9477
295.0733, 333.9303
295.5554, 327.6857
296.0375, 321.2583
296.5197, 316.2418
297.0018, 314.8926
297.4839, 316.7693
297.9660, 318.6252
298.4481, 316.9279
298.9302, 311.0288
299.4124, 306.0085
299.8945, 301.1675
300.3766, 297.8616
300.8587, 297.7081
301.3408, 299.4583
301.8229, 300.6191
302.3050, 299.5485
302.7871, 296.5703
303.2693, 293.1610
303.7514, 287.8250
304.2335, 284.4172
304.7156, 284.6888
305.1977, 286.6420
305.6798, 288.4384
306.1620, 289.4312
306.6441, 289.4170
307.1262, 287.3791
307.6083, 282.1472
308.0904, 279.3055
308.5725, 281.6535
309.0547, 285.5067
309.5368, 289.8087
310.0189, 294.0837
310.5010, 296.4267
310.9831, 293.6245
311.4652, 286.3708
311.9474, 282.8704
312.4295, 286.5243
312.9116, 289.8990
313.3937, 287.1239
313.8758, 280.3752
314.3579, 275.4187
314.8401, 276.8464
315.3222, 280.7744
315.8043, 278.8644
316.2864, 269.6021
316.7685, 263.5690
317.2506, 270.2430
317.7328, 282.5922
318.2149, 288.7287
318.6970, 285.0476
319.1791, 278.8384
319.6612, 274.6808
320.1433, 272.3781
320.6255, 270.9924
321.1076, 270.2569
321.5897, 270.2683
322.0718, 271.6365
322.5539, 274.7373
323.0360, 276.7118
323.5182, 275.4740
324.0003, 273.2080
324.4824, 272.5704
324.9645, 274.0100
325.4466, 277.1946
325.9287, 282.7788
326.4109, 291.1366
326.8930, 294.1554
327.3751, 286.3311
327.8572, 278.4402
328.3393, 276.7319
328.8214, 280.1185
329.3036, 284.4400
329.7857, 287.2959
330.2678, 289.1641
330.7499, 292.1228
331.2320, 302.2581
331.7141, 305.8990
332.1963, 294.8961
332.6784, 279.7797
333.1605, 272.1825
333.6426, 275.5126
334.1247, 284.4972
334.6068, 291.9366
335.0890, 298.7396
335.5711, 301.1339
336.0532, 294.8488
336.5353, 288.4709
337.0174, 285.8833
337.4995, 287.1647
337.9817, 291.0580
338.4638, 297.4803
338.9459, 305.7615
339.4280, 309.5074
339.9101, 304.9352
340.3922, 301.2783
340.8744, 302.6109
341.3565, 305.8242
341.8386, 306.3172
342.3207, 301.8121
342.8028, 296.6786
343.2849, 298.3946
343.7671, 308.1529
344.2492, 316.2887
344.7313, 319.5347
345.2134, 321.0603
345.6955, 323.3566
346.1776, 326.5466
346.6598, 329.5944
347.1419, 332.1264
347.6240, 334.0161
348.1061, 334.4618
348.5882, 332.7244
349.0703, 331.5826
349.5525, 332.8248
350.0346, 336.3790
350.5167, 342.5124
350.9988, 354.9770
351.4809, 367.1424
351.9630, 373.8504
352.4452, 375.5307
352.9273, 373.9103
353.4094, 368.5589
353.8915, 361.8311
354.3736, 360.1505
354.8557, 363.9347
355.3379, 370.3547
355.8200, 384.4372
356.3021, 398.3005
356.7842, 400.1744
357.2663, 388.2213
357.7484, 373.0410
358.2306, 366.3529
358.7127, 369.5656
359.1948, 374.1282
359.6769, 383.0357
360.1590, 390.1354
360.6411, 390.2833
361.1233, 386.5435
361.6054, 385.9357
362.0875, 392.8714
362.5696, 405.0593
363.0517, 414.1771
363.5338, 418.7819
364.0160, 422.3824
364.4981, 424.5904
364.9802, 426.6008
365.4623, 429.4347
365.9444, 433.2807
366.4265, 437.5999
366.9087, 440.8710
367.3908, 442.8125
367.8729, 449.3652
368.3550, 465.7971
368.8371, 480.8667
369.3192, 487.2083
369.8014, 487.9376
370.2835, 490.6665
370.7656, 499.8254
371.2477, 512.3071
371.7298, 522.6328
372.2119, 530.4791
372.6941, 539.2625
373.1762, 551.8088
373.6583, 565.1599
374.1404, 574.0129
374.6225, 576.2375
375.1046, 581.0594
375.5868, 596.7596
376.0689, 617.7992
376.5510, 630.9974
377.0331, 632.5806
377.5152, 635.1363
377.9973, 653.9613
378.4795, 691.2667
378.9616, 716.9766
379.4437, 719.4874
379.9258, 720.3668
380.4079, 732.4288
380.8900, 753.5107
381.3722, 775.3633
381.8543, 793.3898
382.3364, 809.5753
382.8185, 830.4417
383.3006, 864.3083
383.7827, 891.6389
384.2649, 906.5192
384.7470, 918.3267
385.2291, 934.6113
385.7112, 956.5617
386.1933, 981.0592
386.6754, 1005.690
387.1576, 1030.573
387.6397, 1051.170
388.1218, 1060.451
388.6039, 1073.861
389.0860, 1098.036
389.5681, 1129.043
390.0503, 1160.947
390.5324, 1192.204
391.0145, 1221.308
391.4966, 1244.566
391.9787, 1260.887
392.4608, 1281.260
392.9430, 1311.943
393.4251, 1344.691
393.9072, 1371.508
394.3893, 1392.414
394.8714, 1411.699
395.3535, 1432.286
395.8357, 1452.301
396.3178, 1470.114
396.7999, 1485.799
397.2820, 1494.392
397.7641, 1490.864
398.2462, 1476.821
398.7284, 1463.393
399.2105, 1448.392
399.6926, 1436.529
400.1747, 1435.233
400.6568, 1437.010
401.1389, 1427.668
401.6211, 1402.404
402.1032, 1370.912
402.5853, 1347.258
403.0674, 1334.570
403.5495, 1320.888
404.0316, 1306.202
404.5138, 1290.558
404.9959, 1271.931
405.4780, 1252.266
405.9601, 1236.375
406.4422, 1227.678
406.9243, 1224.108
407.4065, 1218.174
407.8886, 1207.395
408.3707, 1199.453
408.8528, 1199.663
409.3349, 1200.504
409.8170, 1194.746
410.2992, 1181.729
410.7813, 1168.911
411.2634, 1162.264
411.7455, 1161.203
412.2276, 1164.013
412.7097, 1172.680
413.1919, 1180.160
413.6740, 1180.189
414.1561, 1175.616
414.6382, 1171.608
415.1203, 1168.206
415.6024, 1166.717
416.0846, 1169.215
416.5667, 1174.538
417.0488, 1179.544
417.5309, 1183.518
418.0130, 1185.248
418.4951, 1181.175
418.9773, 1166.208
419.4594, 1164.161
419.9415, 1188.039
420.4236, 1215.119
420.9057, 1230.891
421.3878, 1236.122
421.8700, 1237.841
422.3521, 1240.432
422.8342, 1243.445
423.3163, 1244.776
423.7984, 1241.996
424.2805, 1241.397
424.7627, 1244.262
425.2448, 1248.908
425.7269, 1255.642
426.2090, 1263.657
426.6911, 1268.852
427.1732, 1265.273
427.6554, 1253.930
428.1375, 1247.870
428.6196, 1250.037
429.1017, 1251.855
429.5838, 1249.500
430.0659, 1243.846
430.5481, 1236.262
431.0302, 1228.186
431.5123, 1215.825
431.9944, 1190.793
432.4765, 1157.962
432.9586, 1136.935
433.4408, 1135.305
433.9229, 1137.830
434.4050, 1125.614
434.8871, 1096.871
435.3692, 1072.208
435.8513, 1056.425
436.3335, 1041.723
436.8156, 1024.461
437.2977, 1004.313
437.7798, 980.3051
438.2619, 951.6180
438.7440, 920.9961
439.2262, 895.8593
439.7083, 880.8463
440.1904, 863.2292
440.6725, 840.2171
441.1546, 816.7546
441.6367, 796.1461
442.1189, 778.2008
442.6010, 760.4472
443.0831, 740.7867
443.5652, 720.0802
444.0473, 702.0635
444.5294, 687.8879
445.0116, 673.1270
445.4937, 653.2236
445.9758, 633.2996
446.4579, 619.1666
446.9400, 612.2335
447.4221, 605.9750
447.9043, 596.0547
448.3864, 584.0458
448.8685, 573.1459
449.3506, 563.7319
449.8327, 555.3268
450.3148, 547.2987
450.7970, 539.8871
451.2791, 534.7647
451.7612, 533.5743
452.2433, 532.5704
452.7254, 531.3402
453.2076, 529.2760
453.6897, 524.4967
454.1718, 516.7969
454.6539, 509.8806
455.1360, 509.2298
455.6181, 516.6586
456.1003, 520.0622
456.5824, 515.9546
457.0645, 511.1687
457.5466, 507.0206
458.0287, 503.7114
458.5108, 501.0511
458.9930, 498.7747
459.4751, 498.0270
459.9572, 501.2369
460.4393, 508.4636
460.9214, 514.9723
461.4035, 520.6188
461.8857, 524.1912
462.3678, 522.7164
462.8499, 517.5233
463.3320, 515.9962
463.8141, 524.0552
464.2962, 533.5389
464.7784, 536.2477
465.2605, 533.7441
465.7426, 532.5001
466.2247, 535.2225
466.7068, 541.0522
467.1889, 548.5799
467.6711, 560.3469
468.1532, 568.2397
468.6353, 567.9387
469.1174, 567.5917
469.5995, 573.8066
470.0816, 584.5734
470.5638, 593.1382
471.0459, 595.1638
471.5280, 592.4419
472.0101, 589.4322
472.4922, 584.5143
472.9743, 583.8190
473.4565, 593.9950
473.9386, 605.0341
474.4207, 610.3116
474.9028, 609.7637
475.3849, 607.8074
475.8670, 606.8089
476.3492, 606.0766
476.8313, 604.4768
477.3134, 601.9825
477.7955, 598.6682
478.2776, 594.1505
478.7597, 589.1857
479.2419, 585.3439
479.7240, 581.7383
480.2061, 581.0903
480.6882, 588.3618
481.1703, 595.8340
481.6524, 595.1017
482.1346, 586.7676
482.6167, 578.2142
483.0988, 575.0575
483.5809, 576.1559
484.0630, 574.8444
484.5451, 567.7541
485.0273, 563.8980
485.5094, 566.7706
485.9915, 571.3949
486.4736, 573.3895
486.9557, 572.5624
487.4378, 572.3981
487.9200, 577.3151
488.4021, 584.9147
488.8842, 586.4003
489.3663, 580.1594
489.8484, 576.9943
490.3305, 584.2432
490.8127, 597.1265
491.2948, 604.6308
491.7769, 603.5433
492.2590, 606.4244
492.7411, 621.7133
493.2232, 640.7814
493.7054, 653.7215
494.1875, 659.7773
494.6696, 663.4296
495.1517, 667.3638
495.6338, 672.2834
496.1159, 683.0678
496.5981, 704.6797
497.0802, 725.3705
497.5623, 743.1221
498.0444, 760.2043
498.5265, 778.7720
499.0086, 798.8483
499.4908, 818.5052
499.9729, 836.4318
500.4550, 852.6906
500.9371, 866.4886
501.4192, 876.8841
501.9013, 888.9997
502.3835, 906.4308
502.8656, 926.1906
503.3477, 942.9354
503.8298, 955.4096
504.3119, 969.5666
504.7940, 988.2884
505.2762, 1009.445
505.7583, 1030.353
506.2404, 1050.955
506.7225, 1072.227
507.2046, 1094.804
507.6867, 1118.843
508.1689, 1144.792
508.6510, 1174.867
509.1331, 1203.838
509.6152, 1234.567
510.0973, 1261.782
510.5794, 1280.291
511.0616, 1290.921
511.5437, 1299.009
512.0258, 1307.470
512.5079, 1316.704
512.9901, 1328.509
513.4722, 1343.395
513.9543, 1357.597
514.4364, 1371.829
514.9185, 1382.777
515.4006, 1385.339
515.8828, 1378.816
516.3649, 1373.494
516.8470, 1377.329
517.3291, 1380.165
517.8112, 1369.466
518.2933, 1348.228
518.7755, 1329.937
519.2576, 1321.846
519.7397, 1320.815
520.2218, 1319.418
520.7039, 1316.430
521.1860, 1315.486
521.6682, 1316.392
522.1503, 1319.229
522.6324, 1325.097
523.1145, 1332.943
523.5966, 1340.649
524.0787, 1347.817
524.5609, 1352.801
525.0430, 1352.684
525.5251, 1347.480
526.0072, 1338.833
526.4893, 1324.420
526.9714, 1311.054
527.4536, 1306.721
527.9357, 1310.440
528.4178, 1316.180
528.8999, 1323.354
529.3820, 1332.115
529.8641, 1342.867
530.3463, 1355.231
530.8284, 1368.654
531.3105, 1382.971
531.7926, 1397.553
532.2747, 1411.697
532.7568, 1425.615
533.2390, 1437.903
533.7211, 1441.315
534.2032, 1451.851
534.6853, 1478.612
535.1674, 1513.569
535.6495, 1546.587
536.1317, 1575.018
536.6138, 1600.150
537.0959, 1621.670
537.5780, 1640.766
538.0601, 1659.861
538.5422, 1678.411
539.0244, 1702.776
539.5065, 1739.631
539.9886, 1785.798
540.4707, 1824.564
540.9528, 1854.806
541.4349, 1880.646
541.9171, 1904.913
542.3992, 1923.869
542.8813, 1933.838
543.3634, 1934.665
543.8455, 1928.491
544.3276, 1916.765
544.8098, 1899.691
545.2919, 1879.100
545.7740, 1857.798
546.2561, 1825.311
546.7382, 1772.269
547.2203, 1711.740
547.7024, 1652.309
548.1845, 1594.491
548.6666, 1536.495
549.1487, 1477.460
549.6309, 1418.428
550.1130, 1360.188
550.5951, 1302.984
551.0772, 1248.200
551.5593, 1195.485
552.0414, 1147.297
552.5236, 1107.763
553.0057, 1079.204
553.4878, 1051.290
553.9699, 1025.930
554.4520, 998.9587
554.9341, 965.1018
555.4163, 929.6235
555.8984, 902.3300
556.3805, 886.9532
556.8626, 873.0343
557.3447, 843.6475
557.8268, 801.9752
558.3090, 776.5984
558.7911, 775.1849
559.2732, 774.0479
559.7553, 757.3458
560.2374, 728.7590
560.7195, 701.5887
561.2017, 675.0940
561.6838, 651.3633
562.1659, 632.1623
562.6480, 615.3897
563.1301, 598.7404
563.6122, 582.0507
564.0944, 566.3559
564.5765, 552.3121
565.0586, 539.6721
565.5407, 526.8306
566.0228, 512.1779
566.5049, 501.4201
566.9871, 498.6573
567.4692, 497.6496
567.9513, 494.4034
568.4334, 489.3426
568.9155, 485.3176
569.3976, 483.4510
569.8798, 483.1946
570.3619, 485.1660
570.8440, 488.4071
571.3261, 489.0873
571.8082, 485.8017
572.2903, 482.1285
572.7725, 482.8624
573.2546, 488.8948
573.7367, 490.8473
574.2188, 487.1332
574.7009, 481.4740
575.1830, 471.4098
575.6652, 461.6501
576.1473, 458.4359
576.6294, 462.6421
577.1115, 467.7068
577.5936, 466.8236
578.0757, 462.0454
578.5579, 459.9396
579.0400, 460.5768
579.5221, 464.6891
580.0042, 475.3195
580.4863, 487.2496
580.9684, 489.1901
581.4506, 478.9420
581.9327, 470.2749
582.4148, 466.6950
582.8969, 463.8148
583.3790, 457.6539
583.8611, 450.0224
584.3433, 445.3823
584.8254, 445.8328
585.3075, 448.7521
585.7896, 450.5389
586.2717, 451.2748
586.7538, 449.3402
587.2360, 442.0478
587.7181, 436.3688
588.2002, 436.9873
588.6823, 441.6162
589.1644, 447.5765
589.6465, 456.6309
590.1287, 461.4067
590.6108, 454.3539
591.0929, 443.1955
591.5750, 438.3468
592.0571, 439.9550
592.5392, 441.3717
593.0214, 437.9117
593.5035, 432.0144
593.9856, 431.7085
594.4677, 440.4680
594.9498, 446.5545
595.4319, 446.2979
595.9141, 445.5827
596.3962, 447.8465
596.8783, 451.9635
597.3604, 454.9099
597.8425, 455.9092
598.3246, 454.7074
598.8068, 448.0844
599.2889, 439.3246
599.7710, 438.1617
600.2531, 446.4918
600.7352, 456.1808
601.2173, 460.3465
601.6995, 459.7278
602.1816, 460.3706
602.6637, 463.8133
603.1458, 466.4321
603.6279, 468.8949
604.1100, 469.7208
604.5922, 466.6615
605.0743, 460.6665
605.5564, 455.5162
606.0385, 453.2360
606.5206, 453.1299
607.0027, 454.7184
607.4849, 457.7820
607.9670, 460.6765
608.4491, 463.1427
608.9312, 464.8114
609.4133, 465.2386
609.8954, 464.4133
610.3776, 463.2349
610.8597, 460.6943
611.3418, 459.1110
611.8239, 459.1634
612.3060, 460.3383
612.7881, 464.1160
613.2703, 469.2557
613.7524, 469.7341
614.2345, 458.5227
614.7166, 441.4798
615.1987, 433.2321
615.6808, 434.0587
616.1630, 438.1404
616.6451, 445.7256
617.1272, 452.5571
617.6093, 453.4551
618.0914, 448.2680
618.5735, 442.6163
619.0557, 432.7405
619.5378, 427.0205
620.0199, 433.4948
620.5020, 443.5727
620.9841, 445.6331
621.4662, 438.1456
621.9484, 429.1427
622.4305, 426.0598
622.9126, 427.1420
623.3947, 425.4133
623.8768, 420.3994
624.3589, 415.0371
624.8411, 408.6363
625.3232, 404.0475
625.8053, 406.7017
626.2874, 416.0997
626.7695, 421.3960
627.2516, 419.3152
627.7338, 414.7272
628.2159, 407.5365
628.6980, 400.4060
629.1801, 398.3105
629.6622, 401.6687
630.1443, 404.4991
630.6265, 399.6176
631.1086, 389.3872
631.5907, 388.5842
632.0728, 400.6782
632.5549, 408.3142
633.0370, 402.8314
633.5192, 393.9824
634.0013, 393.4680
634.4834, 400.7652
634.9655, 405.8593
635.4476, 406.2164
635.9297, 404.4533
636.4119, 400.2939
636.8940, 395.6147
637.3761, 393.2018
