##NAMES=Frondelite
##RRUFFID=R050622
##IDEAL CHEMISTRY=(Mn^2+^_0.5_Fe^3+^_0.5_)_2_Fe^3+^_3_(PO_4_)_3_(OH)_5_
##LOCALITY=Hagendorf, Bavaria, Germany
##OWNER=RRUFF
##SOURCE=University of Arizona Mineral Museum
##DESCRIPTION=Black bladed crystals in divergent radial aggregates
##STATUS=The identification of this mineral is confirmed by single-crystal X-ray diffraction and chemical analysis.
##URL=rruff.info/R050622
##MEASURED CHEMISTRY=(Mn^2+^_0.63_Fe^2+^_0.37_)_Î£=1_Fe^3+^_4.00_(P_1.00_O_4_)_3_(OH)_5_
92.06543, 89.17879
92.54755, 88.47086
93.02966, 88.72820
93.51178, 89.87115
93.99390, 90.41838
94.47601, 90.17992
94.95813, 89.44534
95.44025, 88.70418
95.92236, 88.38728
96.40448, 88.52432
96.88660, 88.12736
97.36871, 86.89806
97.85082, 85.55751
98.33294, 84.60590
98.81506, 84.05887
99.29717, 83.49706
99.77929, 82.82335
100.2614, 82.07432
100.7435, 81.43787
101.2256, 80.96879
101.7078, 80.61898
102.1899, 80.30155
102.6720, 79.98040
103.1541, 79.70444
103.6362, 79.57438
104.1183, 79.58179
104.6005, 79.46745
105.0826, 78.88271
105.5647, 77.72324
106.0468, 76.87486
106.5289, 76.72446
107.0110, 76.78230
107.4931, 76.82355
107.9753, 76.77810
108.4574, 76.63858
108.9395, 76.37557
109.4216, 75.85213
109.9037, 75.40982
110.3858, 75.09675
110.8680, 74.86499
111.3501, 74.65987
111.8322, 74.44884
112.3143, 74.24659
112.7964, 74.15469
113.2785, 74.33992
113.7607, 74.44897
114.2428, 74.35320
114.7249, 74.09962
115.2070, 73.81518
115.6891, 73.58274
116.1712, 73.40730
116.6534, 73.28033
117.1355, 73.27626
117.6176, 73.26649
118.0997, 73.10156
118.5818, 72.75765
119.0639, 72.45902
119.5461, 72.50571
120.0282, 72.78773
120.5103, 72.98087
120.9924, 72.91810
121.4745, 72.70208
121.9566, 72.58157
122.4388, 72.63782
122.9209, 72.69974
123.4030, 72.63223
123.8851, 72.46535
124.3672, 72.30350
124.8493, 72.26205
125.3315, 72.35625
125.8136, 72.34081
126.2957, 72.02744
126.7778, 71.72459
127.2599, 71.57063
127.7420, 71.57490
128.2242, 71.64616
128.7063, 71.67191
129.1884, 71.65735
129.6705, 71.57398
130.1526, 71.42928
130.6347, 71.22707
131.1169, 70.93783
131.5990, 70.55960
132.0811, 70.15788
132.5632, 69.87931
133.0453, 69.90336
133.5274, 69.83444
134.0096, 69.57142
134.4917, 69.22018
134.9738, 68.93682
135.4559, 68.79967
135.9380, 68.76366
136.4201, 68.67324
136.9023, 68.47513
137.3844, 68.30483
137.8665, 68.26530
138.3486, 68.32341
138.8307, 68.31269
139.3128, 68.07450
139.7950, 67.73602
140.2771, 67.60258
140.7592, 67.86457
141.2413, 68.15823
141.7234, 68.04088
142.2055, 67.42097
142.6877, 66.86517
143.1698, 66.77669
143.6519, 66.90926
144.1340, 66.99931
144.6161, 66.93288
145.0982, 66.76675
145.5803, 66.65450
146.0625, 66.64394
146.5446, 66.61002
147.0267, 66.46392
147.5088, 66.27315
147.9909, 66.15778
148.4730, 66.23727
148.9552, 66.49043
149.4373, 66.48911
149.9194, 65.79474
150.4015, 65.23489
150.8836, 65.11130
151.3657, 65.31548
151.8479, 65.55314
152.3300, 65.56371
152.8121, 65.31242
153.2942, 65.03101
153.7763, 64.62731
154.2584, 64.27450
154.7406, 64.07207
155.2227, 64.01926
155.7048, 64.03642
156.1869, 64.03824
156.6690, 64.01222
157.1511, 64.02699
157.6333, 64.13510
158.1154, 64.25391
158.5975, 64.33681
159.0796, 64.37650
159.5617, 64.32010
160.0438, 64.02480
160.5260, 63.47117
161.0081, 63.04690
161.4902, 62.88375
161.9723, 62.90199
162.4544, 62.99823
162.9365, 63.21618
163.4187, 63.36694
163.9008, 63.13749
164.3829, 62.54624
164.8650, 62.10276
165.3471, 62.23033
165.8292, 62.82916
166.3113, 63.23298
166.7935, 63.22013
167.2756, 63.03217
167.7577, 62.82647
168.2398, 62.61560
168.7219, 62.43593
169.2040, 62.35442
169.6862, 62.39759
170.1683, 62.35620
170.6504, 62.10911
171.1325, 61.82414
171.6146, 61.55991
172.0967, 61.33720
172.5789, 61.18225
173.0610, 61.16169
173.5431, 61.39146
174.0252, 61.48537
174.5073, 61.32673
174.9894, 61.10514
175.4716, 60.95195
175.9537, 60.91117
176.4358, 60.94433
176.9179, 60.97779
177.4000, 61.04795
177.8821, 61.06317
178.3643, 61.01627
178.8464, 60.92002
179.3285, 60.75720
179.8106, 60.52065
180.2927, 60.27070
180.7748, 60.17821
181.2570, 60.45440
181.7391, 60.62612
182.2212, 60.59724
182.7033, 60.44084
183.1854, 60.25227
183.6675, 60.06592
184.1497, 59.89506
184.6318, 59.78507
185.1139, 59.71741
185.5960, 59.71392
186.0781, 59.82774
186.5602, 60.01989
187.0423, 60.18211
187.5245, 60.26699
188.0066, 60.28102
188.4887, 60.25352
188.9708, 60.16256
189.4529, 60.06932
189.9350, 59.96866
190.4172, 59.87135
190.8993, 59.91324
191.3814, 60.32344
191.8635, 60.81109
192.3456, 60.94358
192.8277, 60.56200
193.3099, 60.05207
193.7920, 59.80291
194.2741, 59.84679
194.7562, 59.90943
195.2383, 59.89626
195.7204, 59.84098
196.2026, 59.76969
196.6847, 59.69257
197.1668, 59.59082
197.6489, 59.38268
198.1310, 58.95463
198.6131, 58.75965
199.0953, 59.09992
199.5774, 59.62744
200.0595, 60.07080
200.5416, 60.33584
201.0237, 60.43238
201.5058, 60.36531
201.9880, 60.05186
202.4701, 59.70949
202.9522, 59.29714
203.4343, 58.91473
203.9164, 58.67137
204.3985, 58.61764
204.8807, 58.70679
205.3628, 58.80401
205.8449, 58.93339
206.3270, 59.03632
206.8091, 59.05633
207.2912, 59.06397
207.7733, 59.18126
208.2555, 59.47462
208.7376, 59.84490
209.2197, 59.91998
209.7018, 59.26646
210.1839, 58.79317
210.6660, 58.70624
211.1482, 58.83107
211.6303, 58.92462
212.1124, 58.86174
212.5945, 58.68217
213.0766, 58.54392
213.5587, 58.34864
214.0409, 58.30004
214.5230, 58.59705
215.0051, 59.05571
215.4872, 59.32959
215.9693, 59.21893
216.4514, 58.84245
216.9336, 58.65602
217.4157, 58.70818
217.8978, 58.83075
218.3799, 59.09418
218.8620, 59.39953
219.3441, 59.46041
219.8263, 59.06211
220.3084, 58.41341
220.7905, 58.08806
221.2726, 58.20126
221.7547, 58.38493
222.2368, 58.48606
222.7190, 58.51434
223.2011, 58.51786
223.6832, 58.54742
224.1653, 58.52695
224.6474, 58.29552
225.1295, 57.71761
225.6117, 57.25043
226.0938, 57.29934
226.5759, 57.80120
227.0580, 58.22562
227.5401, 58.37524
228.0222, 58.34031
228.5043, 58.25024
228.9865, 58.10445
229.4686, 57.92981
229.9507, 57.69089
230.4328, 57.38947
230.9149, 57.26273
231.3970, 57.59943
231.8792, 57.98590
232.3613, 58.02473
232.8434, 57.64931
233.3255, 57.20999
233.8076, 57.07554
234.2897, 57.27642
234.7719, 57.42725
235.2540, 57.42916
235.7361, 57.35678
236.2182, 57.20370
236.7003, 56.97761
237.1824, 56.80385
237.6646, 56.87547
238.1467, 57.26405
238.6288, 57.49357
239.1109, 57.32419
239.5930, 57.09660
240.0751, 56.95594
240.5573, 56.93090
241.0394, 57.00172
241.5215, 57.19881
242.0036, 57.60166
242.4857, 57.80228
242.9678, 57.57521
243.4500, 57.30438
243.9321, 57.18363
244.4142, 57.22605
244.8963, 57.31724
245.3784, 57.32393
245.8605, 57.21510
246.3427, 57.13581
246.8248, 57.08440
247.3069, 57.06190
247.7890, 57.13350
248.2711, 57.26211
248.7532, 57.30363
249.2354, 57.06631
249.7175, 56.42744
250.1996, 56.04907
250.6817, 56.00563
251.1638, 56.11692
251.6459, 56.42173
252.1281, 56.84200
252.6102, 57.16768
253.0923, 57.17527
253.5744, 56.79418
254.0565, 56.52696
254.5386, 56.42865
255.0208, 56.36906
255.5029, 56.28699
255.9850, 56.18762
256.4671, 56.10681
256.9492, 56.06947
257.4313, 56.07139
257.9135, 56.17943
258.3956, 56.55923
258.8777, 56.86278
259.3598, 56.89744
259.8419, 56.71692
260.3240, 56.51338
260.8062, 56.43510
261.2883, 56.48093
261.7704, 56.45129
262.2525, 56.33845
262.7346, 56.17896
263.2167, 55.91399
263.6989, 55.60419
264.1810, 55.40878
264.6631, 55.44101
265.1452, 55.67485
265.6273, 55.87447
266.1094, 56.03883
266.5916, 56.17877
267.0737, 56.32518
267.5558, 56.45149
268.0379, 56.47939
268.5200, 56.34435
269.0021, 56.10173
269.4843, 55.98755
269.9664, 56.08136
270.4485, 56.17544
270.9306, 56.21629
271.4127, 56.21037
271.8948, 56.16004
272.3770, 56.05370
272.8591, 55.92622
273.3412, 55.87215
273.8233, 55.90489
274.3054, 55.95895
274.7875, 56.04712
275.2697, 56.13936
275.7518, 56.17194
276.2339, 56.11489
276.7160, 56.00944
277.1981, 55.93708
277.6802, 55.91073
278.1623, 55.85409
278.6444, 55.72458
279.1266, 55.55538
279.6087, 55.37333
280.0908, 55.16308
280.5729, 55.02599
281.0550, 55.19945
281.5371, 55.69259
282.0193, 56.01178
282.5014, 55.94792
282.9835, 55.66579
283.4656, 55.37378
283.9477, 55.09681
284.4298, 54.86420
284.9120, 54.70292
285.3941, 54.60931
285.8762, 54.61636
286.3583, 54.83326
286.8404, 55.10734
287.3225, 55.26174
287.8047, 55.27857
288.2868, 55.19056
288.7689, 54.90282
289.2510, 54.51379
289.7331, 54.37825
290.2152, 54.79663
290.6974, 55.34924
291.1795, 55.60683
291.6616, 55.55611
292.1437, 55.39436
292.6258, 55.17033
293.1079, 54.93417
293.5901, 54.79805
294.0722, 54.80569
294.5543, 54.88040
295.0364, 54.98316
295.5185, 55.11145
296.0006, 55.21396
296.4828, 55.27482
296.9649, 55.28527
297.4470, 55.22626
297.9291, 55.05053
298.4112, 54.91428
298.8933, 54.99744
299.3755, 55.25114
299.8576, 55.36694
300.3397, 55.19029
300.8218, 54.88014
301.3039, 54.65177
301.7860, 54.50945
302.2682, 54.41353
302.7503, 54.33931
303.2324, 54.29304
303.7145, 54.30982
304.1966, 54.43720
304.6787, 54.56132
305.1609, 54.55615
305.6430, 54.43579
306.1251, 54.29356
306.6072, 54.14974
307.0893, 54.01498
307.5714, 53.90057
308.0536, 53.79181
308.5357, 53.74951
309.0178, 53.85370
309.4999, 54.06694
309.9820, 54.30806
310.4641, 54.70423
310.9463, 55.05261
311.4284, 54.95619
311.9105, 54.32280
312.3926, 53.71700
312.8747, 53.53503
313.3568, 53.63116
313.8390, 53.77039
314.3211, 53.93980
314.8032, 54.10389
315.2853, 54.21434
315.7674, 54.26954
316.2495, 54.35214
316.7317, 54.59840
317.2138, 54.83126
317.6959, 54.74312
318.1780, 54.17225
318.6601, 53.64565
319.1422, 53.64125
319.6243, 54.08092
320.1064, 54.43003
320.5886, 54.53935
321.0707, 54.46160
321.5528, 54.23707
322.0349, 53.84837
322.5170, 53.53873
322.9991, 53.50916
323.4813, 53.66217
323.9634, 53.70645
324.4455, 53.55487
324.9276, 53.36224
325.4097, 53.28747
325.8918, 53.30946
326.3740, 53.34119
326.8561, 53.40784
327.3382, 53.44792
327.8203, 53.31187
328.3024, 52.94454
328.7845, 52.62879
329.2667, 52.59637
329.7488, 52.78158
330.2309, 53.04293
330.7130, 53.54492
331.1951, 53.97569
331.6772, 53.94907
332.1594, 53.47204
332.6415, 52.98188
333.1236, 52.66264
333.6057, 52.50743
334.0878, 52.46562
334.5699, 52.57719
335.0521, 52.72655
335.5342, 52.86399
336.0163, 52.98362
336.4984, 53.06430
336.9805, 53.09732
337.4626, 53.08708
337.9448, 53.01929
338.4269, 52.87527
338.9090, 52.79582
339.3911, 52.92638
339.8732, 53.14373
340.3553, 53.18951
340.8375, 52.98672
341.3196, 52.71681
341.8017, 52.56629
342.2838, 52.52504
342.7659, 52.53877
343.2480, 52.68074
343.7302, 52.82586
344.2123, 52.81621
344.6944, 52.64209
345.1765, 52.44492
345.6586, 52.30571
346.1407, 52.23549
346.6229, 52.23592
347.1050, 52.39479
347.5871, 52.54582
348.0692, 52.60161
348.5513, 52.56756
349.0334, 52.45479
349.5156, 52.24595
349.9977, 51.98755
350.4798, 51.81181
350.9619, 51.74792
351.4440, 51.68995
351.9261, 51.64452
352.4083, 51.57592
352.8904, 51.37240
353.3725, 50.97944
353.8546, 50.60217
354.3367, 50.57582
354.8188, 51.00795
355.3010, 51.33103
355.7831, 51.48380
356.2652, 51.51373
356.7473, 51.43774
357.2294, 51.26616
357.7115, 51.04049
358.1937, 50.76139
358.6758, 50.42773
359.1579, 50.33565
359.6400, 50.75150
360.1221, 51.12514
360.6042, 51.13897
361.0863, 50.88558
361.5685, 50.63414
362.0506, 50.53276
362.5327, 50.55140
363.0148, 50.57016
363.4969, 50.64294
363.9790, 50.64968
364.4612, 50.53588
364.9433, 50.36118
365.4254, 50.19949
365.9075, 50.07478
366.3896, 49.95824
366.8717, 49.79523
367.3539, 49.51008
367.8360, 49.36403
368.3181, 49.44132
368.8002, 49.58204
369.2823, 49.69915
369.7644, 49.77601
370.2466, 49.82189
370.7287, 49.84026
371.2108, 49.82789
371.6929, 49.84409
372.1750, 50.01205
372.6571, 50.07529
373.1393, 49.86349
373.6214, 49.50774
374.1035, 49.22911
374.5856, 49.15131
375.0677, 49.22724
375.5498, 49.31509
376.0320, 49.52266
376.5141, 49.56754
376.9962, 49.31640
377.4783, 48.97139
377.9604, 48.68847
378.4425, 48.51287
378.9247, 48.42100
379.4068, 48.39986
379.8889, 48.48748
380.3710, 48.51211
380.8531, 48.43623
381.3352, 48.33104
381.8174, 48.19690
382.2995, 48.05559
382.7816, 47.95982
383.2637, 47.97517
383.7458, 48.07117
384.2279, 48.02254
384.7101, 47.69672
385.1922, 47.42685
385.6743, 47.27863
386.1564, 47.24641
386.6385, 47.36149
387.1206, 47.66031
387.6028, 47.98194
388.0849, 48.04153
388.5670, 47.77708
389.0491, 47.54652
389.5312, 47.51026
390.0133, 47.47523
390.4955, 47.27047
390.9776, 46.89957
391.4597, 46.57304
391.9418, 46.47996
392.4239, 46.58367
392.9060, 46.68155
393.3882, 46.78617
393.8703, 46.83434
394.3524, 46.75546
394.8345, 46.59568
395.3166, 46.45140
395.7987, 46.36605
396.2809, 46.30810
396.7630, 46.22759
397.2451, 46.12057
397.7272, 46.04496
398.2093, 46.04207
398.6914, 46.07823
399.1736, 46.09502
399.6557, 46.08252
400.1378, 46.07744
400.6199, 46.14027
401.1020, 46.22828
401.5841, 46.20701
402.0662, 46.02083
402.5483, 45.79513
403.0305, 45.68531
403.5126, 45.68259
403.9947, 45.67085
404.4768, 45.65816
404.9589, 45.60868
405.4410, 45.45179
405.9232, 45.20062
406.4053, 44.99127
406.8874, 44.92740
407.3695, 44.97536
407.8516, 44.95264
408.3337, 44.77616
408.8159, 44.63558
409.2980, 44.65149
409.7801, 44.72637
410.2622, 44.68090
410.7443, 44.45000
411.2264, 44.15708
411.7086, 44.00149
412.1907, 44.05827
412.6728, 44.07710
413.1549, 43.99856
413.6370, 43.93021
414.1191, 43.94852
414.6013, 44.04967
415.0834, 44.20525
415.5655, 44.41931
416.0476, 44.67361
416.5297, 44.63303
417.0118, 43.80796
417.4940, 43.24527
417.9761, 43.31310
418.4582, 43.66901
418.9403, 43.88000
419.4224, 43.78220
419.9045, 43.53785
420.3867, 43.43281
420.8688, 43.52905
421.3509, 43.60273
421.8330, 43.65752
422.3151, 43.67846
422.7972, 43.64870
423.2794, 43.57471
423.7615, 43.48212
424.2436, 43.40188
424.7257, 43.32191
425.2078, 43.13847
425.6899, 42.73221
426.1721, 42.43664
426.6542, 42.41608
427.1363, 42.53816
427.6184, 42.65927
428.1005, 42.73919
428.5826, 42.78451
429.0648, 42.81930
429.5469, 42.84498
430.0290, 42.76603
430.5111, 42.47403
430.9932, 42.16864
431.4753, 42.02700
431.9575, 42.03503
432.4396, 42.07544
432.9217, 42.09908
433.4038, 42.11785
433.8859, 42.16204
434.3680, 42.23775
434.8502, 42.29285
435.3323, 42.29577
435.8144, 42.25059
436.2965, 42.17553
436.7786, 42.03371
437.2607, 41.91856
437.7429, 41.89206
438.2250, 41.92919
438.7071, 41.98500
439.1892, 42.05249
439.6713, 42.09937
440.1534, 42.07714
440.6356, 41.97308
441.1177, 41.84875
441.5998, 41.66450
442.0819, 41.49506
442.5640, 41.40758
443.0461, 41.39081
443.5282, 41.38173
444.0103, 41.33784
444.4925, 41.26757
444.9746, 41.21822
445.4567, 41.22155
445.9388, 41.20684
446.4209, 41.14282
446.9030, 41.06977
447.3852, 41.04109
447.8673, 41.06469
448.3494, 41.08509
448.8315, 41.01727
449.3136, 40.82512
449.7957, 40.72637
450.2779, 40.74654
450.7600, 40.83789
451.2421, 41.06776
451.7242, 41.34881
452.2063, 41.51866
452.6884, 41.47491
453.1706, 41.30510
453.6527, 41.22789
454.1348, 41.29466
454.6169, 41.29264
455.0990, 41.12221
455.5811, 40.89306
456.0633, 40.63581
456.5454, 40.36630
457.0275, 40.17942
457.5096, 40.19546
457.9917, 40.35543
458.4738, 40.46641
458.9560, 40.53963
459.4381, 40.49651
459.9202, 40.10541
460.4023, 39.58565
460.8844, 39.37544
461.3665, 39.70866
461.8487, 40.14085
462.3308, 40.30526
462.8129, 40.28507
463.2950, 40.43215
463.7771, 40.93744
464.2592, 41.43600
464.7414, 41.31626
465.2235, 40.46651
465.7056, 39.84351
466.1877, 39.61841
466.6698, 39.60417
467.1519, 39.73842
467.6341, 39.96807
468.1162, 40.15015
468.5983, 40.19464
469.0804, 40.11844
469.5625, 39.99599
470.0446, 39.65010
470.5268, 39.48728
471.0089, 39.73468
471.4910, 40.06581
471.9731, 40.13636
472.4552, 39.90493
472.9373, 39.62107
473.4195, 39.57542
473.9016, 39.79516
474.3837, 39.88074
474.8658, 39.68459
475.3479, 39.51037
475.8300, 39.46331
476.3122, 39.48372
476.7943, 39.46416
477.2764, 39.35115
477.7585, 39.24701
478.2406, 39.36422
478.7227, 39.74490
479.2049, 39.95698
479.6870, 39.84519
480.1691, 39.61372
480.6512, 39.39034
481.1333, 39.17993
481.6154, 38.98435
482.0976, 38.76933
482.5797, 38.58564
483.0618, 38.52131
483.5439, 38.57888
484.0260, 38.70198
484.5081, 38.93610
484.9902, 39.16569
485.4724, 39.11709
485.9545, 38.64880
486.4366, 38.33395
486.9187, 38.48303
487.4008, 38.84687
487.8829, 39.14413
488.3651, 39.31935
488.8472, 39.32497
489.3293, 39.07570
489.8114, 38.57352
490.2935, 38.30718
490.7756, 38.43166
491.2578, 38.56481
491.7399, 38.63894
492.2220, 38.64518
492.7041, 38.55507
493.1862, 38.36604
493.6683, 38.15057
494.1505, 38.01566
494.6326, 37.98029
495.1147, 37.95178
495.5968, 37.96843
496.0789, 37.95398
496.5610, 37.86816
497.0432, 37.73174
497.5253, 37.57136
498.0074, 37.38551
498.4895, 37.22988
498.9716, 37.26540
499.4537, 37.54895
499.9359, 37.65051
500.4180, 37.29272
500.9001, 36.87556
501.3822, 36.75663
501.8643, 36.91335
502.3464, 37.06297
502.8286, 37.02483
503.3107, 36.92126
503.7928, 36.97261
504.2749, 37.18519
504.7570, 37.33630
505.2391, 37.28893
505.7213, 37.11418
506.2034, 36.75188
506.6855, 37.10173
507.1676, 37.26153
507.6497, 37.24150
508.1318, 36.50299
508.6140, 36.69223
509.0961, 36.50968
509.5782, 36.31189
510.0603, 36.63171
510.5424, 35.99771
511.0245, 36.30933
511.5067, 36.24345
511.9888, 36.35036
512.4709, 36.08318
512.9530, 36.18089
513.4351, 36.26317
513.9172, 36.07332
514.3994, 35.84212
514.8815, 35.90104
515.3636, 36.29101
515.8457, 36.40898
516.3278, 36.03576
516.8099, 35.67670
517.2921, 35.57017
517.7742, 35.60106
518.2563, 35.58068
518.7384, 35.42800
519.2205, 35.27199
519.7026, 35.30104
520.1848, 35.48111
520.6669, 35.51972
521.1490, 35.28819
521.6311, 35.03856
522.1132, 35.09945
522.5953, 35.40159
523.0775, 35.55880
523.5596, 35.38855
524.0417, 35.15731
524.5238, 35.04755
525.0059, 35.03002
525.4880, 35.01245
525.9702, 34.95881
526.4523, 34.87897
526.9344, 34.78098
527.4165, 34.62570
527.8986, 34.56645
528.3807, 34.64209
528.8629, 34.76935
529.3450, 34.95562
529.8271, 35.15388
530.3092, 35.26928
530.7913, 35.24370
531.2734, 35.13065
531.7556, 35.06688
532.2377, 35.08792
532.7198, 35.05777
533.2019, 34.89608
533.6840, 34.72743
534.1661, 34.59468
534.6483, 34.51107
535.1304, 34.50250
535.6125, 34.61079
536.0946, 34.78558
536.5767, 34.98376
537.0588, 35.21387
537.5410, 35.27024
538.0231, 34.99734
538.5052, 34.57853
538.9873, 34.28231
539.4694, 34.10200
539.9515, 34.03692
540.4337, 34.19465
540.9158, 34.39480
541.3979, 34.46053
541.8800, 34.39201
542.3621, 34.25383
542.8442, 34.06556
543.3264, 33.87569
543.8085, 33.85239
544.2906, 34.21683
544.7726, 34.44241
545.2548, 34.42522
545.7369, 34.34375
546.2190, 34.32246
546.7011, 34.36518
547.1832, 34.41076
547.6653, 34.40878
548.1475, 34.37724
548.6296, 34.41076
549.1117, 34.58112
549.5938, 34.62743
550.0759, 34.31866
550.5580, 33.95709
551.0402, 33.75900
551.5223, 33.74186
552.0044, 33.80854
552.4865, 33.96344
552.9686, 34.14349
553.4507, 34.22449
553.9329, 34.20100
554.4150, 34.17236
554.8971, 34.19619
555.3792, 34.24432
555.8613, 34.24323
556.3434, 34.18359
556.8256, 34.11000
557.3077, 33.98063
557.7898, 33.87526
558.2719, 33.90280
558.7540, 34.03960
559.2361, 34.14521
559.7183, 34.11499
560.2004, 33.99107
560.6825, 33.95829
561.1646, 34.11730
561.6467, 34.19447
562.1288, 34.11259
562.6110, 33.99138
563.0931, 33.90406
563.5752, 33.85882
564.0573, 33.83651
564.5394, 33.83813
565.0215, 33.84563
565.5037, 33.80736
565.9858, 33.71686
566.4679, 33.62317
566.9500, 33.55331
567.4321, 33.48050
567.9142, 33.34258
568.3964, 33.12801
568.8785, 33.00940
569.3606, 33.09239
569.8427, 33.26601
570.3248, 33.46690
570.8069, 33.66528
571.2891, 33.75792
571.7712, 33.67352
572.2533, 33.49043
572.7354, 33.40634
573.2175, 33.51214
573.6996, 33.55765
574.1818, 33.47228
574.6639, 33.39291
575.1460, 33.40686
575.6281, 33.49859
576.1102, 33.60767
576.5923, 33.69910
577.0745, 33.78569
577.5566, 33.94078
578.0387, 34.21769
578.5208, 34.25355
579.0029, 33.73502
579.4850, 33.21010
579.9672, 33.14617
580.4493, 33.44667
580.9314, 33.68344
581.4135, 33.63102
581.8956, 33.50617
582.3777, 33.53340
582.8599, 33.67280
583.3420, 33.77160
583.8241, 33.77654
584.3062, 33.72979
584.7883, 33.68801
585.2704, 33.65738
585.7526, 33.59555
586.2347, 33.45029
