##NAMES=Frondelite
##RRUFFID=R050622
##IDEAL CHEMISTRY=(Mn^2+^_0.5_Fe^3+^_0.5_)_2_Fe^3+^_3_(PO_4_)_3_(OH)_5_
##LOCALITY=Hagendorf, Bavaria, Germany
##OWNER=RRUFF
##SOURCE=University of Arizona Mineral Museum
##DESCRIPTION=Black bladed crystals in divergent radial aggregates
##STATUS=The identification of this mineral is confirmed by single-crystal X-ray diffraction and chemical analysis.
##URL=rruff.info/R050622
##MEASURED CHEMISTRY=(Mn^2+^_0.63_Fe^2+^_0.37_)_Î£=1_Fe^3+^_4.00_(P_1.00_O_4_)_3_(OH)_5_
91.11523, 33.34743
91.59735, 34.96174
92.07947, 33.68357
92.56158, 30.34290
93.04370, 27.54859
93.52582, 27.30428
94.00793, 28.61833
94.49006, 28.83731
94.97218, 26.94331
95.45429, 25.62637
95.93641, 31.16485
96.41853, 43.34827
96.90064, 53.56849
97.38276, 54.47559
97.86488, 46.88752
98.34699, 39.61657
98.82911, 33.79115
99.31123, 29.37077
99.79334, 26.52258
100.2755, 25.47038
100.7576, 25.30240
101.2397, 25.35735
101.7218, 25.68321
102.2039, 26.02098
102.6861, 26.38840
103.1682, 26.78421
103.6503, 26.75733
104.1324, 26.08923
104.6145, 25.23997
105.0966, 24.78143
105.5788, 24.97532
106.0609, 25.10933
106.5430, 24.93707
107.0251, 24.27007
107.5072, 23.94751
107.9893, 23.77118
108.4715, 23.98885
108.9536, 25.05910
109.4357, 28.71440
109.9178, 31.68067
110.3999, 32.87642
110.8820, 31.01195
111.3642, 29.48902
111.8463, 28.20419
112.3284, 27.30952
112.8105, 27.19681
113.2926, 28.61765
113.7747, 30.36104
114.2569, 31.78028
114.7390, 31.71393
115.2211, 32.54170
115.7032, 35.64877
116.1853, 40.48112
116.6674, 44.21135
117.1496, 44.77529
117.6317, 44.39561
118.1138, 44.90621
118.5959, 46.84578
119.0780, 49.80144
119.5602, 53.64332
120.0423, 58.39302
120.5244, 63.88727
121.0065, 69.87688
121.4886, 76.59627
121.9707, 84.38947
122.4529, 95.81676
122.9350, 106.8512
123.4171, 113.2209
123.8992, 114.4180
124.3813, 115.2097
124.8634, 119.4476
125.3456, 126.2337
125.8277, 133.5602
126.3098, 140.9649
126.7919, 148.0869
127.2740, 154.0938
127.7561, 158.6927
128.2383, 163.0970
128.7204, 168.8564
129.2025, 175.7711
129.6846, 182.7928
130.1667, 188.8643
130.6488, 194.4352
131.1310, 201.3116
131.6131, 209.8291
132.0952, 219.4964
132.5773, 229.6642
133.0594, 240.3849
133.5415, 251.1638
134.0237, 261.7826
134.5058, 272.2949
134.9879, 282.7103
135.4700, 293.0648
135.9521, 303.3737
136.4343, 314.0470
136.9164, 325.1847
137.3985, 336.4245
137.8806, 347.9972
138.3627, 360.2593
138.8448, 370.8531
139.3270, 379.3137
139.8091, 385.8148
140.2912, 391.4834
140.7733, 395.9941
141.2554, 400.3375
141.7375, 405.5763
142.2197, 412.1952
142.7018, 418.5477
143.1839, 424.1818
143.6660, 429.0112
144.1481, 434.0797
144.6302, 439.2658
145.1124, 444.7591
145.5945, 450.6082
146.0766, 456.3831
146.5587, 463.3218
147.0408, 472.3118
147.5230, 484.4900
148.0051, 494.0147
148.4872, 496.5803
148.9693, 494.2681
149.4514, 494.5548
149.9335, 500.2430
150.4157, 505.5474
150.8978, 508.7717
151.3799, 509.1316
151.8620, 509.3766
152.3441, 509.5040
152.8262, 509.5411
153.3084, 509.5244
153.7905, 510.6487
154.2726, 510.7620
154.7547, 508.9852
155.2368, 504.1222
155.7189, 499.3530
156.2011, 494.6160
156.6832, 490.1466
157.1653, 486.6915
157.6474, 485.7525
158.1295, 484.8578
158.6116, 482.7230
159.0938, 478.3394
159.5759, 473.8201
160.0580, 469.2402
160.5401, 464.8115
161.0222, 461.2964
161.5044, 459.2624
161.9865, 458.0110
162.4686, 457.1078
162.9507, 457.2015
163.4328, 456.7718
163.9149, 454.8192
164.3971, 451.6406
164.8792, 448.7871
165.3613, 447.1298
165.8434, 446.0555
166.3255, 444.9971
166.8076, 443.4569
167.2898, 442.1823
167.7719, 441.9472
168.2540, 442.6017
168.7361, 442.8019
169.2182, 441.1190
169.7003, 438.7282
170.1825, 437.0331
170.6646, 437.4356
171.1467, 438.1206
171.6288, 437.4305
172.1109, 435.4171
172.5931, 433.4367
173.0752, 432.5984
173.5573, 432.4168
174.0394, 432.1091
174.5215, 430.6471
175.0036, 429.2545
175.4858, 427.1014
175.9679, 429.1998
176.4500, 430.1302
176.9321, 429.9554
177.4142, 425.3649
177.8963, 426.4763
178.3785, 425.3026
178.8606, 424.0352
179.3427, 425.9492
179.8248, 422.0009
180.3069, 423.8644
180.7890, 423.4080
181.2712, 424.0132
181.7533, 422.3194
182.2354, 421.9688
182.7175, 422.4290
183.1996, 422.4644
183.6818, 421.9904
184.1639, 421.4091
184.6460, 421.1509
185.1281, 421.1843
185.6102, 421.3381
186.0923, 421.7810
186.5745, 422.3086
187.0566, 422.1716
187.5387, 421.2506
188.0208, 420.0031
188.5029, 418.8729
188.9850, 417.8822
189.4672, 417.2009
189.9493, 414.6805
190.4314, 416.8033
190.9135, 417.7581
191.3956, 417.6077
191.8777, 413.0416
192.3599, 414.1773
192.8420, 413.0280
193.3241, 411.7851
193.8062, 413.7234
194.2883, 409.7996
194.7704, 411.6874
195.2526, 410.5204
195.7347, 410.1937
196.2168, 410.1954
196.6989, 410.5385
197.1810, 410.9494
197.6632, 411.3983
198.1453, 411.8833
198.6274, 411.9035
199.1095, 411.3487
199.5916, 410.4311
200.0737, 409.4593
200.5559, 408.3637
201.0380, 407.6404
201.5201, 407.7780
202.0022, 408.8776
202.4843, 409.4576
202.9664, 409.2785
203.4486, 408.7177
203.9307, 408.5990
204.4128, 408.9507
204.8949, 409.6494
205.3770, 410.7279
205.8591, 412.2570
206.3413, 413.6550
206.8234, 414.8918
207.3055, 415.9697
207.7876, 416.8390
208.2697, 417.3910
208.7519, 418.0121
209.2340, 418.9533
209.7161, 420.2917
210.1982, 421.5000
210.6803, 422.4507
211.1624, 423.3078
211.6446, 424.5516
212.1267, 426.2681
212.6088, 428.1507
213.0909, 430.1770
213.5730, 432.5428
214.0551, 434.2940
214.5373, 435.2298
215.0194, 435.5991
215.5015, 436.0617
215.9836, 436.5175
216.4657, 437.2935
216.9478, 438.6581
217.4300, 440.8588
217.9121, 442.8778
218.3942, 444.7464
218.8763, 446.3572
219.3584, 447.2135
219.8405, 446.7299
220.3227, 446.5306
220.8048, 447.5482
221.2869, 450.3389
221.7690, 452.7835
222.2511, 454.8981
222.7333, 456.5898
223.2154, 457.4508
223.6975, 457.1478
224.1796, 456.6084
224.6617, 456.2293
225.1438, 455.9399
225.6260, 456.0781
226.1081, 456.9316
226.5902, 458.1613
227.0723, 458.6960
227.5544, 458.1069
228.0365, 457.5261
228.5187, 457.5870
229.0008, 458.8584
229.4829, 459.3858
229.9650, 459.1410
230.4471, 458.1242
230.9292, 456.2829
231.4114, 453.2025
231.8935, 449.8519
232.3756, 446.6725
232.8577, 443.6530
233.3398, 440.6859
233.8220, 437.8268
234.3041, 434.9869
234.7862, 432.0194
235.2683, 428.8759
235.7504, 425.7038
236.2325, 422.5349
236.7147, 419.4836
237.1968, 416.3059
237.6789, 412.9854
238.1610, 409.5681
238.6431, 406.1407
239.1252, 402.6061
239.6074, 399.1723
240.0895, 395.7956
240.5716, 392.1892
241.0537, 389.6385
241.5358, 388.6575
242.0179, 388.4805
242.5001, 387.6510
242.9822, 386.1242
243.4643, 383.9860
243.9464, 381.0841
244.4285, 376.9477
244.9106, 373.5365
245.3928, 370.9755
245.8749, 369.0202
246.3570, 367.2169
246.8391, 365.3245
247.3212, 363.9878
247.8034, 363.4836
248.2855, 363.9828
248.7676, 364.7267
249.2497, 366.3301
249.7318, 367.7489
250.2139, 367.2870
250.6961, 364.1357
251.1782, 360.5668
251.6603, 357.0015
252.1424, 353.2670
252.6245, 350.6145
253.1066, 349.4361
253.5888, 348.9697
254.0709, 348.1700
254.5530, 346.7409
255.0351, 345.5899
255.5172, 345.0753
255.9993, 345.2857
256.4815, 345.0373
256.9636, 343.8901
257.4457, 342.7548
257.9278, 342.9253
258.4099, 345.4340
258.8921, 346.8204
259.3742, 345.8189
259.8563, 342.3815
260.3384, 340.5117
260.8205, 340.9385
261.3026, 341.9880
261.7848, 341.8814
262.2669, 340.0463
262.7490, 338.6509
263.2311, 338.2039
263.7132, 338.6479
264.1953, 339.1671
264.6775, 339.8087
265.1596, 340.4405
265.6417, 340.9731
266.1238, 341.4375
266.6059, 341.6915
267.0880, 341.7077
267.5702, 341.4912
268.0523, 340.9695
268.5344, 339.8926
269.0165, 339.0162
269.4986, 339.0800
269.9807, 340.4053
270.4629, 341.2257
270.9450, 341.2130
271.4271, 340.5546
271.9092, 339.8546
272.3913, 338.9321
272.8734, 338.4777
273.3556, 339.3550
273.8377, 341.9375
274.3198, 343.1150
274.8019, 342.1382
275.2840, 339.9169
275.7661, 339.0367
276.2483, 339.7442
276.7304, 340.7597
277.2125, 341.3810
277.6946, 341.5946
278.1768, 341.6860
278.6589, 341.6588
279.1410, 341.5419
279.6231, 341.4296
280.1052, 341.3490
280.5873, 341.0986
281.0695, 340.5030
281.5516, 339.5671
282.0337, 338.7119
282.5158, 337.9023
282.9979, 337.2740
283.4800, 337.1860
283.9622, 337.6679
284.4443, 337.9991
284.9264, 337.5832
285.4085, 336.5786
285.8906, 334.3518
286.3727, 336.9302
286.8549, 338.3407
287.3370, 338.6458
287.8191, 334.5354
288.3012, 336.1268
288.7833, 335.4332
289.2654, 334.6459
289.7476, 337.0398
290.2297, 333.5716
290.7118, 335.9151
291.1939, 335.9387
291.6760, 337.0240
292.1581, 335.8102
292.6403, 335.3065
293.1224, 337.1027
293.6045, 337.6254
294.0866, 336.1469
294.5687, 337.2997
295.0508, 333.7512
295.5330, 334.3282
296.0151, 336.6851
296.4972, 335.3222
296.9793, 336.5171
297.4614, 336.7379
297.9435, 332.5315
298.4257, 336.0243
298.9078, 336.1874
299.3899, 332.9318
299.8720, 336.1608
300.3541, 333.3765
300.8362, 332.7386
301.3184, 333.7159
301.8005, 333.0094
302.2826, 334.9576
302.7647, 334.3484
303.2469, 333.5106
303.7290, 333.6700
304.2111, 331.0036
304.6932, 333.5797
305.1753, 332.5747
305.6574, 333.3498
306.1396, 334.5283
306.6217, 332.6175
307.1038, 333.9774
307.5859, 330.2652
308.0680, 330.7969
308.5501, 330.8717
309.0323, 333.6591
309.5144, 329.9716
309.9965, 330.3855
310.4786, 332.5456
310.9607, 332.2623
311.4428, 333.0006
311.9250, 330.7144
312.4071, 331.2696
312.8892, 331.0415
313.3713, 333.5197
313.8534, 333.8614
314.3355, 331.6266
314.8177, 329.4027
315.2998, 332.0756
315.7819, 330.1073
316.2640, 330.6429
316.7461, 328.5924
317.2282, 328.7748
317.7104, 328.9218
318.1925, 330.2134
318.6746, 330.5179
319.1567, 329.6349
319.6388, 328.1442
320.1209, 326.8260
320.6031, 325.7793
321.0852, 325.0731
321.5673, 324.8104
322.0494, 325.2787
322.5315, 325.5532
323.0136, 325.3052
323.4958, 324.7737
323.9779, 324.3451
324.4600, 324.3510
324.9421, 324.2354
325.4242, 323.7533
325.9064, 322.7763
326.3885, 321.9720
326.8706, 321.3961
327.3527, 321.0218
327.8348, 320.8111
328.3170, 320.8944
328.7991, 318.7885
329.2812, 320.7844
329.7633, 321.6122
330.2454, 321.3348
330.7275, 316.6417
331.2097, 317.6505
331.6918, 316.3742
332.1739, 315.0042
332.6560, 316.8156
333.1381, 312.7647
333.6202, 314.5256
334.1024, 313.9665
334.5845, 314.4691
335.0666, 312.6727
335.5487, 311.5864
336.0308, 312.8000
336.5129, 312.7401
336.9951, 310.6789
337.4772, 311.2491
337.9593, 307.1180
338.4414, 307.1124
338.9235, 308.8867
339.4056, 306.9412
339.8878, 307.5533
340.3699, 307.1914
340.8520, 302.4025
341.3341, 305.3127
341.8162, 302.4398
342.2983, 301.7769
342.7805, 301.3513
343.2626, 301.2353
343.7447, 301.3129
344.2268, 300.9403
344.7089, 300.0524
345.1910, 299.0325
345.6732, 298.2099
346.1553, 297.5600
346.6374, 297.0162
347.1195, 296.5755
347.6016, 296.2086
348.0837, 295.9500
348.5659, 295.7831
349.0480, 295.4219
349.5301, 294.5022
350.0122, 293.2481
350.4944, 292.2477
350.9765, 291.5876
351.4586, 291.1728
351.9407, 290.9399
352.4228, 290.8768
352.9049, 290.9362
353.3871, 291.2108
353.8692, 291.5446
354.3513, 291.7810
354.8334, 291.9158
355.3155, 291.8315
355.7976, 291.1178
356.2798, 290.1667
356.7619, 289.6054
357.2440, 290.0492
357.7261, 290.6725
358.2082, 290.9479
358.6903, 290.8862
359.1725, 290.5830
359.6546, 289.6006
360.1367, 288.6411
360.6188, 288.4012
361.1009, 289.5897
361.5830, 290.6680
362.0652, 290.8255
362.5473, 290.3697
363.0294, 290.0575
363.5115, 290.6577
363.9936, 291.0749
364.4757, 290.6298
364.9579, 286.9015
365.4400, 289.5519
365.9221, 291.0343
366.4042, 291.4115
366.8863, 287.3730
367.3684, 289.0363
367.8506, 288.4147
368.3327, 287.6993
368.8148, 290.1652
369.2969, 286.7690
369.7790, 289.1844
370.2611, 289.2799
370.7433, 290.4372
371.2254, 289.2953
371.7075, 289.1847
372.1896, 288.6295
372.6717, 287.3155
373.1538, 286.5691
373.6360, 286.6561
374.1181, 286.8703
374.6002, 286.8560
375.0823, 286.4970
375.5645, 286.3231
376.0466, 286.3730
376.5287, 286.5656
377.0108, 286.8257
377.4929, 287.1995
377.9750, 287.4061
378.4572, 287.3268
378.9393, 286.9872
379.4214, 286.6434
379.9035, 286.3441
380.3856, 285.8590
380.8677, 284.6833
381.3499, 282.9103
381.8320, 281.8413
382.3141, 281.9679
382.7962, 282.6985
383.2783, 282.8563
383.7604, 282.4531
384.2426, 281.7749
384.7247, 280.7798
385.2068, 279.6677
385.6889, 278.9380
386.1710, 278.7328
386.6531, 278.5589
387.1353, 277.9101
387.6174, 276.8721
388.0995, 275.6700
388.5816, 274.2307
389.0637, 272.7772
389.5458, 271.4781
390.0280, 270.3314
390.5101, 269.4010
390.9922, 268.7682
391.4743, 268.3602
391.9564, 268.1060
392.4385, 268.1767
392.9207, 268.1649
393.4028, 267.7781
393.8849, 267.1267
394.3670, 266.5385
394.8491, 266.3696
395.3312, 266.1297
395.8134, 265.5018
396.2955, 264.2920
396.7776, 263.1180
397.2597, 262.0727
397.7418, 261.1603
398.2239, 260.3808
398.7061, 259.8367
399.1882, 259.3326
399.6703, 258.7885
400.1524, 258.1948
400.6346, 257.8107
401.1167, 258.0164
401.5988, 258.1092
402.0809, 257.5619
402.5630, 255.8452
403.0451, 254.5273
403.5273, 253.8420
404.0094, 253.5871
404.4915, 253.2471
404.9736, 252.8744
405.4557, 252.2713
405.9378, 251.2366
406.4200, 249.7036
406.9021, 248.5209
407.3842, 247.7495
407.8663, 247.2157
408.3484, 246.7654
408.8305, 246.4021
409.3127, 245.9594
409.7948, 245.2817
410.2769, 244.5637
410.7590, 244.5121
411.2411, 245.1350
411.7232, 245.6586
412.2054, 245.2957
412.6875, 244.3727
413.1696, 243.8517
413.6517, 243.9378
414.1338, 244.1940
414.6159, 244.1563
415.0981, 243.8799
415.5802, 243.5158
416.0623, 242.7679
416.5444, 242.1793
417.0265, 242.4567
417.5086, 243.6056
417.9908, 244.8164
418.4729, 245.7590
418.9550, 246.4103
419.4371, 246.7045
419.9192, 246.1606
420.4013, 245.8299
420.8835, 246.1675
421.3656, 247.0674
421.8477, 248.2228
422.3298, 250.0420
422.8119, 251.6834
423.2940, 252.6791
423.7762, 252.6800
424.2583, 252.9581
424.7404, 253.9064
425.2225, 255.0953
425.7047, 256.0381
426.1868, 256.1590
426.6689, 256.7887
427.1510, 258.2733
427.6331, 260.5360
428.1152, 259.6923
428.5974, 262.5594
429.0795, 264.2585
429.5616, 264.8524
430.0437, 261.0306
430.5258, 262.9106
431.0079, 262.5056
431.4901, 262.0070
431.9722, 264.6896
432.4543, 264.7672
432.9364, 265.5471
433.4185, 266.3764
433.9006, 267.1935
434.3828, 267.6245
434.8649, 267.6422
435.3470, 267.6132
435.8291, 268.0256
436.3112, 268.6879
436.7933, 268.8959
437.2755, 268.3393
437.7576, 267.6636
438.2397, 267.8867
438.7218, 268.7389
439.2039, 269.3106
439.6860, 268.8811
440.1682, 268.0454
440.6503, 265.2011
441.1324, 267.5571
441.6145, 268.7449
442.0966, 268.8276
442.5787, 264.4946
443.0609, 265.8634
443.5430, 264.9472
444.0251, 263.9373
444.5072, 266.1087
444.9893, 262.4179
445.4714, 264.5388
445.9536, 264.3398
446.4357, 265.2026
446.9178, 263.7662
447.3999, 263.1400
447.8820, 262.9833
448.3641, 262.1086
448.8463, 260.9267
449.3284, 259.8247
449.8105, 258.6683
450.2926, 257.8775
450.7747, 257.5891
451.2569, 257.7400
451.7390, 257.8181
452.2211, 255.3740
452.7032, 257.7394
453.1853, 258.9368
453.6674, 259.0290
454.1496, 254.7054
454.6317, 256.0838
455.1138, 255.1771
455.5959, 254.1768
456.0780, 256.3576
456.5602, 252.6763
457.0423, 254.8068
457.5244, 254.6173
458.0065, 255.4896
458.4886, 254.0628
458.9707, 253.3460
459.4529, 254.9291
459.9350, 255.2388
460.4171, 253.5473
460.8992, 254.4871
461.3813, 250.7256
461.8634, 251.0895
462.3456, 253.2333
462.8277, 251.6574
463.3098, 252.6392
463.7919, 252.6469
464.2740, 248.2276
464.7561, 251.5073
465.2383, 251.4574
465.7204, 247.9887
466.2025, 251.0046
466.6846, 248.0073
467.1667, 247.1563
467.6488, 247.9207
468.1310, 247.0010
468.6131, 248.7363
469.0952, 247.9140
469.5773, 246.8631
470.0594, 246.8095
470.5415, 243.9301
471.0237, 246.2931
471.5058, 245.0751
471.9879, 245.6371
472.4700, 245.8074
472.9521, 245.8935
473.4342, 245.3807
473.9164, 244.9461
474.3985, 244.7165
474.8806, 244.4466
475.3627, 243.6628
475.8448, 242.4057
476.3270, 241.0698
476.8091, 239.4682
477.2912, 238.0544
477.7733, 238.2188
478.2554, 239.8370
478.7375, 241.0202
479.2197, 239.7923
479.7018, 237.4377
480.1839, 235.6577
480.6660, 234.7541
481.1481, 234.5741
481.6302, 236.0236
482.1124, 237.9883
482.5945, 238.5819
483.0766, 235.6687
483.5587, 232.5565
484.0408, 230.6531
484.5229, 229.9901
485.0051, 229.5935
485.4872, 229.3784
485.9693, 229.3144
486.4514, 229.4450
486.9335, 230.4985
487.4156, 230.4557
487.8978, 228.7551
488.3799, 226.2630
488.8620, 224.2444
489.3441, 222.7300
489.8262, 221.6340
490.3083, 221.0535
490.7905, 220.8939
491.2726, 220.5535
491.7547, 220.0808
492.2368, 219.1863
492.7189, 217.2722
493.2010, 214.5605
493.6832, 212.9182
494.1653, 212.6675
494.6474, 212.8397
495.1295, 212.2652
495.6116, 211.0986
496.0938, 209.8139
496.5759, 208.4916
497.0580, 207.2208
497.5401, 206.1090
498.0222, 205.1425
498.5044, 204.3091
498.9865, 203.8752
499.4686, 203.3880
499.9507, 202.3818
500.4328, 200.5997
500.9149, 199.0540
501.3971, 198.3747
501.8792, 197.9937
502.3613, 197.2526
502.8434, 195.4182
503.3255, 193.9170
503.8076, 193.1333
504.2898, 192.9075
504.7719, 192.5182
505.2540, 191.9247
505.7361, 191.2268
506.2182, 190.4852
506.7003, 189.7361
507.1825, 188.6233
507.6646, 184.8013
508.1467, 186.6986
508.6288, 187.4278
509.1109, 187.0518
509.5930, 182.2602
510.0752, 183.1702
510.5573, 181.7954
511.0394, 180.3269
511.5215, 182.0396
512.0037, 177.8900
512.4858, 179.5524
512.9679, 178.8948
513.4500, 179.2989
513.9321, 177.4038
514.4142, 176.2190
514.8964, 175.3420
515.3785, 174.7752
515.8606, 173.8578
516.3427, 171.9206
516.8248, 170.5338
517.3069, 170.8651
517.7891, 172.0920
518.2712, 172.6925
518.7533, 171.7839
519.2354, 170.7660
519.7175, 170.1911
520.1996, 170.0465
520.6818, 169.1226
521.1639, 166.4374
521.6460, 164.1804
522.1281, 161.8066
522.6102, 164.3039
523.0923, 165.6333
523.5745, 165.8572
524.0566, 161.6656
524.5387, 163.1759
525.0208, 162.4011
525.5029, 161.5327
525.9850, 163.8455
526.4672, 160.2961
526.9493, 162.5584
527.4314, 162.5008
527.9135, 163.5050
528.3956, 162.2100
528.8777, 161.6252
529.3599, 163.3402
529.8420, 163.7818
530.3241, 162.2222
530.8062, 160.8659
531.2883, 160.3303
531.7704, 160.0599
532.2526, 160.5990
532.7347, 160.9212
533.2168, 160.5738
533.6989, 159.7889
534.1810, 159.1005
534.6631, 158.3987
535.1453, 158.0143
535.6274, 158.1886
536.1095, 158.9497
536.5916, 159.2478
537.0737, 158.8058
537.5558, 158.3344
538.0380, 158.4784
538.5201, 159.4389
539.0022, 159.4626
539.4843, 158.1629
539.9664, 156.5743
540.4485, 156.3834
540.9307, 157.4322
541.4128, 158.4425
541.8949, 159.0781
542.3770, 159.3415
542.8591, 159.1055
543.3412, 158.4428
543.8234, 157.7345
544.3055, 157.0647
544.7876, 156.5453
545.2697, 156.2965
545.7518, 156.3333
546.2339, 156.5771
546.7161, 157.2431
547.1982, 157.9641
547.6803, 158.4244
548.1624, 158.1499
548.6445, 158.1279
549.1266, 158.8694
549.6088, 159.8996
550.0909, 160.2271
550.5730, 159.3415
551.0551, 158.5872
551.5372, 158.3728
552.0193, 158.6308
552.5015, 158.5905
552.9836, 158.0951
553.4657, 157.8548
553.9478, 158.5108
554.4299, 159.9611
554.9120, 161.2112
555.3942, 162.2149
555.8763, 162.8976
556.3584, 162.9061
556.8405, 162.5133
557.3226, 162.4177
557.8047, 162.8575
558.2869, 163.6283
558.7690, 164.8234
559.2511, 166.2183
559.7332, 167.2311
560.2154, 166.9543
560.6975, 166.7849
561.1796, 167.6828
561.6617, 169.7192
562.1439, 171.2718
562.6260, 171.7686
563.1081, 171.8707
563.5902, 171.9154
564.0723, 171.4891
564.5544, 171.9418
565.0366, 173.6041
565.5187, 175.8274
566.0008, 177.7795
566.4829, 179.4778
566.9650, 180.8631
567.4471, 181.8360
567.9293, 182.5696
568.4114, 183.2580
568.8935, 183.9428
569.3756, 185.2328
569.8577, 188.1606
570.3398, 191.6898
570.8220, 193.9641
571.3041, 194.9929
571.7862, 195.1991
572.2683, 194.2285
572.7504, 192.9375
573.2325, 192.2305
573.7147, 192.5426
574.1968, 192.7790
574.6789, 192.5802
575.1610, 192.0648
575.6431, 191.3804
576.1252, 189.9168
576.6074, 189.0766
577.0895, 189.4792
577.5716, 190.6657
578.0537, 190.8135
578.5358, 189.5367
579.0179, 188.1111
579.5001, 186.9634
579.9822, 186.0867
580.4643, 185.6406
580.9464, 185.6871
581.4285, 185.7312
581.9106, 185.2145
582.3928, 184.3353
582.8749, 183.7735
583.3570, 183.6441
583.8391, 183.6923
584.3212, 183.7763
584.8033, 183.8452
585.2855, 183.8099
