##NAMES=Fupingqiuite
##RRUFFID=R160033
##IDEAL CHEMISTRY=(Na,Mn^2+^,[box])_2_Mn^2+^_2_Fe^3+^(PO_4_)_3_
##LOCALITY=Nancy Pegmatite, Argentina
##OWNER=RRUFF
##SOURCE=Jaroslav Hyrŝl
##DESCRIPTION=Brown crystals, associated with light brown fillowite.
##STATUS=The identification of this mineral is not yet confirmed.
##URL=rruff.info/R160033
##MEASURED CHEMISTRY=(Na_1.15_Mn^2+^_0. 36_Ca_0.05_)_Σ1.56_(Mn^2+^_1.20_Mg_0.41_Fe^2+^_0.39_)_Σ2.0_(Fe^3+^_0.78_Al_0.22_)_Σ1.0_(PO_4_)_3_
89.78320, 598.6121
90.26532, 598.4904
90.74744, 598.5626
91.22955, 597.7770
91.71167, 599.6243
92.19379, 611.1288
92.67590, 630.8622
93.15802, 646.7106
93.64014, 648.2122
94.12225, 638.8196
94.60437, 627.1643
95.08649, 613.7117
95.56860, 600.2415
96.05072, 592.6735
96.53284, 592.0859
97.01495, 591.7050
97.49707, 583.2760
97.97919, 567.0373
98.46130, 552.7248
98.94342, 542.6982
99.42554, 536.7456
99.90765, 534.9789
100.3898, 538.4441
100.8719, 543.6539
101.3540, 545.8752
101.8361, 545.0812
102.3182, 542.0735
102.8004, 536.4492
103.2825, 527.0758
103.7646, 520.2792
104.2467, 516.1464
104.7288, 514.4055
105.2109, 514.4025
105.6931, 515.3833
106.1752, 518.9300
106.6573, 525.7415
107.1394, 535.9456
107.6215, 548.9775
108.1036, 568.7428
108.5858, 592.7887
109.0679, 607.1932
109.5500, 608.3920
110.0321, 603.2216
110.5142, 595.3875
110.9963, 578.9904
111.4785, 566.5778
111.9606, 560.2775
112.4427, 559.8610
112.9248, 560.8539
113.4069, 562.8994
113.8890, 565.9029
114.3712, 569.8209
114.8533, 573.6009
115.3354, 579.1775
115.8175, 588.1519
116.2996, 601.0631
116.7817, 612.5764
117.2639, 621.0494
117.7460, 627.1455
118.2281, 631.6912
118.7102, 635.4683
119.1923, 637.5031
119.6744, 636.7116
120.1566, 632.5110
120.6387, 627.6833
121.1208, 623.2486
121.6029, 619.4064
122.0850, 616.6334
122.5671, 613.9981
123.0493, 613.0275
123.5314, 615.9358
124.0135, 624.2769
124.4956, 633.5115
124.9777, 641.1051
125.4598, 646.4922
125.9420, 647.3400
126.4241, 638.5729
126.9062, 624.6119
127.3883, 613.5804
127.8704, 607.5583
128.3525, 604.6486
128.8347, 601.9013
129.3168, 599.3961
129.7989, 598.6533
130.2810, 602.5059
130.7631, 609.6307
131.2452, 614.6204
131.7274, 615.4129
132.2095, 613.5286
132.6916, 613.5920
133.1737, 615.9969
133.6558, 617.5971
134.1379, 614.3782
134.6201, 606.4304
135.1022, 599.3407
135.5843, 594.8026
136.0664, 592.5773
136.5485, 591.1434
137.0306, 590.5429
137.5128, 590.6374
137.9949, 591.1572
138.4770, 592.0128
138.9591, 593.7581
139.4412, 596.5797
139.9233, 600.4529
140.4055, 605.9789
140.8876, 615.1152
141.3697, 623.8647
141.8518, 625.0400
142.3339, 615.8542
142.8160, 605.3826
143.2982, 596.5956
143.7803, 589.7155
144.2624, 584.0722
144.7445, 579.7883
145.2266, 576.7220
145.7087, 574.7560
146.1909, 574.2972
146.6730, 574.3827
147.1551, 574.6355
147.6372, 574.8934
148.1193, 575.6439
148.6014, 577.6957
149.0836, 580.3627
149.5657, 581.2909
150.0478, 578.9240
150.5299, 576.0603
151.0120, 573.8944
151.4941, 572.1387
151.9763, 571.4206
152.4584, 572.4500
152.9405, 574.7968
153.4226, 576.3193
153.9047, 576.2240
154.3868, 575.6682
154.8690, 575.2811
155.3511, 574.0770
155.8332, 574.1649
156.3153, 577.5230
156.7974, 583.4522
157.2795, 586.3146
157.7617, 582.2868
158.2438, 576.1456
158.7259, 571.3420
159.2080, 569.4759
159.6901, 568.2737
160.1722, 567.2955
160.6544, 566.5120
161.1365, 565.6017
161.6186, 564.0123
162.1007, 562.4312
162.5828, 561.4552
163.0649, 560.8051
163.5471, 561.2012
164.0292, 563.8760
164.5113, 568.8609
164.9934, 572.5250
165.4755, 572.2488
165.9576, 569.8100
166.4398, 567.4228
166.9219, 565.8663
167.4040, 564.6567
167.8861, 563.3852
168.3682, 561.9958
168.8503, 561.0751
169.3325, 561.2810
169.8146, 562.1808
170.2967, 563.0676
170.7788, 563.3030
171.2609, 563.5898
171.7430, 565.0561
172.2252, 568.0054
172.7073, 570.1021
173.1894, 568.7158
173.6715, 564.9984
174.1536, 561.6022
174.6357, 559.9536
175.1179, 559.2112
175.6000, 558.4101
176.0821, 557.4776
176.5642, 556.5033
177.0463, 555.5737
177.5284, 554.6713
178.0106, 553.7610
178.4927, 552.5168
178.9748, 551.3167
179.4569, 551.0314
179.9390, 551.9515
180.4211, 552.9900
180.9033, 552.6934
181.3854, 551.3031
181.8675, 549.9680
182.3496, 549.4227
182.8317, 549.4146
183.3138, 549.2997
183.7960, 548.9841
184.2781, 548.6292
184.7602, 548.4344
185.2423, 548.3947
185.7244, 548.4976
186.2065, 548.6130
186.6887, 548.8348
187.1708, 549.7269
187.6529, 551.6379
188.1350, 553.6118
188.6171, 553.7092
189.0992, 551.9736
189.5814, 550.0956
190.0635, 549.0804
190.5456, 548.8484
191.0277, 549.0461
191.5098, 549.8331
191.9919, 550.7224
192.4741, 550.4225
192.9562, 548.8718
193.4383, 547.5188
193.9204, 547.5099
194.4025, 548.7657
194.8846, 549.9022
195.3668, 550.6974
195.8489, 551.3526
196.3310, 552.4903
196.8131, 554.1976
197.2952, 555.7068
197.7773, 556.3796
198.2595, 556.1843
198.7416, 556.1411
199.2237, 556.3845
199.7058, 556.8445
200.1879, 557.3575
200.6700, 557.9510
201.1522, 558.5192
201.6343, 558.9133
202.1164, 559.0926
202.5985, 559.5851
203.0806, 560.5399
203.5627, 561.7977
204.0449, 562.9255
204.5270, 563.9959
205.0091, 564.6852
205.4912, 564.5386
205.9733, 563.3182
206.4554, 562.7176
206.9376, 563.0922
207.4197, 564.1779
207.9018, 565.0031
208.3839, 565.5304
208.8660, 565.9026
209.3481, 566.1591
209.8303, 566.2423
210.3124, 566.5074
210.7945, 567.0211
211.2766, 567.7493
211.7587, 568.6394
212.2408, 569.8698
212.7230, 570.8958
213.2051, 571.1818
213.6872, 570.3055
214.1693, 570.2048
214.6514, 571.4202
215.1335, 573.5524
215.6157, 574.6316
216.0978, 574.2439
216.5799, 573.5491
217.0620, 573.2897
217.5441, 573.5866
218.0262, 573.9592
218.5084, 574.4201
218.9905, 574.9271
219.4726, 575.2903
219.9547, 575.6075
220.4368, 575.6412
220.9189, 575.0817
221.4011, 573.3929
221.8832, 572.6285
222.3653, 573.4405
222.8474, 575.3254
223.3295, 575.9268
223.8116, 574.6607
224.2938, 573.0294
224.7759, 571.9309
225.2580, 571.5996
225.7401, 571.2366
226.2222, 570.7161
226.7043, 570.1127
227.1865, 569.7650
227.6686, 569.8535
228.1507, 569.9285
228.6328, 569.7623
229.1149, 569.4009
229.5970, 568.6671
230.0792, 567.3917
230.5613, 565.7394
231.0434, 564.3715
231.5255, 563.2950
232.0076, 562.5319
232.4897, 562.1666
232.9719, 562.4661
233.4540, 562.5730
233.9361, 562.3381
234.4182, 561.9044
234.9003, 561.7975
235.3824, 562.2940
235.8646, 562.7225
236.3467, 562.7045
236.8288, 561.9202
237.3109, 561.3747
237.7930, 561.0723
238.2751, 561.0139
238.7573, 561.2640
239.2394, 562.0526
239.7215, 562.7925
240.2036, 563.1681
240.6857, 562.8395
241.1678, 562.9280
241.6500, 563.7089
242.1321, 564.8218
242.6142, 565.3163
243.0963, 564.7894
243.5784, 564.2325
244.0605, 564.1441
244.5427, 564.9489
245.0248, 565.0770
245.5069, 564.0731
245.9890, 562.5811
246.4711, 562.1168
246.9532, 563.3743
247.4354, 564.5214
247.9175, 564.7843
248.3996, 563.7984
248.8817, 563.1601
249.3638, 562.9961
249.8459, 563.1216
250.3281, 563.2276
250.8102, 563.4288
251.2923, 563.4207
251.7744, 562.9881
252.2565, 561.9082
252.7386, 561.3920
253.2208, 561.5780
253.7029, 562.2275
254.1850, 563.1005
254.6671, 564.6396
255.1492, 565.4982
255.6313, 564.9696
256.1135, 562.6960
256.5956, 561.4409
257.0777, 561.5127
257.5598, 562.2963
258.0419, 563.0336
258.5240, 563.7561
259.0062, 564.3162
259.4883, 564.6400
259.9704, 564.7047
260.4525, 564.7390
260.9346, 564.6422
261.4167, 564.6416
261.8989, 565.1623
262.3810, 566.6494
262.8631, 567.4408
263.3452, 566.8752
263.8273, 564.9647
264.3094, 564.0063
264.7916, 564.3179
265.2737, 565.0692
265.7558, 565.4745
266.2379, 565.4495
266.7200, 565.3618
267.2021, 565.2602
267.6843, 565.1498
268.1664, 565.0686
268.6485, 564.9922
269.1306, 564.9828
269.6127, 565.0591
270.0948, 565.1780
270.5770, 565.5652
271.0591, 566.3875
271.5412, 567.4808
272.0233, 568.1165
272.5054, 568.2526
272.9875, 567.9843
273.4697, 567.2260
273.9518, 565.8450
274.4339, 564.7806
274.9160, 564.1357
275.3981, 563.8852
275.8802, 564.1230
276.3624, 565.0319
276.8445, 565.7134
277.3266, 565.4063
277.8087, 564.0190
278.2908, 563.1148
278.7729, 562.9634
279.2551, 563.2020
279.7372, 562.9470
280.2193, 562.1163
280.7014, 561.3385
281.1835, 561.0621
281.6656, 561.2762
282.1478, 561.0761
282.6299, 560.2719
283.1120, 559.3526
283.5941, 559.2878
284.0762, 560.1258
284.5583, 560.8467
285.0405, 560.9799
285.5226, 560.5683
286.0047, 559.9223
286.4868, 558.9666
286.9689, 558.0314
287.4510, 557.5628
287.9332, 557.5470
288.4153, 557.7501
288.8974, 558.2604
289.3795, 558.9219
289.8616, 559.0711
290.3438, 558.6604
290.8259, 558.0529
291.3080, 557.5325
291.7901, 557.1221
292.2722, 556.9539
292.7543, 557.2209
293.2365, 557.6912
293.7186, 557.8725
294.2007, 557.7639
294.6828, 557.3528
295.1649, 556.3761
295.6470, 555.0452
296.1292, 554.0469
296.6113, 553.6854
297.0934, 553.6232
297.5755, 553.2584
298.0576, 552.6290
298.5397, 552.1425
299.0219, 552.2064
299.5040, 552.6247
299.9861, 553.0328
300.4682, 553.4791
300.9503, 553.6661
301.4324, 552.9992
301.9146, 551.6765
302.3967, 550.4863
302.8788, 549.9695
303.3609, 549.8829
303.8430, 549.9116
304.3251, 550.0280
304.8073, 550.1962
305.2894, 550.4655
305.7715, 550.7629
306.2536, 550.9231
306.7357, 550.5559
307.2178, 550.1508
307.7000, 550.3517
308.1821, 551.2718
308.6642, 552.0748
309.1463, 552.1067
309.6284, 551.6158
310.1105, 550.9895
310.5927, 549.9719
311.0748, 549.1824
311.5569, 549.3143
312.0390, 550.3661
312.5211, 551.1447
313.0032, 550.4994
313.4854, 549.4224
313.9675, 548.9766
314.4496, 550.3982
314.9317, 551.7492
315.4138, 552.0287
315.8959, 551.3779
316.3781, 550.6562
316.8602, 550.2431
317.3423, 549.9130
317.8244, 549.4834
318.3065, 548.6946
318.7886, 548.1210
319.2708, 547.9838
319.7529, 548.2120
320.2350, 548.6092
320.7171, 549.7260
321.1992, 550.5264
321.6813, 550.3331
322.1635, 548.3693
322.6456, 546.9747
323.1277, 546.8991
323.6098, 547.6130
324.0919, 548.2372
324.5740, 548.7667
325.0562, 549.0521
325.5383, 548.9430
326.0204, 548.2717
326.5025, 547.8795
326.9846, 548.2957
327.4667, 548.8312
327.9489, 548.7525
328.4310, 547.0251
328.9131, 545.8618
329.3952, 545.9493
329.8773, 547.3434
330.3594, 547.8116
330.8416, 546.6346
331.3237, 545.1431
331.8058, 544.2894
332.2879, 544.4944
332.7700, 544.6190
333.2521, 544.5550
333.7343, 544.3287
334.2164, 544.0531
334.6985, 543.6411
335.1806, 543.3071
335.6627, 543.2280
336.1448, 543.5992
336.6270, 543.5660
337.1091, 542.9140
337.5912, 541.9925
338.0733, 541.5458
338.5554, 541.7060
339.0375, 541.9340
339.5197, 541.9725
340.0018, 541.7987
340.4839, 541.9676
340.9660, 542.6120
341.4481, 543.3005
341.9302, 543.3455
342.4124, 542.6834
342.8945, 542.2424
343.3766, 542.4483
343.8587, 543.0865
344.3408, 543.0590
344.8229, 542.2712
345.3051, 541.4535
345.7872, 541.5764
346.2693, 542.4219
346.7514, 542.3661
347.2335, 540.6547
347.7156, 538.4286
348.1978, 538.1496
348.6799, 539.6910
349.1620, 541.4129
349.6441, 542.3531
350.1262, 542.6595
350.6083, 542.5023
351.0905, 541.7410
351.5726, 541.1301
352.0547, 541.9433
352.5368, 543.7090
353.0189, 544.9982
353.5010, 544.4364
353.9832, 543.3078
354.4653, 543.3842
354.9474, 544.7852
355.4295, 546.0919
355.9116, 546.2100
356.3937, 545.5098
356.8759, 544.5463
357.3580, 542.9041
357.8401, 541.5726
358.3222, 541.5489
358.8043, 542.6135
359.2864, 543.4547
359.7686, 543.0317
360.2507, 542.2659
360.7328, 541.9672
361.2149, 542.5470
361.6970, 543.2128
362.1791, 543.7623
362.6613, 544.1623
363.1434, 544.3434
363.6255, 544.3430
364.1076, 544.0604
364.5897, 543.3121
365.0718, 541.8470
365.5540, 540.7700
366.0361, 540.5681
366.5182, 540.7604
367.0003, 540.7712
367.4824, 540.7249
367.9645, 540.3085
368.4467, 539.2083
368.9288, 537.3975
369.4109, 536.1678
369.8930, 535.8734
370.3751, 535.9043
370.8572, 535.8879
371.3394, 536.0244
371.8215, 535.7693
372.3036, 534.8568
372.7857, 533.5291
373.2678, 532.6880
373.7499, 532.6058
374.2321, 532.4993
374.7142, 531.9472
375.1963, 530.7733
375.6784, 529.8856
376.1605, 529.3687
376.6426, 529.0262
377.1248, 528.6082
377.6069, 528.1176
378.0890, 527.4912
378.5711, 526.6595
379.0532, 525.6581
379.5353, 524.7557
380.0175, 523.9219
380.4996, 523.3107
380.9817, 523.3453
381.4638, 523.8956
381.9459, 523.7984
382.4280, 522.6627
382.9102, 520.9611
383.3923, 519.5535
383.8744, 518.4088
384.3565, 517.3643
384.8386, 516.2980
385.3207, 515.2576
385.8029, 514.4027
386.2850, 513.7584
386.7671, 513.1933
387.2492, 512.6100
387.7313, 511.9999
388.2134, 511.3546
388.6956, 510.7189
389.1777, 510.0310
389.6598, 509.1529
390.1419, 508.1095
390.6240, 507.1961
391.1061, 506.7109
391.5883, 506.4011
392.0704, 505.9995
392.5525, 505.4029
393.0346, 504.7579
393.5167, 504.0459
393.9988, 503.3238
394.4810, 502.7388
394.9631, 502.3066
395.4452, 502.0516
395.9273, 502.0031
396.4094, 502.2021
396.8915, 502.4824
397.3737, 503.0394
397.8558, 503.5800
398.3379, 503.7430
398.8200, 502.9492
399.3021, 502.3365
399.7842, 502.1874
400.2664, 502.4949
400.7485, 502.6581
401.2306, 502.3987
401.7127, 502.2506
402.1948, 502.6086
402.6769, 503.8719
403.1591, 504.7528
403.6412, 505.0825
404.1233, 505.0269
404.6054, 504.9778
405.0875, 504.9142
405.5696, 504.9300
406.0518, 505.1526
406.5339, 505.6019
407.0160, 505.6635
407.4981, 505.2675
407.9802, 504.7093
408.4623, 504.3192
408.9445, 504.0992
409.4266, 503.9164
409.9087, 503.7528
410.3908, 503.6050
410.8729, 503.4868
411.3550, 503.3989
411.8372, 503.2537
412.3193, 502.9416
412.8014, 502.5277
413.2835, 502.0851
413.7656, 501.5474
414.2477, 501.2591
414.7299, 501.8290
415.2120, 502.9483
415.6941, 503.8668
416.1762, 503.9168
416.6583, 503.8064
417.1404, 504.3070
417.6226, 505.3975
418.1047, 506.2543
418.5868, 506.3649
419.0689, 506.0238
419.5510, 505.4764
420.0331, 504.3784
420.5153, 503.6355
420.9974, 503.7816
421.4795, 504.5682
421.9616, 505.3617
422.4437, 506.0717
422.9258, 506.7180
423.4080, 507.2646
423.8901, 507.6377
424.3722, 508.2388
424.8543, 509.2612
425.3364, 510.4660
425.8185, 511.6239
426.3007, 512.8233
426.7828, 513.8546
427.2649, 514.4897
427.7470, 514.8619
428.2291, 515.9346
428.7112, 517.9481
429.1934, 520.2216
429.6755, 522.5070
430.1576, 524.8597
430.6397, 526.7718
431.1218, 528.0594
431.6039, 529.1608
432.0861, 530.8265
432.5682, 533.0904
433.0503, 535.4186
433.5324, 537.5847
434.0145, 539.7015
434.4966, 542.2784
434.9788, 545.3374
435.4609, 548.3317
435.9430, 550.6366
436.4251, 552.5428
436.9072, 554.8405
437.3893, 557.7280
437.8715, 560.9506
438.3536, 564.1409
438.8357, 567.4169
439.3178, 571.1065
439.7999, 575.8459
440.2820, 580.7910
440.7642, 585.2227
441.2463, 589.1316
441.7284, 592.4482
442.2105, 594.5101
442.6926, 596.2764
443.1747, 598.6871
443.6569, 602.6894
444.1390, 606.5305
444.6211, 609.6784
445.1032, 612.2508
445.5853, 614.4879
446.0674, 616.6946
446.5496, 618.3861
447.0317, 619.2849
447.5138, 619.1229
447.9959, 619.0988
448.4780, 619.6613
448.9601, 620.0804
449.4423, 619.6033
449.9244, 617.8826
450.4065, 616.0149
450.8886, 614.0676
451.3707, 612.1129
451.8528, 610.5324
452.3350, 609.5779
452.8171, 608.1698
453.2992, 605.5168
453.7813, 601.5781
454.2634, 597.6803
454.7455, 593.7079
455.2277, 590.0876
455.7098, 587.4531
456.1919, 585.7076
456.6740, 584.0861
457.1561, 582.5746
457.6382, 580.8827
458.1204, 578.3358
458.6025, 575.0350
459.0846, 571.8661
459.5667, 569.4485
460.0488, 567.4844
460.5309, 565.5091
461.0131, 563.3935
461.4952, 561.6203
461.9773, 560.9120
462.4594, 560.7014
462.9415, 560.1467
463.4236, 558.2375
463.9058, 556.5755
464.3879, 556.1674
464.8700, 556.8527
465.3521, 556.9886
465.8342, 555.4549
466.3163, 553.7809
466.7985, 552.8505
467.2806, 553.3376
467.7627, 553.4483
468.2448, 552.8810
468.7269, 552.0344
469.2090, 551.4758
469.6912, 551.3796
470.1733, 551.2451
470.6554, 550.9775
471.1375, 550.5775
471.6196, 550.0710
472.1017, 549.4720
472.5839, 548.7186
473.0660, 547.6802
473.5481, 546.3583
474.0302, 545.1541
474.5123, 544.0950
474.9944, 543.1866
475.4766, 542.5602
475.9587, 542.1594
476.4408, 541.5745
476.9229, 540.4764
477.4050, 539.2170
477.8871, 538.3489
478.3693, 537.8632
478.8514, 537.6386
479.3335, 537.7899
479.8156, 538.0718
480.2977, 538.1974
480.7798, 538.1069
481.2620, 537.8768
481.7441, 537.3846
482.2262, 536.8074
482.7083, 536.4090
483.1904, 536.2061
483.6725, 536.2478
484.1547, 536.6752
484.6368, 537.4435
485.1189, 538.0568
485.6010, 538.7100
486.0831, 538.9657
486.5652, 538.4874
487.0474, 536.3641
487.5295, 535.5305
488.0116, 536.7581
488.4937, 538.7122
488.9758, 539.4688
489.4579, 538.6506
489.9401, 537.7537
490.4222, 537.0147
490.9043, 536.4887
491.3864, 536.6072
491.8685, 537.5001
492.3506, 538.1392
492.8328, 537.6011
493.3149, 536.1594
493.7970, 535.0421
494.2791, 534.3585
494.7612, 533.9200
495.2433, 533.5264
495.7255, 533.2064
496.2076, 533.0519
496.6897, 533.5067
497.1718, 533.7503
497.6539, 532.6517
498.1360, 530.5629
498.6182, 528.8123
499.1003, 528.4549
499.5824, 528.4514
500.0645, 528.1674
500.5466, 527.5427
501.0287, 526.5219
501.5109, 524.5187
501.9930, 522.3568
502.4751, 520.8853
502.9572, 521.0132
503.4393, 520.8685
503.9214, 520.0927
504.4036, 518.8907
504.8857, 517.9849
505.3678, 517.5872
505.8499, 517.1033
506.3320, 516.2524
506.8141, 515.0035
507.2963, 513.9032
507.7784, 512.9791
508.2605, 512.1003
508.7426, 511.0333
509.2247, 509.8063
509.7068, 508.8916
510.1890, 508.4651
510.6711, 508.2189
511.1532, 507.7905
511.6353, 507.1373
512.1174, 506.0910
512.5995, 504.0154
513.0817, 501.7798
513.5638, 500.6307
514.0459, 500.5390
514.5280, 500.3509
515.0101, 499.0603
515.4922, 497.4728
515.9744, 496.4015
516.4565, 496.3389
516.9386, 496.1573
517.4207, 495.5918
517.9028, 494.6608
518.3849, 493.3924
518.8671, 491.0474
519.3492, 489.1734
519.8313, 488.2504
520.3134, 488.2098
520.7955, 487.9310
521.2776, 487.2957
521.7598, 486.5842
522.2419, 485.9409
522.7240, 485.3568
523.2061, 484.8949
523.6882, 484.6364
524.1703, 484.3180
524.6525, 483.4091
525.1346, 481.9663
525.6167, 480.9672
526.0988, 480.8226
526.5809, 481.1222
527.0630, 481.2403
527.5452, 481.1748
528.0273, 480.9055
528.5094, 480.3023
528.9915, 479.5532
529.4736, 478.7213
529.9557, 477.7921
530.4379, 477.2862
530.9200, 477.9629
531.4021, 478.9875
531.8842, 479.5134
532.3663, 478.8024
532.8484, 478.3281
533.3306, 478.5800
533.8127, 479.3013
534.2948, 479.9496
534.7769, 480.2902
535.2590, 480.7895
535.7411, 481.6507
536.2233, 482.8553
536.7054, 483.8194
537.1875, 484.6451
537.6696, 485.0365
538.1517, 484.4992
538.6339, 482.9008
539.1160, 482.3929
539.5981, 483.2805
540.0802, 484.7549
540.5623, 485.8327
541.0444, 486.5723
541.5266, 487.3124
542.0087, 488.0688
542.4908, 488.9757
542.9729, 490.1026
543.4550, 491.4947
543.9371, 493.3717
544.4193, 496.5861
544.9014, 499.8675
545.3835, 502.0000
545.8656, 502.8215
546.3477, 503.7154
546.8298, 505.4045
547.3120, 507.3327
547.7941, 509.0226
548.2762, 510.0430
548.7583, 511.3256
549.2404, 513.2343
549.7225, 515.3544
550.2047, 516.9643
550.6868, 517.8413
551.1689, 518.6224
551.6510, 519.3713
552.1331, 520.1391
552.6152, 521.3071
553.0974, 522.9531
553.5795, 524.6455
554.0616, 526.1489
554.5437, 527.4762
555.0258, 528.6471
555.5079, 529.6636
555.9901, 530.6041
556.4722, 531.4647
556.9543, 532.3344
557.4364, 533.4572
557.9185, 535.2224
558.4006, 536.7397
558.8828, 536.8911
559.3649, 536.2501
559.8470, 536.1547
560.3291, 537.8632
560.8112, 539.5565
561.2933, 540.2418
561.7755, 539.8618
562.2576, 539.9017
562.7397, 541.0038
563.2218, 542.2030
563.7039, 543.0580
564.1860, 543.5416
564.6682, 543.7425
565.1503, 543.6140
565.6324, 543.2798
566.1145, 542.8998
566.5966, 542.4853
567.0787, 541.9109
567.5609, 540.9763
568.0430, 540.1083
568.5251, 540.6124
569.0072, 542.2933
569.4893, 543.5186
569.9714, 542.9531
570.4536, 541.6135
570.9357, 540.7387
571.4178, 540.3760
571.8999, 540.7119
572.3820, 542.5784
572.8641, 544.7902
573.3463, 546.2654
573.8284, 546.6625
574.3105, 546.7470
574.7926, 546.1347
575.2747, 545.5498
575.7568, 545.9262
576.2390, 548.4562
576.7211, 550.4203
577.2032, 551.0811
577.6853, 550.9993
578.1674, 552.1893
578.6495, 555.0620
579.1317, 558.0189
579.6138, 560.4608
580.0959, 562.4221
580.5780, 564.1423
581.0601, 565.6335
581.5422, 566.9440
582.0244, 568.0250
582.5065, 568.9758
582.9886, 569.9677
583.4707, 571.0078
583.9528, 572.2752
584.4349, 573.7805
