##NAMES=Fupingqiuite
##RRUFFID=R160052
##IDEAL CHEMISTRY=(Na,Mn^2+^,[box])_2_Mn^2+^_2_Fe^3+^(PO_4_)_3_
##LOCALITY=Nancy Pegmatite, Chacabuco Dept, San Luis, Argentina
##OWNER=RRUFF
##SOURCE=Donald Doell
##DESCRIPTION=Dark green or brown crystals with good cleavage. Type sample
##STATUS=The identification of this mineral is confirmed by single-crystal X-ray diffraction and chemical analysis.
##URL=rruff.info/R160052
##MEASURED CHEMISTRY=(Na_0.98_Mn_0.46_Ca_0.03_)_Σ1.47_(Mn_1.32_Mg_0.44_Fe^2+^_0.20_Fe^3+^_0.04_)_Σ2.00_(Fe^3+^_0.88_Al_0.12_)_Σ1.00_(P_1.00_O_4_)_3_
89.01367, 379.8325
89.49579, 382.3144
89.97791, 382.8963
90.46002, 380.5328
90.94214, 378.3483
91.42426, 380.9279
91.90637, 387.6805
92.38849, 393.1000
92.87061, 392.5590
93.35272, 387.5281
93.83484, 381.6024
94.31696, 374.7446
94.79907, 368.0074
95.28119, 364.7208
95.76331, 365.4383
96.24542, 366.9124
96.72754, 365.5668
97.20966, 361.4823
97.69177, 357.7953
98.17389, 355.4329
98.65601, 354.2903
99.13812, 353.5323
99.62024, 353.3149
100.1024, 353.1485
100.5845, 352.3836
101.0666, 351.0374
101.5487, 349.1409
102.0308, 346.4894
102.5129, 342.7466
102.9951, 340.0095
103.4772, 338.9615
103.9593, 338.6123
104.4414, 336.5192
104.9235, 331.8633
105.4056, 326.8123
105.8878, 322.0336
106.3699, 315.5717
106.8520, 312.6574
107.3341, 315.4716
107.8162, 322.6099
108.2983, 326.4993
108.7805, 326.5468
109.2626, 324.0407
109.7447, 319.7038
110.2268, 310.0455
110.7089, 302.4874
111.1910, 298.3279
111.6732, 297.4336
112.1553, 297.0244
112.6374, 296.3025
113.1195, 296.0790
113.6016, 297.0033
114.0837, 299.2245
114.5659, 302.5543
115.0480, 307.1974
115.5301, 313.3059
116.0122, 319.5044
116.4943, 325.9916
116.9764, 332.1908
117.4586, 337.3650
117.9407, 341.8587
118.4228, 344.8626
118.9049, 345.6482
119.3870, 343.9234
119.8691, 341.0290
120.3513, 337.0004
120.8334, 332.3791
121.3155, 328.3056
121.7976, 324.6026
122.2797, 322.0433
122.7618, 321.7306
123.2440, 324.4153
123.7261, 327.9073
124.2082, 331.4164
124.6903, 334.4004
125.1724, 334.7145
125.6545, 328.8652
126.1367, 319.6200
126.6188, 312.0269
127.1009, 307.2787
127.5830, 304.4300
128.0651, 302.0297
128.5472, 300.1120
129.0294, 299.3837
129.5115, 301.3257
129.9936, 305.2049
130.4757, 307.9973
130.9578, 308.4645
131.4399, 307.5821
131.9221, 308.1942
132.4042, 310.5082
132.8863, 312.9444
133.3684, 313.8470
133.8505, 313.2417
134.3326, 312.6992
134.8148, 313.0611
135.2969, 314.0305
135.7790, 313.1758
136.2611, 310.1902
136.7432, 306.0675
137.2253, 301.5669
137.7075, 296.4271
138.1896, 292.1185
138.6717, 288.9767
139.1538, 287.0121
139.6359, 286.6767
140.1180, 288.8080
140.6002, 291.7013
141.0823, 292.4264
141.5644, 290.1980
142.0465, 287.5674
142.5286, 285.3934
143.0107, 283.7956
143.4929, 282.3172
143.9750, 280.8693
144.4571, 279.5740
144.9392, 278.7758
145.4213, 278.6321
145.9034, 278.7699
146.3856, 279.0590
146.8677, 279.5716
147.3498, 280.1259
147.8319, 280.8918
148.3140, 281.7274
148.7961, 282.1567
149.2783, 281.8793
149.7604, 281.4314
150.2425, 281.0404
150.7246, 280.3171
151.2067, 280.1042
151.6888, 280.9934
152.1710, 282.6311
152.6531, 283.2661
153.1352, 281.9692
153.6173, 280.1512
154.0994, 278.5801
154.5815, 277.3354
155.0637, 276.3478
155.5458, 276.1295
156.0279, 276.4725
156.5100, 275.7066
156.9921, 272.4681
157.4742, 268.5270
157.9564, 265.1624
158.4385, 262.9088
158.9206, 261.0391
159.4027, 259.2588
159.8848, 257.5883
160.3669, 256.4723
160.8491, 256.3561
161.3312, 256.7495
161.8133, 257.1972
162.2954, 257.4365
162.7775, 257.7928
163.2596, 258.6222
163.7418, 259.9337
164.2239, 260.8441
164.7060, 260.8102
165.1881, 260.1439
165.6702, 259.2368
166.1523, 257.9158
166.6345, 256.6168
167.1166, 255.6611
167.5987, 255.0696
168.0808, 254.6075
168.5629, 254.0999
169.0450, 253.6251
169.5272, 253.3156
170.0093, 252.8985
170.4914, 252.8564
170.9735, 254.0185
171.4556, 256.6151
171.9377, 258.8268
172.4199, 258.9171
172.9020, 257.5016
173.3841, 255.9775
173.8662, 255.0156
174.3483, 254.2995
174.8304, 253.3650
175.3126, 252.1197
175.7947, 251.0157
176.2768, 250.7759
176.7589, 251.1103
177.2410, 251.1347
177.7231, 249.8418
178.2053, 248.0500
178.6874, 247.3218
179.1695, 247.9869
179.6516, 248.9929
180.1337, 249.0586
180.6158, 248.3457
181.0980, 247.6215
181.5801, 247.2781
182.0622, 247.2490
182.5443, 247.4219
183.0264, 247.8521
183.5085, 248.2884
183.9907, 248.1470
184.4728, 247.5245
184.9549, 247.2477
185.4370, 248.1349
185.9191, 249.8442
186.4012, 251.0802
186.8834, 251.6351
187.3655, 251.8050
187.8476, 252.0273
188.3297, 252.3021
188.8118, 252.5848
189.2939, 252.9082
189.7761, 253.2474
190.2582, 253.3523
190.7403, 253.1039
191.2224, 252.7558
191.7045, 252.8877
192.1866, 253.5173
192.6688, 254.2198
193.1509, 254.8053
193.6330, 255.2617
194.1151, 255.2961
194.5972, 254.6810
195.0793, 253.8385
195.5615, 253.8676
196.0436, 254.8544
196.5257, 256.0485
197.0078, 256.9846
197.4899, 257.6516
197.9720, 258.2508
198.4542, 258.7259
198.9363, 259.2056
199.4184, 260.0435
199.9005, 261.2764
200.3826, 262.7500
200.8647, 264.4231
201.3469, 266.3200
201.8290, 268.1770
202.3111, 269.9107
202.7932, 271.5948
203.2753, 273.4832
203.7574, 275.6414
204.2396, 277.7818
204.7217, 279.6528
205.2038, 281.1837
205.6859, 282.8680
206.1680, 284.7950
206.6501, 286.9000
207.1323, 289.0533
207.6144, 291.3206
208.0965, 293.4804
208.5786, 295.1538
209.0607, 296.0526
209.5428, 297.8884
210.0250, 301.1802
210.5071, 305.4904
210.9892, 309.0351
211.4713, 311.4564
211.9534, 313.8869
212.4355, 317.2296
212.9176, 321.8658
213.3998, 326.0933
213.8819, 329.6117
214.3640, 332.5716
214.8461, 335.5452
215.3282, 338.6497
215.8103, 341.5775
216.2925, 344.1505
216.7746, 346.3219
217.2567, 348.3230
217.7388, 350.4236
218.2209, 352.4019
218.7030, 353.0400
219.1852, 352.0220
219.6673, 350.2375
220.1494, 348.2093
220.6315, 345.8442
221.1136, 343.4311
221.5957, 340.8559
222.0779, 338.2515
222.5600, 336.1089
223.0421, 334.6109
223.5242, 333.3621
224.0063, 332.1493
224.4884, 330.9906
224.9706, 329.8352
225.4527, 328.6337
225.9348, 327.4272
226.4169, 326.3109
226.8990, 325.1890
227.3811, 324.3253
227.8633, 323.9406
228.3454, 324.3114
228.8275, 324.5185
229.3096, 324.5166
229.7917, 324.3138
230.2738, 323.9143
230.7560, 323.2260
231.2381, 322.4968
231.7202, 321.8923
232.2023, 321.5629
232.6844, 321.0365
233.1665, 320.2674
233.6487, 319.2919
234.1308, 318.2389
234.6129, 317.2047
235.0950, 315.9549
235.5771, 314.3207
236.0592, 312.0214
236.5414, 309.9548
237.0235, 308.2023
237.5056, 306.6738
237.9877, 305.1744
238.4698, 303.7646
238.9520, 302.2798
239.4341, 300.6013
239.9162, 298.5542
240.3983, 296.6933
240.8804, 295.0219
241.3625, 293.5389
241.8447, 292.2382
242.3268, 291.2346
242.8089, 290.2539
243.2910, 289.1962
243.7731, 288.0397
244.2552, 286.8312
244.7374, 285.4485
245.2195, 284.0624
245.7016, 283.0696
246.1837, 282.5534
246.6658, 282.2885
247.1479, 282.2667
247.6301, 282.6664
248.1122, 282.7188
248.5943, 282.2358
249.0764, 281.5193
249.5585, 281.1201
250.0406, 281.1140
250.5228, 281.3058
251.0049, 281.6845
251.4870, 282.3312
251.9691, 282.8065
252.4512, 283.0411
252.9333, 283.1558
253.4155, 283.2830
253.8976, 283.2191
254.3797, 283.5735
254.8618, 284.6698
255.3439, 286.6715
255.8260, 288.2381
256.3082, 289.2296
256.7903, 289.8917
257.2724, 290.4807
257.7545, 290.8249
258.2366, 291.4694
258.7188, 292.6837
259.2009, 294.5023
259.6830, 295.9881
260.1651, 296.9906
260.6472, 297.8271
261.1293, 298.9020
261.6115, 300.3694
262.0936, 301.6406
262.5757, 302.4932
263.0578, 302.9453
263.5399, 303.7421
264.0220, 305.2258
264.5042, 306.5456
264.9863, 306.8206
265.4684, 305.7937
265.9505, 304.5600
266.4326, 303.2985
266.9147, 302.0040
267.3969, 300.5658
267.8790, 298.9590
268.3611, 297.2599
268.8432, 295.5314
269.3253, 293.7617
269.8074, 292.0078
270.2896, 290.2539
270.7717, 288.5337
271.2538, 286.9978
271.7359, 285.7126
272.2180, 284.4850
272.7001, 283.2062
273.1823, 281.8687
273.6644, 280.4204
274.1465, 278.7880
274.6286, 277.0878
275.1107, 275.5945
275.5928, 274.3082
276.0750, 273.3319
276.5571, 273.0183
277.0392, 273.4695
277.5213, 272.9547
278.0034, 271.0464
278.4855, 268.4414
278.9677, 266.8211
279.4498, 266.3071
279.9319, 265.9679
280.4140, 265.2808
280.8961, 264.2527
281.3782, 263.3586
281.8604, 262.6419
282.3425, 262.0154
282.8246, 261.3301
283.3067, 260.5791
283.7888, 259.8497
284.2709, 259.1496
284.7531, 258.4869
285.2352, 257.9870
285.7173, 257.6991
286.1994, 257.4094
286.6815, 256.7816
287.1636, 255.8311
287.6458, 254.8758
288.1279, 253.9811
288.6100, 253.1838
289.0921, 252.7578
289.5742, 252.7528
290.0563, 252.7695
290.5385, 252.3139
291.0206, 251.4603
291.5027, 250.6172
291.9848, 249.8583
292.4669, 249.2308
292.9490, 248.9876
293.4312, 249.1386
293.9133, 249.1965
294.3954, 248.5529
294.8775, 247.4320
295.3596, 246.5739
295.8417, 246.2934
296.3239, 246.2478
296.8060, 245.8789
297.2881, 245.2086
297.7702, 244.4917
298.2523, 243.7914
298.7344, 243.1832
299.2166, 242.8949
299.6987, 243.0997
300.1808, 243.3763
300.6629, 243.2090
301.1450, 242.6673
301.6271, 242.0278
302.1093, 241.6665
302.5914, 241.2542
303.0735, 240.1965
303.5556, 238.2581
304.0377, 236.2632
304.5198, 235.0350
305.0020, 234.3439
305.4841, 233.5974
305.9662, 232.3742
306.4483, 231.0066
306.9304, 229.8073
307.4125, 228.7923
307.8947, 227.9915
308.3768, 227.7387
308.8589, 227.6646
309.3410, 227.1888
309.8231, 225.5474
310.3052, 223.7964
310.7874, 222.7802
311.2695, 222.5128
311.7516, 222.1848
312.2337, 221.2206
312.7158, 219.9981
313.1979, 218.9312
313.6801, 218.1668
314.1622, 217.5892
314.6443, 217.2334
315.1264, 217.0625
315.6085, 216.8268
316.0906, 216.3821
316.5728, 215.8589
317.0549, 215.3554
317.5370, 214.9326
318.0191, 214.4775
318.5012, 213.8364
318.9833, 213.1201
319.4655, 212.6386
319.9476, 212.9502
320.4297, 213.1707
320.9118, 212.7698
321.3939, 211.2523
321.8760, 210.0862
322.3582, 209.7911
322.8403, 209.9802
323.3224, 210.0081
323.8045, 209.6634
324.2866, 209.2417
324.7687, 208.7608
325.2509, 208.1313
325.7330, 207.8223
326.2151, 208.3054
326.6972, 208.9464
327.1793, 209.0744
327.6614, 208.0952
328.1436, 207.2706
328.6257, 206.8669
329.1078, 206.8999
329.5899, 206.7490
330.0720, 206.2433
330.5541, 205.7020
331.0363, 205.3513
331.5184, 205.2668
332.0005, 205.2483
332.4826, 205.3155
332.9647, 205.4384
333.4468, 205.4726
333.9290, 205.3835
334.4111, 205.2542
334.8932, 205.0906
335.3753, 204.8029
335.8574, 204.7867
336.3395, 205.1757
336.8216, 205.7467
337.3037, 206.0627
337.7859, 206.1036
338.2680, 205.9430
338.7501, 205.4923
339.2322, 204.7194
339.7143, 204.3991
340.1964, 204.6570
340.6786, 205.1056
341.1607, 205.2244
341.6428, 204.9881
342.1249, 204.7761
342.6070, 204.7464
343.0891, 204.8288
343.5713, 204.6563
344.0534, 204.1973
344.5355, 203.6991
345.0176, 203.3097
345.4997, 203.0480
345.9818, 203.0704
346.4640, 203.4932
346.9461, 204.1115
347.4282, 204.6023
347.9103, 204.9602
348.3924, 205.0939
348.8745, 204.6560
349.3567, 203.9681
349.8388, 203.9065
350.3209, 204.7165
350.8030, 205.6441
351.2851, 205.6651
351.7672, 205.0483
352.2494, 204.6087
352.7315, 204.8389
353.2136, 205.4312
353.6957, 206.1250
354.1778, 206.9246
354.6599, 207.5233
355.1421, 207.5607
355.6242, 207.2674
356.1063, 206.9890
356.5884, 206.7223
357.0705, 206.6177
357.5526, 206.8381
358.0348, 207.3459
358.5169, 207.9050
358.9990, 208.4009
359.4811, 208.8913
359.9632, 209.4411
360.4453, 210.2029
360.9275, 210.7983
361.4096, 210.9842
361.8917, 210.8870
362.3738, 210.8004
362.8559, 210.8056
363.3380, 210.8475
363.8202, 210.8624
364.3023, 210.7696
364.7844, 210.9050
365.2665, 211.6909
365.7486, 212.6147
366.2307, 213.0625
366.7129, 212.3620
367.1950, 211.8049
367.6771, 211.7521
368.1592, 212.2390
368.6413, 212.5464
369.1234, 212.4630
369.6056, 212.3696
370.0877, 212.5383
370.5698, 213.2119
371.0519, 213.7336
371.5340, 213.9784
372.0161, 214.0398
372.4983, 214.2784
372.9804, 214.8223
373.4625, 215.3138
373.9446, 215.5169
374.4267, 215.2853
374.9088, 215.4211
375.3910, 216.0430
375.8731, 216.8771
376.3552, 217.5103
376.8373, 217.9442
377.3194, 218.2174
377.8015, 218.3785
378.2837, 218.3998
378.7658, 217.9548
379.2479, 216.9473
379.7300, 215.9414
380.2121, 215.5839
380.6942, 215.7880
381.1764, 215.8177
381.6585, 215.5266
382.1406, 214.9785
382.6227, 214.1912
383.1048, 213.1865
383.5869, 212.2697
384.0691, 211.8605
384.5512, 211.6449
385.0333, 210.9480
385.5154, 209.6443
385.9975, 208.1367
386.4796, 206.5451
386.9618, 205.0461
387.4439, 204.0776
387.9260, 204.5160
388.4081, 205.1427
388.8902, 204.6412
389.3723, 203.0698
389.8545, 201.6683
390.3366, 201.3130
390.8187, 201.4626
391.3008, 201.5472
391.7829, 201.3434
392.2650, 201.1457
392.7472, 201.0108
393.2293, 200.9769
393.7114, 201.1444
394.1935, 201.5937
394.6756, 202.2177
395.1577, 202.9959
395.6399, 203.9866
396.1220, 204.9353
396.6041, 205.5560
397.0862, 206.1862
397.5683, 207.2415
398.0504, 209.0029
398.5326, 210.9362
399.0147, 213.1167
399.4968, 215.5378
399.9789, 217.4241
400.4610, 218.1984
400.9431, 218.9714
401.4253, 220.5034
401.9074, 223.3174
402.3895, 225.7219
402.8716, 227.4312
403.3537, 228.7555
403.8358, 230.5207
404.3180, 232.7860
404.8001, 235.2802
405.2822, 238.1275
405.7643, 241.3669
406.2464, 243.4126
406.7285, 243.9257
407.2107, 244.1606
407.6928, 245.6621
408.1749, 248.4181
408.6570, 251.2276
409.1391, 253.9177
409.6212, 256.3546
410.1034, 258.0304
410.5855, 258.9747
411.0676, 259.8370
411.5497, 261.3323
412.0318, 263.0831
412.5139, 264.2285
412.9961, 264.6520
413.4782, 264.5060
413.9603, 263.7468
414.4424, 262.5229
414.9245, 261.2187
415.4066, 260.3459
415.8888, 259.2300
416.3709, 257.1481
416.8530, 254.0936
417.3351, 250.8227
417.8172, 247.5257
418.2993, 244.3124
418.7815, 241.2221
419.2636, 238.1524
419.7457, 235.3969
420.2278, 233.2461
420.7099, 231.5305
421.1920, 229.9086
421.6742, 228.1804
422.1563, 226.6079
422.6384, 225.3895
423.1205, 224.7037
423.6026, 223.7361
424.0847, 221.8604
424.5669, 219.9545
425.0490, 218.8852
425.5311, 219.0003
426.0132, 219.4579
426.4953, 220.3284
426.9774, 221.5015
427.4596, 222.2215
427.9417, 222.2170
428.4238, 222.2185
428.9059, 222.6345
429.3880, 223.5220
429.8701, 224.5367
430.3523, 225.7019
430.8344, 226.9300
431.3165, 228.0562
431.7986, 229.0636
432.2807, 230.2234
432.7628, 231.6418
433.2450, 233.2917
433.7271, 235.0913
434.2092, 237.0434
434.6913, 239.1135
435.1734, 241.1703
435.6555, 243.3452
436.1377, 246.0755
436.6198, 249.6417
437.1019, 253.3148
437.5840, 256.0698
438.0661, 258.2249
438.5482, 260.6667
439.0304, 263.8254
439.5125, 267.5049
439.9946, 271.5948
440.4767, 276.1205
440.9588, 280.6893
441.4409, 285.3584
441.9231, 289.8792
442.4052, 293.9943
442.8873, 297.0771
443.3694, 300.4240
443.8515, 304.5219
444.3336, 309.2004
444.8158, 313.8375
445.2979, 318.3358
445.7800, 322.8029
446.2621, 327.2191
446.7442, 331.4864
447.2263, 336.1606
447.7085, 341.9362
448.1906, 347.6808
448.6727, 352.2877
449.1548, 355.0562
449.6369, 358.1292
450.1190, 362.1683
450.6012, 366.7161
451.0833, 369.8766
451.5654, 371.3848
452.0475, 372.3240
452.5296, 373.3883
453.0117, 374.5851
453.4939, 375.0108
453.9760, 374.6309
454.4581, 373.5088
454.9402, 371.5420
455.4223, 368.8197
455.9044, 365.8355
456.3866, 362.8362
456.8687, 359.6622
457.3508, 356.1997
457.8329, 352.4045
458.3150, 348.1842
458.7971, 343.0851
459.2793, 337.6322
459.7614, 332.5080
460.2435, 327.8849
460.7256, 323.3242
461.2077, 318.6373
461.6898, 313.8589
462.1720, 308.9701
462.6541, 303.4755
463.1362, 298.3990
463.6183, 294.3800
464.1004, 291.3441
464.5826, 288.0640
465.0647, 283.8255
465.5468, 279.5256
466.0289, 275.6444
466.5110, 272.3443
466.9931, 269.2637
467.4753, 266.6443
467.9574, 264.1592
468.4395, 261.2559
468.9216, 257.4346
469.4037, 254.0761
469.8858, 251.6886
470.3680, 250.1257
470.8501, 247.9145
471.3322, 244.8779
471.8143, 241.6802
472.2964, 238.5987
472.7785, 235.6459
473.2607, 233.1444
473.7428, 231.1837
474.2249, 229.5110
474.7070, 227.8972
475.1891, 226.3024
475.6712, 224.4298
476.1534, 221.8878
476.6355, 219.1881
477.1176, 217.2430
477.5997, 215.9998
478.0818, 214.9680
478.5639, 213.9344
479.0461, 212.8569
479.5282, 211.6752
480.0103, 210.3490
480.4924, 209.0306
480.9745, 207.6121
481.4566, 206.2999
481.9388, 205.3992
482.4209, 205.6587
482.9030, 205.7116
483.3851, 204.8797
483.8672, 203.2311
484.3493, 201.8324
484.8315, 200.9207
485.3136, 200.2222
485.7957, 199.6042
486.2778, 199.0515
486.7599, 198.6097
487.2420, 198.3528
487.7242, 198.1568
488.2063, 197.8658
488.6884, 197.5023
489.1705, 196.9469
489.6526, 196.0586
490.1347, 194.9696
490.6169, 194.3501
491.0990, 194.2709
491.5811, 194.1581
492.0632, 193.5514
492.5453, 192.5620
493.0274, 191.6729
493.5096, 190.9220
493.9917, 190.2609
494.4738, 189.5156
494.9559, 188.8052
495.4380, 188.4565
495.9201, 189.0927
496.4023, 189.6517
496.8844, 188.7831
497.3665, 186.8586
497.8486, 185.2940
498.3307, 185.2826
498.8128, 185.5967
499.2950, 185.3604
499.7771, 184.3487
500.2592, 183.3305
500.7413, 182.4832
501.2234, 181.7528
501.7055, 181.0961
502.1877, 180.3778
502.6698, 179.8937
503.1519, 179.8113
503.6340, 179.9965
504.1161, 179.9899
504.5982, 179.7919
505.0804, 179.3930
505.5625, 178.6924
506.0446, 177.6469
506.5267, 177.0138
507.0088, 176.8871
507.4909, 176.9073
507.9731, 176.6468
508.4552, 176.1352
508.9373, 175.8743
509.4194, 176.0588
509.9015, 176.3410
510.3836, 176.0013
510.8658, 175.1773
511.3479, 174.5425
511.8300, 174.4695
512.3121, 174.7568
512.7943, 175.3479
513.2764, 176.2075
513.7585, 176.7763
514.2406, 176.3303
514.7227, 175.6186
515.2048, 175.3600
515.6870, 175.8752
516.1691, 176.5139
516.6512, 177.2027
517.1333, 177.8561
517.6154, 178.3323
518.0975, 178.3952
518.5797, 178.5076
519.0618, 178.7582
519.5439, 179.1415
520.0260, 179.6065
520.5081, 180.0752
520.9902, 180.7409
521.4724, 181.7273
521.9545, 183.0835
522.4366, 184.5654
522.9187, 186.2659
523.4008, 187.8966
523.8829, 188.8979
524.3651, 189.3336
524.8472, 190.1661
525.3293, 191.7005
525.8114, 193.7137
526.2935, 195.9522
526.7756, 198.3614
527.2578, 200.6659
527.7399, 202.6642
528.2220, 204.5066
528.7041, 206.3728
529.1862, 208.2827
529.6683, 210.2130
530.1505, 212.3231
530.6326, 214.3852
531.1147, 216.2018
531.5968, 217.9198
532.0789, 219.0994
532.5610, 219.4701
533.0432, 219.2293
533.5253, 218.7768
534.0074, 217.9023
534.4895, 217.0923
534.9716, 216.4237
535.4537, 215.9014
535.9359, 215.5834
536.4180, 215.4571
536.9001, 215.5736
537.3822, 216.0396
537.8643, 216.8847
538.3464, 217.6427
538.8286, 218.2654
539.3107, 218.8616
539.7928, 219.6223
540.2749, 220.5130
540.7570, 221.3755
541.2391, 222.2392
541.7213, 222.9550
542.2034, 223.2386
542.6855, 223.1524
543.1676, 222.9612
543.6497, 223.1516
544.1318, 223.0698
544.6140, 221.9605
545.0961, 219.7049
545.5782, 217.6242
546.0603, 216.4225
546.5424, 215.5080
547.0245, 214.4020
547.5067, 212.8264
547.9888, 211.3173
548.4709, 209.9452
548.9530, 208.6514
549.4351, 207.2885
549.9172, 205.5760
550.3994, 204.3594
550.8815, 204.0178
551.3636, 204.3843
551.8457, 204.3502
552.3278, 203.8543
552.8099, 203.2761
553.2921, 202.7634
553.7742, 202.3557
554.2563, 202.2798
554.7384, 202.5589
555.2205, 203.1169
555.7026, 204.0702
556.1848, 205.2292
556.6669, 206.1684
557.1490, 206.6084
557.6311, 207.0478
558.1132, 207.8126
558.5953, 208.8783
559.0775, 210.2065
559.5596, 212.3607
560.0417, 214.2371
560.5238, 215.1783
561.0059, 215.1498
561.4880, 215.3528
561.9702, 216.1681
562.4523, 217.0693
562.9344, 217.8073
563.4165, 218.3244
563.8986, 218.8217
564.3807, 219.2670
564.8629, 219.7456
565.3450, 220.3464
565.8271, 221.0759
566.3092, 221.9919
566.7913, 223.2016
567.2734, 224.4961
567.7556, 225.2339
568.2377, 225.5136
568.7198, 226.0518
569.2019, 227.3158
569.6840, 229.0473
570.1661, 230.8272
570.6483, 232.6588
571.1304, 234.8850
571.6125, 237.9781
572.0946, 241.4014
572.5767, 244.6214
573.0588, 247.4761
573.5410, 250.3965
574.0231, 253.4098
574.5052, 256.5962
574.9873, 260.0475
575.4694, 263.9698
575.9515, 267.9510
576.4337, 271.9812
576.9158, 276.0501
577.3979, 279.9757
577.8800, 283.7104
578.3621, 287.4584
578.8442, 291.4645
579.3264, 295.6210
579.8085, 298.9755
580.2906, 301.5292
580.7727, 303.5985
581.2548, 305.5126
