##NAMES=Fupingqiuite
##RRUFFID=R160033
##IDEAL CHEMISTRY=(Na,Mn^2+^,[box])_2_Mn^2+^_2_Fe^3+^(PO_4_)_3_
##LOCALITY=Nancy Pegmatite, Argentina
##OWNER=RRUFF
##SOURCE=Jaroslav Hyrŝl
##DESCRIPTION=Brown crystals, associated with light brown fillowite.
##STATUS=The identification of this mineral is not yet confirmed.
##URL=rruff.info/R160033
##MEASURED CHEMISTRY=(Na_1.15_Mn^2+^_0. 36_Ca_0.05_)_Σ1.56_(Mn^2+^_1.20_Mg_0.41_Fe^2+^_0.39_)_Σ2.0_(Fe^3+^_0.78_Al_0.22_)_Σ1.0_(PO_4_)_3_
90.59570, 2127.019
91.07782, 2127.974
91.55994, 2128.417
92.04205, 2129.979
92.52417, 2129.819
93.00629, 2125.858
93.48840, 2107.160
93.97052, 2063.278
94.45264, 1994.869
94.93475, 1929.207
95.41687, 1869.730
95.89898, 1818.638
96.38110, 1773.131
96.86321, 1731.150
97.34533, 1690.581
97.82745, 1647.921
98.30956, 1607.190
98.79168, 1568.472
99.27380, 1531.206
99.75591, 1494.083
100.2380, 1457.478
100.7201, 1423.215
101.2023, 1391.633
101.6844, 1363.584
102.1665, 1339.920
102.6486, 1321.660
103.1307, 1306.549
103.6128, 1293.064
104.0950, 1281.218
104.5771, 1270.039
105.0592, 1258.166
105.5413, 1246.155
106.0234, 1235.132
106.5055, 1225.742
106.9877, 1217.645
107.4698, 1209.945
107.9519, 1205.608
108.4340, 1197.418
108.9161, 1182.108
109.3982, 1160.772
109.8804, 1136.331
110.3625, 1110.448
110.8446, 1082.369
111.3267, 1057.358
111.8088, 1035.160
112.2909, 1015.745
112.7731, 999.5410
113.2552, 986.4713
113.7373, 975.7252
114.2194, 966.3923
114.7015, 959.4508
115.1836, 952.1423
115.6658, 944.0490
116.1479, 935.7660
116.6300, 927.8353
117.1121, 920.4234
117.5942, 913.4275
118.0763, 906.8575
118.5584, 901.3799
119.0406, 894.9420
119.5227, 886.1461
120.0048, 875.8073
120.4869, 865.9664
120.9690, 857.2051
121.4511, 849.9953
121.9333, 844.4984
122.4154, 840.9042
122.8975, 838.6564
123.3796, 837.8903
123.8617, 838.8377
124.3438, 839.2274
124.8260, 838.0744
125.3081, 835.7389
125.7902, 832.1798
126.2723, 827.1315
126.7544, 821.1906
127.2365, 815.6999
127.7187, 810.6237
128.2008, 806.1265
128.6829, 801.9027
129.1650, 798.2138
129.6471, 795.5782
130.1292, 794.5285
130.6114, 794.8890
131.0935, 794.0187
131.5756, 791.0837
132.0577, 787.6302
132.5398, 784.5732
133.0219, 781.3810
133.5041, 776.6387
133.9862, 768.8164
134.4683, 757.0590
134.9504, 747.8008
135.4325, 741.6973
135.9146, 736.9796
136.3968, 733.1141
136.8789, 729.8726
137.3610, 726.6907
137.8431, 722.8485
138.3252, 718.0610
138.8073, 714.1725
139.2895, 712.3853
139.7716, 711.1075
140.2537, 708.5026
140.7358, 704.1419
141.2179, 698.5866
141.7000, 692.2495
142.1821, 685.2283
142.6643, 678.1391
143.1464, 671.0208
143.6285, 663.9921
144.1106, 657.3849
144.5927, 651.1066
145.0748, 645.5925
145.5570, 641.1658
146.0391, 637.8304
146.5212, 634.8907
147.0033, 631.9740
147.4854, 629.1329
147.9675, 625.7406
148.4497, 621.3554
148.9318, 616.5107
149.4139, 611.1711
149.8960, 605.4128
150.3781, 599.7666
150.8602, 595.1620
151.3424, 592.0905
151.8245, 588.9583
152.3066, 585.4445
152.7887, 581.8969
153.2708, 578.5072
153.7529, 575.3751
154.2351, 572.5228
154.7172, 570.0363
155.1993, 568.6628
155.6814, 566.7640
156.1635, 564.1877
156.6456, 561.0756
157.1278, 557.5906
157.6099, 553.8040
158.0920, 549.7318
158.5741, 545.4130
159.0562, 540.0617
159.5383, 535.3493
160.0205, 531.9460
160.5026, 529.5194
160.9847, 527.3095
161.4668, 524.9174
161.9489, 522.4142
162.4310, 520.1563
162.9131, 518.3947
163.3953, 516.6278
163.8774, 514.7735
164.3595, 512.7894
164.8416, 510.2116
165.3237, 506.2647
165.8058, 501.6219
166.2880, 497.8356
166.7701, 495.3138
167.2522, 493.5009
167.7343, 491.8995
168.2164, 490.5580
168.6985, 489.2112
169.1807, 487.8841
169.6628, 486.4305
170.1449, 484.5779
170.6270, 482.0643
171.1091, 479.1905
171.5912, 476.7072
172.0734, 474.9330
172.5555, 472.9589
173.0376, 470.2459
173.5197, 467.1652
174.0018, 464.2053
174.4839, 461.6310
174.9661, 459.4248
175.4482, 457.5352
175.9303, 456.3777
176.4124, 455.0844
176.8945, 453.3663
177.3766, 451.3568
177.8588, 449.3268
178.3409, 447.4686
178.8230, 445.7804
179.3051, 444.0117
179.7872, 442.1822
180.2693, 440.2508
180.7515, 438.1139
181.2336, 435.8454
181.7157, 433.6212
182.1978, 431.5670
182.6799, 429.6693
183.1620, 428.1343
183.6441, 427.2832
184.1263, 426.4205
184.6084, 425.2078
185.0905, 423.6476
185.5726, 421.9397
186.0547, 420.2713
186.5368, 418.6528
187.0190, 416.9449
187.5011, 414.9532
187.9832, 413.0269
188.4653, 411.5656
188.9474, 410.5925
189.4296, 409.5572
189.9117, 407.8938
190.3938, 405.6103
190.8759, 403.2602
191.3580, 400.2794
191.8401, 397.5559
192.3223, 396.3286
192.8044, 396.9394
193.2865, 397.9781
193.7686, 398.2269
194.2507, 397.8489
194.7328, 397.1121
195.2150, 395.9586
195.6971, 394.5183
196.1792, 392.9353
196.6613, 391.0130
197.1434, 389.4245
197.6255, 389.0313
198.1077, 389.3851
198.5898, 389.3340
199.0719, 387.9839
199.5540, 385.6604
200.0361, 383.8079
200.5182, 382.7420
201.0004, 381.7696
201.4825, 380.3761
201.9646, 378.7540
202.4467, 377.4042
202.9288, 376.7821
203.4109, 376.8377
203.8930, 376.7295
204.3752, 376.4238
204.8573, 375.9659
205.3394, 375.3950
205.8215, 374.6987
206.3036, 373.8308
206.7857, 372.7168
207.2679, 371.3399
207.7500, 370.0567
208.2321, 368.9559
208.7142, 367.8718
209.1963, 366.7235
209.6784, 365.5438
210.1606, 364.4184
210.6427, 363.4071
211.1248, 362.5031
211.6069, 361.8312
212.0890, 361.6055
212.5711, 361.3886
213.0533, 360.9959
213.5354, 360.4482
214.0175, 359.8942
214.4996, 359.5079
214.9817, 359.3785
215.4638, 358.7226
215.9460, 357.1593
216.4281, 355.5335
216.9102, 354.1145
217.3923, 352.9845
217.8744, 352.2402
218.3565, 352.0537
218.8387, 352.5291
219.3208, 352.5586
219.8029, 351.8313
220.2850, 350.9694
220.7671, 350.3727
221.2492, 350.0387
221.7314, 349.7061
222.2135, 349.1941
222.6956, 348.4683
223.1777, 347.4311
223.6598, 345.6891
224.1419, 343.9242
224.6240, 342.6453
225.1062, 341.8733
225.5883, 341.3585
226.0704, 340.9597
226.5525, 340.6734
227.0346, 340.4023
227.5167, 340.2936
227.9989, 340.1042
228.4810, 339.5064
228.9631, 338.4729
229.4452, 337.5000
229.9273, 337.0314
230.4094, 336.9123
230.8916, 336.7019
231.3737, 336.2975
231.8558, 335.7893
232.3379, 335.3756
232.8200, 335.1152
233.3021, 334.5258
233.7843, 332.7194
234.2664, 330.4789
234.7485, 329.0795
235.2306, 329.2817
235.7127, 330.0889
236.1948, 330.0817
236.6770, 329.0629
237.1591, 328.0446
237.6412, 327.5985
238.1233, 327.4271
238.6054, 327.2142
239.0875, 326.8274
239.5697, 326.4098
240.0518, 326.2530
240.5339, 326.4881
241.0160, 326.5567
241.4981, 326.1678
241.9802, 325.5475
242.4624, 324.9194
242.9445, 324.3919
243.4266, 323.7855
243.9087, 322.6867
244.3908, 320.8058
244.8729, 319.2329
245.3550, 318.4342
245.8372, 317.9586
246.3193, 317.4032
246.8014, 316.6201
247.2835, 315.8486
247.7656, 315.6546
248.2477, 316.6174
248.7299, 316.7184
249.2120, 315.0139
249.6941, 312.7809
250.1762, 311.0637
250.6583, 310.1637
251.1404, 309.5003
251.6226, 307.9861
252.1047, 305.0134
252.5868, 302.5971
253.0689, 301.0522
253.5510, 299.9398
254.0331, 298.9751
254.5153, 298.0807
254.9974, 297.3197
255.4795, 296.8613
255.9616, 297.0972
256.4437, 296.7592
256.9258, 295.3052
257.4080, 293.7579
257.8901, 292.8777
258.3722, 292.7532
258.8543, 292.8330
259.3364, 292.3271
259.8185, 290.8219
260.3007, 289.7838
260.7828, 289.3645
261.2649, 289.1767
261.7470, 289.0948
262.2291, 289.0428
262.7112, 288.9147
263.1934, 288.6210
263.6755, 288.2549
264.1576, 287.3002
264.6397, 285.1603
265.1218, 283.0507
265.6039, 281.7586
266.0861, 281.2274
266.5682, 280.8166
267.0503, 279.8828
267.5324, 278.3077
268.0145, 276.9755
268.4966, 275.9973
268.9788, 275.1056
269.4609, 274.1874
269.9430, 273.2419
270.4251, 272.3311
270.9072, 271.5218
271.3893, 270.8281
271.8715, 269.9474
272.3536, 268.5353
272.8357, 267.3127
273.3178, 266.8035
273.7999, 266.7735
274.2820, 266.5341
274.7642, 265.5703
275.2463, 263.9689
275.7284, 262.8442
276.2105, 262.3082
276.6926, 261.9896
277.1747, 261.9896
277.6568, 262.1161
278.1389, 261.9091
278.6211, 261.0538
279.1032, 259.7701
279.5853, 259.0213
280.0674, 259.4262
280.5495, 259.5293
281.0316, 258.6878
281.5138, 257.3339
281.9959, 256.2313
282.4780, 255.7166
282.9601, 255.6109
283.4422, 255.5016
283.9243, 255.4548
284.4065, 255.2912
284.8886, 254.9569
285.3707, 254.4891
285.8528, 253.8970
286.3349, 253.1640
286.8170, 252.4212
287.2992, 251.8847
287.7813, 251.5641
288.2634, 251.3900
288.7455, 251.6017
289.2276, 251.8573
289.7097, 251.6811
290.1919, 250.9541
290.6740, 250.0321
291.1561, 249.2920
291.6382, 248.7379
292.1203, 248.4022
292.6024, 248.4909
293.0846, 248.6863
293.5667, 248.7127
294.0488, 248.5317
294.5309, 248.1711
295.0130, 247.6021
295.4951, 246.8208
295.9773, 246.1392
296.4594, 245.5741
296.9415, 245.1065
297.4236, 244.8145
297.9057, 244.6697
298.3878, 244.3661
298.8700, 243.5722
299.3521, 242.4254
299.8342, 241.7684
300.3163, 241.9983
300.7984, 242.3480
301.2805, 242.4256
301.7627, 242.2520
302.2448, 241.9453
302.7269, 241.5556
303.2090, 241.0735
303.6911, 240.4872
304.1732, 239.7742
304.6554, 239.0085
305.1375, 238.1821
305.6196, 237.3264
306.1017, 236.5153
306.5838, 235.7713
307.0659, 235.0999
307.5481, 234.4924
308.0302, 233.8874
308.5123, 233.5091
308.9944, 233.6456
309.4765, 234.0135
309.9586, 234.1011
310.4408, 233.7516
310.9229, 233.2192
311.4050, 232.8227
311.8871, 232.5595
312.3692, 232.3109
312.8513, 232.0864
313.3335, 231.8479
313.8156, 231.5430
314.2977, 231.1630
314.7798, 230.7393
315.2619, 230.2485
315.7440, 229.7082
316.2262, 229.3457
316.7083, 229.4126
317.1904, 229.4985
317.6725, 229.1275
318.1546, 228.3337
318.6367, 227.7791
319.1188, 228.0915
319.6010, 228.9831
320.0831, 229.0948
320.5652, 227.7303
321.0473, 226.3056
321.5294, 225.7154
322.0115, 225.7446
322.4937, 225.6124
322.9758, 224.9367
323.4579, 223.9038
323.9400, 222.9628
324.4221, 221.9703
324.9042, 221.3211
325.3864, 221.4688
325.8685, 222.0106
326.3506, 222.1477
326.8327, 221.5895
327.3148, 220.7083
327.7969, 220.0025
328.2791, 219.4217
328.7612, 219.1889
329.2433, 219.7778
329.7254, 220.5398
330.2075, 220.6243
330.6896, 219.8846
331.1718, 218.9639
331.6539, 218.5074
332.1360, 218.5622
332.6181, 218.4822
333.1002, 218.2136
333.5823, 217.8310
334.0645, 217.2183
334.5466, 216.4544
335.0287, 216.0291
335.5108, 216.4102
335.9929, 217.4304
336.4750, 217.8353
336.9572, 217.3132
337.4393, 216.5883
337.9214, 215.8121
338.4035, 215.0574
338.8856, 214.5274
339.3677, 214.3497
339.8499, 214.3721
340.3320, 214.1647
340.8141, 213.5078
341.2962, 213.0489
341.7783, 213.1228
342.2604, 213.3855
342.7426, 213.3816
343.2247, 212.9817
343.7068, 212.3772
344.1889, 211.8136
344.6710, 211.2831
345.1531, 210.8501
345.6353, 210.5650
346.1174, 210.3479
346.5995, 210.1706
347.0816, 210.0165
347.5637, 209.8275
348.0458, 209.5463
348.5280, 209.1658
349.0101, 208.8303
349.4922, 208.4932
349.9743, 208.2388
350.4564, 208.1900
350.9385, 208.2578
351.4207, 208.2265
351.9028, 207.9583
352.3849, 207.5241
352.8670, 207.2244
353.3491, 207.5215
353.8312, 207.3832
354.3134, 206.1460
354.7955, 204.6212
355.2776, 203.8897
355.7597, 204.3058
356.2418, 205.1551
356.7239, 205.2055
357.2061, 203.8794
357.6882, 202.8949
358.1703, 202.4974
358.6524, 202.2212
359.1345, 201.7338
359.6166, 201.0211
360.0987, 200.2946
360.5808, 199.7578
361.0630, 199.4277
361.5451, 199.1227
362.0272, 198.9431
362.5093, 198.6843
362.9914, 198.1695
363.4735, 197.5313
363.9557, 197.0437
364.4378, 196.8839
364.9199, 196.9634
365.4020, 196.9072
365.8841, 196.6870
366.3662, 196.3516
366.8484, 195.8242
367.3305, 195.2361
367.8126, 194.7512
368.2947, 194.4130
368.7768, 194.0698
369.2589, 193.4673
369.7411, 192.5119
370.2232, 191.5476
370.7053, 190.3161
371.1874, 189.2984
371.6695, 188.9329
372.1516, 189.0926
372.6338, 189.1767
373.1159, 188.5691
373.5980, 187.3023
374.0801, 186.4604
374.5622, 186.4397
375.0443, 186.3734
375.5265, 185.9149
376.0086, 185.2382
376.4907, 184.6427
376.9728, 184.2960
377.4549, 184.0495
377.9370, 183.5252
378.4192, 182.5746
378.9013, 181.7703
379.3834, 181.4140
379.8655, 181.1758
380.3476, 180.7765
380.8297, 180.1636
381.3119, 179.5602
381.7940, 179.3053
382.2761, 179.3858
382.7582, 179.0836
383.2403, 177.9140
383.7224, 176.8157
384.2046, 176.5436
384.6867, 176.8974
385.1688, 177.1299
385.6509, 176.7752
386.1330, 176.0330
386.6151, 175.3410
387.0973, 174.7132
387.5794, 174.0872
388.0615, 173.2923
388.5436, 172.5129
389.0257, 172.0464
389.5078, 172.0324
389.9900, 172.1868
390.4721, 172.3172
390.9542, 172.4172
391.4363, 172.4532
391.9184, 172.4632
392.4005, 172.3329
392.8827, 171.8041
393.3648, 170.8272
393.8469, 170.1063
394.3290, 170.1153
394.8111, 170.4895
395.2932, 170.6803
395.7754, 170.6109
396.2575, 170.3755
396.7396, 170.0372
397.2217, 169.5906
397.7038, 169.0568
398.1859, 168.1325
398.6681, 167.3830
399.1501, 167.3962
399.6323, 167.9525
400.1144, 168.2050
400.5965, 167.6611
401.0786, 166.6507
401.5607, 166.1466
402.0428, 166.3346
402.5250, 166.6044
403.0071, 167.0441
403.4892, 167.4226
403.9713, 167.3584
404.4534, 166.7966
404.9355, 166.1911
405.4177, 166.1170
405.8998, 166.7590
406.3819, 166.9956
406.8640, 166.5522
407.3461, 166.0215
407.8282, 165.6523
408.3104, 165.4371
408.7925, 165.2703
409.2746, 165.0766
409.7567, 164.8974
410.2388, 164.9276
410.7209, 165.6075
411.2031, 165.9144
411.6852, 165.6572
412.1673, 165.0587
412.6494, 164.1737
413.1315, 163.0827
413.6136, 162.1247
414.0958, 161.8451
414.5779, 162.5011
415.0600, 162.7975
415.5421, 162.3502
416.0242, 161.8909
416.5063, 161.7710
416.9885, 161.8718
417.4706, 161.8337
417.9527, 161.3463
418.4348, 160.6266
418.9169, 160.4981
419.3990, 161.3331
419.8812, 161.9323
420.3633, 161.8098
420.8454, 161.3628
421.3275, 160.9157
421.8096, 160.5450
422.2917, 160.1941
422.7739, 159.6687
423.2560, 158.9999
423.7381, 158.9078
424.2202, 159.9690
424.7023, 160.9755
425.1844, 160.8792
425.6666, 159.9381
426.1487, 159.0827
426.6308, 158.7016
427.1129, 158.6287
427.5950, 158.6919
428.0771, 158.9023
428.5593, 159.0345
429.0414, 158.9486
429.5235, 158.7118
430.0056, 158.4830
430.4877, 158.2291
430.9698, 158.0616
431.4520, 158.1097
431.9341, 158.2734
432.4162, 158.3696
432.8983, 158.3586
433.3804, 158.2323
433.8625, 157.9546
434.3447, 157.5009
434.8268, 157.0757
435.3089, 156.5505
435.7910, 156.1696
436.2731, 156.1970
436.7552, 156.5323
437.2374, 156.8573
437.7195, 157.0080
438.2016, 156.9697
438.6837, 156.6790
439.1658, 155.6416
439.6479, 154.9870
440.1301, 154.9715
440.6122, 155.2708
441.0943, 155.6975
441.5764, 156.1557
442.0585, 156.4723
442.5406, 156.4048
443.0227, 155.8707
443.5049, 155.5596
443.9870, 155.6085
444.4691, 155.7447
444.9512, 155.9641
445.4333, 156.2011
445.9154, 156.3482
446.3976, 156.3369
446.8797, 156.2663
447.3618, 156.3957
447.8439, 156.8524
448.3260, 157.1272
448.8081, 156.9104
449.2903, 156.6392
449.7724, 156.6525
450.2545, 156.9335
450.7366, 157.1303
451.2187, 156.8621
451.7008, 156.2639
452.1830, 155.9573
452.6651, 156.0694
453.1472, 156.1836
453.6293, 155.9939
454.1114, 155.6645
454.5935, 155.4389
455.0757, 155.4332
455.5578, 155.4146
456.0399, 155.0912
456.5220, 154.5607
457.0041, 154.2888
457.4862, 154.4897
457.9684, 154.8165
458.4505, 154.7992
458.9326, 154.4486
459.4147, 154.0842
459.8968, 153.7087
460.3789, 153.3832
460.8611, 153.1362
461.3432, 152.9815
461.8253, 152.9990
462.3074, 153.2899
462.7895, 153.7388
463.2716, 153.8609
463.7538, 153.2855
464.2359, 152.8926
464.7180, 152.9357
465.2001, 153.1214
465.6822, 153.0817
466.1643, 152.7806
466.6465, 152.5601
467.1286, 152.8537
467.6107, 153.7635
468.0928, 154.2100
468.5749, 153.7827
469.0570, 153.3188
469.5392, 152.9749
470.0213, 152.7510
470.5034, 152.6370
470.9855, 152.6313
471.4676, 152.6871
471.9497, 152.7507
472.4319, 152.8543
472.9140, 152.8252
473.3961, 152.5697
473.8782, 152.2263
474.3603, 151.8033
474.8424, 151.3461
475.3246, 150.9935
475.8067, 150.9491
476.2888, 151.0257
476.7709, 150.7555
477.2530, 150.0772
477.7351, 149.4458
478.2173, 149.0520
478.6994, 148.8513
479.1815, 148.7886
479.6636, 148.9141
480.1457, 148.9852
480.6278, 148.7616
481.1100, 148.4309
481.5920, 148.3848
482.0742, 148.7026
482.5563, 149.0548
483.0384, 149.1431
483.5205, 148.9666
484.0026, 148.8431
484.4847, 149.0021
484.9669, 148.9635
485.4490, 148.2693
485.9311, 147.2985
486.4132, 146.7369
486.8953, 146.8364
487.3774, 147.3018
487.8596, 147.6803
488.3417, 148.0577
488.8238, 148.0960
489.3059, 147.4135
489.7880, 146.8147
490.2701, 146.8300
490.7523, 147.2437
491.2344, 147.5061
491.7165, 147.2707
492.1986, 146.7119
492.6807, 146.3138
493.1628, 146.1534
493.6450, 145.9451
494.1271, 145.3549
494.6092, 144.9010
495.0913, 145.1161
495.5734, 145.9386
496.0555, 146.6132
496.5377, 146.6110
497.0198, 146.0632
497.5019, 145.1911
497.9840, 143.8773
498.4661, 142.8239
498.9482, 142.5665
499.4304, 142.7639
499.9125, 142.7270
500.3946, 142.3030
500.8767, 141.9342
501.3588, 141.9600
501.8409, 142.1561
502.3231, 142.0926
502.8052, 141.6802
503.2873, 141.1709
503.7694, 140.7831
504.2515, 140.5196
504.7336, 140.3613
505.2158, 140.1327
505.6979, 140.1890
506.1800, 141.1169
506.6621, 142.2737
507.1442, 142.5926
507.6263, 141.7148
508.1085, 140.3003
508.5906, 139.3567
509.0727, 139.0052
509.5548, 138.6828
510.0369, 138.3914
510.5190, 138.1270
511.0012, 137.8935
511.4833, 137.6840
511.9654, 137.4807
512.4475, 137.2690
512.9296, 137.0786
513.4117, 136.9894
513.8939, 137.0238
514.3760, 136.9843
514.8581, 136.7925
515.3402, 136.5457
515.8223, 136.3725
516.3044, 136.2453
516.7866, 135.9799
517.2687, 135.4095
517.7508, 134.7091
518.2329, 134.0757
518.7150, 133.5131
519.1971, 133.0078
519.6793, 132.5423
520.1614, 132.1423
520.6435, 131.8982
521.1256, 131.8560
521.6077, 131.7932
522.0898, 131.6698
522.5720, 131.5132
523.0541, 131.3755
523.5362, 131.2393
524.0183, 130.9971
524.5004, 130.5516
524.9825, 129.9662
525.4647, 129.5619
525.9468, 129.4467
526.4289, 129.3768
526.9110, 129.3457
527.3931, 129.3372
527.8752, 129.4004
528.3574, 129.5019
528.8395, 129.4712
529.3216, 129.0567
529.8037, 128.3634
530.2858, 128.0939
530.7679, 128.4849
531.2501, 128.7518
531.7322, 128.4323
532.2143, 127.8744
532.6964, 127.3474
533.1785, 126.8561
533.6606, 126.6470
534.1428, 127.1192
534.6249, 127.9411
535.1070, 128.3607
535.5891, 128.2594
536.0712, 128.0802
536.5533, 128.2112
537.0355, 128.5500
537.5176, 128.4836
537.9997, 127.4464
538.4818, 126.7316
538.9639, 127.0146
539.4460, 127.6761
539.9282, 127.9412
540.4103, 127.6562
540.8924, 127.1576
541.3745, 126.7753
541.8566, 126.5094
542.3387, 126.3487
542.8209, 126.1847
543.3029, 126.2762
543.7850, 126.8545
544.2672, 127.6274
544.7493, 128.2871
545.2314, 128.7483
545.7135, 129.0905
546.1956, 129.3323
546.6777, 129.4934
547.1599, 129.8458
547.6420, 130.5553
548.1241, 131.1334
548.6062, 131.0696
549.0883, 130.7153
549.5704, 130.6381
550.0526, 130.9910
550.5347, 131.5038
551.0168, 132.1179
551.4989, 132.7517
551.9810, 133.2115
552.4631, 133.4538
552.9453, 133.6415
553.4274, 133.9320
553.9095, 134.3267
554.3916, 134.6309
554.8737, 134.8466
555.3558, 134.9844
555.8380, 134.9848
556.3201, 134.9382
556.8022, 134.9648
557.2843, 135.0897
557.7664, 135.2296
558.2485, 135.2750
558.7307, 135.2190
559.2128, 135.2563
559.6949, 135.4599
560.1770, 135.6540
560.6591, 135.8085
561.1412, 135.9101
561.6234, 135.9483
562.1055, 135.9216
562.5876, 135.8158
563.0697, 135.5464
563.5518, 135.1831
564.0339, 135.0125
564.5161, 135.1185
564.9982, 135.1387
565.4803, 134.7151
565.9624, 133.9916
566.4445, 133.6127
566.9266, 133.8023
567.4088, 134.0139
567.8909, 134.0912
568.3730, 134.0736
568.8551, 134.0175
569.3372, 133.9294
569.8193, 133.7412
570.3015, 133.3459
570.7836, 132.7717
571.2657, 132.6094
571.7478, 133.3937
572.2299, 133.8726
572.7120, 133.5368
573.1942, 133.0220
573.6763, 132.9953
574.1584, 133.5171
574.6405, 134.0416
575.1226, 133.9742
575.6047, 133.4988
576.0869, 133.4319
576.5690, 133.8705
577.0511, 134.3054
577.5332, 134.4537
578.0153, 134.4802
578.4974, 134.6626
578.9796, 135.0412
579.4617, 135.4120
579.9438, 135.7133
580.4259, 135.9580
580.9080, 136.1565
581.3901, 136.3125
581.8723, 136.4213
582.3544, 136.4612
582.8365, 136.4890
583.3186, 136.7044
583.8007, 137.3612
584.2828, 137.8204
584.7650, 137.9669
585.2471, 138.0164
