##NAMES=Fupingqiuite
##RRUFFID=R160052
##IDEAL CHEMISTRY=(Na,Mn^2+^,[box])_2_Mn^2+^_2_Fe^3+^(PO_4_)_3_
##LOCALITY=Nancy Pegmatite, Chacabuco Dept, San Luis, Argentina
##OWNER=RRUFF
##SOURCE=Donald Doell
##DESCRIPTION=Dark green or brown crystals with good cleavage. Type sample
##STATUS=The identification of this mineral is confirmed by single-crystal X-ray diffraction and chemical analysis.
##URL=rruff.info/R160052
##MEASURED CHEMISTRY=(Na_0.98_Mn_0.46_Ca_0.03_)_Σ1.47_(Mn_1.32_Mg_0.44_Fe^2+^_0.20_Fe^3+^_0.04_)_Σ2.00_(Fe^3+^_0.88_Al_0.12_)_Σ1.00_(P_1.00_O_4_)_3_
88.46484, 912.8680
88.94696, 913.8972
89.42908, 913.8690
89.91119, 912.6536
90.39331, 911.1459
90.87543, 910.2365
91.35754, 908.6239
91.83966, 897.2533
92.32178, 869.9403
92.80389, 842.6826
93.28601, 817.1118
93.76813, 793.8362
94.25024, 772.7024
94.73236, 752.9997
95.21448, 734.6126
95.69659, 715.8840
96.17871, 699.1755
96.66083, 684.5193
97.14294, 671.2893
97.62506, 658.8448
98.10718, 647.0541
98.58929, 636.2330
99.07141, 625.7219
99.55353, 616.2018
100.0356, 608.2383
100.5178, 601.4901
100.9999, 594.8570
101.4820, 587.2154
101.9641, 578.2936
102.4462, 570.1094
102.9283, 563.0518
103.4105, 556.3417
103.8926, 548.8759
104.3747, 540.2474
104.8568, 531.9337
105.3389, 526.1686
105.8210, 522.4424
106.3032, 518.4377
106.7853, 512.9254
107.2674, 506.1865
107.7495, 499.4854
108.2316, 492.8975
108.7137, 486.5909
109.1959, 480.5006
109.6780, 474.6522
110.1601, 469.3701
110.6422, 465.1105
111.1243, 462.1140
111.6064, 459.2849
112.0886, 456.1403
112.5707, 453.2878
113.0528, 451.4475
113.5349, 450.7854
114.0170, 450.5924
114.4991, 449.2119
114.9813, 445.3170
115.4634, 441.8572
115.9455, 439.5840
116.4276, 437.6967
116.9097, 435.1721
117.3918, 431.4138
117.8740, 426.6999
118.3561, 422.6083
118.8382, 419.0284
119.3203, 416.0305
119.8024, 413.9767
120.2845, 412.6280
120.7667, 411.1967
121.2488, 409.0655
121.7309, 406.3441
122.2130, 404.0003
122.6951, 402.8589
123.1772, 401.5975
123.6594, 398.8315
124.1415, 394.3023
124.6236, 389.5318
125.1057, 385.2752
125.5878, 381.5656
126.0699, 378.7479
126.5521, 377.4894
127.0342, 377.2465
127.5163, 376.3633
127.9984, 374.5926
128.4805, 372.4578
128.9626, 370.1138
129.4448, 367.6538
129.9269, 365.3074
130.4090, 363.2955
130.8911, 361.6637
131.3732, 359.8852
131.8553, 357.6943
132.3375, 355.5695
132.8196, 353.8476
133.3017, 352.4486
133.7838, 350.9710
134.2659, 348.8828
134.7480, 345.7958
135.2302, 343.0862
135.7123, 340.7202
136.1944, 338.6863
136.6765, 337.1095
137.1586, 335.9790
137.6407, 335.0229
138.1229, 333.7602
138.6050, 332.0466
139.0871, 330.2671
139.5692, 328.5220
140.0513, 326.6974
140.5334, 324.5872
141.0156, 322.0455
141.4977, 319.3244
141.9798, 316.9127
142.4619, 314.7068
142.9440, 312.8798
143.4261, 311.7842
143.9083, 311.2150
144.3904, 310.2802
144.8725, 308.2674
145.3546, 306.0078
145.8367, 304.8612
146.3188, 305.2669
146.8010, 305.7509
147.2831, 304.8381
147.7652, 302.3602
148.2473, 299.8605
148.7294, 297.8208
149.2115, 296.0938
149.6937, 294.6879
150.1758, 293.6705
150.6579, 292.7724
151.1400, 291.4878
151.6221, 289.7307
152.1042, 287.7311
152.5864, 285.2959
153.0685, 282.7972
153.5506, 280.7217
154.0327, 279.3496
154.5148, 278.4466
154.9969, 276.9556
155.4791, 274.1873
155.9612, 271.5441
156.4433, 269.2559
156.9254, 267.2315
157.4075, 265.3329
157.8896, 263.4702
158.3718, 261.6436
158.8539, 259.8788
159.3360, 258.0194
159.8181, 256.3586
160.3002, 255.0782
160.7823, 254.1077
161.2645, 253.2199
161.7466, 252.2447
162.2287, 251.1828
162.7108, 250.2041
163.1929, 249.3694
163.6750, 248.5625
164.1572, 247.7448
164.6393, 246.9090
165.1214, 245.9718
165.6035, 244.7813
166.0856, 243.3864
166.5677, 242.1944
167.0499, 241.4686
167.5320, 240.8676
168.0141, 239.9360
168.4962, 238.5566
168.9783, 237.1829
169.4604, 236.3471
169.9426, 235.8242
170.4247, 235.1007
170.9068, 233.8407
171.3889, 232.2327
171.8710, 230.7650
172.3531, 229.4519
172.8353, 228.3095
173.3174, 227.4171
173.7995, 226.6797
174.2816, 225.8861
174.7637, 224.8685
175.2458, 223.6387
175.7280, 222.4330
176.2101, 221.2278
176.6922, 220.0731
177.1743, 218.9527
177.6564, 217.8933
178.1385, 216.9477
178.6207, 216.2171
179.1028, 215.7567
179.5849, 215.0935
180.0670, 214.1394
180.5491, 213.0641
181.0313, 211.7562
181.5134, 210.3223
181.9955, 209.0923
182.4776, 208.4674
182.9597, 208.7275
183.4418, 208.5807
183.9240, 207.7964
184.4061, 206.8833
184.8882, 206.0938
185.3703, 205.4745
185.8524, 204.9631
186.3345, 204.5027
186.8167, 204.1532
187.2988, 203.6486
187.7809, 202.7226
188.2630, 201.8069
188.7451, 201.3451
189.2272, 201.4110
189.7094, 201.6042
190.1915, 201.3907
190.6736, 200.6734
191.1557, 200.0114
191.6378, 199.6087
192.1199, 199.2318
192.6021, 198.4899
193.0842, 197.2367
193.5663, 195.9476
194.0484, 195.4625
194.5305, 195.7137
195.0126, 195.7041
195.4948, 194.8557
195.9769, 193.5634
196.4590, 192.6408
196.9411, 192.3178
197.4232, 192.2664
197.9053, 192.1530
198.3875, 191.9897
198.8696, 191.8842
199.3517, 191.9249
199.8338, 192.0813
200.3159, 192.2406
200.7980, 192.4935
201.2802, 192.5939
201.7623, 192.2416
202.2444, 191.5305
202.7265, 190.9675
203.2086, 191.1030
203.6907, 191.9091
204.1729, 192.3240
204.6550, 191.8255
205.1371, 191.3045
205.6192, 191.2505
206.1013, 191.6138
206.5834, 192.0512
207.0656, 192.2428
207.5477, 192.1544
208.0298, 192.0505
208.5119, 191.6233
208.9940, 191.4406
209.4761, 191.9167
209.9583, 192.9500
210.4404, 194.0342
210.9225, 194.6114
211.4046, 194.5199
211.8867, 194.6002
212.3689, 195.0175
212.8510, 195.4505
213.3331, 195.7454
213.8152, 195.8983
214.2973, 196.0007
214.7794, 196.1690
215.2616, 196.4792
215.7437, 196.5620
216.2258, 196.4346
216.7079, 196.1245
217.1900, 195.5797
217.6721, 194.8349
218.1543, 194.0168
218.6364, 193.2601
219.1185, 192.5637
219.6006, 191.9690
220.0827, 191.5994
220.5648, 191.2301
221.0470, 190.6775
221.5291, 189.9396
222.0112, 189.1761
222.4933, 188.5435
222.9754, 188.0652
223.4575, 187.7007
223.9397, 187.6209
224.4218, 187.5441
224.9039, 187.1832
225.3860, 186.5199
225.8681, 185.8630
226.3502, 185.5809
226.8324, 185.7002
227.3145, 185.5395
227.7966, 184.8446
228.2787, 183.9765
228.7608, 183.2955
229.2429, 182.8468
229.7251, 182.3965
230.2072, 181.6925
230.6893, 180.7827
231.1714, 179.9560
231.6535, 179.1920
232.1356, 178.5629
232.6178, 178.2171
233.0999, 178.2032
233.5820, 178.2103
234.0641, 178.0431
234.5462, 177.7148
235.0283, 177.2152
235.5105, 176.2093
235.9926, 175.1604
236.4747, 174.9341
236.9568, 175.7996
237.4389, 176.4442
237.9210, 175.5575
238.4032, 173.9438
238.8853, 172.7711
239.3674, 172.6360
239.8495, 173.0182
240.3316, 173.0638
240.8137, 172.7023
241.2959, 172.2002
241.7780, 171.4916
242.2601, 170.7776
242.7422, 170.3399
243.2243, 170.3704
243.7064, 170.6228
244.1886, 170.6323
244.6707, 170.3270
245.1528, 169.9508
245.6349, 169.5872
246.1170, 169.2090
246.5991, 168.7747
247.0813, 168.2601
247.5634, 167.7107
248.0455, 167.2036
248.5276, 166.7361
249.0097, 166.3337
249.4918, 166.0994
249.9740, 165.8794
250.4561, 165.4860
250.9382, 164.8408
251.4203, 164.1310
251.9024, 163.7327
252.3845, 163.7905
252.8667, 163.8580
253.3488, 163.8799
253.8309, 163.8741
254.3130, 163.8688
254.7951, 163.8703
255.2772, 163.8385
255.7594, 163.7105
256.2415, 163.5022
256.7236, 163.1449
257.2057, 162.4227
257.6878, 161.7137
258.1699, 161.3197
258.6520, 161.3037
259.1342, 161.4863
259.6163, 161.6048
260.0984, 161.6689
260.5805, 161.6360
261.0626, 161.5743
261.5447, 161.3909
262.0269, 160.9366
262.5090, 160.2328
262.9911, 159.5124
263.4732, 159.1383
263.9553, 159.4280
264.4374, 159.1591
264.9196, 157.9068
265.4017, 156.5457
265.8838, 155.6096
266.3659, 155.1273
266.8480, 154.7973
267.3301, 154.2954
267.8123, 153.5926
268.2944, 152.8248
268.7765, 151.9628
269.2586, 151.0782
269.7407, 150.1463
270.2228, 149.2057
270.7050, 148.3632
271.1871, 147.7229
271.6692, 147.3043
272.1513, 146.9231
272.6334, 146.6728
273.1155, 146.3628
273.5977, 145.8681
274.0798, 145.2262
274.5619, 144.5711
275.0440, 143.9976
275.5261, 143.5047
276.0082, 143.0182
276.4904, 142.5776
276.9725, 142.1042
277.4546, 141.5369
277.9367, 140.9132
278.4188, 140.3036
278.9009, 139.7369
279.3831, 139.2347
279.8652, 138.9584
280.3473, 139.2992
280.8294, 139.3821
281.3115, 138.7074
281.7936, 137.6280
282.2758, 136.8657
282.7579, 136.8152
283.2400, 137.1756
283.7221, 136.9804
284.2042, 135.7470
284.6863, 134.7480
285.1685, 134.4782
285.6506, 134.5478
286.1327, 134.3784
286.6148, 133.7533
287.0969, 132.8252
287.5790, 131.8499
288.0612, 130.7102
288.5433, 129.8038
289.0254, 129.2250
289.5075, 128.9004
289.9896, 128.8271
290.4717, 129.0173
290.9539, 129.2116
291.4360, 129.0049
291.9181, 128.2773
292.4002, 127.7291
292.8823, 127.5721
293.3644, 127.5432
293.8466, 127.3458
294.3287, 126.9342
294.8108, 126.5383
295.2929, 126.4305
295.7750, 126.6410
296.2571, 126.6259
296.7393, 126.3063
297.2214, 125.7962
297.7035, 125.1006
298.1856, 124.2463
298.6677, 123.4498
299.1498, 122.8943
299.6320, 122.5630
300.1141, 122.1859
300.5962, 121.7006
301.0783, 121.2243
301.5604, 120.8339
302.0425, 120.5178
302.5247, 120.2290
303.0068, 119.9643
303.4889, 119.6943
303.9710, 119.3212
304.4531, 118.7992
304.9352, 118.2527
305.4174, 117.7485
305.8995, 117.2655
306.3816, 116.7139
306.8637, 116.0097
307.3458, 115.3030
307.8279, 114.9538
308.3101, 115.0734
308.7922, 115.1345
309.2743, 114.9766
309.7564, 114.6497
310.2385, 114.2030
310.7206, 113.6183
311.2028, 113.0306
311.6849, 112.6510
312.1670, 112.4888
312.6491, 112.3261
313.1312, 112.1688
313.6133, 111.9657
314.0955, 111.6000
314.5776, 111.0468
315.0597, 110.5261
315.5418, 110.2682
316.0239, 110.2733
316.5060, 110.3063
316.9882, 110.5142
317.4703, 110.6288
317.9524, 110.3600
318.4345, 109.7243
318.9166, 109.0337
319.3987, 108.4681
319.8809, 108.0412
320.3630, 107.7323
320.8451, 107.6595
321.3272, 107.5897
321.8093, 107.4397
322.2914, 107.1972
322.7736, 106.7825
323.2557, 106.0795
323.7378, 105.2670
324.2199, 104.8181
324.7020, 104.8388
325.1841, 104.9427
325.6663, 104.9446
326.1484, 104.9440
326.6305, 105.2542
327.1126, 106.0730
327.5947, 106.8707
328.0768, 106.6288
328.5590, 105.1300
329.0411, 103.9081
329.5232, 103.3309
330.0053, 103.1271
330.4874, 103.0608
330.9695, 103.0892
331.4517, 103.0498
331.9338, 102.7223
332.4159, 102.0660
332.8980, 101.6598
333.3801, 101.7165
333.8622, 101.8797
334.3444, 101.8479
334.8265, 101.6391
335.3086, 101.5226
335.7907, 101.7323
336.2729, 102.2022
336.7550, 102.4097
337.2371, 102.2711
337.7192, 101.9934
338.2013, 101.5499
338.6834, 101.0309
339.1656, 100.6573
339.6477, 100.5539
340.1298, 100.6147
340.6119, 100.5462
341.0940, 100.2455
341.5761, 100.0190
342.0583, 99.97810
342.5404, 100.0226
343.0225, 99.99978
343.5046, 99.86588
343.9867, 99.75329
344.4688, 99.88337
344.9510, 100.4527
345.4331, 100.6560
345.9152, 100.1595
346.3973, 99.52630
346.8794, 99.21310
347.3615, 99.23722
347.8437, 99.31701
348.3258, 99.19960
348.8079, 98.87218
349.2900, 98.65188
349.7721, 98.63767
350.2542, 98.61306
350.7364, 98.47005
351.2185, 98.24477
351.7006, 98.03844
352.1827, 97.91402
352.6648, 97.83955
353.1469, 97.68186
353.6291, 97.14686
354.1112, 96.89294
354.5933, 97.26671
355.0754, 97.85106
355.5575, 98.13189
356.0396, 97.94699
356.5218, 97.55289
357.0039, 97.38069
357.4860, 97.56645
357.9681, 97.69886
358.4502, 97.71498
358.9323, 97.72985
359.4145, 97.90596
359.8966, 98.19773
360.3787, 98.33376
360.8608, 97.99444
361.3429, 97.10042
361.8250, 96.70155
362.3072, 97.39423
362.7893, 97.92687
363.2714, 97.79807
363.7535, 97.22615
364.2356, 96.63283
364.7177, 96.25285
365.1999, 96.06911
365.6820, 96.02016
366.1641, 96.21180
366.6462, 96.40230
367.1283, 96.63906
367.6104, 96.82533
368.0926, 96.83255
368.5747, 96.63515
369.0568, 96.37150
369.5389, 96.26476
370.0210, 96.39133
370.5031, 96.45668
370.9853, 96.39613
371.4674, 96.32613
371.9495, 96.29715
372.4316, 96.31275
372.9137, 96.35780
373.3958, 96.42520
373.8780, 96.51338
374.3601, 96.59204
374.8422, 96.64798
375.3243, 96.71162
375.8064, 96.84846
376.2885, 96.98444
376.7707, 97.02406
377.2528, 96.92905
377.7349, 96.69545
378.2170, 96.26840
378.6991, 95.54145
379.1812, 94.93623
379.6634, 94.66831
380.1455, 94.48732
380.6276, 94.23324
381.1097, 93.87600
381.5918, 93.45065
382.0739, 92.97450
382.5561, 92.45169
383.0382, 91.91673
383.5203, 91.29519
384.0024, 90.76888
384.4845, 90.48652
384.9666, 90.38403
385.4488, 90.27196
385.9309, 89.99887
386.4130, 89.66624
386.8951, 89.55595
387.3772, 89.75654
387.8593, 89.83486
388.3415, 89.37981
388.8236, 88.72423
389.3057, 88.30623
389.7878, 88.27341
390.2699, 88.32498
390.7520, 88.18990
391.2342, 87.89373
391.7163, 87.65565
392.1984, 87.60094
392.6805, 87.54037
393.1626, 87.15503
393.6447, 86.43893
394.1269, 85.92241
394.6090, 85.90095
395.0911, 86.17079
395.5732, 86.47492
396.0553, 86.79359
396.5374, 87.00093
397.0196, 86.90652
397.5017, 86.58030
397.9838, 86.48581
398.4659, 86.81043
398.9480, 87.21933
399.4301, 87.52394
399.9123, 87.74283
400.3944, 87.96575
400.8765, 88.25124
401.3586, 88.52904
401.8407, 88.57504
402.3228, 88.11814
402.8050, 88.05042
403.2871, 88.91979
403.7692, 90.06077
404.2513, 90.72445
404.7334, 90.77946
405.2155, 90.59673
405.6977, 90.55909
406.1798, 90.69058
406.6619, 90.80697
407.1440, 90.79869
407.6261, 90.88398
408.1082, 91.26445
408.5904, 91.81713
409.0725, 92.27624
409.5546, 92.49353
410.0367, 92.49435
410.5188, 92.35918
411.0009, 91.93204
411.4831, 91.57094
411.9652, 91.32157
412.4473, 91.12650
412.9294, 91.00213
413.4115, 90.91911
413.8936, 90.72182
414.3758, 90.14955
414.8579, 89.06341
415.3400, 88.37694
415.8221, 88.44868
416.3042, 88.58952
416.7863, 88.63167
417.2685, 88.56192
417.7506, 88.39708
418.2327, 88.14312
418.7148, 87.80969
419.1969, 87.40072
419.6790, 86.82182
420.1612, 86.38771
420.6433, 86.31586
421.1254, 86.32407
421.6075, 86.13699
422.0896, 85.71091
422.5717, 85.32069
423.0539, 85.32921
423.5360, 85.69981
424.0181, 85.80608
424.5002, 85.39571
424.9823, 84.99611
425.4644, 84.99123
425.9466, 85.26436
426.4287, 85.52702
426.9108, 85.69127
427.3929, 85.76637
427.8750, 85.74343
428.3571, 85.61835
428.8393, 85.47336
429.3214, 85.27355
429.8035, 85.13103
430.2856, 85.22438
430.7677, 85.60857
431.2498, 86.03262
431.7320, 86.43137
432.2141, 86.77635
432.6962, 86.99953
433.1783, 87.08106
433.6604, 87.09885
434.1425, 87.12895
434.6247, 87.16982
435.1068, 87.16208
435.5889, 86.86341
436.0710, 86.73108
436.5531, 87.18700
437.0352, 88.06398
437.5174, 88.84485
437.9995, 89.25903
438.4816, 89.43752
438.9637, 89.73265
439.4458, 90.16785
439.9279, 90.68884
440.4101, 91.29004
440.8922, 91.97746
441.3743, 92.81668
441.8564, 93.78582
442.3385, 94.73769
442.8206, 95.52995
443.3028, 96.15144
443.7849, 96.76275
444.2670, 97.19678
444.7491, 97.80715
445.2312, 98.81691
445.7133, 100.0212
446.1955, 101.1459
446.6776, 102.0707
447.1597, 102.8463
447.6418, 103.5296
448.1239, 104.0483
448.6060, 104.6958
449.0882, 105.8372
449.5703, 106.8464
450.0524, 107.2827
450.5345, 107.2251
451.0166, 107.1127
451.4987, 107.2666
451.9809, 107.6077
452.4630, 107.8868
452.9451, 108.1657
453.4272, 108.2145
453.9093, 107.6830
454.3914, 106.9506
454.8736, 106.4551
455.3557, 106.3303
455.8378, 106.2430
456.3199, 105.8987
456.8020, 105.3590
457.2841, 104.9026
457.7663, 104.6295
458.2484, 104.3449
458.7305, 103.8297
459.2126, 103.1114
459.6947, 102.3355
460.1768, 101.3386
460.6590, 100.4382
461.1411, 100.0316
461.6232, 100.0053
462.1053, 99.80051
462.5874, 99.10042
463.0695, 98.09423
463.5517, 97.29525
464.0338, 96.84201
464.5159, 96.32895
464.9980, 95.53060
465.4801, 94.76351
465.9622, 94.33665
466.4444, 94.27307
466.9265, 94.40760
467.4086, 94.65022
467.8907, 95.00319
468.3728, 94.81826
468.8549, 93.50564
469.3371, 92.31382
469.8192, 91.56812
470.3013, 91.04690
470.7834, 90.45292
471.2655, 89.68301
471.7477, 88.90517
472.2298, 88.40700
472.7119, 88.26796
473.1940, 88.03687
473.6761, 87.65760
474.1582, 87.20788
474.6404, 86.63268
475.1225, 86.01336
475.6046, 85.54813
476.0867, 85.40137
476.5688, 85.40800
477.0509, 85.13539
477.5331, 84.48613
478.0152, 84.30916
478.4973, 85.51565
478.9794, 86.86604
479.4615, 86.81022
479.9436, 85.18434
480.4258, 83.59901
480.9079, 82.83933
481.3900, 82.62386
481.8721, 82.54665
482.3542, 82.56882
482.8363, 82.57121
483.3185, 82.44334
483.8006, 82.22078
484.2827, 82.11201
484.7648, 82.20796
485.2469, 82.30428
485.7290, 82.32131
486.2112, 82.29774
486.6933, 82.32975
487.1754, 82.43893
487.6575, 82.47378
488.1396, 82.20781
488.6217, 81.51836
489.1039, 81.12231
489.5860, 81.22160
490.0681, 81.34990
490.5502, 81.32915
491.0323, 81.20322
491.5144, 81.07945
491.9966, 81.01244
492.4787, 80.95595
492.9608, 80.79526
493.4429, 80.46871
493.9250, 80.22129
494.4071, 80.26347
494.8893, 80.23402
495.3714, 79.85880
495.8535, 79.21597
496.3356, 78.62601
496.8177, 78.27194
497.2998, 78.11164
497.7820, 78.08655
498.2641, 78.23313
498.7462, 78.31548
499.2283, 78.22240
499.7104, 78.01926
500.1925, 77.77401
500.6747, 77.47652
501.1568, 77.22820
501.6389, 77.19579
502.1210, 77.20515
502.6031, 76.92168
503.0852, 76.30489
503.5674, 75.65317
504.0495, 75.18256
504.5316, 74.87692
505.0137, 74.60217
505.4958, 74.31552
505.9779, 74.10601
506.4601, 74.06660
506.9422, 74.08981
507.4243, 74.05437
507.9064, 73.92376
508.3885, 73.69520
508.8706, 73.33411
509.3528, 72.79372
509.8349, 72.48837
510.3170, 72.55661
510.7991, 72.71282
511.2812, 73.01402
511.7633, 73.31126
512.2454, 73.38899
512.7275, 73.15777
513.2097, 72.77843
513.6918, 72.45406
514.1739, 72.17513
514.6560, 72.05701
515.1381, 72.27090
515.6202, 72.46529
516.1024, 72.34892
516.5845, 72.04336
517.0666, 71.88676
517.5487, 72.11994
518.0308, 72.44669
518.5129, 72.40440
518.9951, 72.05293
519.4772, 72.01925
519.9593, 72.61533
520.4414, 73.45107
520.9235, 73.92655
521.4056, 74.02822
521.8878, 74.14682
522.3699, 74.34615
522.8520, 74.58700
523.3341, 74.76590
523.8162, 74.94318
524.2983, 75.36185
524.7805, 76.18703
525.2626, 77.23901
525.7447, 78.01696
526.2268, 78.14071
526.7089, 78.58083
527.1910, 79.73399
527.6732, 80.85994
528.1553, 81.42490
528.6374, 81.48872
529.1195, 81.45348
529.6016, 81.60181
530.0837, 81.88207
530.5659, 82.15759
531.0480, 82.56210
531.5301, 82.60906
532.0122, 81.98608
532.4943, 81.05656
532.9764, 79.94572
533.4586, 78.69871
533.9407, 77.63599
534.4228, 77.05376
534.9049, 76.76765
535.3870, 76.41251
535.8691, 75.96671
536.3513, 75.56404
536.8334, 75.26794
537.3155, 75.07487
537.7976, 74.97691
538.2797, 75.02892
538.7618, 75.03578
539.2440, 74.90385
539.7261, 74.72221
540.2082, 74.61543
540.6903, 74.57919
541.1724, 74.47413
541.6545, 74.17071
542.1367, 73.70684
542.6188, 73.38968
543.1009, 73.36646
543.5830, 73.30618
544.0651, 73.18321
544.5472, 73.00669
545.0294, 72.77158
545.5115, 72.48573
545.9936, 72.18148
546.4757, 71.86722
546.9578, 71.55647
547.4399, 71.34794
547.9221, 71.29166
548.4042, 71.22121
548.8863, 71.08879
549.3684, 70.89212
549.8505, 70.56801
550.3326, 70.07698
550.8148, 69.71864
551.2969, 69.76573
551.7790, 70.04394
552.2611, 70.23007
552.7432, 70.28712
553.2253, 70.29762
553.7075, 70.29629
554.1896, 70.29930
554.6717, 70.39307
555.1538, 70.73722
555.6359, 70.93933
556.1180, 70.77702
556.6002, 70.52640
557.0823, 70.42536
557.5644, 70.52771
558.0465, 70.84448
558.5286, 71.44538
559.0107, 72.26330
559.4929, 72.60238
559.9750, 72.04308
560.4571, 71.66823
560.9392, 71.82026
561.4213, 72.13772
561.9034, 72.33644
562.3856, 72.36587
562.8677, 72.30726
563.3498, 72.16176
563.8319, 71.98054
564.3140, 71.93101
564.7961, 72.03130
565.2783, 72.18049
565.7604, 72.36311
566.2425, 72.54284
566.7246, 72.62496
567.2067, 72.53962
567.6888, 72.59619
568.1710, 72.94443
568.6531, 73.46089
569.1352, 74.08603
569.6173, 74.77143
570.0994, 75.30343
570.5815, 75.48849
571.0637, 75.48488
571.5458, 75.95869
572.0279, 77.41476
572.5100, 78.61558
572.9921, 79.28465
573.4742, 79.86302
573.9564, 80.64957
574.4385, 81.64880
574.9206, 82.72905
575.4027, 83.84451
575.8848, 84.92216
576.3669, 85.63905
576.8491, 85.85397
577.3312, 86.45637
577.8133, 88.06718
578.2954, 89.86186
578.7775, 91.00450
579.2596, 91.51884
579.7418, 91.92294
580.2239, 92.51819
580.7060, 93.01369
