##NAMES=Gadolinite-(Y)
##RRUFFID=R120138
##IDEAL CHEMISTRY=Fe^2+^Be_2_Y^3+^_2_(SiO_4_)_2_O_2_
##LOCALITY=Ytterby, Uppland, Sweden
##OWNER=RRUFF
##SOURCE=William Shelton
##DESCRIPTION=Vitreous black massive
##STATUS=The identification of this mineral has been confirmed only by single crystal X-ray diffraction.
##URL=rruff.info/R120138
8.975323e+001, 0.000000e+000
9.023535e+001, 8.111037e+002
9.071747e+001, 7.934529e+002
9.119958e+001, 7.840565e+002
9.168170e+001, 8.036365e+002
9.216382e+001, 8.240234e+002
9.264594e+001, 8.389136e+002
9.312805e+001, 8.496695e+002
9.361017e+001, 8.588852e+002
9.409229e+001, 8.658622e+002
9.457440e+001, 8.695968e+002
9.505651e+001, 8.726725e+002
9.553863e+001, 8.764316e+002
9.602074e+001, 8.799183e+002
9.650286e+001, 8.822243e+002
9.698498e+001, 8.824166e+002
9.746709e+001, 8.792809e+002
9.794921e+001, 8.761726e+002
9.843133e+001, 8.730409e+002
9.891344e+001, 8.702650e+002
9.939556e+001, 8.674827e+002
9.987768e+001, 8.647999e+002
1.003598e+002, 8.628461e+002
1.008419e+002, 8.620636e+002
1.013240e+002, 8.623029e+002
1.018061e+002, 8.625231e+002
1.022883e+002, 8.626948e+002
1.027704e+002, 8.627497e+002
1.032525e+002, 8.624850e+002
1.037346e+002, 8.617592e+002
1.042167e+002, 8.612028e+002
1.046988e+002, 8.612203e+002
1.051810e+002, 8.614503e+002
1.056631e+002, 8.613961e+002
1.061452e+002, 8.607697e+002
1.066273e+002, 8.596489e+002
1.071094e+002, 8.583825e+002
1.075915e+002, 8.567902e+002
1.080737e+002, 8.551983e+002
1.085558e+002, 8.536751e+002
1.090379e+002, 8.522355e+002
1.095200e+002, 8.509163e+002
1.100021e+002, 8.496912e+002
1.104842e+002, 8.484881e+002
1.109664e+002, 8.478024e+002
1.114485e+002, 8.481401e+002
1.119306e+002, 8.485431e+002
1.124127e+002, 8.485861e+002
1.128948e+002, 8.481986e+002
1.133769e+002, 8.475555e+002
1.138591e+002, 8.469045e+002
1.143412e+002, 8.462216e+002
1.148233e+002, 8.455494e+002
1.153054e+002, 8.451740e+002
1.157875e+002, 8.446735e+002
1.162696e+002, 8.434390e+002
1.167517e+002, 8.411998e+002
1.172339e+002, 8.385573e+002
1.177160e+002, 8.370557e+002
1.181981e+002, 8.370784e+002
1.186802e+002, 8.370848e+002
1.191623e+002, 8.364235e+002
1.196444e+002, 8.353593e+002
1.201266e+002, 8.346881e+002
1.206087e+002, 8.349699e+002
1.210908e+002, 8.356921e+002
1.215729e+002, 8.358485e+002
1.220550e+002, 8.353973e+002
1.225371e+002, 8.344474e+002
1.230193e+002, 8.329948e+002
1.235014e+002, 8.309937e+002
1.239835e+002, 8.288418e+002
1.244656e+002, 8.262362e+002
1.249477e+002, 8.237643e+002
1.254298e+002, 8.220834e+002
1.259120e+002, 8.216103e+002
1.263941e+002, 8.218494e+002
1.268762e+002, 8.217095e+002
1.273583e+002, 8.210449e+002
1.278404e+002, 8.202159e+002
1.283225e+002, 8.194882e+002
1.288047e+002, 8.186745e+002
1.292868e+002, 8.174891e+002
1.297689e+002, 8.156944e+002
1.302510e+002, 8.133486e+002
1.307331e+002, 8.112848e+002
1.312152e+002, 8.095580e+002
1.316974e+002, 8.080731e+002
1.321795e+002, 8.067778e+002
1.326616e+002, 8.057089e+002
1.331437e+002, 8.049761e+002
1.336258e+002, 8.046974e+002
1.341079e+002, 8.049538e+002
1.345901e+002, 8.051804e+002
1.350722e+002, 8.055417e+002
1.355543e+002, 8.057593e+002
1.360364e+002, 8.059056e+002
1.365185e+002, 8.059033e+002
1.370006e+002, 8.052352e+002
1.374828e+002, 8.030546e+002
1.379649e+002, 7.988665e+002
1.384470e+002, 7.957849e+002
1.389291e+002, 7.946442e+002
1.394112e+002, 7.944285e+002
1.398933e+002, 7.939453e+002
1.403755e+002, 7.928938e+002
1.408576e+002, 7.917535e+002
1.413397e+002, 7.912799e+002
1.418218e+002, 7.914141e+002
1.423039e+002, 7.913715e+002
1.427860e+002, 7.906228e+002
1.432681e+002, 7.893876e+002
1.437503e+002, 7.884529e+002
1.442324e+002, 7.880048e+002
1.447145e+002, 7.879327e+002
1.451966e+002, 7.884242e+002
1.456787e+002, 7.894528e+002
1.461608e+002, 7.899113e+002
1.466430e+002, 7.883282e+002
1.471251e+002, 7.843820e+002
1.476072e+002, 7.815026e+002
1.480893e+002, 7.812935e+002
1.485714e+002, 7.817699e+002
1.490535e+002, 7.821000e+002
1.495357e+002, 7.820667e+002
1.500178e+002, 7.816613e+002
1.504999e+002, 7.808226e+002
1.509820e+002, 7.793346e+002
1.514641e+002, 7.778425e+002
1.519462e+002, 7.760357e+002
1.524284e+002, 7.744445e+002
1.529105e+002, 7.735302e+002
1.533926e+002, 7.734616e+002
1.538747e+002, 7.739924e+002
1.543568e+002, 7.745452e+002
1.548389e+002, 7.761327e+002
1.553211e+002, 7.763906e+002
1.558032e+002, 7.740009e+002
1.562853e+002, 7.705921e+002
1.567674e+002, 7.681445e+002
1.572495e+002, 7.676694e+002
1.577316e+002, 7.687145e+002
1.582138e+002, 7.694080e+002
1.586959e+002, 7.701170e+002
1.591780e+002, 7.701472e+002
1.596601e+002, 7.687582e+002
1.601422e+002, 7.665062e+002
1.606243e+002, 7.647307e+002
1.611065e+002, 7.643505e+002
1.615886e+002, 7.649623e+002
1.620707e+002, 7.647097e+002
1.625528e+002, 7.631666e+002
1.630349e+002, 7.612672e+002
1.635170e+002, 7.592079e+002
1.639991e+002, 7.570554e+002
1.644813e+002, 7.555471e+002
1.649634e+002, 7.553844e+002
1.654455e+002, 7.561930e+002
1.659276e+002, 7.570505e+002
1.664097e+002, 7.583708e+002
1.668918e+002, 7.593044e+002
1.673740e+002, 7.585995e+002
1.678561e+002, 7.559215e+002
1.683382e+002, 7.532009e+002
1.688203e+002, 7.514841e+002
1.693024e+002, 7.504196e+002
1.697845e+002, 7.496982e+002
1.702667e+002, 7.493537e+002
1.707488e+002, 7.492007e+002
1.712309e+002, 7.488477e+002
1.717130e+002, 7.483545e+002
1.721951e+002, 7.475059e+002
1.726772e+002, 7.458740e+002
1.731594e+002, 7.439592e+002
1.736415e+002, 7.424924e+002
1.741236e+002, 7.419908e+002
1.746057e+002, 7.422846e+002
1.750878e+002, 7.423506e+002
1.755699e+002, 7.421409e+002
1.760521e+002, 7.417226e+002
1.765342e+002, 7.411691e+002
1.770163e+002, 7.404303e+002
1.774984e+002, 7.393653e+002
1.779805e+002, 7.377840e+002
1.784626e+002, 7.356749e+002
1.789448e+002, 7.342365e+002
1.794269e+002, 7.341288e+002
1.799090e+002, 7.340332e+002
1.803911e+002, 7.334964e+002
1.808732e+002, 7.326246e+002
1.813553e+002, 7.317994e+002
1.818375e+002, 7.313614e+002
1.823196e+002, 7.313662e+002
1.828017e+002, 7.311874e+002
1.832838e+002, 7.307307e+002
1.837659e+002, 7.302106e+002
1.842480e+002, 7.296738e+002
1.847301e+002, 7.291487e+002
1.852123e+002, 7.287395e+002
1.856944e+002, 7.286346e+002
1.861765e+002, 7.289130e+002
1.866586e+002, 7.284453e+002
1.871407e+002, 7.265781e+002
1.876228e+002, 7.244661e+002
1.881050e+002, 7.228297e+002
1.885871e+002, 7.217704e+002
1.890692e+002, 7.212347e+002
1.895513e+002, 7.213932e+002
1.900334e+002, 7.222205e+002
1.905155e+002, 7.226953e+002
1.909977e+002, 7.225162e+002
1.914798e+002, 7.220242e+002
1.919619e+002, 7.216705e+002
1.924440e+002, 7.215662e+002
1.929261e+002, 7.212839e+002
1.934082e+002, 7.201403e+002
1.938904e+002, 7.184086e+002
1.943725e+002, 7.169187e+002
1.948546e+002, 7.159489e+002
1.953367e+002, 7.153830e+002
1.958188e+002, 7.150693e+002
1.963009e+002, 7.151522e+002
1.967831e+002, 7.151407e+002
1.972652e+002, 7.145909e+002
1.977473e+002, 7.136605e+002
1.982294e+002, 7.127439e+002
1.987115e+002, 7.122067e+002
1.991936e+002, 7.118884e+002
1.996758e+002, 7.109830e+002
2.001579e+002, 7.087345e+002
2.006400e+002, 7.069630e+002
2.011221e+002, 7.069293e+002
2.016042e+002, 7.081094e+002
2.020863e+002, 7.092011e+002
2.025685e+002, 7.091794e+002
2.030506e+002, 7.081259e+002
2.035327e+002, 7.074607e+002
2.040148e+002, 7.075074e+002
2.044969e+002, 7.076430e+002
2.049790e+002, 7.078074e+002
2.054612e+002, 7.078858e+002
2.059433e+002, 7.076507e+002
2.064254e+002, 7.068078e+002
2.069075e+002, 7.053047e+002
2.073896e+002, 7.041945e+002
2.078717e+002, 7.038722e+002
2.083539e+002, 7.036035e+002
2.088360e+002, 7.032955e+002
2.093181e+002, 7.028669e+002
2.098002e+002, 7.021818e+002
2.102823e+002, 7.010507e+002
2.107644e+002, 6.993829e+002
2.112466e+002, 6.981672e+002
2.117287e+002, 6.976760e+002
2.122108e+002, 6.973400e+002
2.126929e+002, 6.971078e+002
2.131750e+002, 6.968695e+002
2.136571e+002, 6.963532e+002
2.141393e+002, 6.952015e+002
2.146214e+002, 6.931705e+002
2.151035e+002, 6.923533e+002
2.155856e+002, 6.938386e+002
2.160677e+002, 6.952908e+002
2.165498e+002, 6.955065e+002
2.170320e+002, 6.945410e+002
2.175141e+002, 6.931795e+002
2.179962e+002, 6.920998e+002
2.184783e+002, 6.913395e+002
2.189604e+002, 6.906297e+002
2.194425e+002, 6.898283e+002
2.199247e+002, 6.891752e+002
2.204068e+002, 6.889434e+002
2.208889e+002, 6.890810e+002
2.213710e+002, 6.891672e+002
2.218531e+002, 6.888114e+002
2.223352e+002, 6.879742e+002
2.228174e+002, 6.872929e+002
2.232995e+002, 6.868922e+002
2.237816e+002, 6.865506e+002
2.242637e+002, 6.860973e+002
2.247458e+002, 6.855248e+002
2.252279e+002, 6.849599e+002
2.257100e+002, 6.845818e+002
2.261922e+002, 6.843239e+002
2.266743e+002, 6.837333e+002
2.271564e+002, 6.822584e+002
2.276385e+002, 6.807675e+002
2.281206e+002, 6.802663e+002
2.286027e+002, 6.808334e+002
2.290849e+002, 6.813472e+002
2.295670e+002, 6.807835e+002
2.300491e+002, 6.795362e+002
2.305312e+002, 6.787064e+002
2.310133e+002, 6.788926e+002
2.314954e+002, 6.793461e+002
2.319776e+002, 6.790905e+002
2.324597e+002, 6.780037e+002
2.329418e+002, 6.770692e+002
2.334239e+002, 6.771823e+002
2.339060e+002, 6.778087e+002
2.343881e+002, 6.781547e+002
2.348703e+002, 6.779973e+002
2.353524e+002, 6.774934e+002
2.358345e+002, 6.767538e+002
2.363166e+002, 6.756815e+002
2.367987e+002, 6.747542e+002
2.372808e+002, 6.741979e+002
2.377630e+002, 6.739255e+002
2.382451e+002, 6.739617e+002
2.387272e+002, 6.745121e+002
2.392093e+002, 6.750851e+002
2.396914e+002, 6.747376e+002
2.401735e+002, 6.731041e+002
2.406557e+002, 6.717229e+002
2.411378e+002, 6.714667e+002
2.416199e+002, 6.716264e+002
2.421020e+002, 6.715489e+002
2.425841e+002, 6.709913e+002
2.430662e+002, 6.701843e+002
2.435484e+002, 6.695072e+002
2.440305e+002, 6.689904e+002
2.445126e+002, 6.685346e+002
2.449947e+002, 6.680450e+002
2.454768e+002, 6.676334e+002
2.459589e+002, 6.675031e+002
2.464410e+002, 6.677457e+002
2.469232e+002, 6.680069e+002
2.474053e+002, 6.675774e+002
2.478874e+002, 6.660368e+002
2.483695e+002, 6.648096e+002
2.488516e+002, 6.646664e+002
2.493337e+002, 6.645940e+002
2.498159e+002, 6.635705e+002
2.502980e+002, 6.613221e+002
2.507801e+002, 6.587955e+002
2.512622e+002, 6.576766e+002
2.517443e+002, 6.587733e+002
2.522264e+002, 6.594869e+002
2.527086e+002, 6.596330e+002
2.531907e+002, 6.593502e+002
2.536728e+002, 6.586551e+002
2.541549e+002, 6.575806e+002
2.546370e+002, 6.562676e+002
2.551191e+002, 6.548043e+002
2.556013e+002, 6.526961e+002
2.560834e+002, 6.516057e+002
2.565655e+002, 6.521987e+002
2.570476e+002, 6.531537e+002
2.575297e+002, 6.536510e+002
2.580118e+002, 6.535257e+002
2.584940e+002, 6.531125e+002
2.589761e+002, 6.528967e+002
2.594582e+002, 6.531591e+002
2.599403e+002, 6.528694e+002
2.604224e+002, 6.516332e+002
2.609045e+002, 6.502690e+002
2.613867e+002, 6.492861e+002
2.618688e+002, 6.487275e+002
2.623509e+002, 6.483078e+002
2.628330e+002, 6.476615e+002
2.633151e+002, 6.466017e+002
2.637972e+002, 6.460391e+002
2.642794e+002, 6.464254e+002
2.647615e+002, 6.468324e+002
2.652436e+002, 6.466878e+002
2.657257e+002, 6.460226e+002
2.662078e+002, 6.452411e+002
2.666899e+002, 6.447001e+002
2.671721e+002, 6.443784e+002
2.676542e+002, 6.445328e+002
2.681363e+002, 6.458171e+002
2.686184e+002, 6.468893e+002
2.691005e+002, 6.470925e+002
2.695826e+002, 6.464688e+002
2.700648e+002, 6.453483e+002
2.705469e+002, 6.439036e+002
2.710290e+002, 6.421125e+002
2.715111e+002, 6.409669e+002
2.719932e+002, 6.407514e+002
2.724753e+002, 6.407463e+002
2.729575e+002, 6.408373e+002
2.734396e+002, 6.409122e+002
2.739217e+002, 6.406751e+002
2.744038e+002, 6.398221e+002
2.748859e+002, 6.384686e+002
2.753680e+002, 6.381137e+002
2.758501e+002, 6.400071e+002
2.763322e+002, 6.413117e+002
2.768144e+002, 6.404542e+002
2.772965e+002, 6.382719e+002
2.777786e+002, 6.367607e+002
2.782607e+002, 6.371140e+002
2.787428e+002, 6.387946e+002
2.792249e+002, 6.394753e+002
2.797071e+002, 6.385123e+002
2.801892e+002, 6.375350e+002
2.806713e+002, 6.368217e+002
2.811534e+002, 6.363818e+002
2.816355e+002, 6.363196e+002
2.821176e+002, 6.367391e+002
2.825998e+002, 6.373766e+002
2.830819e+002, 6.375115e+002
2.835640e+002, 6.368936e+002
2.840461e+002, 6.363438e+002
2.845282e+002, 6.362274e+002
2.850103e+002, 6.362288e+002
2.854925e+002, 6.357828e+002
2.859746e+002, 6.346556e+002
2.864567e+002, 6.333341e+002
2.869388e+002, 6.326749e+002
2.874209e+002, 6.328503e+002
2.879030e+002, 6.330335e+002
2.883852e+002, 6.329874e+002
2.888673e+002, 6.329291e+002
2.893494e+002, 6.331895e+002
2.898315e+002, 6.338539e+002
2.903136e+002, 6.345957e+002
2.907957e+002, 6.350422e+002
2.912779e+002, 6.351702e+002
2.917600e+002, 6.350955e+002
2.922421e+002, 6.348128e+002
2.927242e+002, 6.343362e+002
2.932063e+002, 6.335641e+002
2.936884e+002, 6.324904e+002
2.941706e+002, 6.314854e+002
2.946527e+002, 6.308961e+002
2.951348e+002, 6.307462e+002
2.956169e+002, 6.306683e+002
2.960990e+002, 6.308664e+002
2.965811e+002, 6.309778e+002
2.970633e+002, 6.306317e+002
2.975454e+002, 6.298549e+002
2.980275e+002, 6.290464e+002
2.985096e+002, 6.284081e+002
2.989917e+002, 6.279981e+002
2.994738e+002, 6.279303e+002
2.999560e+002, 6.287922e+002
3.004381e+002, 6.294589e+002
3.009202e+002, 6.289252e+002
3.014023e+002, 6.274867e+002
3.018844e+002, 6.266003e+002
3.023665e+002, 6.272881e+002
3.028487e+002, 6.288494e+002
3.033308e+002, 6.291078e+002
3.038129e+002, 6.271083e+002
3.042950e+002, 6.254772e+002
3.047771e+002, 6.256191e+002
3.052592e+002, 6.270369e+002
3.057414e+002, 6.285641e+002
3.062235e+002, 6.299104e+002
3.067056e+002, 6.308860e+002
3.071877e+002, 6.309789e+002
3.076698e+002, 6.300371e+002
3.081519e+002, 6.290967e+002
3.086341e+002, 6.284742e+002
3.091162e+002, 6.280741e+002
3.095983e+002, 6.277833e+002
3.100804e+002, 6.276010e+002
3.105625e+002, 6.274083e+002
3.110446e+002, 6.269738e+002
3.115268e+002, 6.262751e+002
3.120089e+002, 6.257991e+002
3.124910e+002, 6.258074e+002
3.129731e+002, 6.260101e+002
3.134552e+002, 6.259924e+002
3.139373e+002, 6.256813e+002
3.144195e+002, 6.255006e+002
3.149016e+002, 6.260609e+002
3.153837e+002, 6.272620e+002
3.158658e+002, 6.276943e+002
3.163479e+002, 6.265363e+002
3.168300e+002, 6.250668e+002
3.173121e+002, 6.243407e+002
3.177943e+002, 6.243620e+002
3.182764e+002, 6.245947e+002
3.187585e+002, 6.247601e+002
3.192406e+002, 6.248408e+002
3.197227e+002, 6.248133e+002
3.202048e+002, 6.246396e+002
3.206870e+002, 6.244054e+002
3.211691e+002, 6.242859e+002
3.216512e+002, 6.241816e+002
3.221333e+002, 6.236233e+002
3.226154e+002, 6.221959e+002
3.230975e+002, 6.204263e+002
3.235797e+002, 6.197338e+002
3.240618e+002, 6.205198e+002
3.245439e+002, 6.212845e+002
3.250260e+002, 6.214511e+002
3.255081e+002, 6.212451e+002
3.259902e+002, 6.210345e+002
3.264724e+002, 6.208953e+002
3.269545e+002, 6.209288e+002
3.274366e+002, 6.213837e+002
3.279187e+002, 6.223358e+002
3.284008e+002, 6.231644e+002
3.288829e+002, 6.239792e+002
3.293651e+002, 6.245027e+002
3.298472e+002, 6.242737e+002
3.303293e+002, 6.232109e+002
3.308114e+002, 6.219037e+002
3.312935e+002, 6.208759e+002
3.317756e+002, 6.201566e+002
3.322578e+002, 6.196085e+002
3.327399e+002, 6.190505e+002
3.332220e+002, 6.187959e+002
3.337041e+002, 6.192838e+002
3.341862e+002, 6.204140e+002
3.346683e+002, 6.214875e+002
3.351505e+002, 6.220419e+002
3.356326e+002, 6.221045e+002
3.361147e+002, 6.220136e+002
3.365968e+002, 6.215701e+002
3.370789e+002, 6.212025e+002
3.375610e+002, 6.212963e+002
3.380432e+002, 6.216140e+002
3.385253e+002, 6.215075e+002
3.390074e+002, 6.206010e+002
3.394895e+002, 6.192760e+002
3.399716e+002, 6.186068e+002
3.404537e+002, 6.189914e+002
3.409359e+002, 6.192082e+002
3.414180e+002, 6.188371e+002
3.419001e+002, 6.182413e+002
3.423822e+002, 6.179750e+002
3.428643e+002, 6.181985e+002
3.433464e+002, 6.184772e+002
3.438286e+002, 6.181844e+002
3.443107e+002, 6.170444e+002
3.447928e+002, 6.160780e+002
3.452749e+002, 6.150447e+002
3.457570e+002, 6.143627e+002
3.462391e+002, 6.145814e+002
3.467213e+002, 6.156210e+002
3.472034e+002, 6.167457e+002
3.476855e+002, 6.173172e+002
3.481676e+002, 6.173115e+002
3.486497e+002, 6.170870e+002
3.491318e+002, 6.165370e+002
3.496140e+002, 6.159227e+002
3.500961e+002, 6.152620e+002
3.505782e+002, 6.146286e+002
3.510603e+002, 6.141763e+002
3.515424e+002, 6.140129e+002
3.520245e+002, 6.140689e+002
3.525067e+002, 6.140423e+002
3.529888e+002, 6.136161e+002
3.534709e+002, 6.134992e+002
3.539530e+002, 6.139656e+002
3.544351e+002, 6.147093e+002
3.549172e+002, 6.154622e+002
3.553994e+002, 6.161153e+002
3.558815e+002, 6.165558e+002
3.563636e+002, 6.165819e+002
3.568457e+002, 6.159744e+002
3.573278e+002, 6.153486e+002
3.578099e+002, 6.144079e+002
3.582920e+002, 6.136616e+002
3.587741e+002, 6.136512e+002
3.592563e+002, 6.142932e+002
3.597384e+002, 6.149327e+002
3.602205e+002, 6.148938e+002
3.607026e+002, 6.140753e+002
3.611847e+002, 6.135596e+002
3.616668e+002, 6.135014e+002
3.621490e+002, 6.135641e+002
3.626311e+002, 6.137382e+002
3.631132e+002, 6.139450e+002
3.635953e+002, 6.140661e+002
3.640774e+002, 6.140295e+002
3.645595e+002, 6.138555e+002
3.650417e+002, 6.136223e+002
3.655238e+002, 6.132084e+002
3.660059e+002, 6.129068e+002
3.664880e+002, 6.128046e+002
3.669701e+002, 6.127964e+002
3.674522e+002, 6.128911e+002
3.679344e+002, 6.130599e+002
3.684165e+002, 6.130451e+002
3.688986e+002, 6.122705e+002
3.693807e+002, 6.101281e+002
3.698628e+002, 6.089232e+002
3.703449e+002, 6.095950e+002
3.708271e+002, 6.104355e+002
3.713092e+002, 6.105956e+002
3.717913e+002, 6.100563e+002
3.722734e+002, 6.092399e+002
3.727555e+002, 6.084178e+002
3.732376e+002, 6.076034e+002
3.737198e+002, 6.071493e+002
3.742019e+002, 6.070847e+002
3.746840e+002, 6.074075e+002
3.751661e+002, 6.084967e+002
3.756482e+002, 6.098633e+002
3.761303e+002, 6.107578e+002
3.766125e+002, 6.107903e+002
3.770946e+002, 6.102189e+002
3.775767e+002, 6.096183e+002
3.780588e+002, 6.090570e+002
3.785409e+002, 6.082588e+002
3.790230e+002, 6.068057e+002
3.795052e+002, 6.052894e+002
3.799873e+002, 6.041475e+002
3.804694e+002, 6.034668e+002
3.809515e+002, 6.030993e+002
3.814336e+002, 6.030587e+002
3.819157e+002, 6.033311e+002
3.823979e+002, 6.032635e+002
3.828800e+002, 6.025331e+002
3.833621e+002, 6.017114e+002
3.838442e+002, 6.012281e+002
3.843263e+002, 6.009984e+002
3.848084e+002, 6.006923e+002
3.852906e+002, 6.000062e+002
3.857727e+002, 5.991461e+002
3.862548e+002, 5.985355e+002
3.867369e+002, 5.981533e+002
3.872190e+002, 5.981121e+002
3.877011e+002, 5.988720e+002
3.881833e+002, 5.999146e+002
3.886654e+002, 6.004911e+002
3.891475e+002, 6.003781e+002
3.896296e+002, 5.999276e+002
3.901117e+002, 5.993524e+002
3.905938e+002, 5.986716e+002
3.910760e+002, 5.980729e+002
3.915581e+002, 5.977252e+002
3.920402e+002, 5.973531e+002
3.925223e+002, 5.964744e+002
3.930044e+002, 5.950383e+002
3.934865e+002, 5.938440e+002
3.939687e+002, 5.932922e+002
3.944508e+002, 5.931513e+002
3.949329e+002, 5.932122e+002
3.954150e+002, 5.934902e+002
3.958971e+002, 5.934603e+002
3.963792e+002, 5.923957e+002
3.968614e+002, 5.904397e+002
3.973435e+002, 5.892875e+002
3.978256e+002, 5.895526e+002
3.983077e+002, 5.901509e+002
3.987898e+002, 5.905649e+002
3.992719e+002, 5.907431e+002
3.997540e+002, 5.905379e+002
4.002361e+002, 5.898016e+002
4.007183e+002, 5.887478e+002
4.012004e+002, 5.880095e+002
4.016825e+002, 5.876384e+002
4.021646e+002, 5.874232e+002
4.026467e+002, 5.874750e+002
4.031288e+002, 5.875983e+002
4.036110e+002, 5.876334e+002
4.040931e+002, 5.875292e+002
4.045752e+002, 5.871740e+002
4.050573e+002, 5.863761e+002
4.055394e+002, 5.849825e+002
4.060215e+002, 5.839701e+002
4.065037e+002, 5.834352e+002
4.069858e+002, 5.831407e+002
4.074679e+002, 5.832516e+002
4.079500e+002, 5.835164e+002
4.084321e+002, 5.833244e+002
4.089142e+002, 5.822361e+002
4.093964e+002, 5.805174e+002
4.098785e+002, 5.793873e+002
4.103606e+002, 5.793806e+002
4.108427e+002, 5.793058e+002
4.113248e+002, 5.789036e+002
4.118069e+002, 5.784728e+002
4.122891e+002, 5.784491e+002
4.127712e+002, 5.788815e+002
4.132533e+002, 5.792451e+002
4.137354e+002, 5.786774e+002
4.142175e+002, 5.767360e+002
4.146996e+002, 5.756318e+002
4.151818e+002, 5.759899e+002
4.156639e+002, 5.766371e+002
4.161460e+002, 5.774676e+002
