##NAMES=Gadolinite-(Y)
##RRUFFID=R080129
##IDEAL CHEMISTRY=Fe^2+^Be_2_Y^3+^_2_(SiO_4_)_2_O_2_
##LOCALITY=Ytterøya mine, Røvika, Ytterøya (island), Levanger, Nord-Trøndelag, Norway
##OWNER=RRUFF
##SOURCE=Michael Scott
##DESCRIPTION=Reddish-brown fragment from metamict sample R070340, after heating at T = 1000 C for 23 hours
##STATUS=The identification of this mineral has been confirmed only by X-ray diffraction
##URL=rruff.info/R080129
91.00781, 11.61824
91.48993, 12.22644
91.97205, 12.47000
92.45416, 11.98856
92.93628, 11.15813
93.41840, 10.86678
93.90051, 11.40073
94.38263, 12.27082
94.86475, 12.69302
95.34686, 12.67053
95.82898, 12.51401
96.31110, 12.44548
96.79321, 12.45709
97.27533, 12.45767
97.75745, 12.37632
98.23956, 12.27405
98.72168, 12.45459
99.20380, 12.97033
99.68591, 13.59851
100.1680, 14.08468
100.6501, 14.38536
101.1323, 14.73813
101.6144, 15.23030
102.0965, 15.87807
102.5786, 16.43684
103.0607, 16.80810
103.5428, 17.18069
104.0250, 17.88634
104.5071, 19.00565
104.9892, 20.31424
105.4713, 21.74520
105.9534, 23.38406
106.4355, 24.95778
106.9177, 26.53373
107.3998, 28.04797
107.8819, 29.33786
108.3640, 29.92942
108.8461, 30.66133
109.3282, 31.93943
109.8104, 34.48137
110.2925, 36.71624
110.7746, 38.34517
111.2567, 39.46315
111.7388, 40.88802
112.2209, 42.87865
112.7031, 45.09159
113.1852, 47.31362
113.6673, 49.48161
114.1494, 51.65755
114.6315, 53.83757
115.1136, 56.03848
115.5958, 58.33790
116.0779, 60.95263
116.5600, 63.62382
117.0421, 66.05088
117.5242, 67.77073
118.0063, 69.51412
118.4885, 71.71943
118.9706, 74.47862
119.4527, 77.40262
119.9348, 80.19450
120.4169, 82.99105
120.8990, 86.09286
121.3812, 90.65228
121.8633, 95.09839
122.3454, 97.75160
122.8275, 98.01170
123.3096, 97.40366
123.7917, 96.87867
124.2739, 96.48817
124.7560, 96.42083
125.2381, 96.81480
125.7202, 97.61335
126.2023, 98.71170
126.6844, 100.0997
127.1666, 101.7702
127.6487, 103.9835
128.1308, 106.6989
128.6129, 109.1050
129.0950, 110.3539
129.5771, 110.7120
130.0593, 111.1402
130.5414, 111.9469
131.0235, 112.9882
131.5056, 113.6852
131.9877, 113.5743
132.4698, 113.1074
132.9520, 113.3864
133.4341, 114.3764
133.9162, 115.5876
134.3983, 116.9066
134.8804, 118.3160
135.3625, 119.6889
135.8447, 120.9955
136.3268, 122.3588
136.8089, 124.1248
137.2910, 126.4343
137.7731, 128.3789
138.2552, 129.7609
138.7374, 130.6441
139.2195, 130.3781
139.7016, 128.6438
140.1837, 126.0819
140.6658, 123.9611
141.1479, 122.2044
141.6301, 120.9736
142.1122, 120.3937
142.5943, 120.6890
143.0764, 120.9922
143.5585, 121.2588
144.0406, 121.5153
144.5228, 121.8904
145.0049, 122.4983
145.4870, 123.0774
145.9691, 123.5021
146.4512, 123.9313
146.9333, 123.9484
147.4155, 123.2937
147.8976, 122.0727
148.3797, 121.3339
148.8618, 121.3025
149.3439, 121.5789
149.8260, 121.9033
150.3082, 122.4512
150.7903, 122.8545
151.2724, 122.9820
151.7545, 122.8201
152.2366, 122.8788
152.7188, 123.3028
153.2009, 123.8852
153.6830, 124.4553
154.1651, 125.7524
154.6472, 126.3019
155.1293, 125.4176
155.6115, 122.8644
156.0936, 120.7976
156.5757, 119.7432
157.0578, 119.2901
157.5399, 119.0070
158.0220, 118.8131
158.5042, 118.7584
158.9863, 118.9198
159.4684, 119.3625
159.9505, 119.7290
160.4326, 119.7368
160.9147, 119.6304
161.3969, 119.7725
161.8790, 120.8933
162.3611, 121.8619
162.8432, 121.9485
163.3253, 120.7703
163.8074, 119.6084
164.2896, 119.0728
164.7717, 118.9630
165.2538, 118.8815
165.7359, 118.4325
166.2180, 118.0623
166.7001, 118.1777
167.1823, 119.0599
167.6644, 119.9528
168.1465, 120.3078
168.6286, 120.2777
169.1107, 120.2928
169.5928, 120.8624
170.0750, 121.4839
170.5571, 121.6037
171.0392, 120.9094
171.5213, 120.0019
172.0034, 119.2752
172.4855, 118.7291
172.9677, 118.3762
173.4498, 118.3320
173.9319, 118.4552
174.4140, 118.5401
174.8961, 118.4973
175.3782, 118.4366
175.8604, 118.4651
176.3425, 118.5808
176.8246, 118.7628
177.3067, 119.0721
177.7888, 119.4356
178.2709, 119.6967
178.7531, 119.7788
179.2352, 119.7627
179.7173, 119.7318
180.1994, 119.6881
180.6815, 119.7032
181.1636, 119.8849
181.6458, 120.1848
182.1279, 120.4464
182.6100, 120.5493
183.0921, 120.6133
183.5742, 120.9586
184.0563, 121.5934
184.5385, 122.2213
185.0206, 122.5269
185.5027, 122.5558
185.9848, 122.5059
186.4669, 122.3520
186.9490, 122.1787
187.4312, 122.3224
187.9133, 122.8264
188.3954, 123.3355
188.8775, 123.3308
189.3596, 122.8730
189.8417, 122.5381
190.3239, 122.5270
190.8060, 122.8182
191.2881, 123.3842
191.7702, 124.2794
192.2523, 125.2168
192.7344, 125.7930
193.2166, 126.0068
193.6987, 126.2312
194.1808, 126.6147
194.6629, 127.1471
195.1450, 127.7476
195.6271, 128.4485
196.1093, 129.1362
196.5914, 129.5092
197.0735, 129.5158
197.5556, 129.8350
198.0377, 130.8242
198.5198, 132.4952
199.0020, 134.2267
199.4841, 136.0432
199.9662, 137.8795
200.4483, 139.5972
200.9304, 141.1438
201.4125, 142.8843
201.8947, 145.0968
202.3768, 147.8416
202.8589, 150.2419
203.3410, 152.1750
203.8231, 153.9289
204.3052, 156.0807
204.7874, 158.7662
205.2695, 161.3314
205.7516, 163.4215
206.2337, 164.9497
206.7158, 166.5838
207.1979, 168.3029
207.6801, 170.1656
208.1622, 172.3090
208.6443, 174.8344
209.1264, 177.3647
209.6085, 179.6623
210.0906, 181.6051
210.5728, 183.8689
211.0549, 186.4157
211.5370, 189.3096
212.0191, 192.6186
212.5012, 196.3656
212.9833, 200.5345
213.4655, 205.0250
213.9476, 209.7592
214.4297, 215.2214
214.9118, 221.5910
215.3939, 228.5974
215.8760, 235.7207
216.3581, 242.7273
216.8403, 250.2103
217.3224, 258.5363
217.8045, 268.2570
218.2866, 277.3622
218.7687, 285.9463
219.2508, 293.7998
219.7330, 300.3522
220.2151, 306.2006
220.6972, 309.6264
221.1793, 309.8039
221.6614, 306.6159
222.1435, 300.3346
222.6257, 290.1665
223.1078, 277.1569
223.5899, 263.6888
224.0720, 249.0501
224.5541, 235.0455
225.0362, 222.1178
225.5184, 210.1278
226.0005, 199.8541
226.4826, 191.4395
226.9647, 184.6827
227.4468, 178.8294
227.9289, 174.0780
228.4111, 169.9996
228.8932, 166.4173
229.3753, 163.3644
229.8574, 160.7462
230.3395, 158.5862
230.8216, 156.8755
231.3038, 155.5699
231.7859, 154.7166
232.2680, 154.2127
232.7501, 154.0615
233.2322, 154.4797
233.7143, 154.7402
234.1965, 154.7022
234.6786, 154.5320
235.1607, 154.6912
235.6428, 155.2348
236.1249, 156.0224
236.6070, 157.0638
237.0892, 158.6930
237.5713, 159.8252
238.0534, 160.3675
238.5355, 160.4348
239.0176, 160.3475
239.4997, 160.2789
239.9819, 159.7968
240.4640, 158.6699
240.9461, 156.5896
241.4282, 154.5885
241.9103, 152.7292
242.3924, 150.9313
242.8746, 148.9802
243.3567, 146.7382
243.8388, 144.5537
244.3209, 142.5032
244.8030, 140.4465
245.2851, 138.9603
245.7673, 138.1323
246.2494, 137.8396
246.7315, 137.8937
247.2136, 138.6417
247.6957, 139.1854
248.1778, 139.0993
248.6600, 138.0617
249.1421, 137.3726
249.6242, 137.0946
250.1063, 137.1244
250.5884, 137.2761
251.0705, 137.5787
251.5527, 137.9500
252.0348, 138.3125
252.5169, 138.5642
252.9990, 139.2409
253.4811, 140.6424
253.9632, 142.2805
254.4454, 143.2077
254.9275, 143.0153
255.4096, 142.8989
255.8917, 143.2361
256.3738, 144.0634
256.8560, 145.2266
257.3381, 146.9698
257.8202, 148.8527
258.3023, 150.1976
258.7844, 150.7680
259.2665, 151.2818
259.7487, 151.9002
260.2308, 152.5894
260.7129, 153.6345
261.1950, 155.1406
261.6771, 156.8791
262.1592, 158.5088
262.6414, 159.8876
263.1235, 161.4882
263.6056, 163.4884
264.0877, 165.9418
264.5698, 168.2155
265.0519, 170.1745
265.5341, 172.1282
266.0162, 174.4904
266.4983, 177.3466
266.9804, 180.3060
267.4625, 183.3381
267.9446, 186.4152
268.4268, 189.4263
268.9089, 192.3002
269.3910, 195.1289
269.8731, 198.0186
270.3552, 200.9509
270.8373, 203.9379
271.3195, 206.9836
271.8016, 210.0880
272.2837, 213.3859
272.7658, 216.9422
273.2479, 220.6397
273.7300, 224.4647
274.2122, 228.4277
274.6943, 232.3506
275.1764, 236.0946
275.6585, 239.7516
276.1406, 243.7984
276.6227, 248.2576
277.1049, 253.0387
277.5870, 258.1008
278.0691, 263.4548
278.5512, 269.0022
279.0333, 274.7944
279.5154, 280.7368
279.9976, 286.4527
280.4797, 291.9066
280.9618, 297.3947
281.4439, 303.4272
281.9260, 309.9865
282.4081, 316.0630
282.8903, 321.5517
283.3724, 326.4576
283.8545, 330.8101
284.3366, 334.6146
284.8187, 337.8142
285.3008, 340.6350
285.7830, 343.0019
286.2651, 343.6911
286.7472, 342.4994
287.2293, 339.8014
287.7114, 336.0079
288.1935, 331.1235
288.6757, 325.7982
289.1578, 320.4456
289.6399, 314.9718
290.1220, 309.0809
290.6041, 302.6241
291.0862, 296.0670
291.5684, 290.0064
292.0505, 284.4052
292.5326, 279.1827
293.0147, 274.4901
293.4968, 270.1366
293.9789, 265.3556
294.4611, 260.1381
294.9432, 254.7155
295.4253, 249.2672
295.9074, 243.8064
296.3895, 238.5254
296.8716, 233.3974
297.3538, 228.4809
297.8359, 223.9270
298.3180, 219.7078
298.8001, 215.6226
299.2822, 211.3648
299.7643, 207.0237
300.2465, 202.8950
300.7286, 199.0865
301.2107, 195.5513
301.6928, 192.1838
302.1749, 189.0127
302.6570, 186.0171
303.1392, 183.1621
303.6213, 180.4968
304.1034, 178.1918
304.5855, 176.4049
305.0676, 174.8325
305.5497, 173.1270
306.0319, 171.3256
306.5140, 169.5341
306.9961, 167.8127
307.4782, 166.1682
307.9603, 164.5796
308.4424, 163.0311
308.9246, 161.5818
309.4067, 160.3374
309.8888, 159.2439
310.3709, 158.1246
310.8530, 156.7826
311.3351, 155.4414
311.8173, 154.3045
312.2994, 153.4235
312.7815, 152.6465
313.2636, 151.9420
313.7457, 151.2821
314.2278, 150.6113
314.7100, 149.9939
315.1921, 149.3045
315.6742, 148.3989
316.1563, 147.2115
316.6384, 146.1619
317.1205, 145.4714
317.6027, 145.0285
318.0848, 144.6975
318.5669, 144.4860
319.0490, 144.3327
319.5311, 144.2067
320.0132, 144.1042
320.4954, 144.0710
320.9775, 144.2852
321.4596, 144.4940
321.9417, 144.4783
322.4238, 143.6321
322.9059, 143.1388
323.3881, 143.4720
323.8702, 144.5513
324.3523, 145.3969
324.8344, 145.7887
325.3165, 145.9606
325.7986, 146.0562
326.2808, 145.8964
326.7629, 145.8873
327.2450, 146.0322
327.7271, 146.3422
328.2092, 146.8604
328.6913, 147.7447
329.1735, 148.6980
329.6556, 149.6295
330.1377, 150.5968
330.6198, 151.4231
331.1019, 151.9866
331.5840, 152.4409
332.0662, 153.0838
332.5483, 153.9351
333.0304, 154.9574
333.5125, 156.1900
333.9946, 157.7449
334.4767, 158.9388
334.9589, 159.5134
335.4410, 159.9629
335.9231, 160.9612
336.4052, 162.7292
336.8873, 164.4457
337.3694, 165.9031
337.8516, 167.1095
338.3336, 168.2609
338.8158, 169.3229
339.2979, 170.4159
339.7800, 171.7033
340.2621, 173.2135
340.7442, 174.6672
341.2263, 175.9811
341.7085, 177.2051
342.1906, 178.3938
342.6727, 179.5352
343.1548, 180.7823
343.6369, 182.3658
344.1190, 184.2394
344.6012, 185.8693
345.0833, 187.1603
345.5654, 188.2295
346.0475, 189.2200
346.5296, 190.1337
347.0117, 191.1004
347.4939, 192.1771
347.9760, 193.3472
348.4581, 194.6413
348.9402, 196.0927
349.4223, 197.4659
349.9044, 198.5391
350.3866, 199.3405
350.8687, 199.9792
351.3508, 200.3772
351.8329, 200.7012
352.3150, 201.2629
352.7971, 202.0572
353.2793, 202.8136
353.7614, 203.3888
354.2435, 203.7852
354.7256, 203.9915
355.2077, 203.8753
355.6898, 203.7305
356.1720, 203.9051
356.6541, 204.3102
357.1362, 204.5652
357.6183, 204.3653
358.1004, 203.9656
358.5826, 203.6026
359.0647, 203.3584
359.5468, 203.0552
360.0289, 202.5517
360.5110, 201.9244
360.9931, 201.3170
361.4753, 200.9713
361.9574, 200.5194
362.4395, 199.6962
362.9216, 198.4019
363.4037, 197.2386
363.8858, 196.3463
364.3680, 195.6918
364.8501, 195.2388
365.3322, 195.4235
365.8143, 195.3664
366.2964, 194.6838
366.7785, 193.3924
367.2607, 192.4218
367.7428, 192.3421
368.2249, 192.2850
368.7070, 191.7137
369.1891, 190.0078
369.6712, 188.6145
370.1534, 187.6070
370.6355, 186.9327
371.1176, 186.4504
371.5997, 186.3149
372.0818, 186.1609
372.5639, 185.7898
373.0461, 185.0243
373.5282, 184.6236
374.0103, 184.6988
374.4924, 185.0201
374.9745, 185.2427
375.4566, 185.3348
375.9388, 185.4360
376.4209, 185.6048
376.9030, 185.8358
377.3851, 185.9429
377.8672, 185.8766
378.3493, 185.8609
378.8315, 186.0831
379.3136, 186.5486
379.7957, 187.2611
380.2778, 188.2903
380.7599, 189.5093
381.2420, 190.6191
381.7242, 191.6012
382.2063, 192.6551
382.6884, 193.8656
383.1705, 195.2402
383.6526, 196.8169
384.1347, 198.6298
384.6169, 200.4898
385.0990, 202.0230
385.5811, 203.3519
386.0632, 204.8122
386.5453, 206.5339
387.0274, 208.4938
387.5096, 210.7153
387.9917, 213.1844
388.4738, 215.6736
388.9559, 217.9756
389.4380, 220.1453
389.9201, 222.2554
390.4023, 224.1384
390.8844, 226.1691
391.3665, 228.8074
391.8486, 231.8797
392.3307, 234.6508
392.8128, 236.5885
393.2950, 238.2210
393.7771, 239.8872
394.2592, 241.5841
394.7413, 243.4414
395.2234, 245.7057
395.7055, 248.0985
396.1877, 250.1913
396.6698, 251.6975
397.1519, 253.0698
397.6340, 254.5565
398.1161, 256.2324
398.5982, 257.4069
399.0804, 257.9323
399.5625, 258.0065
400.0446, 257.7698
400.5267, 257.2299
401.0088, 256.3723
401.4909, 255.1383
401.9731, 253.5910
402.4552, 252.0271
402.9373, 250.6389
403.4194, 248.9243
403.9015, 246.5947
404.3836, 243.5070
404.8658, 240.3311
405.3479, 237.0461
405.8300, 233.7370
406.3121, 230.4561
406.7942, 227.1783
407.2763, 224.1048
407.7585, 221.4832
408.2406, 219.1243
408.7227, 215.8908
409.2048, 211.6964
409.6869, 207.4501
410.1690, 204.0144
410.6512, 201.2785
411.1333, 198.5267
411.6154, 195.5517
412.0975, 192.6395
412.5796, 190.2306
413.0617, 188.2623
413.5439, 186.3707
414.0260, 184.3537
414.5081, 182.2633
414.9902, 180.1937
415.4723, 178.1425
415.9544, 176.1072
416.4366, 174.0263
416.9187, 171.9899
417.4008, 170.1396
417.8829, 168.5094
418.3650, 167.0785
418.8471, 165.8634
419.3293, 164.8505
419.8114, 163.8917
420.2935, 162.9457
420.7756, 162.0238
421.2577, 161.1508
421.7398, 160.2840
422.2220, 159.5265
422.7041, 158.9776
423.1862, 158.5366
423.6683, 158.0199
424.1504, 157.3376
424.6325, 156.6350
425.1147, 155.9176
425.5968, 155.1543
426.0789, 154.5756
426.5610, 154.2451
427.0431, 154.0406
427.5252, 153.8875
428.0074, 153.8521
428.4895, 153.6977
428.9716, 153.3343
429.4537, 152.8569
429.9358, 152.5953
430.4179, 152.6021
430.9001, 152.6359
431.3822, 152.5903
431.8643, 152.4648
432.3464, 152.2326
432.8285, 151.8418
433.3106, 151.5137
433.7928, 151.6350
434.2749, 152.1421
434.7570, 152.4944
435.2391, 152.4891
435.7212, 152.2567
436.2033, 151.9361
436.6855, 151.5564
437.1676, 151.3780
437.6497, 151.7367
438.1318, 152.3740
438.6139, 152.8978
439.0960, 153.2356
439.5782, 153.4948
440.0603, 153.6959
440.5424, 153.8875
441.0245, 154.1563
441.5066, 154.6824
441.9887, 155.1810
442.4709, 155.4078
442.9530, 155.3722
443.4351, 155.4768
443.9172, 156.0681
444.3993, 156.7398
444.8814, 157.1874
445.3636, 157.2216
445.8457, 157.2185
446.3278, 157.0913
446.8099, 156.9610
447.2920, 157.1302
447.7741, 157.8889
448.2563, 158.6344
448.7384, 159.1792
449.2205, 159.5068
449.7026, 159.8233
450.1847, 160.1216
450.6668, 160.4168
451.1490, 160.7267
451.6311, 161.0650
452.1132, 161.3747
452.5953, 161.6478
453.0774, 161.8910
453.5595, 162.0983
454.0417, 162.2547
454.5238, 162.5208
455.0059, 163.0986
455.4880, 163.8931
455.9701, 164.3942
456.4522, 164.5498
456.9344, 164.6340
457.4165, 164.9263
457.8986, 165.3846
458.3807, 165.8918
458.8628, 166.4720
459.3449, 167.0208
459.8271, 167.4204
460.3092, 167.6870
460.7913, 167.8990
461.2734, 168.0402
461.7555, 168.1846
462.2376, 168.4160
462.7198, 168.7683
463.2019, 169.0908
463.6840, 169.1896
464.1661, 169.2565
464.6482, 169.5232
465.1303, 170.2260
465.6125, 170.9473
466.0946, 171.6544
466.5767, 172.3278
467.0588, 172.7602
467.5409, 172.6790
468.0230, 172.5820
468.5052, 172.6854
468.9873, 173.0514
469.4694, 173.4771
469.9515, 174.0066
470.4336, 174.5590
470.9157, 175.0063
471.3979, 175.2966
471.8800, 175.6605
472.3621, 176.1698
472.8442, 176.7976
473.3263, 177.4677
473.8084, 178.1938
474.2906, 178.8543
474.7727, 179.2728
475.2548, 179.5219
475.7369, 179.9832
476.2190, 180.7265
476.7011, 181.5585
477.1833, 182.2720
477.6654, 182.8946
478.1475, 183.5039
478.6296, 184.1597
479.1117, 184.7991
479.5938, 185.3204
480.0760, 185.7481
480.5581, 186.2254
481.0402, 186.9677
481.5223, 187.7207
482.0044, 188.2469
482.4865, 188.3892
482.9687, 188.6058
483.4508, 189.1686
483.9329, 189.8699
484.4150, 190.4055
484.8971, 190.6081
485.3792, 190.7642
485.8614, 190.9470
486.3435, 191.1514
486.8256, 191.2909
487.3077, 191.4298
487.7898, 191.4273
488.2719, 191.1563
488.7541, 190.4693
489.2362, 190.0295
489.7183, 189.9290
490.2004, 189.9582
490.6825, 189.8247
491.1646, 189.5241
491.6468, 189.0855
492.1289, 188.5022
492.6110, 187.7936
493.0931, 186.8503
493.5752, 185.6751
494.0573, 184.7443
494.5395, 184.7320
495.0216, 185.1475
495.5037, 184.8708
495.9858, 183.6840
496.4679, 182.3340
496.9500, 181.4311
497.4322, 180.8455
497.9143, 180.3787
498.3964, 180.1100
498.8785, 179.7969
499.3606, 179.3700
499.8427, 178.8024
500.3249, 178.0017
500.8070, 176.5168
501.2891, 175.1121
501.7712, 174.2504
502.2533, 174.2133
502.7354, 174.0486
503.2176, 173.6071
503.6997, 173.0459
504.1818, 172.5282
504.6639, 172.1411
505.1460, 171.6188
505.6281, 170.8565
506.1103, 169.9346
506.5924, 169.1898
507.0745, 168.6299
507.5566, 168.2120
508.0387, 168.0404
508.5208, 168.0852
509.0030, 167.6545
509.4851, 166.6746
509.9672, 165.6347
510.4493, 165.0950
510.9314, 164.9370
511.4135, 164.7547
511.8957, 164.4352
512.3778, 164.0817
512.8599, 163.7841
513.3420, 163.5503
513.8242, 163.3994
514.3063, 163.4225
514.7884, 163.4759
515.2705, 163.4754
515.7526, 163.4160
516.2347, 163.2449
516.7169, 162.7928
517.1990, 162.3055
517.6811, 161.9678
518.1632, 161.8280
518.6453, 161.8087
519.1274, 161.9723
519.6096, 162.2366
520.0917, 162.4616
520.5738, 162.6909
521.0559, 162.7968
521.5380, 162.6777
522.0201, 162.3586
522.5023, 162.3332
522.9844, 162.7143
523.4665, 163.0715
523.9486, 163.0361
524.4307, 162.6327
524.9128, 162.3542
525.3950, 162.2509
525.8771, 162.2457
526.3592, 162.2410
526.8413, 162.2485
527.3234, 162.3262
527.8055, 162.6419
528.2877, 162.8938
528.7698, 162.5907
529.2519, 161.8669
529.7340, 161.2854
530.2161, 161.3663
530.6982, 161.5753
531.1804, 161.4660
531.6625, 160.9218
532.1446, 160.4721
532.6267, 160.4568
533.1088, 160.5400
533.5909, 160.4123
534.0731, 159.8704
534.5552, 159.3148
535.0373, 158.6589
535.5194, 158.0276
536.0015, 157.7347
536.4836, 157.9374
536.9658, 158.1604
537.4479, 158.2175
537.9300, 158.1197
538.4121, 158.2021
538.8942, 158.5227
539.3763, 158.7680
539.8585, 158.5822
540.3406, 158.0511
540.8227, 157.6781
541.3048, 157.5360
541.7869, 157.5152
542.2690, 157.5268
542.7512, 157.5532
543.2333, 157.5519
543.7154, 157.5322
544.1975, 157.4558
544.6796, 157.2077
545.1617, 156.8456
545.6439, 156.6320
546.1260, 156.9512
546.6081, 157.2532
547.0902, 157.1393
547.5723, 156.4134
548.0544, 155.9333
548.5366, 155.9515
549.0187, 156.1910
549.5008, 156.4142
549.9829, 156.6416
550.4650, 156.8276
550.9471, 157.0237
551.4293, 157.1477
551.9114, 156.9395
552.3935, 156.3093
552.8756, 155.7865
553.3577, 155.6049
553.8398, 155.6943
554.3220, 155.7386
554.8041, 155.7366
555.2862, 155.7301
555.7683, 155.7434
556.2504, 155.7770
556.7325, 155.8663
557.2147, 156.0427
557.6968, 156.1238
558.1789, 155.7647
558.6610, 155.2570
559.1431, 155.0344
559.6252, 155.4402
560.1074, 155.9629
560.5895, 156.4761
561.0716, 156.9596
561.5537, 157.3391
562.0358, 157.6673
562.5179, 157.8242
563.0001, 157.7063
563.4822, 157.2747
563.9643, 157.0001
564.4464, 156.9022
564.9285, 156.9353
565.4106, 157.1039
565.8928, 157.4442
566.3749, 157.6928
566.8570, 157.8320
567.3391, 157.8761
567.8212, 157.7942
568.3033, 157.6100
568.7855, 157.5091
569.2676, 157.6028
569.7497, 157.7629
570.2318, 157.7304
570.7139, 157.5693
571.1960, 157.5568
571.6782, 158.0579
572.1603, 158.6392
572.6424, 158.8935
573.1245, 158.7650
573.6066, 158.7075
574.0887, 158.9726
574.5709, 159.3329
575.0530, 159.6159
575.5351, 159.8643
576.0172, 159.9342
576.4993, 159.6560
576.9814, 159.2797
577.4636, 159.2336
577.9457, 159.6396
578.4278, 160.0546
578.9099, 160.3721
579.3920, 160.6145
579.8741, 160.8536
580.3563, 161.0855
580.8384, 161.3501
581.3205, 161.7307
581.8026, 162.1615
582.2847, 162.3331
582.7668, 162.2289
583.2490, 162.3069
583.7311, 163.1618
584.2132, 164.3454
584.6953, 165.2673
585.1774, 165.6776
585.6595, 166.0641
586.1416, 166.6927
586.6237, 167.4543
