##NAMES=Gadolinite-(Y)
##RRUFFID=R070340
##IDEAL CHEMISTRY=Fe^2+^Be_2_Y^3+^_2_(SiO_4_)_2_O_2_
##LOCALITY=Ytterøya Mine, Røvika, Ytterøya (island), Levanger, Nord-Trøndelag, Norway
##OWNER=RRUFF
##SOURCE=Michael Scott
##DESCRIPTION=Black vitreous, metamict massive, a portion of the sample was heated, and is recorded under R080129.
##STATUS=The identification of this mineral has been made only by X-ray diffraction.
##URL=rruff.info/R070340
191.1239, 2425.554
191.6060, 2423.397
192.0881, 2415.710
192.5702, 2403.156
193.0524, 2390.237
193.5345, 2375.704
194.0166, 2364.079
194.4987, 2365.586
194.9808, 2381.249
195.4629, 2394.594
195.9451, 2395.636
196.4272, 2384.708
196.9093, 2378.794
197.3914, 2379.248
197.8735, 2383.425
198.3556, 2387.097
198.8378, 2390.436
199.3199, 2392.156
199.8020, 2390.238
200.2841, 2384.223
200.7662, 2382.051
201.2483, 2385.203
201.7305, 2391.506
202.2126, 2395.498
202.6947, 2396.638
203.1768, 2397.483
203.6589, 2400.879
204.1410, 2407.946
204.6232, 2408.721
205.1053, 2400.020
205.5874, 2385.467
206.0695, 2378.120
206.5516, 2380.586
207.0337, 2383.411
207.5159, 2378.002
207.9980, 2361.033
208.4801, 2352.579
208.9622, 2357.262
209.4443, 2372.296
209.9264, 2384.467
210.4086, 2393.812
210.8907, 2400.235
211.3728, 2403.756
211.8549, 2404.675
212.3370, 2401.164
212.8191, 2390.087
213.3013, 2373.341
213.7834, 2368.000
214.2655, 2380.269
214.7476, 2393.984
215.2297, 2392.500
215.7118, 2366.636
216.1940, 2351.567
216.6761, 2356.831
217.1582, 2381.245
217.6403, 2398.369
218.1224, 2406.813
218.6045, 2409.592
219.0867, 2409.203
219.5688, 2405.251
220.0509, 2398.708
220.5330, 2387.784
221.0151, 2372.058
221.4972, 2366.148
221.9794, 2375.401
222.4615, 2388.439
222.9436, 2392.587
223.4257, 2383.058
223.9078, 2374.236
224.3899, 2368.178
224.8721, 2364.419
225.3542, 2369.512
225.8363, 2389.723
226.3184, 2412.887
226.8005, 2424.336
227.2827, 2418.918
227.7648, 2411.235
228.2469, 2403.670
228.7290, 2395.606
229.2111, 2392.862
229.6932, 2397.762
230.1754, 2406.123
230.6575, 2413.419
231.1396, 2422.552
231.6217, 2425.066
232.1038, 2415.725
232.5859, 2390.198
233.0681, 2376.652
233.5502, 2379.582
234.0323, 2391.242
234.5144, 2400.963
234.9965, 2408.696
235.4786, 2414.397
235.9608, 2417.636
236.4429, 2417.700
236.9250, 2418.427
237.4071, 2419.819
237.8892, 2421.876
238.3713, 2424.709
238.8535, 2428.864
239.3356, 2432.914
239.8177, 2436.754
240.2998, 2441.003
240.7819, 2442.292
241.2640, 2438.250
241.7462, 2432.647
242.2283, 2432.438
242.7104, 2441.288
243.1925, 2449.506
243.6746, 2453.795
244.1567, 2453.110
244.6389, 2451.982
245.1210, 2450.206
245.6031, 2448.116
246.0852, 2445.760
246.5673, 2440.727
247.0494, 2439.604
247.5316, 2445.964
248.0137, 2463.484
248.4958, 2476.106
248.9779, 2483.063
249.4600, 2485.468
249.9421, 2484.938
250.4243, 2480.444
250.9064, 2474.831
251.3885, 2468.305
251.8706, 2459.036
252.3527, 2455.283
252.8348, 2458.877
253.3170, 2466.827
253.7991, 2474.096
254.2812, 2481.916
254.7633, 2486.509
255.2454, 2485.067
255.7275, 2474.381
256.2097, 2469.795
256.6918, 2472.838
257.1739, 2480.970
257.6560, 2490.240
258.1381, 2502.136
258.6202, 2512.113
259.1024, 2518.204
259.5845, 2519.405
260.0666, 2521.032
260.5487, 2524.716
261.0308, 2527.570
261.5129, 2522.419
261.9951, 2503.877
262.4772, 2490.391
262.9593, 2491.973
263.4414, 2513.972
263.9235, 2524.420
264.4056, 2518.463
264.8878, 2505.579
265.3699, 2503.070
265.8520, 2514.280
266.3341, 2526.248
266.8162, 2533.496
267.2983, 2534.744
267.7805, 2539.680
268.2626, 2550.157
268.7447, 2562.216
269.2268, 2569.563
269.7089, 2572.229
270.1910, 2569.974
270.6732, 2559.490
271.1553, 2538.872
271.6374, 2530.777
272.1195, 2538.688
272.6016, 2554.025
273.0837, 2562.662
273.5659, 2563.512
274.0480, 2563.407
274.5301, 2563.301
275.0122, 2562.971
275.4943, 2572.257
275.9764, 2595.445
276.4586, 2620.184
276.9407, 2624.424
277.4228, 2605.314
277.9049, 2590.169
278.3870, 2592.661
278.8691, 2611.704
279.3513, 2621.187
279.8334, 2618.980
280.3155, 2612.694
280.7976, 2613.276
281.2798, 2621.072
281.7619, 2627.477
282.2440, 2627.884
282.7261, 2623.465
283.2082, 2623.891
283.6903, 2630.091
284.1725, 2637.719
284.6546, 2640.004
285.1367, 2637.244
285.6188, 2638.025
286.1009, 2648.394
286.5830, 2665.052
287.0652, 2673.414
287.5473, 2672.793
288.0294, 2667.562
288.5115, 2658.935
288.9936, 2647.996
289.4757, 2644.037
289.9579, 2653.344
290.4400, 2671.025
290.9221, 2683.844
291.4042, 2691.556
291.8863, 2697.465
292.3684, 2706.403
292.8506, 2716.878
293.3327, 2722.159
293.8148, 2715.975
294.2969, 2705.716
294.7790, 2709.455
295.2611, 2727.239
295.7433, 2741.837
296.2254, 2731.312
296.7075, 2704.922
297.1896, 2689.212
297.6717, 2694.387
298.1538, 2711.509
298.6360, 2730.424
299.1181, 2750.879
299.6002, 2767.859
300.0823, 2779.843
300.5644, 2785.534
301.0465, 2781.190
301.5287, 2758.893
302.0108, 2734.904
302.4929, 2729.344
302.9750, 2739.827
303.4571, 2752.968
303.9392, 2761.745
304.4214, 2767.177
304.9035, 2770.703
305.3856, 2772.271
305.8677, 2772.494
306.3498, 2769.604
306.8319, 2765.106
307.3141, 2764.316
307.7962, 2773.491
308.2783, 2786.448
308.7604, 2797.816
309.2425, 2807.247
309.7246, 2812.805
310.2068, 2809.695
310.6889, 2801.296
311.1710, 2796.349
311.6531, 2800.945
312.1352, 2809.457
312.6173, 2819.395
313.0995, 2833.007
313.5816, 2839.909
314.0637, 2823.803
314.5458, 2798.281
315.0279, 2788.742
315.5100, 2826.416
315.9922, 2866.437
316.4743, 2882.691
316.9564, 2866.529
317.4385, 2850.012
317.9206, 2839.867
318.4027, 2836.558
318.8849, 2840.730
319.3670, 2867.106
319.8491, 2888.203
320.3312, 2890.114
320.8133, 2867.593
321.2954, 2851.975
321.7776, 2853.652
322.2597, 2863.420
322.7418, 2871.473
323.2239, 2870.276
323.7060, 2873.354
324.1881, 2887.540
324.6703, 2914.584
325.1524, 2932.238
325.6345, 2923.784
326.1166, 2934.600
326.5987, 2940.977
327.0808, 2943.154
327.5630, 2928.551
328.0451, 2935.616
328.5272, 2933.998
329.0093, 2932.023
329.4914, 2942.138
329.9735, 2929.976
330.4557, 2939.898
330.9378, 2941.005
331.4199, 2946.147
331.9020, 2942.552
332.3841, 2941.655
332.8662, 2949.498
333.3484, 2952.502
333.8305, 2947.901
334.3126, 2953.299
334.7947, 2940.832
335.2768, 2944.042
335.7589, 2954.016
336.2411, 2949.854
336.7232, 2955.412
337.2053, 2957.268
337.6874, 2942.301
338.1695, 2956.591
338.6516, 2963.291
339.1338, 2971.289
339.6159, 2972.272
340.0980, 2970.813
340.5801, 2976.142
341.0622, 2989.426
341.5443, 2999.170
342.0265, 2998.637
342.5086, 2989.259
342.9907, 2985.185
343.4728, 2987.425
343.9549, 2991.145
344.4370, 2988.900
344.9192, 2981.577
345.4013, 2977.755
345.8834, 2982.098
346.3655, 2991.686
346.8476, 2999.232
347.3297, 3004.706
347.8119, 3008.453
348.2940, 3010.565
348.7761, 3011.125
349.2582, 3009.740
349.7403, 3002.944
350.2225, 2997.562
350.7046, 3007.000
351.1867, 3029.359
351.6688, 3049.320
352.1509, 3056.404
352.6331, 3053.952
353.1152, 3045.382
353.5973, 3027.048
354.0794, 3011.105
354.5615, 3009.074
355.0436, 3018.507
355.5258, 3031.954
356.0079, 3053.754
356.4900, 3073.099
356.9721, 3077.901
357.4542, 3061.405
357.9363, 3046.994
358.4185, 3050.689
358.9006, 3065.037
359.3827, 3077.146
359.8648, 3080.542
360.3469, 3081.553
360.8290, 3084.324
361.3112, 3090.006
361.7933, 3091.496
362.2754, 3078.348
362.7575, 3062.918
363.2396, 3058.619
363.7217, 3086.932
364.2039, 3108.283
364.6860, 3107.505
365.1681, 3084.109
365.6502, 3068.929
366.1323, 3070.817
366.6144, 3078.637
367.0966, 3084.796
367.5787, 3089.631
368.0608, 3091.961
368.5429, 3090.996
369.0250, 3087.221
369.5071, 3082.816
369.9893, 3074.391
370.4714, 3069.258
370.9535, 3071.698
371.4356, 3086.303
371.9177, 3098.278
372.3998, 3108.512
372.8820, 3115.484
373.3641, 3113.761
373.8462, 3098.319
374.3283, 3087.331
374.8104, 3090.628
375.2925, 3110.159
375.7747, 3120.534
376.2568, 3119.715
376.7389, 3113.961
377.2210, 3112.039
377.7031, 3114.351
378.1852, 3114.151
378.6674, 3105.461
379.1495, 3092.788
379.6316, 3100.023
380.1137, 3129.393
380.5958, 3157.941
381.0779, 3159.886
381.5601, 3140.631
382.0422, 3126.986
382.5243, 3125.852
383.0064, 3131.731
383.4885, 3136.186
383.9706, 3139.476
384.4528, 3143.215
384.9349, 3153.290
385.4170, 3163.358
385.8991, 3160.466
386.3812, 3138.553
386.8633, 3117.006
387.3455, 3117.635
387.8276, 3132.634
388.3097, 3144.175
388.7918, 3139.500
389.2739, 3130.067
389.7560, 3124.413
390.2382, 3123.280
390.7203, 3124.908
391.2024, 3128.665
391.6845, 3134.531
392.1666, 3142.556
392.6487, 3162.699
393.1309, 3175.623
393.6130, 3168.393
394.0951, 3143.069
394.5772, 3124.100
395.0593, 3119.716
395.5414, 3122.343
396.0236, 3127.332
396.5057, 3135.842
396.9878, 3144.583
397.4699, 3157.895
397.9520, 3171.794
398.4341, 3173.580
398.9163, 3151.887
399.3984, 3129.800
399.8805, 3114.808
400.3626, 3106.805
400.8447, 3106.825
401.3268, 3118.805
401.8090, 3135.903
402.2911, 3149.279
402.7732, 3159.071
403.2553, 3164.168
403.7374, 3162.312
404.2195, 3154.155
404.7017, 3152.506
405.1838, 3159.248
405.6659, 3167.435
406.1480, 3171.821
406.6301, 3172.462
407.1122, 3166.814
407.5944, 3150.750
408.0765, 3131.903
408.5586, 3131.789
409.0407, 3150.034
409.5228, 3168.136
410.0049, 3171.431
410.4871, 3164.959
410.9692, 3163.352
411.4513, 3168.831
411.9334, 3176.183
412.4155, 3178.944
412.8976, 3178.704
413.3798, 3179.924
413.8619, 3188.223
414.3440, 3196.972
414.8261, 3197.919
415.3082, 3190.940
415.7903, 3184.348
416.2725, 3186.243
416.7546, 3190.509
417.2367, 3190.215
417.7188, 3181.044
418.2009, 3169.237
418.6830, 3151.731
419.1652, 3132.284
419.6473, 3125.376
420.1294, 3148.008
420.6115, 3175.358
421.0937, 3194.282
421.5758, 3199.805
422.0579, 3203.056
422.5400, 3205.695
423.0221, 3206.897
423.5042, 3205.307
423.9864, 3198.469
424.4685, 3191.589
424.9506, 3185.722
425.4327, 3181.029
425.9148, 3176.087
426.3969, 3169.512
426.8791, 3164.265
427.3612, 3163.156
427.8433, 3167.056
428.3254, 3172.577
428.8075, 3180.151
429.2896, 3188.687
429.7718, 3194.019
430.2539, 3195.696
430.7360, 3196.677
431.2181, 3198.811
431.7002, 3201.969
432.1823, 3203.608
432.6645, 3202.885
433.1466, 3203.044
433.6287, 3211.352
434.1108, 3225.654
434.5929, 3235.054
435.0750, 3232.364
435.5572, 3223.034
436.0393, 3215.184
436.5214, 3208.877
437.0035, 3205.447
437.4856, 3208.497
437.9677, 3214.348
438.4499, 3217.451
438.9320, 3214.187
439.4141, 3211.627
439.8962, 3218.432
440.3783, 3230.199
440.8604, 3235.768
441.3426, 3226.112
441.8247, 3211.893
442.3068, 3195.225
442.7889, 3172.573
443.2710, 3165.916
443.7531, 3201.597
444.2353, 3248.263
444.7174, 3271.857
445.1995, 3239.609
445.6816, 3214.271
446.1637, 3212.144
446.6458, 3230.149
447.1280, 3233.912
447.6101, 3211.125
448.0922, 3187.619
448.5743, 3178.636
449.0564, 3191.253
449.5385, 3199.228
450.0207, 3200.558
450.5028, 3198.150
450.9849, 3196.079
451.4670, 3193.390
451.9491, 3196.352
452.4312, 3212.142
452.9134, 3237.456
453.3955, 3243.904
453.8776, 3229.287
454.3597, 3211.519
454.8418, 3209.192
455.3239, 3219.042
455.8061, 3227.521
456.2882, 3231.032
456.7703, 3225.375
457.2524, 3235.471
457.7345, 3241.128
458.2166, 3242.585
458.6988, 3227.263
459.1809, 3233.608
459.6630, 3231.270
460.1451, 3228.575
460.6272, 3237.970
461.1093, 3225.088
461.5915, 3234.291
462.0736, 3234.678
462.5557, 3239.100
463.0378, 3234.784
463.5199, 3233.168
464.0020, 3240.291
464.4842, 3242.575
464.9663, 3237.254
465.4484, 3241.933
465.9305, 3228.745
466.4126, 3231.236
466.8947, 3240.490
467.3769, 3235.608
467.8590, 3240.446
468.3411, 3241.583
468.8232, 3225.896
469.3053, 3239.466
469.7874, 3240.384
470.2696, 3220.686
470.7517, 3231.087
471.2338, 3237.334
471.7159, 3239.649
472.1980, 3226.258
472.6801, 3233.148
473.1623, 3231.910
473.6444, 3230.339
474.1265, 3240.084
474.6086, 3228.977
475.0907, 3238.543
475.5728, 3239.856
476.0550, 3244.946
476.5371, 3241.858
477.0192, 3241.296
477.5013, 3248.915
477.9834, 3252.004
478.4655, 3247.974
478.9477, 3253.305
479.4298, 3241.912
479.9119, 3245.194
480.3940, 3254.807
480.8761, 3251.189
481.3582, 3256.669
481.8404, 3258.684
482.3225, 3244.951
482.8046, 3258.605
483.2867, 3260.415
483.7688, 3250.064
484.2509, 3262.779
484.7331, 3254.105
485.2152, 3253.065
485.6973, 3257.771
486.1794, 3256.488
486.6615, 3264.647
487.1436, 3263.710
487.6258, 3261.959
488.1079, 3263.756
488.5900, 3255.501
489.0721, 3265.894
489.5542, 3263.549
490.0363, 3267.535
490.5185, 3272.957
491.0006, 3267.390
491.4827, 3273.457
491.9648, 3261.482
492.4470, 3264.603
492.9291, 3266.099
493.4112, 3277.243
493.8933, 3265.356
494.3754, 3268.058
494.8575, 3276.971
495.3397, 3277.193
495.8218, 3281.049
496.3039, 3274.147
496.7860, 3277.351
497.2681, 3267.411
497.7502, 3256.194
498.2324, 3248.061
498.7145, 3243.660
499.1966, 3243.725
499.6787, 3251.194
500.1608, 3260.487
500.6429, 3272.939
501.1251, 3287.798
501.6072, 3294.337
502.0893, 3284.119
502.5714, 3272.347
503.0535, 3265.947
503.5356, 3266.366
504.0178, 3269.002
504.4999, 3275.104
504.9820, 3282.263
505.4641, 3287.522
505.9462, 3291.257
506.4283, 3290.710
506.9105, 3282.845
507.3926, 3270.587
507.8747, 3266.468
508.3568, 3270.837
508.8389, 3276.851
509.3210, 3279.074
509.8032, 3279.053
510.2853, 3282.543
510.7674, 3291.763
511.2495, 3298.051
511.7316, 3287.355
512.2137, 3267.381
512.6959, 3253.958
513.1780, 3260.229
513.6601, 3269.656
514.1422, 3270.565
514.6243, 3264.236
515.1064, 3260.189
515.5886, 3267.266
516.0707, 3274.193
516.5528, 3273.214
517.0349, 3257.222
517.5170, 3246.145
517.9991, 3242.285
518.4813, 3244.252
518.9634, 3251.152
519.4455, 3267.455
519.9276, 3281.236
520.4097, 3291.366
520.8918, 3297.190
521.3740, 3294.058
521.8561, 3279.873
522.3382, 3263.670
522.8203, 3249.280
523.3024, 3237.081
523.7845, 3232.713
524.2667, 3237.667
524.7488, 3246.001
525.2309, 3250.181
525.7130, 3251.612
526.1951, 3255.290
526.6772, 3265.521
527.1594, 3276.450
527.6415, 3284.886
528.1236, 3289.250
528.6057, 3282.533
529.0878, 3242.346
529.5699, 3201.625
530.0521, 3189.106
530.5342, 3215.094
531.0163, 3238.247
531.4984, 3242.844
531.9805, 3239.162
532.4626, 3238.188
532.9448, 3246.862
533.4269, 3251.657
533.9090, 3250.519
534.3911, 3244.350
534.8732, 3235.850
535.3553, 3221.402
535.8375, 3211.326
536.3196, 3211.968
536.8017, 3224.075
537.2838, 3230.916
537.7659, 3231.895
538.2480, 3229.766
538.7302, 3226.368
539.2123, 3222.024
539.6944, 3219.684
540.1765, 3221.276
540.6586, 3222.772
541.1407, 3214.048
541.6229, 3199.195
542.1050, 3192.702
542.5871, 3213.323
543.0692, 3238.601
543.5513, 3247.514
544.0334, 3238.955
544.5156, 3226.900
544.9977, 3211.741
545.4798, 3199.306
545.9619, 3194.840
546.4440, 3207.745
546.9261, 3216.096
547.4083, 3213.513
547.8904, 3205.166
548.3725, 3200.865
548.8546, 3206.052
549.3367, 3205.996
549.8188, 3194.554
550.3010, 3173.278
550.7831, 3160.601
551.2652, 3157.696
551.7473, 3159.492
552.2294, 3165.369
552.7115, 3174.353
553.1937, 3174.377
553.6758, 3162.617
554.1579, 3149.666
554.6400, 3154.386
555.1221, 3169.164
555.6042, 3171.287
556.0864, 3138.982
556.5685, 3104.412
557.0506, 3103.961
557.5327, 3129.220
558.0148, 3149.014
558.4969, 3144.763
558.9791, 3132.901
559.4612, 3121.524
559.9433, 3110.459
560.4254, 3105.597
560.9075, 3114.390
561.3896, 3126.308
561.8718, 3132.645
562.3539, 3135.957
562.8360, 3128.111
563.3181, 3101.529
563.8002, 3066.841
564.2823, 3050.251
564.7645, 3054.723
565.2466, 3065.088
565.7287, 3079.750
566.2108, 3095.738
566.6929, 3093.983
567.1750, 3073.701
567.6572, 3053.731
568.1393, 3053.474
568.6214, 3064.499
569.1035, 3069.145
569.5856, 3063.128
570.0677, 3056.998
570.5499, 3062.464
571.0320, 3072.966
571.5141, 3078.163
571.9962, 3071.544
572.4783, 3061.628
572.9604, 3048.123
573.4426, 3032.941
573.9247, 3025.194
574.4068, 3036.110
574.8889, 3045.870
575.3710, 3045.774
575.8531, 3032.948
576.3353, 3025.427
576.8174, 3024.229
577.2995, 3026.933
577.7816, 3033.176
578.2637, 3043.779
578.7458, 3048.112
579.2280, 3043.493
579.7101, 3034.054
580.1922, 3026.268
580.6743, 3019.993
581.1564, 3014.444
581.6385, 3009.310
582.1207, 3004.654
582.6028, 3001.004
583.0849, 2998.226
583.5670, 2995.006
584.0491, 2989.752
584.5313, 2984.276
585.0134, 2979.566
585.4955, 2975.084
585.9776, 2973.663
586.4597, 2979.007
586.9418, 2986.571
587.4240, 2991.066
587.9061, 2989.524
588.3882, 2989.799
588.8703, 2996.155
589.3524, 3003.933
589.8345, 2995.979
590.3167, 2966.330
590.7988, 2944.126
591.2809, 2946.806
591.7630, 2968.197
592.2451, 2976.021
592.7272, 2969.908
593.2094, 2959.253
593.6915, 2950.871
594.1736, 2943.709
594.6557, 2934.093
595.1378, 2919.771
595.6199, 2910.970
596.1021, 2923.630
596.5842, 2944.540
597.0663, 2954.893
597.5485, 2933.922
598.0306, 2916.570
598.5127, 2917.686
598.9948, 2932.653
599.4769, 2940.821
599.9590, 2935.449
600.4412, 2930.044
600.9233, 2931.170
601.4054, 2940.059
601.8875, 2933.630
602.3696, 2905.746
602.8517, 2877.710
603.3339, 2872.347
603.8160, 2887.257
604.2981, 2890.062
604.7802, 2875.039
605.2623, 2854.760
605.7444, 2842.348
606.2266, 2837.551
606.7087, 2840.510
607.1908, 2858.558
607.6729, 2876.685
608.1550, 2880.874
608.6371, 2874.928
609.1193, 2871.349
609.6014, 2882.235
610.0835, 2890.549
610.5656, 2886.799
611.0477, 2868.729
611.5298, 2851.665
612.0120, 2834.089
612.4941, 2819.848
612.9762, 2812.268
613.4583, 2813.343
613.9404, 2813.802
614.4225, 2812.864
614.9047, 2811.995
615.3868, 2813.930
615.8689, 2818.406
616.3510, 2821.883
616.8331, 2823.788
617.3152, 2823.573
617.7974, 2817.189
618.2795, 2807.060
618.7616, 2802.201
619.2437, 2813.047
619.7258, 2826.980
620.2079, 2835.779
620.6901, 2838.862
621.1722, 2837.177
621.6543, 2830.297
622.1364, 2819.240
622.6185, 2803.299
623.1006, 2774.064
623.5828, 2759.180
624.0649, 2765.664
624.5470, 2780.064
625.0291, 2786.382
625.5112, 2783.275
625.9933, 2779.275
626.4755, 2776.074
626.9576, 2772.648
627.4397, 2765.979
627.9218, 2756.587
628.4039, 2748.454
628.8860, 2741.631
629.3682, 2738.194
629.8503, 2744.629
630.3324, 2759.208
630.8145, 2768.906
631.2966, 2757.851
631.7787, 2744.869
632.2609, 2745.252
632.7430, 2765.727
633.2251, 2780.600
633.7072, 2777.766
634.1893, 2771.623
634.6714, 2775.547
635.1536, 2801.261
635.6357, 2809.380
636.1178, 2789.749
636.5999, 2758.911
637.0820, 2748.979
637.5641, 2760.906
638.0463, 2772.148
638.5284, 2776.472
639.0105, 2774.761
639.4926, 2765.074
639.9747, 2749.246
640.4568, 2738.122
640.9390, 2742.877
641.4211, 2752.232
641.9032, 2755.629
642.3853, 2752.318
642.8674, 2748.330
643.3495, 2744.090
643.8317, 2741.344
644.3138, 2741.752
644.7959, 2750.045
645.2780, 2752.217
645.7601, 2743.771
646.2422, 2733.159
646.7244, 2730.931
647.2065, 2738.849
647.6886, 2746.779
648.1707, 2754.375
648.6528, 2759.024
649.1349, 2749.294
649.6171, 2728.479
650.0992, 2719.441
650.5813, 2747.146
651.0634, 2783.569
651.5455, 2791.761
652.0276, 2776.193
652.5098, 2760.440
652.9919, 2760.808
653.4740, 2762.025
653.9561, 2752.091
654.4382, 2726.565
654.9203, 2710.275
655.4025, 2710.739
655.8846, 2717.649
656.3667, 2725.516
656.8488, 2736.978
657.3309, 2740.612
657.8130, 2733.892
658.2952, 2723.225
658.7773, 2716.139
659.2594, 2712.675
659.7415, 2714.727
660.2236, 2725.014
660.7057, 2737.331
661.1879, 2741.521
661.6700, 2740.243
662.1521, 2740.860
662.6342, 2755.337
663.1163, 2765.590
663.5984, 2753.433
664.0806, 2722.666
664.5627, 2705.412
665.0448, 2726.172
665.5269, 2747.125
666.0090, 2751.162
666.4911, 2735.467
666.9733, 2723.675
667.4554, 2716.854
667.9375, 2711.813
668.4196, 2704.363
668.9017, 2694.799
669.3839, 2694.979
669.8660, 2708.047
670.3481, 2720.990
670.8302, 2714.858
671.3123, 2697.462
671.7944, 2685.698
672.2766, 2686.192
672.7587, 2691.566
673.2408, 2701.577
673.7229, 2712.469
674.2050, 2717.105
674.6871, 2706.283
675.1693, 2696.727
675.6514, 2691.893
676.1335, 2691.734
676.6156, 2697.804
677.0977, 2715.140
677.5798, 2727.054
678.0620, 2723.354
678.5441, 2706.238
679.0262, 2698.962
679.5083, 2702.078
679.9904, 2704.964
680.4725, 2698.691
680.9547, 2686.554
681.4368, 2672.577
681.9189, 2656.708
682.4010, 2645.091
682.8831, 2641.518
683.3652, 2644.604
683.8474, 2653.949
684.3295, 2681.309
684.8116, 2696.073
685.2937, 2687.591
685.7758, 2666.908
686.2579, 2646.898
686.7401, 2626.107
