##NAMES=Gadolinite-(Y)
##RRUFFID=R060351
##IDEAL CHEMISTRY=Fe^2+^Be_2_Y^3+^_2_(SiO_4_)_2_O_2_
##LOCALITY=Hittero, Vest-Agder, Norway
##OWNER=RRUFF
##SOURCE=Herb Obodda
##DESCRIPTION=Dark brown vitreous fragment
##STATUS=The identification of this mineral is confirmed by single-crystal X-ray diffraction and chemical analysis.
##URL=rruff.info/R060351
##MEASURED CHEMISTRY=Be_2.00_Fe^2+^_1.00_(Y_1.75_Nd_0.14_Ce_0.09_La_0.02_)_Î£=2_Si_2.00_O_10_; trace amounts of Ca and Sm; Be not measured but assumed by stoichiometry
103.1040, 1404.271
103.5861, 1404.638
104.0682, 1406.125
104.5504, 1407.661
105.0325, 1408.913
105.5146, 1409.788
105.9967, 1409.931
106.4788, 1408.958
106.9609, 1407.787
107.4431, 1406.233
107.9252, 1404.488
108.4073, 1402.740
108.8894, 1400.937
109.3715, 1399.315
109.8536, 1398.354
110.3358, 1398.099
110.8179, 1397.944
111.3000, 1397.750
111.7821, 1397.480
112.2642, 1396.712
112.7463, 1394.741
113.2285, 1392.518
113.7106, 1390.901
114.1927, 1390.005
114.6748, 1389.811
115.1569, 1390.576
115.6390, 1392.936
116.1212, 1394.571
116.6033, 1395.027
117.0854, 1394.460
117.5675, 1392.811
118.0496, 1389.919
118.5317, 1386.087
119.0139, 1382.827
119.4960, 1380.341
119.9781, 1378.294
120.4602, 1376.484
120.9423, 1375.047
121.4244, 1374.323
121.9066, 1374.664
122.3887, 1376.195
122.8708, 1376.951
123.3529, 1376.679
123.8350, 1376.071
124.3171, 1375.280
124.7993, 1374.384
125.2814, 1373.612
125.7635, 1373.339
126.2456, 1373.781
126.7277, 1373.095
127.2098, 1370.125
127.6920, 1366.505
128.1741, 1364.082
128.6562, 1363.370
129.1383, 1363.128
129.6204, 1361.263
130.1025, 1357.930
130.5847, 1355.904
131.0668, 1357.819
131.5489, 1362.260
132.0310, 1364.043
132.5131, 1360.438
132.9952, 1355.559
133.4774, 1353.035
133.9595, 1352.934
134.4416, 1353.620
134.9237, 1353.588
135.4058, 1352.660
135.8879, 1352.328
136.3701, 1354.013
136.8522, 1355.695
137.3343, 1356.114
137.8164, 1354.980
138.2985, 1353.025
138.7806, 1351.478
139.2628, 1350.662
139.7449, 1349.693
140.2270, 1348.067
140.7091, 1346.454
141.1912, 1345.469
141.6733, 1345.390
142.1555, 1346.021
142.6376, 1346.713
143.1197, 1347.490
143.6018, 1348.276
144.0839, 1349.663
144.5660, 1350.976
145.0482, 1350.993
145.5303, 1348.827
146.0124, 1344.883
146.4945, 1342.241
146.9766, 1341.484
147.4587, 1341.118
147.9409, 1340.606
148.4230, 1339.965
148.9051, 1339.381
149.3872, 1339.002
149.8693, 1338.800
150.3514, 1338.511
150.8336, 1338.341
151.3157, 1337.959
151.7978, 1336.991
152.2799, 1335.366
152.7620, 1333.564
153.2441, 1331.314
153.7263, 1329.147
154.2084, 1328.172
154.6905, 1330.069
155.1726, 1333.237
155.6547, 1333.742
156.1368, 1329.869
156.6190, 1326.410
157.1011, 1326.489
157.5832, 1328.794
158.0653, 1330.798
158.5474, 1330.761
159.0295, 1328.840
159.5117, 1327.180
159.9938, 1326.541
160.4759, 1325.353
160.9580, 1322.249
161.4401, 1317.972
161.9222, 1314.451
162.4044, 1313.713
162.8865, 1316.440
163.3686, 1317.917
163.8507, 1317.520
164.3328, 1316.529
164.8149, 1315.223
165.2971, 1313.760
165.7792, 1312.369
166.2613, 1311.298
166.7434, 1310.599
167.2255, 1310.186
167.7076, 1310.359
168.1898, 1310.581
168.6719, 1310.302
169.1540, 1309.469
169.6361, 1308.732
170.1182, 1309.173
170.6003, 1311.847
171.0825, 1312.895
171.5646, 1310.561
172.0467, 1307.133
172.5288, 1305.527
173.0109, 1306.746
173.4930, 1308.844
173.9752, 1308.215
174.4573, 1304.481
174.9394, 1301.533
175.4215, 1301.060
175.9036, 1302.174
176.3857, 1302.866
176.8679, 1302.431
177.3500, 1301.585
177.8321, 1301.281
178.3142, 1301.529
178.7963, 1301.953
179.2784, 1302.839
179.7606, 1304.002
180.2427, 1303.711
180.7248, 1299.945
181.2069, 1295.918
181.6890, 1294.822
182.1711, 1296.989
182.6533, 1299.598
183.1354, 1299.682
183.6175, 1296.860
184.0996, 1294.570
184.5817, 1294.288
185.0638, 1294.369
185.5460, 1293.770
186.0281, 1292.285
186.5102, 1290.653
186.9923, 1290.125
187.4744, 1291.509
187.9565, 1291.792
188.4387, 1289.108
188.9208, 1286.220
189.4029, 1285.398
189.8850, 1287.260
190.3671, 1290.365
190.8492, 1291.953
191.3314, 1290.800
191.8135, 1289.988
192.2956, 1289.919
192.7777, 1290.127
193.2598, 1290.393
193.7419, 1290.603
194.2241, 1290.485
194.7062, 1289.382
195.1883, 1285.375
195.6704, 1282.588
196.1525, 1281.679
196.6346, 1281.857
197.1168, 1282.384
197.5989, 1282.969
198.0810, 1283.431
198.5631, 1283.174
199.0452, 1280.696
199.5273, 1279.494
200.0095, 1281.331
200.4916, 1284.641
200.9737, 1286.783
201.4558, 1286.466
201.9379, 1284.515
202.4200, 1283.336
202.9022, 1283.494
203.3843, 1283.302
203.8664, 1281.545
204.3485, 1278.890
204.8306, 1277.315
205.3127, 1278.031
205.7949, 1279.963
206.2770, 1280.595
206.7591, 1279.319
207.2412, 1278.180
207.7233, 1278.830
208.2054, 1280.907
208.6876, 1282.091
209.1697, 1280.902
209.6518, 1278.696
210.1339, 1277.426
210.6160, 1277.183
211.0981, 1277.833
211.5803, 1280.201
212.0624, 1284.296
212.5445, 1286.405
213.0266, 1283.411
213.5087, 1278.843
213.9908, 1276.065
214.4730, 1275.761
214.9551, 1276.215
215.4372, 1275.477
215.9193, 1273.295
216.4014, 1271.495
216.8836, 1270.439
217.3657, 1270.076
217.8478, 1270.623
218.3299, 1272.143
218.8120, 1274.057
219.2941, 1275.396
219.7763, 1275.719
220.2584, 1276.944
220.7405, 1280.782
221.2226, 1284.743
221.7047, 1286.919
222.1868, 1286.832
222.6690, 1285.690
223.1511, 1285.460
223.6332, 1286.758
224.1153, 1287.555
224.5974, 1287.528
225.0795, 1287.108
225.5617, 1286.654
226.0438, 1286.253
226.5259, 1285.663
227.0080, 1284.334
227.4901, 1281.329
227.9722, 1279.391
228.4544, 1279.086
228.9365, 1279.429
229.4186, 1279.876
229.9007, 1280.203
230.3828, 1280.266
230.8649, 1279.760
231.3471, 1277.982
231.8292, 1276.763
232.3113, 1276.136
232.7934, 1275.983
233.2755, 1276.321
233.7576, 1277.118
234.2398, 1278.160
234.7219, 1279.149
235.2040, 1280.725
235.6861, 1280.880
236.1682, 1278.355
236.6503, 1275.116
237.1325, 1272.556
237.6146, 1271.118
238.0967, 1271.133
238.5788, 1273.475
239.0609, 1280.365
239.5430, 1284.165
240.0252, 1282.785
240.5073, 1279.090
240.9894, 1275.415
241.4715, 1272.318
241.9536, 1270.146
242.4357, 1269.560
242.9179, 1270.938
243.4000, 1272.315
243.8821, 1273.965
244.3642, 1275.322
244.8463, 1275.422
245.3284, 1274.010
245.8106, 1272.520
246.2927, 1272.987
246.7748, 1275.526
247.2569, 1277.050
247.7390, 1276.109
248.2211, 1274.351
248.7033, 1274.066
249.1854, 1275.775
249.6675, 1277.490
250.1496, 1276.853
250.6317, 1274.229
251.1138, 1271.982
251.5960, 1270.174
252.0781, 1269.168
252.5602, 1269.832
253.0423, 1272.516
253.5244, 1275.289
254.0065, 1276.334
254.4887, 1276.115
254.9708, 1275.756
255.4529, 1275.551
255.9350, 1275.356
256.4171, 1274.945
256.8992, 1274.279
257.3813, 1273.557
257.8635, 1272.243
258.3456, 1271.008
258.8277, 1271.295
259.3098, 1275.124
259.7919, 1279.732
260.2740, 1280.687
260.7562, 1277.185
261.2383, 1273.477
261.7204, 1271.952
262.2025, 1271.667
262.6846, 1271.595
263.1667, 1271.374
263.6489, 1271.318
264.1310, 1272.207
264.6131, 1274.440
265.0952, 1275.865
265.5773, 1274.249
266.0594, 1271.838
266.5416, 1270.910
267.0237, 1272.393
267.5058, 1274.706
267.9879, 1275.562
268.4700, 1274.567
268.9521, 1273.987
269.4343, 1275.651
269.9164, 1277.502
270.3985, 1277.846
270.8806, 1276.222
271.3627, 1273.680
271.8448, 1271.145
272.3270, 1268.375
272.8091, 1266.821
273.2912, 1268.365
273.7733, 1270.289
274.2554, 1270.477
274.7375, 1268.651
275.2197, 1266.980
275.7018, 1268.509
276.1839, 1273.965
276.6660, 1277.782
277.1481, 1278.332
277.6302, 1277.540
278.1124, 1275.401
278.5945, 1272.319
279.0766, 1269.959
279.5587, 1270.660
280.0408, 1274.979
280.5229, 1277.371
281.0051, 1275.278
281.4872, 1273.141
281.9693, 1272.944
282.4514, 1274.437
282.9335, 1276.232
283.4156, 1277.322
283.8978, 1277.711
284.3799, 1277.297
284.8620, 1275.219
285.3441, 1273.144
285.8262, 1271.084
286.3083, 1269.448
286.7905, 1269.096
287.2726, 1271.034
287.7547, 1274.891
288.2368, 1277.078
288.7189, 1276.688
289.2010, 1275.495
289.6832, 1273.094
290.1653, 1270.417
290.6474, 1268.875
291.1295, 1269.421
291.6116, 1271.485
292.0938, 1272.758
292.5759, 1272.974
293.0580, 1272.679
293.5401, 1271.074
294.0222, 1269.416
294.5043, 1269.508
294.9865, 1272.234
295.4686, 1276.081
295.9507, 1277.111
296.4328, 1272.824
296.9149, 1270.169
297.3970, 1271.865
297.8792, 1274.273
298.3613, 1273.547
298.8434, 1268.713
299.3255, 1262.813
299.8076, 1261.333
300.2897, 1267.281
300.7719, 1270.847
301.2540, 1270.071
301.7361, 1268.252
302.2182, 1267.240
302.7003, 1267.442
303.1824, 1268.359
303.6646, 1269.535
304.1467, 1271.182
304.6288, 1272.273
305.1109, 1272.520
305.5930, 1272.503
306.0751, 1272.441
306.5573, 1272.351
307.0394, 1272.125
307.5215, 1271.564
308.0036, 1270.591
308.4857, 1270.365
308.9678, 1271.632
309.4500, 1272.943
309.9321, 1274.144
310.4142, 1275.068
310.8963, 1275.408
311.3784, 1274.852
311.8605, 1273.588
312.3427, 1273.147
312.8248, 1275.464
313.3069, 1276.285
313.7890, 1273.413
314.2711, 1269.059
314.7532, 1266.218
315.2354, 1266.439
315.7175, 1268.584
316.1996, 1269.360
316.6817, 1267.753
317.1638, 1266.317
317.6459, 1264.731
318.1281, 1263.741
318.6102, 1264.561
319.0923, 1267.421
319.5744, 1270.661
320.0565, 1271.033
320.5386, 1265.837
321.0208, 1264.141
321.5029, 1269.599
321.9850, 1275.610
322.4671, 1277.912
322.9492, 1276.156
323.4313, 1272.938
323.9135, 1271.109
324.3956, 1271.081
324.8777, 1270.311
325.3598, 1267.212
325.8419, 1264.824
326.3240, 1264.678
326.8062, 1266.319
327.2883, 1268.311
327.7704, 1269.647
328.2525, 1270.334
328.7346, 1270.527
329.2167, 1269.659
329.6989, 1268.927
330.1810, 1268.732
330.6631, 1268.840
331.1452, 1268.695
331.6273, 1267.876
332.1094, 1267.028
332.5916, 1268.448
333.0737, 1274.459
333.5558, 1278.737
334.0379, 1280.377
334.5200, 1280.013
335.0021, 1277.359
335.4843, 1272.450
335.9664, 1267.489
336.4485, 1266.362
336.9306, 1270.510
337.4127, 1274.213
337.8948, 1277.671
338.3770, 1279.988
338.8591, 1279.694
339.3412, 1277.160
339.8233, 1274.906
340.3055, 1276.253
340.7876, 1281.827
341.2697, 1284.536
341.7518, 1280.998
342.2339, 1277.758
342.7160, 1277.665
343.1982, 1279.932
343.6803, 1282.396
344.1624, 1283.807
344.6445, 1284.205
345.1266, 1283.552
345.6087, 1280.588
346.0909, 1278.693
346.5730, 1279.371
347.0551, 1281.437
347.5372, 1283.562
348.0193, 1285.338
348.5014, 1286.558
348.9836, 1286.619
349.4657, 1285.023
349.9478, 1283.942
350.4299, 1283.982
350.9120, 1284.726
351.3941, 1286.167
351.8763, 1288.269
352.3584, 1290.365
352.8405, 1291.838
353.3226, 1292.690
353.8047, 1292.968
354.2868, 1292.105
354.7690, 1291.247
355.2511, 1290.720
355.7332, 1290.696
356.2153, 1291.747
356.6974, 1295.340
357.1795, 1300.489
357.6617, 1303.126
358.1438, 1302.342
358.6259, 1300.780
359.1080, 1298.987
359.5901, 1297.605
360.0722, 1297.993
360.5544, 1301.686
361.0365, 1306.127
361.5186, 1307.052
362.0007, 1303.857
362.4828, 1301.919
362.9649, 1304.682
363.4471, 1309.155
363.9292, 1311.930
364.4113, 1312.454
364.8934, 1312.238
365.3755, 1312.252
365.8576, 1312.470
366.3398, 1312.797
366.8219, 1313.372
367.3040, 1313.800
367.7861, 1313.435
368.2682, 1312.378
368.7503, 1311.787
369.2325, 1312.138
369.7146, 1313.246
370.1967, 1314.958
370.6788, 1317.361
371.1609, 1319.788
371.6430, 1321.886
372.1252, 1323.592
372.6073, 1324.647
373.0894, 1324.627
373.5715, 1324.249
374.0536, 1323.855
374.5357, 1323.506
375.0179, 1323.601
375.5000, 1324.416
375.9821, 1325.736
376.4642, 1327.119
376.9463, 1328.795
377.4284, 1330.018
377.9106, 1330.355
378.3927, 1330.091
378.8748, 1329.572
379.3569, 1328.841
379.8390, 1328.254
380.3211, 1328.263
380.8033, 1328.929
381.2854, 1329.976
381.7675, 1331.024
382.2496, 1332.698
382.7317, 1336.747
383.2138, 1342.602
383.6960, 1346.219
384.1781, 1343.920
384.6602, 1336.315
385.1423, 1332.612
385.6244, 1334.835
386.1065, 1337.855
386.5887, 1340.393
387.0708, 1342.513
387.5529, 1344.606
388.0350, 1346.866
388.5171, 1348.834
388.9992, 1349.459
389.4814, 1346.948
389.9635, 1345.855
390.4456, 1347.223
390.9277, 1349.300
391.4098, 1350.910
391.8919, 1351.770
392.3741, 1351.927
392.8562, 1351.208
393.3383, 1349.270
393.8204, 1349.185
394.3025, 1353.818
394.7846, 1357.226
395.2668, 1356.384
395.7489, 1352.939
396.2310, 1350.081
396.7131, 1349.674
397.1952, 1351.135
397.6773, 1352.576
398.1595, 1354.816
398.6416, 1355.552
399.1237, 1352.741
399.6058, 1349.548
400.0879, 1348.980
400.5700, 1351.596
401.0522, 1355.250
401.5343, 1357.495
402.0164, 1358.180
402.4985, 1358.232
402.9806, 1357.157
403.4627, 1355.896
403.9449, 1354.367
404.4270, 1352.941
404.9091, 1352.513
405.3912, 1354.039
405.8733, 1356.760
406.3554, 1358.139
406.8376, 1357.550
407.3197, 1357.202
407.8018, 1358.582
408.2839, 1360.365
408.7660, 1361.071
409.2481, 1360.220
409.7303, 1359.035
410.2124, 1359.005
410.6945, 1360.015
411.1766, 1359.969
411.6587, 1357.254
412.1408, 1354.929
412.6230, 1356.648
413.1051, 1361.784
413.5872, 1365.615
414.0693, 1365.691
414.5514, 1363.425
415.0335, 1360.683
415.5157, 1357.489
415.9978, 1354.616
416.4799, 1352.313
416.9620, 1350.822
417.4441, 1350.610
417.9262, 1352.379
418.4084, 1354.516
418.8905, 1356.477
419.3726, 1358.113
419.8547, 1358.877
420.3368, 1358.447
420.8189, 1357.533
421.3011, 1357.176
421.7832, 1357.322
422.2653, 1358.233
422.7474, 1361.746
423.2295, 1364.832
423.7116, 1364.058
424.1938, 1359.700
424.6759, 1355.547
425.1580, 1354.776
425.6401, 1357.101
426.1222, 1357.075
426.6043, 1352.170
427.0865, 1348.219
427.5686, 1346.678
428.0507, 1346.935
428.5328, 1348.425
429.0149, 1350.882
429.4970, 1353.520
429.9792, 1354.966
430.4613, 1354.801
430.9434, 1354.270
431.4255, 1353.289
431.9076, 1352.088
432.3897, 1350.486
432.8719, 1348.728
433.3540, 1347.493
433.8361, 1347.446
434.3182, 1348.368
434.8003, 1348.674
435.2824, 1348.435
435.7646, 1347.394
436.2467, 1344.335
436.7288, 1341.102
437.2109, 1339.934
437.6930, 1341.551
438.1751, 1344.078
438.6573, 1345.368
439.1394, 1345.384
439.6215, 1344.462
440.1036, 1341.584
440.5857, 1338.950
441.0678, 1338.194
441.5500, 1338.925
442.0321, 1339.597
442.5142, 1339.567
442.9963, 1338.932
443.4784, 1337.560
443.9605, 1335.279
444.4427, 1333.666
444.9248, 1334.263
445.4069, 1335.641
445.8890, 1335.222
446.3711, 1332.315
446.8532, 1329.264
447.3354, 1327.426
447.8175, 1326.375
448.2996, 1324.949
448.7817, 1322.751
449.2638, 1321.105
449.7459, 1321.930
450.2281, 1325.419
450.7102, 1327.150
451.1923, 1325.914
451.6744, 1323.805
452.1565, 1321.831
452.6386, 1320.052
453.1208, 1318.472
453.6029, 1317.128
454.0850, 1315.842
454.5671, 1314.117
455.0492, 1310.851
455.5313, 1308.682
456.0135, 1308.184
456.4956, 1308.426
456.9777, 1308.990
457.4598, 1309.624
457.9419, 1309.828
458.4240, 1309.074
458.9062, 1307.351
459.3883, 1305.676
459.8704, 1303.495
460.3525, 1302.037
460.8346, 1301.793
461.3167, 1302.338
461.7989, 1303.628
462.2810, 1305.690
462.7631, 1306.986
463.2452, 1304.224
463.7273, 1296.259
464.2094, 1291.104
464.6916, 1292.394
465.1737, 1294.296
465.6558, 1293.217
466.1379, 1289.730
466.6200, 1286.420
467.1021, 1284.580
467.5843, 1283.870
468.0664, 1283.774
468.5485, 1284.356
469.0306, 1285.162
469.5127, 1286.783
469.9948, 1287.990
470.4770, 1286.774
470.9591, 1282.485
471.4412, 1278.016
471.9233, 1274.234
472.4054, 1271.396
472.8875, 1270.480
473.3697, 1271.778
473.8518, 1273.206
474.3339, 1272.842
474.8160, 1270.664
475.2981, 1268.736
475.7802, 1266.538
476.2624, 1265.120
476.7445, 1265.816
477.2266, 1267.474
477.7087, 1267.686
478.1908, 1265.466
478.6729, 1262.323
479.1551, 1261.170
479.6372, 1263.998
480.1193, 1264.000
480.6014, 1258.185
481.0835, 1252.602
481.5656, 1251.003
482.0478, 1252.618
482.5299, 1254.459
483.0120, 1254.476
483.4941, 1253.399
483.9762, 1254.502
484.4583, 1260.753
484.9405, 1262.983
485.4226, 1255.506
485.9047, 1246.320
486.3868, 1241.760
486.8689, 1242.535
487.3510, 1244.898
487.8332, 1246.358
488.3153, 1246.885
488.7974, 1246.099
489.2795, 1243.405
489.7616, 1240.827
490.2437, 1239.605
490.7259, 1239.296
491.2080, 1239.386
491.6901, 1240.029
492.1722, 1240.580
492.6543, 1240.537
493.1364, 1240.025
493.6186, 1239.483
494.1007, 1239.082
494.5828, 1238.330
495.0649, 1236.225
495.5470, 1232.531
496.0291, 1230.894
496.5113, 1233.694
496.9934, 1236.473
497.4755, 1236.465
497.9576, 1234.342
498.4397, 1232.019
498.9218, 1230.428
499.4040, 1229.129
499.8861, 1227.063
500.3682, 1222.957
500.8503, 1220.524
501.3324, 1220.394
501.8145, 1221.175
502.2967, 1222.910
502.7788, 1224.882
503.2609, 1225.344
503.7430, 1222.760
504.2251, 1218.107
504.7072, 1215.336
505.1894, 1215.343
505.6715, 1215.165
506.1536, 1213.111
506.6357, 1211.193
507.1178, 1211.474
507.5999, 1214.073
508.0821, 1216.479
508.5642, 1217.339
509.0463, 1216.576
509.5284, 1213.123
510.0105, 1206.057
510.4926, 1200.222
510.9748, 1199.290
511.4569, 1201.632
511.9390, 1203.230
512.4211, 1203.628
512.9032, 1203.719
513.3853, 1203.583
513.8674, 1203.517
514.3495, 1204.364
514.8317, 1206.309
515.3138, 1207.972
515.7959, 1207.969
516.2780, 1206.209
516.7601, 1203.792
517.2422, 1200.169
517.7244, 1196.600
518.2065, 1193.104
518.6886, 1190.063
519.1707, 1188.237
519.6528, 1187.836
520.1349, 1187.868
520.6171, 1186.613
521.0992, 1183.417
521.5813, 1181.635
522.0634, 1182.479
522.5455, 1183.626
523.0276, 1184.632
523.5098, 1185.282
523.9919, 1185.221
524.4740, 1184.176
524.9561, 1182.694
525.4382, 1181.414
525.9203, 1180.337
526.4025, 1179.751
526.8846, 1179.919
527.3667, 1180.343
527.8488, 1180.804
528.3309, 1181.211
528.8130, 1180.864
529.2952, 1178.476
529.7773, 1176.068
530.2594, 1175.819
530.7415, 1177.331
531.2236, 1178.819
531.7057, 1179.673
532.1879, 1179.552
532.6700, 1177.613
533.1521, 1172.359
533.6342, 1168.701
534.1163, 1167.632
534.5984, 1167.427
535.0806, 1166.840
535.5627, 1166.114
536.0448, 1166.583
536.5269, 1169.276
537.0090, 1172.862
537.4911, 1173.018
537.9733, 1167.841
538.4554, 1163.388
538.9375, 1160.356
539.4196, 1158.224
539.9017, 1157.114
540.3839, 1156.732
540.8660, 1156.076
541.3481, 1153.988
541.8302, 1151.483
542.3123, 1151.420
542.7944, 1154.228
543.2766, 1155.689
543.7587, 1153.512
544.2408, 1149.635
544.7229, 1146.844
545.2050, 1145.202
545.6871, 1143.982
546.1693, 1142.947
546.6514, 1142.222
547.1335, 1142.317
547.6156, 1143.031
548.0977, 1142.973
548.5798, 1141.098
549.0620, 1138.135
549.5441, 1136.562
550.0262, 1137.784
550.5083, 1138.563
550.9904, 1139.847
551.4725, 1139.937
551.9547, 1136.176
552.4368, 1129.665
552.9189, 1124.671
553.4010, 1124.678
553.8831, 1128.355
554.3652, 1130.281
554.8474, 1129.676
555.3295, 1129.285
555.8116, 1130.229
556.2937, 1131.357
556.7758, 1132.289
557.2579, 1132.838
557.7401, 1131.976
558.2222, 1127.633
558.7043, 1122.072
559.1864, 1119.672
559.6685, 1120.570
560.1506, 1121.013
560.6328, 1118.834
561.1149, 1115.417
561.5970, 1114.024
562.0791, 1115.502
562.5612, 1115.872
563.0433, 1112.770
563.5255, 1109.486
564.0076, 1109.498
564.4897, 1112.176
564.9718, 1113.943
565.4539, 1112.407
565.9360, 1108.649
566.4182, 1106.419
566.9003, 1107.124
567.3824, 1106.681
567.8645, 1103.266
568.3466, 1100.070
568.8287, 1100.012
569.3109, 1102.209
569.7930, 1102.934
570.2751, 1098.989
570.7572, 1093.050
571.2393, 1091.439
571.7214, 1094.617
572.2036, 1096.384
572.6857, 1093.715
573.1678, 1089.976
573.6499, 1089.658
574.1320, 1092.650
574.6141, 1094.320
575.0963, 1092.306
575.5784, 1089.329
576.0605, 1087.548
576.5426, 1086.846
577.0247, 1086.557
577.5068, 1086.442
577.9890, 1086.224
578.4711, 1085.346
578.9532, 1083.399
579.4353, 1081.843
579.9174, 1080.970
580.3995, 1080.151
580.8817, 1079.202
581.3638, 1078.066
581.8459, 1076.623
582.3280, 1074.782
582.8101, 1072.876
583.2922, 1071.298
583.7744, 1070.021
584.2565, 1069.625
584.7386, 1070.928
585.2207, 1072.056
585.7029, 1071.672
586.1850, 1070.111
586.6671, 1068.080
587.1492, 1064.914
587.6313, 1062.429
588.1135, 1062.527
588.5956, 1064.247
589.0777, 1065.460
589.5598, 1065.638
590.0419, 1064.925
590.5240, 1063.110
591.0062, 1060.050
591.4883, 1059.410
591.9704, 1064.247
592.4525, 1067.510
592.9346, 1066.755
593.4167, 1063.877
593.8989, 1060.649
594.3810, 1057.701
594.8631, 1055.353
595.3452, 1054.187
595.8273, 1054.068
596.3094, 1053.213
596.7916, 1051.097
