##NAMES=Gadolinite-(Y)
##RRUFFID=R060351
##IDEAL CHEMISTRY=Fe^2+^Be_2_Y^3+^_2_(SiO_4_)_2_O_2_
##LOCALITY=Hittero, Vest-Agder, Norway
##OWNER=RRUFF
##SOURCE=Herb Obodda
##DESCRIPTION=Dark brown vitreous fragment
##STATUS=The identification of this mineral is confirmed by single-crystal X-ray diffraction and chemical analysis.
##URL=rruff.info/R060351
##MEASURED CHEMISTRY=Be_2.00_Fe^2+^_1.00_(Y_1.75_Nd_0.14_Ce_0.09_La_0.02_)_Î£=2_Si_2.00_O_10_; trace amounts of Ca and Sm; Be not measured but assumed by stoichiometry
172.9341, 1146.984
173.4163, 1141.658
173.8984, 1137.236
174.3805, 1134.639
174.8626, 1132.665
175.3447, 1130.196
175.8268, 1127.293
176.3090, 1124.271
176.7911, 1121.459
177.2732, 1118.658
177.7553, 1115.447
178.2374, 1111.139
178.7195, 1106.988
179.2017, 1105.214
179.6838, 1105.532
180.1659, 1105.417
180.6480, 1101.451
181.1301, 1095.537
181.6122, 1092.213
182.0944, 1094.020
182.5765, 1098.176
183.0586, 1100.110
183.5407, 1099.817
184.0228, 1098.632
184.5049, 1096.722
184.9871, 1094.625
185.4692, 1094.488
185.9513, 1098.069
186.4334, 1103.616
186.9155, 1107.035
187.3976, 1108.206
187.8798, 1108.518
188.3619, 1109.906
188.8440, 1112.011
189.3261, 1112.307
189.8082, 1108.888
190.2903, 1103.033
190.7725, 1099.540
191.2546, 1098.651
191.7367, 1098.609
192.2188, 1097.311
192.7009, 1094.815
193.1830, 1092.523
193.6652, 1091.384
194.1473, 1091.033
194.6294, 1088.873
195.1115, 1084.475
195.5936, 1079.689
196.0757, 1076.979
196.5579, 1076.387
197.0400, 1076.456
197.5221, 1076.677
198.0042, 1077.063
198.4863, 1078.150
198.9684, 1080.403
199.4506, 1082.337
199.9327, 1081.211
200.4148, 1076.672
200.8969, 1072.347
201.3790, 1069.639
201.8611, 1068.594
202.3433, 1068.052
202.8254, 1067.991
203.3075, 1068.430
203.7896, 1069.961
204.2717, 1073.090
204.7538, 1074.730
205.2360, 1072.714
205.7181, 1066.389
206.2002, 1062.510
206.6823, 1061.625
207.1644, 1062.505
207.6465, 1063.057
208.1287, 1063.304
208.6108, 1063.166
209.0929, 1062.445
209.5750, 1060.950
210.0571, 1060.059
210.5392, 1060.011
211.0214, 1060.396
211.5035, 1060.325
211.9856, 1059.689
212.4677, 1058.977
212.9498, 1058.489
213.4319, 1058.392
213.9141, 1057.823
214.3962, 1056.614
214.8783, 1055.016
215.3604, 1053.477
215.8425, 1051.643
216.3246, 1050.570
216.8067, 1050.982
217.2889, 1053.532
217.7710, 1055.166
218.2531, 1055.477
218.7352, 1054.999
219.2173, 1055.318
219.6994, 1057.496
220.1816, 1058.406
220.6637, 1055.980
221.1458, 1047.898
221.6279, 1043.397
222.1100, 1043.997
222.5921, 1047.696
223.0743, 1049.158
223.5564, 1047.346
224.0385, 1045.161
224.5206, 1043.989
225.0027, 1044.215
225.4848, 1044.471
225.9670, 1044.902
226.4491, 1045.315
226.9312, 1045.044
227.4133, 1043.411
227.8954, 1042.189
228.3775, 1042.329
228.8597, 1044.556
229.3418, 1046.263
229.8239, 1047.068
230.3060, 1047.390
230.7881, 1048.516
231.2702, 1051.212
231.7524, 1053.504
232.2345, 1054.300
232.7166, 1052.511
233.1987, 1051.858
233.6808, 1053.203
234.1629, 1055.474
234.6451, 1055.706
235.1272, 1052.963
235.6093, 1049.629
236.0914, 1046.546
236.5735, 1043.069
237.0556, 1041.601
237.5378, 1043.496
238.0199, 1047.051
238.5020, 1047.732
238.9841, 1043.846
239.4662, 1039.641
239.9483, 1036.864
240.4305, 1035.916
240.9126, 1035.512
241.3947, 1035.743
241.8768, 1036.465
242.3589, 1037.445
242.8410, 1039.123
243.3232, 1040.335
243.8053, 1040.450
244.2874, 1038.780
244.7695, 1037.657
245.2516, 1037.262
245.7337, 1037.329
246.2159, 1037.176
246.6980, 1036.250
247.1801, 1036.001
247.6622, 1037.428
248.1443, 1042.127
248.6264, 1043.827
249.1086, 1041.047
249.5907, 1036.026
250.0728, 1033.363
250.5549, 1033.753
251.0370, 1035.336
251.5191, 1037.747
252.0013, 1041.633
252.4834, 1043.979
252.9655, 1044.099
253.4476, 1043.048
253.9297, 1042.777
254.4118, 1043.589
254.8940, 1044.601
255.3761, 1045.730
255.8582, 1047.366
256.3403, 1047.356
256.8224, 1044.786
257.3046, 1041.285
257.7867, 1039.770
258.2688, 1041.179
258.7509, 1042.611
259.2330, 1043.147
259.7151, 1042.706
260.1973, 1041.906
260.6794, 1040.458
261.1615, 1038.980
261.6436, 1038.476
262.1257, 1039.291
262.6078, 1040.230
263.0900, 1040.901
263.5721, 1041.254
264.0542, 1041.896
264.5363, 1043.111
265.0184, 1044.252
265.5005, 1044.290
265.9827, 1042.627
266.4648, 1041.587
266.9469, 1042.083
267.4290, 1044.156
267.9111, 1045.422
268.3932, 1045.855
268.8754, 1045.487
269.3575, 1044.115
269.8396, 1041.339
270.3217, 1038.986
270.8038, 1037.493
271.2859, 1036.835
271.7681, 1036.697
272.2502, 1037.158
272.7323, 1037.988
273.2144, 1039.059
273.6965, 1040.471
274.1786, 1041.677
274.6608, 1042.834
275.1429, 1043.755
275.6250, 1042.698
276.1071, 1039.002
276.5892, 1035.237
277.0714, 1033.804
277.5535, 1034.841
278.0356, 1036.985
278.5177, 1040.647
278.9998, 1045.074
279.4819, 1046.702
279.9641, 1044.993
280.4462, 1042.849
280.9283, 1043.026
281.4104, 1045.646
281.8925, 1046.798
282.3746, 1045.484
282.8568, 1042.633
283.3389, 1040.688
283.8210, 1039.654
284.3031, 1039.433
284.7852, 1039.996
285.2673, 1041.318
285.7495, 1043.434
286.2316, 1046.625
286.7137, 1050.163
287.1958, 1052.649
287.6779, 1054.064
288.1600, 1054.610
288.6422, 1054.013
289.1243, 1052.448
289.6064, 1051.183
290.0885, 1050.204
290.5706, 1049.802
291.0527, 1051.051
291.5349, 1053.808
292.0170, 1055.867
292.4991, 1054.939
292.9812, 1052.172
293.4633, 1052.459
293.9454, 1056.743
294.4276, 1061.223
294.9097, 1059.716
295.3918, 1053.362
295.8739, 1048.167
296.3560, 1048.696
296.8381, 1052.300
297.3203, 1051.902
297.8024, 1046.906
298.2845, 1042.082
298.7666, 1043.935
299.2487, 1050.374
299.7308, 1055.034
300.2130, 1053.495
300.6951, 1049.251
301.1772, 1048.237
301.6593, 1050.445
302.1414, 1053.233
302.6235, 1054.657
303.1057, 1054.984
303.5878, 1054.635
304.0699, 1052.939
304.5520, 1051.309
305.0341, 1051.823
305.5162, 1054.240
305.9984, 1056.499
306.4805, 1056.787
306.9626, 1056.068
307.4447, 1055.743
307.9268, 1056.660
308.4089, 1057.425
308.8911, 1055.909
309.3732, 1052.835
309.8553, 1051.216
310.3374, 1055.307
310.8195, 1060.575
311.3016, 1062.020
311.7838, 1056.945
312.2659, 1051.474
312.7480, 1049.402
313.2301, 1050.031
313.7122, 1051.548
314.1943, 1055.049
314.6765, 1057.925
315.1586, 1057.748
315.6407, 1053.106
316.1228, 1049.251
316.6049, 1049.022
317.0870, 1051.201
317.5692, 1053.768
318.0513, 1058.081
318.5334, 1060.918
319.0155, 1059.620
319.4976, 1053.141
319.9797, 1048.566
320.4619, 1049.825
320.9440, 1053.622
321.4261, 1056.252
321.9082, 1055.865
322.3903, 1055.113
322.8724, 1055.129
323.3546, 1055.980
323.8367, 1055.585
324.3188, 1051.871
324.8009, 1047.694
325.2830, 1045.278
325.7651, 1046.291
326.2473, 1047.534
326.7294, 1048.902
327.2115, 1050.313
327.6936, 1051.060
328.1757, 1050.846
328.6578, 1050.159
329.1400, 1049.228
329.6221, 1047.609
330.1042, 1046.343
330.5863, 1045.340
331.0684, 1044.672
331.5505, 1044.646
332.0327, 1046.146
332.5148, 1047.206
332.9969, 1046.883
333.4790, 1044.363
333.9611, 1042.691
334.4432, 1042.102
334.9254, 1042.212
335.4075, 1042.415
335.8896, 1042.784
336.3717, 1043.108
336.8538, 1043.308
337.3359, 1043.379
337.8180, 1043.510
338.3001, 1043.727
338.7823, 1043.985
339.2644, 1044.342
339.7465, 1044.951
340.2286, 1044.958
340.7107, 1043.855
341.1928, 1041.901
341.6750, 1041.071
342.1571, 1041.472
342.6392, 1042.496
343.1213, 1044.354
343.6034, 1047.067
344.0855, 1047.288
344.5677, 1043.669
345.0498, 1038.039
345.5319, 1034.917
346.0140, 1034.354
346.4961, 1034.797
346.9782, 1035.933
347.4604, 1037.442
347.9425, 1037.534
348.4246, 1035.855
348.9067, 1033.356
349.3888, 1030.809
349.8709, 1028.410
350.3531, 1027.187
350.8352, 1028.813
351.3173, 1031.725
351.7994, 1032.614
352.2815, 1031.227
352.7636, 1029.514
353.2458, 1029.541
353.7279, 1030.638
354.2100, 1031.348
354.6921, 1030.704
355.1742, 1029.672
355.6563, 1029.127
356.1385, 1029.066
356.6206, 1029.471
357.1027, 1031.425
357.5848, 1033.426
358.0669, 1033.482
358.5490, 1029.395
359.0312, 1025.725
359.5133, 1026.556
359.9954, 1030.391
360.4775, 1032.604
360.9596, 1028.196
361.4417, 1023.213
361.9239, 1022.219
362.4060, 1027.416
362.8881, 1032.187
363.3702, 1033.974
363.8523, 1033.792
364.3344, 1033.197
364.8166, 1033.414
365.2987, 1032.584
365.7808, 1029.064
366.2629, 1022.170
366.7450, 1017.892
367.2271, 1019.645
367.7093, 1023.214
368.1914, 1024.893
368.6735, 1022.373
369.1556, 1020.161
369.6377, 1018.480
370.1198, 1017.410
370.6020, 1018.042
371.0841, 1022.793
371.5662, 1027.009
372.0483, 1027.968
372.5304, 1023.082
373.0125, 1019.902
373.4947, 1019.499
373.9768, 1020.583
374.4589, 1019.849
374.9410, 1015.953
375.4231, 1013.007
375.9052, 1012.979
376.3874, 1016.414
376.8695, 1018.449
377.3516, 1018.844
377.8337, 1018.285
378.3158, 1017.675
378.7979, 1017.085
379.2801, 1015.771
379.7622, 1012.931
380.2443, 1009.265
380.7264, 1008.158
381.2085, 1009.887
381.6906, 1012.257
382.1728, 1013.843
382.6549, 1014.603
383.1370, 1013.903
383.6191, 1011.037
384.1012, 1007.727
384.5833, 1007.148
385.0655, 1008.994
385.5476, 1010.912
386.0297, 1011.220
386.5118, 1010.768
386.9939, 1011.417
387.4760, 1013.512
387.9582, 1015.305
388.4403, 1014.491
388.9224, 1012.180
389.4045, 1010.688
389.8866, 1012.196
390.3687, 1014.072
390.8509, 1013.925
391.3330, 1011.880
391.8151, 1009.512
392.2972, 1006.706
392.7793, 1004.517
393.2614, 1004.201
393.7436, 1008.411
394.2257, 1011.210
394.7078, 1008.481
395.1899, 1002.263
395.6720, 997.9113
396.1541, 998.1127
396.6363, 999.7873
397.1184, 1001.948
397.6005, 1005.252
398.0826, 1006.639
398.5647, 1003.523
399.0468, 998.9748
399.5290, 996.7150
400.0111, 999.9462
400.4932, 1002.297
400.9753, 1002.312
401.4574, 999.9969
401.9395, 998.4274
402.4217, 998.1335
402.9038, 997.9952
403.3859, 997.2226
403.8680, 995.4423
404.3501, 993.8458
404.8322, 992.3838
405.3144, 991.2128
405.7965, 990.9902
406.2786, 992.0733
406.7607, 992.9022
407.2428, 992.4949
407.7249, 990.7830
408.2071, 990.2274
408.6892, 991.0934
409.1713, 992.3082
409.6534, 992.4066
410.1355, 991.4503
410.6176, 990.7167
411.0998, 990.7205
411.5819, 991.0977
412.0640, 990.7398
412.5461, 989.6918
413.0282, 989.0214
413.5103, 990.4738
413.9925, 992.7872
414.4746, 993.2419
414.9567, 991.1303
415.4388, 987.8438
415.9209, 983.5767
416.4030, 979.1635
416.8852, 976.5610
417.3673, 978.2197
417.8494, 981.1765
418.3315, 983.3840
418.8136, 984.7069
419.2957, 984.7673
419.7779, 982.0646
420.2600, 978.5243
420.7421, 976.1193
421.2242, 976.0156
421.7063, 976.4911
422.1884, 977.5716
422.6706, 978.9291
423.1527, 979.3502
423.6348, 977.6061
424.1169, 975.6387
424.5990, 974.4788
425.0811, 975.1240
425.5633, 974.4660
426.0454, 970.8915
426.5275, 966.6136
427.0096, 964.4123
427.4917, 965.1378
427.9738, 966.7552
428.4560, 969.3629
428.9381, 972.8701
429.4202, 974.7429
429.9023, 974.6985
430.3844, 973.5025
430.8665, 971.3876
431.3487, 968.0921
431.8308, 965.3419
432.3129, 963.1157
432.7950, 961.7026
433.2771, 962.2697
433.7592, 964.8993
434.2414, 967.0978
434.7235, 967.8561
435.2056, 967.2518
435.6877, 964.9348
436.1698, 960.7198
436.6519, 957.1003
437.1341, 957.2166
437.6162, 959.9471
438.0983, 962.4904
438.5804, 964.4756
439.0625, 965.4097
439.5446, 963.9794
440.0268, 960.8001
440.5089, 958.1016
440.9910, 957.6889
441.4731, 958.0552
441.9552, 957.9678
442.4373, 957.3038
442.9195, 956.0920
443.4016, 953.4202
443.8837, 950.5156
444.3658, 948.8692
444.8479, 950.5734
445.3300, 951.9431
445.8122, 951.5056
446.2943, 949.4717
446.7764, 947.8873
447.2585, 947.4181
447.7406, 947.1797
448.2227, 946.7440
448.7049, 946.0800
449.1870, 945.2648
449.6691, 944.2297
450.1512, 943.0806
450.6333, 942.0439
451.1154, 941.2925
451.5976, 940.2059
452.0797, 938.2783
452.5618, 935.6508
453.0439, 934.9318
453.5260, 936.7162
454.0081, 938.5883
454.4903, 938.3602
454.9724, 936.0709
455.4545, 934.2040
455.9366, 932.9742
456.4187, 932.4954
456.9008, 933.4368
457.3830, 935.6063
457.8651, 937.4034
458.3472, 937.9943
458.8293, 937.7624
459.3114, 937.3068
459.7935, 936.6431
460.2757, 935.9150
460.7578, 935.1004
461.2399, 934.3415
461.7220, 933.9320
462.2041, 934.4037
462.6862, 934.4405
463.1684, 932.8184
463.6505, 930.0889
464.1326, 927.5688
464.6147, 924.8846
465.0968, 923.2592
465.5789, 923.9828
466.0611, 927.5727
466.5432, 929.8724
467.0253, 929.1664
467.5074, 927.2755
467.9895, 925.7217
468.4716, 924.7567
468.9538, 923.8915
469.4359, 923.1260
469.9180, 922.4520
470.4001, 921.9620
470.8822, 922.2554
471.3643, 921.6650
471.8465, 918.9409
472.3286, 913.6566
472.8107, 911.2122
473.2928, 912.3860
473.7749, 914.5862
474.2570, 915.1948
474.7392, 914.2239
475.2213, 911.7563
475.7034, 906.6985
476.1855, 901.5042
476.6676, 902.5716
477.1497, 909.2308
477.6319, 915.0879
478.1140, 914.9539
478.5961, 911.9807
479.0782, 912.1592
479.5603, 916.1630
480.0424, 919.2002
480.5246, 915.4847
481.0067, 908.8544
481.4888, 904.7952
481.9709, 906.8431
482.4530, 909.7865
482.9352, 910.8018
483.4173, 910.5153
483.8994, 910.9111
484.3815, 915.2709
484.8636, 918.3203
485.3457, 916.6003
485.8279, 907.8328
486.3100, 902.1221
486.7921, 902.8324
487.2742, 905.5978
487.7563, 906.6102
488.2384, 904.6869
488.7206, 903.0442
489.2027, 902.1216
489.6848, 901.7292
490.1669, 901.1501
490.6490, 900.2519
491.1311, 899.6108
491.6133, 899.7792
492.0954, 900.7380
492.5775, 900.5859
493.0596, 899.1063
493.5417, 897.4588
494.0238, 897.2051
494.5060, 897.9899
494.9881, 897.9609
495.4702, 896.0477
495.9523, 894.0823
496.4344, 895.4650
496.9165, 899.3123
497.3987, 902.2994
497.8808, 901.8643
498.3629, 900.1285
498.8450, 899.3232
499.3271, 899.6689
499.8092, 899.3168
500.2914, 896.0565
500.7735, 892.2060
501.2556, 889.8814
501.7377, 890.3283
502.2198, 891.5049
502.7019, 894.1556
503.1841, 897.2860
503.6662, 898.2051
504.1483, 894.2471
504.6304, 890.6740
505.1125, 889.1339
505.5946, 889.8127
506.0768, 890.0400
506.5589, 889.4794
507.0410, 888.9898
507.5231, 889.4330
508.0052, 891.0253
508.4873, 892.3420
508.9695, 893.5434
509.4516, 893.8871
509.9337, 890.9728
510.4158, 885.0303
510.8979, 880.4666
511.3800, 880.1360
511.8622, 882.1714
512.3443, 882.0541
512.8264, 879.9068
513.3085, 878.0961
513.7906, 878.9207
514.2728, 880.9662
514.7549, 882.4084
515.2370, 882.8254
515.7191, 882.8406
516.2012, 883.0396
516.6833, 883.0522
517.1655, 882.3125
517.6476, 879.8447
518.1297, 877.3979
518.6118, 875.7629
519.0939, 874.8538
519.5760, 873.4871
520.0582, 870.4715
520.5403, 867.8991
521.0224, 866.7672
521.5045, 867.6061
521.9866, 868.3621
522.4688, 869.2421
522.9509, 869.7958
523.4330, 869.2738
523.9151, 867.4066
524.3972, 865.9686
524.8793, 865.5222
525.3615, 865.5946
525.8436, 864.8634
526.3257, 863.3350
526.8078, 861.7711
527.2899, 859.9118
527.7720, 858.4438
528.2542, 859.7758
528.7363, 864.1178
529.2184, 867.7334
529.7005, 866.1912
530.1826, 862.3677
530.6647, 860.2486
531.1469, 861.8264
531.6290, 863.8775
532.1111, 865.4608
532.5932, 866.1759
533.0753, 865.2107
533.5574, 859.8257
534.0396, 855.1192
534.5217, 853.0891
535.0038, 853.9771
535.4859, 854.7386
535.9680, 855.4030
536.4501, 855.7945
536.9323, 855.8195
537.4144, 855.4767
537.8965, 854.7143
538.3786, 853.3997
538.8607, 851.8531
539.3428, 850.6430
539.8250, 849.8038
540.3071, 848.7573
540.7892, 847.3306
541.2713, 845.6268
541.7534, 843.9267
542.2355, 842.2278
542.7177, 840.4636
543.1998, 837.8146
543.6819, 835.3428
544.1640, 835.2098
544.6461, 837.6860
545.1282, 839.8922
545.6104, 839.9156
546.0925, 838.4886
546.5746, 836.3073
547.0567, 832.0406
547.5388, 829.1622
548.0209, 830.0226
548.5031, 833.0612
548.9852, 834.8566
549.4673, 833.6441
549.9494, 832.4621
550.4315, 832.2263
550.9136, 832.9304
551.3958, 832.9475
551.8779, 832.2302
552.3600, 830.9072
552.8421, 828.7117
553.3242, 825.4301
553.8063, 823.4778
554.2885, 823.2126
554.7706, 823.5753
555.2527, 823.0140
555.7348, 821.7243
556.2169, 821.0157
556.6990, 821.6985
557.1812, 822.6209
557.6633, 822.1771
558.1454, 820.5546
558.6275, 818.4501
559.1096, 815.1544
559.5917, 812.3193
560.0739, 811.8826
560.5560, 814.0081
561.0381, 815.4626
561.5202, 814.5399
562.0023, 812.6691
562.4844, 810.8776
562.9666, 809.1671
563.4487, 807.7380
563.9308, 806.1983
564.4129, 805.0891
564.8950, 805.5753
565.3771, 809.1122
565.8593, 810.8304
566.3414, 809.0236
566.8235, 804.6335
567.3056, 801.9337
567.7877, 801.1152
568.2698, 800.6767
568.7520, 799.8736
569.2341, 798.7305
569.7162, 797.2454
570.1983, 795.4196
570.6804, 793.4825
571.1625, 791.0593
571.6447, 788.8450
572.1268, 788.3156
572.6089, 791.0347
573.0910, 792.8705
573.5731, 789.3097
574.0552, 783.3597
574.5374, 780.2011
575.0195, 786.1324
575.5016, 790.5005
575.9837, 787.9573
576.4658, 779.2879
576.9479, 775.1260
577.4301, 779.4131
577.9122, 783.8684
578.3943, 784.7240
578.8764, 781.1189
579.3585, 778.7609
579.8406, 777.9440
580.3228, 777.7127
580.8049, 776.9519
581.2870, 775.7203
581.7691, 775.3495
582.2512, 776.4306
582.7333, 777.5712
583.2155, 776.3417
583.6976, 773.3649
584.1797, 770.5511
584.6617, 768.4517
585.1439, 767.1591
585.6260, 766.9171
586.1081, 767.6163
586.5902, 768.7286
587.0723, 771.4930
587.5544, 773.4308
588.0366, 772.6774
588.5187, 768.1651
589.0008, 764.8429
589.4829, 764.3088
589.9650, 764.5146
590.4471, 763.9231
590.9293, 761.9962
591.4114, 760.5512
591.8935, 759.7944
592.3756, 759.4714
592.8577, 759.2412
593.3398, 759.1315
593.8220, 758.6932
594.3041, 757.5899
594.7862, 756.2078
595.2683, 755.6072
595.7504, 755.6757
596.2325, 755.5537
596.7147, 754.4033
597.1968, 752.9353
597.6789, 751.9802
598.1610, 751.6077
598.6431, 751.3351
599.1252, 751.4767
599.6074, 751.2791
600.0895, 749.9890
600.5716, 746.2244
601.0537, 743.5578
601.5358, 742.9495
602.0179, 743.5803
602.5001, 744.6152
602.9822, 746.9371
603.4643, 747.8058
603.9464, 746.4130
604.4285, 743.3881
604.9106, 740.3812
605.3928, 737.2844
605.8749, 735.3303
606.3570, 735.5977
606.8391, 737.4465
607.3212, 738.9384
607.8033, 740.0665
608.2855, 740.8636
608.7676, 741.4666
609.2497, 741.6927
609.7318, 741.0817
610.2139, 739.3261
610.6960, 737.9324
611.1782, 738.7938
611.6603, 739.9788
612.1424, 739.4373
612.6245, 734.3073
613.1066, 730.3358
613.5887, 728.5422
614.0709, 728.3149
614.5530, 728.5817
615.0351, 729.7376
615.5172, 730.5428
615.9993, 730.6492
616.4814, 730.1412
616.9636, 729.3395
617.4457, 728.2095
617.9278, 727.2576
618.4099, 727.0461
618.8920, 727.2532
619.3741, 726.9970
619.8563, 726.2426
620.3384, 725.1825
620.8205, 724.2490
621.3026, 722.9773
621.7847, 720.4509
622.2668, 715.4891
622.7490, 711.9005
623.2311, 712.4267
623.7132, 714.8655
624.1953, 716.4020
624.6774, 715.2371
625.1595, 714.8112
625.6417, 716.1287
626.1238, 718.3636
626.6059, 719.1148
627.0880, 718.0287
627.5701, 716.5435
628.0522, 715.0284
628.5344, 713.5390
629.0165, 712.2299
629.4986, 711.0945
629.9807, 710.4969
630.4628, 711.0866
630.9449, 712.2803
631.4271, 713.0898
631.9092, 713.4402
632.3913, 713.2947
632.8734, 712.0894
633.3555, 710.6299
633.8376, 709.8021
634.3198, 710.3024
634.8019, 710.4484
635.2840, 709.7758
635.7661, 708.4923
636.2482, 706.8149
636.7303, 703.7935
637.2125, 701.9860
637.6946, 701.9307
638.1767, 703.2355
638.6588, 705.1823
639.1409, 708.0411
639.6230, 709.7923
640.1052, 709.3346
640.5873, 707.3168
641.0694, 705.3797
641.5515, 703.5544
642.0336, 702.2821
642.5157, 702.2553
642.9979, 702.7448
643.4800, 702.7358
643.9621, 702.1052
644.4442, 702.0740
644.9263, 704.4567
645.4084, 706.9612
645.8906, 707.6122
646.3727, 704.5564
646.8548, 702.4670
647.3369, 702.0496
647.8190, 702.3499
648.3011, 702.1050
648.7833, 700.8011
649.2654, 700.9047
649.7475, 703.6589
650.2296, 706.9179
650.7117, 705.1715
651.1938, 698.9192
651.6760, 694.3781
652.1581, 694.7118
652.6402, 697.7100
653.1223, 701.0482
653.6044, 704.3682
654.0865, 706.3226
654.5687, 705.0463
655.0508, 703.0056
655.5329, 701.7405
656.0150, 701.3997
656.4971, 701.1462
656.9792, 700.8072
657.4614, 700.4971
657.9435, 700.2568
658.4256, 700.0452
658.9077, 700.0507
659.3898, 700.3445
659.8719, 700.7147
660.3541, 701.1619
660.8362, 701.6566
661.3183, 701.0887
661.8004, 699.0597
662.2825, 696.7075
662.7646, 695.5023
663.2468, 695.1565
663.7289, 694.9641
664.2110, 694.6047
664.6931, 694.4136
665.1752, 694.7422
665.6573, 695.4277
666.1395, 696.0795
666.6216, 696.6962
