##NAMES=Gadolinite-(Y)
##RRUFFID=R070340
##IDEAL CHEMISTRY=Fe^2+^Be_2_Y^3+^_2_(SiO_4_)_2_O_2_
##LOCALITY=Ytterøya Mine, Røvika, Ytterøya (island), Levanger, Nord-Trøndelag, Norway
##OWNER=RRUFF
##SOURCE=Michael Scott
##DESCRIPTION=Black vitreous, metamict massive, a portion of the sample was heated, and is recorded under R080129.
##STATUS=The identification of this mineral has been made only by X-ray diffraction.
##URL=rruff.info/R070340
169.7132, 1429.064
170.1953, 1423.000
170.6774, 1410.020
171.1595, 1401.531
171.6417, 1404.248
172.1238, 1414.168
172.6059, 1421.031
173.0880, 1422.886
173.5701, 1425.620
174.0522, 1436.613
174.5344, 1449.307
175.0165, 1452.994
175.4986, 1438.932
175.9807, 1414.704
176.4628, 1400.873
176.9449, 1399.661
177.4271, 1405.850
177.9092, 1423.677
178.3913, 1444.987
178.8734, 1457.721
179.3555, 1453.701
179.8376, 1439.577
180.3197, 1435.491
180.8019, 1446.882
181.2840, 1459.215
181.7661, 1471.022
182.2482, 1480.065
182.7303, 1482.889
183.2124, 1477.023
183.6946, 1465.186
184.1767, 1453.848
184.6588, 1437.882
185.1409, 1432.583
185.6230, 1450.471
186.1051, 1476.341
186.5873, 1491.818
187.0694, 1487.192
187.5515, 1470.643
188.0336, 1464.036
188.5157, 1472.959
188.9978, 1482.963
189.4800, 1494.142
189.9621, 1503.250
190.4442, 1505.899
190.9263, 1499.638
191.4084, 1488.732
191.8905, 1483.756
192.3727, 1488.349
192.8548, 1492.699
193.3369, 1496.459
193.8190, 1498.631
194.3011, 1496.595
194.7832, 1489.176
195.2654, 1481.182
195.7475, 1484.630
196.2296, 1511.141
196.7117, 1527.005
197.1938, 1521.796
197.6759, 1509.343
198.1581, 1500.815
198.6402, 1500.059
199.1223, 1504.596
199.6044, 1510.581
200.0865, 1520.748
200.5686, 1526.600
201.0508, 1524.976
201.5329, 1521.130
202.0150, 1519.004
202.4971, 1519.695
202.9792, 1521.668
203.4613, 1522.319
203.9435, 1520.475
204.4256, 1519.992
204.9077, 1523.744
205.3898, 1526.878
205.8719, 1524.472
206.3540, 1516.290
206.8362, 1507.738
207.3183, 1507.227
207.8004, 1520.031
208.2825, 1527.373
208.7646, 1529.641
209.2467, 1526.914
209.7289, 1515.041
210.2110, 1495.867
210.6931, 1478.579
211.1752, 1475.311
211.6573, 1491.373
212.1395, 1502.054
212.6216, 1501.793
213.1037, 1501.239
213.5858, 1507.369
214.0679, 1518.957
214.5500, 1528.816
215.0322, 1528.607
215.5143, 1515.832
215.9964, 1509.730
216.4785, 1519.910
216.9606, 1527.749
217.4427, 1522.942
217.9249, 1508.938
218.4070, 1497.010
218.8891, 1497.464
219.3712, 1510.781
219.8533, 1518.879
220.3354, 1516.836
220.8176, 1514.041
221.2997, 1511.697
221.7818, 1510.538
222.2639, 1511.856
222.7460, 1517.218
223.2281, 1525.877
223.7103, 1529.234
224.1924, 1519.629
224.6745, 1512.881
225.1566, 1513.532
225.6387, 1518.831
226.1208, 1525.091
226.6030, 1530.539
227.0851, 1534.512
227.5672, 1533.691
228.0493, 1520.203
228.5314, 1512.748
229.0135, 1519.343
229.4957, 1531.472
229.9778, 1538.432
230.4599, 1535.193
230.9420, 1527.137
231.4241, 1528.707
231.9062, 1550.788
232.3884, 1563.454
232.8705, 1555.727
233.3526, 1542.315
233.8347, 1537.258
234.3168, 1544.945
234.7989, 1557.116
235.2811, 1558.478
235.7632, 1542.029
236.2453, 1531.415
236.7274, 1530.833
237.2095, 1534.313
237.6916, 1538.267
238.1738, 1541.894
238.6559, 1546.273
239.1380, 1553.778
239.6201, 1566.490
240.1022, 1574.513
240.5843, 1574.810
241.0665, 1572.558
241.5486, 1569.092
242.0307, 1565.043
242.5128, 1561.365
242.9949, 1558.503
243.4770, 1556.284
243.9592, 1557.113
244.4413, 1566.261
244.9234, 1573.504
245.4055, 1572.936
245.8876, 1567.052
246.3697, 1562.939
246.8519, 1567.418
247.3340, 1578.821
247.8161, 1581.169
248.2982, 1565.059
248.7803, 1552.330
249.2624, 1553.051
249.7446, 1561.412
250.2267, 1567.321
250.7088, 1564.030
251.1909, 1556.289
251.6730, 1559.866
252.1551, 1584.443
252.6373, 1600.343
253.1194, 1589.758
253.6015, 1569.989
254.0836, 1560.499
254.5657, 1569.546
255.0478, 1586.488
255.5300, 1594.501
256.0121, 1591.632
256.4942, 1587.076
256.9763, 1578.661
257.4584, 1572.324
257.9406, 1574.687
258.4227, 1587.456
258.9048, 1600.777
259.3869, 1603.248
259.8690, 1594.333
260.3511, 1586.886
260.8333, 1583.148
261.3154, 1581.882
261.7975, 1582.503
262.2796, 1584.870
262.7617, 1587.859
263.2438, 1592.107
263.7260, 1596.863
264.2081, 1597.106
264.6902, 1589.634
265.1723, 1581.674
265.6544, 1577.532
266.1365, 1576.936
266.6187, 1579.459
267.1008, 1588.202
267.5829, 1599.338
268.0650, 1603.632
268.5471, 1598.788
269.0292, 1593.902
269.5114, 1598.153
269.9935, 1606.430
270.4756, 1609.703
270.9577, 1603.834
271.4398, 1593.504
271.9219, 1581.729
272.4041, 1568.318
272.8862, 1559.816
273.3683, 1560.406
273.8504, 1568.032
274.3325, 1578.534
274.8146, 1595.043
275.2968, 1608.410
275.7789, 1610.259
276.2610, 1603.126
276.7431, 1597.615
277.2252, 1598.026
277.7073, 1600.935
278.1895, 1599.424
278.6716, 1591.582
279.1537, 1588.506
279.6358, 1599.141
280.1179, 1616.054
280.6000, 1625.639
281.0822, 1624.299
281.5643, 1619.473
282.0464, 1620.791
282.5285, 1629.124
283.0106, 1632.342
283.4927, 1624.570
283.9749, 1613.964
284.4570, 1607.227
284.9391, 1605.025
285.4212, 1605.652
285.9033, 1607.887
286.3854, 1611.854
286.8676, 1617.715
287.3497, 1633.288
287.8318, 1643.100
288.3139, 1633.545
288.7960, 1611.507
289.2781, 1595.954
289.7603, 1598.027
290.2424, 1613.430
290.7245, 1624.238
291.2066, 1629.684
291.6887, 1631.920
292.1708, 1627.694
292.6530, 1621.674
293.1351, 1621.094
293.6172, 1628.334
294.0993, 1637.440
294.5814, 1637.228
295.0635, 1617.519
295.5457, 1607.974
296.0278, 1618.116
296.5099, 1630.811
296.9920, 1632.170
297.4741, 1621.927
297.9562, 1610.737
298.4384, 1610.044
298.9205, 1621.757
299.4026, 1630.836
299.8847, 1636.532
300.3668, 1640.441
300.8489, 1642.162
301.3310, 1642.523
301.8131, 1643.112
302.2953, 1645.137
302.7774, 1648.061
303.2595, 1649.274
303.7416, 1649.505
304.2237, 1646.558
304.7058, 1637.352
305.1880, 1626.266
305.6701, 1617.307
306.1522, 1611.887
306.6343, 1610.415
307.1164, 1615.553
307.5985, 1630.682
308.0807, 1639.698
308.5628, 1631.372
309.0449, 1621.845
309.5270, 1621.682
310.0091, 1631.395
310.4912, 1642.657
310.9734, 1648.789
311.4555, 1650.111
311.9376, 1650.232
312.4197, 1650.893
312.9018, 1647.824
313.3839, 1635.423
313.8661, 1617.366
314.3482, 1603.427
314.8303, 1598.485
315.3124, 1600.125
315.7945, 1605.697
316.2766, 1616.164
316.7588, 1624.754
317.2409, 1625.071
317.7230, 1622.054
318.2051, 1624.615
318.6872, 1637.681
319.1693, 1649.572
319.6515, 1649.601
320.1336, 1640.292
320.6157, 1633.215
321.0978, 1632.970
321.5799, 1635.564
322.0620, 1634.027
322.5442, 1627.508
323.0263, 1622.996
323.5084, 1623.639
323.9905, 1626.873
324.4726, 1629.402
324.9547, 1630.682
325.4369, 1632.035
325.9190, 1635.096
326.4011, 1640.110
326.8832, 1642.669
327.3653, 1642.696
327.8474, 1640.486
328.3296, 1634.306
328.8117, 1625.751
329.2938, 1619.209
329.7759, 1617.311
330.2580, 1619.229
330.7401, 1621.289
331.2223, 1620.625
331.7044, 1623.710
332.1865, 1636.281
332.6686, 1650.638
333.1507, 1657.900
333.6328, 1655.574
334.1150, 1648.610
334.5971, 1644.491
335.0792, 1645.339
335.5613, 1643.242
336.0434, 1632.113
336.5255, 1623.718
337.0077, 1626.380
337.4898, 1637.802
337.9719, 1649.257
338.4540, 1653.500
338.9361, 1651.515
339.4182, 1652.494
339.9004, 1659.938
340.3825, 1665.084
340.8646, 1667.911
341.3467, 1666.433
341.8288, 1655.876
342.3109, 1632.702
342.7931, 1608.158
343.2752, 1601.548
343.7573, 1615.963
344.2394, 1625.919
344.7215, 1617.837
345.2036, 1609.393
345.6858, 1618.412
346.1679, 1645.065
346.6500, 1667.001
347.1321, 1666.892
347.6142, 1651.381
348.0963, 1638.025
348.5785, 1628.147
349.0606, 1621.550
349.5427, 1619.062
350.0248, 1619.882
350.5069, 1622.050
350.9890, 1627.362
351.4712, 1632.221
351.9533, 1632.442
352.4354, 1629.060
352.9175, 1627.981
353.3996, 1632.922
353.8817, 1640.800
354.3639, 1643.392
354.8460, 1640.305
355.3281, 1634.369
355.8102, 1621.578
356.2923, 1608.334
356.7744, 1603.655
357.2566, 1609.055
357.7387, 1617.690
358.2208, 1622.270
358.7029, 1622.496
359.1850, 1619.723
359.6671, 1608.060
360.1493, 1599.645
360.6314, 1602.641
361.1135, 1613.057
361.5956, 1621.768
362.0777, 1623.308
362.5598, 1619.610
363.0420, 1617.645
363.5241, 1617.633
364.0062, 1619.227
364.4883, 1627.332
364.9704, 1633.811
365.4525, 1629.294
365.9347, 1612.880
366.4168, 1595.215
366.8989, 1589.385
367.3810, 1596.200
367.8631, 1600.665
368.3452, 1601.749
368.8274, 1600.795
369.3095, 1596.934
369.7916, 1591.724
370.2737, 1588.786
370.7558, 1589.952
371.2379, 1594.230
371.7201, 1600.732
372.2022, 1609.748
372.6843, 1617.990
373.1664, 1623.117
373.6485, 1627.249
374.1306, 1634.347
374.6128, 1646.071
375.0949, 1655.171
375.5770, 1657.860
376.0591, 1655.222
376.5412, 1648.852
377.0233, 1638.865
377.5055, 1626.464
377.9876, 1611.008
378.4697, 1591.994
378.9518, 1581.969
379.4339, 1586.543
379.9160, 1595.279
380.3982, 1605.063
380.8803, 1614.128
381.3624, 1618.512
381.8445, 1615.760
382.3266, 1608.024
382.8087, 1601.668
383.2909, 1594.524
383.7730, 1592.150
384.2551, 1598.474
384.7372, 1607.048
385.2193, 1613.716
385.7014, 1617.232
386.1836, 1617.107
386.6657, 1611.083
387.1478, 1598.431
387.6299, 1594.733
388.1120, 1611.527
388.5941, 1624.001
389.0763, 1619.501
389.5584, 1606.622
390.0405, 1599.362
390.5226, 1604.351
391.0047, 1615.343
391.4868, 1624.279
391.9690, 1631.570
392.4511, 1632.234
392.9332, 1621.356
393.4153, 1606.217
393.8974, 1591.899
394.3795, 1578.595
394.8617, 1571.270
395.3438, 1576.858
395.8259, 1588.424
396.3080, 1594.412
396.7901, 1593.655
397.2722, 1590.068
397.7544, 1584.259
398.2365, 1577.942
398.7186, 1578.653
399.2007, 1593.790
399.6828, 1607.495
400.1649, 1615.491
400.6471, 1617.593
401.1292, 1611.446
401.6113, 1596.174
402.0934, 1578.765
402.5755, 1569.427
403.0576, 1570.597
403.5398, 1573.196
404.0219, 1581.684
404.5040, 1587.324
404.9861, 1584.092
405.4682, 1574.186
405.9503, 1562.769
406.4325, 1552.343
406.9146, 1544.542
407.3967, 1546.535
407.8788, 1564.992
408.3609, 1579.542
408.8430, 1586.147
409.3252, 1587.825
409.8073, 1585.131
410.2894, 1578.676
410.7715, 1572.857
411.2536, 1571.871
411.7357, 1574.907
412.2179, 1578.110
412.7000, 1581.580
413.1821, 1584.362
413.6642, 1586.212
414.1463, 1586.860
414.6284, 1585.150
415.1106, 1577.989
415.5927, 1571.927
416.0748, 1573.728
416.5569, 1580.779
417.0390, 1584.032
417.5211, 1579.527
418.0033, 1573.537
418.4854, 1576.790
418.9675, 1594.870
419.4496, 1602.424
419.9317, 1589.799
420.4138, 1573.551
420.8960, 1562.795
421.3781, 1558.231
421.8602, 1558.555
422.3423, 1563.330
422.8244, 1571.460
423.3065, 1578.644
423.7887, 1589.792
424.2708, 1591.667
424.7529, 1574.348
425.2350, 1553.872
425.7171, 1542.309
426.1992, 1541.746
426.6814, 1548.062
427.1635, 1561.825
427.6456, 1581.659
428.1277, 1588.637
428.6098, 1577.205
429.0919, 1563.454
429.5741, 1551.590
430.0562, 1543.755
430.5383, 1545.180
431.0204, 1561.338
431.5025, 1577.773
431.9846, 1583.531
432.4668, 1579.794
432.9489, 1568.241
433.4310, 1546.599
433.9131, 1526.537
434.3952, 1523.408
434.8773, 1539.220
435.3595, 1552.294
435.8416, 1562.754
436.3237, 1569.031
436.8058, 1568.682
437.2879, 1563.362
437.7701, 1556.552
438.2522, 1549.840
438.7343, 1544.010
439.2164, 1541.139
439.6985, 1542.340
440.1806, 1544.730
440.6628, 1549.311
441.1449, 1554.032
441.6270, 1559.531
442.1091, 1564.366
442.5912, 1564.210
443.0733, 1554.088
443.5555, 1537.087
444.0376, 1524.738
444.5197, 1517.036
445.0018, 1514.048
445.4839, 1520.708
445.9660, 1529.641
446.4482, 1532.976
446.9303, 1529.046
447.4124, 1525.084
447.8945, 1526.227
448.3766, 1530.331
448.8587, 1532.974
449.3409, 1533.539
449.8230, 1533.187
450.3051, 1532.279
450.7872, 1531.118
451.2693, 1532.171
451.7514, 1538.173
452.2336, 1543.039
452.7157, 1544.725
453.1978, 1544.087
453.6799, 1541.744
454.1620, 1538.058
454.6441, 1534.392
455.1263, 1532.750
455.6084, 1533.789
456.0905, 1533.148
456.5726, 1528.154
457.0547, 1524.201
457.5368, 1524.835
458.0190, 1527.138
458.5011, 1525.282
458.9832, 1515.853
459.4653, 1506.113
459.9474, 1509.418
460.4295, 1526.062
460.9117, 1533.757
461.3938, 1521.923
461.8759, 1508.643
462.3580, 1513.806
462.8401, 1533.299
463.3222, 1545.100
463.8044, 1538.376
464.2865, 1525.333
464.7686, 1514.164
465.2507, 1505.590
465.7328, 1501.759
466.2149, 1504.015
466.6971, 1510.092
467.1792, 1515.918
467.6613, 1523.623
468.1434, 1526.056
468.6255, 1519.802
469.1076, 1511.365
469.5898, 1501.993
470.0719, 1493.865
470.5540, 1491.670
471.0361, 1498.970
471.5182, 1512.474
472.0003, 1523.224
472.4825, 1531.427
472.9646, 1536.086
473.4467, 1537.370
473.9288, 1534.491
474.4109, 1523.518
474.8930, 1505.781
475.3752, 1491.956
475.8573, 1490.076
476.3394, 1495.236
476.8215, 1501.592
477.3036, 1509.020
477.7857, 1508.669
478.2679, 1491.803
478.7500, 1467.902
479.2321, 1461.144
479.7142, 1477.504
480.1963, 1492.873
480.6784, 1503.611
481.1606, 1510.795
481.6427, 1515.253
482.1248, 1517.119
482.6069, 1516.237
483.0890, 1512.444
483.5711, 1505.873
484.0533, 1496.506
484.5354, 1477.879
485.0175, 1467.473
485.4996, 1473.985
485.9817, 1484.227
486.4638, 1488.232
486.9460, 1484.805
487.4281, 1478.182
487.9102, 1468.585
488.3923, 1458.465
488.8744, 1456.826
489.3565, 1465.318
489.8387, 1473.071
490.3208, 1474.401
490.8029, 1471.572
491.2850, 1469.564
491.7671, 1468.457
492.2492, 1467.891
492.7314, 1468.657
493.2135, 1469.402
493.6956, 1467.658
494.1777, 1463.742
494.6598, 1461.480
495.1419, 1464.289
495.6241, 1470.919
496.1062, 1473.186
496.5883, 1466.280
497.0704, 1461.665
497.5525, 1463.121
498.0346, 1465.372
498.5168, 1462.504
498.9989, 1454.864
499.4810, 1449.456
499.9631, 1455.190
500.4452, 1467.662
500.9273, 1467.766
501.4095, 1451.564
501.8916, 1439.719
502.3737, 1442.850
502.8558, 1454.838
503.3379, 1466.736
503.8200, 1479.574
504.3022, 1487.065
504.7843, 1483.328
505.2664, 1474.991
505.7485, 1468.709
506.2306, 1465.318
506.7127, 1465.115
507.1949, 1469.246
507.6770, 1475.368
508.1591, 1472.906
508.6412, 1449.800
509.1233, 1435.834
509.6054, 1440.175
510.0876, 1447.904
510.5697, 1444.809
511.0518, 1433.145
511.5339, 1429.120
512.0161, 1449.935
512.4982, 1483.180
512.9803, 1492.347
513.4624, 1473.315
513.9445, 1454.495
514.4266, 1444.470
514.9088, 1440.604
515.3909, 1440.207
515.8730, 1443.705
516.3551, 1445.123
516.8372, 1441.506
517.3193, 1435.882
517.8015, 1428.547
518.2836, 1421.248
518.7657, 1420.789
519.2478, 1431.679
519.7299, 1447.521
520.2120, 1452.647
520.6942, 1439.669
521.1763, 1429.902
521.6584, 1422.246
522.1405, 1418.392
522.6226, 1422.789
523.1047, 1431.717
523.5869, 1436.062
524.0690, 1430.176
524.5511, 1419.329
525.0332, 1411.474
525.5153, 1406.604
525.9974, 1402.928
526.4796, 1399.114
526.9617, 1397.880
527.4438, 1405.364
527.9259, 1420.116
528.4080, 1427.755
528.8901, 1421.600
529.3723, 1412.418
529.8544, 1404.239
530.3365, 1398.068
530.8186, 1395.588
531.3007, 1397.329
531.7828, 1402.315
532.2650, 1410.258
532.7471, 1422.810
533.2292, 1428.039
533.7113, 1418.025
534.1934, 1409.613
534.6755, 1407.996
535.1577, 1410.947
535.6398, 1416.722
536.1219, 1425.474
536.6040, 1430.921
537.0861, 1424.415
537.5682, 1409.812
538.0504, 1399.203
538.5325, 1394.025
539.0146, 1393.059
539.4967, 1396.711
539.9788, 1403.891
540.4609, 1409.040
540.9431, 1413.282
541.4252, 1414.316
541.9073, 1408.176
542.3894, 1400.885
542.8715, 1399.634
543.3536, 1403.945
543.8358, 1406.683
544.3179, 1401.684
544.8000, 1391.001
545.2821, 1383.578
545.7642, 1380.070
546.2463, 1378.050
546.7285, 1377.301
547.2106, 1377.635
547.6926, 1378.972
548.1747, 1381.289
548.6569, 1384.457
549.1390, 1392.165
549.6211, 1398.038
550.1032, 1391.524
550.5853, 1375.896
551.0674, 1366.488
551.5496, 1370.009
552.0317, 1379.014
552.5138, 1381.100
552.9959, 1372.701
553.4780, 1369.526
553.9601, 1374.966
554.4423, 1381.192
554.9244, 1385.672
555.4065, 1388.674
555.8886, 1391.420
556.3707, 1394.421
556.8528, 1395.636
557.3350, 1391.365
557.8171, 1382.440
558.2992, 1376.212
558.7813, 1374.456
559.2634, 1371.644
559.7455, 1361.274
560.2277, 1347.538
560.7098, 1343.477
561.1919, 1353.765
561.6740, 1365.651
562.1561, 1377.832
562.6382, 1388.019
563.1204, 1394.884
563.6025, 1397.604
564.0846, 1393.600
564.5667, 1379.869
565.0488, 1359.843
565.5309, 1346.465
566.0131, 1339.800
566.4952, 1339.655
566.9773, 1353.202
567.4594, 1367.609
567.9415, 1376.855
568.4236, 1380.203
568.9058, 1376.548
569.3879, 1359.496
569.8700, 1340.541
570.3521, 1329.708
570.8342, 1326.544
571.3163, 1331.545
571.7985, 1345.591
572.2806, 1360.671
572.7627, 1367.223
573.2448, 1364.629
573.7269, 1359.341
574.2090, 1350.109
574.6912, 1339.744
575.1733, 1323.909
575.6554, 1309.940
576.1375, 1308.066
576.6196, 1319.588
577.1017, 1332.690
577.5839, 1334.912
578.0660, 1330.159
578.5481, 1333.705
579.0302, 1347.273
579.5123, 1354.870
579.9944, 1345.477
580.4766, 1329.135
580.9587, 1326.986
581.4408, 1343.176
581.9229, 1353.315
582.4050, 1350.769
582.8871, 1344.137
583.3693, 1337.718
583.8514, 1331.953
584.3335, 1326.188
584.8156, 1320.157
585.2977, 1314.913
585.7798, 1311.762
586.2620, 1310.621
586.7441, 1312.778
587.2262, 1318.688
587.7083, 1327.345
588.1904, 1343.618
588.6725, 1360.841
589.1547, 1366.926
589.6368, 1357.126
590.1189, 1344.600
590.6010, 1333.876
591.0831, 1324.941
591.5652, 1316.795
592.0474, 1310.028
592.5295, 1308.524
593.0116, 1315.565
593.4937, 1327.721
593.9758, 1334.718
594.4579, 1336.188
594.9401, 1333.293
595.4222, 1319.730
595.9043, 1307.630
596.3864, 1302.521
596.8685, 1303.792
597.3506, 1310.407
597.8328, 1326.832
598.3149, 1338.930
598.7970, 1326.334
599.2791, 1300.084
599.7612, 1291.821
600.2433, 1307.674
600.7255, 1325.080
601.2076, 1324.819
601.6897, 1309.075
602.1718, 1295.566
602.6539, 1279.868
603.1360, 1272.992
603.6182, 1284.978
604.1003, 1298.665
604.5824, 1299.858
605.0645, 1290.097
605.5466, 1281.032
606.0287, 1279.419
606.5109, 1281.977
606.9930, 1283.913
607.4751, 1285.457
607.9572, 1289.365
608.4393, 1297.465
608.9214, 1303.421
609.4036, 1299.302
609.8857, 1285.058
610.3678, 1278.504
610.8499, 1287.704
611.3320, 1293.638
611.8141, 1290.081
612.2963, 1282.319
612.7784, 1274.470
613.2605, 1267.820
613.7426, 1263.162
614.2247, 1260.464
614.7068, 1260.700
615.1890, 1269.276
615.6711, 1286.910
616.1532, 1295.656
616.6353, 1287.210
617.1174, 1273.610
617.5995, 1267.683
618.0817, 1269.615
618.5638, 1273.520
619.0459, 1286.288
619.5280, 1292.786
620.0101, 1279.040
620.4922, 1259.757
620.9744, 1256.299
621.4565, 1270.678
621.9386, 1284.379
622.4207, 1278.993
622.9028, 1260.369
623.3849, 1252.149
623.8671, 1256.068
624.3492, 1260.394
624.8313, 1261.912
625.3134, 1262.012
625.7955, 1261.489
626.2776, 1260.398
626.7598, 1261.738
627.2419, 1268.718
627.7240, 1275.194
628.2061, 1277.049
628.6882, 1276.825
629.1703, 1278.714
629.6525, 1283.433
630.1346, 1288.111
630.6167, 1290.276
631.0988, 1289.918
631.5809, 1285.360
632.0630, 1273.710
632.5452, 1270.028
633.0273, 1287.486
633.5094, 1306.478
633.9915, 1301.153
634.4736, 1273.135
634.9557, 1254.411
635.4379, 1258.064
635.9200, 1265.554
636.4021, 1268.974
636.8842, 1268.508
637.3663, 1263.785
637.8484, 1255.355
638.3306, 1246.719
638.8127, 1240.756
639.2948, 1237.745
639.7769, 1240.341
640.2590, 1250.290
640.7411, 1259.895
641.2233, 1269.042
641.7054, 1274.818
642.1875, 1271.865
642.6696, 1261.185
643.1517, 1255.757
643.6339, 1264.928
644.1160, 1272.873
644.5981, 1268.466
645.0802, 1258.177
645.5623, 1252.642
646.0444, 1253.698
646.5266, 1254.495
647.0087, 1247.439
647.4908, 1235.540
647.9729, 1235.578
648.4550, 1252.665
648.9371, 1260.411
649.4193, 1244.874
649.9014, 1225.542
650.3835, 1223.168
650.8656, 1235.055
651.3477, 1242.132
651.8298, 1236.319
652.3120, 1230.619
652.7941, 1233.233
653.2762, 1238.571
653.7583, 1237.694
654.2404, 1230.257
654.7225, 1224.422
655.2047, 1227.384
655.6868, 1236.156
656.1689, 1240.771
656.6510, 1240.641
657.1331, 1239.705
657.6152, 1237.498
658.0974, 1236.575
658.5795, 1243.395
659.0616, 1254.658
659.5437, 1254.476
660.0258, 1225.847
660.5079, 1204.966
660.9901, 1209.217
661.4722, 1224.027
661.9543, 1237.079
662.4364, 1245.367
662.9185, 1247.567
663.4006, 1241.694
663.8828, 1232.324
664.3649, 1229.298
664.8470, 1232.762
665.3291, 1238.994
