##NAMES=Gadolinite-(Y)
##RRUFFID=R080129
##IDEAL CHEMISTRY=Fe^2+^Be_2_Y^3+^_2_(SiO_4_)_2_O_2_
##LOCALITY=Ytterøya mine, Røvika, Ytterøya (island), Levanger, Nord-Trøndelag, Norway
##OWNER=RRUFF
##SOURCE=Michael Scott
##DESCRIPTION=Reddish-brown fragment from metamict sample R070340, after heating at T = 1000 C for 23 hours
##STATUS=The identification of this mineral has been confirmed only by X-ray diffraction
##URL=rruff.info/R080129
93.30109, 0.0000000E+00
93.78320, 514.2726
94.26532, 512.1173
94.74744, 513.8428
95.22955, 518.1920
95.71167, 524.7532
96.19379, 530.2749
96.67590, 536.1340
97.15802, 540.5620
97.64014, 542.8200
98.12225, 543.6057
98.60437, 544.1523
99.08649, 544.9764
99.56860, 545.9892
100.0507, 546.9235
100.5328, 546.8658
101.0150, 546.6148
101.4971, 546.7210
101.9792, 547.2073
102.4613, 548.2075
102.9434, 549.8850
103.4255, 551.9435
103.9077, 554.2466
104.3898, 556.7565
104.8719, 559.4635
105.3540, 562.4141
105.8361, 565.8897
106.3182, 569.0588
106.8004, 571.4754
107.2825, 573.5892
107.7646, 575.9149
108.2467, 578.7737
108.7288, 582.0936
109.2109, 585.0483
109.6931, 587.3958
110.1752, 589.6249
110.6573, 591.7023
111.1394, 593.7246
111.6215, 595.9207
112.1036, 598.5165
112.5858, 601.6093
113.0679, 604.3243
113.5500, 606.5197
114.0321, 608.4606
114.5142, 610.2769
114.9964, 611.9891
115.4785, 613.6672
115.9606, 615.3956
116.4427, 617.1650
116.9248, 618.8632
117.4069, 620.5159
117.8891, 622.0680
118.3712, 623.4423
118.8533, 624.6555
119.3354, 625.5795
119.8175, 625.9993
120.2996, 625.9650
120.7818, 626.0247
121.2639, 626.7454
121.7460, 628.1627
122.2281, 629.2015
122.7102, 629.2289
123.1923, 629.0941
123.6745, 629.2975
124.1566, 629.9034
124.6387, 630.5329
125.1208, 630.5482
125.6029, 629.4033
126.0850, 628.8085
126.5672, 629.2274
127.0493, 629.9579
127.5314, 630.4005
128.0135, 630.3237
128.4956, 629.9583
128.9777, 629.9548
129.4599, 629.8323
129.9420, 630.7069
130.4241, 633.9733
130.9062, 638.1004
131.3883, 640.6635
131.8704, 640.1556
132.3526, 637.2629
132.8347, 635.9207
133.3168, 636.8178
133.7989, 638.1688
134.2810, 639.2474
134.7632, 640.1280
135.2453, 641.2324
135.7274, 642.8273
136.2095, 644.9169
136.6916, 647.2785
137.1737, 650.2245
137.6559, 653.2524
138.1380, 655.6651
138.6201, 657.2575
139.1022, 659.2282
139.5843, 662.9902
140.0664, 667.5829
140.5486, 671.5831
141.0307, 674.1401
141.5128, 675.7408
141.9949, 677.7264
142.4770, 680.0398
142.9591, 682.9346
143.4413, 686.6140
143.9234, 690.8373
144.4055, 695.2316
144.8876, 699.6212
145.3697, 704.0027
145.8518, 707.8636
146.3340, 710.4447
146.8161, 713.1349
147.2982, 716.3937
147.7803, 720.1576
148.2624, 724.0798
148.7445, 727.8150
149.2267, 731.1771
149.7088, 735.0598
150.1909, 739.8078
150.6730, 744.6708
151.1551, 749.3124
151.6372, 753.6595
152.1194, 757.7126
152.6015, 761.4678
153.0836, 764.6990
153.5657, 768.1971
154.0478, 772.1726
154.5299, 776.3171
155.0121, 780.2820
155.4942, 783.9631
155.9763, 787.5751
156.4584, 791.5592
156.9405, 796.0013
157.4226, 800.0172
157.9048, 803.1369
158.3869, 805.6696
158.8690, 808.2440
159.3511, 811.0156
159.8332, 813.9163
160.3153, 816.9531
160.7975, 820.1428
161.2796, 823.1264
161.7617, 825.6408
162.2438, 827.7227
162.7259, 829.6230
163.2081, 831.0601
163.6902, 832.6447
164.1723, 835.0340
164.6544, 838.2975
165.1365, 841.4900
165.6186, 843.5226
166.1008, 844.1297
166.5829, 844.7415
167.0650, 845.6811
167.5471, 846.6511
168.0292, 847.3801
168.5113, 847.8226
168.9935, 848.2579
169.4756, 849.2200
169.9577, 851.2339
170.4398, 852.7668
170.9219, 853.3900
171.4040, 853.7350
171.8862, 854.3269
172.3683, 855.3583
172.8504, 856.6436
173.3325, 857.7532
173.8146, 858.4244
174.2967, 859.2054
174.7789, 860.2099
175.2610, 861.2983
175.7431, 862.3103
176.2252, 863.1827
176.7073, 863.9321
177.1894, 864.6018
177.6716, 865.0492
178.1537, 865.5972
178.6358, 866.3420
179.1179, 867.2286
179.6000, 868.1641
180.0821, 869.0995
180.5643, 870.0555
181.0464, 871.1008
181.5285, 872.3490
182.0106, 873.5268
182.4927, 874.3705
182.9748, 874.9809
183.4570, 875.8219
183.9391, 877.1698
184.4212, 878.8859
184.9033, 880.5584
185.3854, 882.1123
185.8675, 883.7387
186.3497, 885.6198
186.8318, 887.7613
187.3139, 889.9651
187.7960, 892.2529
188.2781, 894.5088
188.7602, 896.5760
189.2424, 898.4003
189.7245, 900.0977
190.2066, 901.7140
190.6887, 903.1266
191.1708, 904.9301
191.6530, 907.8103
192.1351, 910.9420
192.6172, 913.5355
193.0993, 915.2312
193.5814, 916.5438
194.0635, 918.5137
194.5457, 921.4627
195.0278, 924.4555
195.5099, 927.5024
195.9920, 930.3890
196.4741, 932.7798
196.9562, 934.4948
197.4384, 935.8853
197.9205, 938.0095
198.4026, 941.4418
198.8847, 944.8875
199.3668, 948.2794
199.8489, 951.5579
200.3311, 954.5858
200.8132, 957.2823
201.2953, 959.8206
201.7774, 962.8516
202.2595, 966.7960
202.7416, 970.8257
203.2238, 974.9240
203.7059, 979.0621
204.1880, 983.3227
204.6701, 987.7554
205.1522, 992.2431
205.6343, 996.2184
206.1165, 999.3289
206.5986, 1002.444
207.0807, 1005.651
207.5628, 1008.995
208.0449, 1012.634
208.5270, 1016.723
209.0092, 1021.061
209.4913, 1024.726
209.9734, 1026.688
210.4555, 1029.323
210.9376, 1034.242
211.4197, 1040.607
211.9019, 1046.049
212.3840, 1049.095
212.8661, 1050.599
213.3482, 1053.080
213.8303, 1056.917
214.3124, 1060.996
214.7946, 1064.491
215.2767, 1067.586
215.7588, 1071.242
216.2409, 1076.192
216.7230, 1081.777
217.2052, 1086.750
217.6873, 1090.791
218.1694, 1094.820
218.6515, 1099.525
219.1336, 1104.909
219.6157, 1110.504
220.0979, 1116.266
220.5800, 1122.126
221.0621, 1128.223
221.5442, 1134.771
222.0263, 1140.748
222.5084, 1145.265
222.9906, 1148.323
223.4727, 1150.086
223.9548, 1150.718
224.4369, 1149.828
224.9190, 1146.482
225.4011, 1140.376
225.8833, 1133.637
226.3654, 1128.810
226.8475, 1126.301
227.3296, 1123.828
227.8117, 1120.333
228.2938, 1117.108
228.7760, 1115.216
229.2581, 1114.817
229.7402, 1114.979
230.2223, 1114.337
230.7044, 1112.403
231.1865, 1111.245
231.6687, 1111.975
232.1508, 1112.867
232.6329, 1112.764
233.1150, 1111.498
233.5971, 1109.820
234.0792, 1108.917
234.5614, 1109.537
235.0435, 1109.045
235.5256, 1106.399
236.0077, 1103.520
236.4898, 1101.650
236.9719, 1100.973
237.4541, 1100.779
237.9362, 1100.053
238.4183, 1098.306
238.9004, 1097.260
239.3825, 1097.293
239.8646, 1097.604
240.3468, 1097.792
240.8289, 1097.749
241.3110, 1097.479
241.7931, 1096.941
242.2752, 1095.906
242.7573, 1095.291
243.2395, 1094.910
243.7216, 1094.998
244.2037, 1095.969
244.6858, 1097.736
245.1679, 1099.608
245.6501, 1100.807
246.1322, 1101.133
246.6143, 1101.500
247.0964, 1101.427
247.5785, 1101.746
248.0606, 1103.269
248.5428, 1105.932
249.0249, 1108.844
249.5070, 1111.260
249.9891, 1113.161
250.4712, 1114.086
250.9533, 1113.002
251.4355, 1111.817
251.9176, 1111.975
252.3997, 1113.460
252.8818, 1115.117
253.3639, 1115.970
253.8460, 1115.993
254.3282, 1116.251
254.8103, 1116.994
255.2924, 1117.772
255.7745, 1118.084
256.2566, 1117.997
256.7387, 1118.239
257.2209, 1119.380
257.7030, 1121.358
258.1851, 1123.311
258.6672, 1125.184
259.1493, 1127.061
259.6314, 1128.926
260.1136, 1130.797
260.5957, 1132.857
261.0778, 1135.238
261.5599, 1137.908
262.0420, 1140.729
262.5241, 1144.032
263.0063, 1147.083
263.4884, 1149.136
263.9705, 1150.314
264.4526, 1151.700
264.9347, 1153.647
265.4168, 1156.268
265.8990, 1159.616
266.3811, 1164.048
266.8632, 1168.505
267.3453, 1172.143
267.8274, 1175.064
268.3095, 1178.058
268.7917, 1181.156
269.2738, 1184.734
269.7559, 1189.203
270.2380, 1194.690
270.7201, 1200.442
271.2022, 1206.291
271.6844, 1212.116
272.1665, 1217.040
272.6486, 1220.315
273.1307, 1223.124
273.6128, 1226.573
274.0949, 1230.686
274.5771, 1235.231
275.0592, 1239.887
275.5413, 1244.794
276.0234, 1250.826
276.5055, 1258.932
276.9876, 1267.155
277.4698, 1273.820
277.9519, 1279.190
278.4340, 1284.668
278.9161, 1291.082
279.3982, 1298.292
279.8803, 1305.887
280.3625, 1314.042
280.8446, 1322.221
281.3267, 1330.071
281.8088, 1337.651
282.2909, 1345.154
282.7730, 1352.401
283.2552, 1359.627
283.7373, 1367.823
284.2194, 1377.802
284.7015, 1387.182
285.1836, 1394.562
285.6658, 1400.825
286.1479, 1407.408
286.6300, 1415.273
287.1121, 1423.496
287.5942, 1429.916
288.0764, 1434.146
288.5585, 1437.387
289.0406, 1440.175
289.5227, 1442.283
290.0048, 1443.307
290.4869, 1443.039
290.9691, 1441.940
291.4512, 1440.808
291.9333, 1439.777
292.4154, 1438.308
292.8975, 1435.729
293.3796, 1433.000
293.8618, 1430.872
294.3439, 1429.535
294.8260, 1428.629
295.3081, 1427.830
295.7902, 1427.259
296.2723, 1426.226
296.7545, 1423.594
297.2366, 1421.184
297.7187, 1420.322
298.2008, 1420.993
298.6829, 1421.913
299.1650, 1421.666
299.6472, 1420.093
300.1293, 1418.778
300.6114, 1417.899
301.0935, 1417.220
301.5756, 1416.655
302.0577, 1416.202
302.5399, 1415.904
303.0220, 1415.967
303.5041, 1416.348
303.9862, 1416.022
304.4683, 1414.245
304.9504, 1412.612
305.4326, 1411.673
305.9147, 1411.304
306.3968, 1411.266
306.8789, 1411.511
307.3610, 1411.935
307.8431, 1412.031
308.3253, 1411.552
308.8074, 1411.141
309.2895, 1411.031
309.7716, 1411.063
310.2537, 1411.035
310.7358, 1410.845
311.2180, 1410.589
311.7001, 1410.495
312.1822, 1410.649
312.6643, 1410.751
313.1464, 1410.833
313.6285, 1410.778
314.1107, 1410.407
314.5928, 1409.683
315.0749, 1408.864
315.5570, 1408.327
316.0391, 1408.127
316.5212, 1407.994
317.0034, 1407.807
317.4855, 1407.747
317.9676, 1408.223
318.4497, 1409.099
318.9318, 1409.581
319.4139, 1408.521
319.8961, 1405.665
320.3782, 1403.858
320.8603, 1403.927
321.3424, 1404.385
321.8245, 1405.023
322.3066, 1405.621
322.7888, 1405.766
323.2709, 1405.037
323.7530, 1403.577
324.2351, 1402.393
324.7172, 1401.160
325.1993, 1400.745
325.6815, 1402.046
326.1636, 1404.055
326.6457, 1405.316
327.1278, 1405.008
327.6099, 1403.807
328.0920, 1403.315
328.5742, 1403.662
329.0563, 1404.480
329.5384, 1406.101
330.0205, 1407.856
330.5026, 1409.046
330.9847, 1409.480
331.4669, 1409.790
331.9490, 1410.993
332.4311, 1413.389
332.9132, 1415.367
333.3953, 1416.349
333.8774, 1417.106
334.3596, 1417.800
334.8417, 1418.561
335.3238, 1419.771
335.8059, 1421.997
336.2880, 1425.267
336.7701, 1428.124
337.2523, 1430.021
337.7344, 1432.088
338.2165, 1434.954
338.6986, 1438.380
339.1807, 1441.831
339.6628, 1445.067
340.1450, 1448.050
340.6271, 1450.555
341.1092, 1452.160
341.5913, 1454.098
342.0735, 1457.403
342.5556, 1461.073
343.0377, 1463.810
343.5198, 1465.001
344.0019, 1465.479
344.4840, 1466.568
344.9662, 1468.408
345.4483, 1470.265
345.9304, 1472.019
346.4125, 1473.654
346.8946, 1475.221
347.3767, 1476.734
347.8589, 1477.906
348.3410, 1478.359
348.8231, 1478.108
349.3052, 1477.816
349.7873, 1477.649
350.2694, 1477.344
350.7516, 1476.681
351.2337, 1475.717
351.7158, 1474.729
352.1979, 1473.778
352.6800, 1472.916
353.1621, 1472.392
353.6443, 1472.374
354.1264, 1472.322
354.6085, 1471.965
355.0906, 1471.370
355.5727, 1470.620
356.0548, 1469.807
356.5370, 1468.789
357.0191, 1467.115
357.5012, 1464.685
357.9833, 1462.875
358.4654, 1462.824
358.9475, 1463.388
359.4297, 1463.086
359.9118, 1461.596
360.3939, 1460.179
360.8760, 1459.866
361.3581, 1460.469
361.8402, 1461.135
362.3224, 1461.926
362.8045, 1462.280
363.2866, 1461.186
363.7687, 1458.833
364.2508, 1457.222
364.7329, 1457.670
365.2151, 1459.183
365.6972, 1460.081
366.1793, 1460.158
366.6614, 1460.040
367.1435, 1460.164
367.6256, 1460.467
368.1078, 1460.754
368.5899, 1461.196
369.0720, 1461.461
369.5541, 1460.991
370.0362, 1459.950
370.5183, 1459.487
371.0005, 1460.376
371.4826, 1461.978
371.9647, 1462.798
372.4468, 1462.560
372.9289, 1462.344
373.4110, 1462.641
373.8932, 1463.225
374.3753, 1463.598
374.8574, 1463.579
375.3395, 1463.629
375.8216, 1464.469
376.3037, 1466.227
376.7859, 1467.514
377.2680, 1467.707
377.7501, 1467.700
378.2322, 1468.442
378.7143, 1469.879
379.1964, 1471.010
379.6786, 1470.955
380.1607, 1469.875
380.6428, 1469.690
381.1249, 1471.090
381.6070, 1472.482
382.0891, 1473.245
382.5713, 1473.616
383.0534, 1474.061
383.5355, 1474.784
384.0176, 1475.684
384.4997, 1476.535
384.9818, 1476.973
385.4640, 1478.021
385.9461, 1480.697
386.4282, 1483.378
386.9103, 1484.430
387.3924, 1483.754
387.8745, 1482.627
388.3567, 1482.447
388.8388, 1483.418
389.3209, 1483.857
389.8030, 1483.325
390.2851, 1482.804
390.7672, 1482.771
391.2494, 1483.028
391.7315, 1483.070
392.2136, 1482.568
392.6957, 1481.754
393.1778, 1481.542
393.6599, 1482.429
394.1421, 1483.244
394.6242, 1484.036
395.1063, 1484.623
395.5884, 1484.635
396.0706, 1484.066
396.5527, 1483.516
397.0348, 1483.995
397.5169, 1486.020
397.9990, 1486.967
398.4811, 1485.959
398.9633, 1484.615
399.4454, 1483.561
399.9275, 1482.698
400.4096, 1481.613
400.8917, 1480.003
401.3738, 1477.970
401.8560, 1475.919
402.3381, 1473.767
402.8202, 1471.786
403.3023, 1470.471
403.7844, 1469.161
404.2665, 1467.200
404.7487, 1464.400
405.2308, 1460.931
405.7129, 1456.723
406.1950, 1451.681
406.6771, 1447.318
407.1592, 1444.484
407.6414, 1441.846
408.1235, 1438.465
408.6056, 1434.409
409.0877, 1430.167
409.5698, 1425.854
410.0519, 1421.591
410.5341, 1417.604
411.0162, 1413.883
411.4983, 1410.543
411.9804, 1407.949
412.4625, 1405.727
412.9446, 1403.319
413.4268, 1400.681
413.9089, 1397.755
414.3910, 1394.208
414.8731, 1390.236
415.3552, 1386.853
415.8373, 1384.508
416.3195, 1382.683
416.8016, 1380.539
417.2837, 1378.018
417.7658, 1375.961
418.2479, 1375.101
418.7300, 1374.556
419.2122, 1373.165
419.6943, 1370.844
420.1764, 1368.487
420.6585, 1366.751
421.1406, 1365.626
421.6227, 1364.794
422.1049, 1364.525
422.5870, 1364.205
423.0691, 1363.591
423.5512, 1362.755
424.0333, 1361.843
424.5154, 1360.917
424.9976, 1359.910
425.4797, 1358.705
425.9618, 1357.276
426.4439, 1355.684
426.9260, 1353.814
427.4081, 1351.886
427.8903, 1349.946
428.3724, 1348.075
428.8545, 1346.487
429.3366, 1345.381
429.8187, 1344.738
430.3008, 1344.084
430.7830, 1343.559
431.2651, 1342.876
431.7472, 1341.752
432.2293, 1340.540
432.7114, 1339.717
433.1935, 1339.447
433.6757, 1339.424
434.1578, 1339.088
434.6399, 1338.225
435.1220, 1337.759
435.6041, 1338.414
436.0862, 1338.890
436.5684, 1338.381
437.0505, 1337.084
437.5326, 1335.793
438.0147, 1335.075
438.4968, 1334.769
438.9789, 1334.220
439.4611, 1333.138
439.9432, 1332.554
440.4253, 1333.445
440.9074, 1334.813
441.3895, 1335.585
441.8716, 1335.475
442.3538, 1335.203
442.8359, 1335.398
443.3180, 1336.003
443.8001, 1336.636
444.2822, 1337.170
444.7643, 1337.840
445.2465, 1339.045
445.7286, 1340.654
446.2107, 1342.005
446.6928, 1342.493
447.1749, 1342.927
447.6570, 1344.206
448.1392, 1346.270
448.6213, 1348.481
449.1034, 1350.581
449.5855, 1352.523
450.0677, 1354.118
450.5498, 1355.052
451.0319, 1356.338
451.5140, 1358.127
451.9961, 1360.451
452.4782, 1363.484
452.9604, 1367.219
453.4425, 1371.217
453.9246, 1375.102
454.4067, 1378.912
454.8888, 1382.142
455.3709, 1383.834
455.8531, 1386.069
456.3352, 1389.808
456.8173, 1394.557
457.2994, 1399.600
457.7815, 1404.598
458.2636, 1409.408
458.7458, 1413.631
459.2279, 1416.524
459.7100, 1420.455
460.1921, 1426.075
460.6742, 1432.122
461.1563, 1438.011
461.6385, 1443.673
462.1206, 1449.146
462.6027, 1454.383
463.0848, 1459.469
463.5669, 1464.894
464.0490, 1470.731
464.5312, 1476.668
465.0133, 1482.582
465.4954, 1488.495
465.9775, 1494.510
466.4596, 1500.695
466.9417, 1506.751
467.4239, 1512.300
467.9060, 1517.440
468.3881, 1522.939
468.8702, 1529.031
469.3523, 1535.316
469.8344, 1541.512
470.3166, 1547.649
470.7987, 1553.702
471.2808, 1559.622
471.7629, 1565.521
472.2450, 1571.418
472.7271, 1577.348
473.2093, 1583.473
473.6914, 1589.937
474.1735, 1596.504
474.6556, 1602.761
475.1377, 1608.736
475.6198, 1614.405
476.1020, 1619.669
476.5841, 1624.698
477.0662, 1629.740
477.5483, 1634.733
478.0304, 1639.350
478.5125, 1643.201
478.9947, 1646.462
479.4768, 1650.611
479.9589, 1656.766
480.4410, 1662.487
480.9231, 1667.502
481.4052, 1671.907
481.8874, 1675.772
482.3695, 1679.137
482.8516, 1681.980
483.3337, 1684.208
483.8158, 1685.750
484.2979, 1687.296
484.7801, 1689.101
485.2622, 1690.602
485.7443, 1691.739
486.2264, 1692.421
486.7085, 1692.475
487.1906, 1691.772
487.6728, 1690.623
488.1549, 1689.501
488.6370, 1688.431
489.1191, 1686.982
489.6012, 1684.917
490.0833, 1682.584
490.5655, 1680.651
491.0476, 1678.939
491.5297, 1676.186
492.0118, 1671.007
492.4939, 1665.012
492.9760, 1660.477
493.4582, 1657.353
493.9403, 1654.012
494.4224, 1649.658
494.9045, 1644.521
495.3866, 1639.270
495.8687, 1634.167
496.3509, 1628.323
496.8330, 1620.684
497.3151, 1612.660
497.7972, 1606.078
498.2793, 1600.967
498.7614, 1595.807
499.2436, 1589.379
499.7257, 1581.728
500.2078, 1573.252
500.6899, 1563.180
501.1720, 1553.187
501.6541, 1543.441
502.1363, 1533.960
502.6184, 1524.769
503.1005, 1515.848
503.5826, 1506.970
504.0647, 1497.832
504.5468, 1488.380
505.0290, 1479.310
505.5111, 1470.924
505.9932, 1462.523
506.4753, 1453.900
506.9575, 1445.106
507.4396, 1436.152
507.9217, 1426.953
508.4038, 1417.922
508.8859, 1409.754
509.3680, 1402.383
509.8502, 1394.947
510.3323, 1387.248
510.8144, 1379.410
511.2965, 1371.273
511.7786, 1362.984
512.2607, 1355.204
512.7429, 1348.338
513.2250, 1341.872
513.7071, 1335.320
514.1892, 1328.731
514.6713, 1322.228
515.1534, 1315.792
515.6356, 1309.607
516.1177, 1304.092
516.5998, 1299.705
517.0819, 1294.866
517.5640, 1289.215
518.0461, 1283.374
518.5283, 1277.436
519.0104, 1271.647
519.4925, 1266.702
519.9746, 1263.144
520.4567, 1260.507
520.9388, 1256.949
521.4210, 1251.457
521.9031, 1246.950
522.3852, 1244.233
522.8673, 1242.104
523.3494, 1239.888
523.8315, 1237.457
524.3137, 1234.843
524.7958, 1232.046
525.2779, 1229.096
525.7600, 1226.071
526.2421, 1222.859
526.7242, 1219.992
527.2064, 1217.585
527.6885, 1215.767
528.1706, 1214.925
528.6527, 1215.345
529.1348, 1215.331
529.6169, 1213.500
530.0991, 1210.867
530.5812, 1209.195
531.0633, 1208.690
531.5454, 1208.297
532.0275, 1207.198
532.5096, 1205.543
532.9918, 1204.405
533.4739, 1204.217
533.9560, 1203.907
534.4381, 1202.903
534.9202, 1201.853
535.4023, 1201.566
535.8845, 1202.128
536.3666, 1202.924
536.8487, 1203.354
537.3308, 1203.420
537.8129, 1203.348
538.2950, 1202.870
538.7772, 1202.605
539.2593, 1202.938
539.7414, 1203.413
540.2235, 1203.419
540.7056, 1202.821
541.1877, 1202.295
541.6699, 1202.625
542.1520, 1203.684
542.6341, 1204.667
543.1162, 1205.634
543.5983, 1206.226
544.0804, 1205.825
544.5626, 1204.957
545.0447, 1204.633
545.5268, 1205.211
546.0089, 1205.919
546.4910, 1206.680
546.9731, 1207.184
547.4553, 1206.532
547.9374, 1204.521
548.4195, 1202.534
548.9016, 1201.973
549.3837, 1202.873
549.8658, 1203.387
550.3480, 1203.594
550.8301, 1203.404
551.3122, 1202.443
551.7943, 1201.228
552.2764, 1200.420
552.7585, 1200.175
553.2407, 1200.105
553.7228, 1199.676
554.2049, 1198.836
554.6870, 1198.616
555.1691, 1199.949
555.6512, 1200.543
556.1334, 1198.787
556.6155, 1196.221
557.0976, 1194.966
557.5797, 1195.709
558.0618, 1196.805
558.5439, 1196.751
559.0261, 1195.813
559.5082, 1194.996
559.9903, 1194.476
560.4724, 1193.902
560.9545, 1192.958
561.4366, 1191.722
561.9188, 1190.626
562.4009, 1189.802
562.8830, 1188.963
563.3651, 1188.060
563.8472, 1187.051
564.3293, 1185.668
564.8115, 1183.942
565.2936, 1182.613
565.7757, 1182.571
566.2578, 1183.824
566.7399, 1184.019
567.2220, 1181.885
567.7042, 1180.196
568.1863, 1179.744
568.6684, 1179.775
569.1505, 1179.615
569.6326, 1179.081
570.1147, 1178.230
570.5969, 1176.891
571.0790, 1175.199
571.5611, 1174.152
572.0432, 1174.056
572.5253, 1173.728
573.0074, 1172.372
573.4896, 1170.493
573.9717, 1168.807
574.4538, 1167.393
574.9359, 1166.113
575.4180, 1164.955
575.9001, 1163.876
576.3823, 1162.927
576.8644, 1162.074
577.3465, 1160.955
577.8286, 1159.263
578.3107, 1157.139
578.7928, 1155.286
579.2750, 1154.176
579.7571, 1152.706
580.2392, 1150.597
580.7213, 1148.280
581.2034, 1145.976
581.6855, 1143.776
582.1677, 1141.783
582.6498, 1140.213
583.1319, 1138.781
583.6140, 1136.414
584.0961, 1132.762
584.5782, 1129.311
585.0604, 1126.232
585.5425, 1123.712
586.0246, 1122.235
586.5067, 1121.684
586.9889, 1120.705
587.4710, 1118.716
587.9531, 1116.002
588.4352, 1112.524
588.9174, 1108.492
