##NAMES=Gahnite
##RRUFFID=R040027
##IDEAL CHEMISTRY=Zn^2+^Al_2_O_4_
##LOCALITY=Rowe, Franklin County, Massachusetts, USA
##OWNER=RRUFF
##SOURCE=University of Arizona Mineral Museum
##DESCRIPTION=Dark blue octahedral single crystals embedded in quartz matrix
##STATUS=The identification of this mineral has been confirmed by X-ray diffraction and chemical analysis
##URL=rruff.info/R040027
##MEASURED CHEMISTRY=(Zn_0.83_Fe_0.11_Mg_0.06_)_Σ=1_(Al_0.96_Fe_0.04_)_Σ=2_O_4_
124.7438, 139.7795
125.2259, 138.3698
125.7081, 138.4523
126.1902, 139.7330
126.6723, 140.6202
127.1544, 140.5990
127.6365, 140.4934
128.1186, 140.8582
128.6008, 141.9100
129.0829, 143.3317
129.5650, 145.0993
130.0471, 147.1564
130.5292, 148.3814
131.0113, 147.4950
131.4935, 144.8937
131.9756, 142.0785
132.4577, 138.9769
132.9398, 136.1056
133.4219, 135.3409
133.9040, 136.8271
134.3862, 139.0443
134.8683, 140.5613
135.3504, 141.3997
135.8325, 141.7540
136.3146, 141.3168
136.7967, 140.2588
137.2789, 140.4896
137.7610, 142.2959
138.2431, 144.6814
138.7252, 146.5580
139.2073, 148.0378
139.6894, 148.5288
140.1716, 147.5273
140.6537, 144.7424
141.1358, 142.5885
141.6179, 141.0269
142.1000, 140.0616
142.5821, 139.8250
143.0643, 140.6184
143.5464, 141.4845
144.0285, 142.0142
144.5106, 141.9950
144.9927, 142.1781
145.4748, 142.5496
145.9570, 143.1218
146.4391, 143.9944
146.9212, 145.7825
147.4033, 147.1459
147.8854, 147.4243
148.3675, 145.7193
148.8497, 144.3150
149.3318, 143.0481
149.8139, 142.0529
150.2960, 142.0936
150.7781, 144.3717
151.2602, 146.8024
151.7424, 148.2422
152.2245, 147.9024
152.7066, 147.4956
153.1887, 146.9971
153.6708, 146.4403
154.1529, 146.1799
154.6351, 146.8001
155.1172, 147.3954
155.5993, 147.3627
156.0814, 146.1312
156.5635, 144.7869
157.0456, 143.2799
157.5278, 141.6331
158.0099, 140.7045
158.4920, 141.1786
158.9741, 142.2056
159.4562, 143.0297
159.9383, 143.2793
160.4205, 143.4808
160.9026, 143.9029
161.3847, 144.5857
161.8668, 145.0002
162.3489, 144.8552
162.8310, 144.3794
163.3132, 143.8381
163.7953, 143.4542
164.2774, 142.9244
164.7595, 142.0047
165.2416, 140.6095
165.7237, 139.2841
166.2059, 138.1626
166.6880, 137.2861
167.1701, 136.7188
167.6522, 136.6289
168.1343, 136.7642
168.6164, 136.9818
169.0985, 137.2875
169.5807, 137.5754
170.0628, 137.9170
170.5449, 138.1945
171.0270, 138.1703
171.5091, 137.7666
171.9912, 136.9912
172.4734, 135.6716
172.9555, 133.5564
173.4376, 131.6539
173.9197, 130.8379
174.4018, 130.9169
174.8839, 131.3927
175.3661, 132.2859
175.8482, 133.3038
176.3303, 134.0453
176.8124, 134.4018
177.2945, 134.5874
177.7766, 134.8444
178.2588, 135.1396
178.7409, 135.3268
179.2230, 134.9780
179.7051, 134.5023
180.1872, 134.7245
180.6693, 135.9475
181.1515, 137.6142
181.6336, 139.1729
182.1157, 140.5868
182.5978, 141.5845
183.0799, 141.8875
183.5620, 141.6300
184.0442, 141.0769
184.5263, 140.0365
185.0084, 139.0466
185.4905, 139.3342
185.9726, 140.8434
186.4547, 142.1720
186.9369, 141.9636
187.4190, 140.5743
187.9011, 139.5033
188.3832, 139.0983
188.8653, 139.1414
189.3474, 139.1622
189.8296, 139.1578
190.3117, 139.2377
190.7938, 139.3943
191.2759, 139.6632
191.7580, 140.4121
192.2401, 142.0592
192.7223, 144.0668
193.2044, 144.6124
193.6865, 143.5347
194.1686, 142.2940
194.6507, 142.5911
195.1328, 144.3216
195.6150, 145.1589
196.0971, 144.3806
196.5792, 142.3352
197.0613, 140.1363
197.5434, 137.6618
198.0255, 135.6248
198.5077, 134.9859
198.9898, 135.7944
199.4719, 136.5843
199.9540, 137.0804
200.4361, 137.2821
200.9182, 137.1134
201.4004, 136.4924
201.8825, 135.7564
202.3646, 135.1531
202.8467, 134.6594
203.3288, 134.5720
203.8109, 135.1328
204.2931, 136.2255
204.7752, 136.7681
205.2573, 136.5969
205.7394, 136.2707
206.2215, 136.4656
206.7036, 137.3293
207.1858, 137.9359
207.6679, 138.0984
208.1500, 137.8191
208.6321, 136.9765
209.1142, 135.2813
209.5963, 133.5635
210.0785, 132.7956
210.5606, 133.2227
211.0427, 133.7448
211.5248, 134.3307
212.0069, 134.9569
212.4890, 134.2938
212.9712, 131.7859
213.4533, 128.8398
213.9354, 127.1094
214.4175, 126.9597
214.8996, 126.8524
215.3817, 126.2791
215.8639, 125.2400
216.3460, 125.1893
216.8281, 126.7031
217.3102, 128.4405
217.7923, 128.7192
218.2744, 126.8095
218.7565, 125.3546
219.2387, 125.2249
219.7208, 126.4660
220.2029, 126.7133
220.6850, 125.3835
221.1671, 123.7491
221.6492, 123.3374
222.1314, 124.7622
222.6135, 125.9840
223.0956, 126.4096
223.5777, 125.9965
224.0598, 126.0937
224.5419, 127.0642
225.0241, 128.1455
225.5062, 128.4681
225.9883, 127.6090
226.4704, 126.8710
226.9525, 126.5236
227.4346, 126.5685
227.9168, 126.8742
228.3989, 127.6635
228.8810, 128.4765
229.3631, 128.7781
229.8452, 128.2502
230.3273, 127.8641
230.8095, 127.9579
231.2916, 128.5706
231.7737, 128.5274
232.2558, 127.4996
232.7379, 126.1581
233.2200, 125.1685
233.7022, 124.5995
234.1843, 124.2622
234.6664, 124.2354
235.1485, 124.5274
235.6306, 124.4893
236.1127, 123.9735
236.5949, 123.2765
237.0770, 122.6569
237.5591, 122.0910
238.0412, 121.6492
238.5233, 121.3589
239.0054, 121.2196
239.4876, 121.1338
239.9697, 121.0044
240.4518, 121.0322
240.9339, 121.4474
241.4160, 122.5518
241.8981, 123.4593
242.3803, 124.0798
242.8624, 124.4087
243.3445, 124.2290
243.8266, 123.2292
244.3087, 122.0719
244.7908, 121.2931
245.2730, 120.9839
245.7551, 120.8656
246.2372, 120.8873
246.7193, 121.0549
247.2014, 121.5433
247.6835, 122.7327
248.1657, 123.7746
248.6478, 123.9472
249.1299, 122.7892
249.6120, 121.7602
250.0941, 120.9990
250.5762, 120.5032
251.0584, 120.2644
251.5405, 120.3394
252.0226, 120.6001
252.5047, 120.9968
252.9868, 121.6696
253.4689, 122.1791
253.9511, 122.5707
254.4332, 122.7846
254.9153, 122.3936
255.3974, 121.0590
255.8795, 119.6512
256.3616, 118.7050
256.8438, 118.2711
257.3259, 118.1724
257.8080, 118.5291
258.2901, 119.2022
258.7722, 119.6078
259.2543, 119.5030
259.7365, 119.5411
260.2186, 120.2884
260.7007, 122.3365
261.1828, 123.1878
261.6649, 122.1869
262.1470, 120.0675
262.6292, 119.0254
263.1113, 119.3525
263.5934, 120.1817
264.0755, 121.1983
264.5576, 122.5864
265.0397, 123.5535
265.5219, 124.1550
266.0040, 124.2866
266.4861, 123.4412
266.9682, 121.0109
267.4503, 119.1433
267.9324, 119.1784
268.4146, 121.7803
268.8967, 123.1054
269.3788, 122.7481
269.8609, 121.5251
270.3430, 121.0034
270.8251, 121.3881
271.3073, 121.7909
271.7894, 121.7694
272.2715, 121.2506
272.7536, 121.1296
273.2357, 121.5238
273.7178, 122.1428
274.2000, 122.6076
274.6821, 122.9341
275.1642, 122.9960
275.6463, 122.5956
276.1284, 121.7301
276.6105, 121.4278
277.0927, 121.8489
277.5748, 122.4843
278.0569, 122.6566
278.5390, 122.3090
279.0211, 121.9757
279.5032, 121.8300
279.9854, 121.8520
280.4675, 121.8639
280.9496, 121.8812
281.4317, 121.8417
281.9138, 121.5563
282.3959, 121.0038
282.8781, 120.8399
283.3602, 121.4679
283.8423, 122.5844
284.3244, 122.6848
284.8065, 121.6167
285.2886, 120.5011
285.7708, 120.4199
286.2529, 121.3228
286.7350, 122.3457
287.2171, 123.5349
287.6992, 124.5721
288.1813, 124.2063
288.6635, 122.3516
289.1456, 120.6593
289.6277, 120.6601
290.1098, 122.1031
290.5919, 123.3135
291.0740, 124.0437
291.5562, 124.4044
292.0383, 124.5548
292.5204, 124.4996
293.0025, 124.3136
293.4846, 124.0914
293.9667, 123.7877
294.4489, 123.1292
294.9310, 121.9472
295.4131, 120.7838
295.8952, 120.6290
296.3773, 121.3345
296.8594, 121.9313
297.3416, 121.4066
297.8237, 120.4281
298.3058, 120.8207
298.7879, 122.9604
299.2700, 125.2233
299.7521, 125.4555
300.2343, 124.1506
300.7164, 122.8716
301.1985, 122.1998
301.6806, 122.0608
302.1627, 122.5985
302.6448, 123.8797
303.1270, 124.9545
303.6091, 124.5939
304.0912, 123.3936
304.5733, 122.5760
305.0554, 123.0842
305.5375, 123.9894
306.0197, 124.1687
306.5018, 123.6615
306.9839, 123.1829
307.4660, 123.2914
307.9481, 123.7571
308.4302, 124.2616
308.9124, 124.7828
309.3945, 125.2355
309.8766, 125.5824
310.3587, 125.8173
310.8408, 125.8869
311.3229, 125.7302
311.8051, 125.4059
312.2872, 124.9533
312.7693, 124.2705
313.2514, 123.6478
313.7335, 123.2179
314.2156, 122.9756
314.6978, 122.8974
315.1799, 123.1170
315.6620, 123.4063
316.1441, 123.6054
316.6262, 123.6855
317.1083, 123.6843
317.5905, 123.4908
318.0726, 123.2387
318.5547, 123.1597
319.0368, 123.4182
319.5189, 123.8053
320.0010, 124.3274
320.4832, 125.0848
320.9653, 125.4554
321.4474, 124.9223
321.9295, 124.0246
322.4116, 123.3932
322.8937, 122.9125
323.3759, 122.9624
323.8580, 124.0443
324.3401, 126.2394
324.8222, 127.6282
325.3043, 127.5404
325.7864, 126.7560
326.2686, 125.8763
326.7507, 124.8020
327.2328, 123.8081
327.7149, 122.6877
328.1970, 121.5298
328.6791, 121.1928
329.1613, 122.5681
329.6434, 124.0664
330.1255, 124.8742
330.6076, 124.2140
331.0897, 123.9957
331.5718, 124.5408
332.0540, 125.5406
332.5361, 126.1050
333.0182, 125.9829
333.5003, 125.7640
333.9824, 125.7134
334.4645, 125.9841
334.9467, 125.9229
335.4288, 125.3236
335.9109, 124.5401
336.3930, 124.2059
336.8751, 124.5420
337.3572, 124.7912
337.8394, 124.5959
338.3215, 123.9110
338.8036, 123.9750
339.2857, 125.1126
339.7678, 126.4356
340.2499, 126.8709
340.7320, 126.2215
341.2141, 125.8529
341.6963, 126.2353
342.1784, 127.1202
342.6605, 127.2063
343.1426, 126.3399
343.6247, 125.3909
344.1068, 125.0767
344.5890, 125.3753
345.0711, 125.7273
345.5532, 126.0042
346.0353, 126.3543
346.5174, 127.3494
346.9995, 128.9806
347.4817, 130.1322
347.9638, 129.7810
348.4459, 128.3459
348.9280, 127.2855
349.4101, 126.6916
349.8922, 126.5483
350.3744, 127.0070
350.8565, 127.9559
351.3386, 128.9762
351.8207, 130.2306
352.3028, 131.3026
352.7849, 131.2509
353.2671, 130.0502
353.7492, 128.8971
354.2313, 128.9783
354.7134, 129.7998
355.1955, 130.5065
355.6776, 130.8084
356.1598, 130.8731
356.6419, 130.7159
357.1240, 130.3995
357.6061, 130.2577
358.0882, 130.6170
358.5703, 131.1930
359.0525, 131.7348
359.5346, 132.2676
360.0167, 132.5954
360.4988, 132.3217
360.9809, 131.7480
361.4630, 131.5424
361.9452, 132.5571
362.4273, 133.5811
362.9094, 133.8403
363.3915, 133.0720
363.8736, 132.3654
364.3557, 131.9743
364.8379, 131.8721
365.3200, 132.0325
365.8021, 132.8000
366.2842, 133.4861
366.7663, 133.9775
367.2484, 134.2740
367.7306, 134.1600
368.2127, 133.1107
368.6948, 131.9577
369.1769, 131.2447
369.6590, 131.4061
370.1411, 131.5056
370.6233, 131.6150
371.1054, 131.6526
371.5875, 131.2665
372.0696, 130.0370
372.5517, 128.8983
373.0338, 128.2221
373.5160, 128.0822
373.9981, 128.2310
374.4802, 128.8411
374.9623, 129.6031
375.4444, 130.0395
375.9265, 130.1461
376.4087, 129.9157
376.8908, 129.1326
377.3729, 127.8346
377.8550, 127.4087
378.3371, 127.9846
378.8192, 129.0967
379.3014, 130.5007
379.7835, 132.2439
380.2656, 133.4687
380.7477, 133.9645
381.2298, 133.8878
381.7119, 133.4119
382.1941, 132.5258
382.6762, 131.9082
383.1583, 132.1431
383.6404, 133.0538
384.1225, 133.9329
384.6046, 134.6860
385.0868, 135.4894
385.5689, 136.6157
386.0510, 138.0040
386.5331, 139.4346
387.0152, 140.8075
387.4973, 142.1749
387.9795, 143.6546
388.4616, 145.2486
388.9437, 146.8032
389.4258, 148.1734
389.9079, 149.4432
390.3900, 150.7016
390.8722, 151.9150
391.3543, 153.2042
391.8364, 154.5604
392.3185, 156.0239
392.8006, 157.7883
393.2827, 159.5710
393.7649, 161.9281
394.2470, 165.4626
394.7291, 170.8535
395.2112, 175.7690
395.6933, 178.5740
396.1754, 180.5612
396.6576, 183.6671
397.1397, 188.7574
397.6218, 194.6503
398.1039, 201.0458
398.5860, 207.9331
399.0681, 215.2251
399.5503, 223.8359
400.0324, 232.3206
400.5145, 239.5454
400.9966, 244.9490
401.4787, 249.9379
401.9608, 254.4176
402.4430, 258.5343
402.9251, 262.8360
403.4072, 267.3021
403.8893, 272.0060
404.3714, 276.8712
404.8535, 281.8041
405.3357, 287.3465
405.8178, 293.3116
406.2999, 300.0377
406.7820, 308.0395
407.2641, 317.4030
407.7462, 327.4854
408.2284, 337.9361
408.7105, 348.8579
409.1926, 361.8163
409.6747, 376.8770
410.1568, 393.4778
410.6389, 411.7837
411.1211, 431.3613
411.6032, 450.7465
412.0853, 469.9552
412.5674, 488.4927
413.0495, 506.9531
413.5316, 525.0411
414.0138, 540.7540
414.4959, 556.0641
414.9780, 567.4334
415.4601, 569.8157
415.9422, 562.9701
416.4243, 547.0202
416.9065, 518.7706
417.3886, 482.1618
417.8707, 443.5222
418.3528, 401.3876
418.8349, 361.0515
419.3170, 324.5451
419.7992, 291.7681
420.2813, 264.0211
420.7634, 242.3845
421.2455, 224.8652
421.7276, 210.3740
422.2097, 199.1910
422.6919, 189.5710
423.1740, 181.0559
423.6561, 173.7923
424.1382, 167.7999
424.6203, 163.8826
425.1024, 160.6081
425.5846, 157.5748
426.0667, 154.7610
426.5488, 152.7249
427.0309, 152.0525
427.5130, 151.6200
427.9951, 150.5848
428.4773, 148.4037
428.9594, 146.8668
429.4415, 146.4433
429.9236, 146.5808
430.4057, 145.6921
430.8878, 143.3690
431.3700, 141.3036
431.8521, 140.4041
432.3342, 140.6711
432.8163, 140.4003
433.2984, 139.4947
433.7805, 138.3943
434.2627, 137.4304
434.7448, 136.6353
435.2269, 136.3929
435.7090, 136.9999
436.1911, 138.0073
436.6732, 138.6109
437.1554, 138.8211
437.6375, 138.6891
438.1196, 138.2805
438.6017, 137.5407
439.0838, 136.1942
439.5659, 134.0603
440.0480, 132.1223
440.5302, 131.5202
441.0123, 131.6174
441.4944, 131.3455
441.9765, 129.3878
442.4586, 127.6592
442.9407, 127.5943
443.4229, 129.0169
443.9050, 130.3345
444.3871, 130.9137
444.8692, 131.1469
445.3513, 131.3489
445.8334, 132.0293
446.3156, 131.8477
446.7977, 129.7345
447.2798, 126.7409
447.7619, 124.7244
448.2440, 124.3116
448.7261, 124.3680
449.2083, 124.7941
449.6904, 125.6205
450.1725, 126.2711
450.6546, 126.9383
451.1367, 127.1849
451.6188, 126.4413
452.1010, 124.1143
452.5831, 122.9026
453.0652, 123.3516
453.5473, 124.7232
454.0294, 125.3018
454.5115, 124.9849
454.9937, 124.7224
455.4758, 125.0188
455.9579, 125.7591
456.4400, 126.2293
456.9221, 126.3957
457.4042, 126.6384
457.8864, 127.3997
458.3685, 128.5429
458.8506, 129.7514
459.3327, 131.0894
459.8148, 132.1978
460.2969, 132.3602
460.7791, 131.8654
461.2612, 131.6633
461.7433, 132.3895
462.2254, 133.5739
462.7075, 135.0144
463.1896, 136.7672
463.6718, 138.0022
464.1539, 137.7089
464.6360, 136.9317
465.1181, 136.7133
465.6002, 138.0342
466.0823, 139.1799
466.5645, 139.3904
467.0466, 138.9974
467.5287, 139.2809
468.0108, 141.0390
468.4929, 142.9075
468.9750, 144.4191
469.4572, 145.5058
469.9393, 146.4663
470.4214, 147.2787
470.9035, 147.9736
471.3856, 148.5663
471.8677, 149.0222
472.3499, 149.4777
472.8320, 149.9415
473.3141, 150.4357
473.7962, 151.1862
474.2783, 152.2828
474.7604, 152.9994
475.2426, 152.6248
475.7247, 151.3894
476.2068, 150.7354
476.6889, 150.7608
477.1710, 151.0522
477.6531, 151.3074
478.1353, 151.4736
478.6174, 151.4001
479.0995, 150.9961
479.5816, 150.3741
480.0637, 149.4988
480.5458, 148.4660
481.0280, 147.6536
481.5101, 147.3468
481.9922, 147.2948
482.4743, 147.3380
482.9564, 147.4746
483.4385, 147.5853
483.9207, 147.6802
484.4028, 147.6995
484.8849, 147.5791
485.3670, 146.9323
485.8491, 146.5657
486.3312, 146.7141
486.8134, 147.3042
487.2955, 147.9515
487.7776, 148.9808
488.2597, 149.6615
488.7418, 149.5392
489.2239, 148.2968
489.7061, 147.9123
490.1882, 148.8269
490.6703, 149.9492
491.1524, 149.8100
491.6345, 148.1437
492.1166, 147.3350
492.5988, 148.0800
493.0809, 149.7140
493.5630, 150.5487
494.0451, 150.6081
494.5272, 150.4951
495.0093, 150.4096
495.4915, 150.4347
495.9736, 150.9779
496.4557, 152.1003
496.9378, 152.8835
497.4199, 151.9177
497.9020, 150.2215
498.3842, 149.4093
498.8663, 150.3848
499.3484, 151.7523
499.8305, 152.5064
500.3126, 152.9570
500.7947, 153.8858
501.2769, 156.1820
501.7590, 158.5185
502.2411, 160.2695
502.7232, 161.3447
503.2053, 162.2891
503.6874, 162.8476
504.1696, 163.5029
504.6517, 164.6192
505.1338, 166.5905
505.6159, 168.3402
506.0980, 169.8621
506.5801, 171.0900
507.0623, 171.9200
507.5444, 172.4365
508.0265, 172.2756
508.5086, 171.1203
508.9907, 169.1070
509.4728, 167.3032
509.9550, 165.7123
510.4371, 164.3474
510.9192, 163.4490
511.4013, 162.8399
511.8834, 161.8335
512.3655, 160.2690
512.8477, 158.4637
513.3298, 156.5225
513.8119, 154.6201
514.2940, 153.1707
514.7761, 152.6849
515.2582, 152.4790
515.7404, 152.0943
516.2225, 151.5317
516.7046, 150.8613
517.1867, 149.7151
517.6688, 148.7471
518.1509, 148.5254
518.6331, 149.7114
519.1152, 150.1988
519.5973, 148.8503
520.0794, 146.9223
520.5615, 146.0243
521.0436, 146.8274
521.5258, 147.6170
522.0079, 148.2223
522.4900, 148.6135
522.9721, 148.6044
523.4542, 148.1047
523.9363, 147.4725
524.4185, 146.7890
524.9006, 146.0557
525.3827, 145.7940
525.8648, 146.0944
526.3469, 146.4116
526.8290, 146.0580
527.3112, 145.1964
527.7933, 144.4321
528.2754, 143.8896
528.7575, 143.5333
529.2396, 143.3257
529.7217, 143.2640
530.2039, 143.3403
530.6860, 143.8854
531.1681, 144.3127
531.6502, 144.0805
532.1323, 143.1780
532.6144, 142.3637
533.0966, 142.3562
533.5787, 142.2669
534.0608, 141.3741
534.5429, 138.2946
535.0250, 136.5053
535.5071, 137.2634
535.9893, 139.1048
536.4714, 139.8751
536.9535, 138.8846
537.4356, 138.1832
537.9177, 138.3986
538.3998, 139.3040
538.8820, 139.3980
539.3641, 138.5374
539.8462, 137.5369
540.3283, 136.8382
540.8104, 136.4307
541.2925, 136.2532
541.7747, 136.3196
542.2568, 136.5204
542.7389, 136.7411
543.2210, 137.0057
543.7031, 137.4086
544.1852, 138.1398
544.6674, 138.7525
545.1495, 138.4957
545.6316, 137.7728
546.1137, 137.5911
546.5958, 139.0184
547.0779, 140.5866
547.5601, 141.4791
548.0422, 141.6344
548.5243, 141.8141
549.0064, 142.0941
549.4885, 142.5084
549.9706, 143.1094
550.4528, 144.2362
550.9349, 144.8514
551.4170, 144.5625
551.8991, 144.0789
552.3812, 144.5556
552.8633, 146.2706
553.3455, 147.8049
553.8276, 148.7918
554.3097, 149.3783
554.7918, 149.9993
555.2739, 150.6453
555.7560, 151.3402
556.2382, 152.2128
556.7203, 153.1228
557.2024, 153.6729
557.6845, 153.8354
558.1666, 154.0470
558.6487, 154.7664
559.1309, 155.7142
559.6130, 156.5072
560.0951, 156.9677
560.5772, 157.4367
561.0593, 158.1600
561.5414, 158.9914
562.0236, 159.6620
562.5057, 159.5858
562.9878, 159.8877
563.4699, 161.1569
563.9520, 163.2554
564.4341, 164.8200
564.9163, 165.7198
565.3984, 166.2652
565.8805, 166.5477
566.3626, 166.5073
566.8447, 166.5603
567.3268, 166.6949
567.8090, 166.9524
568.2911, 167.5105
568.7732, 168.3127
569.2553, 168.8096
569.7374, 168.8833
570.2195, 168.6269
570.7017, 167.8627
571.1838, 166.8220
571.6659, 166.2475
572.1480, 167.1530
572.6301, 168.1958
573.1122, 168.0812
573.5944, 166.9289
574.0765, 165.9358
574.5586, 165.4363
575.0407, 165.4036
575.5228, 165.9490
576.0049, 167.4632
576.4871, 168.4715
576.9692, 168.4802
577.4513, 168.1817
577.9334, 168.2871
578.4155, 169.2292
578.8976, 169.4346
579.3798, 168.2770
579.8619, 166.6262
580.3440, 166.9242
580.8261, 169.3495
581.3082, 171.4079
581.7903, 171.7909
582.2725, 171.1047
582.7546, 171.0834
583.2367, 171.6891
583.7188, 172.4711
584.2009, 173.0665
584.6830, 173.6477
585.1652, 174.5144
585.6473, 175.7665
586.1294, 176.8904
586.6115, 177.4404
587.0936, 177.7785
587.5757, 178.2786
588.0578, 179.4068
588.5399, 180.2625
589.0220, 180.3232
589.5042, 180.0279
589.9863, 180.4119
590.4684, 181.9131
590.9505, 183.3933
591.4326, 184.6746
591.9147, 185.7210
592.3969, 186.0165
592.8790, 185.3370
593.3611, 184.8728
593.8432, 185.8352
594.3253, 187.8134
594.8074, 188.3081
595.2896, 187.0701
595.7717, 185.8878
596.2538, 186.8083
596.7359, 188.9670
597.2180, 190.8454
597.7001, 192.0168
598.1823, 192.8396
598.6644, 193.3454
599.1465, 193.6921
599.6286, 194.1518
600.1107, 194.8735
600.5928, 195.6497
601.0750, 196.2998
601.5571, 196.8873
602.0392, 197.9096
602.5213, 199.4443
603.0034, 201.3305
603.4855, 203.5865
603.9677, 206.2758
604.4498, 208.5878
604.9319, 210.3942
605.4140, 212.2719
605.8961, 214.8581
606.3782, 218.0429
606.8604, 220.8557
607.3425, 223.1628
607.8246, 225.2113
608.3067, 226.8291
608.7888, 228.4261
609.2709, 230.8903
609.7531, 235.2046
610.2352, 239.6930
610.7173, 243.3425
611.1994, 246.3246
611.6815, 249.1399
612.1636, 251.3600
612.6458, 254.0370
613.1279, 257.8432
613.6100, 262.8001
614.0921, 267.3660
614.5742, 271.5305
615.0563, 275.3901
615.5385, 278.8760
616.0206, 281.8764
616.5027, 285.4822
616.9848, 289.8833
617.4669, 294.3087
617.9490, 297.8045
618.4312, 300.4710
618.9133, 302.6132
619.3954, 304.1360
