##NAMES=Gahnite
##RRUFFID=R040027
##IDEAL CHEMISTRY=Zn^2+^Al_2_O_4_
##LOCALITY=Rowe, Franklin County, Massachusetts, USA
##OWNER=RRUFF
##SOURCE=University of Arizona Mineral Museum
##DESCRIPTION=Dark blue octahedral single crystals embedded in quartz matrix
##STATUS=The identification of this mineral has been confirmed by X-ray diffraction and chemical analysis
##URL=rruff.info/R040027
##MEASURED CHEMISTRY=(Zn_0.83_Fe_0.11_Mg_0.06_)_Σ=1_(Al_0.96_Fe_0.04_)_Σ=2_O_4_
128.7403, 123.5241
129.2225, 123.4596
129.7046, 123.5917
130.1867, 123.4978
130.6688, 122.9197
131.1509, 122.6199
131.6330, 123.0400
132.1152, 123.5918
132.5973, 123.6418
133.0794, 122.8727
133.5615, 121.5499
134.0436, 120.8003
134.5257, 120.9065
135.0079, 121.3351
135.4900, 122.3783
135.9721, 123.6829
136.4542, 124.6754
136.9363, 124.9643
137.4184, 124.5832
137.9006, 124.2030
138.3827, 123.8640
138.8648, 123.4883
139.3469, 123.0304
139.8290, 122.4974
140.3111, 121.9059
140.7933, 121.1583
141.2754, 120.3417
141.7575, 119.9977
142.2396, 120.7131
142.7217, 121.6402
143.2038, 121.7084
143.6860, 120.6610
144.1681, 119.6364
144.6502, 119.9785
145.1323, 121.1167
145.6144, 121.7689
146.0965, 120.9798
146.5787, 119.2555
147.0608, 118.1869
147.5429, 118.0246
148.0250, 118.3607
148.5071, 119.1956
148.9892, 120.3197
149.4714, 121.1754
149.9535, 121.2094
150.4356, 120.3514
150.9177, 119.6065
151.3998, 118.9561
151.8819, 118.4545
152.3641, 118.1638
152.8462, 118.0665
153.3283, 118.0862
153.8104, 118.2127
154.2925, 118.7002
154.7746, 118.5247
155.2568, 117.1977
155.7389, 115.7072
156.2210, 114.7127
156.7031, 114.3278
157.1852, 114.1639
157.6673, 113.5966
158.1495, 112.0780
158.6316, 111.1167
159.1137, 111.0360
159.5958, 111.3473
160.0779, 111.6201
160.5600, 111.7145
161.0422, 111.6386
161.5243, 111.3440
162.0064, 110.6311
162.4885, 110.1757
162.9706, 110.3439
163.4527, 110.8619
163.9349, 111.2414
164.4170, 111.3645
164.8991, 111.1285
165.3812, 110.2904
165.8633, 108.6098
166.3454, 107.0892
166.8276, 106.3554
167.3097, 106.3321
167.7918, 106.4180
168.2739, 106.3955
168.7560, 106.3820
169.2381, 106.5170
169.7203, 106.8355
170.2024, 107.2326
170.6845, 107.6023
171.1666, 107.9319
171.6487, 108.3015
172.1308, 108.8073
172.6130, 109.3303
173.0951, 109.8174
173.5772, 110.2687
174.0593, 110.5910
174.5414, 110.5029
175.0235, 109.5379
175.5057, 109.1800
175.9878, 109.9224
176.4699, 111.2075
176.9520, 112.6209
177.4341, 113.9901
177.9162, 115.2393
178.3984, 116.1427
178.8805, 116.4515
179.3626, 116.6861
179.8447, 116.8487
180.3268, 116.9998
180.8089, 117.1694
181.2911, 117.3625
181.7732, 117.6264
182.2553, 118.2538
182.7374, 119.8673
183.2195, 121.1632
183.7016, 121.6952
184.1838, 121.7444
184.6659, 121.8794
185.1480, 122.4970
185.6301, 123.4950
186.1122, 123.7966
186.5943, 122.6302
187.0764, 121.7163
187.5586, 121.8268
188.0407, 122.7797
188.5228, 123.9372
189.0049, 124.9423
189.4870, 125.7795
189.9691, 126.5022
190.4513, 127.1331
190.9334, 127.6399
191.4155, 127.9726
191.8976, 128.1364
192.3797, 128.2040
192.8618, 127.9985
193.3440, 127.7813
193.8261, 128.2438
194.3082, 130.2267
194.7903, 132.4087
195.2724, 133.2267
195.7545, 132.4955
196.2367, 131.6221
196.7188, 131.6827
197.2009, 132.1260
197.6830, 132.1966
198.1651, 131.4570
198.6472, 130.3674
199.1294, 129.6503
199.6115, 129.2730
200.0936, 129.4051
200.5757, 130.6467
201.0578, 132.2637
201.5399, 133.2876
202.0221, 133.1100
202.5042, 132.1495
202.9863, 131.6291
203.4684, 131.7441
203.9505, 132.0253
204.4326, 132.3205
204.9148, 132.6544
205.3969, 133.0994
205.8790, 133.7456
206.3611, 134.4995
206.8432, 134.8942
207.3253, 134.7486
207.8075, 134.4052
208.2896, 134.0648
208.7717, 133.5710
209.2538, 132.6611
209.7359, 131.1475
210.2180, 129.0875
210.7002, 127.0651
211.1823, 125.0609
211.6644, 123.1178
212.1465, 121.1951
212.6286, 119.3444
213.1107, 117.7110
213.5929, 116.4354
214.0750, 115.4552
214.5571, 113.8750
215.0392, 110.7080
215.5213, 108.0282
216.0034, 106.6498
216.4856, 106.2314
216.9677, 105.9535
217.4498, 105.2305
217.9319, 104.1483
218.4140, 103.8829
218.8961, 105.5313
219.3783, 106.7025
219.8604, 106.1259
220.3425, 104.2287
220.8246, 102.3606
221.3067, 101.3477
221.7888, 101.1248
222.2710, 100.9711
222.7531, 100.6897
223.2352, 100.6440
223.7173, 101.3610
224.1994, 102.6237
224.6815, 103.3357
225.1637, 102.5686
225.6458, 100.7983
226.1279, 99.98743
226.6100, 100.9087
227.0921, 102.0032
227.5742, 102.1671
228.0564, 101.4800
228.5385, 100.7684
229.0206, 100.4622
229.5027, 100.4427
229.9848, 100.4141
230.4669, 100.3471
230.9491, 100.2849
231.4312, 100.1980
231.9133, 100.0840
232.3954, 100.2045
232.8775, 101.0539
233.3596, 102.0217
233.8418, 102.2860
234.3239, 101.5917
234.8060, 100.4856
235.2881, 99.40176
235.7702, 98.30992
236.2523, 97.52819
236.7345, 97.37096
237.2166, 97.50716
237.6987, 97.75487
238.1808, 98.13412
238.6629, 98.36831
239.1451, 97.93990
239.6272, 96.64511
240.1093, 95.77574
240.5914, 96.18285
241.0735, 96.91178
241.5556, 97.32153
242.0378, 97.25758
242.5199, 96.98990
243.0020, 96.85705
243.4841, 96.89214
243.9662, 96.94346
244.4483, 97.08621
244.9305, 97.16853
245.4126, 97.02420
245.8947, 96.63281
246.3768, 96.21062
246.8589, 96.12986
247.3410, 96.61757
247.8231, 96.72324
248.3053, 95.74758
248.7874, 94.82255
249.2695, 94.90163
249.7516, 96.03155
250.2337, 97.26011
250.7158, 97.16615
251.1980, 94.99246
251.6801, 93.55952
252.1622, 93.34820
252.6443, 93.45749
253.1264, 93.32614
253.6085, 92.91679
254.0907, 92.61765
254.5728, 93.00178
255.0549, 94.50506
255.5370, 95.34768
256.0191, 95.24979
256.5013, 94.84892
256.9834, 94.33318
257.4655, 93.80553
257.9476, 93.41453
258.4297, 93.35934
258.9118, 93.78635
259.3940, 93.94041
259.8761, 93.61121
260.3582, 93.25021
260.8403, 92.94376
261.3224, 92.78508
261.8045, 93.03533
262.2867, 94.10433
262.7688, 96.33169
263.2509, 96.88731
263.7330, 94.23585
264.2151, 91.70814
264.6972, 91.03177
265.1794, 91.97098
265.6615, 93.18594
266.1436, 93.58226
266.6257, 93.11691
267.1078, 92.82134
267.5899, 92.90091
268.0721, 92.91048
268.5542, 92.46122
269.0363, 91.74455
269.5184, 91.34585
270.0005, 91.73183
270.4826, 92.82928
270.9648, 93.51383
271.4469, 93.58508
271.9290, 93.55485
272.4111, 93.66008
272.8932, 93.81607
273.3753, 93.77795
273.8575, 93.37367
274.3396, 92.68820
274.8217, 92.16486
275.3038, 91.73428
275.7859, 91.49453
276.2680, 91.71263
276.7502, 92.13918
277.2323, 92.17761
277.7144, 91.46227
278.1965, 90.35007
278.6786, 89.97237
279.1607, 90.69652
279.6428, 91.30602
280.1249, 91.30912
280.6071, 90.99699
281.0892, 90.95100
281.5713, 91.43571
282.0534, 92.11160
282.5355, 92.24836
283.0176, 91.70597
283.4998, 91.25350
283.9819, 91.03367
284.4640, 91.03019
284.9461, 91.38183
285.4282, 92.22010
285.9103, 92.94309
286.3925, 92.38668
286.8746, 90.38155
287.3567, 89.07926
287.8388, 89.23057
288.3209, 90.19527
288.8030, 91.39795
289.2852, 92.82075
289.7673, 93.79617
290.2494, 93.18534
290.7315, 91.10168
291.2136, 89.86768
291.6957, 90.51253
292.1779, 91.80612
292.6600, 92.37144
293.1421, 92.06219
293.6242, 91.65576
294.1063, 91.80527
294.5884, 92.41567
295.0706, 92.92083
295.5527, 93.62045
296.0348, 93.94918
296.5169, 93.03489
296.9990, 90.93366
297.4811, 89.20795
297.9633, 88.99316
298.4454, 89.90168
298.9275, 90.50560
299.4096, 90.51690
299.8917, 90.48939
300.3738, 90.87473
300.8560, 91.61246
301.3381, 92.28860
301.8202, 92.78148
302.3023, 93.03117
302.7844, 92.95958
303.2665, 92.43044
303.7487, 91.91515
304.2308, 91.81947
304.7129, 91.98946
305.1950, 91.77650
305.6771, 90.71272
306.1592, 89.56229
306.6414, 89.55459
307.1235, 90.79349
307.6056, 91.90783
308.0877, 92.20193
308.5698, 91.95031
309.0519, 91.77730
309.5341, 91.81565
310.0162, 91.94202
310.4983, 92.03277
310.9804, 92.09351
311.4625, 92.14932
311.9446, 92.24573
312.4268, 92.32873
312.9089, 92.39429
313.3910, 92.49306
313.8731, 92.28939
314.3552, 91.04501
314.8373, 89.18951
315.3195, 88.15197
315.8016, 88.76831
316.2837, 90.00735
316.7658, 90.82396
317.2479, 91.19307
317.7300, 91.38207
318.2122, 91.57153
318.6943, 91.67059
319.1764, 91.47369
319.6585, 90.74349
320.1406, 89.99489
320.6227, 89.56557
321.1049, 89.44655
321.5870, 89.64632
322.0691, 90.46277
322.5512, 91.33452
323.0333, 91.19888
323.5154, 89.70576
323.9976, 88.35647
324.4797, 87.97195
324.9618, 88.36683
325.4439, 89.07518
325.9260, 90.14767
326.4081, 91.15714
326.8903, 91.45242
327.3724, 91.04813
327.8545, 90.67313
328.3366, 90.74906
328.8187, 90.97108
329.3008, 90.71227
329.7830, 89.76942
330.2651, 88.86794
330.7472, 88.87174
331.2293, 89.60310
331.7114, 90.11087
332.1935, 90.19299
332.6757, 89.99068
333.1578, 89.46670
333.6399, 88.62456
334.1220, 88.09873
334.6041, 88.48995
335.0862, 89.53030
335.5684, 90.12443
336.0505, 90.05131
336.5326, 89.72099
337.0147, 89.18285
337.4968, 88.53767
337.9789, 88.30154
338.4611, 88.85236
338.9432, 89.80363
339.4253, 90.30473
339.9074, 90.28452
340.3895, 90.08488
340.8716, 89.69673
341.3538, 89.23684
341.8359, 88.93381
342.3180, 88.85170
342.8001, 88.94080
343.2822, 89.22644
343.7643, 89.75344
344.2465, 90.03660
344.7286, 89.84221
345.2107, 89.43176
345.6928, 89.04013
346.1749, 88.70162
346.6570, 88.47801
347.1392, 88.43106
347.6213, 88.57935
348.1034, 88.80513
348.5855, 89.36100
349.0676, 89.78411
349.5497, 89.71379
350.0319, 89.21235
350.5140, 88.60303
350.9961, 88.04634
351.4782, 87.54731
351.9603, 87.12563
352.4424, 86.34937
352.9246, 86.13258
353.4067, 87.41407
353.8888, 89.34898
354.3709, 90.29644
354.8530, 89.56567
355.3351, 87.98734
355.8173, 87.12729
356.2994, 87.26595
356.7815, 87.46616
357.2636, 87.73547
357.7457, 87.98528
358.2278, 88.06947
358.7100, 87.98331
359.1921, 87.95394
359.6742, 88.28341
360.1563, 89.10065
360.6384, 89.42007
361.1205, 88.86651
361.6027, 88.21101
362.0848, 87.87928
362.5669, 87.81826
363.0490, 87.72581
363.5311, 87.37413
364.0132, 86.82396
364.4954, 86.58999
364.9775, 86.90015
365.4596, 87.23378
365.9417, 87.63550
366.4238, 87.95698
366.9059, 87.94414
367.3881, 87.49587
367.8702, 86.84194
368.3523, 86.46543
368.8344, 86.69832
369.3165, 86.66849
369.7986, 86.01390
370.2808, 85.36894
370.7629, 85.31396
371.2450, 85.85546
371.7271, 86.49535
372.2092, 86.70467
372.6913, 86.44204
373.1735, 86.00939
373.6556, 85.01462
374.1377, 84.25234
374.6198, 84.07121
375.1019, 84.34595
375.5840, 84.83506
376.0662, 85.42079
376.5483, 86.02718
377.0304, 86.27231
377.5125, 85.96386
377.9946, 85.53757
378.4767, 84.85256
378.9589, 84.19685
379.4410, 83.87402
379.9231, 83.97915
380.4052, 84.33785
380.8873, 84.72123
381.3694, 85.16898
381.8516, 85.50313
382.3337, 85.72209
382.8158, 85.81444
383.2979, 85.74073
383.7800, 85.51914
384.2621, 85.21213
384.7443, 84.77053
385.2264, 84.23509
385.7085, 84.12434
386.1906, 84.69180
386.6727, 85.34458
387.1548, 85.71478
387.6370, 86.03191
388.1191, 86.71958
388.6012, 88.10275
389.0833, 89.65306
389.5654, 90.29501
390.0475, 89.78854
390.5297, 89.47367
391.0118, 89.97430
391.4939, 90.72847
391.9760, 91.28716
392.4581, 91.58585
392.9402, 91.88793
393.4224, 92.42894
393.9045, 93.17131
394.3866, 93.83616
394.8687, 94.21186
395.3508, 94.80648
395.8329, 96.31091
396.3151, 98.41661
396.7972, 100.0892
397.2793, 100.5721
397.7614, 100.5684
398.2435, 101.2338
398.7256, 102.6450
399.2078, 103.7041
399.6899, 103.4100
400.1720, 102.4926
400.6541, 102.6105
401.1362, 104.4279
401.6183, 106.1549
402.1004, 106.5068
402.5826, 105.9213
403.0647, 105.5451
403.5468, 105.6515
404.0289, 106.2770
404.5110, 107.7061
404.9931, 110.0113
405.4753, 112.0627
405.9574, 113.4908
406.4395, 114.6707
406.9216, 116.0314
407.4037, 117.5811
407.8858, 118.8815
408.3680, 119.4919
408.8501, 119.5026
409.3322, 120.0561
409.8143, 120.8346
410.2964, 122.4050
410.7785, 125.5137
411.2607, 129.4521
411.7428, 133.1222
412.2249, 136.0647
412.7070, 138.3771
413.1891, 140.2518
413.6712, 141.8786
414.1534, 142.5719
414.6355, 142.2764
415.1176, 141.1378
415.5997, 139.1637
416.0818, 136.4177
416.5639, 133.0603
417.0461, 129.2111
417.5282, 124.8764
418.0103, 120.2162
418.4924, 114.3134
418.9745, 109.1052
419.4566, 105.2343
419.9388, 102.2444
420.4209, 99.39195
420.9030, 96.36162
421.3851, 93.54121
421.8672, 91.82613
422.3493, 91.59902
422.8315, 91.50738
423.3136, 91.86878
423.7957, 91.96519
424.2778, 91.14829
424.7599, 89.52405
425.2420, 87.87278
425.7242, 86.74685
426.2063, 86.14124
426.6884, 86.13138
427.1705, 87.11359
427.6526, 88.03531
428.1347, 88.45196
428.6169, 88.52885
429.0990, 88.44904
429.5811, 88.20394
430.0632, 88.00121
430.5453, 88.27881
431.0274, 89.05637
431.5096, 89.32384
431.9917, 88.47185
432.4738, 87.30684
432.9559, 86.71018
433.4380, 86.67547
433.9201, 86.69493
434.4023, 86.55184
434.8844, 86.29933
435.3665, 85.91117
435.8486, 85.33488
436.3307, 85.10777
436.8128, 85.85011
437.2950, 87.28660
437.7771, 88.19046
438.2592, 88.30396
438.7413, 88.12373
439.2234, 87.93369
439.7055, 87.65304
440.1877, 87.02316
440.6698, 85.90623
441.1519, 84.59836
441.6340, 83.55843
442.1161, 82.85423
442.5982, 82.25182
443.0804, 81.52433
443.5625, 81.05861
444.0446, 81.21352
444.5267, 81.94207
445.0088, 82.97229
445.4909, 84.18393
445.9731, 85.49186
446.4552, 86.08032
446.9373, 85.19730
447.4194, 84.48939
447.9015, 84.42366
448.3836, 84.54589
448.8658, 84.15099
449.3479, 83.09697
449.8300, 82.12642
450.3121, 82.49859
450.7942, 84.80174
451.2763, 86.23479
451.7585, 86.28214
452.2406, 85.91212
452.7227, 85.05042
453.2048, 84.06197
453.6869, 83.69878
454.1690, 84.57172
454.6512, 86.11788
455.1333, 86.79832
455.6154, 86.24721
456.0975, 85.92229
456.5796, 86.64370
457.0617, 87.55895
457.5439, 87.93370
458.0260, 87.66805
458.5081, 87.45195
458.9902, 87.86943
459.4723, 88.76745
459.9544, 89.65286
460.4366, 90.54712
460.9187, 91.22869
461.4008, 91.29430
461.8829, 91.01351
462.3650, 91.05833
462.8471, 91.69305
463.3293, 92.52959
463.8114, 93.55483
464.2935, 94.59718
464.7756, 94.84214
465.2577, 93.75911
465.7398, 92.35872
466.2220, 92.59399
466.7041, 95.09451
467.1862, 96.51579
467.6683, 95.17153
468.1504, 93.56027
468.6325, 94.09328
469.1147, 96.54139
469.5968, 98.84772
470.0789, 99.55563
470.5610, 98.89098
471.0431, 98.36907
471.5252, 97.91851
472.0074, 97.70589
472.4895, 97.75991
472.9716, 98.05582
473.4537, 98.76281
473.9358, 99.82423
474.4179, 100.7095
474.9001, 100.6193
475.3822, 99.34805
475.8643, 98.82604
476.3464, 99.93428
476.8285, 100.8762
477.3106, 100.9955
477.7928, 100.5841
478.2749, 100.1006
478.7570, 99.70654
479.2391, 99.48106
479.7212, 99.63036
480.2033, 100.2096
480.6855, 100.7152
481.1676, 101.2578
481.6497, 101.4508
482.1318, 100.7549
482.6139, 99.30862
483.0960, 98.19954
483.5782, 98.17984
484.0603, 98.71138
484.5424, 98.95452
485.0245, 98.87369
485.5066, 98.74968
485.9887, 98.66874
486.4709, 98.68990
486.9530, 98.95664
487.4351, 99.58334
487.9172, 100.1865
488.3993, 100.7921
488.8814, 101.2370
489.3636, 101.1094
489.8457, 100.3786
490.3278, 99.78062
490.8099, 100.1116
491.2920, 101.4343
491.7741, 102.0715
492.2563, 101.4858
492.7384, 100.9494
493.2205, 101.0126
493.7026, 101.3072
494.1847, 101.1457
494.6668, 100.3041
495.1490, 99.41904
495.6311, 99.61272
496.1132, 101.3600
496.5953, 102.6464
497.0774, 103.3685
497.5595, 103.7155
498.0417, 103.5307
498.5238, 103.0332
499.0059, 102.6134
499.4880, 102.4225
499.9701, 102.5279
500.4522, 103.1567
500.9344, 104.4017
501.4165, 105.6067
501.8986, 106.7925
502.3807, 107.6641
502.8628, 107.8404
503.3449, 107.3474
503.8271, 106.8866
504.3092, 106.7517
504.7913, 106.8695
505.2734, 107.2037
505.7555, 107.7498
506.2376, 108.2573
506.7198, 108.6197
507.2019, 108.8181
507.6840, 108.8000
508.1661, 108.5162
508.6482, 108.1477
509.1303, 107.7904
509.6125, 107.3482
510.0946, 106.6880
510.5767, 105.8013
511.0588, 104.7814
511.5409, 103.6618
512.0230, 102.4455
512.5051, 101.6830
512.9872, 101.9991
513.4694, 102.0262
513.9515, 101.1095
514.4336, 99.95260
514.9157, 99.44289
515.3978, 99.80324
515.8799, 100.4281
516.3621, 100.6277
516.8442, 100.3928
517.3263, 99.77174
517.8084, 98.27881
518.2905, 97.02898
518.7726, 96.61795
519.2548, 96.73080
519.7369, 96.82421
520.2190, 96.67451
520.7011, 96.55359
521.1832, 96.80765
521.6653, 97.39221
522.1475, 97.96984
522.6296, 98.47794
523.1117, 98.92696
523.5938, 99.40242
524.0759, 99.87722
524.5580, 100.0142
525.0402, 99.46505
525.5223, 98.81728
526.0044, 98.49963
526.4865, 98.43464
526.9686, 98.37708
527.4507, 98.23022
527.9329, 97.98290
528.4150, 97.57830
528.8971, 96.75166
529.3792, 96.42402
529.8613, 96.93179
530.3434, 97.59293
530.8256, 98.16644
531.3077, 98.57118
531.7898, 98.73045
532.2719, 98.59112
532.7540, 98.21236
533.2361, 97.74182
533.7183, 97.17740
534.2004, 96.51991
534.6825, 95.12153
535.1646, 94.15145
535.6467, 94.75330
536.1288, 96.60082
536.6110, 98.04125
537.0931, 97.81724
537.5752, 96.70814
538.0573, 96.11594
538.5394, 96.05406
539.0215, 96.19315
539.5037, 96.51377
539.9858, 96.85693
540.4679, 96.97463
540.9500, 96.87086
541.4321, 96.59974
541.9142, 95.95281
542.3964, 95.29421
542.8785, 94.92814
543.3606, 94.89172
543.8427, 95.23779
544.3248, 96.06944
544.8069, 97.18474
545.2891, 97.82722
545.7712, 97.21723
546.2533, 97.21397
546.7354, 98.37833
547.2175, 99.76308
547.6996, 100.7757
548.1818, 101.3221
548.6639, 101.5172
549.1460, 101.3993
549.6281, 101.0266
550.1102, 100.5794
550.5923, 99.88923
551.0745, 99.55626
551.5566, 100.1961
552.0387, 100.9982
552.5208, 101.1944
553.0029, 100.7499
553.4850, 100.5347
553.9672, 101.2436
554.4493, 102.4426
554.9314, 103.3893
555.4135, 104.0455
555.8956, 104.5523
556.3777, 104.9410
556.8599, 105.2630
557.3420, 105.7079
557.8241, 106.5574
558.3062, 106.8718
558.7883, 105.7565
559.2704, 104.5177
559.7526, 104.5059
560.2347, 105.6420
560.7168, 106.8978
561.1989, 107.5444
561.6810, 107.6848
562.1631, 107.7651
562.6453, 107.6836
563.1274, 107.7168
563.6095, 108.1332
564.0916, 108.4744
564.5737, 108.2923
565.0558, 107.6599
565.5380, 107.0980
566.0201, 106.9296
566.5022, 107.1177
566.9843, 107.7066
567.4664, 108.8091
567.9485, 109.5903
568.4307, 109.6366
568.9128, 109.2697
569.3949, 108.8426
569.8770, 108.3161
570.3591, 108.1542
570.8412, 108.7815
571.3234, 109.6627
571.8055, 110.3852
572.2876, 110.8757
572.7697, 110.9566
573.2518, 110.4934
573.7339, 109.6658
574.2161, 108.8997
574.6982, 107.6860
575.1803, 107.4881
575.6624, 109.4846
576.1445, 111.3969
576.6266, 111.6086
577.1088, 110.5339
577.5909, 109.5445
578.0730, 109.4532
578.5551, 109.9187
579.0372, 110.1882
579.5193, 110.2059
580.0015, 110.3644
580.4836, 111.0915
580.9657, 111.5960
581.4478, 111.0127
581.9299, 109.6316
582.4120, 108.7266
582.8942, 109.1775
583.3763, 109.9595
583.8584, 109.8968
584.3405, 109.2711
584.8226, 109.2385
585.3047, 110.2734
585.7869, 111.6418
586.2690, 112.3131
586.7511, 112.0874
587.2332, 112.1226
587.7153, 112.9449
588.1974, 113.4489
588.6796, 112.7563
589.1617, 111.5571
589.6438, 111.0281
590.1259, 111.5849
590.6080, 112.5547
591.0901, 112.9752
591.5723, 112.7783
592.0544, 112.6505
592.5365, 112.3532
593.0186, 112.5088
593.5007, 114.0007
593.9828, 115.8888
594.4650, 116.6446
594.9471, 115.6613
595.4292, 114.4567
595.9113, 114.0729
596.3934, 114.3375
596.8755, 114.9701
597.3577, 115.9422
597.8398, 116.9067
598.3219, 117.6658
598.8040, 118.1892
599.2861, 118.2486
599.7682, 117.2084
600.2504, 116.6221
600.7325, 116.8890
601.2146, 117.6097
601.6967, 118.5713
602.1788, 119.6425
602.6609, 120.5709
603.1431, 121.1117
603.6252, 121.3834
604.1073, 121.8767
604.5894, 122.6045
605.0715, 123.5240
605.5536, 124.8621
606.0358, 126.2179
606.5179, 127.3002
607.0000, 128.1089
607.4821, 128.8296
607.9642, 129.3917
608.4464, 130.0104
608.9285, 131.1351
609.4106, 132.6384
609.8927, 133.6672
610.3748, 133.8116
610.8569, 133.6228
611.3391, 133.8702
611.8212, 134.5702
612.3033, 135.7652
612.7854, 138.0950
613.2675, 140.2184
613.7496, 141.3256
614.2318, 141.8929
614.7139, 142.7724
615.1960, 144.2652
615.6781, 145.9095
616.1602, 147.1713
616.6423, 148.0567
617.1245, 148.3583
617.6066, 147.6819
618.0887, 147.1104
618.5708, 147.0412
619.0529, 147.4490
619.5350, 148.4958
620.0172, 150.4344
620.4993, 152.0618
620.9814, 152.4913
621.4635, 152.2672
621.9456, 152.2656
622.4277, 152.5532
622.9099, 152.6791
623.3920, 152.3277
