##NAMES=Gahnite
##RRUFFID=R070591
##IDEAL CHEMISTRY=Zn^2+^Al_2_O_4_
##LOCALITY=Jemaa, Kaduna, Nigeria
##OWNER=RRUFF
##SOURCE=James Shigley
##DESCRIPTION=Blue octahedron
##STATUS=The identification of this mineral is confirmed by single-crystal X-ray diffraction and chemical analysis.
##URL=rruff.info/R070591
##MEASURED CHEMISTRY=(Zn_0.91_Fe_0.08_Mg_0.01_)_Σ=1.00_(Al_1.99_Fe_0.01_)_Σ=2.00_O_4_
145.0299, 6099.972
145.5120, 6068.263
145.9942, 6053.715
146.4763, 6082.201
146.9584, 6221.841
147.4405, 6321.289
147.9226, 6339.016
148.4047, 6237.793
148.8869, 6171.328
149.3690, 6160.095
149.8511, 6180.320
150.3332, 6191.214
150.8153, 6190.129
151.2974, 6181.969
151.7796, 6167.193
152.2617, 6126.661
152.7438, 6106.453
153.2259, 6127.717
153.7080, 6177.304
154.1901, 6201.961
154.6722, 6187.518
155.1544, 6149.774
155.6365, 6098.875
156.1186, 5998.803
156.6007, 5922.916
157.0828, 5897.044
157.5649, 5920.759
158.0471, 5945.428
158.5292, 5971.277
159.0113, 5986.419
159.4934, 5978.262
159.9755, 5894.905
160.4576, 5826.300
160.9398, 5823.859
161.4219, 5907.109
161.9040, 5980.794
162.3861, 5999.710
162.8682, 5982.415
163.3503, 5961.783
163.8325, 5959.055
164.3146, 5953.792
164.7967, 5929.178
165.2788, 5871.017
165.7609, 5814.089
166.2430, 5776.343
166.7252, 5755.944
167.2073, 5746.810
167.6894, 5755.930
168.1715, 5770.710
168.6536, 5777.993
169.1357, 5773.805
169.6179, 5760.922
170.1000, 5729.723
170.5821, 5682.914
171.0642, 5655.813
171.5463, 5711.389
172.0284, 5800.542
172.5106, 5839.979
172.9927, 5749.715
173.4748, 5615.650
173.9569, 5532.754
174.4390, 5506.566
174.9211, 5511.136
175.4033, 5529.621
175.8854, 5561.161
176.3675, 5603.120
176.8496, 5663.180
177.3317, 5731.440
177.8138, 5788.046
178.2959, 5828.067
178.7781, 5865.708
179.2602, 5930.526
179.7423, 6016.382
180.2244, 6079.618
180.7065, 6076.517
181.1886, 6029.176
181.6708, 5997.383
182.1529, 5994.918
182.6350, 6008.978
183.1171, 6014.338
183.5992, 6011.095
184.0813, 6017.241
184.5635, 6060.722
185.0456, 6131.781
185.5277, 6180.727
186.0098, 6176.530
186.4919, 6146.498
186.9740, 6188.667
187.4562, 6315.715
187.9383, 6429.186
188.4204, 6377.394
188.9025, 6177.649
189.3846, 6040.489
189.8667, 6080.101
190.3489, 6264.491
190.8310, 6385.167
191.3131, 6429.129
191.7952, 6449.683
192.2773, 6530.716
192.7594, 6674.342
193.2416, 6822.276
193.7237, 6968.114
194.2058, 7108.211
194.6879, 7163.734
195.1700, 7115.641
195.6521, 6998.936
196.1343, 6879.284
196.6164, 6757.297
197.0985, 6636.847
197.5806, 6519.970
198.0627, 6406.196
198.5448, 6303.970
199.0270, 6219.189
199.5091, 6144.392
199.9912, 6044.688
200.4733, 5910.616
200.9554, 5789.718
201.4375, 5729.718
201.9196, 5739.831
202.4018, 5749.952
202.8839, 5750.043
203.3660, 5739.929
203.8481, 5710.822
204.3302, 5652.292
204.8123, 5596.453
205.2945, 5583.274
205.7766, 5625.699
206.2587, 5658.277
206.7408, 5663.175
207.2229, 5640.095
207.7050, 5605.257
208.1872, 5550.160
208.6693, 5494.369
209.1514, 5466.093
209.6335, 5471.376
210.1156, 5486.467
210.5977, 5507.125
211.0799, 5537.127
211.5620, 5549.293
212.0441, 5534.021
212.5262, 5507.800
213.0083, 5509.127
213.4904, 5553.387
213.9726, 5590.132
214.4547, 5592.979
214.9368, 5548.173
215.4189, 5512.663
215.9010, 5486.220
216.3831, 5470.464
216.8653, 5472.453
217.3474, 5501.211
217.8295, 5531.916
218.3116, 5551.143
218.7937, 5556.609
219.2758, 5556.490
219.7580, 5551.219
220.2401, 5540.863
220.7222, 5522.294
221.2043, 5481.495
221.6864, 5451.954
222.1685, 5462.396
222.6507, 5537.646
223.1328, 5596.178
223.6149, 5619.487
224.0970, 5610.098
224.5791, 5621.104
225.0612, 5663.667
225.5434, 5714.028
226.0255, 5751.432
226.5076, 5772.335
226.9897, 5786.586
227.4718, 5797.521
227.9539, 5805.741
228.4361, 5798.110
228.9182, 5765.443
229.4003, 5724.947
229.8824, 5695.620
230.3645, 5678.409
230.8466, 5671.312
231.3288, 5677.009
231.8109, 5699.832
232.2930, 5712.685
232.7751, 5712.564
233.2572, 5704.609
233.7393, 5695.558
234.2215, 5681.938
234.7036, 5673.512
235.1857, 5677.766
235.6678, 5707.282
236.1499, 5707.878
236.6320, 5664.906
237.1142, 5599.730
237.5963, 5551.714
238.0784, 5524.891
238.5605, 5509.851
239.0426, 5502.821
239.5247, 5502.007
240.0069, 5514.343
240.4890, 5549.666
240.9711, 5595.837
241.4532, 5620.287
241.9353, 5613.494
242.4174, 5597.895
242.8996, 5583.260
243.3817, 5568.924
243.8638, 5556.249
244.3459, 5541.657
244.8280, 5528.675
245.3101, 5533.538
245.7922, 5570.898
246.2744, 5606.567
246.7565, 5619.096
247.2386, 5593.119
247.7207, 5577.347
248.2028, 5580.617
248.6849, 5598.675
249.1671, 5603.765
249.6492, 5591.070
250.1313, 5572.244
250.6134, 5556.358
251.0955, 5550.337
251.5776, 5531.317
252.0598, 5488.988
252.5419, 5427.021
253.0240, 5389.030
253.5061, 5381.958
253.9882, 5390.554
254.4703, 5402.532
254.9525, 5414.284
255.4346, 5439.307
255.9167, 5491.354
256.3988, 5568.516
256.8809, 5595.856
257.3630, 5548.333
257.8452, 5482.850
258.3273, 5454.870
258.8094, 5479.989
259.2915, 5504.771
259.7736, 5521.652
260.2557, 5530.829
260.7379, 5520.835
261.2200, 5479.373
261.7021, 5434.811
262.1842, 5421.535
262.6663, 5455.248
263.1484, 5477.984
263.6306, 5470.633
264.1127, 5431.348
264.5948, 5409.404
265.0769, 5405.864
265.5590, 5418.167
266.0411, 5451.762
266.5233, 5522.387
267.0054, 5564.529
267.4875, 5546.906
267.9696, 5464.142
268.4517, 5427.209
268.9338, 5452.189
269.4160, 5501.193
269.8981, 5522.956
270.3802, 5509.487
270.8623, 5496.574
271.3444, 5497.104
271.8265, 5512.224
272.3087, 5521.719
272.7908, 5524.645
273.2729, 5523.391
273.7550, 5520.113
274.2371, 5513.771
274.7192, 5510.651
275.2014, 5514.628
275.6835, 5526.290
276.1656, 5535.636
276.6477, 5544.457
277.1298, 5548.167
277.6119, 5533.295
278.0940, 5495.729
278.5761, 5469.568
279.0583, 5479.260
279.5404, 5525.823
280.0225, 5538.486
280.5046, 5507.853
280.9867, 5461.015
281.4688, 5439.801
281.9510, 5444.683
282.4331, 5464.548
282.9152, 5512.813
283.3973, 5584.734
283.8794, 5592.959
284.3615, 5518.149
284.8437, 5417.938
285.3258, 5391.708
285.8079, 5440.318
286.2900, 5494.519
286.7721, 5521.565
287.2542, 5524.538
287.7364, 5519.152
288.2185, 5504.297
288.7006, 5486.135
289.1827, 5474.703
289.6648, 5469.720
290.1469, 5464.509
290.6291, 5450.105
291.1112, 5431.475
291.5933, 5430.585
292.0754, 5452.473
292.5575, 5481.460
293.0396, 5491.934
293.5218, 5486.799
294.0039, 5488.717
294.4860, 5518.283
294.9681, 5564.035
295.4502, 5597.650
295.9323, 5616.950
296.4145, 5622.074
296.8966, 5603.003
297.3787, 5565.684
297.8608, 5536.159
298.3429, 5541.269
298.8250, 5561.992
299.3072, 5559.655
299.7893, 5525.892
300.2714, 5487.047
300.7535, 5468.795
301.2356, 5469.330
301.7177, 5482.642
302.1999, 5508.848
302.6820, 5544.661
303.1641, 5593.464
303.6462, 5662.467
304.1283, 5716.283
304.6104, 5703.527
305.0926, 5646.189
305.5747, 5601.866
306.0568, 5622.229
306.5389, 5660.718
307.0210, 5664.207
307.5031, 5618.821
307.9853, 5570.852
308.4674, 5547.228
308.9495, 5546.931
309.4316, 5567.788
309.9137, 5639.450
310.3958, 5713.045
310.8780, 5744.900
311.3601, 5719.041
311.8422, 5692.491
312.3243, 5707.918
312.8064, 5744.910
313.2885, 5766.423
313.7707, 5729.139
314.2528, 5690.451
314.7349, 5693.833
315.2170, 5758.482
315.6991, 5805.711
316.1812, 5781.919
316.6634, 5722.336
317.1455, 5682.283
317.6276, 5693.165
318.1097, 5717.937
318.5918, 5744.386
319.0739, 5774.676
319.5561, 5791.816
320.0382, 5778.465
320.5203, 5752.105
321.0024, 5737.158
321.4845, 5740.844
321.9666, 5755.562
322.4488, 5781.793
322.9308, 5823.283
323.4130, 5860.541
323.8951, 5907.359
324.3772, 5943.671
324.8593, 5944.486
325.3414, 5850.274
325.8235, 5774.893
326.3057, 5750.908
326.7878, 5793.287
327.2699, 5829.010
327.7520, 5853.143
328.2341, 5872.302
328.7162, 5893.972
329.1984, 5930.774
329.6805, 5954.774
330.1626, 5962.639
330.6447, 5955.071
331.1268, 5921.301
331.6089, 5837.855
332.0911, 5746.121
332.5732, 5688.729
333.0553, 5671.883
333.5374, 5679.974
334.0195, 5719.544
334.5016, 5791.003
334.9838, 5840.034
335.4659, 5868.508
335.9480, 5872.374
336.4301, 5837.833
336.9122, 5744.499
337.3943, 5681.273
337.8765, 5673.760
338.3586, 5714.707
338.8407, 5744.225
339.3228, 5760.050
339.8049, 5770.054
340.2870, 5784.917
340.7692, 5806.456
341.2513, 5807.699
341.7334, 5771.857
342.2155, 5715.345
342.6976, 5706.694
343.1797, 5751.451
343.6619, 5802.398
344.1440, 5817.842
344.6261, 5801.122
345.1082, 5784.085
345.5903, 5772.517
346.0724, 5764.159
346.5546, 5749.060
347.0367, 5727.573
347.5188, 5717.782
348.0009, 5751.028
348.4830, 5808.577
348.9651, 5828.880
349.4473, 5788.002
349.9294, 5729.231
350.4115, 5720.026
350.8936, 5751.404
351.3757, 5774.038
351.8578, 5728.988
352.3400, 5661.919
352.8221, 5654.089
353.3042, 5740.450
353.7863, 5832.326
354.2684, 5839.753
354.7505, 5785.414
355.2327, 5732.600
355.7148, 5697.587
356.1969, 5689.792
356.6790, 5732.558
357.1611, 5850.204
357.6432, 5943.327
358.1254, 5924.797
358.6075, 5842.686
359.0896, 5785.349
359.5717, 5816.867
360.0538, 5863.305
360.5359, 5880.224
361.0181, 5856.522
361.5002, 5834.009
361.9823, 5816.627
362.4644, 5811.687
362.9465, 5828.874
363.4286, 5905.243
363.9108, 5972.633
364.3929, 6005.473
364.8750, 5997.982
365.3571, 5986.893
365.8392, 5972.650
366.3214, 5959.397
366.8035, 5951.438
367.2856, 5960.054
367.7677, 5961.884
368.2498, 5950.731
368.7319, 5925.694
369.2140, 5903.981
369.6961, 5889.862
370.1783, 5875.404
370.6604, 5852.440
371.1425, 5806.318
371.6246, 5779.128
372.1067, 5782.546
372.5888, 5812.054
373.0710, 5830.716
373.5531, 5836.452
374.0352, 5835.361
374.5173, 5829.172
374.9994, 5814.878
375.4815, 5809.956
375.9637, 5819.027
376.4458, 5837.292
376.9279, 5851.428
377.4100, 5862.185
377.8921, 5866.462
378.3742, 5854.814
378.8564, 5828.339
379.3385, 5828.181
379.8206, 5865.062
380.3027, 5913.785
380.7848, 5925.671
381.2669, 5902.536
381.7491, 5886.706
382.2312, 5903.655
382.7133, 5944.727
383.1954, 5989.606
383.6775, 6038.593
384.1596, 6081.872
384.6418, 6099.765
385.1239, 6100.675
385.6060, 6109.993
386.0881, 6143.249
386.5702, 6189.300
387.0523, 6239.557
387.5345, 6293.952
388.0166, 6340.636
388.4987, 6354.146
388.9808, 6358.081
389.4629, 6387.405
389.9450, 6479.238
390.4272, 6581.050
390.9093, 6656.964
391.3914, 6709.125
391.8735, 6764.887
392.3556, 6819.216
392.8377, 6891.988
393.3199, 6998.985
393.8020, 7187.620
394.2841, 7363.518
394.7662, 7483.807
395.2483, 7564.361
395.7304, 7673.568
396.2126, 7791.727
396.6947, 7966.690
397.1768, 8225.902
397.6589, 8632.771
398.1410, 9032.324
398.6231, 9379.113
399.1053, 9717.316
399.5874, 10150.15
400.0695, 10733.52
400.5516, 11348.37
401.0337, 11966.13
401.5158, 12608.83
401.9980, 13159.78
402.4801, 13598.64
402.9622, 13963.26
403.4443, 14300.73
403.9264, 14602.50
404.4085, 14900.84
404.8907, 15196.24
405.3728, 15493.07
405.8549, 15831.66
406.3370, 16217.76
406.8191, 16637.53
407.3012, 17075.42
407.7834, 17533.80
408.2655, 18020.13
408.7476, 18526.23
409.2297, 19075.05
409.7118, 19687.64
410.1939, 20361.74
410.6761, 21185.70
411.1582, 22246.43
411.6403, 23504.94
412.1224, 24883.75
412.6045, 26368.23
413.0866, 27981.62
413.5687, 29878.75
414.0508, 31999.68
414.5330, 34077.74
415.0151, 36369.26
415.4972, 38353.66
415.9793, 39595.37
416.4614, 40065.02
416.9435, 39605.37
417.4257, 37822.67
417.9078, 35091.41
418.3899, 31979.33
418.8720, 28262.79
419.3541, 24613.49
419.8362, 21331.05
420.3184, 18444.60
420.8005, 15945.13
421.2826, 13964.31
421.7647, 12350.27
422.2468, 11006.79
422.7289, 9981.961
423.2111, 9137.663
423.6932, 8499.817
424.1753, 8049.221
424.6574, 7631.117
425.1395, 7214.950
425.6216, 6859.910
426.1038, 6606.382
426.5859, 6504.970
427.0680, 6397.567
427.5501, 6273.344
428.0322, 6140.655
428.5143, 6021.419
428.9965, 5915.381
429.4786, 5819.144
429.9607, 5727.159
430.4428, 5638.270
430.9249, 5577.189
431.4070, 5552.584
431.8892, 5534.377
432.3713, 5464.838
432.8534, 5347.524
433.3355, 5267.522
433.8176, 5278.002
434.2997, 5341.744
434.7819, 5362.104
435.2640, 5338.767
435.7461, 5300.015
436.2282, 5251.878
436.7103, 5207.828
437.1924, 5201.288
437.6746, 5272.500
438.1567, 5343.583
438.6388, 5315.951
439.1209, 5214.957
439.6030, 5142.365
440.0851, 5193.383
440.5673, 5275.644
441.0494, 5307.237
441.5315, 5255.798
442.0136, 5203.408
442.4957, 5187.732
442.9778, 5192.884
443.4600, 5191.687
443.9421, 5176.110
444.4242, 5153.362
444.9063, 5120.014
445.3884, 5070.751
445.8705, 5041.793
446.3527, 5056.628
446.8348, 5081.476
447.3169, 5086.723
447.7990, 5051.944
448.2811, 5030.030
448.7632, 5035.294
449.2454, 5061.787
449.7275, 5064.178
450.2096, 5029.220
450.6917, 4997.269
451.1738, 5000.428
451.6559, 5045.740
452.1381, 5070.101
452.6202, 5062.764
453.1023, 5041.140
453.5844, 5036.599
454.0665, 5049.003
454.5486, 5070.010
455.0308, 5102.761
455.5129, 5141.314
455.9950, 5159.876
456.4771, 5155.544
456.9592, 5154.228
457.4413, 5196.011
457.9234, 5260.053
458.4055, 5300.757
458.8877, 5290.707
459.3698, 5259.336
459.8519, 5223.628
460.3340, 5186.514
460.8161, 5164.885
461.2982, 5182.037
461.7804, 5211.085
462.2625, 5228.378
462.7446, 5217.604
463.2267, 5216.080
463.7088, 5243.823
464.1909, 5289.706
464.6731, 5329.999
465.1552, 5368.847
465.6373, 5394.064
466.1194, 5398.118
466.6015, 5374.798
467.0836, 5355.321
467.5658, 5341.007
468.0479, 5329.548
468.5300, 5317.046
469.0121, 5295.436
469.4942, 5291.194
469.9763, 5316.585
470.4585, 5363.660
470.9406, 5387.474
471.4227, 5384.570
471.9048, 5370.375
472.3869, 5351.257
472.8690, 5327.959
473.3512, 5310.322
473.8333, 5298.467
474.3154, 5295.125
474.7975, 5315.178
475.2796, 5353.091
475.7617, 5374.203
476.2439, 5339.961
476.7260, 5285.992
477.2081, 5271.739
477.6902, 5298.795
478.1723, 5339.823
478.6544, 5386.622
479.1366, 5429.991
479.6187, 5456.351
480.1008, 5441.122
480.5829, 5431.061
481.0650, 5461.809
481.5471, 5520.940
482.0293, 5563.606
482.5114, 5556.436
482.9935, 5541.672
483.4756, 5540.796
483.9577, 5560.401
484.4398, 5584.492
484.9220, 5610.185
485.4041, 5640.123
485.8862, 5678.629
486.3683, 5736.295
486.8504, 5786.476
487.3326, 5820.170
487.8147, 5838.548
488.2968, 5872.457
488.7789, 5930.415
489.2610, 5985.078
489.7431, 6003.419
490.2253, 5981.853
490.7074, 5999.748
491.1895, 6079.583
491.6716, 6183.104
492.1537, 6231.605
492.6358, 6229.104
493.1180, 6220.839
493.6001, 6222.999
494.0822, 6237.460
494.5643, 6274.467
495.0464, 6335.657
495.5285, 6394.376
496.0107, 6425.318
496.4928, 6439.236
496.9749, 6451.964
497.4570, 6468.560
497.9391, 6486.081
498.4212, 6494.577
498.9034, 6499.866
499.3855, 6527.742
499.8676, 6605.000
500.3497, 6694.718
500.8318, 6777.375
501.3139, 6848.776
501.7961, 6919.818
502.2782, 6998.837
502.7603, 7075.616
503.2424, 7133.076
503.7245, 7152.536
504.2066, 7184.979
504.6887, 7254.636
505.1708, 7355.981
505.6530, 7401.620
506.1351, 7381.508
506.6172, 7332.000
507.0993, 7281.883
507.5814, 7231.140
508.0635, 7149.376
508.5457, 7025.163
509.0278, 6887.032
509.5099, 6784.215
509.9920, 6711.723
510.4741, 6639.165
510.9562, 6548.260
511.4384, 6449.566
511.9205, 6359.750
512.4026, 6278.938
512.8847, 6201.829
513.3668, 6115.984
513.8489, 6035.112
514.3311, 5976.126
514.8132, 5967.548
515.2953, 5952.074
515.7774, 5895.146
516.2595, 5811.365
516.7416, 5745.950
517.2238, 5725.861
517.7059, 5710.393
518.1880, 5684.596
518.6701, 5647.222
519.1522, 5601.488
519.6343, 5530.928
520.1165, 5465.433
520.5986, 5441.126
521.0807, 5474.786
521.5628, 5497.626
522.0449, 5497.231
522.5270, 5477.004
523.0092, 5446.337
523.4913, 5403.593
523.9734, 5362.320
524.4555, 5326.010
524.9376, 5297.214
525.4197, 5290.551
525.9019, 5310.112
526.3840, 5335.969
526.8661, 5348.927
527.3482, 5351.879
527.8303, 5351.233
528.3124, 5347.822
528.7946, 5343.238
529.2767, 5342.055
529.7588, 5342.360
530.2409, 5333.094
530.7230, 5301.188
531.2051, 5263.448
531.6873, 5228.054
532.1694, 5186.321
532.6515, 5168.491
533.1336, 5209.671
533.6157, 5268.021
534.0978, 5280.651
534.5800, 5202.613
535.0621, 5148.633
535.5442, 5152.462
536.0263, 5206.974
536.5084, 5231.669
536.9905, 5221.225
537.4727, 5196.499
537.9548, 5167.154
538.4369, 5133.447
538.9190, 5107.652
539.4011, 5087.529
539.8832, 5085.051
540.3654, 5133.547
540.8475, 5219.310
541.3296, 5288.501
541.8117, 5317.717
542.2938, 5318.303
542.7759, 5291.628
543.2581, 5241.444
543.7402, 5201.523
544.2223, 5196.538
544.7044, 5208.463
545.1865, 5223.702
545.6686, 5245.101
546.1508, 5258.515
546.6329, 5235.533
547.1150, 5206.167
547.5971, 5224.677
548.0792, 5366.596
548.5613, 5473.757
549.0435, 5502.180
549.5256, 5453.849
550.0077, 5425.854
550.4898, 5423.419
550.9719, 5431.477
551.4540, 5439.059
551.9362, 5445.782
552.4183, 5459.928
552.9004, 5482.790
553.3825, 5512.123
553.8646, 5549.346
554.3467, 5592.203
554.8289, 5627.124
555.3110, 5647.337
555.7931, 5656.404
556.2752, 5654.703
556.7573, 5643.538
557.2394, 5634.988
557.7216, 5639.284
558.2037, 5648.502
558.6858, 5655.631
559.1679, 5658.965
559.6500, 5660.349
560.1321, 5649.177
560.6143, 5638.655
561.0964, 5649.862
561.5785, 5723.771
562.0606, 5776.628
562.5427, 5779.465
563.0248, 5737.463
563.5070, 5734.713
563.9891, 5790.670
564.4712, 5850.004
564.9533, 5874.314
565.4354, 5859.956
565.9175, 5860.170
566.3997, 5882.898
566.8818, 5907.980
567.3639, 5897.526
567.8460, 5860.171
568.3281, 5838.941
568.8102, 5857.446
569.2924, 5895.275
569.7744, 5932.621
570.2565, 5967.748
570.7386, 5991.356
571.2208, 5978.656
571.7029, 5964.031
572.1850, 5982.004
572.6671, 6053.480
573.1492, 6104.187
573.6313, 6087.190
574.1135, 6045.601
574.5956, 6032.937
575.0777, 6086.405
575.5598, 6126.159
576.0419, 6135.740
576.5240, 6122.615
577.0062, 6124.822
577.4883, 6151.778
577.9704, 6170.517
578.4525, 6153.335
578.9346, 6101.118
579.4167, 6091.967
579.8989, 6133.456
580.3810, 6181.909
580.8631, 6173.938
581.3452, 6131.069
581.8273, 6125.035
582.3094, 6200.006
582.7916, 6282.573
583.2737, 6281.394
583.7558, 6223.683
584.2379, 6188.536
584.7200, 6227.552
585.2021, 6289.265
585.6843, 6351.396
586.1664, 6414.229
586.6485, 6458.283
587.1306, 6475.714
587.6127, 6475.565
588.0948, 6463.021
588.5770, 6419.424
589.0591, 6398.396
589.5412, 6405.937
590.0233, 6435.196
590.5054, 6479.311
590.9875, 6544.069
591.4697, 6587.170
591.9518, 6578.588
592.4339, 6538.385
592.9160, 6548.529
593.3981, 6609.187
593.8802, 6667.592
594.3624, 6673.103
594.8445, 6652.761
595.3266, 6652.318
595.8087, 6684.989
596.2908, 6715.603
596.7729, 6714.511
597.2551, 6697.798
597.7372, 6688.737
598.2193, 6698.324
598.7014, 6712.613
599.1835, 6733.202
599.6656, 6757.535
600.1478, 6766.263
600.6299, 6738.183
601.1120, 6721.031
601.5941, 6744.129
602.0762, 6819.092
602.5583, 6842.217
603.0405, 6794.718
603.5226, 6741.009
604.0047, 6762.531
604.4868, 6850.045
604.9689, 6917.557
605.4510, 6945.478
605.9332, 6947.937
606.4153, 6936.504
606.8974, 6915.589
607.3795, 6899.063
607.8616, 6886.882
608.3438, 6887.466
608.8259, 6910.348
609.3080, 6955.861
609.7901, 7007.239
610.2722, 7071.242
610.7543, 7130.865
611.2365, 7172.567
611.7186, 7169.991
612.2007, 7193.979
612.6828, 7256.475
613.1649, 7337.946
613.6470, 7407.764
614.1292, 7462.396
614.6113, 7519.850
615.0934, 7583.063
615.5755, 7652.403
616.0576, 7731.417
616.5397, 7820.513
617.0219, 7909.174
617.5040, 8001.608
617.9861, 8084.711
618.4682, 8128.600
618.9503, 8128.740
619.4324, 8128.902
619.9146, 8166.966
620.3967, 8218.586
620.8788, 8255.422
621.3609, 8229.873
621.8430, 8245.228
622.3251, 8364.422
622.8073, 8539.938
623.2894, 8664.223
623.7715, 8696.741
624.2536, 8733.112
624.7357, 8798.861
625.2178, 8890.827
625.7000, 8968.792
626.1821, 9030.781
626.6642, 9088.485
627.1463, 9147.684
627.6284, 9208.904
628.1105, 9274.822
628.5927, 9345.818
629.0748, 9421.936
629.5569, 9508.365
630.0390, 9600.324
630.5211, 9686.466
631.0032, 9747.964
631.4854, 9823.620
631.9675, 9950.269
632.4496, 10109.60
632.9317, 10251.67
633.4138, 10320.66
633.8959, 10411.72
634.3781, 10561.03
634.8602, 10769.57
635.3423, 10984.66
635.8244, 11197.46
636.3065, 11427.31
636.7886, 11680.45
637.2708, 11950.31
637.7529, 12283.11
638.2350, 12685.45
638.7171, 13142.28
639.1992, 13639.91
639.6813, 14183.34
640.1635, 14778.08
640.6456, 15414.60
641.1277, 16118.00
641.6098, 16908.82
