##NAMES=Gaidonnayite
##RRUFFID=R070472
##IDEAL CHEMISTRY=Na_2_Zr^4+^Si_3_O_9_&#183;2H_2_O
##LOCALITY=Poudrette quarry, Mont Saint-Hilaire, Rouville County, Qu√©bec, Canada
##OWNER=RRUFF
##SOURCE=Michael Scott
##DESCRIPTION=Colorless to light brown prismatic crystals, co-type material, associated with colorless albite and pyrite. Fluoresces green under short wave ultraviolet light.
##STATUS=The identification of this mineral has been confirmed by single-crystal X-ray diffraction.
##URL=rruff.info/R070472
130.0775, 4374.722
130.5596, 4510.286
131.0417, 4612.487
131.5238, 4715.169
132.0059, 4863.657
132.4880, 5071.983
132.9702, 5249.520
133.4523, 5364.599
133.9344, 5453.950
134.4165, 5530.805
134.8986, 5599.403
135.3807, 5666.026
135.8629, 5742.199
136.3450, 5837.209
136.8271, 5914.839
137.3092, 5959.038
137.7913, 5993.382
138.2734, 6030.862
138.7556, 6075.581
139.2377, 6127.164
139.7198, 6183.206
140.2019, 6237.326
140.6840, 6311.117
141.1661, 6396.479
141.6483, 6502.982
142.1304, 6639.466
142.6125, 6808.801
143.0946, 7004.214
143.5767, 7214.897
144.0588, 7439.620
144.5410, 7683.036
145.0231, 7957.093
145.5052, 8241.988
145.9873, 8520.358
146.4694, 8784.657
146.9515, 9040.122
147.4337, 9303.484
147.9158, 9599.655
148.3979, 9871.720
148.8800, 10104.50
149.3621, 10317.40
149.8442, 10539.43
150.3264, 10784.18
150.8085, 11034.01
151.2906, 11239.20
151.7727, 11413.80
152.2548, 11524.18
152.7369, 11535.41
153.2191, 11487.58
153.7012, 11433.65
154.1833, 11398.83
154.6654, 11370.47
155.1475, 11305.66
155.6296, 11173.89
156.1118, 11044.49
156.5939, 10913.99
157.0760, 10794.64
157.5581, 10708.70
158.0402, 10667.97
158.5223, 10664.07
159.0045, 10670.73
159.4866, 10681.35
159.9687, 10707.66
160.4508, 10753.36
160.9329, 10781.69
161.4150, 10771.17
161.8972, 10755.28
162.3793, 10737.23
162.8614, 10728.54
163.3435, 10743.92
163.8256, 10747.54
164.3077, 10728.68
164.7899, 10690.95
165.2720, 10641.63
165.7541, 10585.28
166.2362, 10519.67
166.7183, 10437.52
167.2004, 10327.40
167.6826, 10225.23
168.1647, 10152.34
168.6468, 10100.72
169.1289, 10043.86
169.6110, 9966.813
170.0931, 9883.294
170.5753, 9824.204
171.0574, 9803.115
171.5395, 9778.296
172.0216, 9729.282
172.5037, 9659.634
172.9858, 9579.779
173.4680, 9486.337
173.9501, 9391.349
174.4322, 9316.770
174.9143, 9268.832
175.3964, 9223.947
175.8785, 9164.312
176.3607, 9094.029
176.8428, 9033.346
177.3249, 8994.807
177.8070, 8965.318
178.2891, 8922.198
178.7712, 8861.557
179.2534, 8797.849
179.7355, 8735.246
180.2176, 8675.064
180.6997, 8625.853
181.1818, 8594.634
181.6639, 8572.698
182.1461, 8547.566
182.6282, 8519.775
183.1103, 8487.370
183.5924, 8443.588
184.0745, 8391.347
184.5566, 8350.885
185.0388, 8337.622
185.5209, 8330.712
186.0030, 8301.276
186.4851, 8244.656
186.9672, 8192.654
187.4493, 8172.487
187.9315, 8179.763
188.4136, 8180.563
188.8957, 8160.842
189.3778, 8136.512
189.8599, 8125.601
190.3420, 8129.446
190.8242, 8133.858
191.3063, 8123.170
191.7884, 8100.961
192.2705, 8096.132
192.7526, 8126.926
193.2347, 8164.702
193.7169, 8184.586
194.1990, 8186.285
194.6811, 8176.971
195.1632, 8157.383
195.6453, 8129.028
196.1274, 8102.289
196.6096, 8074.781
197.0917, 8055.201
197.5738, 8054.516
198.0559, 8071.005
198.5380, 8082.575
199.0201, 8072.146
199.5023, 8043.249
199.9844, 8015.975
200.4665, 7995.112
200.9486, 7973.396
201.4307, 7942.076
201.9128, 7903.408
202.3950, 7871.267
202.8771, 7859.424
203.3592, 7862.920
203.8413, 7855.624
204.3234, 7825.986
204.8055, 7799.108
205.2877, 7796.837
205.7698, 7812.299
206.2519, 7821.822
206.7340, 7802.293
207.2161, 7763.800
207.6982, 7749.911
208.1804, 7778.641
208.6625, 7803.588
209.1446, 7784.540
209.6267, 7738.888
210.1088, 7709.198
210.5909, 7729.310
211.0730, 7781.606
211.5552, 7814.910
212.0373, 7825.310
212.5194, 7823.242
213.0015, 7805.868
213.4836, 7782.058
213.9657, 7767.680
214.4479, 7770.928
214.9300, 7787.865
215.4121, 7812.198
215.8942, 7848.048
216.3763, 7880.621
216.8584, 7894.728
217.3406, 7902.897
217.8227, 7924.124
218.3048, 7972.394
218.7869, 8030.679
219.2690, 8066.350
219.7511, 8071.374
220.2333, 8083.014
220.7154, 8133.274
221.1975, 8194.484
221.6796, 8233.614
222.1617, 8233.137
222.6438, 8222.593
223.1260, 8244.983
223.6081, 8306.340
224.0902, 8365.102
224.5723, 8403.652
225.0544, 8432.401
225.5365, 8460.567
226.0187, 8490.360
226.5008, 8518.055
226.9829, 8536.193
227.4650, 8543.924
227.9471, 8559.842
228.4292, 8601.850
228.9114, 8646.276
229.3935, 8667.136
229.8756, 8658.649
230.3577, 8650.197
230.8398, 8663.640
231.3219, 8698.542
231.8041, 8752.029
232.2862, 8845.378
232.7683, 8934.706
233.2504, 8974.388
233.7325, 8962.162
234.2146, 8949.708
234.6968, 8975.377
235.1789, 9031.321
235.6610, 9079.526
236.1431, 9111.682
236.6252, 9137.381
237.1073, 9164.029
237.5895, 9191.669
238.0716, 9222.168
238.5537, 9265.015
239.0358, 9311.380
239.5179, 9334.586
240.0000, 9323.344
240.4822, 9308.116
240.9643, 9313.821
241.4464, 9335.627
241.9285, 9360.981
242.4106, 9397.007
242.8927, 9430.396
243.3749, 9433.082
243.8570, 9397.248
244.3391, 9361.140
244.8212, 9359.942
245.3033, 9378.606
245.7854, 9384.356
246.2676, 9365.099
246.7497, 9332.754
247.2318, 9296.377
247.7139, 9255.484
248.1960, 9220.092
248.6781, 9199.479
249.1603, 9187.336
249.6424, 9168.537
250.1245, 9135.997
250.6066, 9103.938
251.0887, 9083.300
251.5708, 9073.015
252.0530, 9066.439
252.5351, 9065.108
253.0172, 9061.885
253.4993, 9042.293
253.9814, 8999.440
254.4635, 8956.917
254.9457, 8920.028
255.4278, 8892.076
255.9099, 8886.861
256.3920, 8916.116
256.8741, 8956.093
257.3563, 8964.937
257.8384, 8939.460
258.3205, 8911.205
258.8026, 8886.226
259.2847, 8865.092
259.7668, 8849.301
260.2490, 8839.467
260.7311, 8832.516
261.2132, 8825.249
261.6953, 8817.821
262.1774, 8808.988
262.6595, 8789.869
263.1417, 8774.403
263.6238, 8782.155
264.1059, 8813.814
264.5880, 8843.725
265.0701, 8848.165
265.5522, 8824.726
266.0344, 8806.915
266.5165, 8795.120
266.9986, 8788.403
267.4807, 8787.901
267.9628, 8792.514
268.4449, 8799.513
268.9271, 8808.545
269.4092, 8818.351
269.8913, 8815.896
270.3734, 8798.924
270.8555, 8775.209
271.3376, 8737.354
271.8198, 8695.436
272.3019, 8670.328
272.7840, 8673.708
273.2661, 8692.596
273.7482, 8689.286
274.2303, 8637.385
274.7125, 8595.277
275.1946, 8567.936
275.6767, 8551.257
276.1588, 8544.325
276.6409, 8546.128
277.1230, 8549.546
277.6052, 8543.025
278.0873, 8521.490
278.5694, 8499.895
279.0515, 8472.376
279.5336, 8449.090
280.0157, 8440.744
280.4979, 8445.968
280.9800, 8451.771
281.4621, 8443.802
281.9442, 8418.828
282.4263, 8401.194
282.9084, 8398.350
283.3906, 8395.310
283.8727, 8386.146
284.3548, 8372.284
284.8369, 8358.367
285.3190, 8348.156
285.8011, 8340.652
286.2833, 8327.834
286.7654, 8299.912
287.2475, 8279.263
287.7296, 8266.043
288.2117, 8263.856
288.6938, 8281.349
289.1760, 8324.225
289.6581, 8376.781
290.1402, 8401.655
290.6223, 8384.457
291.1044, 8373.875
291.5865, 8382.547
292.0687, 8398.418
292.5508, 8414.111
293.0329, 8427.662
293.5150, 8438.949
293.9971, 8440.793
294.4792, 8386.461
294.9614, 8470.852
295.4435, 8530.174
295.9256, 8565.777
296.4077, 8506.630
296.8898, 8569.834
297.3719, 8584.005
297.8541, 8596.172
298.3362, 8676.598
298.8183, 8631.230
299.3004, 8710.574
299.7825, 8740.135
300.2646, 8792.479
300.7468, 8795.493
301.2289, 8813.741
301.7110, 8881.340
302.1931, 8921.612
302.6752, 8918.941
303.1573, 8972.733
303.6395, 8930.864
304.1216, 8936.330
304.6037, 8943.007
305.0858, 8965.436
305.5679, 9011.673
306.0500, 9059.972
306.5322, 9096.518
307.0143, 9123.318
307.4964, 9144.445
307.9785, 9156.272
308.4606, 9171.599
308.9427, 9217.160
309.4249, 9298.521
309.9070, 9367.756
310.3891, 9402.692
310.8712, 9422.347
311.3533, 9452.412
311.8354, 9497.372
312.3176, 9541.253
312.7997, 9565.217
313.2818, 9565.550
313.7639, 9582.854
314.2460, 9626.353
314.7281, 9678.419
315.2103, 9734.332
315.6924, 9790.586
316.1745, 9836.388
316.6566, 9861.956
317.1387, 9873.235
317.6208, 9911.463
318.1030, 10002.19
318.5851, 10087.13
319.0672, 10146.20
319.5493, 10196.57
320.0314, 10260.96
320.5135, 10302.22
320.9957, 10425.25
321.4778, 10523.21
321.9599, 10597.44
322.4420, 10576.93
322.9241, 10678.76
323.4063, 10731.58
323.8884, 10782.37
324.3705, 10901.43
324.8526, 10894.70
325.3347, 11012.67
325.8168, 11080.86
326.2990, 11171.86
326.7811, 11213.49
327.2632, 11270.38
327.7453, 11376.60
328.2274, 11455.51
328.7095, 11491.47
329.1917, 11583.91
329.6738, 11575.45
330.1559, 11655.52
330.6380, 11773.78
331.1201, 11812.22
331.6022, 11905.55
332.0844, 11977.99
332.5665, 11955.42
333.0486, 12098.06
333.5307, 12169.24
334.0128, 12167.07
334.4949, 12304.05
334.9770, 12311.99
335.4591, 12365.99
335.9413, 12454.66
336.4234, 12508.89
336.9055, 12557.46
337.3876, 12607.85
337.8697, 12672.54
338.3518, 12738.36
338.8340, 12793.96
339.3161, 12841.99
339.7982, 12846.21
340.2803, 12782.47
340.7624, 12648.10
341.2445, 12459.48
341.7267, 12216.43
342.2088, 11919.86
342.6909, 11535.27
343.1730, 11090.54
343.6551, 10665.49
344.1372, 10288.80
344.6194, 9957.751
345.1015, 9665.207
345.5836, 9405.853
346.0657, 9191.445
346.5478, 9047.651
347.0299, 8935.062
347.5121, 8814.094
347.9942, 8679.113
348.4763, 8549.922
348.9584, 8448.229
349.4405, 8377.811
349.9226, 8312.951
350.4048, 8254.280
350.8869, 8199.748
351.3690, 8150.218
351.8511, 8104.529
352.3332, 8060.186
352.8153, 8015.770
353.2975, 7971.930
353.7796, 7929.300
354.2617, 7878.074
354.7438, 7846.838
355.2259, 7851.386
355.7080, 7867.127
356.1902, 7873.781
356.6723, 7866.897
357.1544, 7856.078
357.6365, 7853.987
358.1186, 7861.284
358.6007, 7858.394
359.0829, 7834.248
359.5650, 7810.885
360.0471, 7799.111
360.5292, 7798.080
361.0113, 7804.910
361.4934, 7821.983
361.9756, 7844.267
362.4577, 7865.518
362.9398, 7886.812
363.4219, 7896.972
363.9040, 7876.293
364.3861, 7847.580
364.8683, 7856.513
365.3504, 7926.986
365.8325, 7986.162
366.3146, 7981.170
366.7967, 7935.520
367.2788, 7902.584
367.7610, 7897.092
368.2431, 7904.285
368.7252, 7904.159
369.2073, 7892.661
369.6894, 7899.532
370.1715, 7954.807
370.6537, 8006.660
371.1358, 8010.257
371.6179, 7973.359
372.1000, 7938.227
372.5821, 7935.914
373.0642, 7958.377
373.5464, 7952.305
374.0285, 7892.617
374.5106, 7833.936
374.9927, 7791.060
375.4748, 7748.683
375.9569, 7683.594
376.4391, 7591.096
376.9212, 7495.319
377.4033, 7438.867
377.8854, 7444.219
378.3675, 7405.696
378.8496, 7275.553
379.3318, 7142.032
379.8139, 7033.301
380.2960, 6950.222
380.7781, 6888.092
381.2602, 6850.767
381.7423, 6827.720
382.2245, 6788.733
382.7066, 6727.452
383.1887, 6670.571
383.6708, 6622.518
384.1529, 6587.820
384.6350, 6576.378
385.1172, 6594.115
385.5993, 6614.201
386.0814, 6615.546
386.5635, 6603.392
387.0456, 6593.905
387.5277, 6589.583
388.0099, 6590.614
388.4920, 6600.667
388.9741, 6619.042
389.4562, 6630.027
389.9383, 6617.302
390.4204, 6608.320
390.9026, 6631.814
391.3847, 6679.166
391.8668, 6715.688
392.3489, 6721.017
392.8310, 6703.951
393.3131, 6693.390
393.7953, 6688.413
394.2774, 6691.639
394.7595, 6705.759
395.2416, 6726.670
395.7237, 6753.854
396.2058, 6785.554
396.6880, 6815.092
397.1701, 6833.188
397.6522, 6837.881
398.1343, 6856.079
398.6164, 6900.820
399.0985, 6946.077
399.5807, 6995.086
400.0628, 7037.354
400.5449, 7054.872
401.0270, 7036.426
401.5091, 7001.186
401.9912, 6980.913
402.4734, 6977.665
402.9555, 6972.722
403.4376, 6952.589
403.9197, 6937.827
404.4018, 6950.578
404.8839, 6990.075
405.3661, 7026.144
405.8482, 7046.154
406.3303, 7052.739
406.8124, 7044.883
407.2945, 7021.641
407.7766, 7004.250
408.2588, 7008.953
408.7409, 7031.118
409.2230, 7046.812
409.7051, 7058.425
410.1872, 7061.191
410.6693, 7046.857
411.1515, 7024.603
411.6336, 7008.497
412.1157, 7002.738
412.5978, 7001.997
413.0799, 6998.556
413.5620, 6989.515
414.0442, 6988.929
414.5263, 7009.603
415.0084, 7024.727
415.4905, 7009.045
415.9726, 6979.361
416.4547, 6975.629
416.9369, 7025.257
417.4190, 7101.610
417.9011, 7128.427
418.3832, 7083.526
418.8653, 7048.801
419.3474, 7047.799
419.8296, 7058.321
420.3117, 7068.038
420.7938, 7075.157
421.2759, 7080.079
421.7580, 7081.412
422.2401, 7080.873
422.7223, 7084.287
423.2044, 7093.177
423.6865, 7101.166
424.1686, 7105.643
424.6507, 7105.827
425.1328, 7098.989
425.6150, 7068.698
426.0971, 7053.612
426.5792, 7087.552
427.0613, 7148.412
427.5434, 7189.973
428.0255, 7198.315
428.5077, 7197.199
428.9898, 7218.747
429.4719, 7271.600
429.9540, 7310.292
430.4361, 7330.233
430.9182, 7342.010
431.4004, 7341.916
431.8825, 7338.271
432.3646, 7348.247
432.8467, 7382.396
433.3288, 7429.121
433.8109, 7457.851
434.2931, 7457.739
434.7752, 7467.009
435.2573, 7502.456
435.7394, 7539.806
436.2215, 7563.807
436.7036, 7574.456
437.1858, 7582.001
437.6679, 7589.745
438.1500, 7600.030
438.6321, 7617.938
439.1142, 7642.825
439.5963, 7680.069
440.0785, 7742.047
440.5606, 7814.604
441.0427, 7868.032
441.5248, 7897.332
442.0069, 7917.706
442.4890, 7922.289
442.9712, 7926.754
443.4533, 7960.390
443.9354, 8028.340
444.4175, 8104.801
444.8996, 8164.413
445.3817, 8205.458
445.8639, 8251.130
446.3460, 8304.540
446.8281, 8358.099
447.3102, 8413.226
447.7923, 8465.546
448.2744, 8505.322
448.7566, 8529.408
449.2387, 8552.085
449.7208, 8601.084
450.2029, 8685.790
450.6850, 8749.175
451.1671, 8770.923
451.6493, 8787.792
452.1314, 8819.826
452.6135, 8861.558
453.0956, 8897.562
453.5777, 8919.116
454.0598, 8933.359
454.5420, 8949.919
455.0241, 8968.626
455.5062, 8987.190
455.9883, 9010.469
456.4704, 9026.025
456.9525, 9008.025
457.4347, 8952.249
457.9168, 8906.385
458.3989, 8883.555
458.8810, 8871.694
459.3631, 8861.938
459.8452, 8853.447
460.3274, 8848.178
460.8095, 8847.993
461.2916, 8850.647
461.7737, 8847.374
462.2558, 8834.291
462.7379, 8820.629
463.2201, 8802.483
463.7022, 8787.312
464.1843, 8779.657
464.6664, 8780.664
465.1485, 8790.731
465.6306, 8812.384
466.1128, 8843.555
466.5949, 8873.118
467.0770, 8898.635
467.5591, 8928.860
468.0412, 8969.236
468.5233, 9016.053
469.0055, 9065.305
469.4876, 9115.721
469.9697, 9170.995
470.4518, 9228.614
470.9339, 9293.696
471.4160, 9381.179
471.8982, 9493.448
472.3803, 9607.925
472.8624, 9706.800
473.3445, 9790.680
473.8266, 9865.234
474.3087, 9926.616
474.7909, 9985.172
475.2730, 10045.79
475.7551, 10104.06
476.2372, 10153.28
476.7193, 10192.29
477.2014, 10228.17
477.6836, 10273.30
478.1657, 10330.16
478.6478, 10359.42
479.1299, 10357.60
479.6120, 10330.04
480.0941, 10275.13
480.5763, 10200.16
481.0584, 10112.81
481.5405, 10012.89
482.0226, 9912.171
482.5047, 9822.038
482.9868, 9741.345
483.4690, 9660.803
483.9511, 9575.656
484.4332, 9503.846
484.9153, 9469.095
485.3974, 9470.835
485.8795, 9450.439
486.3617, 9390.946
486.8438, 9326.601
487.3259, 9272.385
487.8080, 9223.665
488.2901, 9166.786
488.7722, 9098.047
489.2544, 9035.956
489.7365, 9009.258
490.2186, 9025.959
490.7007, 9040.589
491.1828, 9059.106
491.6649, 9068.880
492.1471, 9057.094
492.6292, 9035.857
493.1113, 9024.498
493.5934, 9030.239
494.0755, 9048.660
494.5576, 9079.645
495.0398, 9121.234
495.5219, 9152.284
496.0040, 9161.405
496.4861, 9175.326
496.9682, 9221.984
497.4503, 9298.575
497.9325, 9379.873
498.4146, 9467.061
498.8967, 9555.193
499.3788, 9635.520
499.8609, 9716.041
500.3430, 9807.384
500.8252, 9913.646
501.3073, 10042.68
501.7894, 10208.89
502.2715, 10419.23
502.7536, 10631.48
503.2357, 10829.05
503.7179, 11045.91
504.2000, 11289.34
504.6821, 11559.98
505.1642, 11860.00
505.6463, 12193.10
506.1284, 12542.79
506.6106, 12888.15
507.0927, 13230.47
507.5748, 13594.63
508.0569, 13984.15
508.5390, 14399.50
509.0211, 14847.56
509.5033, 15326.16
509.9854, 15810.08
510.4675, 16277.97
510.9496, 16773.98
511.4317, 17329.72
511.9138, 17926.74
512.3960, 18536.59
512.8781, 19149.03
513.3602, 19767.07
513.8423, 20382.00
514.3245, 20988.55
514.8066, 21644.81
515.2887, 22399.20
515.7708, 23151.23
516.2529, 23892.08
516.7350, 24606.93
517.2172, 25295.40
517.6993, 25955.68
518.1814, 26550.82
518.6635, 27043.03
519.1456, 27431.98
519.6277, 27733.25
520.1099, 27963.40
520.5920, 28042.34
521.0741, 27901.62
521.5562, 27545.95
522.0383, 27078.29
522.5204, 26489.89
523.0026, 25803.45
523.4847, 24993.17
523.9668, 24102.25
524.4489, 23153.64
524.9310, 22164.00
525.4131, 21179.37
525.8953, 20238.14
526.3774, 19341.60
526.8595, 18515.31
527.3416, 17784.18
527.8237, 17086.63
528.3058, 16373.20
528.7880, 15699.26
529.2701, 15124.84
529.7522, 14659.66
530.2343, 14240.69
530.7164, 13827.14
531.1985, 13427.58
531.6807, 13053.24
532.1628, 12705.61
532.6449, 12387.03
533.1270, 12100.16
533.6091, 11841.82
534.0912, 11612.30
534.5734, 11414.94
535.0555, 11235.29
535.5376, 11084.86
536.0197, 10940.52
536.5018, 10776.79
536.9839, 10601.60
537.4661, 10449.85
537.9482, 10346.62
538.4303, 10271.64
538.9124, 10166.78
539.3945, 10021.46
539.8766, 9886.355
540.3588, 9775.685
540.8409, 9673.846
541.3230, 9565.268
541.8051, 9452.964
542.2872, 9352.210
542.7693, 9273.969
543.2515, 9205.410
543.7336, 9136.097
544.2157, 9066.842
544.6978, 9000.961
545.1799, 8939.935
545.6620, 8879.434
546.1442, 8812.146
546.6263, 8733.126
547.1084, 8668.622
547.5905, 8629.340
548.0726, 8590.719
548.5547, 8539.253
549.0369, 8485.095
549.5190, 8445.215
550.0011, 8425.281
550.4832, 8409.974
550.9653, 8380.383
551.4474, 8339.108
551.9296, 8302.402
552.4117, 8271.540
552.8938, 8246.612
553.3759, 8235.127
553.8580, 8228.056
554.3401, 8197.598
554.8223, 8123.326
555.3044, 8061.737
555.7865, 8034.636
556.2686, 8026.396
556.7507, 8025.277
557.2328, 8027.184
557.7150, 8025.978
558.1971, 8016.268
558.6792, 8001.080
559.1613, 7994.064
559.6434, 8000.609
560.1255, 8003.058
560.6077, 7994.353
561.0898, 7983.622
561.5719, 7980.373
562.0540, 7982.107
562.5361, 7973.644
563.0182, 7938.840
563.5004, 7896.887
563.9825, 7869.174
564.4646, 7853.427
564.9467, 7840.026
565.4288, 7825.775
565.9109, 7812.939
566.3931, 7806.692
566.8752, 7811.973
567.3573, 7797.071
567.8394, 7733.064
568.3215, 7684.027
568.8036, 7679.429
569.2858, 7699.160
569.7679, 7718.662
570.2500, 7729.852
570.7321, 7733.457
571.2142, 7728.303
571.6964, 7715.680
572.1785, 7700.265
572.6606, 7655.960
573.1427, 7688.625
573.6248, 7704.581
574.1069, 7704.726
574.5891, 7641.702
575.0712, 7660.247
575.5533, 7646.104
576.0354, 7630.620
576.5175, 7660.646
576.9996, 7606.811
577.4818, 7636.113
577.9639, 7632.229
578.4460, 7643.536
578.9281, 7621.951
579.4102, 7610.524
579.8923, 7632.000
580.3745, 7635.256
580.8566, 7609.885
581.3386, 7622.157
581.8207, 7600.703
582.3029, 7615.927
582.7850, 7623.569
583.2671, 7618.226
583.7492, 7611.979
584.2313, 7616.456
584.7134, 7624.954
585.1956, 7623.573
585.6777, 7609.856
586.1598, 7592.670
586.6419, 7580.176
587.1240, 7571.831
587.6061, 7561.387
588.0883, 7553.402
588.5704, 7535.770
589.0525, 7489.888
589.5346, 7447.028
590.0167, 7429.875
590.4988, 7440.407
590.9810, 7470.041
591.4631, 7533.059
591.9452, 7599.826
592.4273, 7626.258
592.9094, 7615.984
593.3915, 7588.199
593.8737, 7545.091
594.3558, 7504.041
594.8379, 7488.143
595.3200, 7500.298
595.8021, 7521.351
596.2842, 7576.066
596.7664, 7609.936
597.2485, 7579.126
597.7306, 7529.826
598.2127, 7530.413
598.6948, 7593.774
599.1769, 7654.401
599.6591, 7636.432
600.1412, 7564.393
600.6233, 7532.663
601.1054, 7547.542
601.5875, 7563.425
602.0696, 7557.493
602.5518, 7543.100
603.0339, 7546.917
603.5160, 7574.414
603.9981, 7596.232
604.4802, 7610.980
604.9623, 7617.680
605.4445, 7608.133
605.9266, 7591.591
606.4087, 7588.301
606.8908, 7606.427
607.3729, 7627.025
607.8550, 7617.727
608.3372, 7579.646
608.8193, 7564.298
609.3014, 7583.079
609.7835, 7601.304
610.2656, 7594.895
610.7477, 7577.327
611.2299, 7578.130
611.7120, 7608.097
612.1941, 7627.805
612.6762, 7617.816
613.1583, 7598.572
613.6404, 7585.641
614.1226, 7580.144
614.6047, 7578.813
615.0868, 7579.884
615.5689, 7584.224
616.0510, 7595.307
616.5331, 7614.933
617.0153, 7628.267
617.4974, 7631.006
617.9795, 7631.950
618.4616, 7635.926
618.9437, 7641.774
619.4258, 7647.361
619.9080, 7651.881
620.3901, 7657.040
620.8722, 7665.105
621.3543, 7673.262
621.8364, 7672.601
622.3185, 7666.698
622.8007, 7676.572
623.2828, 7718.005
623.7649, 7774.765
