##NAMES=Gaidonnayite
##RRUFFID=R140540
##IDEAL CHEMISTRY=Na_2_Zr^4+^Si_3_O_9_&#183;2H_2_O
##LOCALITY=Prefeitura quarry, Pocos de Caldas, Minas Gerais, Brazil
##OWNER=RRUFF
##SOURCE=Luiz Menezes
##DESCRIPTION=Isolated colorless or grey granular crystals
##STATUS=The identification of this mineral has been confirmed by single-crystal X-ray diffraction.
##URL=rruff.info/R140540
9.059570e+001, 1.921820e+003
9.107782e+001, 1.909178e+003
9.155994e+001, 1.904776e+003
9.204205e+001, 1.915057e+003
9.252417e+001, 1.929190e+003
9.300629e+001, 1.943516e+003
9.348840e+001, 1.946771e+003
9.397052e+001, 1.927261e+003
9.445264e+001, 1.882132e+003
9.493475e+001, 1.835945e+003
9.541687e+001, 1.793415e+003
9.589898e+001, 1.756635e+003
9.638110e+001, 1.723583e+003
9.686321e+001, 1.692717e+003
9.734533e+001, 1.662192e+003
9.782745e+001, 1.628777e+003
9.830956e+001, 1.597026e+003
9.879168e+001, 1.564335e+003
9.927380e+001, 1.535860e+003
9.975591e+001, 1.513874e+003
1.002380e+002, 1.496664e+003
1.007201e+002, 1.480444e+003
1.012023e+002, 1.462976e+003
1.016844e+002, 1.444626e+003
1.021665e+002, 1.427268e+003
1.026486e+002, 1.409928e+003
1.031307e+002, 1.393807e+003
1.036128e+002, 1.380224e+003
1.040950e+002, 1.369200e+003
1.045771e+002, 1.359625e+003
1.050592e+002, 1.350719e+003
1.055413e+002, 1.342290e+003
1.060234e+002, 1.334301e+003
1.065055e+002, 1.326345e+003
1.069877e+002, 1.318649e+003
1.074698e+002, 1.312469e+003
1.079519e+002, 1.309589e+003
1.084340e+002, 1.305855e+003
1.089161e+002, 1.299749e+003
1.093982e+002, 1.291447e+003
1.098804e+002, 1.281628e+003
1.103625e+002, 1.270534e+003
1.108446e+002, 1.257810e+003
1.113267e+002, 1.245803e+003
1.118088e+002, 1.233923e+003
1.122909e+002, 1.223073e+003
1.127731e+002, 1.213865e+003
1.132552e+002, 1.206323e+003
1.137373e+002, 1.199836e+003
1.142194e+002, 1.193634e+003
1.147015e+002, 1.187608e+003
1.151836e+002, 1.182059e+003
1.156658e+002, 1.177851e+003
1.161479e+002, 1.173693e+003
1.166300e+002, 1.168219e+003
1.171121e+002, 1.160895e+003
1.175942e+002, 1.152369e+003
1.180763e+002, 1.144095e+003
1.185584e+002, 1.135998e+003
1.190406e+002, 1.128167e+003
1.195227e+002, 1.120168e+003
1.200048e+002, 1.112381e+003
1.204869e+002, 1.105939e+003
1.209690e+002, 1.101837e+003
1.214511e+002, 1.099139e+003
1.219333e+002, 1.095597e+003
1.224154e+002, 1.090686e+003
1.228975e+002, 1.085810e+003
1.233796e+002, 1.082515e+003
1.238617e+002, 1.081006e+003
1.243438e+002, 1.079207e+003
1.248260e+002, 1.076427e+003
1.253081e+002, 1.072728e+003
1.257902e+002, 1.067799e+003
1.262723e+002, 1.061230e+003
1.267544e+002, 1.053790e+003
1.272365e+002, 1.047381e+003
1.277187e+002, 1.042813e+003
1.282008e+002, 1.037903e+003
1.286829e+002, 1.030949e+003
1.291650e+002, 1.023477e+003
1.296471e+002, 1.017711e+003
1.301292e+002, 1.015319e+003
1.306114e+002, 1.015997e+003
1.310935e+002, 1.015208e+003
1.315756e+002, 1.011732e+003
1.320577e+002, 1.007863e+003
1.325398e+002, 1.004108e+003
1.330219e+002, 1.000418e+003
1.335041e+002, 9.964884e+002
1.339862e+002, 9.919796e+002
1.344683e+002, 9.866959e+002
1.349504e+002, 9.820797e+002
1.354325e+002, 9.782480e+002
1.359146e+002, 9.748258e+002
1.363968e+002, 9.720905e+002
1.368789e+002, 9.698843e+002
1.373610e+002, 9.671016e+002
1.378431e+002, 9.621381e+002
1.383252e+002, 9.542176e+002
1.388073e+002, 9.482682e+002
1.392895e+002, 9.458015e+002
1.397716e+002, 9.449354e+002
1.402537e+002, 9.435273e+002
1.407358e+002, 9.410848e+002
1.412179e+002, 9.382220e+002
1.417000e+002, 9.358912e+002
1.421821e+002, 9.340672e+002
1.426643e+002, 9.317314e+002
1.431464e+002, 9.280956e+002
1.436285e+002, 9.235266e+002
1.441106e+002, 9.192631e+002
1.445927e+002, 9.153555e+002
1.450748e+002, 9.121915e+002
1.455570e+002, 9.103143e+002
1.460391e+002, 9.097072e+002
1.465212e+002, 9.089344e+002
1.470033e+002, 9.062685e+002
1.474854e+002, 9.013792e+002
1.479675e+002, 8.978054e+002
1.484497e+002, 8.977482e+002
1.489318e+002, 8.982607e+002
1.494139e+002, 8.974955e+002
1.498960e+002, 8.951367e+002
1.503781e+002, 8.925887e+002
1.508602e+002, 8.922117e+002
1.513424e+002, 8.955685e+002
1.518245e+002, 8.976856e+002
1.523066e+002, 8.977454e+002
1.527887e+002, 8.968563e+002
1.532708e+002, 8.958268e+002
1.537529e+002, 8.949736e+002
1.542351e+002, 8.941334e+002
1.547172e+002, 8.928848e+002
1.551993e+002, 8.905295e+002
1.556814e+002, 8.886055e+002
1.561635e+002, 8.877268e+002
1.566456e+002, 8.871549e+002
1.571278e+002, 8.859820e+002
1.576099e+002, 8.837359e+002
1.580920e+002, 8.806543e+002
1.585741e+002, 8.777217e+002
1.590562e+002, 8.748256e+002
1.595383e+002, 8.721602e+002
1.600205e+002, 8.699925e+002
1.605026e+002, 8.681168e+002
1.609847e+002, 8.659520e+002
1.614668e+002, 8.629918e+002
1.619489e+002, 8.596270e+002
1.624310e+002, 8.575232e+002
1.629131e+002, 8.574467e+002
1.633953e+002, 8.577737e+002
1.638774e+002, 8.579958e+002
1.643595e+002, 8.580473e+002
1.648416e+002, 8.571807e+002
1.653237e+002, 8.544086e+002
1.658058e+002, 8.504573e+002
1.662880e+002, 8.470612e+002
1.667701e+002, 8.443717e+002
1.672522e+002, 8.423151e+002
1.677343e+002, 8.411202e+002
1.682164e+002, 8.410422e+002
1.686985e+002, 8.406208e+002
1.691807e+002, 8.382530e+002
1.696628e+002, 8.352013e+002
1.701449e+002, 8.331023e+002
1.706270e+002, 8.330359e+002
1.711091e+002, 8.340297e+002
1.715912e+002, 8.337931e+002
1.720734e+002, 8.317781e+002
1.725555e+002, 8.294570e+002
1.730376e+002, 8.273398e+002
1.735197e+002, 8.253492e+002
1.740018e+002, 8.234006e+002
1.744839e+002, 8.215338e+002
1.749661e+002, 8.196697e+002
1.754482e+002, 8.172990e+002
1.759303e+002, 8.137343e+002
1.764124e+002, 8.104230e+002
1.768945e+002, 8.079847e+002
1.773766e+002, 8.060641e+002
1.778588e+002, 8.040414e+002
1.783409e+002, 8.014388e+002
1.788230e+002, 7.982453e+002
1.793051e+002, 7.951321e+002
1.797872e+002, 7.921575e+002
1.802693e+002, 7.891966e+002
1.807515e+002, 7.861744e+002
1.812336e+002, 7.831257e+002
1.817157e+002, 7.801790e+002
1.821978e+002, 7.774460e+002
1.826799e+002, 7.749473e+002
1.831620e+002, 7.724519e+002
1.836441e+002, 7.699736e+002
1.841263e+002, 7.674792e+002
1.846084e+002, 7.647589e+002
1.850905e+002, 7.619215e+002
1.855726e+002, 7.594516e+002
1.860547e+002, 7.578760e+002
1.865368e+002, 7.573567e+002
1.870190e+002, 7.565850e+002
1.875011e+002, 7.552694e+002
1.879832e+002, 7.539282e+002
1.884653e+002, 7.530930e+002
1.889474e+002, 7.527971e+002
1.894296e+002, 7.523884e+002
1.899117e+002, 7.510654e+002
1.903938e+002, 7.488703e+002
1.908759e+002, 7.471586e+002
1.913580e+002, 7.462003e+002
1.918401e+002, 7.457470e+002
1.923223e+002, 7.456624e+002
1.928044e+002, 7.460106e+002
1.932865e+002, 7.463102e+002
1.937686e+002, 7.460148e+002
1.942507e+002, 7.452750e+002
1.947328e+002, 7.444581e+002
1.952150e+002, 7.435759e+002
1.956971e+002, 7.427014e+002
1.961792e+002, 7.419909e+002
1.966613e+002, 7.414975e+002
1.971434e+002, 7.410770e+002
1.976255e+002, 7.408420e+002
1.981077e+002, 7.406308e+002
1.985898e+002, 7.399749e+002
1.990719e+002, 7.383323e+002
1.995540e+002, 7.359633e+002
2.000361e+002, 7.340103e+002
2.005182e+002, 7.326217e+002
2.010004e+002, 7.315188e+002
2.014825e+002, 7.306412e+002
2.019646e+002, 7.299084e+002
2.024467e+002, 7.291364e+002
2.029288e+002, 7.280995e+002
2.034109e+002, 7.268323e+002
2.038930e+002, 7.259576e+002
2.043752e+002, 7.259198e+002
2.048573e+002, 7.258482e+002
2.053394e+002, 7.254950e+002
2.058215e+002, 7.248551e+002
2.063036e+002, 7.239670e+002
2.067857e+002, 7.228320e+002
2.072679e+002, 7.214389e+002
2.077500e+002, 7.200255e+002
2.082321e+002, 7.180659e+002
2.087142e+002, 7.165750e+002
2.091963e+002, 7.161914e+002
2.096784e+002, 7.166292e+002
2.101606e+002, 7.171424e+002
2.106427e+002, 7.171140e+002
2.111248e+002, 7.165411e+002
2.116069e+002, 7.154099e+002
2.120890e+002, 7.129642e+002
2.125711e+002, 7.107149e+002
2.130533e+002, 7.092398e+002
2.135354e+002, 7.085133e+002
2.140175e+002, 7.082194e+002
2.144996e+002, 7.081126e+002
2.149817e+002, 7.082376e+002
2.154638e+002, 7.082341e+002
2.159460e+002, 7.078381e+002
2.164281e+002, 7.075735e+002
2.169102e+002, 7.078010e+002
2.173923e+002, 7.084539e+002
2.178744e+002, 7.091719e+002
2.183565e+002, 7.096534e+002
2.188387e+002, 7.098793e+002
2.193208e+002, 7.098339e+002
2.198029e+002, 7.091139e+002
2.202850e+002, 7.084785e+002
2.207671e+002, 7.083431e+002
2.212492e+002, 7.087343e+002
2.217314e+002, 7.095380e+002
2.222135e+002, 7.107838e+002
2.226956e+002, 7.124914e+002
2.231777e+002, 7.137087e+002
2.236598e+002, 7.141932e+002
2.241419e+002, 7.143770e+002
2.246240e+002, 7.144763e+002
2.251062e+002, 7.145244e+002
2.255883e+002, 7.146799e+002
2.260704e+002, 7.152162e+002
2.265525e+002, 7.160227e+002
2.270346e+002, 7.163241e+002
2.275167e+002, 7.154274e+002
2.279989e+002, 7.144095e+002
2.284810e+002, 7.145007e+002
2.289631e+002, 7.157959e+002
2.294452e+002, 7.169141e+002
2.299273e+002, 7.163940e+002
2.304094e+002, 7.149219e+002
2.308916e+002, 7.144207e+002
2.313737e+002, 7.161068e+002
2.318558e+002, 7.184034e+002
2.323379e+002, 7.194200e+002
2.328200e+002, 7.189908e+002
2.333021e+002, 7.184393e+002
2.337843e+002, 7.185593e+002
2.342664e+002, 7.191111e+002
2.347485e+002, 7.197787e+002
2.352306e+002, 7.205094e+002
2.357127e+002, 7.212999e+002
2.361948e+002, 7.221506e+002
2.366770e+002, 7.230676e+002
2.371591e+002, 7.240416e+002
2.376412e+002, 7.253702e+002
2.381233e+002, 7.266661e+002
2.386054e+002, 7.273851e+002
2.390875e+002, 7.271241e+002
2.395697e+002, 7.265599e+002
2.400518e+002, 7.268116e+002
2.405339e+002, 7.280880e+002
2.410160e+002, 7.295328e+002
2.414981e+002, 7.313922e+002
2.419802e+002, 7.330153e+002
2.424624e+002, 7.335172e+002
2.429445e+002, 7.323746e+002
2.434266e+002, 7.306770e+002
2.439087e+002, 7.305587e+002
2.443908e+002, 7.329206e+002
2.448729e+002, 7.343683e+002
2.453550e+002, 7.335332e+002
2.458372e+002, 7.316923e+002
2.463193e+002, 7.298536e+002
2.468014e+002, 7.283546e+002
2.472835e+002, 7.269273e+002
2.477656e+002, 7.250138e+002
2.482477e+002, 7.223079e+002
2.487299e+002, 7.198572e+002
2.492120e+002, 7.178276e+002
2.496941e+002, 7.161008e+002
2.501762e+002, 7.147098e+002
2.506583e+002, 7.136448e+002
2.511404e+002, 7.126548e+002
2.516226e+002, 7.113262e+002
2.521047e+002, 7.096442e+002
2.525868e+002, 7.076381e+002
2.530689e+002, 7.052511e+002
2.535510e+002, 7.026516e+002
2.540331e+002, 6.996187e+002
2.545153e+002, 6.962275e+002
2.549974e+002, 6.931949e+002
2.554795e+002, 6.918541e+002
2.559616e+002, 6.936840e+002
2.564437e+002, 6.939821e+002
2.569258e+002, 6.915124e+002
2.574080e+002, 6.886183e+002
2.578901e+002, 6.867438e+002
2.583722e+002, 6.861866e+002
2.588543e+002, 6.863790e+002
2.593364e+002, 6.866050e+002
2.598185e+002, 6.869108e+002
2.603007e+002, 6.871270e+002
2.607828e+002, 6.873684e+002
2.612649e+002, 6.874576e+002
2.617470e+002, 6.872063e+002
2.622291e+002, 6.866402e+002
2.627112e+002, 6.859977e+002
2.631934e+002, 6.855624e+002
2.636755e+002, 6.854337e+002
2.641576e+002, 6.851391e+002
2.646397e+002, 6.847098e+002
2.651218e+002, 6.841262e+002
2.656039e+002, 6.833874e+002
2.660861e+002, 6.824898e+002
2.665682e+002, 6.813879e+002
2.670503e+002, 6.799778e+002
2.675324e+002, 6.781387e+002
2.680145e+002, 6.768458e+002
2.684966e+002, 6.771177e+002
2.689788e+002, 6.769131e+002
2.694609e+002, 6.747217e+002
2.699430e+002, 6.709806e+002
2.704251e+002, 6.674513e+002
2.709072e+002, 6.656358e+002
2.713893e+002, 6.656241e+002
2.718715e+002, 6.650566e+002
2.723536e+002, 6.636205e+002
2.728357e+002, 6.620674e+002
2.733178e+002, 6.606765e+002
2.737999e+002, 6.594305e+002
2.742820e+002, 6.582416e+002
2.747642e+002, 6.570748e+002
2.752463e+002, 6.559094e+002
2.757284e+002, 6.545035e+002
2.762105e+002, 6.523363e+002
2.766926e+002, 6.505325e+002
2.771747e+002, 6.498378e+002
2.776568e+002, 6.497941e+002
2.781389e+002, 6.493223e+002
2.786211e+002, 6.477641e+002
2.791032e+002, 6.454400e+002
2.795853e+002, 6.437267e+002
2.800674e+002, 6.429631e+002
2.805495e+002, 6.422680e+002
2.810316e+002, 6.416494e+002
2.815138e+002, 6.409289e+002
2.819959e+002, 6.396826e+002
2.824780e+002, 6.376591e+002
2.829601e+002, 6.352399e+002
2.834422e+002, 6.334755e+002
2.839243e+002, 6.326345e+002
2.844065e+002, 6.318082e+002
2.848886e+002, 6.304186e+002
2.853707e+002, 6.290382e+002
2.858528e+002, 6.288174e+002
2.863349e+002, 6.302728e+002
2.868170e+002, 6.321188e+002
2.872992e+002, 6.319940e+002
2.877813e+002, 6.292771e+002
2.882634e+002, 6.269218e+002
2.887455e+002, 6.254412e+002
2.892276e+002, 6.245430e+002
2.897097e+002, 6.239343e+002
2.901919e+002, 6.235522e+002
2.906740e+002, 6.233779e+002
2.911561e+002, 6.234852e+002
2.916382e+002, 6.239443e+002
2.921203e+002, 6.240891e+002
2.926024e+002, 6.237940e+002
2.930846e+002, 6.231875e+002
2.935667e+002, 6.221942e+002
2.940488e+002, 6.208191e+002
2.945309e+002, 6.196780e+002
2.950130e+002, 6.194876e+002
2.954951e+002, 6.202590e+002
2.959773e+002, 6.205247e+002
2.964594e+002, 6.196697e+002
2.969415e+002, 6.186966e+002
2.974236e+002, 6.185715e+002
2.979057e+002, 6.192419e+002
2.983878e+002, 6.196931e+002
2.988700e+002, 6.191098e+002
2.993521e+002, 6.176561e+002
2.998342e+002, 6.166301e+002
3.003163e+002, 6.161158e+002
3.007984e+002, 6.159413e+002
3.012805e+002, 6.162083e+002
3.017627e+002, 6.168037e+002
3.022448e+002, 6.172175e+002
3.027269e+002, 6.171492e+002
3.032090e+002, 6.167367e+002
3.036911e+002, 6.164312e+002
3.041732e+002, 6.163258e+002
3.046554e+002, 6.161722e+002
3.051375e+002, 6.159910e+002
3.056196e+002, 6.156913e+002
3.061017e+002, 6.149394e+002
3.065838e+002, 6.134757e+002
3.070659e+002, 6.117601e+002
3.075481e+002, 6.106243e+002
3.080302e+002, 6.099583e+002
3.085123e+002, 6.099525e+002
3.089944e+002, 6.111339e+002
3.094765e+002, 6.129235e+002
3.099586e+002, 6.143541e+002
3.104408e+002, 6.151791e+002
3.109229e+002, 6.155869e+002
3.114050e+002, 6.156329e+002
3.118871e+002, 6.152843e+002
3.123692e+002, 6.152636e+002
3.128513e+002, 6.157829e+002
3.133335e+002, 6.166671e+002
3.138156e+002, 6.179045e+002
3.142977e+002, 6.195141e+002
3.147798e+002, 6.208824e+002
3.152619e+002, 6.213531e+002
3.157440e+002, 6.209605e+002
3.162262e+002, 6.205869e+002
3.167083e+002, 6.201924e+002
3.171904e+002, 6.199166e+002
3.176725e+002, 6.199266e+002
3.181546e+002, 6.202084e+002
3.186367e+002, 6.205371e+002
3.191188e+002, 6.207584e+002
3.196010e+002, 6.209080e+002
3.200831e+002, 6.211540e+002
3.205652e+002, 6.213021e+002
3.210473e+002, 6.217333e+002
3.215294e+002, 6.228428e+002
3.220115e+002, 6.244567e+002
3.224937e+002, 6.259766e+002
3.229758e+002, 6.271129e+002
3.234579e+002, 6.279900e+002
3.239400e+002, 6.288715e+002
3.244221e+002, 6.296598e+002
3.249042e+002, 6.306530e+002
3.253864e+002, 6.323440e+002
3.258685e+002, 6.342634e+002
3.263506e+002, 6.354288e+002
3.268327e+002, 6.354364e+002
3.273148e+002, 6.349730e+002
3.277969e+002, 6.352010e+002
3.282791e+002, 6.363069e+002
3.287612e+002, 6.369274e+002
3.292433e+002, 6.366847e+002
3.297254e+002, 6.358852e+002
3.302075e+002, 6.347893e+002
3.306896e+002, 6.334420e+002
3.311718e+002, 6.319774e+002
3.316539e+002, 6.303035e+002
3.321360e+002, 6.284117e+002
3.326181e+002, 6.277050e+002
3.331002e+002, 6.296316e+002
3.335823e+002, 6.316960e+002
3.340645e+002, 6.319150e+002
3.345466e+002, 6.303776e+002
3.350287e+002, 6.285018e+002
3.355108e+002, 6.271554e+002
3.359929e+002, 6.263310e+002
3.364750e+002, 6.258240e+002
3.369572e+002, 6.261772e+002
3.374393e+002, 6.262354e+002
3.379214e+002, 6.256210e+002
3.384035e+002, 6.243416e+002
3.388856e+002, 6.222833e+002
3.393677e+002, 6.192559e+002
3.398499e+002, 6.157410e+002
3.403320e+002, 6.130998e+002
3.408141e+002, 6.116636e+002
3.412962e+002, 6.103407e+002
3.417783e+002, 6.092673e+002
3.422604e+002, 6.080715e+002
3.427426e+002, 6.062226e+002
3.432247e+002, 6.035775e+002
3.437068e+002, 6.004680e+002
3.441889e+002, 5.973463e+002
3.446710e+002, 5.942623e+002
3.451531e+002, 5.909800e+002
3.456353e+002, 5.867906e+002
3.461174e+002, 5.829229e+002
3.465995e+002, 5.807092e+002
3.470816e+002, 5.800533e+002
3.475637e+002, 5.794144e+002
3.480458e+002, 5.773668e+002
3.485280e+002, 5.738045e+002
3.490101e+002, 5.709241e+002
3.494922e+002, 5.686636e+002
3.499743e+002, 5.670103e+002
3.504564e+002, 5.663956e+002
3.509385e+002, 5.664148e+002
3.514207e+002, 5.661127e+002
3.519028e+002, 5.648777e+002
3.523849e+002, 5.630311e+002
3.528670e+002, 5.619559e+002
3.533491e+002, 5.623857e+002
3.538312e+002, 5.626766e+002
3.543134e+002, 5.625428e+002
3.547955e+002, 5.622057e+002
3.552776e+002, 5.619226e+002
3.557597e+002, 5.617840e+002
3.562418e+002, 5.617178e+002
3.567239e+002, 5.616324e+002
3.572061e+002, 5.617657e+002
3.576882e+002, 5.613241e+002
3.581703e+002, 5.595582e+002
3.586524e+002, 5.578246e+002
3.591345e+002, 5.572422e+002
3.596166e+002, 5.577646e+002
3.600987e+002, 5.584453e+002
3.605808e+002, 5.583455e+002
3.610630e+002, 5.573691e+002
3.615451e+002, 5.565121e+002
3.620272e+002, 5.555018e+002
3.625093e+002, 5.548779e+002
3.629914e+002, 5.551327e+002
3.634735e+002, 5.558867e+002
3.639557e+002, 5.563987e+002
3.644378e+002, 5.561937e+002
3.649199e+002, 5.554854e+002
3.654020e+002, 5.551882e+002
3.658841e+002, 5.556440e+002
3.663662e+002, 5.560741e+002
3.668484e+002, 5.563425e+002
3.673305e+002, 5.565664e+002
3.678126e+002, 5.569170e+002
3.682947e+002, 5.574327e+002
3.687768e+002, 5.579299e+002
3.692589e+002, 5.581533e+002
3.697411e+002, 5.581420e+002
3.702232e+002, 5.577179e+002
3.707053e+002, 5.564197e+002
3.711874e+002, 5.551143e+002
3.716695e+002, 5.545271e+002
3.721516e+002, 5.544667e+002
3.726338e+002, 5.539724e+002
3.731159e+002, 5.519475e+002
3.735980e+002, 5.484677e+002
3.740801e+002, 5.460089e+002
3.745622e+002, 5.450929e+002
3.750443e+002, 5.446525e+002
3.755265e+002, 5.449083e+002
3.760086e+002, 5.452476e+002
3.764907e+002, 5.446125e+002
3.769728e+002, 5.422720e+002
3.774549e+002, 5.391804e+002
3.779370e+002, 5.376440e+002
3.784192e+002, 5.383780e+002
3.789013e+002, 5.386401e+002
3.793834e+002, 5.373705e+002
3.798655e+002, 5.355311e+002
3.803476e+002, 5.338179e+002
3.808297e+002, 5.323705e+002
3.813119e+002, 5.308961e+002
3.817940e+002, 5.289193e+002
3.822761e+002, 5.264578e+002
3.827582e+002, 5.246396e+002
3.832403e+002, 5.240333e+002
3.837224e+002, 5.236246e+002
3.842046e+002, 5.225845e+002
3.846867e+002, 5.211095e+002
3.851688e+002, 5.199009e+002
3.856509e+002, 5.196005e+002
3.861330e+002, 5.197909e+002
3.866151e+002, 5.195048e+002
3.870973e+002, 5.186573e+002
3.875794e+002, 5.176259e+002
3.880615e+002, 5.162066e+002
3.885436e+002, 5.148466e+002
3.890257e+002, 5.142775e+002
3.895078e+002, 5.148625e+002
3.899900e+002, 5.158471e+002
3.904721e+002, 5.169825e+002
3.909542e+002, 5.181393e+002
3.914363e+002, 5.180845e+002
3.919184e+002, 5.157624e+002
3.924005e+002, 5.128585e+002
3.928827e+002, 5.118930e+002
3.933648e+002, 5.129942e+002
3.938469e+002, 5.138845e+002
3.943290e+002, 5.132504e+002
3.948111e+002, 5.119958e+002
3.952932e+002, 5.116406e+002
3.957754e+002, 5.124557e+002
3.962575e+002, 5.135824e+002
3.967396e+002, 5.144092e+002
3.972217e+002, 5.149061e+002
3.977038e+002, 5.150429e+002
3.981859e+002, 5.145505e+002
3.986681e+002, 5.139365e+002
3.991501e+002, 5.134072e+002
3.996323e+002, 5.130114e+002
4.001144e+002, 5.129050e+002
4.005965e+002, 5.131986e+002
4.010786e+002, 5.137759e+002
4.015607e+002, 5.143336e+002
4.020428e+002, 5.150894e+002
4.025250e+002, 5.154570e+002
4.030071e+002, 5.150990e+002
4.034892e+002, 5.144035e+002
4.039713e+002, 5.137322e+002
4.044534e+002, 5.131903e+002
4.049355e+002, 5.128298e+002
4.054177e+002, 5.127035e+002
4.058998e+002, 5.128060e+002
4.063819e+002, 5.132504e+002
4.068640e+002, 5.147304e+002
4.073461e+002, 5.158538e+002
4.078282e+002, 5.156290e+002
4.083104e+002, 5.144661e+002
4.087925e+002, 5.134891e+002
4.092746e+002, 5.134178e+002
4.097567e+002, 5.140240e+002
4.102388e+002, 5.142494e+002
4.107209e+002, 5.138931e+002
4.112031e+002, 5.133770e+002
4.116852e+002, 5.128741e+002
4.121673e+002, 5.121583e+002
4.126494e+002, 5.107590e+002
4.131315e+002, 5.086615e+002
4.136136e+002, 5.066416e+002
4.140958e+002, 5.058820e+002
4.145779e+002, 5.068370e+002
4.150600e+002, 5.072154e+002
4.155421e+002, 5.064510e+002
4.160242e+002, 5.056212e+002
