##NAMES=Gaidonnayite
##RRUFFID=R070472
##IDEAL CHEMISTRY=Na_2_Zr^4+^Si_3_O_9_&#183;2H_2_O
##LOCALITY=Poudrette quarry, Mont Saint-Hilaire, Rouville County, Qu√©bec, Canada
##OWNER=RRUFF
##SOURCE=Michael Scott
##DESCRIPTION=Colorless to light brown prismatic crystals, co-type material, associated with colorless albite and pyrite. Fluoresces green under short wave ultraviolet light.
##STATUS=The identification of this mineral has been confirmed by single-crystal X-ray diffraction.
##URL=rruff.info/R070472
154.0123, 53785.42
154.4944, 54693.39
154.9765, 55499.25
155.4586, 56080.29
155.9407, 56594.11
156.4229, 57150.35
156.9050, 57613.32
157.3871, 57765.33
157.8692, 57793.46
158.3513, 57728.10
158.8334, 57642.59
159.3156, 57569.78
159.7977, 57487.55
160.2798, 57372.75
160.7619, 57192.77
161.2440, 57007.13
161.7261, 56840.25
162.2083, 56697.30
162.6904, 56562.18
163.1725, 56434.09
163.6546, 56308.70
164.1367, 56178.84
164.6188, 56025.63
165.1010, 55874.43
165.5831, 55737.46
166.0652, 55609.18
166.5473, 55504.69
167.0294, 55434.12
167.5115, 55391.70
167.9937, 55362.29
168.4758, 55328.34
168.9579, 55305.51
169.4400, 55308.31
169.9221, 55341.16
170.4042, 55395.93
170.8864, 55490.98
171.3685, 55614.19
171.8506, 55702.61
172.3327, 55686.84
172.8148, 55618.07
173.2969, 55564.45
173.7791, 55568.47
174.2612, 55586.38
174.7433, 55577.18
175.2254, 55541.90
175.7075, 55491.35
176.1896, 55427.65
176.6718, 55356.41
177.1539, 55286.64
177.6360, 55231.36
178.1181, 55177.98
178.6002, 55093.87
179.0823, 54970.61
179.5645, 54873.03
180.0466, 54918.12
180.5287, 55059.29
181.0108, 55136.21
181.4929, 54997.98
181.9750, 54745.98
182.4572, 54599.98
182.9393, 54589.08
183.4214, 54643.52
183.9035, 54695.98
184.3856, 54741.42
184.8677, 54754.98
185.3499, 54694.13
185.8320, 54583.08
186.3141, 54504.48
186.7962, 54472.45
187.2783, 54469.88
187.7604, 54454.93
188.2426, 54428.01
188.7247, 54436.85
189.2068, 54562.12
189.6889, 54776.49
190.1710, 54903.86
190.6531, 54885.47
191.1353, 54774.28
191.6174, 54702.02
192.0995, 54670.53
192.5816, 54665.32
193.0637, 54690.39
193.5458, 54742.81
194.0280, 54769.51
194.5101, 54748.59
194.9922, 54691.95
195.4743, 54653.32
195.9564, 54637.48
196.4385, 54623.02
196.9207, 54580.27
197.4028, 54508.84
197.8849, 54447.98
198.3670, 54409.50
198.8491, 54393.46
199.3312, 54398.57
199.8134, 54433.11
200.2955, 54469.25
200.7776, 54455.78
201.2597, 54381.17
201.7418, 54332.84
202.2239, 54367.33
202.7061, 54491.76
203.1882, 54530.48
203.6703, 54453.80
204.1524, 54329.59
204.6345, 54287.65
205.1166, 54344.54
205.5988, 54406.32
206.0809, 54428.90
206.5630, 54406.70
207.0451, 54380.49
207.5272, 54348.67
208.0093, 54316.23
208.4915, 54300.09
208.9736, 54309.46
209.4557, 54310.80
209.9378, 54274.26
210.4199, 54181.72
210.9020, 54148.10
211.3842, 54212.00
211.8663, 54330.95
212.3484, 54347.79
212.8305, 54224.16
213.3126, 54084.16
213.7948, 54004.63
214.2769, 53998.02
214.7590, 54011.64
215.2411, 54045.61
215.7232, 54095.82
216.2053, 54140.58
216.6875, 54179.16
217.1696, 54211.49
217.6517, 54237.30
218.1338, 54255.46
218.6159, 54266.71
219.0980, 54266.64
219.5802, 54256.47
220.0623, 54257.01
220.5444, 54264.86
221.0265, 54286.54
221.5086, 54333.51
221.9907, 54426.57
222.4729, 54496.78
222.9550, 54530.73
223.4371, 54528.82
223.9192, 54516.72
224.4013, 54490.71
224.8834, 54460.74
225.3656, 54430.46
225.8477, 54379.94
226.3298, 54373.32
226.8119, 54439.13
227.2940, 54584.38
227.7761, 54685.10
228.2583, 54712.24
228.7404, 54717.16
229.2225, 54767.46
229.7046, 54902.70
230.1867, 55001.71
230.6688, 55020.59
231.1510, 54940.26
231.6331, 54898.79
232.1152, 54929.18
232.5973, 54973.97
233.0794, 54947.32
233.5615, 54807.32
234.0437, 54676.23
234.5258, 54585.72
235.0079, 54539.18
235.4900, 54538.68
235.9721, 54620.42
236.4542, 54730.35
236.9364, 54773.37
237.4185, 54715.44
237.9006, 54651.31
238.3827, 54607.43
238.8648, 54581.68
239.3469, 54580.75
239.8291, 54614.73
240.3112, 54665.46
240.7933, 54699.03
241.2754, 54701.30
241.7575, 54703.81
242.2396, 54717.97
242.7218, 54749.25
243.2039, 54770.50
243.6860, 54774.68
244.1681, 54770.19
244.6502, 54779.09
245.1323, 54821.72
245.6145, 54846.66
246.0966, 54826.55
246.5787, 54726.27
247.0608, 54675.51
247.5429, 54698.10
248.0250, 54762.30
248.5072, 54791.32
248.9893, 54769.46
249.4714, 54737.01
249.9535, 54710.01
250.4356, 54690.08
250.9177, 54670.68
251.3999, 54651.54
251.8820, 54633.03
252.3641, 54616.09
252.8462, 54603.01
253.3283, 54588.89
253.8104, 54569.55
254.2926, 54538.04
254.7747, 54522.29
255.2568, 54531.10
255.7389, 54554.74
256.2210, 54562.59
256.7031, 54546.95
257.1852, 54529.66
257.6674, 54526.42
258.1495, 54554.46
258.6316, 54543.00
259.1137, 54460.23
259.5958, 54343.40
260.0779, 54318.70
260.5601, 54433.70
261.0422, 54553.25
261.5243, 54596.70
262.0064, 54532.31
262.4885, 54495.39
262.9706, 54504.01
263.4528, 54541.78
263.9349, 54551.63
264.4170, 54515.79
264.8991, 54488.25
265.3812, 54505.57
265.8633, 54584.95
266.3455, 54643.82
266.8276, 54672.25
267.3097, 54678.18
267.7918, 54688.25
268.2739, 54707.95
268.7560, 54718.42
269.2382, 54705.43
269.7203, 54662.88
270.2024, 54621.86
270.6845, 54579.54
271.1666, 54541.81
271.6487, 54538.78
272.1309, 54588.38
272.6130, 54619.81
273.0951, 54567.73
273.5772, 54408.64
274.0593, 54333.79
274.5414, 54386.54
275.0236, 54512.91
275.5057, 54557.06
275.9878, 54502.57
276.4699, 54432.58
276.9520, 54403.25
277.4341, 54420.92
277.9163, 54414.48
278.3984, 54373.44
278.8805, 54310.60
279.3626, 54251.42
279.8447, 54192.93
280.3268, 54151.05
280.8090, 54140.65
281.2911, 54162.04
281.7732, 54175.36
282.2553, 54168.82
282.7374, 54160.14
283.2195, 54208.98
283.7017, 54323.75
284.1838, 54404.77
284.6659, 54361.78
285.1480, 54203.37
285.6301, 54104.57
286.1122, 54089.36
286.5944, 54123.92
287.0765, 54157.80
287.5586, 54192.27
288.0407, 54202.86
288.5228, 54163.76
289.0049, 54083.02
289.4871, 54010.66
289.9692, 53947.45
290.4513, 53904.55
290.9334, 53914.09
291.4155, 53973.34
291.8976, 54028.58
292.3798, 54049.07
292.8619, 54039.58
293.3440, 54011.62
293.8261, 53959.69
294.3082, 53906.79
294.7903, 53894.22
295.2725, 53915.94
295.7546, 53934.11
296.2367, 53933.08
296.7188, 53912.96
297.2009, 53863.52
297.6830, 53775.58
298.1652, 53693.43
298.6473, 53686.77
299.1294, 53737.65
299.6115, 53774.08
300.0936, 53729.12
300.5757, 53651.95
301.0579, 53638.43
301.5400, 53704.69
302.0221, 53783.38
302.5042, 53803.88
302.9863, 53781.05
303.4684, 53754.45
303.9506, 53737.24
304.4327, 53729.83
304.9148, 53735.20
305.3969, 53754.73
305.8790, 53777.43
306.3611, 53788.88
306.8433, 53796.82
307.3254, 53816.02
307.8075, 53857.54
308.2896, 53910.79
308.7717, 53965.18
309.2538, 54020.20
309.7360, 54079.93
310.2181, 54160.57
310.7002, 54245.22
311.1823, 54307.75
311.6644, 54325.82
312.1465, 54325.47
312.6287, 54319.27
313.1108, 54307.54
313.5929, 54299.79
314.0750, 54320.38
314.5571, 54342.09
315.0392, 54333.92
315.5214, 54230.08
316.0035, 54142.66
316.4856, 54136.94
316.9677, 54211.03
317.4498, 54296.32
317.9319, 54244.29
318.4141, 54402.34
318.8962, 54506.81
319.3783, 54560.57
319.8604, 54411.75
320.3425, 54524.52
320.8246, 54532.46
321.3068, 54536.10
321.7889, 54685.69
322.2710, 54566.34
322.7531, 54713.61
323.2352, 54754.44
323.7173, 54899.39
324.1995, 54979.34
324.6816, 55022.77
325.1637, 55059.57
325.6458, 55129.14
326.1279, 55168.11
326.6100, 55143.87
327.0922, 54973.55
327.5743, 54841.58
328.0564, 54784.30
328.5385, 54778.72
329.0206, 54747.86
329.5027, 54683.95
329.9849, 54605.67
330.4670, 54517.46
330.9491, 54393.43
331.4312, 54310.93
331.9133, 54289.09
332.3954, 54305.50
332.8776, 54310.49
333.3597, 54304.71
333.8418, 54285.00
334.3239, 54244.83
334.8061, 54170.72
335.2882, 54114.41
335.7703, 54067.95
336.2524, 54041.96
336.7345, 54068.39
337.2166, 54186.58
337.6988, 54257.56
338.1809, 54215.63
338.6630, 54047.52
339.1451, 53938.56
339.6272, 53905.34
340.1093, 53900.92
340.5915, 53866.50
341.0736, 53797.08
341.5557, 53728.34
342.0378, 53675.27
342.5199, 53634.58
343.0020, 53573.52
343.4842, 53491.25
343.9663, 53397.45
344.4484, 53300.08
344.9305, 53199.25
345.4126, 53103.88
345.8947, 53012.37
346.3769, 52930.90
346.8590, 52873.68
347.3411, 52841.25
347.8232, 52823.47
348.3053, 52803.86
348.7874, 52789.43
349.2696, 52814.56
349.7517, 52904.36
350.2338, 53009.02
350.7159, 53036.93
351.1980, 52997.04
351.6801, 52961.62
352.1623, 52990.19
352.6444, 53052.84
353.1265, 53096.24
353.6086, 53106.53
354.0907, 53102.95
354.5728, 53114.90
355.0550, 53130.90
355.5371, 53119.06
356.0192, 53026.53
356.5013, 52916.13
356.9834, 52858.96
357.4655, 52871.55
357.9477, 52898.41
358.4298, 52916.82
358.9119, 52924.32
359.3940, 52915.83
359.8761, 52880.24
360.3582, 52837.14
360.8404, 52794.68
361.3225, 52752.81
361.8046, 52722.99
362.2867, 52719.25
362.7688, 52725.11
363.2509, 52722.82
363.7331, 52690.83
364.2152, 52662.80
364.6973, 52659.86
365.1794, 52678.98
365.6615, 52669.01
366.1436, 52583.56
366.6258, 52485.96
367.1079, 52418.76
367.5900, 52410.20
368.0721, 52407.80
368.5542, 52418.45
369.0363, 52437.05
369.5185, 52432.41
370.0006, 52390.72
370.4827, 52341.28
370.9648, 52296.35
371.4469, 52250.75
371.9290, 52220.87
372.4112, 52206.35
372.8933, 52206.97
373.3754, 52226.31
373.8575, 52283.01
374.3396, 52321.93
374.8217, 52315.58
375.3039, 52251.29
375.7860, 52201.62
376.2681, 52166.23
376.7502, 52141.99
377.2323, 52127.84
377.7144, 52126.72
378.1966, 52121.33
378.6787, 52110.78
379.1608, 52093.98
379.6429, 52054.62
380.1250, 51992.98
380.6071, 51916.47
381.0893, 51822.11
381.5714, 51713.38
382.0535, 51638.23
382.5356, 51623.78
383.0177, 51638.23
383.4998, 51589.86
383.9820, 51481.99
384.4641, 51402.74
384.9462, 51451.96
385.4283, 51579.26
385.9104, 51651.25
386.3925, 51628.83
386.8747, 51583.06
387.3568, 51610.10
387.8389, 51687.64
388.3210, 51745.00
388.8031, 51727.56
389.2852, 51673.81
389.7674, 51624.11
390.2495, 51580.84
390.7316, 51547.21
391.2137, 51529.17
391.6958, 51522.76
392.1779, 51521.91
392.6601, 51534.52
393.1422, 51546.17
393.6243, 51554.53
394.1064, 51559.84
394.5885, 51546.54
395.0706, 51494.11
395.5528, 51427.79
396.0349, 51368.68
396.5170, 51290.62
396.9991, 51252.16
397.4812, 51293.01
397.9633, 51394.75
398.4455, 51459.55
398.9276, 51441.24
399.4097, 51407.04
399.8918, 51389.76
400.3739, 51418.66
400.8560, 51417.24
401.3382, 51361.40
401.8203, 51281.38
402.3024, 51242.38
402.7845, 51287.11
403.2666, 51307.24
403.7487, 51250.02
404.2309, 51090.29
404.7130, 51032.09
405.1951, 51113.24
405.6772, 51243.67
406.1593, 51319.63
406.6414, 51335.81
407.1236, 51324.32
407.6057, 51279.68
408.0878, 51213.45
408.5699, 51181.64
409.0520, 51185.66
409.5341, 51209.97
410.0163, 51253.90
410.4984, 51311.52
410.9805, 51348.55
411.4626, 51359.32
411.9447, 51346.52
412.4268, 51301.91
412.9090, 51230.88
413.3911, 51170.19
413.8732, 51152.77
414.3553, 51158.07
414.8374, 51156.39
415.3195, 51146.88
415.8017, 51122.21
416.2838, 51066.79
416.7659, 50993.06
417.2480, 50923.06
417.7301, 50845.34
418.2122, 50792.75
418.6944, 50813.55
419.1765, 50901.87
419.6586, 50962.73
420.1407, 50928.23
420.6228, 50857.41
421.1049, 50800.61
421.5871, 50785.71
422.0692, 50768.86
422.5513, 50728.21
423.0334, 50673.97
423.5155, 50639.54
423.9977, 50630.49
424.4798, 50641.64
424.9619, 50675.47
425.4440, 50752.91
425.9261, 50801.98
426.4082, 50807.75
426.8904, 50789.96
427.3725, 50775.24
427.8546, 50766.46
428.3367, 50755.65
428.8188, 50744.09
429.3009, 50732.10
429.7831, 50702.94
430.2652, 50653.39
430.7473, 50596.18
431.2294, 50533.43
431.7115, 50460.61
432.1936, 50430.75
432.6758, 50460.07
433.1579, 50529.61
433.6400, 50598.88
434.1221, 50667.56
434.6042, 50721.94
435.0863, 50741.85
435.5685, 50737.11
436.0506, 50751.14
436.5327, 50788.35
437.0148, 50824.12
437.4969, 50824.67
437.9790, 50798.77
438.4612, 50773.63
438.9433, 50752.43
439.4254, 50742.17
439.9075, 50767.73
440.3896, 50824.46
440.8717, 50856.04
441.3539, 50811.44
441.8360, 50731.88
442.3181, 50658.96
442.8002, 50600.78
443.2823, 50557.27
443.7644, 50534.36
444.2466, 50527.63
444.7287, 50525.35
445.2108, 50527.43
445.6929, 50529.89
446.1750, 50526.23
446.6571, 50507.95
447.1393, 50510.84
447.6214, 50556.41
448.1035, 50614.93
448.5856, 50655.13
449.0677, 50666.84
449.5498, 50674.37
450.0320, 50681.98
450.5141, 50689.30
450.9962, 50689.03
451.4783, 50675.02
451.9604, 50666.58
452.4425, 50679.46
452.9247, 50719.98
453.4068, 50746.84
453.8889, 50753.82
454.3710, 50751.95
454.8531, 50752.93
455.3352, 50755.43
455.8174, 50783.20
456.2995, 50883.50
456.7816, 51013.43
457.2637, 51006.95
457.7458, 50855.29
458.2279, 50692.91
458.7101, 50663.66
459.1922, 50713.70
459.6743, 50727.31
460.1564, 50666.60
460.6385, 50573.30
461.1206, 50476.61
461.6028, 50382.06
462.0849, 50297.61
462.5670, 50227.18
463.0491, 50174.09
463.5312, 50145.37
464.0133, 50148.40
464.4955, 50152.70
464.9776, 50146.47
465.4597, 50135.97
465.9418, 50128.23
466.4239, 50129.66
466.9060, 50126.80
467.3882, 50104.23
467.8703, 50063.70
468.3524, 50051.10
468.8345, 50071.93
469.3166, 50111.03
469.7987, 50164.62
470.2809, 50259.97
470.7630, 50302.26
471.2451, 50268.30
471.7272, 50198.18
472.2093, 50165.90
472.6914, 50180.91
473.1736, 50202.04
473.6557, 50219.32
474.1378, 50234.22
474.6199, 50250.95
475.1020, 50273.10
475.5841, 50286.80
476.0663, 50270.80
476.5484, 50234.28
477.0305, 50215.30
477.5126, 50227.22
477.9947, 50247.15
478.4768, 50233.85
478.9590, 50198.29
479.4411, 50181.14
479.9232, 50232.10
480.4053, 50293.94
480.8874, 50301.26
481.3695, 50245.33
481.8517, 50186.65
482.3338, 50163.66
482.8159, 50152.40
483.2980, 50128.26
483.7801, 50057.13
484.2622, 50000.13
484.7444, 49990.48
485.2265, 50013.34
485.7086, 50011.84
486.1907, 49943.65
486.6728, 49880.67
487.1549, 49856.93
487.6371, 49895.32
488.1192, 49900.87
488.6013, 49858.39
489.0834, 49797.55
489.5655, 49757.28
490.0476, 49749.09
490.5298, 49725.23
491.0119, 49668.90
491.4940, 49592.80
491.9761, 49544.64
492.4582, 49526.69
492.9403, 49524.53
493.4225, 49534.79
493.9046, 49554.24
494.3867, 49566.21
494.8688, 49567.56
495.3509, 49566.75
495.8330, 49572.55
496.3152, 49582.97
496.7973, 49594.24
497.2794, 49595.87
497.7615, 49602.02
498.2436, 49635.79
498.7257, 49690.44
499.2079, 49729.79
499.6900, 49725.35
500.1721, 49702.19
500.6542, 49677.05
501.1363, 49647.11
501.6184, 49632.25
502.1006, 49650.78
502.5827, 49686.58
503.0648, 49714.99
503.5469, 49689.60
504.0290, 49707.07
504.5111, 49802.76
504.9933, 49975.14
505.4754, 50123.57
505.9575, 50244.05
506.4396, 50351.42
506.9217, 50443.86
507.4038, 50506.00
507.8860, 50631.92
508.3681, 50843.77
508.8502, 51095.74
509.3323, 51304.41
509.8144, 51470.36
510.2965, 51640.87
510.7787, 51822.33
511.2608, 52024.13
511.7429, 52281.63
512.2250, 52591.97
512.7071, 52897.43
513.1892, 53140.72
513.6713, 53350.84
514.1534, 53570.51
514.6356, 53812.59
515.1177, 54051.80
515.5998, 54277.91
516.0819, 54488.64
516.5640, 54680.44
517.0461, 54816.21
517.5283, 54964.65
518.0104, 55187.11
518.4925, 55481.02
518.9746, 55685.96
519.4567, 55746.71
519.9388, 55730.74
520.4210, 55677.88
520.9031, 55578.77
521.3852, 55462.93
521.8673, 55356.48
522.3494, 55214.70
522.8315, 54951.39
523.3137, 54536.15
523.7958, 54105.69
524.2779, 53686.36
524.7600, 53282.04
525.2421, 52943.30
525.7242, 52670.75
526.2064, 52419.34
526.6885, 52162.45
527.1706, 51901.08
527.6527, 51631.83
528.1348, 51347.72
528.6169, 51089.40
529.0991, 50900.88
529.5812, 50767.80
530.0633, 50656.82
530.5454, 50573.49
531.0275, 50489.25
531.5096, 50377.56
531.9918, 50242.21
532.4739, 50109.93
532.9560, 49982.56
533.4381, 49868.25
533.9202, 49774.85
534.4023, 49709.07
534.8845, 49648.42
535.3666, 49598.96
535.8487, 49550.98
536.3308, 49492.59
536.8129, 49427.60
537.2950, 49350.14
537.7772, 49256.30
538.2593, 49152.34
538.7414, 49061.63
539.2235, 48988.54
539.7056, 48919.30
540.1877, 48842.82
540.6699, 48762.13
541.1520, 48697.38
541.6341, 48648.89
542.1162, 48615.71
542.5983, 48597.86
543.0804, 48593.11
543.5626, 48600.00
544.0447, 48631.11
544.5268, 48653.50
545.0089, 48633.82
545.4910, 48579.47
545.9731, 48515.61
546.4553, 48436.36
546.9374, 48364.80
547.4195, 48317.00
547.9016, 48298.29
548.3837, 48278.27
548.8658, 48262.73
549.3480, 48237.71
549.8301, 48191.01
550.3122, 48100.98
550.7943, 48028.68
551.2764, 47989.64
551.7585, 47966.86
552.2407, 47913.87
552.7228, 47819.32
553.2049, 47738.96
553.6870, 47698.66
554.1691, 47691.36
554.6512, 47668.85
555.1334, 47629.06
555.6155, 47593.96
556.0976, 47598.35
556.5797, 47621.00
557.0618, 47595.33
557.5439, 47493.46
558.0261, 47401.31
558.5082, 47428.09
558.9903, 47521.48
559.4724, 47584.93
559.9545, 47567.11
560.4366, 47520.04
560.9188, 47461.74
561.4009, 47395.53
561.8830, 47333.50
562.3651, 47266.18
562.8472, 47214.88
563.3293, 47195.71
563.8115, 47224.09
564.2936, 47239.21
564.7757, 47234.14
565.2578, 47222.53
565.7399, 47217.08
566.2220, 47215.93
566.7042, 47229.45
567.1863, 47265.68
567.6684, 47310.96
568.1505, 47331.82
568.6326, 47327.78
569.1147, 47312.37
569.5969, 47284.59
570.0790, 47251.31
570.5611, 47225.93
571.0432, 47208.45
571.5253, 47198.55
572.0074, 47198.86
572.4896, 47205.36
572.9717, 47215.68
573.4538, 47236.53
573.9359, 47244.83
574.4180, 47228.72
574.9001, 47193.44
575.3823, 47147.92
575.8644, 47073.45
576.3465, 47011.05
576.8286, 46974.37
577.3107, 46960.45
577.7928, 46939.11
578.2750, 46899.59
578.7571, 46871.02
579.2392, 46882.08
579.7213, 46947.26
580.2034, 46941.38
580.6855, 46853.23
581.1677, 46733.60
581.6498, 46624.05
582.1320, 46529.23
582.6141, 46474.50
583.0962, 46477.91
583.5783, 46503.71
584.0604, 46517.36
584.5425, 46517.47
585.0247, 46499.47
585.5068, 46434.48
585.9889, 46371.14
586.4710, 46347.60
586.9531, 46364.18
587.4352, 46383.39
587.9174, 46384.29
588.3995, 46388.65
588.8816, 46413.80
589.3637, 46498.86
589.8458, 46530.50
590.3279, 46479.32
590.8101, 46393.00
591.2922, 46329.55
591.7743, 46287.17
592.2564, 46275.34
592.7385, 46307.52
593.2206, 46362.54
593.7028, 46381.29
594.1849, 46363.88
594.6670, 46332.48
595.1491, 46277.02
595.6312, 46223.00
596.1133, 46237.48
596.5955, 46322.74
597.0776, 46398.27
597.5597, 46396.84
598.0418, 46359.23
598.5239, 46329.60
599.0060, 46322.54
599.4882, 46315.41
599.9703, 46297.25
600.4524, 46274.34
600.9345, 46255.75
601.4166, 46239.62
601.8987, 46229.76
602.3809, 46219.28
602.8630, 46212.57
603.3451, 46244.38
603.8272, 46338.41
604.3093, 46407.42
604.7914, 46394.02
605.2736, 46303.75
605.7557, 46262.05
606.2378, 46275.15
606.7199, 46293.36
607.2020, 46255.90
607.6841, 46188.50
608.1663, 46156.94
608.6484, 46183.93
609.1305, 46222.20
609.6126, 46248.73
610.0947, 46255.02
610.5768, 46225.25
611.0590, 46088.15
611.5411, 45980.06
612.0232, 45979.27
612.5053, 46065.23
612.9874, 46110.88
613.4695, 46092.01
613.9517, 46038.78
614.4338, 45940.99
614.9159, 45782.33
615.3980, 45725.87
615.8801, 45807.50
616.3622, 45911.16
616.8444, 45921.98
617.3265, 45845.23
617.8086, 45805.98
618.2907, 45825.83
618.7728, 45868.39
619.2549, 45889.70
619.7371, 45894.32
620.2192, 45893.80
620.7013, 45893.75
621.1834, 45889.07
621.6655, 45876.50
622.1476, 45856.29
622.6298, 45829.08
623.1119, 45785.15
623.5940, 45744.37
624.0761, 45717.75
624.5582, 45708.56
625.0403, 45698.75
625.5225, 45687.27
626.0046, 45676.17
626.4867, 45664.12
626.9688, 45646.49
627.4509, 45647.89
627.9330, 45673.14
628.4152, 45706.44
628.8973, 45730.05
629.3794, 45743.00
629.8615, 45739.98
630.3436, 45710.85
630.8257, 45676.04
631.3079, 45662.52
631.7900, 45666.48
632.2721, 45676.93
632.7542, 45709.73
633.2363, 45730.50
633.7184, 45708.19
634.2006, 45645.13
634.6827, 45593.47
635.1648, 45583.36
635.6469, 45577.86
636.1290, 45553.61
636.6111, 45495.50
637.0933, 45471.25
637.5754, 45497.12
638.0575, 45537.21
638.5396, 45552.56
639.0217, 45540.97
639.5038, 45533.70
639.9860, 45536.43
640.4681, 45541.62
640.9502, 45517.88
641.4323, 45479.27
641.9144, 45486.83
642.3965, 45621.52
642.8787, 45768.85
643.3608, 45804.14
643.8429, 45748.93
644.3250, 45690.88
644.8071, 45659.69
645.2892, 45643.66
645.7714, 45641.33
646.2535, 45655.90
646.7356, 45662.37
647.2177, 45646.55
647.6998, 45636.71
