##NAMES=Galenobismutite
##RRUFFID=R110057
##IDEAL CHEMISTRY=Pb^2+^Bi^3+^_2_S^2-^_4_
##LOCALITY=Vena Cobalt mines, Bergslagen, Sweden
##OWNER=RRUFF
##SOURCE=William W Pinch
##DESCRIPTION=Gray metallic massive
##STATUS=The identification of this mineral has been confirmed by single-crystal X-ray diffraction.
##URL=rruff.info/R110057
92.56775, 1884.717
93.04987, 1946.437
93.53198, 2024.485
94.01410, 2080.439
94.49622, 2113.769
94.97833, 2133.521
95.46045, 2147.298
95.94257, 2154.998
96.42468, 2161.095
96.90680, 2170.368
97.38892, 2176.887
97.87103, 2178.540
98.35315, 2173.179
98.83527, 2161.664
99.31738, 2150.809
99.79950, 2141.198
100.2816, 2133.198
100.7637, 2127.675
101.2458, 2122.291
101.7280, 2114.226
102.2101, 2102.329
102.6922, 2089.880
103.1743, 2082.644
103.6564, 2080.395
104.1385, 2078.009
104.6207, 2074.050
105.1028, 2068.518
105.5849, 2061.170
106.0670, 2050.271
106.5491, 2038.176
107.0313, 2027.945
107.5134, 2019.939
107.9955, 2011.845
108.4776, 2000.766
108.9597, 1985.675
109.4418, 1971.768
109.9240, 1961.052
110.4061, 1951.655
110.8882, 1942.130
111.3703, 1931.826
111.8524, 1921.628
112.3345, 1914.232
112.8167, 1913.960
113.2988, 1910.689
113.7809, 1900.967
114.2630, 1887.990
114.7451, 1875.684
115.2272, 1866.608
115.7094, 1860.525
116.1915, 1854.721
116.6736, 1849.651
117.1557, 1844.293
117.6378, 1838.622
118.1199, 1832.429
118.6021, 1825.069
119.0842, 1815.637
119.5663, 1803.961
120.0484, 1794.190
120.5305, 1787.196
121.0126, 1781.433
121.4948, 1775.693
121.9769, 1769.812
122.4590, 1764.010
122.9411, 1758.692
123.4232, 1753.709
123.9053, 1748.566
124.3875, 1743.106
124.8696, 1737.363
125.3517, 1731.293
125.8338, 1724.115
126.3159, 1717.788
126.7980, 1714.184
127.2802, 1712.769
127.7623, 1711.082
128.2444, 1706.820
128.7265, 1699.712
129.2086, 1693.157
129.6907, 1687.725
130.1729, 1682.702
130.6550, 1677.585
131.1371, 1672.419
131.6192, 1667.838
132.1013, 1664.959
132.5834, 1665.277
133.0656, 1664.300
133.5477, 1660.933
134.0298, 1657.097
134.5119, 1654.040
134.9940, 1652.233
135.4761, 1651.586
135.9583, 1651.959
136.4404, 1654.741
136.9225, 1656.878
137.4046, 1657.615
137.8867, 1657.743
138.3688, 1658.435
138.8510, 1660.303
139.3331, 1662.937
139.8152, 1665.029
140.2973, 1666.941
140.7794, 1668.021
141.2615, 1667.331
141.7437, 1665.293
142.2258, 1663.808
142.7079, 1663.897
143.1900, 1665.262
143.6721, 1667.113
144.1542, 1670.160
144.6364, 1672.767
145.1185, 1673.238
145.6006, 1671.374
146.0827, 1668.577
146.5648, 1665.603
147.0469, 1662.052
147.5291, 1657.268
148.0112, 1650.769
148.4933, 1643.180
148.9754, 1636.095
149.4575, 1630.557
149.9396, 1623.501
150.4218, 1614.204
150.9039, 1603.037
151.3860, 1590.294
151.8681, 1575.806
152.3502, 1559.838
152.8323, 1545.550
153.3145, 1534.949
153.7966, 1524.182
154.2787, 1512.771
154.7608, 1500.546
155.2429, 1487.175
155.7250, 1472.107
156.2072, 1455.130
156.6893, 1440.172
157.1714, 1428.235
157.6535, 1416.865
158.1356, 1405.036
158.6177, 1392.755
159.0999, 1380.504
159.5820, 1368.720
160.0641, 1357.433
160.5462, 1346.443
161.0283, 1335.642
161.5104, 1325.244
161.9926, 1315.312
162.4747, 1305.884
162.9568, 1297.205
163.4389, 1290.164
163.9210, 1284.631
164.4031, 1278.192
164.8853, 1269.685
165.3674, 1260.263
165.8495, 1251.811
166.3316, 1244.735
166.8137, 1238.143
167.2958, 1231.032
167.7780, 1223.575
168.2601, 1216.582
168.7422, 1210.617
169.2243, 1205.475
169.7064, 1200.442
170.1885, 1195.428
170.6707, 1190.573
171.1528, 1186.056
171.6349, 1181.793
172.1170, 1177.410
172.5991, 1172.775
173.0812, 1167.910
173.5634, 1162.258
174.0455, 1153.714
174.5276, 1146.011
175.0097, 1141.307
175.4918, 1139.284
175.9739, 1137.919
176.4561, 1134.978
176.9382, 1129.833
177.4203, 1125.120
177.9024, 1120.583
178.3845, 1116.603
178.8666, 1113.899
179.3488, 1112.305
179.8309, 1110.677
180.3130, 1107.376
180.7951, 1101.153
181.2772, 1096.073
181.7593, 1092.379
182.2415, 1089.502
182.7236, 1087.402
183.2057, 1085.957
183.6878, 1084.519
184.1699, 1082.062
184.6520, 1077.822
185.1342, 1074.038
185.6163, 1071.042
186.0984, 1068.411
186.5805, 1065.748
187.0626, 1062.942
187.5447, 1060.015
188.0269, 1056.911
188.5090, 1053.490
188.9911, 1050.427
189.4732, 1048.561
189.9553, 1047.046
190.4374, 1044.077
190.9196, 1038.545
191.4017, 1032.642
191.8838, 1029.794
192.3659, 1030.113
192.8480, 1030.406
193.3301, 1029.217
193.8123, 1026.812
194.2944, 1024.183
194.7765, 1021.615
195.2586, 1018.799
195.7407, 1015.323
196.2228, 1011.180
196.7050, 1007.174
197.1871, 1004.097
197.6692, 1001.893
198.1513, 999.2606
198.6334, 995.4835
199.1155, 991.5958
199.5977, 988.1561
200.0798, 985.2277
200.5619, 982.8465
201.0440, 981.1942
201.5261, 980.3920
202.0082, 979.4802
202.4904, 978.6323
202.9725, 977.4263
203.4546, 975.3784
203.9367, 972.5410
204.4188, 969.5914
204.9009, 967.4014
205.3831, 966.2143
205.8652, 965.0703
206.3473, 964.0992
206.8294, 963.0345
207.3115, 961.5532
207.7936, 959.6906
208.2758, 957.8787
208.7579, 956.7371
209.2400, 956.4776
209.7221, 956.5048
210.2042, 957.3828
210.6863, 958.1104
211.1685, 958.0865
211.6506, 957.1617
212.1327, 955.4656
212.6148, 953.0479
213.0969, 948.9695
213.5790, 946.3171
214.0612, 946.2774
214.5433, 946.8212
215.0254, 946.2937
215.5075, 944.3289
215.9896, 941.7243
216.4717, 939.5954
216.9539, 938.1281
217.4360, 936.7529
217.9181, 935.6575
218.4002, 934.5499
218.8823, 932.8050
219.3644, 930.2673
219.8466, 928.0428
220.3287, 927.8633
220.8108, 930.1053
221.2929, 932.1760
221.7750, 934.2970
222.2571, 935.8586
222.7393, 935.7990
223.2214, 933.7328
223.7035, 931.0540
224.1856, 929.3602
224.6677, 928.5545
225.1498, 928.2994
225.6320, 929.2457
226.1141, 930.5175
226.5962, 930.3996
227.0783, 928.2033
227.5604, 925.8341
228.0425, 925.7570
228.5247, 927.3741
229.0068, 928.1180
229.4889, 926.2714
229.9710, 922.9255
230.4531, 920.3707
230.9352, 918.7064
231.4174, 918.1906
231.8995, 919.8417
232.3816, 922.8486
232.8637, 924.9418
233.3458, 924.5707
233.8279, 922.3976
234.3101, 920.5004
234.7922, 918.8870
235.2743, 917.6846
235.7564, 916.7242
236.2385, 916.1470
236.7206, 916.2907
237.2028, 917.5792
237.6849, 919.7576
238.1670, 921.9573
238.6491, 925.1889
239.1312, 926.7360
239.6133, 924.7956
240.0955, 920.7897
240.5776, 917.0895
241.0597, 915.1885
241.5418, 914.6843
242.0239, 913.5740
242.5060, 910.6961
242.9882, 908.8777
243.4703, 909.5571
243.9524, 911.5757
244.4345, 913.1859
244.9166, 913.2789
245.3987, 912.3132
245.8809, 912.5433
246.3630, 915.6633
246.8451, 917.7784
247.3272, 917.5028
247.8093, 915.9865
248.2914, 914.8311
248.7736, 914.9604
249.2557, 915.8539
249.7378, 915.3680
250.2199, 912.0497
250.7020, 909.0575
251.1841, 906.7302
251.6663, 904.9783
252.1484, 903.8307
252.6305, 903.3087
253.1126, 903.1219
253.5947, 902.3119
254.0768, 899.6080
254.5590, 897.8485
255.0411, 897.7535
255.5232, 898.4643
256.0053, 899.1974
256.4874, 899.6144
256.9695, 899.6056
257.4517, 898.9027
257.9338, 896.2224
258.4159, 894.3747
258.8980, 894.2467
259.3801, 894.5774
259.8622, 893.9112
260.3444, 891.7606
260.8265, 888.9161
261.3086, 886.8916
261.7907, 886.7119
262.2728, 885.6951
262.7549, 882.5008
263.2371, 879.0781
263.7192, 877.6526
264.2013, 878.7669
264.6834, 880.9082
265.1655, 881.9133
265.6476, 881.4879
266.1298, 880.3515
266.6119, 878.1580
267.0940, 875.4575
267.5761, 872.4658
268.0582, 869.2692
268.5403, 866.5565
269.0225, 865.2865
269.5046, 865.9382
269.9867, 865.9609
270.4688, 864.9033
270.9509, 863.4505
271.4330, 862.3340
271.9152, 861.6085
272.3973, 860.5158
272.8794, 858.1503
273.3615, 854.3923
273.8436, 851.3893
274.3257, 849.6497
274.8079, 848.3203
275.2900, 846.6621
275.7721, 844.6641
276.2542, 843.0098
276.7363, 842.4466
277.2184, 842.7657
277.7006, 842.1225
278.1827, 839.2051
278.6648, 836.3663
279.1469, 835.4800
279.6290, 836.3665
280.1111, 837.4376
280.5933, 837.8582
281.0754, 837.6995
281.5575, 837.4626
282.0396, 837.6326
282.5217, 837.1603
283.0038, 834.7183
283.4860, 830.7670
283.9681, 827.7977
284.4502, 827.3307
284.9323, 828.2297
285.4144, 828.0056
285.8965, 826.3428
286.3787, 824.4083
286.8608, 822.7260
287.3429, 821.2737
287.8250, 819.9213
288.3071, 818.5654
288.7892, 817.3966
289.2714, 816.7936
289.7535, 816.8496
290.2356, 816.6701
290.7177, 815.5069
291.1998, 813.7780
291.6819, 812.7223
292.1641, 812.9285
292.6462, 813.2293
293.1283, 812.1614
293.6104, 809.9017
294.0925, 807.7272
294.5746, 806.0593
295.0568, 804.8363
295.5389, 804.0237
296.0210, 803.7291
296.5031, 803.5159
296.9852, 802.8990
297.4673, 802.0387
297.9495, 801.3917
298.4316, 801.7217
298.9137, 802.1161
299.3958, 800.9074
299.8779, 797.7228
300.3600, 794.5771
300.8422, 792.7451
301.3243, 791.8875
301.8064, 791.6046
302.2885, 792.0901
302.7706, 792.8412
303.2527, 793.3156
303.7349, 793.5048
304.2170, 793.5717
304.6991, 793.6408
305.1812, 793.5926
305.6633, 793.3310
306.1454, 792.9346
306.6276, 792.0954
307.1097, 790.0876
307.5918, 787.0229
308.0739, 784.8726
308.5560, 784.8690
309.0381, 785.5970
309.5203, 785.3801
310.0024, 784.0974
310.4845, 782.6827
310.9666, 781.7003
311.4487, 781.1015
311.9308, 780.6309
312.4130, 780.0994
312.8951, 779.9215
313.3772, 780.8307
313.8593, 782.6074
314.3414, 783.7266
314.8235, 782.7899
315.3057, 780.6607
315.7878, 779.7751
316.2699, 780.8793
316.7520, 781.9078
317.2341, 781.0616
317.7162, 779.0045
318.1984, 777.0878
318.6805, 775.7346
319.1626, 774.8358
319.6447, 774.2194
320.1268, 773.8766
320.6089, 773.8897
321.0911, 774.9662
321.5732, 776.2471
322.0553, 776.3963
322.5374, 774.7063
323.0195, 772.5432
323.5016, 771.2951
323.9838, 770.9589
324.4659, 770.8510
324.9480, 770.9648
325.4301, 770.9936
325.9122, 770.4539
326.3943, 769.1736
326.8765, 768.0785
327.3586, 768.2307
327.8407, 769.3130
328.3228, 769.4454
328.8049, 767.7350
329.2870, 765.5766
329.7692, 764.4715
330.2513, 764.3282
330.7334, 764.1810
331.2155, 763.4039
331.6976, 762.3058
332.1797, 761.6489
332.6619, 761.6100
333.1440, 761.7354
333.6261, 761.6405
334.1082, 761.4188
334.5903, 761.3008
335.0724, 761.5057
335.5546, 761.7764
336.0367, 761.8370
336.5188, 761.6954
337.0009, 761.2233
337.4830, 759.9835
337.9651, 758.4763
338.4473, 757.6407
338.9294, 757.7390
339.4115, 758.2751
339.8936, 759.4513
340.3757, 761.0417
340.8578, 761.0305
341.3400, 757.5815
341.8221, 753.2974
342.3042, 752.4837
342.7863, 755.8151
343.2684, 758.5974
343.7505, 757.9711
344.2327, 755.1187
344.7148, 752.8074
345.1969, 751.5999
345.6790, 751.0844
346.1611, 751.1251
346.6432, 751.6179
347.1254, 751.8130
347.6075, 751.2792
348.0896, 750.4579
348.5717, 749.9193
349.0538, 749.7179
349.5359, 749.5416
350.0181, 749.1816
350.5002, 748.6483
350.9823, 748.0430
351.4644, 747.1324
351.9465, 746.3597
352.4286, 746.2816
352.9108, 746.7059
353.3929, 746.6203
353.8750, 745.3214
354.3571, 743.4261
354.8392, 742.5606
355.3214, 743.2627
355.8035, 743.6318
356.2856, 742.6373
356.7677, 740.9183
357.2498, 739.7081
357.7319, 739.4192
358.2141, 739.3268
358.6962, 738.0933
359.1783, 735.2627
359.6604, 734.2051
360.1425, 737.5273
360.6246, 741.4156
361.1068, 741.7986
361.5889, 738.4952
362.0710, 734.8127
362.5531, 733.5471
363.0352, 734.6891
363.5173, 735.1280
363.9995, 734.4984
364.4816, 733.6072
364.9637, 732.4183
365.4458, 731.2453
365.9279, 730.9046
366.4100, 731.9042
366.8922, 733.8217
367.3743, 735.2946
367.8564, 736.5067
368.3385, 737.0590
368.8206, 736.6417
369.3027, 735.6416
369.7849, 734.4609
370.2670, 733.2234
370.7491, 731.8488
371.2312, 730.1619
371.7133, 727.8597
372.1954, 726.2741
372.6776, 725.4516
373.1597, 725.2395
373.6418, 726.0825
374.1239, 727.5986
374.6060, 728.5444
375.0881, 727.8573
375.5703, 725.5953
376.0524, 723.7137
376.5345, 721.9506
377.0166, 720.8419
377.4987, 720.8703
377.9808, 721.5404
378.4630, 722.2543
378.9451, 722.7405
379.4272, 722.9156
379.9093, 722.5437
380.3914, 721.1749
380.8735, 719.9840
381.3557, 718.7457
381.8378, 717.8578
382.3199, 717.9225
382.8020, 718.8373
383.2841, 719.6530
383.7662, 719.1347
384.2484, 716.9521
384.7305, 715.7270
385.2126, 716.2230
385.6947, 716.9800
386.1768, 717.6882
386.6589, 718.3026
387.1411, 718.8291
387.6232, 719.2626
388.1053, 719.6275
388.5874, 720.1594
389.0695, 721.6267
389.5516, 721.7145
390.0338, 718.2971
390.5159, 714.3317
390.9980, 712.8702
391.4801, 714.7288
391.9622, 717.5770
392.4443, 718.4667
392.9265, 717.1687
393.4086, 716.1447
393.8907, 715.6119
394.3728, 715.5468
394.8549, 716.3185
395.3370, 717.6419
395.8192, 718.4996
396.3013, 717.8493
396.7834, 716.2460
397.2655, 715.7724
397.7476, 717.1041
398.2297, 717.8054
398.7119, 715.6422
399.1940, 712.3694
399.6761, 710.2042
400.1582, 709.7728
400.6403, 710.4189
401.1224, 712.0291
401.6046, 714.5079
402.0867, 715.9371
402.5688, 715.1781
403.0509, 713.7360
403.5330, 713.4376
404.0151, 714.2910
404.4973, 715.3006
404.9794, 716.2572
405.4615, 717.0250
405.9436, 717.2447
406.4257, 716.8118
406.9078, 716.3496
407.3900, 716.4022
407.8721, 716.8809
408.3542, 717.2521
408.8363, 717.3729
409.3184, 717.4784
409.8005, 717.9481
410.2827, 718.5809
410.7648, 718.4824
411.2469, 717.0123
411.7290, 715.0789
412.2111, 714.8701
412.6932, 716.8454
413.1754, 719.0429
413.6575, 721.5892
414.1396, 723.9482
414.6217, 725.4954
415.1038, 726.1473
415.5859, 726.3330
416.0681, 726.4039
416.5502, 726.3215
417.0323, 726.5856
417.5144, 727.0670
417.9965, 727.9545
418.4786, 729.5953
418.9608, 731.6669
419.4429, 733.6156
419.9250, 735.1600
420.4071, 736.3661
420.8892, 737.4164
421.3713, 738.3582
421.8535, 739.0391
422.3356, 738.4761
422.8177, 738.3445
423.2998, 740.5361
423.7819, 744.9149
424.2640, 749.2451
424.7462, 751.0101
425.2283, 749.9736
425.7104, 750.0112
426.1925, 752.6089
426.6746, 754.6951
427.1567, 754.5850
427.6389, 753.5764
428.1210, 753.8607
428.6031, 756.6364
429.0852, 760.6030
429.5673, 763.0564
430.0494, 763.5803
430.5316, 764.1251
431.0137, 765.7078
431.4958, 767.0426
431.9779, 766.8420
432.4600, 765.2020
432.9421, 763.9718
433.4243, 765.0517
433.9064, 767.8164
434.3885, 769.4778
434.8706, 769.6061
435.3527, 769.3430
435.8348, 769.2875
436.3170, 769.3613
436.7991, 769.4645
437.2812, 769.6680
437.7633, 769.7537
438.2454, 769.6272
438.7275, 769.2499
439.2097, 768.2438
439.6918, 766.1814
440.1739, 763.8799
440.6560, 762.7881
441.1381, 763.0155
441.6202, 762.7317
442.1024, 761.1147
442.5845, 758.8998
443.0666, 756.7740
443.5487, 754.8369
444.0308, 753.3007
444.5129, 752.5297
444.9951, 752.3442
445.4772, 751.0313
445.9593, 747.4188
446.4414, 744.2280
446.9235, 742.7194
447.4056, 742.0248
447.8878, 740.6843
448.3699, 738.2173
448.8520, 735.5071
449.3341, 733.9732
449.8162, 734.3403
450.2983, 733.8340
450.7805, 731.9650
451.2626, 729.8196
451.7447, 727.5851
452.2268, 725.5367
452.7089, 724.2498
453.1910, 724.2345
453.6732, 725.0406
454.1553, 724.6436
454.6374, 721.7112
455.1195, 719.8721
455.6016, 720.6134
456.0837, 721.9492
456.5659, 722.3066
457.0480, 721.3677
457.5301, 719.6939
458.0122, 717.5146
458.4943, 714.8467
458.9764, 713.0178
459.4586, 712.0877
459.9407, 712.0472
460.4228, 713.6006
460.9049, 715.8139
461.3870, 717.0072
461.8691, 716.4957
462.3513, 714.8976
462.8334, 712.4007
463.3155, 709.0780
463.7976, 706.9568
464.2797, 707.1866
464.7618, 708.2871
465.2440, 708.5018
465.7261, 707.8571
466.2082, 706.6722
466.6903, 704.2701
467.1724, 701.8019
467.6545, 700.8857
468.1367, 701.5721
468.6188, 702.5170
469.1009, 702.9313
469.5830, 702.8448
470.0651, 702.4301
470.5472, 701.6210
471.0294, 700.6246
471.5115, 698.9794
471.9936, 697.3861
472.4757, 696.8327
472.9578, 697.5372
473.4399, 698.8564
473.9221, 700.1145
474.4042, 701.4196
474.8863, 701.9817
475.3684, 701.5813
475.8505, 700.7729
476.3326, 699.2427
476.8148, 697.5479
477.2969, 696.7281
477.7790, 697.3253
478.2611, 698.4978
478.7432, 698.3079
479.2253, 696.0587
479.7075, 694.4362
480.1896, 694.4541
480.6717, 694.5877
481.1538, 693.9044
481.6359, 692.5247
482.1180, 691.2314
482.6002, 690.5316
483.0823, 690.3104
483.5644, 690.4711
484.0465, 691.3390
484.5286, 691.3401
485.0107, 688.5782
485.4929, 685.1946
485.9750, 683.9051
486.4571, 685.3243
486.9392, 687.0902
487.4213, 687.9570
487.9034, 688.1152
488.3856, 687.8387
488.8677, 687.1024
489.3498, 686.4576
489.8319, 686.4839
490.3140, 687.1085
490.7961, 687.2969
491.2783, 687.1276
491.7604, 686.4492
492.2425, 684.7666
492.7246, 682.6035
493.2067, 680.9807
493.6888, 680.2628
494.1710, 679.8958
494.6531, 678.9619
495.1352, 676.9368
495.6173, 676.0741
496.0994, 677.0696
496.5815, 678.3723
497.0637, 679.4200
497.5458, 680.1679
498.0279, 680.7281
498.5100, 681.1750
498.9921, 681.4067
499.4742, 681.2355
499.9564, 680.8417
500.4385, 679.5416
500.9206, 675.4474
501.4027, 671.8255
501.8848, 671.2737
502.3669, 673.4167
502.8491, 675.5032
503.3312, 675.6251
503.8133, 674.3328
504.2954, 672.8275
504.7775, 670.9003
505.2596, 669.8464
505.7418, 671.1221
506.2239, 673.1652
506.7060, 673.5139
507.1881, 671.5493
507.6702, 670.0052
508.1523, 670.6886
508.6345, 672.5363
509.1166, 674.1047
509.5987, 675.1852
510.0808, 675.0054
510.5629, 672.3414
511.0450, 667.6197
511.5272, 665.6347
512.0093, 668.9016
512.4914, 671.5148
512.9735, 670.9456
513.4556, 669.0667
513.9377, 668.5969
514.4199, 670.1771
514.9020, 672.1135
515.3841, 672.2127
515.8662, 670.1695
516.3483, 668.4088
516.8304, 667.2307
517.3126, 666.0331
517.7947, 664.9262
518.2768, 663.6160
518.7589, 661.2679
519.2410, 657.4516
519.7231, 654.0391
520.2053, 654.4444
520.6874, 659.0446
521.1695, 661.8110
521.6516, 660.9680
522.1337, 659.3472
522.6158, 659.0147
523.0980, 659.5228
523.5801, 659.5710
524.0622, 658.4246
524.5443, 656.9012
525.0264, 655.5102
525.5085, 654.3683
525.9907, 654.5235
526.4728, 656.8312
526.9549, 659.4930
527.4370, 659.4111
527.9191, 655.9269
528.4012, 654.1160
528.8834, 656.0156
529.3655, 658.4263
529.8476, 659.2429
530.3297, 658.6661
530.8118, 657.6071
531.2939, 656.5026
531.7761, 655.5394
532.2582, 655.2437
532.7403, 656.1717
533.2224, 656.7335
533.7045, 657.0266
534.1866, 656.8806
534.6688, 655.7330
535.1509, 654.0036
535.6330, 652.8614
536.1151, 653.1579
536.5972, 654.4401
537.0793, 655.6726
537.5615, 657.0142
538.0436, 657.6283
538.5257, 656.8008
539.0078, 655.4860
539.4899, 654.4462
539.9720, 653.7118
540.4542, 653.1251
540.9363, 652.8099
541.4184, 652.5078
541.9005, 651.6280
542.3826, 650.2100
542.8647, 649.2999
543.3469, 649.5809
543.8290, 650.5716
544.3111, 651.0610
544.7932, 651.0397
545.2753, 650.6356
545.7574, 649.4801
546.2396, 648.2123
546.7217, 647.1436
547.2038, 646.4420
547.6859, 646.6062
548.1680, 648.1418
548.6501, 650.5126
549.1323, 651.2415
549.6144, 649.0089
550.0965, 647.3936
550.5786, 647.1450
551.0607, 647.2933
551.5428, 647.0592
552.0250, 646.4728
552.5071, 646.1816
552.9892, 646.7985
553.4713, 648.0109
553.9534, 648.9294
554.4355, 649.5182
554.9177, 650.0188
555.3998, 650.8846
555.8819, 651.4122
556.3640, 650.3937
556.8461, 647.5320
557.3282, 645.4538
557.8104, 645.7455
558.2925, 647.0158
558.7746, 647.7390
559.2567, 647.8224
559.7388, 647.6376
560.2209, 647.3878
560.7031, 647.0610
561.1852, 646.6146
561.6673, 645.4947
562.1494, 645.0615
562.6315, 646.2322
563.1136, 647.3936
563.5958, 647.0547
564.0779, 645.5174
564.5600, 644.3290
565.0421, 644.6986
565.5242, 646.0109
566.0063, 646.0298
566.4885, 644.0999
566.9706, 642.7904
567.4527, 643.3859
567.9348, 644.3055
568.4169, 644.4434
568.8990, 643.8306
569.3812, 643.2081
569.8633, 642.9993
570.3454, 642.9905
570.8275, 642.8270
571.3096, 642.5299
571.7917, 642.4407
572.2739, 642.7638
572.7560, 643.2797
573.2381, 643.6465
573.7202, 643.9400
574.2023, 643.8323
574.6844, 642.5979
575.1666, 641.5593
575.6487, 641.7283
576.1308, 642.8602
576.6129, 644.4301
577.0950, 646.2316
577.5771, 647.5834
578.0593, 646.6173
578.5414, 641.7873
579.0235, 638.8651
579.5056, 639.8160
579.9877, 641.1712
580.4698, 641.2452
580.9520, 640.5154
581.4341, 640.4245
581.9162, 641.9644
582.3983, 643.6801
582.8804, 643.2539
583.3625, 640.9258
583.8447, 639.4088
584.3268, 639.6246
584.8089, 640.1253
585.2910, 638.9055
585.7731, 636.2776
586.2552, 635.5900
586.7374, 639.0187
587.2195, 642.4842
587.7016, 643.8116
588.1837, 643.7491
588.6658, 643.6522
589.1479, 643.9319
589.6301, 644.1204
590.1122, 643.5514
590.5943, 642.0831
591.0764, 641.2139
