##NAMES=Galeite
##RRUFFID=R130025
##IDEAL CHEMISTRY=Na_15_(S^6+^O_4_)_5_ClF_4_
##LOCALITY=Searles Lake, Trona, San Bernardino County, California, USA
##OWNER=RRUFF
##SOURCE=Marcus Origlieri
##DESCRIPTION=Colorless hexagonal prisms with tapering pyramidal terminations, associated with gaylussite
##STATUS=The identification of this mineral has been confirmed by single-crystal X-ray diffraction.
##URL=rruff.info/R130025
8.936163e+001, 0.000000e+000
8.984375e+001, 2.973916e+002
9.032587e+001, 3.003498e+002
9.080798e+001, 3.009443e+002
9.129010e+001, 2.983325e+002
9.177222e+001, 2.943316e+002
9.225433e+001, 2.909910e+002
9.273645e+001, 2.882574e+002
9.321857e+001, 2.857177e+002
9.370068e+001, 2.832427e+002
9.418280e+001, 2.807431e+002
9.466492e+001, 2.779377e+002
9.514703e+001, 2.744892e+002
9.562915e+001, 2.707244e+002
9.611127e+001, 2.675486e+002
9.659338e+001, 2.650624e+002
9.707550e+001, 2.627596e+002
9.755762e+001, 2.598324e+002
9.803973e+001, 2.562503e+002
9.852185e+001, 2.530663e+002
9.900397e+001, 2.508487e+002
9.948608e+001, 2.496149e+002
9.996820e+001, 2.482465e+002
1.004503e+002, 2.467985e+002
1.009324e+002, 2.451248e+002
1.014146e+002, 2.428299e+002
1.018967e+002, 2.397095e+002
1.023788e+002, 2.364941e+002
1.028609e+002, 2.334322e+002
1.033430e+002, 2.304225e+002
1.038251e+002, 2.280466e+002
1.043073e+002, 2.267047e+002
1.047894e+002, 2.260940e+002
1.052715e+002, 2.245942e+002
1.057536e+002, 2.217049e+002
1.062357e+002, 2.184641e+002
1.067178e+002, 2.155069e+002
1.072000e+002, 2.126922e+002
1.076821e+002, 2.104213e+002
1.081642e+002, 2.091011e+002
1.086463e+002, 2.088616e+002
1.091284e+002, 2.077644e+002
1.096105e+002, 2.051937e+002
1.100927e+002, 2.020255e+002
1.105748e+002, 1.991030e+002
1.110569e+002, 1.962007e+002
1.115390e+002, 1.937686e+002
1.120211e+002, 1.921167e+002
1.125032e+002, 1.915696e+002
1.129854e+002, 1.906175e+002
1.134675e+002, 1.888560e+002
1.139496e+002, 1.866160e+002
1.144317e+002, 1.843482e+002
1.149138e+002, 1.816351e+002
1.153959e+002, 1.793219e+002
1.158781e+002, 1.779981e+002
1.163602e+002, 1.784916e+002
1.168423e+002, 1.783808e+002
1.173244e+002, 1.763840e+002
1.178065e+002, 1.730824e+002
1.182886e+002, 1.699549e+002
1.187708e+002, 1.676490e+002
1.192529e+002, 1.657473e+002
1.197350e+002, 1.639102e+002
1.202171e+002, 1.616568e+002
1.206992e+002, 1.599139e+002
1.211813e+002, 1.598451e+002
1.216635e+002, 1.611153e+002
1.221456e+002, 1.618746e+002
1.226277e+002, 1.607265e+002
1.231098e+002, 1.584348e+002
1.235919e+002, 1.559991e+002
1.240740e+002, 1.535690e+002
1.245562e+002, 1.512666e+002
1.250383e+002, 1.492045e+002
1.255204e+002, 1.473721e+002
1.260025e+002, 1.458601e+002
1.264846e+002, 1.448346e+002
1.269667e+002, 1.442018e+002
1.274489e+002, 1.437278e+002
1.279310e+002, 1.435994e+002
1.284131e+002, 1.435154e+002
1.288952e+002, 1.427910e+002
1.293773e+002, 1.413220e+002
1.298594e+002, 1.396131e+002
1.303416e+002, 1.382809e+002
1.308237e+002, 1.372849e+002
1.313058e+002, 1.362385e+002
1.317879e+002, 1.348638e+002
1.322700e+002, 1.332405e+002
1.327521e+002, 1.317363e+002
1.332343e+002, 1.303440e+002
1.337164e+002, 1.291352e+002
1.341985e+002, 1.282847e+002
1.346806e+002, 1.278215e+002
1.351627e+002, 1.273311e+002
1.356448e+002, 1.263831e+002
1.361270e+002, 1.249588e+002
1.366091e+002, 1.241272e+002
1.370912e+002, 1.242699e+002
1.375733e+002, 1.249747e+002
1.380554e+002, 1.247811e+002
1.385375e+002, 1.234891e+002
1.390197e+002, 1.218736e+002
1.395018e+002, 1.204648e+002
1.399839e+002, 1.192879e+002
1.404660e+002, 1.182791e+002
1.409481e+002, 1.174941e+002
1.414302e+002, 1.169077e+002
1.419124e+002, 1.161162e+002
1.423945e+002, 1.150102e+002
1.428766e+002, 1.138551e+002
1.433587e+002, 1.129549e+002
1.438408e+002, 1.125344e+002
1.443229e+002, 1.119079e+002
1.448051e+002, 1.107844e+002
1.452872e+002, 1.089959e+002
1.457693e+002, 1.079283e+002
1.462514e+002, 1.079531e+002
1.467335e+002, 1.084491e+002
1.472156e+002, 1.086354e+002
1.476978e+002, 1.084436e+002
1.481799e+002, 1.080227e+002
1.486620e+002, 1.073677e+002
1.491441e+002, 1.063831e+002
1.496262e+002, 1.054344e+002
1.501083e+002, 1.045390e+002
1.505905e+002, 1.036901e+002
1.510726e+002, 1.028716e+002
1.515547e+002, 1.019127e+002
1.520368e+002, 1.011387e+002
1.525189e+002, 1.007135e+002
1.530010e+002, 1.011767e+002
1.534832e+002, 1.010508e+002
1.539653e+002, 9.970166e+001
1.544474e+002, 9.766817e+001
1.549295e+002, 9.624426e+001
1.554116e+002, 9.627689e+001
1.558937e+002, 9.645542e+001
1.563759e+002, 9.618867e+001
1.568580e+002, 9.515606e+001
1.573401e+002, 9.399625e+001
1.578222e+002, 9.238433e+001
1.583043e+002, 9.061118e+001
1.587864e+002, 8.974869e+001
1.592686e+002, 9.103321e+001
1.597507e+002, 9.276855e+001
1.602328e+002, 9.387287e+001
1.607149e+002, 9.377451e+001
1.611970e+002, 9.333079e+001
1.616791e+002, 9.254397e+001
1.621613e+002, 9.151616e+001
1.626434e+002, 9.085001e+001
1.631255e+002, 9.099956e+001
1.636076e+002, 9.153918e+001
1.640897e+002, 9.208979e+001
1.645718e+002, 9.257298e+001
1.650540e+002, 9.300285e+001
1.655361e+002, 9.340774e+001
1.660182e+002, 9.378562e+001
1.665003e+002, 9.405704e+001
1.669824e+002, 9.396769e+001
1.674645e+002, 9.380596e+001
1.679467e+002, 9.392722e+001
1.684288e+002, 9.445763e+001
1.689109e+002, 9.532335e+001
1.693930e+002, 9.650786e+001
1.698751e+002, 9.802106e+001
1.703572e+002, 9.974197e+001
1.708394e+002, 1.014092e+002
1.713215e+002, 1.032649e+002
1.718036e+002, 1.056838e+002
1.722857e+002, 1.094421e+002
1.727678e+002, 1.135457e+002
1.732499e+002, 1.168369e+002
1.737321e+002, 1.191521e+002
1.742142e+002, 1.215502e+002
1.746963e+002, 1.252657e+002
1.751784e+002, 1.298355e+002
1.756605e+002, 1.341803e+002
1.761426e+002, 1.372797e+002
1.766248e+002, 1.399494e+002
1.771069e+002, 1.434458e+002
1.775890e+002, 1.480763e+002
1.780711e+002, 1.527558e+002
1.785532e+002, 1.562407e+002
1.790353e+002, 1.587866e+002
1.795175e+002, 1.611746e+002
1.799996e+002, 1.637690e+002
1.804817e+002, 1.665313e+002
1.809638e+002, 1.695455e+002
1.814459e+002, 1.729632e+002
1.819280e+002, 1.762677e+002
1.824102e+002, 1.786780e+002
1.828923e+002, 1.802761e+002
1.833744e+002, 1.818696e+002
1.838565e+002, 1.836352e+002
1.843386e+002, 1.857522e+002
1.848207e+002, 1.888044e+002
1.853029e+002, 1.931396e+002
1.857850e+002, 1.979914e+002
1.862671e+002, 2.020486e+002
1.867492e+002, 2.053406e+002
1.872313e+002, 2.088509e+002
1.877134e+002, 2.132688e+002
1.881956e+002, 2.185200e+002
1.886777e+002, 2.241095e+002
1.891598e+002, 2.301855e+002
1.896419e+002, 2.363816e+002
1.901240e+002, 2.419062e+002
1.906061e+002, 2.468091e+002
1.910883e+002, 2.514440e+002
1.915704e+002, 2.559712e+002
1.920525e+002, 2.604667e+002
1.925346e+002, 2.653401e+002
1.930167e+002, 2.708229e+002
1.934988e+002, 2.764223e+002
1.939810e+002, 2.801839e+002
1.944631e+002, 2.817705e+002
1.949452e+002, 2.831056e+002
1.954273e+002, 2.846993e+002
1.959094e+002, 2.865391e+002
1.963915e+002, 2.879769e+002
1.968737e+002, 2.887650e+002
1.973558e+002, 2.891255e+002
1.978379e+002, 2.899767e+002
1.983200e+002, 2.914545e+002
1.988021e+002, 2.928135e+002
1.992842e+002, 2.931458e+002
1.997664e+002, 2.923840e+002
2.002485e+002, 2.922137e+002
2.007306e+002, 2.932425e+002
2.012127e+002, 2.951546e+002
2.016948e+002, 2.961171e+002
2.021769e+002, 2.959820e+002
2.026591e+002, 2.954393e+002
2.031412e+002, 2.950376e+002
2.036233e+002, 2.947470e+002
2.041054e+002, 2.947651e+002
2.045875e+002, 2.951396e+002
2.050696e+002, 2.958540e+002
2.055518e+002, 2.968732e+002
2.060339e+002, 2.982991e+002
2.065160e+002, 2.997856e+002
2.069981e+002, 3.009173e+002
2.074802e+002, 3.015731e+002
2.079623e+002, 3.024076e+002
2.084445e+002, 3.037466e+002
2.089266e+002, 3.055444e+002
2.094087e+002, 3.064276e+002
2.098908e+002, 3.060595e+002
2.103729e+002, 3.054064e+002
2.108550e+002, 3.055701e+002
2.113372e+002, 3.067608e+002
2.118193e+002, 3.079904e+002
2.123014e+002, 3.090005e+002
2.127835e+002, 3.097816e+002
2.132656e+002, 3.107939e+002
2.137477e+002, 3.122373e+002
2.142299e+002, 3.136344e+002
2.147120e+002, 3.142804e+002
2.151941e+002, 3.137971e+002
2.156762e+002, 3.136507e+002
2.161583e+002, 3.143822e+002
2.166404e+002, 3.160605e+002
2.171226e+002, 3.170971e+002
2.176047e+002, 3.173549e+002
2.180868e+002, 3.171407e+002
2.185689e+002, 3.168171e+002
2.190510e+002, 3.164066e+002
2.195331e+002, 3.158115e+002
2.200153e+002, 3.148223e+002
2.204974e+002, 3.133242e+002
2.209795e+002, 3.127811e+002
2.214616e+002, 3.136187e+002
2.219437e+002, 3.149610e+002
2.224258e+002, 3.157337e+002
2.229080e+002, 3.157504e+002
2.233901e+002, 3.155894e+002
2.238722e+002, 3.153088e+002
2.243543e+002, 3.148434e+002
2.248364e+002, 3.148088e+002
2.253185e+002, 3.154042e+002
2.258007e+002, 3.162321e+002
2.262828e+002, 3.167892e+002
2.267649e+002, 3.169295e+002
2.272470e+002, 3.170652e+002
2.277291e+002, 3.173712e+002
2.282112e+002, 3.179279e+002
2.286934e+002, 3.179992e+002
2.291755e+002, 3.173798e+002
2.296576e+002, 3.164529e+002
2.301397e+002, 3.157100e+002
2.306218e+002, 3.151669e+002
2.311039e+002, 3.147663e+002
2.315861e+002, 3.144864e+002
2.320682e+002, 3.143116e+002
2.325503e+002, 3.144065e+002
2.330324e+002, 3.149767e+002
2.335145e+002, 3.156571e+002
2.339966e+002, 3.159513e+002
2.344788e+002, 3.155641e+002
2.349609e+002, 3.153356e+002
2.354430e+002, 3.155579e+002
2.359251e+002, 3.163371e+002
2.364072e+002, 3.168094e+002
2.368893e+002, 3.167886e+002
2.373715e+002, 3.166104e+002
2.378536e+002, 3.167005e+002
2.383357e+002, 3.171992e+002
2.388178e+002, 3.177110e+002
2.392999e+002, 3.181564e+002
2.397820e+002, 3.185342e+002
2.402642e+002, 3.187819e+002
2.407463e+002, 3.188499e+002
2.412284e+002, 3.188166e+002
2.417105e+002, 3.187608e+002
2.421926e+002, 3.186137e+002
2.426747e+002, 3.185626e+002
2.431569e+002, 3.187331e+002
2.436390e+002, 3.191953e+002
2.441211e+002, 3.192397e+002
2.446032e+002, 3.185907e+002
2.450853e+002, 3.177701e+002
2.455674e+002, 3.174030e+002
2.460496e+002, 3.177152e+002
2.465317e+002, 3.180807e+002
2.470138e+002, 3.184325e+002
2.474959e+002, 3.188019e+002
2.479780e+002, 3.188195e+002
2.484601e+002, 3.182850e+002
2.489423e+002, 3.176116e+002
2.494244e+002, 3.172853e+002
2.499065e+002, 3.175488e+002
2.503886e+002, 3.176902e+002
2.508707e+002, 3.174835e+002
2.513528e+002, 3.169059e+002
2.518350e+002, 3.166359e+002
2.523171e+002, 3.168736e+002
2.527992e+002, 3.172029e+002
2.532813e+002, 3.171826e+002
2.537634e+002, 3.166694e+002
2.542455e+002, 3.160951e+002
2.547277e+002, 3.154516e+002
2.552098e+002, 3.147256e+002
2.556919e+002, 3.144260e+002
2.561740e+002, 3.146976e+002
2.566561e+002, 3.152003e+002
2.571382e+002, 3.156173e+002
2.576204e+002, 3.159178e+002
2.581025e+002, 3.162092e+002
2.585846e+002, 3.165259e+002
2.590667e+002, 3.168636e+002
2.595488e+002, 3.170847e+002
2.600309e+002, 3.171352e+002
2.605131e+002, 3.171466e+002
2.609952e+002, 3.172607e+002
2.614773e+002, 3.175717e+002
2.619594e+002, 3.177326e+002
2.624415e+002, 3.176556e+002
2.629236e+002, 3.173665e+002
2.634058e+002, 3.171157e+002
2.638879e+002, 3.169233e+002
2.643700e+002, 3.167381e+002
2.648521e+002, 3.164746e+002
2.653342e+002, 3.160520e+002
2.658163e+002, 3.158501e+002
2.662985e+002, 3.160022e+002
2.667806e+002, 3.164276e+002
2.672627e+002, 3.166534e+002
2.677448e+002, 3.166017e+002
2.682269e+002, 3.165041e+002
2.687090e+002, 3.164564e+002
2.691912e+002, 3.163764e+002
2.696733e+002, 3.167453e+002
2.701554e+002, 3.178356e+002
2.706375e+002, 3.193651e+002
2.711196e+002, 3.201139e+002
2.716017e+002, 3.199033e+002
2.720839e+002, 3.194003e+002
2.725660e+002, 3.189907e+002
2.730481e+002, 3.186591e+002
2.735302e+002, 3.185163e+002
2.740123e+002, 3.186146e+002
2.744944e+002, 3.188841e+002
2.749766e+002, 3.191702e+002
2.754587e+002, 3.195185e+002
2.759408e+002, 3.197201e+002
2.764229e+002, 3.195948e+002
2.769050e+002, 3.191165e+002
2.773871e+002, 3.186476e+002
2.778693e+002, 3.181598e+002
2.783514e+002, 3.177605e+002
2.788335e+002, 3.177224e+002
2.793156e+002, 3.180849e+002
2.797977e+002, 3.185780e+002
2.802798e+002, 3.191700e+002
2.807620e+002, 3.198580e+002
2.812441e+002, 3.201175e+002
2.817262e+002, 3.197814e+002
2.822083e+002, 3.192566e+002
2.826904e+002, 3.194078e+002
2.831725e+002, 3.202941e+002
2.836547e+002, 3.209733e+002
2.841368e+002, 3.207121e+002
2.846189e+002, 3.196367e+002
2.851010e+002, 3.193693e+002
2.855831e+002, 3.201121e+002
2.860652e+002, 3.211906e+002
2.865474e+002, 3.215601e+002
2.870295e+002, 3.212364e+002
2.875116e+002, 3.209726e+002
2.879937e+002, 3.213406e+002
2.884758e+002, 3.221401e+002
2.889579e+002, 3.220042e+002
2.894401e+002, 3.207784e+002
2.899222e+002, 3.194276e+002
2.904043e+002, 3.191616e+002
2.908864e+002, 3.198825e+002
2.913685e+002, 3.208194e+002
2.918506e+002, 3.219098e+002
2.923328e+002, 3.229728e+002
2.928149e+002, 3.233355e+002
2.932970e+002, 3.229616e+002
2.937791e+002, 3.223699e+002
2.942612e+002, 3.220628e+002
2.947433e+002, 3.219851e+002
2.952255e+002, 3.219102e+002
2.957076e+002, 3.216386e+002
2.961897e+002, 3.213949e+002
2.966718e+002, 3.218130e+002
2.971539e+002, 3.228712e+002
2.976360e+002, 3.238087e+002
2.981182e+002, 3.237466e+002
2.986003e+002, 3.230501e+002
2.990824e+002, 3.226678e+002
2.995645e+002, 3.230459e+002
3.000466e+002, 3.236493e+002
3.005287e+002, 3.236082e+002
3.010109e+002, 3.230137e+002
3.014930e+002, 3.225082e+002
3.019751e+002, 3.226315e+002
3.024572e+002, 3.231469e+002
3.029393e+002, 3.236922e+002
3.034214e+002, 3.242877e+002
3.039036e+002, 3.247261e+002
3.043857e+002, 3.246190e+002
3.048678e+002, 3.241151e+002
3.053499e+002, 3.237514e+002
3.058320e+002, 3.241006e+002
3.063141e+002, 3.246856e+002
3.067963e+002, 3.248613e+002
3.072784e+002, 3.243864e+002
3.077605e+002, 3.239010e+002
3.082426e+002, 3.239645e+002
3.087247e+002, 3.244270e+002
3.092068e+002, 3.249309e+002
3.096890e+002, 3.252427e+002
3.101711e+002, 3.255367e+002
3.106532e+002, 3.260058e+002
3.111353e+002, 3.267130e+002
3.116174e+002, 3.273306e+002
3.120995e+002, 3.275712e+002
3.125817e+002, 3.275819e+002
3.130638e+002, 3.276078e+002
3.135459e+002, 3.277271e+002
3.140280e+002, 3.279083e+002
3.145101e+002, 3.281962e+002
3.149922e+002, 3.286095e+002
3.154744e+002, 3.288866e+002
3.159565e+002, 3.287101e+002
3.164386e+002, 3.284008e+002
3.169207e+002, 3.283249e+002
3.174028e+002, 3.290444e+002
3.178849e+002, 3.296210e+002
3.183671e+002, 3.295394e+002
3.188492e+002, 3.288335e+002
3.193313e+002, 3.282877e+002
3.198134e+002, 3.281518e+002
3.202955e+002, 3.282876e+002
3.207776e+002, 3.285841e+002
3.212598e+002, 3.293950e+002
3.217419e+002, 3.299555e+002
3.222240e+002, 3.299039e+002
3.227061e+002, 3.293695e+002
3.231882e+002, 3.290453e+002
3.236703e+002, 3.292306e+002
3.241525e+002, 3.295404e+002
3.246346e+002, 3.297556e+002
3.251167e+002, 3.296360e+002
3.255988e+002, 3.297189e+002
3.260809e+002, 3.302540e+002
3.265630e+002, 3.310471e+002
3.270452e+002, 3.315640e+002
3.275273e+002, 3.313682e+002
3.280094e+002, 3.312425e+002
3.284915e+002, 3.315149e+002
3.289736e+002, 3.325378e+002
3.294557e+002, 3.331707e+002
3.299379e+002, 3.332116e+002
3.304200e+002, 3.329254e+002
3.309021e+002, 3.327344e+002
3.313842e+002, 3.327125e+002
3.318663e+002, 3.326716e+002
3.323484e+002, 3.324682e+002
3.328306e+002, 3.320012e+002
3.333127e+002, 3.320710e+002
3.337948e+002, 3.330311e+002
3.342769e+002, 3.342095e+002
3.347590e+002, 3.348170e+002
3.352411e+002, 3.345642e+002
3.357233e+002, 3.344047e+002
3.362054e+002, 3.345475e+002
3.366875e+002, 3.349798e+002
3.371696e+002, 3.354460e+002
3.376517e+002, 3.360092e+002
3.381339e+002, 3.364979e+002
3.386160e+002, 3.366893e+002
3.390981e+002, 3.364777e+002
3.395802e+002, 3.365440e+002
3.400623e+002, 3.370908e+002
3.405444e+002, 3.379319e+002
3.410266e+002, 3.382951e+002
3.415087e+002, 3.380418e+002
3.419908e+002, 3.379723e+002
3.424729e+002, 3.388091e+002
3.429550e+002, 3.405327e+002
3.434371e+002, 3.417082e+002
3.439193e+002, 3.421410e+002
3.444014e+002, 3.421027e+002
3.448835e+002, 3.419456e+002
3.453656e+002, 3.416718e+002
3.458477e+002, 3.415472e+002
3.463298e+002, 3.417331e+002
3.468120e+002, 3.421905e+002
3.472941e+002, 3.427281e+002
3.477762e+002, 3.433445e+002
3.482583e+002, 3.440794e+002
3.487404e+002, 3.451231e+002
3.492225e+002, 3.463791e+002
3.497047e+002, 3.474170e+002
3.501868e+002, 3.478864e+002
3.506689e+002, 3.481167e+002
3.511510e+002, 3.487845e+002
3.516331e+002, 3.498755e+002
3.521152e+002, 3.509071e+002
3.525974e+002, 3.515204e+002
3.530795e+002, 3.517820e+002
3.535616e+002, 3.517798e+002
3.540437e+002, 3.513474e+002
3.545258e+002, 3.509040e+002
3.550079e+002, 3.510569e+002
3.554901e+002, 3.516487e+002
3.559722e+002, 3.519752e+002
3.564543e+002, 3.511712e+002
3.569364e+002, 3.500897e+002
3.574185e+002, 3.496617e+002
3.579006e+002, 3.502526e+002
3.583828e+002, 3.509762e+002
3.588649e+002, 3.514423e+002
3.593470e+002, 3.516396e+002
3.598291e+002, 3.515513e+002
3.603112e+002, 3.507935e+002
3.607933e+002, 3.500294e+002
3.612755e+002, 3.497365e+002
3.617576e+002, 3.500411e+002
3.622397e+002, 3.501848e+002
3.627218e+002, 3.497911e+002
3.632039e+002, 3.491120e+002
3.636860e+002, 3.484294e+002
3.641682e+002, 3.475143e+002
3.646503e+002, 3.468943e+002
3.651324e+002, 3.468727e+002
3.656145e+002, 3.474225e+002
3.660966e+002, 3.478989e+002
3.665787e+002, 3.483775e+002
3.670609e+002, 3.486381e+002
3.675430e+002, 3.485397e+002
3.680251e+002, 3.476773e+002
3.685072e+002, 3.469196e+002
3.689893e+002, 3.462562e+002
3.694714e+002, 3.457326e+002
3.699536e+002, 3.455491e+002
3.704357e+002, 3.461474e+002
3.709178e+002, 3.466206e+002
3.713999e+002, 3.465396e+002
3.718820e+002, 3.455104e+002
3.723641e+002, 3.449585e+002
3.728463e+002, 3.450590e+002
3.733284e+002, 3.455243e+002
3.738105e+002, 3.459937e+002
3.742926e+002, 3.466703e+002
3.747747e+002, 3.468522e+002
3.752568e+002, 3.460755e+002
3.757390e+002, 3.443168e+002
3.762211e+002, 3.436609e+002
3.767032e+002, 3.444737e+002
3.771853e+002, 3.456042e+002
3.776674e+002, 3.459436e+002
3.781495e+002, 3.454159e+002
3.786317e+002, 3.447078e+002
3.791138e+002, 3.438042e+002
3.795959e+002, 3.428926e+002
3.800780e+002, 3.426388e+002
3.805601e+002, 3.430998e+002
3.810422e+002, 3.436322e+002
3.815244e+002, 3.437614e+002
3.820065e+002, 3.435682e+002
3.824886e+002, 3.434860e+002
3.829707e+002, 3.435832e+002
3.834528e+002, 3.437445e+002
3.839349e+002, 3.438319e+002
3.844171e+002, 3.438488e+002
3.848992e+002, 3.438067e+002
3.853813e+002, 3.437449e+002
3.858634e+002, 3.436190e+002
3.863455e+002, 3.432330e+002
3.868276e+002, 3.425636e+002
3.873098e+002, 3.420675e+002
3.877919e+002, 3.422936e+002
3.882740e+002, 3.429400e+002
3.887561e+002, 3.434780e+002
3.892382e+002, 3.438413e+002
3.897203e+002, 3.439166e+002
3.902025e+002, 3.432523e+002
3.906846e+002, 3.420638e+002
3.911667e+002, 3.413701e+002
3.916488e+002, 3.424296e+002
3.921309e+002, 3.438584e+002
3.926130e+002, 3.444061e+002
3.930952e+002, 3.433962e+002
3.935773e+002, 3.424423e+002
3.940594e+002, 3.423654e+002
3.945415e+002, 3.428057e+002
3.950236e+002, 3.430941e+002
3.955057e+002, 3.428729e+002
3.959879e+002, 3.426046e+002
3.964700e+002, 3.424686e+002
3.969521e+002, 3.424929e+002
3.974342e+002, 3.425730e+002
3.979163e+002, 3.426599e+002
3.983984e+002, 3.428144e+002
3.988806e+002, 3.430912e+002
3.993627e+002, 3.438264e+002
3.998448e+002, 3.442995e+002
4.003269e+002, 3.443309e+002
4.008090e+002, 3.439815e+002
4.012911e+002, 3.437127e+002
4.017733e+002, 3.434789e+002
4.022554e+002, 3.433734e+002
4.027375e+002, 3.434842e+002
4.032196e+002, 3.439882e+002
4.037017e+002, 3.441951e+002
4.041838e+002, 3.437840e+002
4.046660e+002, 3.433170e+002
4.051481e+002, 3.441664e+002
4.056302e+002, 3.468976e+002
4.061123e+002, 3.488586e+002
4.065944e+002, 3.487667e+002
4.070765e+002, 3.467498e+002
4.075587e+002, 3.456909e+002
4.080408e+002, 3.457152e+002
4.085229e+002, 3.461780e+002
4.090050e+002, 3.464291e+002
4.094871e+002, 3.464889e+002
4.099692e+002, 3.467402e+002
4.104514e+002, 3.473929e+002
4.109335e+002, 3.481367e+002
4.114156e+002, 3.482523e+002
4.118977e+002, 3.477820e+002
4.123798e+002, 3.472485e+002
4.128619e+002, 3.468941e+002
4.133441e+002, 3.467463e+002
4.138262e+002, 3.469833e+002
4.143083e+002, 3.477302e+002
