##NAMES=Galena
##RRUFFID=R060187
##IDEAL CHEMISTRY=Pb^2+^S^2-^
##LOCALITY=Polaris mine, Little Cornwallis Island, Northwest Territories, Canada
##OWNER=RRUFF
##SOURCE=Lloyd Twaites
##DESCRIPTION=Lead-gray metallic cubo-octahedra
##STATUS=The identification of this mineral has been confirmed by X-ray diffraction and chemical analysis
##URL=rruff.info/R060187
##MEASURED CHEMISTRY=Pb_1.00_S_1.00_
92.02539, 240.8862
92.50751, 242.1693
92.98962, 244.5210
93.47174, 246.6948
93.95386, 247.8238
94.43597, 244.5388
94.91809, 235.0442
95.40021, 221.4707
95.88232, 209.8275
96.36444, 200.4906
96.84656, 192.5883
97.32867, 186.7580
97.81078, 182.0790
98.29290, 177.1473
98.77502, 170.7444
99.25713, 162.5204
99.73925, 154.0873
100.2214, 145.0048
100.7035, 136.1196
101.1856, 127.6655
101.6677, 119.6818
102.1498, 112.2098
102.6320, 105.2221
103.1141, 98.28486
103.5962, 93.25085
104.0783, 90.94931
104.5604, 90.12731
105.0425, 89.42704
105.5247, 88.39725
106.0068, 87.51299
106.4889, 88.10845
106.9710, 90.73522
107.4531, 91.93077
107.9352, 89.52176
108.4173, 84.05444
108.8995, 78.45101
109.3816, 73.36938
109.8637, 68.89638
110.3458, 65.12479
110.8279, 62.12428
111.3100, 59.53262
111.7922, 56.78652
112.2743, 53.62641
112.7564, 51.23182
113.2385, 50.19857
113.7206, 49.86745
114.2027, 49.79544
114.6849, 49.82016
115.1670, 49.87054
115.6491, 49.68783
116.1312, 48.97053
116.6133, 48.35290
117.0954, 47.96526
117.5776, 47.73915
118.0597, 47.54496
118.5418, 47.27956
119.0239, 46.93801
119.5060, 46.87051
119.9881, 47.14270
120.4703, 47.55877
120.9524, 48.08156
121.4345, 48.68912
121.9166, 49.37108
122.3987, 50.19342
122.8808, 51.19065
123.3630, 51.62701
123.8451, 51.32621
124.3272, 50.55725
124.8093, 49.45800
125.2914, 47.99358
125.7735, 46.51664
126.2557, 45.46627
126.7378, 44.75931
127.2199, 44.16791
127.7020, 43.52290
128.1841, 42.91565
128.6662, 42.73251
129.1483, 43.45848
129.6305, 44.08318
130.1126, 43.77891
130.5947, 42.61155
131.0768, 41.26443
131.5589, 40.41124
132.0410, 40.15821
132.5232, 39.53014
133.0053, 37.68778
133.4874, 35.91767
133.9695, 34.91587
134.4516, 34.80639
134.9337, 35.22400
135.4159, 35.66604
135.8980, 36.28405
136.3801, 36.61109
136.8622, 36.55888
137.3443, 36.29763
137.8264, 35.94148
138.3086, 35.53898
138.7907, 35.09838
139.2728, 34.65129
139.7549, 34.22382
140.2370, 33.75516
140.7191, 33.14561
141.2013, 32.50545
141.6834, 32.03365
142.1655, 31.86813
142.6476, 31.89841
143.1297, 31.63246
143.6118, 30.86229
144.0939, 30.08434
144.5761, 29.47293
145.0582, 29.01647
145.5403, 28.65728
146.0224, 28.37528
146.5045, 28.17507
146.9866, 28.03443
147.4688, 28.01594
147.9509, 28.00559
148.4330, 27.90038
148.9151, 27.69525
149.3972, 27.42399
149.8793, 26.97483
150.3615, 26.49372
150.8436, 26.19455
151.3257, 26.28173
151.8078, 26.53599
152.2899, 26.40697
152.7720, 25.61133
153.2542, 24.92626
153.7363, 24.72478
154.2184, 24.81004
154.7005, 24.88370
155.1826, 24.75621
155.6647, 24.44943
156.1469, 24.18971
156.6290, 23.97872
157.1111, 23.82411
157.5932, 23.73586
158.0753, 23.70598
158.5574, 23.73325
159.0396, 23.83955
159.5217, 24.05634
160.0038, 24.04715
160.4859, 23.49242
160.9680, 23.02771
161.4501, 23.02483
161.9323, 23.42053
162.4144, 23.84411
162.8965, 23.90603
163.3786, 23.49511
163.8607, 23.15588
164.3428, 22.82929
164.8250, 22.60508
165.3071, 22.60585
165.7892, 22.83810
166.2713, 23.12220
166.7534, 23.25081
167.2355, 23.20710
167.7177, 23.10581
168.1998, 22.89544
168.6819, 22.65490
169.1640, 22.47629
169.6461, 22.37378
170.1282, 22.35209
170.6104, 22.45623
171.0925, 22.66957
171.5746, 22.87423
172.0567, 23.05991
172.5388, 23.20541
173.0209, 23.23595
173.5031, 23.08929
173.9852, 22.88519
174.4673, 22.72294
174.9494, 22.60098
175.4315, 22.50394
175.9136, 22.42935
176.3958, 22.37625
176.8779, 22.32255
177.3600, 22.28946
177.8421, 22.23153
178.3242, 22.10212
178.8063, 21.90796
179.2885, 21.71760
179.7706, 21.62842
180.2527, 21.68787
180.7348, 21.63688
181.2169, 21.31594
181.6990, 20.98737
182.1812, 20.78139
182.6633, 20.72104
183.1454, 20.75746
183.6275, 20.83718
184.1096, 21.01546
184.5917, 21.11487
185.0738, 21.10063
185.5560, 21.04663
186.0381, 21.02587
186.5202, 21.04852
187.0023, 21.04403
187.4844, 20.88478
187.9665, 20.38027
188.4487, 20.02241
188.9308, 19.83502
189.4129, 19.77579
189.8950, 19.86852
190.3771, 20.11589
190.8592, 20.38170
191.3414, 20.37806
191.8235, 19.87919
192.3056, 19.53924
192.7877, 19.49234
193.2698, 19.62480
193.7519, 19.81112
194.2341, 20.02103
194.7162, 20.21949
195.1983, 20.34063
195.6804, 20.41895
196.1625, 20.37241
196.6446, 20.04270
197.1268, 19.56831
197.6089, 19.28664
198.0910, 19.36861
198.5731, 19.60188
199.0552, 19.62391
199.5373, 19.39496
200.0195, 19.20236
200.5016, 19.25925
200.9837, 19.50994
201.4658, 19.65415
201.9479, 19.51986
202.4300, 19.32790
202.9122, 19.37148
203.3943, 19.68557
203.8764, 19.94317
204.3585, 19.81769
204.8406, 19.31198
205.3227, 18.90212
205.8048, 18.72879
206.2870, 18.68339
206.7691, 18.73010
207.2512, 18.86126
207.7333, 18.98356
208.2154, 18.97535
208.6975, 18.80591
209.1797, 18.68880
209.6618, 18.70387
210.1439, 18.75279
210.6260, 18.77950
211.1081, 18.77628
211.5902, 18.78015
212.0724, 18.84462
212.5545, 18.99148
213.0366, 19.13269
213.5187, 19.35549
214.0008, 19.50735
214.4829, 19.46490
214.9651, 19.21668
215.4472, 18.87106
215.9293, 18.56636
216.4114, 18.24705
216.8935, 18.10482
217.3756, 18.30339
217.8578, 18.53210
218.3399, 18.52983
218.8220, 18.26149
219.3041, 17.93379
219.7862, 17.88123
220.2683, 18.36754
220.7505, 18.61600
221.2326, 18.45607
221.7147, 18.19331
222.1968, 18.06263
222.6789, 18.11905
223.1610, 18.26296
223.6432, 18.34867
224.1253, 18.33999
224.6074, 18.34046
225.0895, 18.33582
225.5716, 18.34764
226.0537, 18.42278
226.5358, 18.56795
227.0180, 18.70024
227.5001, 18.69452
227.9822, 18.49863
228.4643, 18.32016
228.9464, 18.15794
229.4285, 18.02490
229.9107, 17.94522
230.3928, 17.92533
230.8749, 17.93063
231.3570, 17.89573
231.8391, 17.80375
232.3212, 17.83843
232.8034, 18.14401
233.2855, 18.54808
233.7676, 18.85657
234.2497, 19.04117
234.7318, 19.09360
235.2139, 18.92281
235.6961, 18.56058
236.1782, 18.26290
236.6603, 18.04495
237.1424, 17.94465
237.6245, 18.08245
238.1066, 18.54688
238.5888, 19.00214
239.0709, 19.05663
239.5530, 18.82690
240.0351, 18.66081
240.5172, 18.73784
240.9993, 18.94231
241.4815, 19.04021
241.9636, 18.97834
242.4457, 18.91364
242.9278, 19.00824
243.4099, 19.18780
243.8920, 19.29238
244.3742, 19.19538
244.8563, 18.98661
245.3384, 18.89602
245.8205, 19.00130
246.3026, 19.04710
246.7847, 18.83080
247.2668, 18.47412
247.7490, 18.17340
248.2311, 18.05331
248.7132, 18.02939
249.1953, 17.87728
249.6774, 17.52740
250.1595, 17.18919
250.6417, 16.97265
251.1238, 16.81345
251.6059, 16.61437
252.0880, 16.29691
252.5701, 15.95595
253.0522, 15.85946
253.5344, 16.17425
254.0165, 16.40810
254.4986, 16.42082
254.9807, 16.28614
255.4628, 16.05375
255.9449, 15.72910
256.4271, 15.37899
256.9092, 15.16478
257.3913, 15.15247
257.8734, 15.16107
258.3555, 15.20176
258.8376, 15.21911
259.3198, 15.12539
259.8019, 14.88429
260.2840, 14.60877
260.7661, 14.55655
261.2482, 14.89911
261.7303, 15.14158
262.2125, 15.25839
262.6946, 15.25529
263.1767, 15.08558
263.6588, 14.74692
264.1409, 14.36554
264.6230, 14.17434
265.1052, 14.30061
265.5873, 14.37629
266.0694, 14.41308
266.5515, 14.38463
267.0336, 14.19560
267.5157, 13.85798
267.9979, 13.55554
268.4800, 13.59941
268.9621, 14.27481
269.4442, 14.67234
269.9263, 14.69215
270.4084, 14.56761
270.8906, 14.39512
271.3727, 14.21577
271.8548, 14.07395
272.3369, 14.03639
272.8190, 14.16512
273.3011, 14.18845
273.7833, 14.03510
274.2654, 13.85805
274.7475, 13.73351
275.2296, 13.66899
275.7117, 13.63783
276.1938, 13.61452
276.6760, 13.59756
277.1581, 13.60028
277.6402, 13.61445
278.1223, 13.65037
278.6044, 13.74399
279.0865, 13.87129
279.5686, 13.95674
280.0508, 13.93123
280.5329, 13.79117
281.0150, 13.71703
281.4971, 13.75146
281.9792, 13.79362
282.4613, 13.79880
282.9435, 13.78105
283.4256, 13.77741
283.9077, 13.57611
284.3898, 13.81386
284.8719, 13.92285
285.3540, 13.91000
285.8362, 13.41037
286.3183, 13.53931
286.8004, 13.41635
287.2825, 13.28307
287.7646, 13.50048
288.2467, 13.07166
288.7289, 13.28350
289.2110, 12.87680
289.6931, 13.16575
290.1752, 13.32594
290.6573, 13.36429
291.1394, 12.91587
291.6216, 13.09601
292.1037, 13.02425
292.5858, 12.94216
293.0679, 13.21076
293.5500, 12.83315
294.0321, 13.09619
294.5143, 13.10349
294.9964, 13.22784
295.4785, 13.09873
295.9606, 12.65560
296.4427, 12.51125
296.9248, 12.74993
297.4070, 12.88533
297.8891, 12.79995
298.3712, 12.66520
298.8533, 12.65082
299.3354, 12.77630
299.8175, 12.91822
300.2997, 12.94726
300.7818, 12.83918
301.2639, 12.76760
301.7460, 12.75636
302.2281, 12.76237
302.7102, 12.75424
303.1924, 12.73276
303.6745, 12.72323
304.1566, 12.75296
304.6387, 12.81674
305.1208, 12.82951
305.6029, 12.73806
306.0851, 12.65216
306.5672, 12.63616
307.0493, 12.67388
307.5314, 12.70427
308.0135, 12.68606
308.4956, 12.64004
308.9778, 12.65929
309.4599, 12.81326
309.9420, 12.93472
310.4241, 12.95593
310.9062, 12.90864
311.3883, 12.85057
311.8705, 12.80413
312.3526, 12.76321
312.8347, 12.71556
313.3168, 12.66372
313.7989, 12.60114
314.2810, 12.47655
314.7632, 12.35771
315.2453, 12.36902
315.7274, 12.55130
316.2095, 12.75570
316.6916, 12.76255
317.1737, 12.51204
317.6559, 12.32658
318.1380, 12.22353
318.6201, 12.20083
319.1022, 12.30687
319.5843, 12.53546
320.0664, 12.73315
320.5485, 12.74199
321.0306, 12.54185
321.5128, 12.41057
321.9949, 12.33442
322.4770, 12.33450
322.9591, 12.52008
323.4412, 12.83181
323.9233, 12.99038
324.4055, 12.76345
324.8876, 12.22784
325.3697, 11.95756
325.8518, 12.11394
326.3339, 12.31299
326.8160, 12.42467
327.2982, 12.47324
327.7803, 12.52528
328.2624, 12.61818
328.7445, 12.71620
329.2266, 12.71835
329.7087, 12.60781
330.1909, 12.45073
330.6730, 12.17911
331.1551, 11.89549
331.6372, 11.75873
332.1193, 11.81686
332.6014, 11.94360
333.0836, 11.95603
333.5657, 11.80286
334.0478, 11.67934
334.5299, 11.55057
335.0120, 11.48054
335.4941, 11.54353
335.9763, 11.73855
336.4584, 11.99638
336.9405, 12.28665
337.4226, 12.62349
337.9047, 12.67742
338.3868, 12.15036
338.8690, 11.65390
339.3511, 11.56182
339.8332, 11.78059
340.3153, 11.97196
340.7974, 11.91169
341.2795, 11.65316
341.7617, 11.54211
342.2438, 11.68525
342.7259, 11.82590
343.2080, 11.96272
343.6901, 12.04864
344.1722, 11.98237
344.6544, 11.71835
345.1365, 11.36709
345.6186, 11.15711
346.1007, 11.15386
346.5828, 11.21397
347.0649, 11.38871
347.5471, 11.59642
348.0292, 11.78941
348.5113, 11.94781
348.9934, 12.04142
349.4755, 12.02231
349.9576, 11.85031
350.4398, 11.72864
350.9219, 11.66676
351.4040, 11.63714
351.8861, 11.64815
352.3682, 11.68305
352.8503, 11.70200
353.3325, 11.67354
353.8146, 11.60067
354.2967, 11.52890
354.7788, 11.48654
355.2609, 11.41324
355.7430, 11.26084
356.2252, 11.07906
356.7073, 10.92402
357.1894, 10.82202
357.6715, 10.78510
358.1536, 10.85096
358.6357, 11.14937
359.1179, 11.35271
359.5999, 11.44448
360.0821, 11.44916
360.5642, 11.35431
361.0463, 11.17337
361.5284, 10.97713
362.0105, 10.84991
362.4926, 10.79800
362.9748, 10.79498
363.4569, 10.88755
363.9390, 10.98199
364.4211, 11.04283
364.9032, 11.07126
365.3853, 11.07796
365.8675, 11.06492
366.3496, 11.03781
366.8317, 11.05694
367.3138, 11.22513
367.7959, 11.30398
368.2780, 11.15088
368.7602, 10.91563
369.2423, 10.79304
369.7244, 10.87059
370.2065, 11.05231
370.6886, 11.14762
371.1707, 11.11835
371.6529, 11.09673
372.1350, 11.13631
372.6171, 11.16461
373.0992, 11.12226
373.5813, 11.00687
374.0634, 10.87367
374.5456, 10.77639
375.0277, 10.71628
375.5098, 10.66496
375.9919, 10.59874
376.4740, 10.57098
376.9561, 10.63391
377.4383, 10.75231
377.9204, 10.84824
378.4025, 10.88390
378.8846, 10.86319
379.3667, 10.77896
379.8488, 10.58857
380.3310, 10.44643
380.8131, 10.50013
381.2952, 10.59517
381.7773, 10.54016
382.2594, 10.25374
382.7415, 9.964505
383.2237, 9.968599
383.7058, 10.26367
384.1879, 10.47867
384.6700, 10.47225
385.1521, 10.40932
385.6342, 10.46225
386.1164, 10.62111
386.5985, 10.73564
387.0806, 10.71571
387.5627, 10.59180
388.0448, 10.40571
388.5269, 10.12546
389.0091, 9.904125
389.4912, 9.915290
389.9733, 10.07031
390.4554, 10.17743
390.9375, 10.13470
391.4196, 10.08858
391.9018, 10.21335
392.3839, 10.48618
392.8660, 10.69348
393.3481, 10.74045
393.8302, 10.66522
394.3123, 10.53519
394.7945, 10.31786
395.2766, 10.15257
395.7587, 10.15479
396.2408, 10.22973
396.7229, 10.18806
397.2050, 9.974954
397.6872, 9.760100
398.1693, 9.730216
398.6514, 9.903708
399.1335, 10.11964
399.6156, 10.50008
400.0977, 10.81933
400.5798, 10.89341
401.0620, 10.74996
401.5441, 10.52890
402.0262, 10.29586
402.5083, 10.07022
402.9904, 9.961779
403.4725, 9.991086
403.9547, 10.09126
404.4368, 10.36884
404.9189, 10.66611
405.4010, 10.73446
405.8831, 10.50724
406.3652, 10.20337
406.8474, 10.16516
407.3295, 10.57110
407.8116, 10.71657
408.2937, 10.39359
408.7758, 10.02717
409.2579, 9.825950
409.7401, 9.795039
410.2222, 9.873075
410.7043, 10.03738
411.1864, 10.26012
411.6685, 10.29889
412.1506, 9.902816
412.6328, 9.627530
413.1149, 9.614047
413.5970, 9.733704
414.0791, 9.842914
414.5612, 9.892486
415.0433, 9.933728
415.5255, 10.08265
416.0076, 10.42933
416.4897, 10.57135
416.9718, 10.30372
417.4539, 9.976613
417.9360, 9.712705
418.4182, 9.527430
418.9003, 9.413805
419.3824, 9.374087
419.8645, 9.399960
420.3466, 9.464385
420.8287, 9.600098
421.3109, 9.704339
421.7930, 9.680851
422.2751, 9.627866
422.7572, 9.681337
423.2393, 9.903148
423.7214, 10.11850
424.2036, 10.12314
424.6857, 9.924076
425.1678, 9.690265
425.6499, 9.368648
426.1320, 9.143848
426.6141, 9.238941
427.0963, 9.610425
427.5784, 9.919646
428.0605, 10.00712
428.5426, 9.954011
429.0247, 9.857165
429.5068, 9.716628
429.9890, 9.606240
430.4711, 9.590728
430.9532, 9.637791
431.4353, 9.635091
431.9174, 9.544232
432.3995, 9.460093
432.8817, 9.399016
433.3638, 9.381783
433.8459, 9.480666
434.3280, 9.731562
434.8101, 10.01504
435.2922, 10.16370
435.7744, 10.14372
436.2565, 10.10630
436.7386, 10.11064
437.2207, 10.05556
437.7028, 9.765650
438.1849, 9.321610
438.6671, 9.044453
439.1492, 9.171602
439.6313, 9.621676
440.1134, 9.914475
440.5955, 9.922812
441.0776, 9.928177
441.5598, 10.01801
442.0418, 10.08974
442.5240, 9.983263
443.0061, 9.681308
443.4882, 9.376257
443.9703, 9.348188
444.4524, 9.691215
444.9345, 9.868421
445.4167, 9.690022
445.8988, 9.531007
446.3809, 9.535420
446.8630, 9.657347
447.3451, 9.808771
447.8272, 9.957873
448.3094, 10.05939
448.7915, 9.953067
449.2736, 9.512460
449.7557, 9.226954
450.2378, 9.269391
450.7199, 9.475851
451.2021, 9.835520
451.6842, 10.31765
452.1663, 10.66386
452.6484, 10.59688
453.1305, 10.20555
453.6126, 9.850699
454.0948, 9.506027
454.5769, 9.319589
455.0590, 9.571843
455.5411, 10.03104
456.0232, 10.28053
456.5053, 10.14195
456.9875, 9.887968
457.4696, 9.693349
457.9517, 9.565554
458.4338, 9.564248
458.9159, 9.760080
459.3980, 9.991056
459.8802, 9.978241
460.3623, 9.701648
460.8444, 9.474201
461.3265, 9.345023
461.8086, 9.292877
462.2907, 9.343314
462.7729, 9.472196
463.2550, 9.550376
463.7371, 9.471280
464.2192, 9.279938
464.7013, 9.237998
465.1834, 9.494034
465.6656, 9.699156
466.1477, 9.833077
466.6298, 9.878801
467.1119, 9.772863
467.5940, 9.521737
468.0761, 9.263165
468.5583, 9.164540
469.0404, 9.247712
469.5225, 9.347205
470.0046, 9.528028
470.4867, 9.656989
470.9688, 9.691125
471.4510, 9.645349
471.9331, 9.520701
472.4152, 9.305322
472.8973, 9.092062
473.3794, 9.102217
473.8615, 9.421018
474.3437, 9.597857
474.8258, 9.403575
475.3079, 9.158087
475.7900, 9.039390
476.2721, 9.050816
476.7542, 9.128165
477.2364, 9.338649
477.7185, 9.566682
478.2006, 9.478969
478.6827, 9.007658
479.1648, 8.625361
479.6469, 8.599284
480.1291, 8.812797
480.6112, 9.064965
481.0933, 9.399578
481.5754, 9.626458
482.0575, 9.592243
482.5396, 9.397576
483.0217, 9.198591
483.5038, 9.021780
483.9860, 8.927699
484.4681, 9.001731
484.9502, 9.251730
485.4323, 9.402384
485.9144, 9.399710
486.3965, 9.361873
486.8787, 9.305614
487.3608, 9.255377
487.8429, 9.274270
488.3250, 9.387235
488.8071, 9.504777
489.2892, 9.455521
489.7714, 9.127145
490.2535, 8.906413
490.7356, 8.766531
491.2177, 8.739150
491.6998, 8.955470
492.1819, 9.299393
492.6641, 9.495208
493.1462, 9.345231
493.6283, 8.980771
494.1104, 8.782192
494.5925, 8.783060
495.0746, 8.860224
495.5568, 9.114903
496.0389, 9.345296
496.5210, 9.367198
497.0031, 9.185168
497.4852, 9.012436
497.9673, 9.044593
498.4495, 9.197096
498.9316, 9.221785
499.4137, 9.085622
499.8958, 8.936170
500.3779, 8.835727
500.8600, 8.786847
501.3422, 8.794248
501.8243, 8.883223
502.3064, 8.973344
502.7885, 9.050069
503.2706, 9.095002
503.7527, 9.047704
504.2349, 8.893405
504.7170, 8.754914
505.1991, 8.771108
505.6812, 8.954788
506.1633, 9.017055
506.6454, 8.850620
507.1276, 8.696333
507.6097, 8.635432
508.0918, 8.645844
508.5739, 8.712188
509.0560, 8.824223
509.5381, 8.920536
510.0203, 8.888011
510.5024, 8.665383
510.9845, 8.524100
511.4666, 8.537349
511.9487, 8.560049
512.4308, 8.538973
512.9130, 8.485129
513.3951, 8.419711
513.8772, 8.343360
514.3593, 8.290979
514.8414, 8.354047
515.3235, 8.557043
515.8057, 8.687220
516.2878, 8.653817
516.7699, 8.572618
517.2520, 8.547469
517.7341, 8.570135
518.2162, 8.573808
518.6984, 8.535733
519.1805, 8.460272
519.6626, 8.310957
520.1447, 8.099842
520.6268, 7.995460
521.1089, 8.118279
521.5911, 8.348683
522.0732, 8.388625
522.5553, 8.151997
523.0374, 8.013176
523.5195, 8.145716
524.0016, 8.323925
524.4838, 8.284820
524.9659, 8.067722
525.4480, 7.982290
525.9301, 8.285798
526.4122, 8.858000
526.8943, 9.069110
527.3765, 8.551877
527.8586, 8.186484
528.3407, 8.126133
528.8228, 8.182364
529.3049, 8.228688
529.7870, 8.235727
530.2692, 8.209817
530.7513, 8.130440
531.2334, 8.019591
531.7155, 8.033928
532.1976, 8.258692
532.6797, 8.409087
533.1619, 8.237165
533.6440, 7.992223
534.1261, 7.946607
534.6082, 8.161075
535.0903, 8.405555
535.5724, 8.499960
536.0546, 8.524067
536.5367, 8.696786
537.0188, 9.060966
537.5009, 9.343299
537.9830, 9.317943
538.4651, 9.036348
538.9473, 8.817354
539.4294, 8.673287
539.9115, 8.568655
540.3936, 8.472061
540.8757, 8.418911
541.3578, 8.474222
541.8400, 8.639853
542.3221, 8.838867
542.8042, 9.003424
543.2863, 9.134684
543.7684, 9.157742
544.2505, 8.896122
544.7326, 8.739196
545.2147, 8.874529
545.6968, 9.093835
546.1790, 9.146230
546.6611, 8.976015
547.1432, 8.763244
547.6253, 8.702318
548.1074, 8.781384
548.5895, 8.870340
549.0717, 8.971548
549.5538, 9.066067
550.0359, 9.122427
550.5180, 9.169904
551.0001, 9.263305
551.4822, 9.438707
551.9644, 9.592820
552.4465, 9.689672
552.9286, 9.714022
553.4107, 9.594497
553.8928, 9.313496
554.3749, 9.047172
554.8571, 8.964919
555.3392, 9.060575
555.8213, 9.092932
556.3034, 9.043241
556.7855, 8.963708
557.2676, 8.811347
557.7498, 8.663012
558.2319, 8.646140
558.7140, 8.771009
559.1961, 8.885336
559.6782, 8.799880
560.1603, 8.511600
560.6425, 8.345288
561.1246, 8.406993
561.6067, 8.438982
562.0888, 8.295371
562.5709, 8.115275
563.0530, 8.070057
563.5352, 8.204042
564.0173, 8.378032
564.4994, 8.484921
564.9815, 8.536962
565.4636, 8.581110
565.9457, 8.628985
566.4279, 8.626498
566.9100, 8.496868
567.3921, 8.294553
567.8742, 8.217010
568.3563, 8.382269
568.8384, 8.475164
569.3206, 8.306632
569.8027, 8.048985
570.2848, 7.925662
570.7669, 7.960116
571.2490, 8.008384
571.7311, 7.935351
572.2133, 7.761508
572.6954, 7.720335
573.1775, 8.013659
573.6596, 8.159785
574.1417, 7.959159
574.6238, 7.685940
575.1060, 7.593208
575.5881, 7.698825
576.0702, 7.828372
576.5523, 7.822815
577.0344, 7.726391
577.5165, 7.700566
577.9987, 7.750004
578.4808, 7.855257
578.9629, 8.073210
579.4450, 8.297485
579.9271, 8.386008
580.4092, 8.327570
580.8914, 8.197726
581.3735, 7.873471
581.8556, 7.586723
582.3377, 7.686738
582.8198, 8.119396
583.3019, 8.473603
583.7841, 8.506259
584.2662, 8.317015
584.7483, 8.182060
585.2304, 8.185198
585.7125, 8.101528
586.1946, 7.741233
586.6768, 7.465947
587.1589, 7.606860
587.6410, 8.027117
588.1231, 8.324687
588.6052, 8.249103
