##NAMES=Galenobismutite
##RRUFFID=R110057
##IDEAL CHEMISTRY=Pb^2+^Bi^3+^_2_S^2-^_4_
##LOCALITY=Vena Cobalt mines, Bergslagen, Sweden
##OWNER=RRUFF
##SOURCE=William W Pinch
##DESCRIPTION=Gray metallic massive
##STATUS=The identification of this mineral has been confirmed by single-crystal X-ray diffraction.
##URL=rruff.info/R110057
152.6852, 21.68446
153.1674, 21.74743
153.6495, 22.13468
154.1316, 22.76226
154.6137, 23.95263
155.0958, 25.10050
155.5779, 25.98499
156.0601, 26.43038
156.5422, 26.98293
157.0243, 27.72395
157.5064, 28.61966
157.9885, 29.60465
158.4706, 30.78624
158.9528, 31.96517
159.4349, 33.05324
159.9170, 34.03572
160.3991, 34.92861
160.8812, 35.60015
161.3633, 36.16700
161.8455, 36.93544
162.3276, 38.05607
162.8097, 39.37914
163.2918, 40.86792
163.7739, 42.76379
164.2560, 44.46185
164.7382, 45.51316
165.2203, 46.08574
165.7024, 46.82276
166.1845, 48.28960
166.6666, 49.94835
167.1487, 51.28796
167.6309, 51.87048
168.1130, 52.42820
168.5951, 53.48513
169.0772, 54.96457
169.5593, 56.37809
170.0414, 57.40591
170.5236, 58.21718
171.0057, 59.00068
171.4878, 59.82220
171.9699, 60.65015
172.4520, 61.44278
172.9341, 62.20597
173.4163, 62.97081
173.8984, 63.64009
174.3805, 64.34684
174.8626, 65.28622
175.3447, 66.79630
175.8268, 68.45136
176.3090, 69.69930
176.7911, 70.52516
177.2732, 71.39010
177.7553, 72.66174
178.2374, 73.95219
178.7195, 74.71725
179.2017, 74.29488
179.6838, 73.41010
180.1659, 73.17107
180.6480, 73.59895
181.1301, 74.34608
181.6122, 75.28780
182.0944, 76.32806
182.5765, 77.11941
183.0586, 77.30193
183.5407, 77.17184
184.0228, 77.43025
184.5049, 78.13621
184.9871, 78.93123
185.4692, 79.35149
185.9513, 79.45985
186.4334, 79.56942
186.9155, 79.98592
187.3976, 80.53846
187.8798, 80.56321
188.3619, 79.94381
188.8440, 79.16422
189.3261, 78.96355
189.8082, 79.29619
190.2903, 79.61269
190.7725, 79.54475
191.2546, 79.18167
191.7367, 79.10661
192.2188, 79.42493
192.7009, 79.82938
193.1830, 79.71091
193.6652, 79.06782
194.1473, 78.51031
194.6294, 78.37530
195.1115, 78.63878
195.5936, 79.06980
196.0757, 79.71727
196.5579, 80.41781
197.0400, 80.81950
197.5221, 80.89716
198.0042, 80.95478
198.4863, 81.17102
198.9684, 81.54699
199.4506, 81.91618
199.9327, 82.26920
200.4148, 82.60389
200.8969, 82.88622
201.3790, 83.10032
201.8611, 83.36420
202.3433, 83.80459
202.8254, 84.45145
203.3075, 84.92175
203.7896, 85.16608
204.2717, 85.23399
204.7538, 85.19910
205.2360, 85.01491
205.7181, 84.89281
206.2002, 84.96787
206.6823, 85.26075
207.1644, 85.61272
207.6465, 86.04299
208.1287, 86.50418
208.6108, 86.85056
209.0929, 87.04128
209.5750, 87.22889
210.0571, 87.54781
210.5392, 88.07007
211.0214, 88.38241
211.5035, 88.39414
211.9856, 88.19260
212.4677, 88.03173
212.9498, 87.83512
213.4319, 87.85263
213.9140, 88.37669
214.3962, 89.70377
214.8783, 90.43969
215.3604, 90.24449
215.8425, 89.40202
216.3246, 89.10405
216.8067, 89.58620
217.2889, 90.14976
217.7710, 90.34143
218.2531, 90.00206
218.7352, 89.76646
219.2173, 89.73096
219.6994, 89.83646
220.1816, 89.77526
220.6637, 89.39440
221.1458, 89.10252
221.6279, 89.27474
222.1100, 90.33737
222.5921, 90.68239
223.0743, 89.84608
223.5564, 88.17995
224.0385, 87.37228
224.5206, 87.88245
225.0027, 88.55128
225.4848, 88.61800
225.9670, 87.70615
226.4491, 87.12560
226.9312, 87.10933
227.4133, 87.51357
227.8954, 87.61277
228.3775, 87.21767
228.8597, 86.79320
229.3418, 86.66868
229.8239, 87.10104
230.3060, 87.21841
230.7881, 86.82139
231.2702, 86.04079
231.7524, 85.53225
232.2345, 85.44263
232.7166, 85.41936
233.1987, 85.24364
233.6808, 84.78765
234.1629, 84.47704
234.6451, 84.47208
235.1272, 84.64046
235.6093, 84.32720
236.0914, 83.05872
236.5735, 81.95770
237.0556, 81.74536
237.5378, 83.06815
238.0199, 83.86295
238.5020, 83.89975
238.9841, 83.33134
239.4662, 82.73090
239.9483, 81.96568
240.4305, 81.35313
240.9126, 81.09083
241.3947, 81.39696
241.8768, 81.58231
242.3589, 81.63042
242.8410, 81.53909
243.3232, 81.26807
243.8053, 80.68026
244.2874, 80.10152
244.7695, 79.69711
245.2516, 79.49934
245.7337, 79.40150
246.2159, 79.46758
246.6980, 79.62014
247.1801, 79.60533
247.6622, 79.34624
248.1443, 79.03296
248.6264, 78.77650
249.1086, 78.67896
249.5907, 78.37171
250.0728, 77.72779
250.5549, 76.90581
251.0370, 76.33164
251.5191, 76.08046
252.0013, 75.95975
252.4834, 75.91147
252.9655, 76.01508
253.4476, 75.97559
253.9297, 75.70777
254.4118, 75.33649
254.8940, 75.17487
255.3761, 75.41918
255.8582, 75.52332
256.3403, 75.18975
256.8224, 74.18755
257.3046, 73.53767
257.7867, 73.40293
258.2688, 73.51962
258.7509, 73.36735
259.2330, 72.84142
259.7151, 72.26119
260.1973, 71.72612
260.6794, 71.23743
261.1615, 70.83244
261.6436, 70.53207
262.1257, 70.30229
262.6078, 70.10855
263.0900, 70.00085
263.5721, 69.81770
264.0542, 69.49522
264.5363, 69.00990
265.0184, 68.51110
265.5005, 67.95924
265.9827, 67.43232
266.4648, 67.06147
266.9469, 66.92248
267.4290, 66.72198
267.9111, 66.30833
268.3932, 65.65469
268.8754, 65.27023
269.3575, 65.20630
269.8396, 65.32863
270.3217, 65.54720
270.8038, 65.95408
271.2859, 66.07969
271.7681, 65.68375
272.2502, 64.79341
272.7323, 64.20240
273.2144, 63.97401
273.6965, 63.93689
274.1786, 63.97817
274.6608, 64.14703
275.1429, 64.11587
275.6250, 63.73346
276.1071, 63.06463
276.5892, 62.57721
277.0714, 62.29291
277.5535, 62.15102
278.0356, 62.14524
278.5177, 62.29511
278.9998, 62.37217
279.4819, 62.31562
279.9641, 62.15329
280.4462, 61.99400
280.9283, 61.82969
281.4104, 61.70030
281.8925, 61.67788
282.3746, 61.76577
282.8568, 61.75322
283.3389, 61.60714
283.8210, 61.34113
284.3031, 60.95190
284.7852, 60.42306
285.2673, 59.91124
285.7495, 59.55214
286.2316, 59.33195
286.7137, 59.03583
287.1958, 58.59298
287.6779, 58.12730
288.1600, 58.00268
288.6422, 58.22718
289.1243, 58.28508
289.6064, 57.70066
290.0885, 56.61334
290.5706, 55.77060
291.0527, 55.25530
291.5349, 54.96277
292.0170, 54.77029
292.4991, 54.67312
292.9812, 54.60855
293.4633, 54.53941
293.9454, 54.47591
294.4276, 54.49971
294.9097, 54.65071
295.3918, 54.73005
295.8739, 54.41505
296.3560, 53.77834
296.8381, 53.14643
297.3203, 52.72243
297.8024, 52.40746
298.2845, 51.97066
298.7666, 51.39449
299.2487, 50.81605
299.7308, 50.36597
300.2130, 50.01772
300.6951, 49.70112
301.1772, 49.36118
301.6593, 49.04988
302.1414, 48.88137
302.6235, 48.85299
303.1057, 48.79548
303.5878, 48.52624
304.0699, 48.13272
304.5520, 47.78115
305.0341, 47.53741
305.5162, 47.34887
305.9984, 47.14654
306.4805, 46.94065
306.9626, 46.78770
307.4447, 46.82400
307.9268, 46.90778
308.4089, 46.83404
308.8911, 46.44155
309.3732, 46.04637
309.8553, 46.03272
310.3374, 46.26496
310.8195, 46.28106
311.3016, 45.46903
311.7838, 44.50486
312.2659, 44.02430
312.7480, 44.30290
313.2301, 44.71698
313.7122, 45.00257
314.1943, 45.15603
314.6765, 45.16241
315.1586, 44.87517
315.6407, 44.53851
316.1228, 44.33287
316.6049, 44.33118
317.0870, 44.24812
317.5692, 43.79686
318.0513, 43.22453
318.5334, 42.87992
319.0155, 43.17537
319.4976, 43.46486
319.9797, 43.40168
320.4619, 42.92531
320.9440, 42.57740
321.4261, 42.64205
321.9082, 42.85858
322.3903, 42.98024
322.8724, 42.96393
323.3546, 42.83741
323.8367, 42.52036
324.3188, 42.02637
324.8009, 41.69382
325.2830, 41.80677
325.7651, 41.96009
326.2473, 41.89171
326.7294, 41.20512
327.2115, 40.72767
327.6936, 40.64789
328.1757, 40.88174
328.6578, 41.00031
329.1400, 40.90493
329.6221, 40.77330
330.1042, 40.67744
330.5863, 40.62116
331.0684, 40.59472
331.5505, 40.59686
332.0327, 40.62830
332.5148, 40.68735
332.9969, 40.73962
333.4790, 40.86795
333.9611, 41.16312
334.4432, 41.75540
334.9254, 41.96785
335.4075, 41.67065
335.8896, 41.09949
336.3717, 40.52911
336.8538, 39.87080
337.3359, 39.44938
337.8180, 39.43462
338.3001, 39.81733
338.7823, 39.97573
339.2644, 39.80220
339.7465, 39.61509
340.2286, 39.82415
340.7107, 40.54771
341.1928, 40.93312
341.6750, 40.71391
342.1571, 40.06651
342.6392, 39.69007
343.1213, 39.61469
343.6034, 39.63346
344.0855, 39.58947
344.5677, 39.48832
345.0498, 39.47942
345.5319, 39.61626
346.0140, 39.79447
346.4961, 39.78587
346.9782, 39.59812
347.4604, 39.41818
347.9425, 39.34705
348.4246, 39.36927
348.9067, 39.46480
349.3888, 39.65443
349.8709, 39.80883
350.3531, 39.75546
350.8352, 39.52848
351.3173, 39.25607
351.7994, 38.89528
352.2815, 38.55374
352.7636, 38.43264
353.2458, 38.53151
353.7279, 38.70732
354.2100, 38.94595
354.6921, 39.16310
355.1742, 39.19489
355.6563, 38.82104
356.1385, 38.42308
356.6206, 38.44400
357.1027, 38.80044
357.5848, 39.07672
358.0669, 38.95868
358.5490, 38.67790
359.0312, 38.45048
359.5133, 38.32516
359.9954, 38.24056
360.4775, 38.16313
360.9596, 38.10057
361.4417, 38.06978
361.9239, 38.10197
362.4060, 38.14911
362.8881, 38.19902
363.3702, 38.26139
363.8523, 38.26738
364.3344, 38.17890
364.8166, 38.02795
365.2987, 37.84952
365.7808, 37.51003
366.2629, 37.29052
366.7450, 37.37732
367.2271, 37.76701
367.7093, 37.91740
368.1914, 37.57208
368.6735, 37.08952
369.1556, 36.69762
369.6377, 36.32599
370.1198, 36.15773
370.6020, 36.27129
371.0841, 36.60293
371.5662, 36.94032
372.0483, 37.41437
372.5304, 37.72908
373.0125, 37.71429
373.4947, 37.17755
373.9768, 36.87365
374.4589, 36.88747
374.9410, 37.06261
375.4231, 37.14862
375.9052, 37.11543
376.3874, 37.08527
376.8695, 37.12495
377.3516, 37.22991
377.8337, 37.16104
378.3158, 36.88736
378.7979, 36.52885
379.2801, 36.14001
379.7622, 35.70634
380.2443, 35.53929
380.7264, 35.83052
381.2085, 36.31538
381.6906, 36.15710
382.1728, 35.34203
382.6549, 34.60937
383.1370, 34.52052
383.6191, 34.94687
384.1012, 35.46340
384.5833, 36.09946
385.0655, 36.58263
385.5476, 36.34669
386.0297, 35.58934
386.5118, 35.04316
386.9939, 35.28530
387.4760, 35.85414
387.9582, 36.03799
388.4403, 35.82061
388.9224, 35.58739
389.4045, 35.72086
389.8866, 36.01849
390.3687, 36.19350
390.8509, 36.10044
391.3330, 35.91009
391.8151, 35.71836
392.2972, 35.52480
392.7793, 35.32353
393.2614, 35.10815
393.7436, 34.88735
394.2257, 34.66031
394.7078, 34.42225
395.1899, 34.19309
395.6720, 33.86359
396.1541, 33.56682
396.6363, 33.51696
397.1184, 34.14148
397.6005, 34.67110
398.0826, 34.81856
398.5647, 34.52930
399.0468, 34.20411
399.5290, 33.66423
400.0111, 33.22518
400.4932, 33.14806
400.9753, 33.89999
401.4574, 34.38607
401.9395, 34.44067
402.4217, 34.14112
402.9038, 33.82616
403.3859, 33.42154
403.8680, 33.11081
404.3501, 33.01358
404.8322, 33.22330
405.3144, 33.30549
405.7965, 33.19596
406.2786, 33.03410
406.7607, 33.09352
407.2428, 33.43836
407.7249, 33.64061
408.2071, 33.45797
408.6892, 32.98917
409.1713, 32.95053
409.6534, 33.41227
410.1355, 33.89520
410.6176, 33.92688
411.0998, 33.57459
411.5819, 33.19748
412.0640, 32.80970
412.5461, 32.52095
413.0282, 32.59638
413.5103, 32.97650
413.9925, 33.31031
414.4746, 33.39453
414.9567, 33.30421
415.4388, 33.10648
415.9209, 32.78677
416.4030, 32.52948
416.8852, 32.52714
417.3673, 32.68216
417.8494, 32.83409
418.3315, 32.97120
418.8136, 33.04551
419.2957, 33.08223
419.7779, 33.05811
420.2600, 32.82335
420.7421, 31.99883
421.2242, 31.12648
421.7063, 30.62204
422.1884, 30.65470
422.6706, 30.85409
423.1527, 31.27563
423.6348, 31.78773
424.1169, 32.14480
424.5990, 32.15592
425.0811, 32.15987
425.5633, 32.30443
426.0454, 32.64063
426.5275, 32.75681
427.0096, 32.50999
427.4917, 32.15562
427.9738, 31.87718
428.4560, 31.59106
428.9381, 31.58903
429.4202, 32.09978
429.9023, 32.87527
430.3844, 32.98283
430.8665, 32.16994
431.3487, 31.40482
431.8308, 31.27182
432.3129, 31.81587
432.7950, 32.04678
433.2771, 31.90582
433.7592, 31.58022
434.2414, 31.22692
434.7235, 30.86086
435.2056, 30.67252
435.6877, 30.78642
436.1698, 31.07061
436.6519, 31.25483
437.1341, 31.34308
437.6162, 31.40934
438.0983, 31.50097
438.5804, 31.61058
439.0625, 31.73709
439.5446, 31.89548
440.0268, 32.01920
440.5089, 32.05176
440.9910, 32.00554
441.4731, 31.90642
441.9552, 31.73749
442.4373, 31.54123
442.9195, 31.28248
443.4016, 30.96854
443.8837, 30.81717
444.3658, 31.12142
444.8479, 31.51076
445.3300, 31.68663
445.8122, 31.35021
446.2943, 31.11350
446.7764, 31.14332
447.2585, 31.34777
447.7406, 31.49198
448.2227, 31.51430
448.7049, 31.51984
449.1870, 31.53271
449.6691, 31.55042
450.1512, 31.59934
450.6333, 31.72920
451.1154, 31.83667
451.5976, 31.81147
452.0797, 31.61426
452.5618, 31.40762
453.0439, 31.17540
453.5260, 30.97246
454.0081, 31.02159
454.4903, 31.37402
454.9724, 31.64609
455.4545, 31.57401
455.9366, 31.20904
456.4187, 30.86440
456.9008, 30.52827
457.3830, 30.34398
457.8651, 30.63909
458.3472, 31.25654
458.8293, 31.67210
459.3114, 31.66418
459.7935, 31.42805
460.2757, 31.07217
460.7578, 30.65213
461.2399, 30.43892
461.7220, 30.86289
462.2041, 31.42873
462.6862, 31.62122
463.1684, 31.28905
463.6505, 30.93744
464.1326, 30.78444
464.6147, 30.77875
465.0968, 30.85339
465.5789, 31.11276
466.0611, 31.32369
466.5432, 31.41615
467.0253, 31.39392
467.5074, 31.32443
467.9895, 31.19267
468.4716, 31.03337
468.9538, 30.85571
469.4359, 30.61992
469.9180, 30.45814
470.4001, 30.38866
470.8822, 30.37849
471.3643, 30.39304
471.8465, 30.46317
472.3286, 30.45974
472.8107, 30.31016
473.2928, 30.05660
473.7749, 29.95486
474.2570, 30.02913
474.7392, 30.13097
475.2213, 30.13401
475.7034, 30.05789
476.1855, 30.04350
476.6676, 30.11480
477.1497, 30.21926
477.6319, 30.33435
478.1140, 30.43348
478.5961, 30.42406
479.0782, 30.05180
479.5603, 29.68210
480.0424, 29.89720
480.5246, 30.61313
481.0067, 31.14061
481.4888, 30.80241
481.9709, 30.21938
482.4530, 29.97888
482.9352, 30.36148
483.4173, 30.66957
483.8994, 30.48654
484.3815, 30.08639
484.8636, 29.88834
485.3457, 30.28092
485.8279, 30.58340
486.3100, 30.57409
486.7921, 30.24740
487.2742, 29.97291
487.7563, 29.65049
488.2384, 29.47980
488.7206, 29.64387
489.2027, 30.44534
489.6848, 30.71783
490.1669, 30.23045
490.6490, 29.44568
491.1311, 29.12415
491.6133, 29.33781
492.0954, 29.53046
492.5775, 29.49760
493.0596, 29.32276
493.5417, 29.34101
494.0238, 29.55435
494.5060, 29.78773
494.9881, 29.92109
495.4702, 29.97293
495.9523, 29.97182
496.4344, 29.90305
496.9165, 29.86433
497.3987, 29.97313
497.8808, 30.18009
498.3629, 30.39037
498.8450, 30.67095
499.3271, 30.85325
499.8092, 30.77325
500.2914, 30.47146
500.7735, 30.17866
501.2556, 29.94512
501.7377, 29.77253
502.2198, 29.67067
502.7019, 29.66836
503.1841, 29.66144
503.6662, 29.57901
504.1483, 29.51072
504.6304, 29.56741
505.1125, 29.85367
505.5946, 30.09630
506.0768, 30.26757
506.5589, 30.36447
507.0410, 30.35266
507.5231, 30.18193
508.0052, 30.04268
508.4873, 30.06554
508.9695, 30.25204
509.4516, 30.32021
509.9337, 30.23621
510.4158, 30.16708
510.8979, 30.41987
511.3800, 30.89188
511.8622, 31.07680
512.3443, 30.70240
512.8264, 30.18366
513.3085, 30.12723
513.7906, 30.41753
514.2728, 30.63979
514.7549, 30.49313
515.2370, 30.22186
515.7191, 30.00747
516.2012, 29.86297
516.6833, 29.80476
517.1655, 29.97235
517.6476, 30.15844
518.1297, 30.18327
518.6118, 29.79479
519.0939, 29.51139
519.5760, 29.44713
520.0582, 29.54209
520.5403, 29.65223
521.0224, 29.85921
521.5045, 29.96186
521.9866, 29.86462
522.4688, 29.56726
522.9509, 29.37515
523.4330, 29.27889
523.9151, 29.30428
524.3972, 29.57760
524.8793, 30.10818
525.3615, 30.24680
525.8436, 29.82887
526.3257, 29.30322
526.8078, 29.43251
527.2899, 30.08498
527.7720, 30.64416
528.2542, 30.92002
528.7363, 30.92479
529.2184, 30.46705
529.7005, 29.66051
530.1826, 29.10176
530.6647, 29.43360
531.1469, 30.00683
531.6290, 30.25373
532.1111, 30.04090
532.5932, 29.76658
533.0753, 29.54536
533.5574, 29.36029
534.0396, 29.19742
534.5217, 28.93438
535.0038, 28.83447
535.4859, 29.06822
535.9680, 29.49883
536.4501, 29.67780
536.9323, 29.43940
537.4144, 29.23285
537.8965, 29.25320
538.3786, 29.50835
538.8607, 29.62531
539.3428, 29.58964
539.8250, 29.45622
540.3071, 29.17827
540.7892, 28.79505
541.2713, 28.71150
541.7534, 29.06785
542.2355, 29.52447
542.7177, 29.54476
543.1998, 29.25652
543.6819, 29.06605
544.1640, 29.31746
544.6461, 29.64329
545.1282, 29.71404
545.6104, 29.54916
546.0925, 29.28140
546.5746, 28.82407
547.0567, 28.39814
547.5388, 28.16113
548.0209, 28.18202
548.5031, 28.23854
548.9852, 28.26411
549.4673, 28.31290
549.9494, 28.44547
550.4315, 28.74229
550.9136, 28.99737
551.3958, 29.18647
551.8779, 29.32130
552.3600, 29.45142
552.8421, 29.60846
553.3242, 29.65092
553.8063, 29.48020
554.2885, 29.12796
554.7706, 28.79710
555.2527, 28.47424
555.7348, 28.31336
556.2169, 28.61372
556.6990, 29.17465
557.1812, 29.46025
557.6633, 29.34560
558.1454, 29.10495
558.6275, 28.89681
559.1096, 28.76375
559.5917, 28.77670
560.0739, 29.22661
560.5560, 29.58202
561.0381, 29.55298
561.5202, 29.19423
562.0023, 28.75733
562.4844, 28.00238
562.9666, 27.44201
563.4487, 27.38793
563.9308, 27.97161
564.4129, 28.38753
564.8950, 28.59008
565.3771, 28.67406
565.8593, 28.69240
566.3414, 28.60935
566.8235, 28.63592
567.3056, 28.84620
567.7877, 29.09276
568.2698, 29.08083
568.7520, 28.82430
569.2341, 28.54905
569.7162, 28.26264
570.1983, 28.06186
570.6804, 28.23828
571.1625, 28.72898
571.6447, 29.09886
572.1268, 28.98927
572.6089, 28.66582
573.0910, 28.34140
573.5731, 28.02205
574.0552, 27.83302
574.5374, 27.87234
575.0195, 28.04597
575.5016, 28.26532
575.9837, 28.66715
576.4658, 28.92084
576.9479, 28.91357
577.4301, 28.75999
577.9122, 28.68751
578.3943, 28.74553
578.8764, 28.78609
579.3585, 28.78523
579.8406, 28.73549
580.3228, 28.55172
580.8049, 28.20891
581.2870, 27.89437
581.7691, 27.74709
582.2512, 27.73466
582.7333, 27.69440
583.2155, 27.60549
583.6975, 27.61079
584.1796, 28.04394
584.6617, 28.61747
585.1439, 28.84074
585.6260, 28.46755
586.1081, 27.92025
586.5902, 27.25863
587.0723, 26.62422
587.5544, 26.29873
588.0366, 26.54964
588.5187, 26.92071
589.0008, 27.33756
589.4829, 27.78437
589.9650, 28.08779
590.4471, 28.24534
590.9293, 28.25911
591.4114, 28.09745
591.8935, 27.72579
592.3756, 27.40227
592.8577, 27.10579
593.3398, 26.91340
593.8220, 26.92225
594.3041, 27.11664
594.7862, 27.41747
595.2683, 27.87918
595.7504, 28.26140
596.2325, 28.13151
596.7147, 27.66723
597.1968, 27.33296
597.6789, 27.47884
598.1610, 27.70485
598.6431, 27.69267
599.1252, 27.49682
599.6074, 27.37827
600.0895, 27.58243
600.5716, 27.75579
601.0537, 27.67106
601.5358, 27.21180
602.0179, 27.00788
602.5001, 27.30495
602.9822, 27.62091
603.4643, 27.54000
603.9464, 26.88194
604.4285, 26.55381
604.9106, 26.66660
605.3928, 27.01475
605.8749, 27.35774
606.3570, 27.68670
606.8391, 27.86047
607.3212, 27.77800
607.8033, 27.59321
608.2855, 27.51391
608.7676, 27.52979
609.2497, 27.60070
609.7318, 27.75042
610.2139, 27.91222
610.6960, 28.05231
611.1782, 28.16615
611.6603, 28.20573
612.1424, 28.00933
612.6245, 27.83923
613.1066, 27.88200
613.5887, 28.31883
614.0709, 28.58321
614.5530, 28.66771
615.0351, 28.58909
615.5172, 28.30121
615.9993, 27.70232
616.4814, 27.37262
616.9636, 27.46487
617.4457, 27.75894
617.9278, 27.83320
618.4099, 27.70543
618.8920, 27.56300
619.3741, 27.42907
619.8563, 27.36258
620.3384, 27.55782
620.8205, 27.94485
621.3026, 28.17445
621.7847, 27.87614
622.2668, 27.46455
622.7490, 27.24644
623.2311, 27.26042
623.7132, 27.32888
624.1953, 27.39350
624.6774, 27.50591
625.1595, 27.71738
625.6417, 28.19697
626.1238, 28.43041
626.6059, 28.31241
627.0880, 28.06268
627.5701, 27.99459
628.0522, 28.13598
628.5344, 28.21237
629.0165, 28.21282
629.4986, 28.04823
629.9807, 27.28620
630.4628, 26.08720
630.9449, 25.33268
631.4271, 25.81785
631.9092, 26.72684
632.3913, 27.18902
632.8734, 27.25899
633.3555, 27.30961
633.8376, 27.66622
634.3198, 27.95391
634.8019, 27.87137
635.2840, 27.27468
635.7661, 26.92315
636.2482, 27.05786
636.7303, 27.32127
637.2125, 27.47630
637.6946, 27.48464
638.1767, 27.49055
638.6588, 27.48724
639.1409, 27.50433
639.6230, 27.61220
640.1052, 27.80223
640.5873, 27.92450
641.0694, 27.91721
641.5515, 27.86457
642.0336, 27.93051
642.5157, 28.06118
642.9979, 28.09933
643.4800, 27.75011
643.9621, 27.46090
644.4442, 27.68899
644.9263, 28.32573
645.4084, 28.71379
645.8906, 28.36679
646.3727, 27.96115
646.8548, 27.86816
647.3369, 28.16619
647.8190, 28.17190
648.3011, 27.68309
648.7833, 27.20523
649.2654, 27.16007
649.7475, 27.58963
650.2296, 27.95212
650.7117, 28.22944
651.1938, 28.39592
