##NAMES=Galkhaite
##RRUFFID=R070394
##IDEAL CHEMISTRY=(Hg^2+^_5_Cu^1+^)Cs^1+^As^3+^_4_S^2-^_12_
##LOCALITY=Getchell Mine, Adam Peak, Potosi District, Humboldt County, Nevada, USA
##OWNER=RRUFF
##SOURCE=Michael Scott
##DESCRIPTION=Dark red cubes associated with quartz
##STATUS=The identification of this mineral has been confirmed by X-ray diffraction.
##URL=rruff.info/R070394
153.7797, 1767.518
154.2619, 1797.990
154.7440, 1826.790
155.2261, 1854.010
155.7082, 1877.292
156.1903, 1892.419
156.6724, 1904.739
157.1546, 1920.159
157.6367, 1945.750
158.1188, 1969.649
158.6009, 1986.761
159.0830, 1993.926
159.5652, 2002.514
160.0473, 2018.173
160.5294, 2037.146
161.0115, 2051.904
161.4936, 2057.835
161.9757, 2060.676
162.4579, 2062.332
162.9400, 2057.447
163.4221, 2060.993
163.9042, 2085.919
164.3863, 2125.924
164.8684, 2160.044
165.3506, 2174.550
165.8327, 2181.089
166.3148, 2188.954
166.7969, 2201.582
167.2790, 2215.313
167.7611, 2228.455
168.2433, 2241.089
168.7254, 2253.386
169.2075, 2263.646
169.6896, 2274.140
170.1717, 2287.494
170.6538, 2307.421
171.1360, 2328.790
171.6181, 2348.116
172.1002, 2365.405
172.5823, 2380.705
173.0644, 2391.947
173.5465, 2401.431
174.0287, 2413.506
174.5108, 2429.725
174.9929, 2449.670
175.4750, 2475.027
175.9571, 2507.068
176.4392, 2537.794
176.9214, 2556.305
177.4035, 2566.484
177.8856, 2579.420
178.3677, 2605.495
178.8498, 2636.989
179.3319, 2662.340
179.8141, 2679.844
180.2962, 2691.850
180.7783, 2698.082
181.2604, 2699.858
181.7425, 2704.736
182.2246, 2719.232
182.7068, 2740.411
183.1889, 2761.777
183.6710, 2781.611
184.1531, 2801.625
184.6352, 2824.810
185.1173, 2851.189
185.5995, 2877.445
186.0816, 2901.041
186.5637, 2922.312
187.0458, 2943.165
187.5279, 2964.420
188.0100, 2985.121
188.4922, 2999.910
188.9743, 3008.294
189.4564, 3020.038
189.9385, 3048.303
190.4206, 3090.746
190.9027, 3129.140
191.3849, 3157.384
191.8670, 3177.587
192.3491, 3198.245
192.8312, 3219.889
193.3133, 3240.326
193.7955, 3254.956
194.2776, 3263.973
194.7597, 3276.987
195.2418, 3299.306
195.7239, 3329.521
196.2060, 3357.778
196.6882, 3384.075
197.1703, 3407.949
197.6524, 3427.886
198.1345, 3443.378
198.6166, 3458.872
199.0987, 3475.992
199.5809, 3494.741
200.0630, 3514.759
200.5451, 3536.860
201.0272, 3558.855
201.5093, 3578.317
201.9914, 3595.896
202.4736, 3607.066
202.9557, 3607.813
203.4378, 3597.189
203.9199, 3586.550
204.4020, 3574.578
204.8841, 3564.501
205.3663, 3566.772
205.8484, 3585.121
206.3305, 3603.161
206.8126, 3610.531
207.2947, 3605.413
207.7768, 3601.622
208.2590, 3602.789
208.7411, 3605.258
209.2232, 3594.454
209.7053, 3565.946
210.1874, 3534.509
210.6695, 3509.244
211.1517, 3490.903
211.6338, 3475.743
212.1159, 3464.084
212.5980, 3455.328
213.0801, 3446.880
213.5622, 3440.866
214.0444, 3431.271
214.5265, 3412.595
215.0086, 3382.174
215.4907, 3350.476
215.9728, 3317.772
216.4549, 3284.448
216.9371, 3255.564
217.4192, 3231.634
217.9013, 3211.769
218.3834, 3197.110
218.8655, 3191.792
219.3476, 3180.334
219.8298, 3157.112
220.3119, 3122.167
220.7940, 3094.251
221.2761, 3075.577
221.7582, 3061.390
222.2403, 3046.751
222.7225, 3032.935
223.2046, 3015.936
223.6867, 2991.527
224.1688, 2957.427
224.6509, 2941.963
225.1330, 2955.589
225.6152, 2977.889
226.0973, 2981.241
226.5794, 2956.727
227.0615, 2931.506
227.5436, 2912.488
228.0257, 2900.000
228.5079, 2890.936
228.9900, 2885.627
229.4721, 2883.414
229.9542, 2884.665
230.4363, 2895.124
230.9185, 2898.406
231.4006, 2886.633
231.8827, 2853.591
232.3648, 2832.322
232.8469, 2826.696
233.3290, 2830.411
233.8112, 2833.067
234.2933, 2835.309
234.7754, 2835.372
235.2575, 2831.882
235.7396, 2822.641
236.2217, 2817.208
236.7039, 2817.565
237.1860, 2820.784
237.6681, 2820.128
238.1502, 2810.075
238.6323, 2787.140
239.1144, 2820.787
239.5966, 2844.434
240.0787, 2858.611
240.5608, 2834.971
241.0429, 2860.164
241.5250, 2865.787
242.0071, 2870.608
242.4893, 2902.677
242.9714, 2884.538
243.4535, 2916.173
243.9356, 2927.938
244.4177, 2948.798
244.8998, 2949.966
245.3820, 2957.218
245.8641, 2984.166
246.3462, 3000.207
246.8283, 2999.108
247.3104, 3020.546
247.7925, 3001.719
248.2747, 3026.092
248.7568, 3039.768
249.2389, 3054.081
249.7210, 3067.653
250.2031, 3083.951
250.6852, 3105.107
251.1674, 3132.897
251.6495, 3160.941
252.1316, 3188.907
252.6137, 3216.877
253.0958, 3243.984
253.5779, 3267.042
254.0601, 3294.328
254.5422, 3331.151
255.0243, 3382.344
255.5064, 3429.994
255.9885, 3472.568
256.4706, 3511.065
256.9528, 3548.868
257.4349, 3581.664
257.9170, 3621.052
258.3991, 3676.561
258.8812, 3757.511
259.3633, 3826.684
259.8455, 3877.574
260.3276, 3916.739
260.8097, 3966.271
261.2918, 4030.170
261.7739, 4097.871
262.2560, 4164.245
262.7382, 4229.286
263.2203, 4294.437
263.7024, 4361.940
264.1845, 4429.647
264.6666, 4490.909
265.1487, 4540.484
265.6309, 4593.386
266.1130, 4660.063
266.5951, 4747.495
267.0772, 4825.290
267.5593, 4886.220
268.0414, 4938.502
268.5236, 5009.735
269.0057, 5107.332
269.4878, 5207.447
269.9699, 5296.313
270.4520, 5370.685
270.9341, 5447.068
271.4163, 5529.010
271.8984, 5612.750
272.3805, 5682.597
272.8626, 5732.326
273.3447, 5788.632
273.8268, 5873.800
274.3090, 5993.722
274.7911, 6098.984
275.2732, 6180.806
275.7553, 6246.572
276.2374, 6316.375
276.7195, 6393.466
277.2017, 6464.519
277.6838, 6521.445
278.1659, 6563.766
278.6480, 6597.944
279.1301, 6624.786
279.6122, 6643.482
280.0944, 6651.120
280.5765, 6646.267
281.0586, 6638.077
281.5407, 6639.890
282.0229, 6652.017
282.5050, 6630.880
282.9871, 6566.759
283.4692, 6474.888
283.9513, 6385.834
284.4334, 6300.368
284.9156, 6208.728
285.3977, 6100.074
285.8798, 5976.226
286.3619, 5862.619
286.8440, 5763.089
287.3261, 5671.641
287.8083, 5575.521
288.2904, 5474.694
288.7725, 5373.055
289.2546, 5271.620
289.7367, 5171.474
290.2188, 5072.311
290.7010, 4972.609
291.1831, 4877.076
291.6652, 4797.327
292.1473, 4731.807
292.6294, 4668.813
293.1115, 4601.640
293.5937, 4531.176
294.0758, 4459.506
294.5579, 4385.515
295.0400, 4313.406
295.5221, 4249.383
296.0042, 4192.176
296.4864, 4137.974
296.9685, 4083.217
297.4506, 4029.400
297.9327, 3981.347
298.4148, 3939.542
298.8969, 3901.142
299.3791, 3864.688
299.8612, 3829.665
300.3433, 3795.278
300.8254, 3760.814
301.3075, 3726.960
301.7896, 3695.175
302.2718, 3665.083
302.7539, 3638.124
303.2360, 3617.943
303.7181, 3602.205
304.2002, 3584.880
304.6823, 3562.074
305.1645, 3536.739
305.6466, 3510.721
306.1287, 3483.351
306.6108, 3461.785
307.0929, 3457.249
307.5750, 3462.135
308.0572, 3462.257
308.5393, 3445.031
309.0214, 3424.407
309.5035, 3411.783
309.9856, 3407.742
310.4677, 3408.739
310.9499, 3413.894
311.4320, 3422.306
311.9141, 3432.748
312.3962, 3449.918
312.8783, 3465.140
313.3604, 3470.674
313.8426, 3466.839
314.3247, 3464.477
314.8068, 3468.065
315.2889, 3476.603
315.7710, 3489.000
316.2531, 3505.350
316.7353, 3525.255
317.2174, 3553.844
317.6995, 3589.350
318.1816, 3614.324
318.6637, 3607.357
319.1458, 3594.432
319.6280, 3596.416
320.1101, 3636.990
320.5922, 3674.428
321.0743, 3694.027
321.5564, 3698.887
322.0385, 3706.519
322.5207, 3721.129
323.0028, 3740.180
323.4849, 3762.058
323.9670, 3794.300
324.4491, 3820.239
324.9312, 3833.250
325.4134, 3836.959
325.8955, 3845.013
326.3776, 3858.747
326.8597, 3877.391
327.3418, 3901.064
327.8239, 3937.198
328.3061, 3967.480
328.7882, 3986.419
329.2703, 3999.190
329.7524, 4019.381
330.2345, 4059.050
330.7166, 4094.308
331.1988, 4115.327
331.6809, 4112.317
332.1630, 4116.485
332.6451, 4127.883
333.1272, 4146.548
333.6093, 4172.682
334.0915, 4209.508
334.5736, 4249.136
335.0557, 4290.799
335.5378, 4336.429
336.0199, 4372.100
336.5020, 4390.724
336.9842, 4406.518
337.4663, 4442.684
337.9484, 4509.363
338.4305, 4568.607
338.9126, 4605.593
339.3947, 4619.931
339.8769, 4653.119
340.3590, 4709.880
340.8411, 4776.428
341.3232, 4841.699
341.8053, 4906.180
342.2874, 4960.816
342.7696, 4999.668
343.2517, 5026.658
343.7338, 5059.448
344.2159, 5099.145
344.6980, 5141.017
345.1801, 5186.882
345.6623, 5235.105
346.1444, 5266.379
346.6265, 5273.047
347.1086, 5263.101
347.5907, 5253.923
348.0728, 5245.656
348.5550, 5235.272
349.0371, 5232.108
349.5192, 5226.861
350.0013, 5183.760
350.4834, 5086.602
350.9655, 4969.395
351.4477, 4882.581
351.9298, 4820.365
352.4119, 4760.127
352.8940, 4688.380
353.3762, 4609.151
353.8583, 4529.259
354.3404, 4448.812
354.8225, 4370.479
355.3046, 4299.804
355.7867, 4233.487
356.2689, 4163.604
356.7510, 4079.096
357.2331, 3993.314
357.7152, 3917.263
358.1973, 3851.701
358.6794, 3796.630
359.1616, 3757.528
359.6437, 3727.703
360.1258, 3697.790
360.6079, 3662.372
361.0900, 3627.398
361.5721, 3596.926
362.0543, 3570.981
362.5364, 3544.168
363.0185, 3502.590
363.5006, 3464.445
363.9827, 3446.445
364.4648, 3472.515
364.9470, 3498.493
365.4291, 3510.838
365.9112, 3511.433
366.3933, 3515.444
366.8754, 3526.851
367.3575, 3541.777
367.8397, 3557.891
368.3218, 3573.744
368.8039, 3592.424
369.2860, 3612.788
369.7681, 3635.882
370.2502, 3665.628
370.7324, 3711.366
371.2145, 3754.510
371.6966, 3786.050
372.1787, 3795.983
372.6608, 3819.063
373.1429, 3858.452
373.6251, 3909.226
374.1072, 3966.503
374.5893, 4038.970
375.0714, 4100.052
375.5535, 4134.713
376.0356, 4139.544
376.5178, 4171.884
376.9999, 4242.220
377.4820, 4321.673
377.9641, 4374.251
378.4462, 4396.439
378.9283, 4416.835
379.4105, 4440.993
379.8926, 4468.958
380.3747, 4503.248
380.8568, 4545.645
381.3389, 4585.095
381.8210, 4612.386
382.3032, 4628.163
382.7853, 4639.271
383.2674, 4645.821
383.7495, 4649.725
384.2316, 4657.394
384.7137, 4667.815
385.1959, 4669.936
385.6780, 4653.264
386.1601, 4623.563
386.6422, 4594.608
387.1243, 4569.292
387.6064, 4538.836
388.0886, 4496.131
388.5707, 4440.654
389.0528, 4372.106
389.5349, 4283.203
390.0170, 4185.580
390.4991, 4090.060
390.9813, 3998.139
391.4634, 3901.641
391.9455, 3789.311
392.4276, 3670.988
392.9097, 3559.175
393.3918, 3467.744
393.8740, 3375.808
394.3561, 3266.489
394.8382, 3143.035
395.3203, 3031.921
395.8024, 2944.906
396.2845, 2873.520
396.7667, 2812.698
397.2488, 2772.306
397.7309, 2728.872
398.2130, 2675.571
398.6951, 2615.970
399.1772, 2561.103
399.6594, 2509.994
400.1415, 2466.393
400.6236, 2431.902
401.1057, 2408.541
401.5878, 2389.812
402.0699, 2378.380
402.5521, 2370.280
403.0342, 2360.293
403.5163, 2350.564
403.9984, 2334.680
404.4805, 2307.753
404.9626, 2269.669
405.4448, 2240.882
405.9269, 2220.471
406.4090, 2211.054
406.8911, 2221.643
407.3732, 2257.674
407.8553, 2275.905
408.3375, 2264.508
408.8196, 2232.537
409.3017, 2206.320
409.7838, 2186.019
410.2659, 2169.607
410.7480, 2154.701
411.2302, 2142.168
411.7123, 2138.745
412.1944, 2147.671
412.6765, 2158.735
413.1586, 2155.080
413.6407, 2140.182
414.1229, 2129.417
414.6050, 2137.120
415.0871, 2151.136
415.5692, 2150.600
416.0513, 2134.094
416.5334, 2118.089
417.0156, 2116.045
417.4977, 2122.683
417.9798, 2130.156
418.4619, 2143.457
418.9440, 2149.989
419.4261, 2134.475
419.9083, 2101.708
420.3904, 2078.267
420.8725, 2087.375
421.3546, 2103.463
421.8367, 2107.732
422.3188, 2088.702
422.8010, 2071.719
423.2831, 2062.681
423.7652, 2059.979
424.2473, 2059.742
424.7295, 2066.784
425.2116, 2071.286
425.6937, 2067.657
426.1758, 2050.914
426.6579, 2045.966
427.1400, 2064.016
427.6222, 2086.346
428.1043, 2093.234
428.5864, 2075.899
429.0685, 2060.663
429.5506, 2052.016
430.0327, 2049.412
430.5149, 2049.496
430.9970, 2053.653
431.4791, 2057.167
431.9612, 2055.582
432.4433, 2048.389
432.9254, 2045.284
433.4076, 2048.570
433.8897, 2054.051
434.3718, 2053.438
434.8539, 2046.887
435.3360, 2039.818
435.8181, 2035.464
436.3003, 2032.691
436.7824, 2027.545
437.2645, 2019.685
437.7466, 2012.832
438.2287, 2009.105
438.7108, 2009.150
439.1930, 2015.112
439.6751, 2035.454
440.1572, 2054.311
440.6393, 2052.739
441.1214, 2034.364
441.6035, 2017.104
442.0857, 2011.116
442.5678, 2010.820
443.0499, 2012.063
443.5320, 2015.276
444.0141, 2016.983
444.4962, 2014.627
444.9784, 2010.049
445.4605, 2006.333
445.9426, 2004.202
446.4247, 2003.121
446.9068, 2003.659
447.3889, 2006.330
447.8711, 2006.664
448.3532, 2004.321
448.8353, 1999.622
449.3174, 1992.520
449.7995, 1980.759
450.2816, 1970.211
450.7638, 1960.821
451.2459, 1953.083
451.7280, 1950.131
452.2101, 1954.368
452.6922, 1957.672
453.1743, 1953.096
453.6565, 1938.739
454.1386, 1939.437
454.6207, 1960.843
455.1028, 1985.383
455.5849, 1983.597
456.0670, 1957.330
456.5492, 1938.765
457.0313, 1944.408
457.5134, 1963.116
457.9955, 1967.625
458.4776, 1958.370
458.9597, 1946.082
459.4419, 1936.488
459.9240, 1930.246
460.4061, 1929.454
460.8882, 1936.925
461.3703, 1944.320
461.8524, 1942.867
462.3346, 1935.691
462.8167, 1930.051
463.2988, 1933.806
463.7809, 1936.902
464.2630, 1929.297
464.7451, 1908.537
465.2273, 1898.026
465.7094, 1920.220
466.1915, 1949.381
466.6736, 1962.589
467.1557, 1936.687
467.6378, 1915.834
468.1200, 1908.160
468.6021, 1911.216
469.0842, 1914.473
469.5663, 1918.624
470.0484, 1922.133
470.5305, 1923.630
471.0127, 1920.965
471.4948, 1924.606
471.9769, 1938.318
472.4590, 1953.682
472.9411, 1958.280
473.4232, 1950.668
473.9054, 1941.574
474.3875, 1933.733
474.8696, 1926.754
475.3517, 1918.523
475.8338, 1908.835
476.3159, 1900.976
476.7981, 1896.844
477.2802, 1896.531
477.7623, 1901.668
478.2444, 1914.234
478.7265, 1926.826
479.2086, 1930.919
479.6908, 1928.214
480.1729, 1922.872
480.6550, 1911.492
481.1371, 1901.991
481.6192, 1902.987
482.1013, 1914.328
482.5835, 1925.292
483.0656, 1933.193
483.5477, 1936.821
484.0298, 1934.801
484.5119, 1920.516
484.9940, 1909.024
485.4762, 1904.591
485.9583, 1905.271
486.4404, 1906.051
486.9225, 1909.777
487.4046, 1910.118
487.8867, 1902.286
488.3689, 1882.513
488.8510, 1878.720
489.3331, 1899.944
489.8152, 1926.209
490.2973, 1937.325
490.7794, 1929.750
491.2616, 1921.233
491.7437, 1912.987
492.2258, 1906.743
492.7079, 1909.813
493.1900, 1922.729
493.6722, 1933.882
494.1543, 1935.091
494.6364, 1928.947
495.1185, 1923.015
495.6006, 1917.421
496.0828, 1914.635
496.5649, 1921.214
497.0470, 1932.286
497.5291, 1937.396
498.0112, 1928.344
498.4933, 1916.820
498.9755, 1914.387
499.4576, 1918.406
499.9397, 1902.349
500.4218, 1924.913
500.9039, 1937.475
501.3860, 1940.570
501.8682, 1905.847
502.3503, 1919.958
502.8324, 1914.499
503.3145, 1908.237
503.7966, 1929.222
504.2787, 1900.000
504.7609, 1920.552
505.2430, 1921.235
505.7251, 1931.012
506.2072, 1921.098
506.6893, 1917.265
507.1714, 1933.131
507.6536, 1938.089
508.1357, 1925.908
508.6178, 1936.263
509.0999, 1906.353
509.5820, 1911.776
510.0641, 1932.444
510.5463, 1920.331
511.0284, 1923.171
511.5105, 1911.905
511.9926, 1896.042
512.4747, 1896.219
512.9568, 1910.653
513.4390, 1924.387
513.9211, 1924.655
514.4032, 1919.314
514.8853, 1918.439
515.3674, 1924.451
515.8495, 1930.821
516.3317, 1934.019
516.8138, 1935.022
517.2959, 1935.180
517.7780, 1937.272
518.2601, 1936.217
518.7422, 1925.482
519.2244, 1906.985
519.7065, 1900.003
520.1886, 1915.478
520.6707, 1935.420
521.1528, 1953.571
521.6349, 1974.359
522.1171, 1980.773
522.5992, 1966.525
523.0813, 1944.153
523.5634, 1930.031
524.0455, 1925.267
524.5276, 1922.571
525.0098, 1918.848
525.4919, 1916.419
525.9740, 1927.809
526.4561, 1953.632
526.9382, 1972.529
527.4203, 1960.418
527.9025, 1931.851
528.3846, 1924.968
528.8667, 1946.326
529.3488, 1969.555
529.8309, 1966.602
530.3130, 1949.289
530.7952, 1936.727
531.2773, 1938.717
531.7594, 1945.345
532.2415, 1954.444
532.7236, 1964.705
533.2057, 1970.135
533.6879, 1965.962
534.1700, 1958.869
534.6521, 1951.921
535.1342, 1945.393
535.6163, 1938.909
536.0984, 1931.130
536.5806, 1924.338
537.0627, 1921.139
537.5448, 1922.479
538.0269, 1924.934
538.5090, 1927.288
538.9911, 1930.677
539.4733, 1940.472
539.9554, 1957.991
540.4375, 1972.886
540.9196, 1978.048
541.4017, 1975.506
541.8839, 1974.425
542.3660, 1975.113
542.8481, 1975.924
543.3302, 1976.241
543.8123, 1975.423
544.2944, 1971.379
544.7766, 1959.495
545.2587, 1950.779
545.7408, 1957.828
546.2229, 1975.079
546.7050, 1988.920
547.1871, 1994.520
547.6693, 1994.802
548.1514, 1989.348
548.6335, 1977.478
549.1156, 1967.745
549.5977, 1958.709
550.0798, 1954.159
550.5620, 1957.377
551.0441, 1975.471
551.5262, 1987.291
552.0083, 1990.736
552.4904, 1988.397
552.9725, 1984.889
553.4547, 1980.109
553.9368, 1974.447
554.4189, 1966.498
554.9010, 1958.026
555.3831, 1957.608
555.8652, 1965.386
556.3474, 1973.930
556.8295, 1976.074
557.3116, 1975.013
557.7937, 1978.500
558.2758, 1989.106
558.7579, 1997.771
559.2401, 1996.412
559.7222, 1988.089
560.2043, 1977.493
560.6864, 1956.429
561.1685, 1943.066
561.6506, 1951.690
562.1328, 1977.496
562.6149, 1994.730
563.0970, 1989.337
563.5791, 1982.517
564.0612, 1984.256
564.5433, 1999.014
565.0255, 2004.584
565.5076, 1996.146
565.9897, 1984.182
566.4718, 1980.096
566.9539, 1985.591
567.4360, 1988.324
567.9182, 1985.886
568.4003, 1980.142
568.8824, 1972.179
569.3645, 1962.725
569.8466, 1959.948
570.3287, 1978.183
570.8109, 2002.199
571.2930, 2002.309
571.7751, 1979.154
572.2572, 1955.670
572.7393, 1946.233
573.2214, 1945.216
573.7036, 1947.045
574.1857, 1950.869
574.6678, 1956.705
575.1499, 1970.258
575.6320, 1984.292
576.1141, 1988.338
576.5963, 1969.669
577.0784, 1953.243
577.5605, 1943.836
578.0426, 1940.632
578.5247, 1937.529
579.0068, 1933.403
579.4890, 1931.740
579.9711, 1935.776
580.4532, 1946.028
580.9353, 1951.853
581.4174, 1952.863
581.8995, 1951.027
582.3817, 1946.528
582.8638, 1940.636
583.3459, 1938.744
583.8280, 1944.193
584.3101, 1950.158
584.7922, 1947.900
585.2744, 1939.868
585.7565, 1932.316
586.2386, 1927.949
586.7207, 1925.178
587.2028, 1922.944
587.6849, 1921.245
588.1671, 1921.213
588.6492, 1923.665
589.1313, 1927.544
589.6134, 1932.966
590.0955, 1944.714
590.5776, 1946.837
591.0598, 1933.438
591.5419, 1915.707
592.0240, 1908.753
592.5061, 1914.369
592.9882, 1922.173
593.4703, 1930.775
593.9525, 1939.245
594.4346, 1946.380
594.9167, 1951.934
595.3988, 1952.438
595.8809, 1941.459
596.3630, 1925.814
596.8452, 1915.826
597.3273, 1912.049
597.8094, 1912.946
598.2915, 1921.978
598.7736, 1932.945
599.2557, 1939.848
599.7379, 1940.380
600.2200, 1938.705
600.7021, 1933.954
601.1843, 1928.209
601.6664, 1924.831
602.1485, 1925.608
602.6306, 1926.271
603.1127, 1924.980
603.5948, 1922.877
604.0770, 1927.493
604.5591, 1941.864
605.0412, 1952.790
605.5233, 1948.557
606.0054, 1932.059
606.4875, 1933.113
606.9697, 1953.510
607.4518, 1973.455
607.9339, 1971.282
608.4160, 1955.046
608.8981, 1941.560
609.3802, 1935.265
609.8624, 1929.350
610.3445, 1914.488
610.8266, 1897.210
611.3087, 1888.170
611.7908, 1896.308
612.2729, 1908.162
612.7551, 1922.906
613.2372, 1938.963
613.7193, 1945.798
614.2014, 1937.295
614.6835, 1926.766
615.1656, 1918.731
615.6478, 1913.083
616.1299, 1911.774
616.6120, 1916.135
617.0941, 1921.413
617.5762, 1922.234
618.0583, 1919.371
618.5405, 1919.788
619.0226, 1925.373
619.5047, 1931.915
619.9868, 1934.190
620.4689, 1933.286
620.9510, 1931.947
621.4332, 1929.395
621.9153, 1928.493
622.3974, 1931.762
622.8795, 1938.476
623.3616, 1945.621
623.8438, 1958.367
624.3259, 1965.972
624.8080, 1960.060
625.2901, 1936.829
625.7722, 1924.663
626.2543, 1927.108
626.7365, 1936.211
627.2186, 1948.699
627.7007, 1966.757
628.1828, 1972.376
628.6649, 1961.215
629.1470, 1944.685
629.6292, 1937.941
630.1113, 1940.180
630.5934, 1947.831
631.0755, 1962.781
631.5576, 1978.950
632.0397, 1989.610
632.5219, 1995.279
633.0040, 1997.365
633.4861, 1993.548
633.9682, 1988.852
634.4503, 1986.865
634.9324, 1987.878
635.4146, 1986.499
635.8967, 1977.172
636.3788, 1968.812
636.8609, 1966.173
637.3430, 1970.662
637.8251, 1977.681
638.3073, 1989.027
638.7894, 2000.057
639.2715, 2004.927
639.7536, 2003.562
640.2357, 1999.502
640.7178, 1992.543
641.2000, 1984.870
641.6821, 1979.720
642.1642, 1976.721
642.6463, 1974.624
643.1284, 1972.996
643.6105, 1971.844
644.0927, 1971.215
644.5748, 1971.086
645.0569, 1971.306
645.5390, 1975.085
646.0211, 1976.550
646.5032, 1970.568
646.9854, 1952.118
647.4675, 1944.856
647.9496, 1955.391
648.4317, 1969.614
648.9138, 1975.999
649.3959, 1972.964
649.8781, 1972.025
650.3602, 1975.721
650.8423, 1978.277
