##NAMES=Ganomalite
##RRUFFID=R050387
##IDEAL CHEMISTRY=Pb^2+^_3_Ca_2_(SiO_4_)(Si_2_O_7_)
##LOCALITY=Sells, Pima County, Arizona, USA
##OWNER=RRUFF
##SOURCE=University of Arizona Mineral Museum
##DESCRIPTION=Yellowish-red massive
##STATUS=The identification of this mineral has been confirmed by single-crystal X-ray diffraction.
##URL=rruff.info/R050387
93.48767, 3920.849
93.96979, 4059.950
94.45190, 4194.823
94.93402, 4306.255
95.41614, 4346.043
95.89825, 4341.292
96.38037, 4330.634
96.86249, 4312.864
97.34460, 4285.720
97.82672, 4253.063
98.30884, 4217.777
98.79095, 4177.864
99.27307, 4130.638
99.75519, 4079.571
100.2373, 4039.580
100.7194, 4012.797
101.2015, 3990.596
101.6837, 3969.934
102.1658, 3953.320
102.6479, 3943.398
103.1300, 3940.195
103.6121, 3939.523
104.0942, 3938.019
104.5764, 3936.292
105.0585, 3936.025
105.5406, 3934.048
106.0227, 3933.286
106.5048, 3944.367
106.9869, 3975.072
107.4691, 4004.707
107.9512, 4019.929
108.4333, 4025.569
108.9154, 4033.892
109.3975, 4056.554
109.8796, 4096.128
110.3618, 4132.310
110.8439, 4160.699
111.3260, 4189.215
111.8081, 4221.601
112.2902, 4257.949
112.7723, 4295.905
113.2544, 4332.244
113.7366, 4366.984
114.2187, 4399.598
114.7008, 4427.625
115.1829, 4454.925
115.6650, 4485.260
116.1471, 4520.101
116.6293, 4557.220
117.1114, 4591.268
117.5935, 4620.207
118.0756, 4650.099
118.5577, 4681.737
119.0398, 4715.265
119.5220, 4751.079
120.0041, 4788.082
120.4862, 4829.035
120.9683, 4877.222
121.4504, 4932.978
121.9325, 4994.696
122.4147, 5060.815
122.8968, 5131.229
123.3789, 5206.920
123.8610, 5289.032
124.3431, 5376.808
124.8252, 5470.456
125.3074, 5570.113
125.7895, 5675.562
126.2716, 5787.689
126.7537, 5910.467
127.2358, 6031.667
127.7179, 6147.281
128.2001, 6259.308
128.6822, 6371.976
129.1643, 6487.525
129.6464, 6605.920
130.1285, 6720.297
130.6107, 6832.821
131.0928, 6939.561
131.5749, 7039.194
132.0570, 7131.690
132.5391, 7217.561
133.0212, 7295.943
133.5033, 7365.670
133.9855, 7437.877
134.4676, 7515.240
134.9497, 7592.469
135.4318, 7665.238
135.9139, 7733.575
136.3960, 7802.905
136.8782, 7880.063
137.3603, 7967.627
137.8424, 8048.950
138.3245, 8117.440
138.8066, 8181.195
139.2887, 8248.607
139.7709, 8321.082
140.2530, 8397.533
140.7351, 8477.420
141.2172, 8559.799
141.6993, 8644.233
142.1814, 8730.816
142.6636, 8818.796
143.1457, 8907.161
143.6278, 8999.002
144.1099, 9085.878
144.5920, 9165.456
145.0741, 9237.030
145.5563, 9296.424
146.0384, 9347.148
146.5205, 9392.898
147.0026, 9398.245
147.4847, 9347.438
147.9668, 9258.152
148.4490, 9134.316
148.9311, 8977.799
149.4132, 8790.149
149.8953, 8571.346
150.3774, 8306.971
150.8595, 8034.987
151.3417, 7753.294
151.8238, 7470.879
152.3059, 7193.336
152.7880, 6924.822
153.2701, 6664.017
153.7522, 6411.741
154.2344, 6165.082
154.7165, 5934.398
155.1986, 5723.834
155.6807, 5527.866
156.1628, 5338.960
156.6449, 5153.766
157.1271, 4974.212
157.6092, 4810.236
158.0913, 4660.878
158.5734, 4522.934
159.0555, 4398.695
159.5376, 4286.075
160.0198, 4179.858
160.5019, 4077.712
160.9840, 3980.192
161.4661, 3887.947
161.9482, 3799.600
162.4303, 3717.255
162.9125, 3643.749
163.3946, 3578.865
163.8767, 3518.098
164.3588, 3459.597
164.8409, 3404.093
165.3230, 3352.375
165.8052, 3306.262
166.2873, 3262.721
166.7694, 3217.981
167.2515, 3170.656
167.7336, 3126.447
168.2157, 3089.143
168.6979, 3055.924
169.1800, 3023.558
169.6621, 2990.490
170.1442, 2957.550
170.6263, 2926.949
171.1084, 2899.501
171.5906, 2873.480
172.0727, 2847.373
172.5548, 2822.167
173.0369, 2799.467
173.5190, 2780.716
174.0011, 2765.264
174.4833, 2747.666
174.9654, 2724.604
175.4475, 2702.431
175.9296, 2682.220
176.4117, 2663.929
176.8938, 2647.326
177.3760, 2632.576
177.8581, 2619.795
178.3402, 2604.132
178.8223, 2582.244
179.3044, 2561.122
179.7865, 2543.420
180.2687, 2528.762
180.7508, 2515.634
181.2329, 2503.184
181.7150, 2491.537
182.1971, 2477.203
182.6792, 2457.072
183.1614, 2437.263
183.6435, 2422.115
184.1256, 2411.482
184.6077, 2401.162
185.0898, 2387.308
185.5719, 2369.599
186.0541, 2352.668
186.5362, 2337.171
187.0183, 2322.154
187.5004, 2306.810
187.9825, 2290.992
188.4646, 2275.188
188.9468, 2259.681
189.4289, 2244.516
189.9110, 2229.617
190.3931, 2214.447
190.8752, 2199.722
191.3573, 2186.912
191.8395, 2176.907
192.3216, 2166.588
192.8037, 2152.832
193.2858, 2136.953
193.7679, 2121.777
194.2500, 2109.827
194.7322, 2099.738
195.2143, 2086.583
195.6964, 2068.620
196.1785, 2050.108
196.6606, 2033.135
197.1427, 2017.393
197.6249, 2002.402
198.1070, 1988.023
198.5891, 1974.191
199.0712, 1960.382
199.5533, 1947.676
200.0354, 1933.599
200.5176, 1916.533
200.9997, 1897.433
201.4818, 1878.410
201.9639, 1861.145
202.4460, 1845.653
202.9281, 1830.816
203.4103, 1818.127
203.8924, 1804.846
204.3745, 1789.989
204.8566, 1773.768
205.3387, 1757.202
205.8208, 1741.132
206.3030, 1725.542
206.7851, 1710.069
207.2672, 1694.430
207.7493, 1679.137
208.2314, 1665.174
208.7135, 1652.033
209.1957, 1638.064
209.6778, 1621.501
210.1599, 1601.733
210.6420, 1584.604
211.1241, 1571.238
211.6062, 1558.988
212.0884, 1547.396
212.5705, 1535.990
213.0526, 1523.243
213.5347, 1507.213
214.0168, 1487.323
214.4989, 1471.016
214.9811, 1459.537
215.4632, 1450.246
215.9453, 1442.489
216.4274, 1435.867
216.9095, 1428.407
217.3916, 1418.243
217.8737, 1405.169
218.3559, 1392.352
218.8380, 1379.228
219.3201, 1366.673
219.8022, 1355.679
220.2843, 1346.323
220.7664, 1337.255
221.2486, 1327.235
221.7307, 1316.532
222.2128, 1306.698
222.6949, 1298.570
223.1770, 1291.069
223.6591, 1282.804
224.1413, 1273.550
224.6234, 1264.781
225.1055, 1258.574
225.5876, 1253.581
226.0697, 1247.244
226.5518, 1237.612
227.0340, 1226.962
227.5161, 1219.064
227.9982, 1214.732
228.4803, 1210.295
228.9624, 1202.978
229.4445, 1194.423
229.9267, 1186.643
230.4088, 1180.514
230.8909, 1175.513
231.3730, 1170.877
231.8551, 1166.873
232.3372, 1162.568
232.8194, 1157.718
233.3015, 1152.315
233.7836, 1146.139
234.2657, 1138.868
234.7478, 1131.141
235.2299, 1124.292
235.7121, 1118.101
236.1942, 1113.347
236.6763, 1111.820
237.1584, 1110.994
237.6405, 1107.705
238.1227, 1100.243
238.6048, 1090.830
239.0869, 1085.529
239.5690, 1087.776
240.0511, 1088.117
240.5332, 1083.549
241.0154, 1077.045
241.4975, 1071.395
241.9796, 1067.783
242.4617, 1065.762
242.9438, 1064.454
243.4259, 1065.188
243.9081, 1064.424
244.3902, 1060.852
244.8723, 1056.229
245.3544, 1052.070
245.8365, 1048.964
246.3186, 1046.733
246.8008, 1044.933
247.2829, 1043.515
247.7650, 1042.711
248.2471, 1042.993
248.7292, 1043.598
249.2113, 1043.853
249.6935, 1043.521
250.1756, 1042.797
250.6577, 1042.052
251.1398, 1041.188
251.6219, 1040.444
252.1040, 1039.702
252.5862, 1039.132
253.0683, 1039.066
253.5504, 1039.555
254.0325, 1040.105
254.5146, 1039.899
254.9967, 1038.461
255.4789, 1037.062
255.9610, 1036.290
256.4431, 1035.246
256.9252, 1032.484
257.4073, 1027.830
257.8894, 1023.445
258.3716, 1022.546
258.8537, 1027.629
259.3358, 1029.490
259.8179, 1025.079
260.3000, 1019.285
260.7821, 1016.345
261.2643, 1016.974
261.7464, 1019.215
262.2285, 1021.095
262.7106, 1022.556
263.1927, 1023.751
263.6748, 1025.446
264.1570, 1026.373
264.6391, 1024.943
265.1212, 1021.117
265.6033, 1016.818
266.0854, 1013.355
266.5675, 1010.937
267.0497, 1011.191
267.5318, 1017.884
268.0139, 1024.675
268.4960, 1025.752
268.9781, 1021.023
269.4602, 1015.499
269.9424, 1012.547
270.4245, 1012.197
270.9066, 1012.737
271.3887, 1015.367
271.8708, 1017.958
272.3529, 1018.679
272.8351, 1017.646
273.3172, 1016.436
273.7993, 1016.055
274.2814, 1016.184
274.7635, 1015.687
275.2456, 1013.470
275.7278, 1011.832
276.2099, 1013.109
276.6920, 1016.903
277.1741, 1019.854
277.6562, 1019.978
278.1383, 1018.479
278.6205, 1017.909
279.1026, 1018.228
279.5847, 1019.539
280.0668, 1022.934
280.5489, 1027.874
281.0310, 1030.761
281.5132, 1029.018
281.9953, 1025.965
282.4774, 1026.898
282.9595, 1032.654
283.4416, 1037.415
283.9237, 1036.200
284.4059, 1030.639
284.8880, 1027.921
285.3701, 1031.129
285.8522, 1035.897
286.3343, 1037.636
286.8164, 1036.495
287.2986, 1034.637
287.7807, 1032.781
288.2628, 1031.052
288.7449, 1029.837
289.2270, 1029.100
289.7091, 1029.088
290.1913, 1030.239
290.6734, 1032.280
291.1555, 1034.291
291.6376, 1036.266
292.1197, 1037.863
292.6018, 1037.917
293.0840, 1035.563
293.5661, 1033.607
294.0482, 1034.544
294.5303, 1037.113
295.0124, 1039.112
295.4945, 1039.944
295.9767, 1039.564
296.4588, 1037.414
296.9409, 1032.823
297.4230, 1028.776
297.9051, 1027.351
298.3872, 1027.187
298.8694, 1026.835
299.3515, 1025.948
299.8336, 1024.606
300.3157, 1022.691
300.7978, 1020.029
301.2799, 1017.793
301.7621, 1017.207
302.2442, 1016.839
302.7263, 1015.187
303.2084, 1011.795
303.6905, 1008.207
304.1726, 1006.143
304.6548, 1005.680
305.1369, 1005.007
305.6190, 1003.886
306.1011, 1002.190
306.5832, 999.3281
307.0653, 995.3571
307.5475, 992.0895
308.0296, 991.6871
308.5117, 993.8315
308.9938, 994.5519
309.4759, 992.6159
309.9580, 989.9387
310.4402, 987.9432
310.9223, 986.4338
311.4044, 984.5744
311.8865, 981.2181
312.3686, 976.9374
312.8507, 974.5259
313.3329, 975.5023
313.8150, 975.7427
314.2971, 972.1374
314.7792, 966.3993
315.2613, 961.5696
315.7434, 958.7262
316.2256, 957.8172
316.7077, 959.4750
317.1898, 965.2372
317.6719, 969.2645
318.1540, 967.4612
318.6361, 963.1969
319.1183, 959.8837
319.6004, 958.5231
320.0825, 958.4043
320.5646, 958.9344
321.0467, 960.3215
321.5288, 961.0172
322.0110, 959.5707
322.4931, 957.8161
322.9752, 957.3534
323.4573, 958.4557
323.9394, 959.7834
324.4215, 960.1082
324.9037, 959.4469
325.3858, 958.6570
325.8679, 958.1115
326.3500, 957.1927
326.8321, 954.9157
327.3142, 951.6058
327.7964, 949.2086
328.2785, 949.9553
328.7606, 952.9930
329.2427, 953.9906
329.7248, 951.7946
330.2069, 949.1175
330.6891, 947.5308
331.1712, 946.7247
331.6533, 946.0591
332.1354, 945.1724
332.6175, 944.2838
333.0996, 943.7825
333.5818, 943.6230
334.0639, 944.0016
334.5460, 946.0085
335.0281, 948.2670
335.5102, 949.0417
335.9923, 947.5629
336.4745, 945.2389
336.9566, 943.7126
337.4387, 943.0458
337.9208, 942.1904
338.4029, 940.5861
338.8850, 938.7982
339.3671, 937.3651
339.8492, 936.3325
340.3314, 935.5189
340.8135, 935.0535
341.2956, 934.8018
341.7777, 933.8267
342.2598, 931.4562
342.7419, 929.0568
343.2241, 927.8149
343.7062, 927.5636
344.1883, 927.5687
344.6704, 927.8827
345.1525, 928.1467
345.6346, 927.5924
346.1168, 926.1530
346.5989, 923.9917
347.0810, 920.6439
347.5631, 916.7002
348.0452, 913.1320
348.5273, 910.0059
349.0095, 907.5228
349.4916, 906.2871
349.9737, 906.3411
350.4558, 906.0449
350.9379, 904.8763
351.4200, 902.6990
351.9022, 899.4054
352.3843, 894.7687
352.8664, 889.6616
353.3485, 884.0633
353.8306, 878.3328
354.3127, 873.9968
354.7949, 871.7164
355.2770, 870.5782
355.7591, 869.4152
356.2412, 868.2114
356.7233, 867.4028
357.2054, 868.2708
357.6876, 869.2752
358.1697, 867.5257
358.6518, 862.3566
359.1339, 856.5428
359.6160, 852.3270
360.0981, 849.5290
360.5803, 847.2599
361.0624, 846.3480
361.5445, 845.2417
362.0266, 842.0926
362.5087, 837.2087
362.9908, 833.2885
363.4730, 832.3507
363.9551, 833.1113
364.4372, 831.4684
364.9193, 825.8348
365.4014, 820.6660
365.8835, 818.3007
366.3657, 817.6551
366.8478, 816.6038
367.3299, 814.4771
367.8120, 811.6066
368.2941, 808.1945
368.7762, 803.8354
369.2584, 800.7167
369.7405, 799.9913
370.2226, 800.1558
370.7047, 799.8776
371.1868, 798.9562
371.6689, 797.7329
372.1511, 796.5558
372.6332, 795.4200
373.1153, 793.6069
373.5974, 791.5549
374.0795, 788.4825
374.5616, 782.9811
375.0438, 776.0922
375.5259, 770.2605
376.0080, 766.8489
376.4901, 765.4554
376.9722, 764.7720
377.4543, 766.0329
377.9365, 766.4025
378.4186, 765.2108
378.9007, 763.1511
379.3828, 760.7089
379.8649, 758.0934
380.3470, 755.7990
380.8292, 754.6526
381.3113, 755.4620
381.7934, 754.9146
382.2755, 753.0922
382.7576, 750.0573
383.2397, 744.7759
383.7219, 738.0900
384.2040, 732.4357
384.6861, 729.8065
385.1682, 730.0297
385.6503, 730.4518
386.1324, 732.5577
386.6146, 733.1686
387.0967, 730.7402
387.5788, 726.8259
388.0609, 723.6552
388.5430, 722.1712
389.0251, 721.0063
389.5073, 716.8688
389.9894, 706.4727
390.4715, 700.1329
390.9536, 700.4769
391.4357, 702.7901
391.9178, 705.2627
392.4000, 707.0334
392.8821, 706.8066
393.3642, 702.5299
393.8463, 693.9979
394.3284, 688.0710
394.8105, 686.2796
395.2927, 685.4923
395.7748, 685.5114
396.2569, 685.6077
396.7390, 684.5582
397.2211, 681.5236
397.7032, 677.4936
398.1854, 674.5934
398.6675, 672.8600
399.1496, 672.1472
399.6317, 674.0113
400.1138, 675.9069
400.5959, 675.7222
401.0781, 673.1241
401.5602, 669.6585
402.0423, 666.5472
402.5244, 663.7784
403.0065, 661.1315
403.4886, 658.5201
403.9708, 656.1556
404.4529, 654.0368
404.9350, 652.2270
405.4171, 650.9446
405.8992, 650.9404
406.3813, 651.1887
406.8635, 649.6727
407.3456, 646.1353
407.8277, 643.2640
408.3098, 643.3309
408.7919, 644.3804
409.2740, 642.9294
409.7562, 637.8410
410.2383, 632.7332
410.7204, 629.8998
411.2025, 628.7675
411.6846, 627.6918
412.1667, 626.3126
412.6489, 624.7202
413.1310, 622.7719
413.6131, 620.4543
414.0952, 618.9320
414.5773, 619.2576
415.0594, 619.8891
415.5416, 619.5106
416.0237, 618.0649
416.5058, 615.8468
416.9879, 612.7587
417.4700, 609.1430
417.9521, 606.8666
418.4343, 606.3945
418.9164, 606.4357
419.3985, 607.5439
419.8806, 608.6845
420.3627, 608.0555
420.8448, 605.0974
421.3270, 601.1810
421.8091, 598.2313
422.2912, 596.2551
422.7733, 595.5333
423.2554, 597.8251
423.7375, 599.7498
424.2197, 598.9897
424.7018, 595.9705
425.1839, 592.5541
425.6660, 590.0394
426.1481, 588.3299
426.6302, 586.6880
427.1124, 584.5599
427.5945, 583.2701
428.0766, 583.7144
428.5587, 584.6909
429.0408, 584.8765
429.5229, 583.9173
430.0051, 582.6342
430.4872, 582.6177
430.9693, 584.7587
431.4514, 584.4568
431.9335, 577.8911
432.4156, 572.1127
432.8978, 570.9514
433.3799, 572.9622
433.8620, 573.9958
434.3441, 570.9943
434.8262, 565.6424
435.3083, 563.0512
435.7905, 564.2570
436.2726, 565.3815
436.7547, 564.8128
437.2368, 563.6503
437.7189, 563.0319
438.2010, 563.2376
438.6832, 562.9501
439.1653, 560.6919
439.6474, 556.8358
440.1295, 553.1749
440.6116, 549.5495
441.0938, 547.0376
441.5759, 547.6072
442.0580, 550.2081
442.5401, 551.5751
443.0222, 549.7214
443.5043, 546.9753
443.9865, 545.9227
444.4686, 546.3522
444.9507, 546.0316
445.4328, 543.3993
445.9149, 539.9188
446.3970, 539.3605
446.8792, 543.1603
447.3613, 545.2766
447.8434, 543.1336
448.3255, 538.8510
448.8076, 534.3491
449.2897, 530.1074
449.7719, 527.3917
450.2540, 527.8612
450.7361, 531.7734
451.2182, 532.9369
451.7003, 529.0936
452.1824, 525.4205
452.6646, 523.6802
453.1467, 523.3985
453.6288, 523.9835
454.1109, 525.1804
454.5930, 526.2413
455.0751, 525.5145
455.5573, 521.3346
456.0394, 518.6307
456.5215, 517.6032
457.0036, 517.6088
457.4857, 519.0255
457.9678, 521.2500
458.4500, 522.7057
458.9321, 522.0212
459.4142, 519.6076
459.8963, 517.9045
460.3784, 517.2493
460.8605, 516.7361
461.3427, 515.7472
461.8248, 514.9523
462.3069, 515.1964
462.7890, 516.6871
463.2711, 518.4103
463.7532, 519.6093
464.2354, 520.2532
464.7175, 519.5763
465.1996, 516.6948
465.6817, 513.7435
466.1638, 511.8905
466.6459, 511.0978
467.1281, 511.4789
467.6102, 514.1713
468.0923, 517.0572
468.5744, 517.6672
469.0565, 516.1780
469.5386, 514.2391
470.0208, 512.2124
470.5029, 510.4224
470.9850, 509.6631
471.4671, 510.1507
471.9492, 510.2056
472.4313, 509.1145
472.9135, 507.5506
473.3956, 506.2718
473.8777, 505.3222
474.3598, 504.1708
474.8419, 502.2780
475.3240, 499.8154
475.8062, 498.5320
476.2883, 499.5400
476.7704, 500.1926
477.2525, 499.6029
477.7346, 498.5369
478.2167, 498.0185
478.6989, 498.2806
479.1810, 498.6484
479.6631, 498.1759
480.1452, 496.5976
480.6273, 495.5556
481.1094, 495.8306
481.5916, 495.8417
482.0737, 495.2146
482.5558, 493.9302
483.0379, 491.8345
483.5200, 488.7179
484.0021, 485.4001
484.4843, 483.7239
484.9664, 484.2182
485.4485, 483.8422
485.9306, 480.7861
486.4127, 477.7393
486.8948, 476.9836
487.3770, 478.1229
487.8591, 478.5947
488.3412, 476.3312
488.8233, 472.6173
489.3054, 469.7384
489.7875, 467.7105
490.2697, 466.7781
490.7518, 467.7926
491.2339, 469.6216
491.7160, 469.9177
492.1981, 468.1653
492.6802, 466.3963
493.1624, 466.3756
493.6445, 466.5345
494.1266, 463.6791
494.6087, 457.3702
495.0908, 451.6229
495.5729, 450.1943
496.0551, 453.0484
496.5372, 454.8597
497.0193, 455.1925
497.5014, 455.1652
497.9835, 455.3526
498.4656, 455.3065
498.9478, 454.2264
499.4299, 451.8949
499.9120, 449.0275
500.3941, 446.6632
500.8762, 444.9050
501.3583, 443.1754
501.8405, 441.6730
502.3226, 439.9999
502.8047, 437.4853
503.2868, 434.7799
503.7689, 433.3282
504.2510, 434.0486
504.7331, 435.3968
505.2152, 434.1784
505.6974, 429.8350
506.1795, 426.3825
506.6616, 425.0063
507.1437, 424.4792
507.6258, 424.2192
508.1079, 424.0758
508.5901, 423.4340
509.0722, 422.1830
509.5543, 420.1730
510.0364, 416.5749
510.5185, 411.4391
511.0006, 407.3073
511.4828, 405.5208
511.9649, 405.3610
512.4470, 405.5368
512.9291, 406.4303
513.4113, 406.3779
513.8934, 403.6428
514.3755, 400.5450
514.8576, 400.3111
515.3397, 402.7119
515.8218, 403.9819
516.3040, 400.9730
516.7861, 394.5513
517.2682, 391.0402
517.7503, 392.7927
518.2324, 394.6216
518.7145, 396.6398
519.1967, 398.1962
519.6788, 398.6469
520.1609, 397.9330
520.6430, 396.5014
521.1251, 394.5949
521.6072, 392.2377
522.0894, 390.6792
522.5715, 390.3870
523.0536, 390.1665
523.5357, 389.4103
524.0178, 388.5789
524.4999, 388.1900
524.9821, 388.3783
525.4642, 388.9691
525.9463, 389.7716
526.4284, 390.8277
526.9105, 392.5308
527.3926, 395.2039
527.8748, 397.6906
528.3569, 398.9329
528.8390, 399.2318
529.3211, 399.6670
529.8032, 400.9245
530.2853, 401.6729
530.7675, 400.2473
531.2496, 397.9563
531.7317, 397.7244
532.2138, 400.4284
532.6959, 403.8676
533.1780, 405.1424
533.6602, 403.5900
534.1423, 404.0726
534.6244, 408.2383
535.1065, 412.3029
535.5886, 414.9558
536.0707, 416.5396
536.5529, 417.5670
537.0350, 418.2565
537.5171, 418.8748
537.9992, 419.7930
538.4813, 420.9974
538.9634, 422.5334
539.4456, 423.8692
539.9277, 426.1989
540.4098, 430.7741
540.8919, 436.5936
541.3740, 441.7782
541.8561, 445.7480
542.3383, 448.4651
542.8204, 449.1798
543.3025, 448.1691
543.7846, 448.2613
544.2667, 450.5472
544.7488, 453.3441
545.2310, 454.6869
545.7131, 454.7516
546.1952, 455.0663
546.6773, 456.7310
547.1594, 457.8993
547.6415, 456.9039
548.1237, 454.4590
548.6058, 452.6352
549.0879, 452.3244
549.5700, 452.0854
550.0521, 449.4262
550.5342, 443.3690
551.0164, 437.8604
551.4985, 432.7020
551.9806, 428.2369
552.4627, 425.4836
552.9448, 423.3500
553.4269, 419.7136
553.9091, 413.4993
554.3912, 406.0525
554.8733, 399.5638
555.3554, 394.0344
555.8375, 389.3128
556.3196, 385.8099
556.8018, 382.6508
557.2839, 379.1921
557.7660, 375.5773
558.2481, 372.2785
558.7302, 369.6965
559.2123, 367.2356
559.6945, 364.1631
560.1766, 360.6535
560.6587, 357.5464
561.1408, 355.1418
561.6229, 353.0694
562.1050, 350.8936
562.5872, 348.6121
563.0693, 346.2464
563.5514, 343.1945
564.0335, 340.6757
564.5156, 340.0931
564.9977, 340.3351
565.4799, 339.1531
565.9620, 335.6867
566.4441, 331.4059
566.9262, 328.7264
567.4083, 328.1436
567.8904, 327.1379
568.3726, 324.6023
568.8547, 322.8110
569.3368, 323.6609
569.8189, 325.4908
570.3010, 325.2638
570.7831, 321.5287
571.2653, 317.1911
571.7474, 316.1622
572.2295, 317.9384
572.7116, 318.3348
573.1937, 316.5019
573.6758, 313.6311
574.1580, 309.6299
574.6401, 305.2467
575.1222, 303.4791
575.6043, 307.3494
576.0864, 310.7758
576.5685, 310.3528
577.0507, 307.6187
577.5328, 304.8824
578.0149, 302.7734
578.4970, 301.1700
578.9791, 300.0352
579.4612, 299.4074
579.9434, 298.2816
580.4255, 295.0109
580.9076, 293.2134
581.3897, 295.1991
581.8718, 298.1245
582.3539, 298.5678
582.8361, 295.9219
583.3182, 292.7597
583.8003, 291.5524
584.2824, 292.0995
584.7645, 293.2574
585.2466, 295.6743
585.7288, 296.8015
586.2108, 294.4540
586.6929, 290.4583
587.1750, 287.4521
587.6572, 285.7882
588.1393, 284.3507
588.6214, 281.9110
589.1035, 279.7672
589.5856, 280.1921
590.0677, 283.0969
590.5499, 285.9931
591.0320, 287.3526
591.5141, 287.3856
