##NAMES=Ganomalite
##RRUFFID=R050387
##IDEAL CHEMISTRY=Pb^2+^_3_Ca_2_(SiO_4_)(Si_2_O_7_)
##LOCALITY=Sells, Pima County, Arizona, USA
##OWNER=RRUFF
##SOURCE=University of Arizona Mineral Museum
##DESCRIPTION=Yellowish-red massive
##STATUS=The identification of this mineral has been confirmed by single-crystal X-ray diffraction.
##URL=rruff.info/R050387
92.35352, 124.2737
92.83563, 114.9421
93.31775, 110.9691
93.79987, 114.4247
94.28198, 123.5148
94.76410, 133.2253
95.24622, 142.6293
95.72833, 152.0418
96.21045, 160.9964
96.69257, 169.3542
97.17468, 179.9762
97.65680, 195.7404
98.13892, 216.6301
98.62103, 239.3394
99.10315, 262.7190
99.58527, 287.0023
100.0674, 312.1992
100.5495, 337.5323
101.0316, 365.0234
101.5137, 396.2791
101.9958, 431.2219
102.4780, 470.8985
102.9601, 515.4401
103.4422, 564.8955
103.9243, 618.6245
104.4064, 676.9743
104.8885, 739.6425
105.3707, 808.1457
105.8528, 885.2949
106.3349, 963.5109
106.8170, 1039.177
107.2991, 1109.427
107.7813, 1182.612
108.2634, 1259.958
108.7455, 1340.792
109.2276, 1419.967
109.7097, 1498.087
110.1918, 1574.825
110.6740, 1650.164
111.1561, 1718.508
111.6382, 1791.737
112.1203, 1869.794
112.6024, 1953.501
113.0845, 2043.507
113.5667, 2138.840
114.0488, 2240.694
114.5309, 2351.036
115.0130, 2474.145
115.4951, 2601.135
115.9772, 2731.642
116.4594, 2866.571
116.9415, 2999.850
117.4236, 3126.746
117.9057, 3251.809
118.3878, 3379.352
118.8699, 3515.607
119.3521, 3652.732
119.8342, 3788.049
120.3163, 3921.291
120.7984, 4053.370
121.2805, 4184.671
121.7626, 4315.194
122.2448, 4444.938
122.7269, 4571.278
123.2090, 4698.106
123.6911, 4828.122
124.1732, 4960.795
124.6553, 5100.054
125.1375, 5249.536
125.6196, 5408.620
126.1017, 5575.344
126.5838, 5745.766
127.0659, 5923.674
127.5480, 6116.447
128.0302, 6326.727
128.5123, 6551.463
128.9944, 6791.926
129.4765, 7046.656
129.9586, 7302.005
130.4407, 7545.935
130.9229, 7781.581
131.4050, 8024.354
131.8871, 8274.408
132.3692, 8529.370
132.8513, 8779.173
133.3334, 9009.346
133.8156, 9195.606
134.2977, 9348.660
134.7798, 9500.588
135.2619, 9647.419
135.7440, 9787.592
136.2261, 9921.402
136.7083, 10063.78
137.1904, 10218.30
137.6725, 10372.80
138.1546, 10515.60
138.6367, 10645.43
139.1188, 10775.40
139.6010, 10908.56
140.0831, 11044.36
140.5652, 11189.82
141.0473, 11345.97
141.5294, 11512.09
142.0115, 11684.60
142.4937, 11863.84
142.9758, 12051.60
143.4579, 12253.90
143.9400, 12475.39
144.4221, 12683.83
144.9042, 12884.05
145.3864, 13068.96
145.8685, 13224.94
146.3506, 13371.64
146.8327, 13466.14
147.3148, 13497.91
147.7969, 13472.31
148.2791, 13373.28
148.7612, 13191.05
149.2433, 12939.22
149.7254, 12642.44
150.2075, 12284.08
150.6896, 11898.25
151.1718, 11498.95
151.6539, 11065.37
152.1360, 10648.25
152.6181, 10248.30
153.1002, 9865.039
153.5823, 9499.147
154.0645, 9145.910
154.5466, 8808.733
155.0287, 8489.589
155.5108, 8183.546
155.9929, 7894.685
156.4750, 7626.628
156.9572, 7377.206
157.4393, 7144.616
157.9214, 6927.905
158.4035, 6725.423
158.8856, 6535.458
159.3677, 6358.188
159.8499, 6191.899
160.3320, 6038.272
160.8141, 5896.870
161.2962, 5764.916
161.7783, 5643.970
162.2604, 5532.136
162.7426, 5427.833
163.2247, 5332.672
163.7068, 5243.026
164.1889, 5155.953
164.6710, 5072.443
165.1531, 4996.183
165.6353, 4931.637
166.1174, 4874.442
166.5995, 4819.905
167.0816, 4764.907
167.5637, 4712.959
168.0458, 4666.912
168.5280, 4627.129
169.0101, 4589.082
169.4922, 4549.506
169.9743, 4510.313
170.4564, 4474.448
170.9385, 4445.836
171.4207, 4419.422
171.9028, 4389.424
172.3849, 4355.514
172.8670, 4324.249
173.3491, 4303.752
173.8312, 4289.229
174.3134, 4271.405
174.7955, 4241.229
175.2776, 4207.817
175.7597, 4182.785
176.2418, 4167.153
176.7239, 4154.753
177.2061, 4141.943
177.6882, 4127.768
178.1703, 4109.912
178.6524, 4083.567
179.1345, 4053.512
179.6166, 4028.634
180.0988, 4009.755
180.5809, 3992.907
181.0630, 3974.620
181.5451, 3954.661
182.0272, 3932.898
182.5093, 3907.884
182.9915, 3880.786
183.4736, 3854.771
183.9557, 3829.763
184.4378, 3805.939
184.9199, 3784.396
185.4020, 3764.903
185.8842, 3743.007
186.3663, 3715.479
186.8484, 3683.444
187.3305, 3651.692
187.8126, 3619.976
188.2947, 3589.347
188.7769, 3562.113
189.2590, 3538.114
189.7411, 3513.880
190.2232, 3485.988
190.7053, 3455.438
191.1874, 3428.544
191.6696, 3406.574
192.1517, 3386.447
192.6338, 3361.443
193.1159, 3331.364
193.5980, 3301.909
194.0801, 3277.538
194.5623, 3257.864
195.0444, 3235.526
195.5265, 3209.365
196.0086, 3181.172
196.4907, 3154.360
196.9728, 3128.893
197.4550, 3104.893
197.9371, 3083.549
198.4192, 3064.940
198.9013, 3043.687
199.3834, 3019.266
199.8655, 2992.130
200.3477, 2961.734
200.8298, 2927.132
201.3119, 2893.854
201.7940, 2865.733
202.2761, 2843.346
202.7582, 2819.806
203.2404, 2794.515
203.7225, 2767.746
204.2046, 2739.864
204.6867, 2710.482
205.1688, 2681.258
205.6509, 2653.884
206.1331, 2628.660
206.6152, 2602.497
207.0973, 2575.090
207.5794, 2546.605
208.0615, 2516.990
208.5436, 2485.295
209.0258, 2454.821
209.5079, 2428.466
209.9900, 2407.476
210.4721, 2385.113
210.9542, 2360.541
211.4363, 2334.311
211.9185, 2307.891
212.4006, 2280.470
212.8827, 2254.349
213.3648, 2232.034
213.8469, 2214.612
214.3290, 2195.804
214.8112, 2174.151
215.2933, 2151.038
215.7754, 2131.143
216.2575, 2116.146
216.7396, 2101.095
217.2217, 2082.640
217.7038, 2058.955
218.1860, 2037.768
218.6681, 2020.652
219.1502, 2006.365
219.6323, 1990.529
220.1144, 1972.732
220.5965, 1954.372
221.0787, 1936.327
221.5608, 1918.643
222.0429, 1901.306
222.5250, 1884.300
223.0071, 1867.694
223.4892, 1852.493
223.9714, 1839.164
224.4535, 1826.336
224.9356, 1812.967
225.4177, 1798.436
225.8998, 1785.132
226.3819, 1773.509
226.8641, 1763.097
227.3462, 1752.649
227.8283, 1741.961
228.3104, 1731.533
228.7925, 1721.831
229.2746, 1713.190
229.7568, 1704.162
230.2389, 1694.492
230.7210, 1684.333
231.2031, 1674.556
231.6852, 1665.572
232.1673, 1656.360
232.6495, 1646.218
233.1316, 1633.723
233.6137, 1623.537
234.0958, 1616.419
234.5779, 1611.657
235.0600, 1607.760
235.5422, 1606.528
236.0243, 1603.497
236.5064, 1595.849
236.9885, 1578.864
237.4706, 1568.080
237.9527, 1566.557
238.4349, 1570.551
238.9170, 1570.733
239.3991, 1565.422
239.8812, 1558.797
240.3633, 1552.397
240.8454, 1545.929
241.3276, 1540.471
241.8097, 1536.528
242.2918, 1533.478
242.7739, 1529.884
243.2560, 1524.888
243.7381, 1520.684
244.2203, 1518.322
244.7024, 1518.752
245.1845, 1518.254
245.6666, 1515.982
246.1487, 1513.194
246.6308, 1512.573
247.1130, 1516.067
247.5951, 1518.511
248.0772, 1517.612
248.5593, 1511.889
249.0414, 1508.288
249.5235, 1507.632
250.0057, 1508.570
250.4878, 1508.912
250.9699, 1508.470
251.4520, 1507.717
251.9341, 1506.551
252.4162, 1504.596
252.8984, 1504.209
253.3805, 1506.467
253.8626, 1509.466
254.3447, 1510.130
254.8268, 1507.050
255.3089, 1504.575
255.7911, 1504.315
256.2732, 1506.697
256.7553, 1507.508
257.2374, 1505.807
257.7195, 1503.468
258.2017, 1503.045
258.6838, 1505.776
259.1659, 1507.525
259.6480, 1506.661
260.1301, 1503.006
260.6122, 1502.181
261.0944, 1505.914
261.5765, 1510.344
262.0586, 1510.852
262.5407, 1505.470
263.0228, 1501.728
263.5049, 1501.853
263.9871, 1505.646
264.4692, 1507.761
264.9513, 1507.783
265.4334, 1506.845
265.9155, 1505.760
266.3976, 1504.282
266.8798, 1503.644
267.3619, 1504.544
267.8440, 1506.632
268.3261, 1506.459
268.8082, 1502.632
269.2903, 1499.457
269.7725, 1501.649
270.2546, 1511.189
270.7367, 1516.500
271.2188, 1514.554
271.7009, 1507.373
272.1830, 1503.473
272.6652, 1503.465
273.1473, 1505.132
273.6294, 1507.397
274.1115, 1510.481
274.5936, 1512.610
275.0757, 1513.278
275.5579, 1513.115
276.0400, 1513.868
276.5221, 1515.593
277.0042, 1517.955
277.4863, 1521.175
277.9684, 1525.395
278.4506, 1528.292
278.9327, 1529.429
279.4148, 1529.528
279.8969, 1530.101
280.3790, 1531.235
280.8611, 1532.317
281.3433, 1532.663
281.8254, 1532.304
282.3075, 1533.750
282.7896, 1537.757
283.2717, 1542.126
283.7538, 1542.798
284.2360, 1539.634
284.7181, 1536.658
285.2002, 1535.819
285.6823, 1536.875
286.1644, 1537.622
286.6465, 1537.975
287.1287, 1538.263
287.6108, 1538.657
288.0929, 1539.181
288.5750, 1540.558
289.0571, 1544.046
289.5392, 1548.630
290.0214, 1549.819
290.5035, 1547.350
290.9856, 1543.733
291.4677, 1541.762
291.9498, 1541.090
292.4319, 1539.512
292.9141, 1535.650
293.3962, 1530.839
293.8783, 1528.636
294.3604, 1529.103
294.8425, 1529.665
295.3246, 1527.704
295.8068, 1523.961
296.2889, 1521.029
296.7710, 1519.961
297.2531, 1519.464
297.7352, 1516.986
298.2173, 1512.783
298.6995, 1508.937
299.1816, 1507.092
299.6637, 1506.690
300.1458, 1506.907
300.6279, 1508.090
301.1100, 1508.694
301.5922, 1506.104
302.0743, 1500.977
302.5564, 1496.050
303.0385, 1492.925
303.5206, 1490.942
304.0027, 1489.235
304.4849, 1487.801
304.9670, 1486.217
305.4491, 1484.576
305.9312, 1482.541
306.4133, 1479.302
306.8954, 1473.621
307.3776, 1467.021
307.8597, 1460.714
308.3418, 1454.658
308.8239, 1450.006
309.3060, 1448.880
309.7881, 1449.522
310.2703, 1449.178
310.7524, 1446.635
311.2345, 1442.798
311.7166, 1437.577
312.1987, 1431.081
312.6808, 1425.626
313.1630, 1422.683
313.6451, 1421.341
314.1272, 1420.612
314.6093, 1421.888
315.0914, 1422.064
315.5735, 1418.724
316.0557, 1412.525
316.5378, 1407.007
317.0199, 1403.601
317.5020, 1401.506
317.9841, 1400.179
318.4662, 1399.990
318.9484, 1399.880
319.4305, 1399.581
319.9126, 1399.115
320.3947, 1398.534
320.8768, 1397.574
321.3589, 1396.722
321.8411, 1396.378
322.3232, 1397.150
322.8053, 1397.059
323.2874, 1394.602
323.7695, 1391.250
324.2516, 1389.334
324.7338, 1390.205
325.2159, 1391.634
325.6980, 1392.906
326.1801, 1393.845
326.6622, 1395.273
327.1443, 1398.103
327.6265, 1401.093
328.1086, 1402.995
328.5907, 1402.650
329.0728, 1402.491
329.5549, 1402.842
330.0370, 1403.714
330.5192, 1404.885
331.0013, 1406.010
331.4834, 1407.742
331.9655, 1410.757
332.4476, 1417.033
332.9297, 1421.112
333.4119, 1421.541
333.8940, 1419.294
334.3761, 1418.698
334.8582, 1420.430
335.3403, 1422.715
335.8224, 1424.910
336.3046, 1427.545
336.7867, 1428.183
337.2688, 1425.707
337.7509, 1422.012
338.2330, 1421.151
338.7151, 1423.919
339.1973, 1427.090
339.6794, 1429.803
340.1615, 1432.100
340.6436, 1432.618
341.1257, 1431.002
341.6078, 1428.451
342.0899, 1426.359
342.5721, 1424.798
343.0542, 1423.517
343.5363, 1422.607
344.0184, 1421.953
344.5005, 1421.035
344.9826, 1419.882
345.4648, 1418.375
345.9469, 1415.842
346.4290, 1412.523
346.9111, 1410.758
347.3932, 1411.428
347.8753, 1413.196
348.3575, 1413.254
348.8396, 1411.740
349.3217, 1410.488
349.8038, 1411.339
350.2859, 1413.317
350.7680, 1414.391
351.2502, 1414.542
351.7323, 1412.853
352.2144, 1406.593
352.6965, 1397.262
353.1786, 1389.577
353.6607, 1387.463
354.1429, 1387.597
354.6250, 1385.877
355.1071, 1382.112
355.5892, 1377.793
356.0713, 1372.963
356.5534, 1368.585
357.0356, 1366.129
357.5177, 1369.672
357.9998, 1372.361
358.4819, 1367.833
358.9640, 1357.309
359.4461, 1347.672
359.9283, 1342.784
360.4104, 1340.174
360.8925, 1337.939
361.3746, 1336.230
361.8567, 1333.800
362.3388, 1329.427
362.8210, 1323.940
363.3031, 1319.130
363.7852, 1315.588
364.2673, 1312.817
364.7494, 1311.000
365.2315, 1310.804
365.7137, 1309.124
366.1958, 1304.018
366.6779, 1297.600
367.1600, 1292.313
367.6421, 1288.258
368.1242, 1285.538
368.6064, 1285.070
369.0885, 1287.036
369.5706, 1286.907
370.0527, 1283.312
370.5348, 1278.707
371.0169, 1274.559
371.4991, 1270.688
371.9812, 1267.742
372.4633, 1266.349
372.9454, 1265.898
373.4275, 1264.109
373.9096, 1260.073
374.3918, 1256.266
374.8739, 1254.046
375.3560, 1253.859
375.8381, 1253.168
376.3202, 1252.015
376.8023, 1250.307
377.2845, 1247.771
377.7666, 1244.297
378.2487, 1240.608
378.7308, 1236.771
379.2129, 1232.872
379.6950, 1230.133
380.1772, 1228.717
380.6593, 1227.456
381.1414, 1225.085
381.6235, 1221.753
382.1056, 1218.664
382.5877, 1216.053
383.0699, 1213.869
383.5520, 1212.182
384.0341, 1210.934
384.5162, 1209.682
384.9983, 1208.687
385.4804, 1207.398
385.9626, 1204.224
386.4447, 1198.693
386.9268, 1192.966
387.4089, 1189.486
387.8910, 1187.479
388.3731, 1185.295
388.8553, 1182.512
389.3374, 1178.996
389.8195, 1174.047
390.3016, 1167.858
390.7837, 1162.373
391.2658, 1158.864
391.7480, 1156.740
392.2301, 1155.600
392.7122, 1157.168
393.1943, 1157.198
393.6764, 1152.202
394.1585, 1143.877
394.6407, 1137.125
395.1228, 1135.091
395.6049, 1133.871
396.0870, 1131.381
396.5691, 1126.857
397.0512, 1122.857
397.5334, 1119.810
398.0155, 1117.553
398.4976, 1115.916
398.9797, 1116.142
399.4618, 1115.592
399.9439, 1113.367
400.4261, 1109.468
400.9082, 1106.347
401.3903, 1104.837
401.8724, 1103.281
402.3545, 1100.296
402.8366, 1093.949
403.3188, 1090.714
403.8009, 1092.627
404.2830, 1097.131
404.7651, 1097.464
405.2472, 1092.508
405.7293, 1086.571
406.2115, 1081.070
406.6936, 1076.044
407.1757, 1072.089
407.6578, 1069.429
408.1399, 1067.233
408.6220, 1064.410
409.1042, 1060.985
409.5863, 1057.950
410.0684, 1055.813
410.5505, 1054.046
411.0326, 1050.978
411.5147, 1046.646
411.9969, 1042.608
412.4790, 1039.760
412.9611, 1038.006
413.4432, 1037.359
413.9253, 1038.027
414.4074, 1038.976
414.8896, 1039.961
415.3717, 1040.423
415.8538, 1038.991
416.3359, 1033.070
416.8180, 1026.216
417.3001, 1021.803
417.7823, 1019.795
418.2644, 1018.332
418.7465, 1015.881
419.2286, 1013.582
419.7107, 1012.705
420.1928, 1015.537
420.6750, 1017.139
421.1571, 1014.310
421.6392, 1008.703
422.1213, 1004.680
422.6034, 1005.799
423.0855, 1006.692
423.5677, 1004.805
424.0498, 998.9180
424.5319, 994.0384
425.0140, 991.0428
425.4961, 988.9847
425.9782, 986.8888
426.4604, 984.3738
426.9425, 982.4461
427.4246, 981.5765
427.9067, 981.5365
428.3888, 980.6517
428.8709, 978.4369
429.3531, 976.2435
429.8352, 974.9528
430.3173, 974.8837
430.7994, 974.1862
431.2815, 972.8517
431.7636, 970.7858
432.2458, 967.1923
432.7279, 961.8771
433.2100, 958.2361
433.6921, 958.6713
434.1742, 961.4984
434.6563, 959.8817
435.1385, 953.6627
435.6206, 947.1253
436.1027, 944.6913
436.5848, 944.8307
437.0669, 943.0734
437.5490, 937.9403
438.0312, 932.2992
438.5133, 929.7090
438.9954, 929.2855
439.4775, 928.5542
439.9596, 926.4019
440.4417, 923.2972
440.9239, 919.1669
441.4060, 914.0153
441.8881, 909.6060
442.3702, 907.4161
442.8523, 906.2936
443.3344, 905.1343
443.8166, 904.2294
444.2987, 902.5472
444.7808, 899.4366
445.2629, 895.2489
445.7450, 890.9945
446.2271, 885.9232
446.7093, 881.7352
447.1914, 879.2238
447.6735, 878.8641
448.1556, 878.7266
448.6377, 879.3981
449.1198, 879.8953
449.6020, 879.1566
450.0841, 876.6907
450.5662, 873.9917
451.0483, 870.9000
451.5304, 867.7562
452.0125, 866.4413
452.4947, 867.5740
452.9768, 868.5931
453.4589, 867.8555
453.9410, 865.2946
454.4231, 863.2695
454.9052, 861.8679
455.3874, 860.7754
455.8695, 859.2921
456.3516, 857.5701
456.8337, 856.9168
457.3158, 858.5961
457.7979, 860.8729
458.2801, 859.8566
458.7622, 856.0635
459.2443, 853.0765
459.7264, 855.0118
460.2085, 858.6124
460.6906, 859.3057
461.1728, 855.9886
461.6549, 851.9614
462.1370, 848.4786
462.6191, 846.0750
463.1012, 845.6334
463.5833, 849.9984
464.0655, 854.0371
464.5476, 855.1219
465.0297, 853.5228
465.5118, 851.9678
465.9939, 851.3912
466.4760, 850.8993
466.9582, 849.9017
467.4403, 847.2460
467.9224, 846.0817
468.4045, 847.6844
468.8866, 850.2741
469.3687, 851.2446
469.8509, 849.5582
470.3330, 848.2021
470.8151, 848.4450
471.2972, 849.9135
471.7793, 848.0563
472.2614, 841.6364
472.7436, 835.2363
473.2257, 832.2759
473.7078, 832.8076
474.1899, 833.3166
474.6720, 833.5306
475.1541, 833.6771
475.6363, 834.7341
476.1184, 836.3488
476.6005, 836.2043
477.0826, 832.2444
477.5647, 826.6401
478.0468, 822.7567
478.5290, 820.5119
479.0111, 819.1656
479.4932, 819.5355
479.9753, 819.9365
480.4574, 817.9995
480.9395, 812.5676
481.4217, 807.2213
481.9038, 804.4435
482.3859, 803.1531
482.8680, 801.8093
483.3501, 799.9230
483.8322, 797.8690
484.3144, 796.0095
484.7965, 794.2820
485.2786, 791.6377
485.7607, 786.9036
486.2428, 782.0278
486.7249, 777.8171
487.2071, 773.6971
487.6892, 771.8077
488.1713, 774.2418
488.6534, 777.4565
489.1355, 775.7700
489.6176, 767.1246
490.0998, 759.6013
490.5819, 755.0956
491.0640, 753.1834
491.5461, 752.2828
492.0282, 752.6383
492.5103, 752.2781
492.9925, 748.7323
493.4746, 742.9232
493.9567, 740.6243
494.4388, 742.8362
494.9209, 745.1794
495.4030, 741.3739
495.8852, 733.7095
496.3673, 727.8868
496.8494, 726.8073
497.3315, 727.7689
497.8136, 729.5900
498.2957, 731.6579
498.7779, 731.4113
499.2600, 725.3035
499.7421, 717.9208
500.2242, 712.6178
500.7063, 710.2471
501.1884, 707.7384
501.6706, 704.4528
502.1527, 700.4897
502.6348, 695.9955
503.1169, 691.1976
503.5990, 685.5973
504.0811, 678.2315
504.5633, 669.9886
505.0454, 664.2399
505.5275, 662.6366
506.0096, 660.8737
506.4917, 657.3841
506.9738, 652.0849
507.4560, 645.2629
507.9381, 636.3441
508.4202, 627.4369
508.9023, 621.1305
509.3844, 617.2473
509.8665, 612.6072
510.3487, 606.3732
510.8308, 599.5833
511.3129, 593.3286
511.7950, 587.8293
512.2772, 584.1073
512.7593, 584.7032
513.2414, 586.3156
513.7235, 584.5701
514.2056, 579.5065
514.6877, 574.1445
515.1699, 570.0553
515.6520, 566.7325
516.1341, 563.8036
516.6162, 561.5670
517.0983, 558.9398
517.5804, 554.5509
518.0626, 549.7169
518.5447, 546.6005
519.0268, 546.7584
519.5089, 547.3903
519.9910, 548.1401
520.4731, 548.9648
520.9553, 549.1439
521.4374, 548.5626
521.9195, 547.5165
522.4016, 545.9562
522.8837, 543.6344
523.3658, 542.2300
523.8480, 541.8593
524.3301, 542.2087
524.8122, 543.3026
525.2943, 545.0489
525.7764, 545.7083
526.2585, 544.1432
526.7407, 542.0078
527.2228, 542.4797
527.7049, 545.2535
528.1870, 548.4860
528.6691, 551.3040
529.1512, 553.8759
529.6334, 556.1754
530.1155, 558.1920
530.5976, 560.7773
531.0797, 565.2016
531.5618, 570.1132
532.0439, 574.0255
532.5261, 574.9517
533.0082, 577.2242
533.4903, 582.8369
533.9724, 590.4697
534.4545, 597.4502
534.9366, 603.3666
535.4188, 608.7302
535.9009, 613.1896
536.3830, 616.8008
536.8651, 621.9553
537.3472, 629.0269
537.8293, 636.8972
538.3115, 645.0478
538.7936, 653.5311
539.2757, 661.1073
539.7578, 667.4530
540.2399, 673.4992
540.7220, 680.4979
541.2042, 688.3123
541.6863, 696.7628
542.1684, 706.4960
542.6505, 716.1067
543.1326, 723.7706
543.6147, 729.6095
544.0969, 734.2662
544.5790, 738.3732
545.0611, 741.1349
545.5432, 741.6334
546.0253, 739.7369
546.5074, 736.9504
546.9896, 733.2944
547.4717, 729.3701
547.9538, 725.7076
548.4359, 724.1434
548.9180, 720.4354
549.4001, 713.5638
549.8823, 704.5880
550.3644, 695.2992
550.8465, 685.9503
551.3286, 675.5726
551.8107, 663.5142
552.2928, 650.0651
552.7750, 637.6759
553.2571, 626.2601
553.7392, 615.9918
554.2213, 608.0485
554.7034, 601.7656
555.1855, 592.3409
555.6677, 579.2205
556.1498, 565.3500
556.6319, 553.4041
557.1140, 543.1553
557.5961, 534.4559
558.0782, 528.0931
558.5604, 521.8197
559.0425, 513.7138
559.5246, 504.3633
560.0067, 495.1094
560.4888, 485.8085
560.9709, 477.4412
561.4531, 471.1420
561.9352, 466.8834
562.4173, 461.6597
562.8994, 453.8900
563.3815, 446.0233
563.8636, 439.2664
564.3458, 434.2247
564.8279, 428.7222
565.3100, 422.3494
565.7921, 415.9629
566.2742, 410.9091
566.7563, 407.3200
567.2385, 403.4504
567.7206, 398.7545
568.2027, 393.8236
568.6848, 390.0981
569.1669, 387.4600
569.6490, 385.4321
570.1312, 384.6322
570.6133, 383.8529
571.0954, 380.9976
571.5775, 376.1166
572.0596, 371.2529
572.5417, 367.4798
573.0239, 364.3784
573.5060, 361.7238
573.9881, 359.6281
574.4702, 357.4754
574.9523, 355.1537
575.4344, 352.6198
575.9166, 349.8266
576.3987, 345.2794
576.8808, 342.4964
577.3629, 342.9670
577.8450, 345.3390
578.3271, 344.9089
578.8093, 340.7928
579.2914, 336.4977
579.7735, 333.4454
580.2556, 331.5215
580.7377, 329.6819
581.2198, 327.9535
581.7020, 326.0490
582.1841, 323.0750
582.6662, 319.8071
583.1483, 318.5152
583.6304, 319.9055
584.1125, 321.1294
584.5947, 319.1484
585.0768, 315.5299
585.5589, 312.5727
586.0410, 311.6642
586.5231, 310.9063
587.0052, 309.4700
587.4873, 307.5928
587.9694, 305.9315
588.4515, 305.0601
588.9337, 303.9374
589.4158, 301.9613
589.8979, 299.1206
590.3800, 297.5414
