##NAMES=Garronite-Ca
##RRUFFID=R050281
##IDEAL CHEMISTRY=NaCa_2.5_(Si_10_Al_6_)O_32_&#183;14H_2_O
##LOCALITY=Pete's Point, Aneroid Lake, Wallowa County, Oregon, USA
##OWNER=RRUFF
##SOURCE=Marcus Origlieri
##DESCRIPTION=White radiating crystal aggregates completely filling amygdules
##STATUS=The identification of this mineral has been confirmed by X-ray diffraction and chemical analysis
##URL=rruff.info/R050281
##MEASURED CHEMISTRY=(Na_0.94_K_0.06_)_Σ=1_Ca_2.50_(Si_10.00_Al_6.00_)O_32_·13H_2_O
92.67285, 151.5032
93.15497, 150.3989
93.63708, 151.4551
94.11920, 157.9111
94.60132, 163.5939
95.08344, 167.6129
95.56555, 168.7725
96.04767, 168.4994
96.52979, 168.3628
97.01190, 168.2084
97.49402, 167.9426
97.97614, 167.8590
98.45825, 167.5215
98.94037, 166.9642
99.42249, 165.9394
99.90460, 164.2023
100.3867, 161.9947
100.8688, 159.8663
101.3510, 158.4218
101.8331, 157.7263
102.3152, 157.2629
102.7973, 156.5972
103.2794, 155.6897
103.7615, 155.0380
104.2437, 155.0004
104.7258, 155.2413
105.2079, 155.5902
105.6900, 156.0752
106.1721, 156.5001
106.6542, 156.3435
107.1364, 155.0478
107.6185, 153.9820
108.1006, 153.5394
108.5827, 153.4959
109.0648, 153.5676
109.5469, 153.5732
110.0291, 153.5110
110.5112, 153.4729
110.9933, 153.4629
111.4754, 153.4621
111.9575, 153.4288
112.4396, 153.3881
112.9218, 153.4229
113.4039, 153.6380
113.8860, 154.1094
114.3681, 154.3429
114.8502, 154.1559
115.3323, 153.8710
115.8144, 153.7277
116.2966, 153.7724
116.7787, 153.9119
117.2608, 154.0754
117.7429, 154.2779
118.2250, 154.3317
118.7071, 154.0257
119.1893, 153.5423
119.6714, 153.2771
120.1535, 153.3633
120.6356, 153.6637
121.1177, 154.1011
121.5998, 154.6823
122.0820, 155.0729
122.5641, 154.9776
123.0462, 154.3768
123.5283, 153.6469
124.0104, 152.5560
124.4925, 151.5566
124.9747, 150.9332
125.4568, 150.7497
125.9389, 150.8658
126.4210, 151.1220
126.9031, 151.7204
127.3852, 152.0201
127.8674, 152.0105
128.3495, 151.7078
128.8316, 151.0151
129.3137, 149.8903
129.7958, 148.5268
130.2780, 147.6418
130.7601, 148.0627
131.2422, 148.0843
131.7243, 147.3502
132.2064, 146.1124
132.6885, 144.7041
133.1707, 143.2839
133.6528, 141.9064
134.1349, 141.1277
134.6170, 141.3662
135.0991, 141.6664
135.5812, 141.6693
136.0633, 141.3705
136.5455, 140.8283
137.0276, 139.9600
137.5097, 138.8578
137.9918, 138.0409
138.4739, 137.7659
138.9560, 137.6759
139.4382, 137.3957
139.9203, 136.8837
140.4024, 136.3097
140.8845, 135.8088
141.3666, 135.3422
141.8487, 134.8234
142.3309, 134.2304
142.8130, 133.5630
143.2951, 132.7654
143.7772, 131.5915
144.2593, 130.6646
144.7414, 130.4113
145.2236, 130.6292
145.7057, 130.8139
146.1878, 130.5065
146.6699, 129.6619
147.1520, 129.0914
147.6341, 128.9860
148.1163, 129.0169
148.5984, 129.2543
149.0805, 129.5848
149.5626, 129.7117
150.0447, 129.2371
150.5268, 127.7955
151.0090, 126.8636
151.4911, 126.6280
151.9732, 126.6433
152.4553, 126.7253
152.9374, 126.8037
153.4195, 126.8210
153.9017, 126.6853
154.3838, 126.2824
154.8659, 125.9329
155.3480, 125.7531
155.8301, 125.5769
156.3122, 125.1756
156.7944, 124.4607
157.2765, 123.6488
157.7586, 123.1389
158.2407, 122.9257
158.7228, 122.8767
159.2049, 123.1321
159.6871, 123.5315
160.1692, 123.6892
160.6513, 123.4160
161.1334, 122.9252
161.6155, 122.5490
162.0976, 122.2987
162.5798, 122.0838
163.0619, 121.9110
163.5440, 121.7678
164.0261, 121.4540
164.5082, 120.6947
164.9903, 119.8842
165.4725, 119.3767
165.9546, 119.2395
166.4367, 119.2545
166.9188, 119.1769
167.4009, 118.9739
167.8830, 118.8129
168.3652, 118.8720
168.8473, 118.9094
169.3294, 118.7537
169.8115, 118.3490
170.2936, 117.7503
170.7757, 117.0335
171.2579, 116.0678
171.7400, 115.2303
172.2221, 114.4863
172.7042, 113.9006
173.1863, 113.6090
173.6684, 113.6708
174.1506, 113.9139
174.6327, 113.8096
175.1148, 112.8714
175.5969, 112.1088
176.0790, 111.6888
176.5611, 111.4614
177.0433, 111.2111
177.5254, 110.8189
178.0075, 110.3419
178.4896, 110.0692
178.9717, 110.5222
179.4538, 110.5811
179.9360, 109.6505
180.4181, 108.1245
180.9002, 106.8657
181.3823, 106.4369
181.8644, 106.6212
182.3465, 106.3364
182.8287, 105.2106
183.3108, 104.0587
183.7929, 103.2704
184.2750, 102.7988
184.7571, 102.4160
185.2392, 102.1024
185.7214, 101.7260
186.2035, 100.9743
186.6856, 99.51244
187.1677, 97.99118
187.6498, 97.05111
188.1319, 96.71646
188.6141, 96.33768
189.0962, 95.32614
189.5783, 94.12184
190.0604, 93.38541
190.5425, 93.54480
191.0246, 93.91193
191.5068, 93.40301
191.9889, 91.70949
192.4710, 90.17336
192.9531, 89.64127
193.4352, 89.50389
193.9173, 89.10517
194.3995, 88.12763
194.8816, 86.83499
195.3637, 85.86392
195.8458, 85.50431
196.3279, 84.93022
196.8100, 83.61479
197.2922, 82.07931
197.7743, 80.96813
198.2564, 80.64907
198.7385, 80.90556
199.2206, 80.92149
199.7027, 80.61795
200.1849, 80.13234
200.6670, 79.42525
201.1491, 78.58483
201.6312, 77.67606
202.1133, 76.72315
202.5954, 75.77677
203.0776, 75.14758
203.5597, 75.37116
204.0418, 75.36460
204.5239, 74.83796
205.0060, 73.98219
205.4881, 73.12222
205.9703, 72.46187
206.4524, 71.96471
206.9345, 71.33586
207.4166, 70.29372
207.8987, 69.43620
208.3808, 69.12466
208.8630, 69.12971
209.3451, 68.90897
209.8272, 68.06472
210.3093, 66.74022
210.7914, 66.01955
211.2735, 66.45016
211.7557, 66.79564
212.2378, 66.43484
212.7199, 65.55013
213.2020, 64.76345
213.6841, 64.47935
214.1662, 64.57600
214.6484, 64.43986
215.1305, 63.91679
215.6126, 63.33391
216.0947, 62.83961
216.5768, 62.43125
217.0589, 62.11079
217.5410, 61.94169
218.0232, 61.83414
218.5053, 61.57195
218.9874, 61.11475
219.4695, 60.54507
219.9516, 59.84708
220.4337, 59.02595
220.9159, 58.33793
221.3980, 57.96527
221.8801, 57.78299
222.3622, 57.65255
222.8443, 57.64965
223.3264, 57.52192
223.8086, 56.85066
224.2907, 55.55179
224.7728, 54.52509
225.2549, 54.43815
225.7370, 54.68020
226.2191, 54.73338
226.7013, 54.47307
227.1834, 54.04086
227.6655, 53.59528
228.1476, 53.13316
228.6297, 52.66954
229.1118, 52.13725
229.5940, 51.64726
230.0761, 51.32597
230.5582, 51.22072
231.0403, 51.15565
231.5224, 50.81676
232.0045, 50.04478
232.4867, 49.48079
232.9688, 49.42167
233.4509, 49.48351
233.9330, 49.38201
234.4151, 49.03985
234.8972, 48.59857
235.3794, 48.30518
235.8615, 48.28146
236.3436, 48.11737
236.8257, 47.68040
237.3078, 47.17591
237.7899, 46.72406
238.2721, 46.36213
238.7542, 46.08462
239.2363, 45.90684
239.7184, 45.96252
240.2005, 45.84130
240.6826, 45.47161
241.1648, 44.99783
241.6469, 44.43109
242.1290, 43.81554
242.6111, 43.31861
243.0932, 43.23833
243.5753, 43.96159
244.0575, 44.30769
244.5396, 44.10562
245.0217, 43.69653
245.5038, 43.22771
245.9859, 42.76734
246.4680, 42.43597
246.9502, 42.42876
247.4323, 43.01763
247.9144, 43.22556
248.3965, 42.76376
248.8786, 42.15612
249.3607, 41.77325
249.8429, 41.67376
250.3250, 41.68872
250.8071, 41.61538
251.2892, 41.40071
251.7713, 41.30629
252.2534, 41.45998
252.7356, 41.63902
253.2177, 41.65368
253.6998, 41.49390
254.1819, 41.32551
254.6640, 41.35002
255.1461, 41.62249
255.6283, 41.61106
256.1104, 41.05671
256.5925, 40.41288
257.0746, 39.98991
257.5567, 39.81352
258.0388, 39.77204
258.5210, 39.80431
259.0031, 39.90971
259.4852, 39.94271
259.9673, 39.87756
260.4494, 39.76007
260.9315, 39.60331
261.4137, 39.41278
261.8958, 39.23035
262.3779, 39.07020
262.8600, 38.94675
263.3421, 38.89830
263.8242, 38.94909
264.3064, 39.05672
264.7885, 39.30804
265.2706, 39.66972
265.7527, 39.75503
266.2348, 39.15464
266.7169, 38.15993
267.1991, 37.61794
267.6812, 37.75892
268.1633, 38.10265
268.6454, 38.39899
269.1275, 38.63718
269.6096, 38.69239
270.0918, 38.37370
270.5739, 37.92263
271.0560, 37.80890
271.5381, 38.20270
272.0202, 38.56301
272.5023, 38.41741
272.9845, 37.83460
273.4666, 37.35397
273.9487, 37.20687
274.4308, 37.21017
274.9129, 37.08086
275.3951, 36.78234
275.8772, 36.55898
276.3593, 36.63135
276.8414, 36.95234
277.3235, 37.22578
277.8056, 37.39549
278.2878, 37.46785
278.7699, 37.43285
279.2520, 37.29492
279.7341, 37.18796
280.2162, 37.29015
280.6983, 37.52801
281.1805, 37.48664
281.6626, 36.88924
282.1447, 36.31946
282.6268, 36.28943
283.1089, 36.68895
283.5910, 37.06026
284.0732, 37.10400
284.5553, 36.90522
285.0374, 36.79303
285.5195, 36.85706
286.0016, 36.87482
286.4837, 36.63277
286.9659, 36.25099
287.4480, 35.99125
287.9301, 36.08094
288.4122, 36.36105
288.8943, 36.37293
289.3764, 35.99931
289.8586, 35.60742
290.3407, 35.29176
290.8228, 35.08094
291.3049, 35.04696
291.7870, 35.28571
292.2691, 35.62920
292.7513, 35.73047
293.2334, 35.48428
293.7155, 35.29099
294.1976, 35.32604
294.6797, 35.46743
295.1618, 35.64250
295.6440, 35.84705
296.1261, 35.98762
296.6082, 35.89366
297.0903, 35.50256
297.5724, 35.13888
298.0545, 34.85556
298.5367, 34.64587
299.0188, 34.53900
299.5009, 34.53700
299.9830, 34.55257
300.4651, 34.47763
300.9472, 34.29591
301.4294, 34.14367
301.9115, 33.94436
302.3936, 33.86460
302.8757, 34.10232
303.3578, 34.60855
303.8399, 35.05907
304.3221, 35.13776
304.8042, 34.83793
305.2863, 34.54593
305.7684, 34.20113
306.2505, 33.94932
306.7326, 33.92641
307.2148, 34.05583
307.6969, 34.13297
308.1790, 33.96197
308.6611, 33.60698
309.1432, 33.48862
309.6253, 33.76079
310.1075, 34.06478
310.5896, 34.41213
311.0717, 34.67208
311.5538, 34.59971
312.0359, 33.97149
312.5180, 33.06800
313.0002, 32.67839
313.4823, 33.07268
313.9644, 33.43928
314.4465, 33.54815
314.9286, 33.52449
315.4107, 33.49315
315.8929, 33.49923
316.3750, 33.48539
316.8571, 33.32761
317.3392, 32.94835
317.8213, 32.67893
318.3034, 32.66463
318.7856, 32.72404
319.2677, 32.75187
319.7498, 32.72821
320.2319, 32.68431
320.7140, 32.64190
321.1961, 32.59539
321.6783, 32.59575
322.1604, 32.65129
322.6425, 32.75731
323.1246, 32.99552
323.6067, 33.30873
324.0888, 33.50193
324.5710, 33.36010
325.0531, 32.91175
325.5352, 32.57790
326.0173, 32.39535
326.4994, 32.29694
326.9815, 32.30506
327.4637, 32.36336
327.9458, 32.36031
328.4279, 32.19200
328.9100, 31.95324
329.3921, 31.96973
329.8742, 32.41008
330.3564, 32.76056
330.8385, 32.89525
331.3206, 32.85046
331.8027, 32.60454
332.2848, 32.11983
332.7669, 31.59568
333.2491, 31.38988
333.7312, 31.60738
334.2133, 31.72739
334.6954, 31.44234
335.1775, 31.13427
335.6596, 31.08514
336.1418, 31.32932
336.6239, 31.64133
337.1060, 31.80732
337.5881, 31.82327
338.0702, 31.80268
338.5523, 31.70713
339.0345, 31.62825
339.5165, 31.59171
339.9987, 31.60898
340.4808, 31.71241
340.9629, 32.01246
341.4450, 32.44101
341.9271, 32.62150
342.4092, 32.43937
342.8914, 32.20016
343.3735, 32.07314
343.8556, 31.99177
344.3377, 31.83399
344.8198, 31.48944
345.3019, 31.11619
345.7841, 31.03861
346.2662, 31.33871
346.7483, 31.60963
347.2304, 31.58385
347.7125, 31.50128
348.1946, 31.62284
348.6768, 32.03919
349.1589, 32.42616
349.6410, 32.37602
350.1231, 31.89410
350.6052, 31.55909
351.0873, 31.56637
351.5695, 31.70897
352.0516, 31.82505
352.5337, 31.91010
353.0158, 31.97494
353.4979, 32.03054
353.9800, 32.07150
354.4622, 32.07595
354.9443, 32.03312
355.4264, 31.97166
355.9085, 31.84911
356.3906, 31.71978
356.8727, 31.72782
357.3549, 32.08202
357.8370, 32.51001
358.3191, 32.54496
358.8012, 32.13082
359.2833, 31.81246
359.7654, 31.98560
360.2476, 32.38241
360.7297, 32.57819
361.2118, 32.48013
361.6939, 32.28201
362.1760, 32.06704
362.6581, 31.85514
363.1403, 31.77052
363.6224, 31.88474
364.1045, 32.10316
364.5866, 32.32235
365.0687, 32.54712
365.5508, 32.71113
366.0330, 32.73322
366.5151, 32.68930
366.9972, 32.73306
367.4793, 32.90434
367.9614, 33.06793
368.4435, 33.07270
368.9257, 32.94787
369.4078, 32.87255
369.8899, 32.87839
370.3720, 32.93785
370.8541, 33.05790
371.3362, 33.22844
371.8184, 33.35316
372.3005, 33.34002
372.7826, 33.26486
373.2647, 33.37995
373.7468, 33.81269
374.2289, 34.21823
374.7111, 34.46421
375.1932, 34.58860
375.6753, 34.63358
376.1574, 34.59438
376.6395, 34.57595
377.1216, 34.78965
377.6038, 35.34607
378.0859, 35.69927
378.5680, 35.62958
379.0501, 35.43633
379.5322, 35.38713
380.0143, 35.50921
380.4965, 35.68618
380.9786, 35.82955
381.4607, 35.93812
381.9428, 35.97145
382.4249, 35.81027
382.9070, 35.70717
383.3892, 35.80237
383.8713, 36.03364
384.3534, 36.27076
384.8355, 36.44805
385.3176, 36.57522
385.7997, 36.67881
386.2819, 36.68889
386.7640, 36.76514
387.2461, 37.00346
387.7282, 37.25952
388.2103, 37.34947
388.6924, 37.25431
389.1746, 37.17292
389.6567, 37.38734
390.1388, 38.05558
390.6209, 38.37648
391.1030, 38.00215
391.5851, 37.67220
392.0673, 37.74141
392.5494, 38.13272
393.0315, 38.59840
393.5136, 38.98134
393.9957, 39.28227
394.4778, 39.49384
394.9600, 39.46177
395.4421, 39.55407
395.9242, 39.99304
396.4063, 40.49477
396.8884, 40.72696
397.3705, 40.59259
397.8527, 40.33351
398.3348, 40.32018
398.8169, 40.61205
399.2990, 40.94177
399.7811, 41.41419
400.2632, 41.82109
400.7454, 41.97742
401.2275, 41.95168
401.7096, 41.99954
402.1917, 42.35115
402.6738, 42.94586
403.1559, 43.41082
403.6381, 43.62544
404.1202, 43.92168
404.6023, 44.55723
405.0844, 45.29052
405.5665, 45.79949
406.0486, 45.93481
406.5308, 45.94969
407.0129, 46.15948
407.4950, 46.57195
407.9771, 47.09029
408.4592, 47.80585
408.9413, 48.52261
409.4235, 49.06374
409.9056, 49.43380
410.3877, 49.75922
410.8698, 50.12057
411.3519, 50.49331
411.8340, 50.78999
412.3162, 50.96769
412.7983, 51.20376
413.2804, 51.65406
413.7625, 52.25983
414.2446, 52.90650
414.7267, 53.73246
415.2089, 54.42544
415.6910, 54.57586
416.1731, 54.29905
416.6552, 54.24858
417.1373, 54.77155
417.6194, 55.52575
418.1016, 55.86263
418.5837, 55.74140
419.0658, 55.54890
419.5479, 55.33551
420.0300, 55.13115
420.5121, 54.98449
420.9943, 54.90025
421.4764, 54.82508
421.9585, 54.70364
422.4406, 54.53606
422.9227, 54.42641
423.4048, 54.46110
423.8870, 54.45996
424.3691, 54.32869
424.8512, 54.10370
425.3333, 53.87671
425.8154, 53.69406
426.2975, 53.50348
426.7797, 53.16885
427.2618, 52.35007
427.7439, 51.92745
428.2260, 52.20689
428.7081, 52.65191
429.1902, 52.90342
429.6724, 52.90440
430.1545, 52.73981
430.6366, 52.43876
431.1187, 51.99111
431.6008, 51.91018
432.0829, 52.71351
432.5651, 53.34841
433.0472, 53.42954
433.5293, 53.25998
434.0114, 53.28282
434.4935, 53.69206
434.9756, 54.28761
435.4578, 54.66227
435.9399, 54.68158
436.4220, 54.91619
436.9041, 55.67643
437.3862, 56.48936
437.8683, 57.06716
438.3505, 57.43257
438.8326, 57.81486
439.3147, 58.39790
439.7968, 59.13662
440.2789, 59.81146
440.7610, 60.31831
441.2432, 61.00359
441.7253, 62.18772
442.2074, 63.59015
442.6895, 64.90130
443.1716, 66.05950
443.6537, 67.07581
444.1359, 67.83617
444.6180, 68.40733
445.1001, 69.30026
445.5822, 70.80294
446.0643, 72.39555
446.5464, 73.35876
447.0286, 73.77084
447.5107, 74.41232
447.9928, 75.66660
448.4749, 77.14651
448.9570, 78.43768
449.4391, 79.54011
449.9213, 80.64981
450.4034, 81.86281
450.8855, 83.18691
451.3676, 84.63975
451.8497, 86.33318
452.3318, 87.96288
452.8140, 89.49602
453.2961, 90.91215
453.7782, 92.08837
454.2603, 93.01962
454.7424, 93.99244
455.2245, 95.39079
455.7067, 97.35519
456.1888, 98.90236
456.6709, 99.57121
457.1530, 100.3732
457.6351, 101.8130
458.1172, 103.6766
458.5994, 105.5800
459.0815, 107.3351
459.5636, 108.9085
460.0457, 110.1970
460.5278, 111.0190
461.0099, 111.9162
461.4921, 113.0787
461.9742, 114.2109
462.4563, 115.0417
462.9384, 115.6195
463.4205, 116.2692
463.9026, 117.3140
464.3848, 118.6796
464.8669, 119.7756
465.3490, 120.3743
465.8311, 121.1430
466.3132, 122.8529
466.7953, 124.6554
467.2775, 125.3882
467.7596, 124.5843
468.2417, 123.5719
468.7238, 123.8572
469.2059, 125.2209
469.6880, 125.9421
470.1702, 125.4328
470.6523, 124.6970
471.1344, 124.8870
471.6165, 125.7404
472.0986, 126.1317
472.5807, 125.3792
473.0629, 124.3387
473.5450, 123.8096
474.0271, 123.7333
474.5092, 123.7158
474.9913, 123.6262
475.4734, 123.4051
475.9556, 122.8825
476.4377, 121.9773
476.9198, 121.0326
477.4019, 120.0075
477.8840, 119.0253
478.3661, 118.3228
478.8483, 117.8499
479.3304, 117.2156
479.8125, 116.0546
480.2946, 114.4104
480.7767, 112.9310
481.2589, 111.6420
481.7410, 110.4992
482.2231, 109.7837
482.7052, 109.0760
483.1873, 107.8402
483.6694, 105.9495
484.1516, 103.8272
484.6337, 102.0194
485.1158, 100.5644
485.5979, 99.15868
486.0800, 97.94392
486.5621, 96.61999
487.0443, 95.07339
487.5264, 93.33824
488.0085, 91.46218
488.4906, 89.42371
488.9727, 87.38011
489.4548, 85.63878
489.9370, 84.23657
490.4191, 82.69712
490.9012, 80.77133
491.3833, 78.80385
491.8654, 77.19028
492.3475, 75.90482
492.8297, 74.45920
493.3118, 72.52128
493.7939, 70.39391
494.2760, 68.44958
494.7581, 66.69641
495.2402, 65.07139
495.7224, 63.53502
496.2045, 62.09591
496.6866, 60.77511
497.1687, 59.60237
497.6508, 58.46585
498.1329, 57.37928
498.6151, 56.28989
499.0972, 55.10750
499.5793, 53.83406
500.0614, 52.58087
500.5435, 51.45743
501.0256, 50.45624
501.5078, 49.49541
501.9899, 48.76595
502.4720, 47.85174
502.9541, 46.42644
503.4362, 44.88701
503.9183, 43.72039
504.4004, 43.05734
504.8825, 42.65686
505.3647, 42.26693
505.8468, 41.91276
506.3289, 41.36534
506.8110, 40.53754
507.2931, 39.60784
507.7752, 38.49108
508.2574, 37.36098
508.7395, 36.56041
509.2216, 36.29055
509.7037, 36.22042
510.1858, 35.95672
510.6679, 35.50750
511.1501, 35.00020
511.6322, 34.44992
512.1143, 33.87544
512.5964, 33.22731
513.0786, 32.53022
513.5607, 32.04597
514.0428, 32.02296
514.5249, 32.10686
515.0070, 31.99055
515.4891, 31.69589
515.9713, 31.37058
516.4534, 31.08278
516.9355, 30.80181
517.4176, 30.45315
517.8997, 29.93181
518.3818, 29.56370
518.8640, 29.52152
519.3461, 29.50102
519.8282, 29.26262
520.3103, 28.83468
520.7924, 28.37784
521.2745, 27.99028
521.7567, 27.68707
522.2388, 27.56814
522.7209, 27.84432
523.2030, 27.91081
523.6851, 27.58849
524.1672, 27.12919
524.6494, 26.62194
525.1315, 26.12675
525.6136, 25.81468
526.0957, 25.96848
526.5778, 26.40770
527.0599, 26.41883
527.5421, 25.88401
528.0242, 25.32803
528.5063, 24.93959
528.9884, 24.69480
529.4705, 24.58299
529.9526, 24.63428
530.4348, 24.67823
530.9169, 24.64087
531.3990, 24.53332
531.8811, 24.37798
532.3632, 24.17699
532.8453, 23.89525
533.3275, 23.46655
533.8096, 22.92966
534.2917, 22.60459
534.7738, 22.62607
535.2559, 22.64833
535.7380, 22.62631
536.2202, 22.54977
536.7023, 22.36087
537.1844, 22.07497
537.6665, 21.83780
538.1486, 21.83133
538.6307, 22.05887
539.1129, 22.11408
539.5950, 21.85553
540.0771, 21.60146
540.5592, 21.41947
541.0413, 21.28618
541.5234, 21.18033
542.0056, 21.09556
542.4877, 21.01738
542.9698, 20.92804
543.4519, 20.83076
543.9340, 20.75204
544.4161, 20.70075
544.8983, 20.65143
545.3804, 20.60766
545.8625, 20.55005
546.3446, 20.43001
546.8267, 20.19926
547.3088, 19.98406
547.7910, 19.85049
548.2731, 19.78551
548.7552, 19.78039
549.2373, 19.83383
549.7194, 19.88206
550.2015, 19.85534
550.6837, 19.75077
551.1658, 19.69405
551.6479, 19.80221
552.1300, 19.81255
552.6121, 19.58993
553.0942, 19.25623
553.5764, 18.93239
554.0585, 18.66495
554.5406, 18.49090
555.0227, 18.49813
555.5048, 18.70905
555.9869, 18.72332
556.4691, 18.36661
556.9512, 18.05329
557.4333, 17.95044
557.9154, 17.96149
558.3975, 17.96101
558.8796, 17.91108
559.3618, 17.88124
559.8439, 17.99133
560.3260, 18.18183
560.8081, 18.20023
561.2902, 17.97650
561.7723, 17.73566
562.2545, 17.64483
562.7366, 17.68176
563.2187, 17.70814
563.7008, 17.70418
564.1829, 17.71332
564.6650, 17.79065
565.1472, 17.87498
565.6293, 17.88228
566.1114, 17.79538
566.5935, 17.64270
567.0756, 17.43681
567.5577, 17.17831
568.0399, 17.02509
568.5220, 17.09864
569.0041, 17.13453
569.4862, 17.04544
569.9683, 16.92463
570.4504, 16.83942
570.9326, 16.81496
571.4147, 16.89388
571.8968, 17.22206
572.3789, 17.72817
572.8610, 17.92340
573.3431, 17.71939
573.8253, 17.45519
574.3074, 17.24700
574.7895, 17.10064
575.2716, 17.04641
575.7537, 17.11913
576.2358, 17.14487
576.7180, 16.98769
577.2001, 16.75807
577.6822, 16.62493
578.1643, 16.59805
578.6464, 16.55332
579.1285, 16.38663
579.6107, 16.15194
580.0928, 16.08466
580.5749, 16.44816
581.0570, 16.62773
581.5391, 16.51335
582.0212, 16.27367
582.5034, 15.95424
582.9855, 15.62174
583.4676, 15.42965
583.9497, 15.50417
584.4318, 15.77774
584.9139, 16.05164
585.3961, 16.36116
585.8782, 16.54994
586.3602, 16.49281
586.8423, 16.36692
