##NAMES=Garronite-Ca
##RRUFFID=R050281
##IDEAL CHEMISTRY=NaCa_2.5_(Si_10_Al_6_)O_32_&#183;14H_2_O
##LOCALITY=Pete's Point, Aneroid Lake, Wallowa County, Oregon, USA
##OWNER=RRUFF
##SOURCE=Marcus Origlieri
##DESCRIPTION=White radiating crystal aggregates completely filling amygdules
##STATUS=The identification of this mineral has been confirmed by X-ray diffraction and chemical analysis
##URL=rruff.info/R050281
##MEASURED CHEMISTRY=(Na_0.94_K_0.06_)_Σ=1_Ca_2.50_(Si_10.00_Al_6.00_)O_32_·13H_2_O
92.54132, 0.0000000E+00
93.02344, 6.219800
93.50555, 5.784525
93.98767, 5.625999
94.46979, 5.831616
94.95190, 6.308950
95.43402, 6.858841
95.91614, 7.477633
96.39825, 8.160907
96.88037, 8.896638
97.36249, 9.686972
97.84460, 10.51702
98.32672, 11.29997
98.80884, 12.04992
99.29095, 13.15234
99.77307, 14.66589
100.2552, 16.45738
100.7373, 18.20453
101.2194, 19.85528
101.7015, 21.59863
102.1837, 23.55768
102.6658, 25.73352
103.1479, 28.05571
103.6300, 30.55070
104.1121, 33.18231
104.5942, 35.73243
105.0763, 38.21076
105.5585, 40.62429
106.0406, 43.02317
106.5227, 45.43540
107.0048, 47.74768
107.4869, 49.92648
107.9690, 51.96880
108.4512, 53.89913
108.9333, 55.52802
109.4154, 57.15700
109.8975, 59.09119
110.3796, 61.24995
110.8617, 63.82014
111.3439, 66.87746
111.8260, 70.49996
112.3081, 74.33859
112.7902, 78.40881
113.2723, 82.68786
113.7544, 87.07883
114.2366, 91.86565
114.7187, 96.53117
115.2008, 100.7525
115.6829, 104.1883
116.1650, 107.8708
116.6471, 112.3789
117.1293, 117.3879
117.6114, 122.1961
118.0935, 126.6957
118.5756, 130.8058
119.0577, 134.5016
119.5398, 137.6428
120.0220, 140.5124
120.5041, 143.2206
120.9862, 145.7843
121.4683, 148.2727
121.9504, 150.7184
122.4325, 153.1002
122.9147, 155.4462
123.3968, 157.9969
123.8789, 160.2925
124.3610, 161.5640
124.8431, 161.9230
125.3252, 162.5459
125.8074, 164.5639
126.2895, 167.4784
126.7716, 170.3383
127.2537, 172.7323
127.7358, 174.8834
128.2179, 177.1315
128.7001, 179.4772
129.1822, 181.7767
129.6643, 183.6420
130.1464, 185.2383
130.6285, 187.2510
131.1106, 190.2321
131.5928, 193.9007
132.0749, 197.4200
132.5570, 200.7274
133.0391, 203.7923
133.5212, 206.4986
134.0033, 208.5234
134.4855, 209.3844
134.9676, 209.3567
135.4497, 209.1819
135.9318, 208.9839
136.4139, 208.8209
136.8960, 208.5797
137.3782, 207.9873
137.8603, 207.0146
138.3424, 205.9136
138.8245, 204.7803
139.3066, 203.5793
139.7887, 202.5920
140.2709, 201.9070
140.7530, 201.4282
141.2351, 200.8617
141.7172, 200.2384
142.1993, 199.4550
142.6814, 198.3528
143.1636, 196.6421
143.6457, 195.4119
144.1278, 194.9734
144.6099, 195.1956
145.0920, 194.7994
145.5741, 193.2884
146.0563, 191.7200
146.5384, 190.9591
147.0205, 191.5315
147.5026, 192.0267
147.9847, 192.3292
148.4668, 192.4488
148.9490, 192.1520
149.4311, 191.0495
149.9132, 189.7711
150.3953, 188.9117
150.8774, 188.8474
151.3595, 188.7904
151.8417, 188.5397
152.3238, 188.0049
152.8059, 187.8014
153.2880, 188.2906
153.7701, 188.9864
154.2522, 189.3712
154.7344, 189.2834
155.2165, 188.9910
155.6986, 188.5229
156.1807, 187.8248
156.6628, 187.1467
157.1449, 186.5536
157.6271, 185.9993
158.1092, 185.4176
158.5913, 184.8646
159.0734, 184.2280
159.5555, 183.3532
160.0376, 181.9910
160.5198, 181.0793
161.0019, 181.3833
161.4840, 182.2826
161.9661, 182.6913
162.4482, 181.5006
162.9303, 180.2287
163.4125, 179.8636
163.8946, 181.0602
164.3767, 182.0278
164.8588, 181.7188
165.3409, 180.5630
165.8230, 179.5784
166.3052, 179.5143
166.7873, 179.6364
167.2694, 179.3281
167.7515, 178.1925
168.2336, 177.0858
168.7157, 176.6570
169.1978, 176.7268
169.6800, 176.7059
170.1621, 176.0137
170.6442, 175.1695
171.1263, 174.7426
171.6084, 175.1218
172.0905, 175.5971
172.5727, 175.6240
173.0548, 175.2424
173.5369, 174.6536
174.0190, 173.9391
174.5011, 173.1072
174.9832, 172.1169
175.4654, 170.6618
175.9475, 169.3740
176.4296, 169.0762
176.9117, 169.6788
177.3938, 170.4191
177.8759, 170.9883
178.3581, 171.2720
178.8402, 171.0224
179.3223, 170.0318
179.8044, 168.5862
180.2865, 166.8811
180.7686, 164.9419
181.2508, 163.2507
181.7329, 162.3270
182.2150, 161.9836
182.6971, 161.7547
183.1792, 161.6750
183.6613, 161.5290
184.1435, 160.8097
184.6256, 159.4966
185.1077, 158.0371
185.5898, 156.7954
186.0719, 155.7619
186.5540, 154.7880
187.0362, 153.7886
187.5183, 152.8286
188.0004, 152.2535
188.4825, 152.1150
188.9646, 151.8666
189.4467, 150.7483
189.9289, 148.8713
190.4110, 147.1612
190.8931, 146.0202
191.3752, 145.2916
191.8573, 144.2955
192.3394, 142.9833
192.8216, 141.5989
193.3037, 140.4077
193.7858, 139.4068
194.2679, 138.4980
194.7500, 137.7537
195.2321, 137.1114
195.7143, 136.0089
196.1964, 134.3109
196.6785, 132.5975
197.1606, 131.8052
197.6427, 132.0028
198.1248, 131.8951
198.6070, 130.8647
199.0891, 128.9891
199.5712, 127.4613
200.0533, 126.3331
200.5354, 125.4307
201.0175, 124.5280
201.4997, 123.6019
201.9818, 122.8274
202.4639, 122.4351
202.9460, 122.4289
203.4281, 121.6171
203.9102, 119.7100
204.3924, 117.5304
204.8745, 116.3531
205.3566, 116.3774
205.8387, 116.4745
206.3208, 116.3046
206.8029, 115.8705
207.2851, 115.0741
207.7672, 113.7543
208.2493, 112.3038
208.7314, 111.4016
209.2135, 111.2379
209.6956, 110.9668
210.1778, 110.2461
210.6599, 109.0095
211.1420, 107.8644
211.6241, 106.7628
212.1062, 105.8220
212.5883, 105.3131
213.0705, 105.4242
213.5526, 105.4402
214.0347, 105.0360
214.5168, 104.0997
214.9989, 103.5611
215.4810, 103.6512
215.9632, 103.9115
216.4453, 103.5317
216.9274, 102.2134
217.4095, 100.9609
217.8916, 100.1704
218.3737, 99.95339
218.8559, 99.55868
219.3380, 98.99045
219.8201, 98.24771
220.3022, 97.25012
220.7843, 95.76352
221.2664, 94.54916
221.7486, 93.93774
222.2307, 94.09446
222.7128, 94.01883
223.1949, 93.65684
223.6770, 93.10856
224.1591, 92.51505
224.6413, 91.81404
225.1234, 91.18385
225.6055, 90.70853
226.0876, 90.45255
226.5697, 90.04558
227.0518, 89.47951
227.5340, 88.76881
228.0161, 87.91984
228.4982, 86.79859
228.9803, 85.76380
229.4624, 84.93673
229.9445, 84.34559
230.4267, 83.75328
230.9088, 83.07729
231.3909, 82.44992
231.8730, 82.10265
232.3551, 82.30587
232.8372, 82.29942
233.3194, 81.77607
233.8015, 80.56622
234.2836, 79.78092
234.7657, 79.62520
235.2478, 79.72431
235.7299, 79.58015
236.2121, 79.05740
236.6942, 78.52316
237.1763, 78.03737
237.6584, 77.58183
238.1405, 77.34280
238.6226, 77.53793
239.1048, 77.77677
239.5869, 77.54127
240.0690, 76.47179
240.5511, 75.58247
241.0332, 75.23262
241.5153, 75.54478
241.9975, 75.26619
242.4796, 73.98305
242.9617, 72.47714
243.4438, 71.65859
243.9259, 71.89211
244.4080, 72.15446
244.8902, 72.25804
245.3723, 72.20077
245.8544, 71.99550
246.3365, 71.49200
246.8186, 70.98531
247.3007, 70.80711
247.7829, 71.24094
248.2650, 71.45565
248.7471, 71.23515
249.2292, 70.56586
249.7113, 69.99277
250.1934, 69.50658
250.6756, 69.11991
251.1577, 68.83505
251.6398, 68.63842
252.1219, 68.58079
252.6040, 68.74563
253.0861, 69.11340
253.5683, 69.25756
254.0504, 69.09707
254.5325, 68.81055
255.0146, 68.54382
255.4967, 68.32571
255.9788, 68.04984
256.4609, 67.65263
256.9431, 67.16705
257.4252, 66.86101
257.9073, 66.82655
258.3894, 66.84048
258.8715, 66.73302
259.3536, 66.43644
259.8358, 66.20416
260.3179, 66.12253
260.8000, 66.13374
261.2821, 65.87630
261.7642, 65.15299
262.2463, 64.49343
262.7285, 64.28139
263.2106, 64.69929
263.6927, 64.99790
264.1748, 65.14531
264.6569, 65.12608
265.1390, 64.81911
265.6212, 64.04903
266.1033, 63.36044
266.5854, 63.11300
267.0675, 63.47132
267.5496, 63.62649
268.0317, 63.45933
268.5139, 63.10692
268.9960, 62.95405
269.4781, 63.07726
269.9602, 63.19334
270.4423, 63.14841
270.9244, 62.90745
271.4066, 62.67535
271.8887, 62.43832
272.3708, 62.22897
272.8529, 62.13354
273.3350, 62.17995
273.8171, 62.23863
274.2993, 62.23468
274.7814, 62.15157
275.2635, 62.20135
275.7456, 62.46098
276.2277, 62.73161
276.7098, 62.61772
277.1920, 62.03045
277.6741, 61.54444
278.1562, 61.41439
278.6383, 61.63679
279.1204, 61.79428
279.6025, 61.90076
280.0847, 61.91380
280.5668, 61.75335
281.0489, 61.40736
281.5310, 61.01502
282.0131, 60.52538
282.4952, 59.99409
282.9774, 59.96703
283.4595, 60.54960
283.9416, 61.20856
284.4237, 61.32722
284.9058, 60.90870
285.3879, 60.48201
285.8701, 60.16411
286.3522, 59.94645
286.8343, 59.81752
287.3164, 59.78621
287.7985, 59.77954
288.2806, 59.70317
288.7628, 59.57137
289.2449, 59.54882
289.7270, 59.71742
290.2091, 59.97506
290.6912, 60.05125
291.1733, 59.94256
291.6555, 59.81541
292.1376, 59.85577
292.6197, 60.00477
293.1018, 59.95838
293.5839, 59.60882
294.0660, 59.14859
294.5482, 58.91183
295.0303, 58.88639
295.5124, 58.91473
295.9945, 58.89845
296.4766, 58.86020
296.9587, 58.86371
297.4409, 58.91896
297.9230, 59.00867
298.4051, 59.17921
298.8872, 59.39000
299.3693, 59.46633
299.8514, 59.20683
300.3336, 58.77146
300.8157, 58.41458
301.2978, 58.14331
301.7799, 58.02476
302.2620, 58.26812
302.7441, 58.73860
303.2263, 59.08453
303.7084, 59.05527
304.1905, 58.85612
304.6726, 58.74892
305.1547, 58.74111
305.6368, 58.73830
306.1190, 58.73513
306.6011, 58.67479
307.0832, 58.45497
307.5653, 57.83693
308.0474, 57.19371
308.5295, 56.91158
309.0117, 56.95760
309.4938, 57.06139
309.9759, 57.02590
310.4580, 56.95415
310.9401, 56.98346
311.4222, 57.27083
311.9044, 57.51564
312.3865, 57.47772
312.8686, 57.21247
313.3507, 56.91787
313.8328, 56.65760
314.3149, 56.43491
314.7971, 56.23158
315.2792, 55.96234
315.7613, 55.87468
316.2434, 56.30507
316.7255, 57.01067
317.2076, 57.46386
317.6898, 57.30024
318.1719, 56.93805
318.6540, 56.54943
319.1361, 56.09630
319.6182, 55.87363
320.1003, 56.21524
320.5825, 56.79158
321.0646, 57.14968
321.5467, 56.94109
322.0288, 56.69644
322.5109, 56.65403
322.9930, 56.86468
323.4752, 56.92928
323.9573, 56.58282
324.4394, 56.14124
324.9215, 55.88910
325.4036, 56.21000
325.8857, 56.36218
326.3679, 56.07594
326.8500, 55.37691
327.3321, 54.90590
327.8142, 54.76290
328.2963, 54.82083
328.7784, 55.00636
329.2606, 55.59181
329.7427, 55.96796
330.2248, 56.04569
330.7069, 55.88772
331.1890, 55.73488
331.6711, 55.55433
332.1533, 55.41293
332.6354, 55.33712
333.1175, 55.33541
333.5996, 55.39380
334.0817, 55.62030
334.5638, 55.85886
335.0460, 55.76677
335.5281, 55.06609
336.0102, 54.54692
336.4923, 54.50775
336.9744, 55.02502
337.4565, 55.46147
337.9387, 55.86586
338.4208, 56.13050
338.9029, 56.06596
339.3850, 55.56562
339.8671, 55.14393
340.3492, 54.91493
340.8313, 54.86550
341.3134, 54.93559
341.7956, 55.17930
342.2777, 55.37669
342.7598, 55.23981
343.2419, 54.74699
343.7240, 54.58438
344.2061, 54.96436
344.6883, 55.63373
345.1704, 55.95408
345.6525, 55.91604
346.1346, 55.74090
346.6167, 55.51819
347.0988, 55.25927
347.5810, 55.04560
348.0631, 54.87206
348.5452, 54.76559
349.0273, 54.76835
349.5094, 54.87407
349.9915, 55.04823
350.4737, 55.39002
350.9558, 55.77100
351.4379, 55.83613
351.9200, 55.56471
352.4021, 55.25429
352.8842, 55.20201
353.3664, 55.32366
353.8485, 55.42342
354.3306, 55.41429
354.8127, 55.36734
355.2948, 55.32835
355.7769, 55.30804
356.2591, 55.37942
356.7412, 55.67767
357.2233, 56.06195
357.7054, 56.37934
358.1875, 56.60236
358.6696, 56.73170
359.1518, 56.69722
359.6339, 56.56225
360.1160, 56.48204
360.5981, 56.68641
361.0802, 56.86318
361.5623, 56.74068
362.0445, 56.19960
362.5266, 55.75708
363.0087, 55.59602
363.4908, 55.66969
363.9729, 55.92180
364.4550, 56.63885
364.9372, 57.24708
365.4193, 57.51798
365.9014, 57.43922
366.3835, 57.30111
366.8656, 56.94807
367.3477, 56.68246
367.8299, 56.71537
368.3120, 57.44759
368.7941, 58.04115
369.2762, 58.33683
369.7583, 58.40435
370.2404, 58.56773
370.7226, 58.98680
371.2047, 59.34463
371.6868, 59.49046
372.1689, 59.24886
372.6510, 59.20884
373.1331, 59.47232
373.6153, 59.88054
374.0974, 60.15005
374.5795, 60.14427
375.0616, 60.28704
375.5437, 60.81499
376.0258, 61.74342
376.5080, 62.11056
376.9901, 61.69440
377.4722, 61.13121
377.9543, 61.05465
378.4364, 61.52938
378.9185, 62.05810
379.4007, 62.57866
379.8828, 63.06712
380.3649, 63.42976
380.8470, 63.65731
381.3291, 63.81242
381.8112, 63.89001
382.2934, 63.90940
382.7755, 64.02078
383.2576, 64.25338
383.7397, 64.53014
384.2218, 64.72923
384.7039, 64.86903
385.1861, 65.03874
385.6682, 65.28466
386.1503, 65.58775
386.6324, 65.91720
387.1145, 66.26855
387.5966, 66.65784
388.0788, 67.15862
388.5609, 67.70012
389.0430, 68.15325
389.5251, 68.43721
390.0072, 68.67717
390.4893, 69.03459
390.9715, 69.45830
391.4536, 69.77843
391.9357, 69.67199
392.4178, 69.54973
392.8999, 69.81120
393.3820, 70.65904
393.8642, 71.44505
394.3463, 71.80795
394.8284, 71.92168
395.3105, 72.05032
395.7926, 72.16647
396.2747, 72.41705
396.7569, 72.93991
397.2390, 73.75316
397.7211, 74.43414
398.2032, 74.76867
398.6853, 75.01653
399.1674, 75.36456
399.6496, 75.95907
400.1317, 76.50041
400.6138, 76.86284
401.0959, 77.13966
401.5780, 77.67216
402.0602, 78.69871
402.5423, 79.69963
403.0244, 80.42048
403.5065, 80.71024
403.9886, 81.27968
404.4707, 82.25716
404.9529, 83.39029
405.4350, 84.30216
405.9171, 84.88827
406.3992, 85.60715
406.8813, 86.61832
407.3634, 87.86923
407.8456, 89.03889
408.3277, 90.09897
408.8098, 91.20240
409.2919, 92.53052
409.7740, 94.06676
410.2561, 95.42107
410.7383, 96.53139
411.2204, 97.46877
411.7025, 98.40395
412.1846, 99.32517
412.6667, 100.1364
413.1488, 100.5805
413.6310, 100.9130
414.1131, 101.8222
414.5952, 103.3657
415.0773, 104.7808
415.5594, 105.0924
416.0415, 104.8435
416.5237, 105.0584
417.0058, 106.5751
417.4879, 108.1189
417.9700, 108.3417
418.4521, 107.5590
418.9342, 107.0613
419.4164, 108.0060
419.8985, 109.2070
420.3806, 109.7580
420.8627, 109.4339
421.3448, 108.7475
421.8269, 107.5880
422.3091, 106.2605
422.7912, 105.1858
423.2733, 104.6397
423.7554, 104.1919
424.2375, 103.7623
424.7196, 103.3520
425.2018, 102.8415
425.6839, 102.1126
426.1660, 101.3654
426.6481, 100.7030
427.1302, 100.1204
427.6123, 99.66977
428.0945, 99.48943
428.5766, 99.39877
429.0587, 98.90609
429.5408, 97.71249
430.0229, 96.75813
430.5050, 96.46386
430.9872, 96.86006
431.4693, 97.08900
431.9514, 97.13098
432.4335, 97.05434
432.9156, 96.90107
433.3977, 96.66801
433.8799, 96.43356
434.3620, 96.16232
434.8441, 95.95236
435.3262, 96.02409
435.8083, 96.37306
436.2904, 96.92214
436.7726, 97.69139
437.2547, 98.61826
437.7368, 99.59153
438.2189, 100.6214
438.7010, 101.5858
439.1831, 102.2585
439.6652, 102.8012
440.1473, 103.5268
440.6295, 104.6508
441.1116, 105.9250
441.5937, 107.1663
442.0758, 108.3913
442.5579, 109.6442
443.0400, 110.8317
443.5222, 112.1426
444.0043, 113.7778
444.4864, 115.9261
444.9685, 117.9483
445.4506, 119.4570
445.9327, 120.7621
446.4149, 122.3155
446.8970, 124.2496
447.3791, 126.3715
447.8612, 128.7939
448.3433, 131.5267
448.8254, 133.8664
449.3076, 135.4703
449.7897, 136.9758
450.2718, 138.7509
450.7539, 140.8486
451.2360, 143.0761
451.7181, 145.4700
452.2003, 147.9867
452.6824, 150.5180
453.1645, 153.0959
453.6466, 155.6153
454.1287, 157.9250
454.6108, 160.1120
455.0930, 162.7532
455.5751, 165.9403
456.0572, 169.1530
456.5393, 171.7890
457.0214, 173.9817
457.5035, 176.3232
457.9857, 178.9983
458.4678, 181.7497
458.9499, 184.1669
459.4320, 186.3279
459.9141, 188.5732
460.3962, 191.2236
460.8784, 193.9657
461.3605, 196.3324
461.8426, 198.3375
462.3247, 200.3582
462.8068, 202.7765
463.2889, 205.3182
463.7711, 207.6619
464.2532, 209.6526
464.7353, 211.5278
465.2174, 213.2899
465.6995, 214.9805
466.1816, 216.7393
466.6638, 218.7556
467.1459, 220.6546
467.6280, 222.3588
468.1101, 223.8847
468.5922, 225.0130
469.0743, 225.4411
469.5565, 225.6924
470.0386, 226.2122
470.5207, 227.2184
471.0028, 228.0278
471.4849, 228.5125
471.9670, 228.7857
472.4492, 229.2644
472.9313, 230.1092
473.4134, 230.5981
473.8955, 230.2889
474.3776, 229.2217
474.8597, 228.2764
475.3419, 227.4355
475.8240, 226.7745
476.3061, 226.6198
476.7882, 226.7902
477.2703, 226.4070
477.7524, 225.1186
478.2346, 223.4375
478.7167, 222.0082
479.1988, 220.7746
479.6809, 219.5269
480.1630, 218.1483
480.6451, 216.6977
481.1273, 215.3683
481.6094, 214.1828
482.0915, 212.5570
482.5736, 209.8410
483.0557, 206.6545
483.5378, 203.5661
484.0200, 200.6813
484.5021, 197.9642
484.9842, 195.5746
485.4663, 193.3450
485.9484, 190.8652
486.4305, 187.7747
486.9127, 184.7243
487.3948, 182.0010
487.8769, 179.7435
488.3590, 176.9812
488.8411, 173.3375
489.3232, 169.5880
489.8054, 166.4776
490.2875, 164.2608
490.7696, 161.7962
491.2517, 158.9338
491.7338, 155.8163
492.2159, 152.9140
492.6981, 150.2501
493.1802, 147.3181
493.6623, 143.7237
494.1444, 139.6514
494.6265, 136.0111
495.1086, 132.7545
495.5908, 129.8798
496.0729, 127.6452
496.5550, 125.7108
497.0371, 123.3504
497.5192, 120.2438
498.0013, 117.0858
498.4835, 114.5368
498.9656, 112.3804
499.4477, 110.2358
499.9298, 107.9117
500.4119, 105.5373
500.8940, 103.1098
501.3762, 100.6146
501.8583, 98.36662
502.3404, 96.68686
502.8225, 95.07925
503.3046, 93.22091
503.7867, 90.73782
504.2689, 88.53776
504.7510, 86.74352
505.2331, 85.20747
505.7152, 83.68880
506.1973, 82.20589
506.6794, 80.75143
507.1616, 79.31899
507.6437, 77.90535
508.1258, 76.58025
508.6079, 75.34644
509.0900, 74.18818
509.5721, 73.08609
510.0543, 72.04431
510.5364, 71.12696
511.0185, 70.35406
511.5006, 69.63323
511.9827, 68.82703
512.4648, 67.97658
512.9470, 67.21400
513.4291, 66.61809
513.9112, 66.09138
514.3933, 65.59383
514.8754, 65.08618
515.3575, 64.42456
515.8397, 63.22169
516.3218, 62.04930
516.8039, 61.42177
517.2860, 61.48517
517.7681, 61.40705
518.2502, 60.65516
518.7324, 59.75969
519.2145, 59.19489
519.6966, 59.63250
520.1787, 59.66006
520.6608, 58.90474
521.1429, 57.69030
521.6251, 56.81739
522.1072, 56.43473
522.5893, 56.11071
523.0714, 55.70795
523.5535, 55.22667
524.0356, 54.79333
524.5178, 54.40931
524.9999, 54.06229
525.4820, 53.80449
525.9641, 53.61537
526.4462, 53.18500
526.9283, 52.40813
527.4105, 51.58876
527.8926, 51.14856
528.3747, 51.00520
528.8568, 50.89437
529.3389, 50.75988
529.8210, 50.56146
530.3032, 50.20547
530.7853, 49.72589
531.2674, 49.29985
531.7495, 49.18855
532.2316, 49.05809
532.7137, 48.58208
533.1959, 47.55271
533.6780, 46.82759
534.1601, 46.88206
534.6422, 47.22093
535.1243, 47.33383
535.6064, 47.04683
536.0886, 46.70381
536.5707, 46.32801
537.0528, 45.91467
537.5349, 45.43807
538.0170, 44.81264
538.4991, 44.34373
538.9813, 44.25805
539.4634, 44.51831
539.9455, 44.30398
540.4276, 43.53072
540.9097, 42.76447
541.3918, 42.64690
541.8740, 43.00233
542.3561, 43.12983
542.8382, 42.89893
543.3203, 42.49051
543.8024, 42.01296
544.2845, 41.51722
544.7667, 41.12854
545.2488, 40.95317
545.7309, 40.86432
546.2130, 40.82707
546.6951, 40.81802
547.1772, 40.73317
547.6594, 40.43920
548.1415, 40.12992
548.6236, 39.91241
549.1057, 39.82193
549.5878, 39.74304
550.0699, 39.71716
550.5521, 39.66602
551.0342, 39.49797
551.5163, 39.05536
551.9984, 38.86157
552.4805, 39.07186
552.9626, 39.48337
553.4448, 39.63385
553.9269, 39.50643
554.4090, 39.25491
554.8911, 38.88919
555.3732, 38.45355
555.8553, 38.11622
556.3375, 37.87847
556.8196, 37.65796
557.3017, 37.33886
557.7838, 37.01349
558.2659, 36.85488
558.7480, 36.90360
559.2302, 37.00488
559.7123, 37.06160
560.1944, 37.09507
560.6765, 37.13326
561.1586, 37.32592
561.6407, 37.37374
562.1229, 37.00175
562.6050, 36.39501
563.0871, 36.08344
563.5692, 36.48714
564.0513, 36.83744
564.5334, 36.89631
565.0156, 36.65043
565.4977, 36.48756
565.9798, 36.44897
566.4619, 36.42096
566.9440, 36.33822
567.4261, 36.20400
567.9083, 35.92986
568.3904, 35.44492
568.8725, 35.02010
569.3546, 35.16787
569.8367, 35.73968
570.3188, 36.05206
570.8010, 35.76892
571.2831, 35.28080
571.7652, 35.00833
572.2473, 34.93180
572.7294, 34.99606
573.2115, 35.39551
573.6937, 35.75038
574.1758, 35.72363
574.6579, 35.28675
575.1400, 34.98191
575.6221, 35.11085
576.1042, 35.33276
576.5864, 35.42637
577.0685, 35.37770
577.5506, 35.18071
578.0327, 34.66093
578.5148, 34.11761
578.9969, 34.00082
579.4791, 34.46746
579.9612, 34.79688
580.4433, 34.83342
580.9254, 34.65331
581.4075, 34.38067
581.8896, 34.01877
582.3718, 33.77514
582.8539, 33.90532
583.3360, 34.19373
583.8181, 34.13615
584.3002, 33.74324
584.7823, 33.32965
585.2645, 32.97123
585.7466, 32.78991
586.2286, 32.99770
586.7108, 33.79681
