##NAMES=Gaspeite
##RRUFFID=R040157
##IDEAL CHEMISTRY=Ni^2+^CO_3_
##LOCALITY=Lemieux Township, Gaspe Nord County, Gaspe Peninsula, Quebec, Canada
##OWNER=RRUFF
##SOURCE=University of Arizona Mineral Museum
##DESCRIPTION=Green massive
##STATUS=The identification of this mineral has been confirmed by X-ray diffraction and chemical analysis
##URL=rruff.info/R040157
##MEASURED CHEMISTRY=(Ni_0.54_Mg_0.31_Fe_0.15_Ca_0.01_Co_0.01_)C_1.00_O_3_; = the gray bands. Light grey bands are also gaspeite: (Ni_0.57_Mg_0.41_Fe_0.08_)C_0.97_O_3_; Dark grey bands, magnesite: (Mg_0.98_Fe_0.04_Ni_0.03_)C_0.97_O_3_
188.9978, 23533.96
189.4800, 23614.79
189.9621, 23711.57
190.4442, 23796.47
190.9263, 23856.85
191.4084, 23897.24
191.8905, 23927.18
192.3727, 23940.73
192.8548, 23953.93
193.3369, 23962.66
193.8190, 23975.50
194.3011, 24002.86
194.7832, 24049.06
195.2654, 24105.54
195.7475, 24151.97
196.2296, 24176.45
196.7117, 24214.60
197.1938, 24281.10
197.6759, 24355.37
198.1581, 24419.72
198.6402, 24468.36
199.1223, 24506.89
199.6044, 24545.20
200.0865, 24583.28
200.5686, 24621.33
201.0508, 24664.51
201.5329, 24704.79
202.0150, 24732.61
202.4971, 24746.39
202.9792, 24756.05
203.4613, 24777.03
203.9435, 24810.89
204.4256, 24853.67
204.9077, 24929.52
205.3898, 24996.48
205.8719, 25017.94
206.3540, 24990.40
206.8362, 24946.77
207.3183, 24932.15
207.8004, 24957.92
208.2825, 24985.27
208.7646, 25007.18
209.2467, 25035.35
209.7289, 25083.58
210.2110, 25149.34
210.6931, 25213.49
211.1752, 25252.03
211.6573, 25256.67
212.1395, 25264.97
212.6216, 25267.71
213.1037, 25281.34
213.5858, 25317.40
214.0679, 25373.65
214.5500, 25438.56
215.0322, 25501.28
215.5143, 25561.07
215.9964, 25622.73
216.4785, 25685.58
216.9606, 25751.19
217.4427, 25824.03
217.9249, 25901.04
218.4070, 25974.80
218.8891, 26038.79
219.3712, 26092.79
219.8533, 26145.57
220.3354, 26211.27
220.8176, 26261.38
221.2997, 26279.79
221.7818, 26276.33
222.2639, 26269.17
222.7460, 26269.04
223.2281, 26276.77
223.7103, 26301.15
224.1924, 26362.90
224.6745, 26419.82
225.1566, 26476.27
225.6387, 26520.09
226.1208, 26531.28
226.6030, 26495.42
227.0851, 26424.71
227.5672, 26371.43
228.0493, 26359.44
228.5314, 26332.28
229.0135, 26273.47
229.4957, 26198.19
229.9778, 26120.29
230.4599, 26045.43
230.9420, 25978.43
231.4241, 25932.10
231.9062, 25919.22
232.3884, 25906.72
232.8705, 25887.66
233.3526, 25868.45
233.8347, 25854.30
234.3168, 25847.01
234.7989, 25845.11
235.2811, 25846.33
235.7632, 25851.24
236.2453, 25858.23
236.7274, 25861.51
237.2095, 25870.29
237.6916, 25895.59
238.1738, 25937.42
238.6559, 25981.00
239.1380, 26004.54
239.6201, 25998.46
240.1022, 26008.29
240.5843, 26063.99
241.0665, 26112.70
241.5486, 26120.28
242.0307, 26091.28
242.5128, 26060.24
242.9949, 26062.51
243.4770, 26101.44
243.9592, 26133.95
244.4413, 26162.62
244.9234, 26181.50
245.4055, 26184.30
245.8876, 26174.94
246.3697, 26163.14
246.8519, 26155.74
247.3340, 26152.07
247.8161, 26145.64
248.2982, 26127.31
248.7803, 26119.31
249.2624, 26138.26
249.7446, 26170.10
250.2267, 26190.14
250.7088, 26180.51
251.1909, 26155.78
251.6730, 26161.19
252.1551, 26214.67
252.6373, 26262.27
253.1194, 26289.13
253.6015, 26300.99
254.0836, 26300.84
254.5657, 26287.74
255.0478, 26270.74
255.5300, 26264.25
256.0121, 26270.09
256.4942, 26279.75
256.9763, 26297.61
257.4584, 26314.51
257.9406, 26320.14
258.4227, 26311.84
258.9048, 26305.91
259.3869, 26321.86
259.8690, 26360.71
260.3511, 26398.81
260.8333, 26436.86
261.3154, 26468.03
261.7975, 26487.17
262.2796, 26494.43
262.7617, 26495.92
263.2438, 26488.09
263.7260, 26475.11
264.2081, 26485.76
264.6902, 26541.74
265.1723, 26592.31
265.6544, 26590.31
266.1365, 26550.82
266.6187, 26523.90
267.1008, 26551.62
267.5829, 26604.53
268.0650, 26612.50
268.5471, 26559.27
269.0292, 26509.02
269.5114, 26515.41
269.9935, 26554.44
270.4756, 26587.57
270.9577, 26598.94
271.4398, 26605.24
271.9219, 26628.08
272.4041, 26668.12
272.8862, 26705.97
273.3683, 26746.06
273.8504, 26769.00
274.3325, 26736.49
274.8146, 26608.62
275.2968, 26494.55
275.7789, 26480.82
276.2610, 26546.58
276.7431, 26605.23
277.2252, 26622.92
277.7073, 26624.88
278.1895, 26656.55
278.6716, 26724.46
279.1537, 26784.68
279.6358, 26823.90
280.1179, 26844.54
280.6000, 26843.54
281.0822, 26816.68
281.5643, 26790.34
282.0464, 26800.05
282.5285, 26849.13
283.0106, 26890.68
283.4927, 26917.52
283.9749, 26935.85
284.4570, 26951.02
284.9391, 26963.50
285.4212, 26970.49
285.9033, 26965.97
286.3854, 26951.08
286.8676, 26957.85
287.3497, 27017.61
287.8318, 27066.73
288.3139, 27068.19
288.7960, 27033.33
289.2781, 26993.91
289.7603, 26966.92
290.2424, 26949.68
290.7245, 26931.70
291.2066, 26899.59
291.6887, 26883.07
292.1708, 26896.09
292.6530, 26923.84
293.1351, 26947.02
293.6172, 26958.98
294.0993, 26968.62
294.5814, 26993.36
295.0635, 27056.81
295.5457, 27088.90
296.0278, 27067.98
296.5099, 27033.74
296.9920, 27012.45
297.4741, 27007.58
297.9562, 27007.95
298.4384, 26999.34
298.9205, 26976.51
299.4026, 26982.63
299.8847, 27059.56
300.3668, 27122.83
300.8489, 27130.65
301.3311, 27102.05
301.8131, 27080.52
302.2953, 27095.11
302.7774, 27139.35
303.2595, 27181.40
303.7416, 27227.85
304.2237, 27260.99
304.7058, 27272.01
305.1880, 27271.77
305.6701, 27269.77
306.1522, 27269.27
306.6343, 27273.01
307.1164, 27289.18
307.5985, 27324.47
308.0807, 27346.96
308.5628, 27319.85
309.0449, 27300.22
309.5270, 27332.49
310.0091, 27416.81
310.4912, 27504.94
310.9734, 27556.03
311.4555, 27572.78
311.9376, 27582.05
312.4197, 27580.15
312.9018, 27578.54
313.3839, 27579.37
313.8661, 27585.36
314.3482, 27604.51
314.8303, 27649.08
315.3124, 27705.23
315.7945, 27743.02
316.2766, 27756.80
316.7588, 27786.24
317.2409, 27875.65
317.7230, 27986.14
318.2051, 28049.59
318.6872, 28035.58
319.1693, 28012.48
319.6515, 28026.78
320.1336, 28074.14
320.6157, 28133.84
321.0978, 28195.34
321.5799, 28271.68
322.0620, 28398.12
322.5442, 28585.54
323.0263, 28743.57
323.5084, 28818.01
323.9905, 28861.57
324.4726, 28948.06
324.9547, 29090.04
325.4369, 29240.94
325.9190, 29356.13
326.4011, 29431.19
326.8832, 29512.61
327.3653, 29606.91
327.8474, 29701.69
328.3296, 29781.10
328.8117, 29854.05
329.2938, 29950.77
329.7759, 30093.64
330.2580, 30266.92
330.7401, 30394.53
331.2223, 30462.49
331.7044, 30502.03
332.1865, 30500.25
332.6686, 30478.96
333.1507, 30466.08
333.6328, 30468.52
334.1150, 30464.10
334.5971, 30416.16
335.0792, 30303.67
335.5613, 30204.56
336.0434, 30131.82
336.5255, 30059.52
337.0077, 29983.46
337.4898, 29897.73
337.9719, 29789.81
338.4540, 29647.07
338.9361, 29473.19
339.4182, 29300.12
339.9004, 29123.53
340.3825, 28956.61
340.8646, 28797.21
341.3467, 28649.65
341.8288, 28519.63
342.3109, 28408.79
342.7931, 28315.66
343.2752, 28245.06
343.7573, 28201.80
344.2394, 28144.64
344.7215, 28040.50
345.2036, 27937.82
345.6858, 27879.75
346.1679, 27867.23
346.6500, 27858.19
347.1321, 27820.06
347.6142, 27765.29
348.0963, 27727.38
348.5785, 27710.03
349.0606, 27708.53
349.5427, 27735.19
350.0248, 27776.89
350.5069, 27792.31
350.9890, 27747.26
351.4712, 27694.66
351.9533, 27681.41
352.4354, 27700.97
352.9175, 27718.59
353.3996, 27718.61
353.8817, 27705.88
354.3639, 27692.45
354.8460, 27680.64
355.3281, 27663.98
355.8102, 27637.79
356.2923, 27607.46
356.7744, 27578.53
357.2566, 27552.31
357.7387, 27529.57
358.2208, 27510.54
358.7029, 27494.23
359.1850, 27488.62
359.6671, 27506.61
360.1493, 27520.90
360.6314, 27518.65
361.1135, 27503.12
361.5956, 27480.53
362.0777, 27452.93
362.5598, 27426.11
363.0420, 27424.11
363.5241, 27482.96
364.0062, 27507.31
364.4883, 27456.20
364.9704, 27388.64
365.4525, 27355.61
365.9347, 27367.12
366.4168, 27394.55
366.8989, 27404.89
367.3810, 27396.58
367.8631, 27398.96
368.3452, 27418.96
368.8274, 27443.47
369.3095, 27472.21
369.7916, 27500.16
370.2737, 27515.56
370.7558, 27510.70
371.2379, 27492.00
371.7201, 27462.34
372.2022, 27418.41
372.6843, 27396.75
373.1664, 27426.56
373.6485, 27480.15
374.1306, 27512.69
374.6128, 27516.41
375.0949, 27522.40
375.5770, 27563.94
376.0591, 27616.13
376.5412, 27616.69
377.0233, 27546.64
377.5055, 27474.35
377.9876, 27474.62
378.4697, 27557.01
378.9518, 27618.29
379.4339, 27677.07
379.9160, 27696.52
380.3982, 27624.04
380.8803, 27490.67
381.3624, 27380.94
381.8445, 27341.17
382.3266, 27353.78
382.8087, 27365.61
383.2909, 27374.70
383.7730, 27385.55
384.2551, 27408.99
384.7372, 27427.30
385.2193, 27419.10
385.7014, 27385.23
386.1836, 27351.12
386.6657, 27345.36
387.1478, 27369.85
387.6299, 27386.86
388.1120, 27400.17
388.5941, 27400.25
389.0763, 27371.54
389.5584, 27331.05
390.0405, 27305.64
390.5226, 27307.81
391.0047, 27325.96
391.4868, 27344.56
391.9690, 27364.10
392.4511, 27378.69
392.9332, 27385.97
393.4153, 27387.92
393.8974, 27382.93
394.3795, 27371.32
394.8617, 27368.38
395.3438, 27392.14
395.8259, 27425.70
396.3080, 27437.96
396.7901, 27425.19
397.2722, 27410.27
397.7544, 27409.40
398.2365, 27419.87
398.7186, 27425.28
399.2007, 27437.31
399.6828, 27431.59
400.1649, 27370.99
400.6471, 27292.79
401.1292, 27267.80
401.6113, 27319.56
402.0934, 27398.10
402.5755, 27428.61
403.0576, 27388.69
403.5398, 27367.21
404.0219, 27384.01
404.5040, 27398.00
404.9861, 27387.37
405.4682, 27356.02
405.9503, 27316.97
406.4325, 27277.22
406.9146, 27238.70
407.3967, 27207.95
407.8788, 27181.71
408.3609, 27170.87
408.8430, 27184.70
409.3252, 27208.54
409.8073, 27237.21
410.2894, 27268.04
410.7715, 27286.94
411.2536, 27273.21
411.7357, 27234.46
412.2179, 27213.41
412.7000, 27221.28
413.1821, 27226.53
413.6642, 27190.71
414.1463, 27137.77
414.6284, 27119.85
415.1106, 27173.54
415.5927, 27231.69
416.0748, 27237.05
416.5569, 27205.78
417.0390, 27188.22
417.5211, 27202.35
418.0033, 27233.39
418.4854, 27261.46
418.9675, 27287.83
419.4496, 27305.08
419.9317, 27314.23
420.4138, 27312.88
420.8960, 27291.49
421.3781, 27256.98
421.8602, 27232.25
422.3423, 27234.47
422.8244, 27252.45
423.3065, 27234.17
423.7887, 27119.93
424.2708, 27064.82
424.7529, 27130.60
425.2350, 27225.28
425.7171, 27278.30
426.1992, 27278.11
426.6814, 27252.11
427.1635, 27222.46
427.6456, 27188.84
428.1277, 27145.05
428.6098, 27072.62
429.0919, 27026.33
429.5741, 27068.03
430.0562, 27144.12
430.5383, 27167.28
431.0204, 27090.80
431.5025, 27014.40
431.9846, 27045.55
432.4668, 27149.66
432.9489, 27194.56
433.4310, 27135.52
433.9131, 27046.51
434.3952, 27017.08
434.8773, 27055.11
435.3595, 27073.07
435.8416, 27050.23
436.3237, 27020.71
436.8058, 26993.99
437.2879, 26977.66
437.7701, 26994.19
438.2522, 27058.33
438.7343, 27140.62
439.2164, 27162.54
439.6985, 27070.25
440.1806, 27012.94
440.6628, 27014.81
441.1449, 27030.26
441.6270, 27032.39
442.1091, 27020.19
442.5912, 27004.30
443.0733, 26988.76
443.5555, 26977.38
444.0376, 26991.07
444.5197, 27045.02
445.0018, 27081.31
445.4839, 27054.06
445.9660, 27010.46
446.4482, 27002.16
446.9303, 27040.76
447.4124, 27072.39
447.8945, 27057.55
448.3766, 27013.63
448.8587, 26976.66
449.3409, 26951.64
449.8230, 26927.27
450.3051, 26892.15
450.7872, 26848.74
451.2693, 26820.08
451.7514, 26811.56
452.2336, 26810.23
452.7157, 26814.74
453.1978, 26822.94
453.6799, 26835.02
454.1620, 26850.13
454.6441, 26860.13
455.1263, 26852.60
455.6084, 26823.00
456.0905, 26801.84
456.5726, 26772.19
457.0547, 26770.05
457.5368, 26843.83
458.0190, 26943.82
458.5011, 26983.68
458.9832, 26919.07
459.4653, 26820.86
459.9474, 26799.91
460.4295, 26857.86
460.9117, 26883.19
461.3938, 26838.28
461.8759, 26777.02
462.3580, 26745.51
462.8401, 26739.53
463.3222, 26739.19
463.8044, 26737.40
464.2865, 26740.26
464.7686, 26757.39
465.2507, 26784.96
465.7328, 26807.97
466.2149, 26819.90
466.6971, 26823.94
467.1792, 26825.22
467.6613, 26816.87
468.1434, 26821.38
468.6255, 26858.91
469.1076, 26891.67
469.5898, 26890.47
470.0719, 26863.09
470.5540, 26837.77
471.0361, 26833.63
471.5182, 26839.81
472.0003, 26819.07
472.4825, 26753.09
472.9646, 26710.60
473.4467, 26736.82
473.9288, 26769.53
474.4109, 26760.75
474.8930, 26713.13
475.3752, 26676.41
475.8573, 26696.38
476.3394, 26738.55
476.8215, 26738.10
477.3036, 26693.24
477.7857, 26651.71
478.2679, 26637.85
478.7500, 26641.98
479.2321, 26642.73
479.7142, 26645.43
480.1963, 26633.21
480.6784, 26578.48
481.1606, 26523.80
481.6427, 26515.09
482.1248, 26549.26
482.6069, 26588.04
483.0890, 26603.72
483.5711, 26599.18
484.0533, 26589.39
484.5354, 26563.28
485.0175, 26550.73
485.4996, 26570.78
485.9817, 26593.96
486.4638, 26587.43
486.9460, 26552.85
487.4281, 26532.01
487.9102, 26575.66
488.3923, 26657.30
488.8744, 26695.15
489.3565, 26684.56
489.8387, 26650.91
490.3208, 26587.02
490.8029, 26518.46
491.2850, 26499.34
491.7671, 26548.17
492.2492, 26591.74
492.7314, 26608.79
493.2135, 26605.69
493.6956, 26582.09
494.1777, 26542.04
494.6598, 26503.29
495.1419, 26478.67
495.6241, 26467.44
496.1062, 26464.55
496.5883, 26477.50
497.0704, 26488.58
497.5525, 26513.57
498.0346, 26524.27
498.5168, 26480.40
498.9989, 26388.23
499.4810, 26309.83
499.9631, 26299.62
500.4452, 26343.90
500.9273, 26400.36
501.4095, 26478.29
501.8916, 26528.58
502.3737, 26520.93
502.8558, 26477.02
503.3379, 26431.27
503.8200, 26382.84
504.3022, 26339.31
504.7843, 26295.48
505.2664, 26262.82
505.7485, 26263.25
506.2306, 26293.33
506.7127, 26320.63
507.1949, 26321.88
507.6770, 26305.49
508.1591, 26308.77
508.6412, 26355.92
509.1233, 26387.47
509.6054, 26401.07
510.0876, 26398.29
510.5697, 26365.91
511.0518, 26314.08
511.5339, 26281.81
512.0161, 26308.18
512.4982, 26367.14
512.9803, 26383.55
513.4624, 26350.15
513.9445, 26317.36
514.4266, 26302.82
514.9088, 26297.17
515.3909, 26288.43
515.8730, 26276.50
516.3551, 26263.06
516.8372, 26242.19
517.3193, 26224.77
517.8015, 26229.37
518.2836, 26248.76
518.7657, 26249.56
519.2478, 26211.60
519.7299, 26155.71
520.2120, 26133.31
520.6942, 26172.19
521.1763, 26191.53
521.6584, 26178.72
522.1405, 26160.62
522.6226, 26153.27
523.1047, 26152.59
523.5869, 26144.65
524.0690, 26120.07
524.5511, 26089.18
525.0332, 26065.53
525.5153, 26049.17
525.9974, 26050.00
526.4796, 26080.41
526.9617, 26112.41
527.4438, 26112.61
527.9259, 26084.93
528.4080, 26059.02
528.8901, 26027.87
529.3723, 26010.53
529.8544, 26029.73
530.3365, 26068.68
530.8186, 26098.08
531.3007, 26107.60
531.7828, 26097.93
532.2650, 26067.14
532.7471, 26010.26
533.2292, 25962.10
533.7113, 25908.40
534.1934, 25881.46
534.6755, 25909.14
535.1577, 25961.91
535.6398, 26000.44
536.1219, 26013.08
536.6040, 26015.67
537.0861, 26018.01
537.5682, 26021.95
538.0504, 26039.28
538.5325, 26074.76
539.0146, 26097.28
539.4967, 26084.42
539.9788, 26039.92
540.4609, 25984.52
540.9431, 25893.67
541.4252, 25825.88
541.9073, 25800.26
542.3894, 25798.16
542.8715, 25811.65
543.3536, 25833.18
543.8358, 25843.29
544.3179, 25823.39
544.8000, 25782.62
545.2821, 25762.49
545.7642, 25770.85
546.2463, 25778.55
546.7285, 25787.15
547.2106, 25785.28
547.6927, 25750.64
548.1748, 25688.22
548.6569, 25652.86
549.1390, 25697.93
549.6211, 25761.45
550.1032, 25773.68
550.5853, 25742.52
551.0674, 25706.93
551.5496, 25681.54
552.0317, 25661.70
552.5138, 25639.30
552.9959, 25611.37
553.4780, 25591.04
553.9601, 25571.59
554.4423, 25565.53
554.9244, 25598.33
555.4065, 25641.51
555.8886, 25647.16
556.3707, 25596.92
556.8528, 25529.44
557.3350, 25476.47
557.8171, 25441.95
558.2992, 25471.52
558.7813, 25593.33
559.2634, 25703.32
559.7455, 25730.10
560.2277, 25691.21
560.7098, 25651.16
561.1919, 25605.56
561.6740, 25567.26
562.1561, 25543.84
562.6382, 25527.56
563.1204, 25507.53
563.6025, 25484.83
564.0846, 25472.84
564.5667, 25483.86
565.0488, 25508.44
565.5309, 25507.54
566.0131, 25469.67
566.4952, 25435.28
566.9773, 25401.90
567.4594, 25382.09
567.9415, 25397.64
568.4236, 25438.33
568.9058, 25458.17
569.3879, 25424.02
569.8700, 25372.98
570.3521, 25336.97
570.8342, 25315.07
571.3163, 25308.13
571.7985, 25317.78
572.2806, 25327.87
572.7627, 25316.35
573.2448, 25278.69
573.7269, 25262.40
574.2090, 25267.56
574.6912, 25292.59
575.1733, 25365.73
575.6554, 25443.60
576.1375, 25477.81
576.6196, 25458.46
577.1017, 25412.85
577.5839, 25347.57
578.0660, 25276.02
578.5481, 25250.61
579.0302, 25277.31
579.5123, 25304.68
579.9944, 25312.96
580.4766, 25305.17
580.9587, 25281.59
581.4408, 25234.49
581.9229, 25205.41
582.4050, 25202.07
582.8871, 25216.85
583.3693, 25272.02
583.8514, 25337.87
584.3335, 25348.43
584.8156, 25272.83
585.2977, 25160.21
585.7798, 25081.76
586.2620, 25038.16
586.7441, 25027.20
587.2262, 25066.99
587.7083, 25109.42
588.1904, 25137.05
588.6725, 25146.77
589.1547, 25126.34
589.6368, 25058.64
590.1189, 25001.87
590.6010, 24996.30
591.0831, 25010.68
591.5652, 25001.69
592.0474, 24969.52
592.5295, 24943.83
593.0116, 24944.60
593.4937, 24965.09
593.9758, 24987.23
594.4579, 25020.82
594.9401, 25032.48
595.4222, 24996.98
595.9043, 24959.03
596.3864, 24940.53
596.8685, 24937.40
597.3506, 24935.35
597.8328, 24924.33
598.3149, 24922.28
598.7970, 24958.97
599.2791, 25016.18
599.7612, 25046.79
600.2433, 25041.78
600.7255, 25015.14
601.2076, 24972.94
601.6897, 24920.01
602.1718, 24896.22
602.6539, 24928.89
603.1360, 24954.28
603.6182, 24968.74
604.1003, 24973.49
604.5824, 24970.68
605.0645, 24959.36
605.5466, 24934.51
606.0287, 24886.88
606.5109, 24832.74
606.9930, 24789.72
607.4751, 24759.52
607.9572, 24764.00
608.4393, 24817.77
608.9214, 24870.97
609.4036, 24869.06
609.8857, 24811.70
610.3678, 24777.47
610.8499, 24786.92
611.3320, 24791.23
611.8141, 24770.64
612.2963, 24744.86
612.7784, 24739.91
613.2605, 24754.17
613.7426, 24758.96
614.2247, 24728.12
614.7068, 24676.18
615.1890, 24633.88
615.6711, 24600.66
616.1532, 24592.69
616.6353, 24623.05
617.1174, 24665.69
617.5995, 24696.63
618.0817, 24715.64
618.5638, 24712.82
619.0459, 24663.46
619.5280, 24620.37
620.0101, 24607.12
620.4922, 24610.04
620.9744, 24620.07
621.4565, 24630.29
621.9386, 24618.64
622.4207, 24548.14
622.9028, 24447.19
623.3849, 24446.83
623.8671, 24571.23
624.3492, 24652.79
624.8313, 24624.80
625.3134, 24551.19
625.7955, 24501.15
626.2776, 24473.16
626.7598, 24455.42
627.2419, 24447.44
627.7240, 24448.29
628.2061, 24470.35
628.6882, 24495.87
629.1703, 24494.29
629.6525, 24461.63
630.1346, 24426.11
630.6167, 24418.30
631.0988, 24430.95
631.5809, 24420.03
632.0630, 24377.52
632.5452, 24342.55
633.0273, 24327.31
633.5094, 24324.31
633.9915, 24332.04
634.4736, 24349.37
634.9557, 24347.42
635.4379, 24294.90
635.9200, 24248.65
636.4021, 24238.76
636.8842, 24256.76
637.3663, 24297.35
637.8484, 24354.57
638.3306, 24405.19
638.8127, 24428.82
639.2948, 24425.11
639.7769, 24382.16
640.2590, 24280.75
640.7411, 24207.97
641.2233, 24194.51
641.7054, 24215.29
642.1875, 24264.03
642.6696, 24335.25
643.1517, 24352.50
643.6339, 24236.18
644.1160, 24130.25
644.5981, 24135.92
645.0802, 24194.27
645.5623, 24213.13
646.0444, 24174.30
646.5266, 24122.05
647.0087, 24097.23
647.4908, 24093.67
647.9729, 24081.04
648.4550, 24055.69
648.9371, 24036.44
649.4193, 24030.11
649.9014, 24029.41
650.3835, 24028.06
650.8656, 24026.14
651.3477, 24024.09
651.8298, 24026.82
652.3120, 24023.95
652.7941, 24004.38
653.2762, 23979.30
653.7583, 23971.74
654.2404, 23979.69
654.7225, 23966.93
655.2047, 23894.85
655.6868, 23792.46
656.1689, 23762.89
656.6510, 23817.79
657.1331, 23876.45
657.6152, 23932.67
658.0974, 23972.80
658.5795, 23979.87
659.0616, 23958.84
659.5437, 23929.14
660.0258, 23878.38
660.5079, 23836.70
660.9901, 23821.35
661.4722, 23815.67
661.9543, 23805.46
662.4364, 23787.36
662.9185, 23757.62
663.4006, 23709.75
663.8828, 23660.31
664.3649, 23649.27
664.8470, 23677.89
665.3291, 23703.78
665.8112, 23721.89
666.2933, 23733.06
666.7755, 23736.14
667.2576, 23732.55
667.7397, 23729.69
668.2218, 23736.37
668.7039, 23729.60
669.1860, 23686.14
669.6682, 23643.07
670.1503, 23633.83
670.6324, 23650.67
671.1145, 23666.22
671.5966, 23667.39
672.0787, 23658.55
672.5609, 23638.26
673.0430, 23610.45
673.5251, 23609.48
674.0072, 23644.37
674.4893, 23670.24
674.9714, 23653.82
675.4536, 23615.57
675.9357, 23610.30
676.4178, 23660.45
676.8999, 23694.57
677.3820, 23702.33
677.8641, 23702.42
678.3463, 23702.38
678.8284, 23702.08
679.3105, 23701.93
679.7926, 23702.04
680.2747, 23694.21
680.7568, 23652.39
