##NAMES=Gaspeite
##RRUFFID=R060366
##IDEAL CHEMISTRY=Ni^2+^CO_3_
##LOCALITY=Pilbara Region, Western Australia, Australia
##OWNER=RRUFF
##SOURCE=Herb Obodda
##DESCRIPTION=Green fine-grained massive coating
##STATUS=The identification of this mineral has been confirmed by X-ray diffraction and chemical analysis
##URL=rruff.info/R060366
##MEASURED CHEMISTRY=(Ni_0.67_Mg_0.30_Ca_0.02_Co_0.01_)_Î£=1_CO_3_
91.53320, 274.6400
92.01532, 283.6328
92.49744, 286.1877
92.97955, 283.0680
93.46167, 274.6360
93.94379, 265.9478
94.42590, 259.7340
94.90802, 254.3890
95.39014, 247.7202
95.87225, 239.8799
96.35437, 230.6821
96.83649, 218.9664
97.31860, 206.6487
97.80072, 195.7663
98.28284, 187.3007
98.76495, 180.5926
99.24707, 173.5214
99.72919, 164.8792
100.2113, 157.2392
100.6934, 151.5639
101.1755, 147.3018
101.6577, 143.4162
102.1398, 138.9453
102.6219, 133.7572
103.1040, 128.7146
103.5861, 123.6132
104.0682, 118.7162
104.5504, 114.0942
105.0325, 109.7878
105.5146, 105.8170
105.9967, 102.2612
106.4788, 99.20600
106.9609, 96.36014
107.4431, 93.70361
107.9252, 91.22417
108.4073, 88.91715
108.8894, 86.77358
109.3715, 84.81091
109.8536, 83.11075
110.3358, 81.70927
110.8179, 80.29002
111.3000, 78.51134
111.7821, 76.44041
112.2642, 74.75567
112.7463, 73.86814
113.2285, 73.43917
113.7106, 73.16429
114.1927, 73.03247
114.6748, 72.95090
115.1569, 72.76785
115.6390, 72.39708
116.1212, 72.14835
116.6033, 72.38429
117.0854, 72.67191
117.5675, 72.51204
118.0496, 71.59824
118.5317, 70.14036
119.0139, 69.15763
119.4960, 69.08615
119.9781, 69.08492
120.4602, 69.04936
120.9423, 68.97183
121.4244, 68.85610
121.9066, 68.69036
122.3887, 68.45802
122.8708, 68.42880
123.3529, 68.93489
123.8350, 69.30805
124.3171, 69.18185
124.7993, 68.56907
125.2814, 67.77207
125.7635, 67.08123
126.2456, 66.52846
126.7277, 65.91347
127.2098, 65.26360
127.6920, 64.53699
128.1741, 63.62256
128.6562, 62.46404
129.1383, 61.30474
129.6204, 60.50047
130.1025, 60.00452
130.5847, 59.52796
131.0668, 59.03889
131.5489, 58.49601
132.0310, 57.69126
132.5131, 56.22428
132.9952, 54.89180
133.4774, 54.45030
133.9595, 54.90228
134.4416, 55.49887
134.9237, 55.54056
135.4058, 54.93730
135.8879, 54.40859
136.3701, 54.07540
136.8522, 53.86928
137.3343, 53.79075
137.8164, 53.83486
138.2985, 53.94791
138.7806, 54.09444
139.2628, 54.55247
139.7449, 54.47469
140.2270, 53.58707
140.7091, 52.32194
141.1912, 50.98154
141.6733, 49.70967
142.1555, 48.55012
142.6376, 47.67982
143.1197, 47.23150
143.6018, 46.95222
144.0839, 46.90018
144.5660, 46.99409
145.0482, 47.15320
145.5303, 47.36020
146.0124, 47.56637
146.4945, 47.40349
146.9766, 46.63910
147.4587, 45.82671
147.9409, 45.17753
148.4230, 44.67781
148.9051, 44.21376
149.3872, 43.63869
149.8693, 43.05030
150.3514, 42.82606
150.8336, 43.33257
151.3157, 43.98515
151.7978, 44.28141
152.2799, 44.19242
152.7620, 43.88710
153.2441, 43.39289
153.7263, 42.77198
154.2084, 42.09270
154.6905, 41.17523
155.1726, 40.24675
155.6547, 39.89651
156.1368, 40.47683
156.6190, 41.01054
157.1011, 40.85536
157.5832, 40.27567
158.0653, 39.78947
158.5474, 39.85206
159.0295, 40.39516
159.5117, 40.48782
159.9938, 39.52129
160.4759, 38.68312
160.9580, 38.50627
161.4401, 38.83953
161.9222, 39.22470
162.4044, 39.21818
162.8865, 38.71404
163.3686, 38.44262
163.8507, 38.66336
164.3328, 38.87528
164.8149, 38.80994
165.2971, 38.48577
165.7792, 38.13200
166.2613, 38.03197
166.7434, 38.34420
167.2255, 38.44792
167.7076, 38.28794
168.1898, 37.99395
168.6719, 37.59949
169.1540, 37.12770
169.6361, 36.67369
170.1182, 36.36934
170.6003, 36.25294
171.0825, 36.22329
171.5646, 36.37508
172.0467, 36.57475
172.5288, 36.67380
173.0109, 36.62922
173.4930, 36.48516
173.9752, 36.24649
174.4573, 35.86465
174.9394, 35.65789
175.4215, 35.91160
175.9036, 36.40557
176.3857, 36.59751
176.8679, 36.20485
177.3500, 35.65813
177.8321, 35.56823
178.3142, 35.96609
178.7963, 36.37547
179.2784, 36.53614
179.7606, 36.46502
180.2427, 36.27233
180.7248, 35.86387
181.2069, 35.44916
181.6890, 35.22804
182.1711, 35.21978
182.6533, 35.26836
183.1354, 35.23714
183.6175, 35.12131
184.0996, 34.96440
184.5817, 34.75288
185.0638, 34.51438
185.5460, 34.22988
186.0281, 33.90025
186.5102, 33.60920
186.9923, 33.48840
187.4744, 33.60155
187.9565, 33.72254
188.4387, 33.94278
188.9208, 34.08987
189.4029, 33.94136
189.8850, 33.45146
190.3671, 32.88889
190.8492, 32.80795
191.3314, 33.75682
191.8135, 34.29241
192.2956, 34.04392
192.7777, 33.53718
193.2598, 33.27922
193.7419, 33.46226
194.2241, 33.84894
194.7062, 33.86684
195.1883, 32.97855
195.6704, 32.31968
196.1525, 31.95266
196.6346, 31.81637
197.1168, 31.86667
197.5989, 32.08949
198.0810, 32.43856
198.5631, 32.78904
199.0452, 33.32227
199.5273, 33.62621
200.0095, 33.41726
200.4916, 32.96441
200.9737, 32.76775
201.4558, 33.11176
201.9379, 33.71891
202.4200, 33.73320
202.9022, 32.78030
203.3843, 32.01392
203.8664, 31.98693
204.3485, 32.48041
204.8306, 32.87543
205.3127, 32.85883
205.7949, 32.64280
206.2770, 32.72470
206.7591, 33.26207
207.2412, 33.73400
207.7233, 33.74965
208.2054, 33.38645
208.6876, 33.13038
209.1697, 33.23245
209.6518, 33.50844
210.1339, 33.66284
210.6160, 33.65119
211.0981, 33.61412
211.5803, 33.67577
212.0624, 33.83630
212.5445, 33.98145
213.0266, 34.11056
213.5087, 34.17392
213.9908, 34.07014
214.4730, 33.74747
214.9551, 33.46268
215.4372, 33.58672
215.9193, 34.21421
216.4014, 34.66362
216.8836, 34.43068
217.3657, 34.12167
217.8478, 34.22782
218.3299, 34.87479
218.8120, 35.61832
219.2941, 35.78058
219.7763, 35.13248
220.2584, 34.65785
220.7405, 34.58892
221.2226, 34.70536
221.7047, 34.94891
222.1868, 35.28822
222.6690, 35.56669
223.1511, 35.48370
223.6332, 34.78582
224.1153, 34.30469
224.5974, 34.14795
225.0795, 34.17830
225.5617, 34.35853
226.0438, 34.66003
226.5259, 34.98897
227.0080, 35.20195
227.4901, 35.37345
227.9722, 35.25051
228.4544, 34.54472
228.9365, 33.75797
229.4186, 33.32176
229.9007, 33.34186
230.3828, 33.57169
230.8649, 33.57280
231.3471, 33.05138
231.8292, 32.77737
232.3113, 32.92536
232.7934, 33.19539
233.2755, 33.37923
233.7576, 33.40839
234.2398, 33.29227
234.7219, 33.03289
235.2040, 32.43478
235.6861, 32.05288
236.1682, 31.95816
236.6503, 32.03342
237.1325, 32.21139
237.6146, 32.46672
238.0967, 32.75099
238.5788, 33.00227
239.0609, 33.25491
239.5430, 33.36417
240.0252, 33.26113
240.5073, 33.04238
240.9894, 32.76236
241.4715, 32.43401
241.9536, 32.14367
242.4357, 32.02944
242.9179, 32.14762
243.4000, 32.19358
243.8821, 32.01252
244.3642, 31.80447
244.8463, 31.85227
245.3284, 32.22586
245.8106, 32.61819
246.2927, 32.65746
246.7748, 32.33714
247.2569, 31.93060
247.7390, 31.37977
248.2211, 30.80287
248.7033, 30.32767
249.1854, 29.97099
249.6675, 29.73010
250.1496, 29.68813
250.6317, 29.80472
251.1138, 29.78471
251.5960, 29.40199
252.0781, 28.91908
252.5602, 28.70695
253.0423, 28.83539
253.5244, 29.02955
254.0065, 29.15229
254.4887, 29.17147
254.9708, 28.93212
255.4529, 28.04200
255.9350, 27.01291
256.4171, 26.70816
256.8992, 27.32311
257.3813, 27.87700
257.8635, 27.34955
258.3456, 26.29987
258.8277, 25.67717
259.3098, 25.97162
259.7919, 26.70827
260.2740, 27.25666
260.7562, 27.60900
261.2383, 27.80492
261.7204, 27.64728
262.2025, 27.39847
262.6846, 27.42919
263.1667, 28.00189
263.6489, 28.70768
264.1310, 28.95899
264.6131, 28.68616
265.0952, 28.25971
265.5773, 27.62164
266.0594, 27.00283
266.5416, 26.65889
267.0237, 26.70210
267.5058, 26.92267
267.9879, 27.05134
268.4700, 27.07188
268.9521, 27.07461
269.4343, 27.07523
269.9164, 27.07792
270.3985, 27.10754
270.8806, 27.17707
271.3627, 27.20553
271.8448, 27.08451
272.3270, 26.79393
272.8091, 26.45467
273.2912, 25.87704
273.7733, 25.39996
274.2554, 25.31801
274.7375, 25.66667
275.2197, 26.11130
275.7018, 26.25690
276.1839, 26.04811
276.6660, 25.89715
277.1481, 25.93882
277.6302, 25.99624
278.1124, 25.99645
278.5945, 25.92878
279.0766, 25.80754
279.5587, 25.58010
280.0408, 25.20714
280.5229, 25.07776
281.0051, 25.34609
281.4872, 25.76763
281.9693, 26.43046
282.4514, 27.20682
282.9335, 27.75190
283.4156, 27.68829
283.8978, 27.00007
284.3799, 26.45380
284.8620, 25.99536
285.3441, 25.76301
285.8262, 25.97787
286.3083, 26.45942
286.7905, 26.83560
287.2726, 26.82885
287.7547, 26.47532
288.2368, 26.10717
288.7189, 25.57540
289.2010, 25.22256
289.6832, 25.26240
290.1653, 25.50986
290.6474, 25.65845
291.1295, 25.50002
291.6116, 25.16629
292.0938, 25.22814
292.5759, 26.12753
293.0580, 26.79252
293.5401, 26.95843
294.0222, 26.82535
294.5043, 26.59661
294.9865, 26.36023
295.4686, 26.11258
295.9507, 25.81161
296.4328, 25.24811
296.9149, 25.03552
297.3970, 25.56485
297.8792, 26.24427
298.3613, 26.51369
298.8434, 26.21833
299.3255, 25.68642
299.8076, 25.49319
300.2897, 25.89206
300.7719, 26.05197
301.2540, 25.63209
301.7361, 25.21665
302.2182, 25.29810
302.7003, 25.88795
303.1824, 26.50743
303.6646, 26.50913
304.1467, 25.62180
304.6288, 25.10409
305.1109, 25.14231
305.5930, 25.35787
306.0751, 25.68395
306.5573, 26.05289
307.0394, 26.34923
307.5215, 26.46127
308.0036, 26.37855
308.4857, 26.26657
308.9678, 25.91672
309.4500, 25.74552
309.9321, 26.04307
310.4142, 26.61326
310.8963, 27.03107
311.3784, 26.97194
311.8605, 26.53051
312.3427, 26.45955
312.8248, 27.20506
313.3069, 27.82018
313.7890, 28.10234
314.2711, 28.16672
314.7532, 28.16829
315.2354, 28.18182
315.7175, 28.18989
316.1996, 28.11865
316.6817, 27.73971
317.1638, 27.66770
317.6459, 28.16340
318.1281, 28.85232
318.6102, 29.41247
319.0923, 29.73954
319.5744, 29.92861
320.0565, 30.15332
320.5386, 30.51728
321.0208, 30.66271
321.5029, 30.26312
321.9850, 29.90818
322.4671, 30.05782
322.9492, 30.70741
323.4313, 31.43903
323.9135, 31.78727
324.3956, 31.66830
324.8777, 31.58158
325.3598, 31.34682
325.8419, 31.31087
326.3240, 31.76663
326.8062, 32.56350
327.2883, 33.28203
327.7704, 33.55728
328.2525, 33.42764
328.7346, 33.59520
329.2167, 34.36826
329.6989, 35.11079
330.1810, 35.74520
330.6631, 36.23609
331.1452, 36.49052
331.6273, 36.42571
332.1094, 36.20547
332.5916, 36.37867
333.0737, 37.30525
333.5558, 38.01063
334.0379, 38.34935
334.5200, 38.41936
335.0021, 38.28624
335.4843, 37.97569
335.9664, 37.51659
336.4485, 36.90423
336.9306, 36.01091
337.4127, 35.34691
337.8948, 35.00846
338.3770, 34.86223
338.8591, 35.04003
339.3412, 35.44225
339.8233, 35.60809
340.3055, 34.90174
340.7876, 33.19529
341.2697, 31.94287
341.7518, 31.51779
342.2339, 31.22453
342.7160, 30.85165
343.1982, 30.39439
343.6803, 29.88725
344.1624, 29.33346
344.6445, 28.75192
345.1266, 28.20912
345.6087, 27.55187
346.0909, 27.21441
346.5730, 27.68872
347.0551, 28.39269
347.5372, 28.56322
348.0193, 27.84661
348.5014, 26.61965
348.9836, 25.44296
349.4657, 24.19471
349.9478, 23.43265
350.4299, 23.70794
350.9120, 24.27788
351.3941, 24.65466
351.8763, 24.74268
352.3584, 24.68278
352.8405, 24.57285
353.3226, 24.40922
353.8047, 24.31470
354.2868, 24.33084
354.7690, 24.39971
355.2511, 24.55870
355.7332, 24.76086
356.2153, 24.82468
356.6974, 24.56680
357.1795, 24.06522
357.6617, 23.58727
358.1438, 23.05592
358.6259, 22.72936
359.1080, 22.92714
359.5901, 23.38144
360.0722, 23.67352
360.5544, 23.65635
361.0365, 23.41054
361.5186, 22.93708
362.0007, 22.18148
362.4828, 21.65903
362.9649, 21.76124
363.4471, 22.11150
363.9292, 22.24752
364.4113, 22.06694
364.8934, 21.92917
365.3755, 22.24613
365.8576, 22.90305
366.3398, 23.23225
366.8219, 22.95465
367.3040, 22.48821
367.7861, 22.25861
368.2682, 22.24535
368.7503, 22.29619
369.2325, 22.43291
369.7146, 22.57139
370.1967, 22.52222
370.6788, 22.23553
371.1609, 21.97540
371.6430, 22.00753
372.1252, 22.23609
372.6073, 22.33738
373.0894, 22.27187
373.5715, 22.06320
374.0536, 21.57382
374.5357, 20.88249
375.0179, 20.48495
375.5000, 20.71020
375.9821, 21.30764
376.4642, 21.69446
376.9463, 21.87845
377.4284, 21.87844
377.9106, 21.47821
378.3927, 20.94508
378.8748, 20.80333
379.3569, 21.22248
379.8390, 21.81386
380.3211, 22.07963
380.8033, 21.95562
381.2854, 21.85624
381.7675, 21.85238
382.2496, 21.85287
382.7317, 21.75532
383.2138, 21.57168
383.6960, 21.43855
384.1781, 21.48621
384.6602, 21.68931
385.1423, 21.67232
385.6244, 21.12229
386.1065, 20.74189
386.5887, 20.95295
387.0708, 21.45529
387.5529, 21.72377
388.0350, 21.52366
388.5171, 21.03061
388.9992, 20.62400
389.4814, 20.27868
389.9635, 20.08216
390.4456, 20.14487
390.9277, 20.28065
391.4098, 20.30076
391.8919, 20.20288
392.3741, 20.17437
392.8562, 20.45068
393.3383, 21.11663
393.8204, 21.43450
394.3025, 20.93714
394.7846, 20.60039
395.2668, 20.93096
395.7489, 21.64809
396.2310, 22.19537
396.7131, 22.23968
397.1952, 21.92004
397.6773, 21.72783
398.1595, 21.80209
398.6416, 21.77088
399.1237, 21.49815
399.6058, 21.16695
400.0879, 20.92240
400.5700, 20.80154
401.0522, 20.76178
401.5343, 20.77891
402.0164, 20.87601
402.4985, 20.88684
402.9806, 20.63095
403.4627, 20.45643
403.9449, 20.61467
404.4270, 20.98445
404.9091, 21.24169
405.3912, 21.14975
405.8733, 20.81802
406.3554, 20.60769
406.8376, 20.59674
407.3197, 20.50671
407.8018, 19.96107
408.2839, 19.40182
408.7660, 19.41352
409.2481, 20.23747
409.7303, 21.07278
410.2124, 20.94606
410.6945, 19.93553
411.1766, 19.29876
411.6587, 19.50099
412.1408, 19.90099
412.6230, 19.85711
413.1051, 19.43042
413.5872, 19.06534
414.0693, 18.98291
414.5514, 19.06359
415.0335, 19.12142
415.5157, 19.14227
415.9978, 19.18438
416.4799, 19.29039
416.9620, 19.44787
417.4441, 19.61384
417.9262, 19.84021
418.4084, 20.00384
418.8905, 19.96815
419.3726, 19.81280
419.8547, 19.79107
420.3368, 20.03396
420.8189, 20.28898
421.3011, 20.06506
421.7832, 19.16906
422.2653, 18.64409
422.7474, 18.86234
423.2295, 19.32047
423.7116, 19.64232
424.1938, 19.77954
424.6759, 19.77808
425.1580, 19.63456
425.6401, 19.36955
426.1222, 19.37243
426.6043, 19.99431
427.0865, 20.43324
427.5686, 20.32630
428.0507, 19.96888
428.5328, 19.81202
429.0149, 20.02347
429.4970, 20.37046
429.9792, 20.43385
430.4613, 20.04140
430.9434, 19.73255
431.4255, 19.51044
431.9076, 19.35111
432.3897, 19.22165
432.8719, 19.13785
433.3540, 19.16991
433.8361, 19.41304
434.3182, 19.81164
434.8003, 19.95038
435.2824, 19.67483
435.7646, 19.36134
436.2467, 19.01507
436.7288, 18.72574
437.2109, 18.62117
437.6930, 18.74318
438.1751, 18.93293
438.6573, 19.02318
439.1394, 19.01611
439.6215, 18.83533
440.1036, 18.15857
440.5857, 17.66500
441.0678, 17.92735
441.5500, 18.76690
442.0321, 19.49173
442.5142, 19.65593
442.9963, 19.52504
443.4784, 19.62557
443.9605, 20.00129
444.4427, 20.25963
444.9248, 20.11036
445.4069, 19.76582
445.8890, 19.61294
446.3711, 19.73111
446.8532, 19.86122
447.3354, 19.86129
447.8175, 19.77035
448.2996, 19.67535
448.7817, 19.59820
449.2638, 19.49904
449.7459, 19.30329
450.2281, 19.00293
450.7102, 18.85004
451.1923, 18.93126
451.6744, 19.09353
452.1565, 19.27482
452.6386, 19.46030
453.1208, 19.63963
453.6029, 19.81734
454.0850, 19.95568
454.5671, 19.94879
455.0492, 19.70490
455.5313, 19.42825
456.0135, 19.00745
456.4956, 18.63088
456.9777, 18.41549
457.4598, 18.39561
457.9419, 18.59270
458.4240, 19.07074
458.9062, 19.83554
459.3883, 20.40784
459.8704, 21.02795
460.3525, 21.14020
460.8346, 20.10500
461.3167, 18.68679
461.7989, 17.88004
462.2810, 18.06648
462.7631, 18.74570
463.2452, 19.20879
463.7273, 19.45123
464.2094, 19.48961
464.6916, 19.03910
465.1737, 18.65717
465.6558, 18.79170
466.1379, 19.30299
466.6200, 19.65618
467.1021, 19.48477
467.5843, 18.99970
468.0664, 18.56623
468.5485, 18.16436
469.0306, 17.96695
469.5127, 18.23431
469.9948, 18.64600
470.4770, 18.68468
470.9591, 18.25046
471.4412, 17.75678
471.9233, 17.25291
472.4054, 16.86661
472.8875, 16.91978
473.3697, 17.49081
473.8518, 18.16618
474.3339, 18.59874
474.8160, 18.77697
475.2981, 18.87949
475.7802, 19.00042
476.2624, 18.95059
476.7445, 18.36718
477.2266, 17.59542
477.7087, 17.37852
478.1908, 18.01861
478.6729, 19.00432
479.1551, 19.39776
479.6372, 18.85890
480.1193, 18.50638
480.6014, 18.39051
481.0835, 18.38676
481.5656, 18.48326
482.0478, 18.63530
482.5299, 18.75886
483.0120, 18.79552
483.4941, 18.76817
483.9762, 18.78020
484.4583, 18.93235
484.9405, 18.91063
485.4226, 18.41804
485.9047, 17.90162
486.3868, 17.78851
486.8689, 18.09888
487.3510, 18.40094
487.8332, 18.21331
488.3153, 17.67592
488.7974, 17.51345
489.2795, 17.87979
489.7616, 18.30658
490.2437, 18.57165
490.7259, 18.69772
491.2080, 18.66481
491.6901, 18.33524
492.1722, 18.11119
492.6543, 18.52901
493.1364, 19.29699
493.6186, 19.44700
494.1007, 18.61738
494.5828, 17.62491
495.0649, 17.44587
495.5470, 18.17720
496.0291, 18.72175
496.5113, 19.01783
496.9934, 19.14597
497.4755, 19.13893
497.9576, 19.00280
498.4397, 18.68774
498.9218, 18.15719
499.4040, 17.57588
499.8861, 17.34213
500.3682, 17.82354
500.8503, 17.97467
501.3324, 17.42664
501.8145, 16.90241
502.2967, 16.93435
502.7788, 17.41002
503.2609, 17.84433
503.7430, 17.89800
504.2251, 17.65535
504.7072, 17.40897
505.1894, 17.06561
505.6715, 16.93608
506.1536, 17.35494
506.6357, 17.84559
507.1178, 18.00826
507.5999, 17.80322
508.0821, 17.52950
508.5642, 17.31377
509.0463, 17.20113
509.5284, 17.40737
510.0105, 18.03702
510.4926, 18.57094
510.9748, 18.61837
511.4569, 18.35419
511.9390, 18.22557
512.4211, 18.40096
512.9032, 18.44482
513.3853, 17.97855
513.8674, 17.28241
514.3495, 16.83638
514.8317, 16.74445
515.3138, 16.86527
515.7959, 17.08162
516.2780, 17.40461
516.7601, 17.66208
517.2422, 17.89014
517.7244, 18.02545
518.2065, 18.01950
518.6886, 17.91685
519.1707, 17.76854
519.6528, 17.59605
520.1349, 17.41292
520.6171, 17.22124
521.0992, 16.98449
521.5813, 16.88897
522.0634, 17.03744
522.5455, 17.23440
523.0276, 17.54303
523.5098, 17.82950
523.9919, 17.82406
524.4740, 17.34548
524.9561, 16.70691
525.4382, 16.35058
525.9203, 16.28238
526.4025, 16.29264
526.8846, 16.35690
527.3667, 16.45693
527.8488, 16.61571
528.3309, 16.81392
528.8130, 16.91460
529.2952, 16.73178
529.7773, 16.54572
530.2594, 16.70841
530.7415, 17.13056
531.2236, 17.35576
531.7057, 17.14151
532.1879, 16.74486
532.6700, 16.67432
533.1521, 17.15532
533.6342, 17.45451
534.1163, 17.41982
534.5984, 17.31783
535.0806, 17.30663
535.5627, 17.38119
536.0448, 17.47431
536.5269, 17.54508
537.0090, 17.60215
537.4911, 17.65563
537.9733, 17.63899
538.4554, 17.77205
538.9375, 18.38333
539.4196, 18.89640
539.9017, 18.92694
540.3839, 18.50898
540.8660, 17.91635
541.3481, 17.10712
541.8302, 16.36124
542.3123, 16.47988
542.7944, 17.58531
543.2766, 18.47938
543.7587, 18.67908
544.2408, 18.42144
544.7229, 17.95316
545.2050, 17.20198
545.6871, 16.85398
546.1693, 17.45972
546.6514, 18.39203
547.1335, 19.05364
547.6156, 19.38872
548.0977, 19.43789
548.5798, 19.18306
549.0620, 18.72567
549.5441, 18.41038
550.0262, 18.30818
550.5083, 18.26583
550.9904, 18.33212
551.4725, 18.42076
551.9547, 18.52608
552.4368, 18.60261
552.9189, 18.50492
553.4010, 18.06235
553.8831, 17.43335
554.3652, 17.32633
554.8474, 18.01286
555.3295, 18.53625
555.8116, 18.52584
556.2937, 18.35057
556.7758, 18.26916
557.2579, 18.29262
557.7401, 18.25868
558.2222, 17.98331
558.7043, 17.62501
559.1864, 17.48376
559.6685, 17.56900
560.1506, 17.65224
560.6328, 17.61294
561.1149, 17.51348
561.5970, 17.51001
562.0791, 17.66340
562.5612, 17.70362
563.0433, 17.48894
563.5255, 17.21107
564.0076, 16.97727
564.4897, 16.82384
564.9718, 16.82185
565.4539, 17.03422
565.9360, 17.37413
566.4182, 17.54419
566.9003, 17.46597
567.3824, 17.36209
567.8645, 17.11746
568.3466, 16.96430
568.8287, 17.19055
569.3109, 17.67008
569.7930, 17.92918
570.2751, 17.56983
570.7572, 16.91656
571.2393, 16.68924
571.7214, 16.92459
572.2036, 17.14078
572.6857, 17.17367
573.1678, 17.13713
573.6499, 17.20233
574.1320, 17.36607
574.6141, 17.39671
575.0963, 17.15856
575.5784, 16.81914
576.0605, 16.36335
576.5426, 15.91109
577.0247, 15.93221
577.5068, 16.69743
577.9890, 17.66961
578.4711, 17.77652
578.9532, 16.37919
579.4353, 15.75484
579.9174, 16.52605
580.3995, 17.34601
580.8817, 17.57086
581.3638, 17.36052
581.8459, 17.09442
582.3280, 16.94372
582.8101, 16.87214
583.2922, 16.84589
583.7744, 16.87268
584.2565, 16.81821
584.7386, 16.58500
585.2207, 16.38079
585.7029, 16.36177
586.1850, 16.48154
586.6671, 16.63910
587.1492, 16.90817
587.6313, 17.07690
588.1135, 16.83550
