##NAMES=Gaspeite
##RRUFFID=R040157
##IDEAL CHEMISTRY=Ni^2+^CO_3_
##LOCALITY=Lemieux Township, Gaspe Nord County, Gaspe Peninsula, Quebec, Canada
##OWNER=RRUFF
##SOURCE=University of Arizona Mineral Museum
##DESCRIPTION=Green massive
##STATUS=The identification of this mineral has been confirmed by X-ray diffraction and chemical analysis
##URL=rruff.info/R040157
##MEASURED CHEMISTRY=(Ni_0.54_Mg_0.31_Fe_0.15_Ca_0.01_Co_0.01_)C_1.00_O_3_; = the gray bands. Light grey bands are also gaspeite: (Ni_0.57_Mg_0.41_Fe_0.08_)C_0.97_O_3_; Dark grey bands, magnesite: (Mg_0.98_Fe_0.04_Ni_0.03_)C_0.97_O_3_
161.7148, 36442.55
162.1969, 36548.19
162.6790, 36663.04
163.1611, 36792.60
163.6432, 36950.87
164.1253, 37115.81
164.6075, 37275.62
165.0896, 37429.87
165.5717, 37586.24
166.0538, 37753.84
166.5359, 37925.52
167.0180, 38091.47
167.5002, 38244.25
167.9823, 38393.32
168.4644, 38544.99
168.9465, 38699.62
169.4286, 38857.63
169.9107, 39036.29
170.3929, 39218.57
170.8750, 39373.19
171.3571, 39448.25
171.8392, 39501.19
172.3213, 39598.66
172.8034, 39757.60
173.2856, 39929.30
173.7677, 40069.46
174.2498, 40184.90
174.7319, 40296.56
175.2140, 40423.15
175.6961, 40552.83
176.1783, 40666.04
176.6604, 40754.80
177.1425, 40831.66
177.6246, 40909.32
178.1067, 40987.00
178.5888, 41065.06
179.0710, 41133.48
179.5531, 41201.27
180.0352, 41290.59
180.5173, 41417.24
180.9994, 41556.16
181.4815, 41660.26
181.9637, 41731.32
182.4458, 41796.59
182.9279, 41882.89
183.4100, 41984.30
183.8921, 42077.86
184.3742, 42142.03
184.8564, 42200.89
185.3385, 42317.66
185.8206, 42497.03
186.3027, 42689.70
186.7848, 42857.47
187.2669, 42999.59
187.7491, 43116.48
188.2312, 43200.25
188.7133, 43258.25
189.1954, 43317.45
189.6775, 43377.28
190.1596, 43439.31
190.6418, 43519.68
191.1239, 43616.71
191.6060, 43680.64
192.0881, 43666.07
192.5702, 43586.40
193.0524, 43557.48
193.5345, 43580.56
194.0166, 43650.62
194.4987, 43785.19
194.9808, 43990.63
195.4629, 44165.27
195.9451, 44240.98
196.4272, 44221.21
196.9093, 44235.41
197.3914, 44293.52
197.8735, 44376.43
198.3556, 44449.26
198.8378, 44510.22
199.3199, 44570.91
199.8020, 44633.97
200.2841, 44698.06
200.7662, 44777.46
201.2483, 44876.06
201.7305, 44987.59
202.2126, 45098.47
202.6947, 45209.66
203.1768, 45316.62
203.6589, 45415.04
204.1410, 45502.30
204.6232, 45594.42
205.1053, 45696.23
205.5874, 45802.24
206.0695, 45888.90
206.5516, 45946.09
207.0337, 46010.56
207.5159, 46111.70
207.9980, 46255.15
208.4801, 46400.48
208.9622, 46547.04
209.4443, 46691.55
209.9264, 46811.47
210.4086, 46891.37
210.8907, 46978.17
211.3728, 47112.61
211.8549, 47312.82
212.3370, 47503.68
212.8191, 47679.89
213.3013, 47838.99
213.7834, 47964.11
214.2655, 48029.36
214.7476, 48102.79
215.2297, 48249.48
215.7118, 48500.98
216.1940, 48742.51
216.6761, 48951.65
217.1582, 49130.73
217.6403, 49316.30
218.1224, 49525.96
218.6045, 49715.86
219.0867, 49831.83
219.5688, 49829.07
220.0509, 49857.30
220.5330, 49954.65
221.0151, 50124.13
221.4972, 50279.45
221.9794, 50430.46
222.4615, 50557.96
222.9436, 50638.84
223.4257, 50652.06
223.9078, 50662.50
224.3899, 50687.90
224.8721, 50731.39
225.3542, 50752.58
225.8363, 50745.59
226.3184, 50722.15
226.8005, 50700.19
227.2827, 50700.44
227.7648, 50661.48
228.2469, 50558.23
228.7290, 50380.70
229.2111, 50220.25
229.6932, 50084.19
230.1754, 49961.18
230.6575, 49835.05
231.1396, 49705.43
231.6217, 49574.15
232.1038, 49434.67
232.5859, 49277.69
233.0681, 49165.57
233.5502, 49117.66
234.0323, 49100.89
234.5144, 49063.99
234.9965, 48983.42
235.4786, 48922.84
235.9608, 48900.68
236.4429, 48919.63
236.9250, 48969.08
237.4071, 49075.86
237.8892, 49196.11
238.3713, 49254.57
238.8535, 49208.64
239.3356, 49172.35
239.8177, 49185.48
240.2998, 49264.02
240.7819, 49331.00
241.2640, 49384.32
241.7462, 49428.34
242.2283, 49469.34
242.7104, 49500.26
243.1925, 49540.23
243.6746, 49603.09
244.1567, 49708.93
244.6389, 49763.45
245.1210, 49730.61
245.6031, 49667.83
246.0852, 49683.90
246.5673, 49829.96
247.0494, 49967.98
247.5316, 50049.76
248.0137, 50063.92
248.4958, 50053.34
248.9779, 49984.79
249.4600, 49910.40
249.9421, 49938.00
250.4243, 50125.79
250.9064, 50311.66
251.3885, 50438.07
251.8706, 50494.85
252.3527, 50520.32
252.8348, 50488.02
253.3170, 50440.70
253.7991, 50469.78
254.2812, 50622.36
254.7633, 50760.39
255.2454, 50826.81
255.7275, 50797.96
256.2097, 50781.17
256.6918, 50772.88
257.1739, 50779.23
257.6560, 50813.63
258.1381, 50883.73
258.6202, 50966.68
259.1024, 51060.59
259.5845, 51173.56
260.0666, 51258.49
260.5487, 51306.66
261.0308, 51333.17
261.5129, 51365.77
261.9951, 51402.96
262.4772, 51449.44
262.9593, 51513.18
263.4414, 51604.95
263.9235, 51661.91
264.4056, 51672.24
264.8878, 51659.33
265.3699, 51664.77
265.8520, 51693.66
266.3341, 51726.32
266.8162, 51751.04
267.2983, 51762.14
267.7805, 51804.46
268.2626, 51890.19
268.7447, 51993.25
269.2268, 52067.57
269.7089, 52106.72
270.1910, 52139.85
270.6732, 52178.09
271.1553, 52221.98
271.6374, 52265.91
272.1195, 52313.20
272.6016, 52355.73
273.0837, 52371.84
273.5659, 52353.67
274.0480, 52349.38
274.5301, 52380.21
275.0122, 52447.20
275.4943, 52520.52
275.9764, 52602.74
276.4586, 52686.45
276.9407, 52761.88
277.4228, 52828.08
277.9049, 52886.82
278.3870, 52939.56
278.8691, 52985.99
279.3513, 53012.56
279.8334, 53011.56
280.3155, 53010.55
280.7976, 53052.82
281.2798, 53139.91
281.7619, 53226.29
282.2440, 53296.70
282.7261, 53352.06
283.2082, 53396.34
283.6903, 53427.05
284.1725, 53455.85
284.6546, 53500.11
285.1367, 53558.76
285.6188, 53613.15
286.1009, 53652.46
286.5830, 53681.73
287.0652, 53724.48
287.5473, 53781.92
288.0294, 53843.30
288.5115, 53893.98
288.9936, 53936.09
289.4757, 53986.18
289.9579, 54064.75
290.4400, 54151.90
290.9221, 54182.23
291.4042, 54151.43
291.8863, 54117.85
292.3684, 54137.20
292.8506, 54203.45
293.3327, 54292.70
293.8148, 54418.74
294.2969, 54551.39
294.7790, 54624.20
295.2611, 54637.25
295.7433, 54642.37
296.2254, 54701.36
296.7075, 54790.76
297.1896, 54840.20
297.6717, 54807.77
298.1538, 54745.16
298.6360, 54722.58
299.1181, 54739.10
299.6002, 54786.17
300.0823, 54873.56
300.5644, 54985.37
301.0465, 55094.02
301.5287, 55198.95
302.0108, 55289.35
302.4929, 55349.45
302.9750, 55381.84
303.4571, 55398.13
303.9392, 55385.78
304.4214, 55368.41
304.9035, 55378.32
305.3856, 55426.96
305.8677, 55498.56
306.3498, 55590.91
306.8319, 55697.39
307.3141, 55796.71
307.7962, 55865.20
308.2783, 55924.18
308.7604, 55999.82
309.2425, 56108.52
309.7246, 56206.34
310.2068, 56245.41
310.6889, 56249.39
311.1710, 56280.11
311.6531, 56367.96
312.1352, 56493.66
312.6173, 56655.82
313.0995, 56876.34
313.5816, 57062.76
314.0637, 57122.34
314.5458, 57121.30
315.0279, 57184.66
315.5100, 57446.48
315.9922, 57720.36
316.4743, 57890.86
316.9564, 57912.20
317.4385, 57965.02
317.9206, 58120.42
318.4027, 58340.30
318.8849, 58571.48
319.3670, 58798.98
319.8491, 59035.98
320.3312, 59285.13
320.8133, 59546.51
321.2954, 59827.01
321.7776, 60123.07
322.2597, 60442.54
322.7418, 60793.80
323.2239, 61209.62
323.7060, 61625.82
324.1881, 62031.13
324.6703, 62425.41
325.1524, 62806.30
325.6345, 63159.27
326.1166, 63502.02
326.5987, 63851.49
327.0808, 64173.11
327.5630, 64542.55
328.0451, 64998.33
328.5272, 65533.98
329.0093, 66014.57
329.4914, 66448.13
329.9735, 66809.03
330.4557, 67071.28
330.9378, 67174.46
331.4199, 67286.82
331.9020, 67445.27
332.3841, 67627.52
332.8662, 67723.55
333.3484, 67715.77
333.8305, 67646.92
334.3126, 67537.30
334.7947, 67387.23
335.2768, 67197.41
335.7589, 66960.38
336.2411, 66688.10
336.7232, 66404.92
337.2053, 66116.76
337.6874, 65805.97
338.1695, 65457.31
338.6516, 65070.63
339.1338, 64670.66
339.6159, 64257.36
340.0980, 63836.89
340.5801, 63419.22
341.0622, 62995.49
341.5443, 62611.70
342.0265, 62290.12
342.5086, 62026.85
342.9907, 61751.05
343.4728, 61457.88
343.9549, 61180.36
344.4370, 60976.41
344.9192, 60839.50
345.4013, 60695.83
345.8834, 60501.08
346.3655, 60288.28
346.8476, 60162.68
347.3297, 60126.73
347.8119, 60116.81
348.2940, 60074.04
348.7761, 60009.93
349.2582, 59960.63
349.7403, 59940.49
350.2225, 59934.29
350.7046, 59926.01
351.1867, 59914.60
351.6688, 59892.33
352.1509, 59839.42
352.6331, 59775.68
353.1152, 59730.54
353.5973, 59711.40
354.0794, 59710.76
354.5615, 59725.20
355.0436, 59753.34
355.5258, 59790.92
356.0079, 59857.49
356.4900, 59920.39
356.9721, 59945.40
357.4542, 59916.00
357.9363, 59887.00
358.4185, 59886.17
358.9006, 59906.86
359.3827, 59937.63
359.8648, 59983.03
360.3469, 60030.20
360.8290, 60073.72
361.3112, 60113.55
361.7933, 60147.21
362.2754, 60156.75
362.7575, 60166.38
363.2396, 60202.61
363.7217, 60320.27
364.2039, 60415.79
364.6860, 60456.95
365.1681, 60442.68
365.6502, 60420.54
366.1323, 60365.77
366.6144, 60322.87
367.0966, 60322.84
367.5787, 60400.18
368.0608, 60479.89
368.5429, 60575.20
369.0250, 60675.13
369.5071, 60717.79
369.9893, 60651.15
370.4714, 60587.63
370.9535, 60585.87
371.4356, 60684.20
371.9177, 60756.50
372.3998, 60794.28
372.8820, 60808.85
373.3641, 60820.94
373.8462, 60824.09
374.3283, 60841.68
374.8104, 60888.63
375.2925, 60969.25
375.7747, 61033.18
376.2568, 61079.21
376.7389, 61112.05
377.2210, 61128.68
377.7031, 61126.52
378.1852, 61147.44
378.6674, 61219.05
379.1495, 61323.24
379.6316, 61375.89
380.1137, 61371.28
380.5958, 61362.88
381.0779, 61406.79
381.5601, 61492.98
382.0422, 61569.01
382.5243, 61625.63
383.0064, 61665.37
383.4885, 61685.29
383.9706, 61688.35
384.4528, 61695.02
384.9349, 61720.96
385.4170, 61759.29
385.8991, 61803.75
386.3812, 61859.72
386.8633, 61902.36
387.3455, 61885.16
387.8276, 61835.81
388.3097, 61817.63
388.7918, 61894.57
389.2739, 61995.32
389.7560, 62062.31
390.2382, 62089.03
390.7203, 62107.23
391.2024, 62128.91
391.6845, 62153.11
392.1666, 62179.03
392.6487, 62209.79
393.1309, 62238.89
393.6130, 62266.38
394.0951, 62291.59
394.5772, 62306.33
395.0593, 62276.44
395.5414, 62255.72
396.0236, 62278.25
396.5057, 62385.22
396.9878, 62492.59
397.4699, 62619.68
397.9520, 62744.89
398.4341, 62798.60
398.9163, 62709.43
399.3984, 62622.45
399.8805, 62586.76
400.3626, 62608.09
400.8447, 62670.41
401.3268, 62815.89
401.8090, 62971.08
402.2911, 63020.05
402.7732, 62909.39
403.2553, 62832.25
403.7374, 62852.16
404.2195, 62962.20
404.7017, 63033.86
405.1838, 63058.16
405.6659, 63068.73
406.1480, 63098.32
406.6301, 63147.49
407.1122, 63184.74
407.5944, 63198.91
408.0765, 63203.77
408.5586, 63236.47
409.0407, 63296.56
409.5228, 63354.27
410.0049, 63385.97
410.4871, 63399.52
410.9692, 63415.34
411.4513, 63434.06
411.9334, 63461.08
412.4155, 63512.55
412.8976, 63579.48
413.3798, 63634.22
413.8619, 63661.45
414.3440, 63672.82
414.8261, 63668.09
415.3082, 63647.93
415.7903, 63654.16
416.2725, 63743.36
416.7546, 63863.01
417.2367, 63955.78
417.7188, 63994.09
418.2009, 64009.97
418.6830, 63996.91
419.1652, 63967.36
419.6473, 63967.54
420.1294, 64048.55
420.6115, 64136.98
421.0937, 64191.30
421.5758, 64184.52
422.0579, 64187.89
422.5400, 64229.99
423.0221, 64283.77
423.5042, 64304.73
423.9864, 64227.79
424.4685, 64189.54
424.9506, 64232.32
425.4327, 64363.43
425.9148, 64477.36
426.3969, 64578.44
426.8791, 64657.44
427.3612, 64699.84
427.8433, 64691.19
428.3254, 64692.78
428.8075, 64719.80
429.2896, 64760.07
429.7718, 64763.80
430.2539, 64722.02
430.7360, 64690.93
431.2181, 64705.93
431.7002, 64764.69
432.1823, 64841.88
432.6645, 64944.99
433.1466, 65037.59
433.6287, 65045.52
434.1108, 64988.02
434.5929, 64962.59
435.0750, 65043.64
435.5572, 65167.24
436.0393, 65199.99
436.5214, 65147.13
437.0035, 65119.92
437.4856, 65253.93
437.9677, 65453.46
438.4499, 65580.98
438.9320, 65574.81
439.4141, 65534.25
439.8962, 65507.61
440.3783, 65499.55
440.8604, 65521.30
441.3426, 65617.78
441.8247, 65715.02
442.3068, 65766.64
442.7889, 65758.14
443.2710, 65749.64
443.7531, 65746.02
444.2353, 65754.88
444.7174, 65784.58
445.1995, 65888.73
445.6816, 65955.91
446.1637, 65939.60
446.6458, 65851.91
447.1280, 65823.85
447.6101, 65887.98
448.0922, 65976.12
448.5743, 66056.63
449.0564, 66144.49
449.5385, 66177.65
450.0207, 66121.77
450.5028, 66040.31
450.9849, 66069.28
451.4670, 66232.98
451.9491, 66382.27
452.4312, 66455.41
452.9134, 66461.70
453.3955, 66477.73
453.8776, 66505.23
454.3597, 66529.63
454.8418, 66527.07
455.3239, 66506.44
455.8061, 66504.98
456.2882, 66533.65
456.7703, 66581.29
457.2524, 66639.41
457.7345, 66704.89
458.2166, 66766.35
458.6988, 66819.74
459.1809, 66863.63
459.6630, 66889.23
460.1451, 66892.07
460.6272, 66905.65
461.1093, 66971.35
461.5915, 67053.91
462.0736, 67108.07
462.5557, 67080.35
463.0378, 67059.57
463.5199, 67081.71
464.0020, 67142.35
464.4842, 67205.80
464.9663, 67282.86
465.4484, 67346.89
465.9305, 67381.63
466.4126, 67355.08
466.8947, 67355.62
467.3769, 67393.33
467.8590, 67453.53
468.3411, 67516.53
468.8232, 67593.86
469.3053, 67649.07
469.7874, 67664.80
470.2696, 67644.20
470.7517, 67653.67
471.2338, 67706.58
471.7159, 67748.58
472.1980, 67704.87
472.6801, 67579.04
473.1623, 67537.32
473.6444, 67617.93
474.1265, 67762.30
474.6086, 67891.71
475.0907, 68003.37
475.5728, 68079.21
476.0550, 68080.08
476.5371, 68049.34
477.0192, 68059.06
477.5013, 68111.94
477.9834, 68176.30
478.4655, 68237.12
478.9477, 68292.05
479.4298, 68337.17
479.9119, 68369.45
480.3940, 68394.80
480.8761, 68409.16
481.3582, 68417.91
481.8404, 68436.45
482.3225, 68508.89
482.8046, 68559.98
483.2867, 68534.02
483.7688, 68376.93
484.2509, 68315.11
484.7331, 68457.10
485.2152, 68656.86
485.6973, 68780.93
486.1794, 68789.49
486.6615, 68787.48
487.1436, 68773.42
487.6258, 68759.16
488.1079, 68810.96
488.5900, 68951.62
489.0721, 69094.56
489.5542, 69195.88
490.0363, 69256.00
490.5185, 69287.89
491.0006, 69288.65
491.4827, 69270.91
491.9648, 69232.25
492.4470, 69181.67
492.9291, 69171.32
493.4112, 69230.22
493.8933, 69329.44
494.3754, 69443.69
494.8575, 69567.34
495.3397, 69658.14
495.8218, 69681.66
496.3039, 69662.19
496.7860, 69612.77
497.2681, 69517.87
497.7502, 69460.58
498.2324, 69526.21
498.7145, 69644.02
499.1966, 69719.13
499.6787, 69657.74
500.1608, 69615.12
500.6429, 69647.53
501.1251, 69751.16
501.6072, 69848.41
502.0893, 69947.80
502.5714, 70028.56
503.0535, 70076.86
503.5356, 70067.96
504.0178, 70088.16
504.4999, 70153.98
504.9820, 70233.67
505.4641, 70280.16
505.9462, 70289.76
506.4283, 70282.76
506.9105, 70253.96
507.3926, 70215.38
507.8747, 70222.17
508.3568, 70276.63
508.8389, 70335.17
509.3210, 70358.63
509.8032, 70361.73
510.2853, 70385.79
510.7674, 70437.35
511.2495, 70503.94
511.7316, 70591.18
512.2137, 70683.34
512.6959, 70747.29
513.1780, 70743.10
513.6601, 70728.73
514.1422, 70741.84
514.6243, 70779.52
515.1064, 70818.77
515.5886, 70847.19
516.0707, 70876.95
516.5528, 70919.76
517.0349, 71003.38
517.5170, 71045.76
517.9991, 70991.23
518.4813, 70909.64
518.9634, 70890.14
519.4455, 70961.40
519.9276, 71048.23
520.4097, 71152.20
520.8918, 71262.27
521.3740, 71307.47
521.8561, 71271.35
522.3382, 71224.70
522.8203, 71201.20
523.3024, 71202.20
523.7845, 71266.96
524.2667, 71416.57
524.7488, 71558.73
525.2309, 71554.33
525.7130, 71443.73
526.1951, 71366.92
526.6772, 71374.40
527.1594, 71436.76
527.6415, 71554.23
528.1236, 71708.30
528.6057, 71819.75
529.0878, 71789.50
529.5699, 71733.41
530.0521, 71753.25
530.5342, 71888.63
531.0163, 71978.98
531.4984, 71918.09
531.9805, 71810.47
532.4626, 71767.02
532.9448, 71863.92
533.4269, 71953.03
533.9090, 72025.62
534.3911, 72079.29
534.8732, 72093.27
535.3553, 72028.45
535.8375, 71998.88
536.3196, 72076.70
536.8017, 72271.94
537.2838, 72375.13
537.7659, 72373.13
538.2480, 72325.29
538.7302, 72284.12
539.2123, 72249.94
539.6944, 72226.48
540.1765, 72212.66
540.6586, 72213.34
541.1407, 72237.77
541.6229, 72283.10
542.1050, 72339.23
542.5871, 72414.88
543.0692, 72489.69
543.5513, 72550.97
544.0334, 72597.24
544.5156, 72613.60
544.9977, 72541.13
545.4798, 72465.67
545.9619, 72458.41
546.4440, 72592.48
546.9261, 72706.09
547.4083, 72772.34
547.8904, 72805.45
548.3725, 72827.91
548.8546, 72822.05
549.3367, 72836.33
549.8188, 72894.92
550.3010, 72990.82
550.7831, 73038.95
551.2652, 73031.66
551.7473, 73001.97
552.2294, 72959.40
552.7115, 72908.06
553.1937, 72893.78
553.6758, 72922.61
554.1579, 72978.45
554.6400, 73071.76
555.1221, 73179.30
555.6042, 73229.20
556.0864, 73136.28
556.5685, 73035.90
557.0506, 73073.11
557.5327, 73218.11
558.0148, 73360.41
558.4969, 73470.76
558.9791, 73543.45
559.4612, 73559.09
559.9433, 73498.77
560.4254, 73471.24
560.9075, 73528.53
561.3896, 73609.06
561.8718, 73658.89
562.3539, 73660.05
562.8360, 73661.54
563.3181, 73672.04
563.8002, 73682.59
564.2823, 73660.02
564.7645, 73589.21
565.2466, 73554.85
565.7287, 73600.72
566.2108, 73711.25
566.6929, 73824.01
567.1750, 73939.63
567.6572, 74022.55
568.1393, 74005.46
568.6214, 73939.00
569.1035, 73933.77
569.5856, 74020.73
570.0677, 74113.25
570.5499, 74129.55
571.0320, 74106.61
571.5141, 74103.13
571.9962, 74141.25
572.4783, 74202.20
572.9604, 74302.39
573.4426, 74427.49
573.9247, 74507.78
574.4068, 74481.57
574.8889, 74453.59
575.3710, 74465.03
575.8531, 74524.16
576.3353, 74582.53
576.8174, 74653.85
577.2995, 74703.23
577.7816, 74681.03
578.2637, 74577.05
578.7458, 74510.53
579.2280, 74496.98
579.7101, 74531.31
580.1922, 74640.10
580.6743, 74804.54
581.1564, 74918.45
581.6385, 74894.80
582.1207, 74813.25
582.6028, 74758.13
583.0849, 74732.34
583.5670, 74753.73
584.0491, 74893.14
584.5313, 75045.56
585.0134, 75118.80
585.4955, 75067.02
585.9776, 75040.85
586.4597, 75113.67
586.9418, 75216.80
587.4240, 75269.23
587.9061, 75204.22
588.3882, 75193.76
588.8703, 75295.80
589.3524, 75453.41
589.8345, 75476.39
590.3167, 75320.25
590.7988, 75201.86
591.2809, 75238.59
591.7630, 75394.78
592.2451, 75482.10
592.7272, 75498.13
593.2094, 75503.79
593.6915, 75570.73
594.1736, 75659.08
594.6557, 75677.50
595.1378, 75591.37
595.6199, 75519.38
596.1021, 75568.78
596.5842, 75683.77
597.0663, 75785.13
597.5485, 75844.18
598.0306, 75886.38
598.5127, 75914.46
598.9948, 75930.71
599.4769, 75944.52
599.9590, 75947.68
600.4412, 75959.80
600.9233, 75993.39
601.4054, 76051.72
601.8875, 76077.28
602.3696, 76057.54
602.8517, 76035.28
603.3339, 76048.84
603.8160, 76095.70
604.2981, 76147.04
604.7802, 76202.60
605.2623, 76250.14
605.7444, 76262.50
606.2266, 76252.91
606.7087, 76256.27
607.1908, 76290.70
607.6729, 76337.52
608.1550, 76390.15
608.6371, 76444.36
609.1193, 76488.23
609.6014, 76509.27
610.0835, 76525.04
610.5656, 76537.71
611.0477, 76544.16
611.5298, 76577.19
612.0120, 76670.66
612.4941, 76757.61
612.9762, 76785.30
613.4583, 76727.08
613.9404, 76709.70
614.4225, 76749.83
614.9047, 76811.52
615.3868, 76843.52
615.8689, 76848.08
616.3510, 76848.42
616.8331, 76840.13
617.3152, 76845.68
617.7974, 76935.63
618.2795, 77079.76
618.7616, 77165.73
619.2437, 77047.76
619.7258, 76910.34
620.2079, 76904.35
620.6901, 77036.99
621.1722, 77167.55
621.6543, 77272.72
622.1364, 77342.33
622.6185, 77361.26
623.1006, 77286.00
623.5828, 77259.41
624.0649, 77305.35
624.5470, 77378.05
625.0291, 77426.98
625.5112, 77452.25
625.9933, 77446.77
626.4755, 77393.09
626.9576, 77330.05
627.4397, 77346.77
627.9218, 77434.99
628.4039, 77531.67
628.8860, 77616.80
629.3682, 77686.96
629.8503, 77731.19
630.3324, 77752.39
630.8145, 77770.34
631.2966, 77784.82
631.7787, 77808.09
632.2609, 77850.81
632.7430, 77918.63
633.2251, 77989.08
633.7072, 78080.64
634.1893, 78158.02
634.6714, 78189.97
635.1536, 78152.98
635.6357, 78121.58
636.1178, 78100.61
636.5999, 78088.44
637.0820, 78078.26
637.5641, 78069.38
638.0463, 78085.12
638.5284, 78146.05
639.0105, 78224.94
639.4926, 78269.21
639.9747, 78282.37
640.4568, 78283.93
640.9390, 78266.76
641.4211, 78256.02
641.9032, 78280.66
642.3853, 78342.49
642.8674, 78404.27
643.3495, 78459.28
643.8317, 78503.46
644.3138, 78532.68
644.7959, 78528.74
645.2780, 78544.39
645.7601, 78588.87
646.2422, 78644.73
646.7244, 78699.12
647.2065, 78758.47
647.6886, 78773.84
648.1707, 78718.63
648.6528, 78640.41
649.1349, 78642.61
649.6171, 78715.28
650.0992, 78787.73
650.5813, 78823.70
651.0634, 78843.41
651.5455, 78876.54
652.0276, 78918.38
652.5098, 78942.19
652.9919, 78915.34
653.4740, 78880.34
