##NAMES=Gatumbaite
##RRUFFID=R070388
##IDEAL CHEMISTRY=CaAl_2_(PO_4_)_2_(OH)_2_&#183;H_2_O
##LOCALITY=Buranga pegmatite, Gatumba District, Gisenyi Province, Rwanda
##OWNER=RRUFF
##SOURCE=Michael Scott
##DESCRIPTION=Radial aggregate of colorless acicular crystals on trolleite associated with wardite
##STATUS=The identification of this mineral has been confirmed by single-crystal X-ray diffraction.
##URL=rruff.info/R070388
149.4643, 1636.358
149.9464, 1697.416
150.4285, 1753.356
150.9106, 1799.593
151.3928, 1834.932
151.8749, 1860.237
152.3570, 1867.148
152.8391, 1869.033
153.3212, 1880.108
153.8033, 1901.680
154.2855, 1921.093
154.7676, 1927.841
155.2497, 1923.635
155.7318, 1915.935
156.2139, 1906.176
156.6960, 1893.277
157.1782, 1874.367
157.6603, 1848.433
158.1424, 1822.576
158.6245, 1799.377
159.1066, 1780.297
159.5887, 1770.911
160.0709, 1778.638
160.5530, 1794.679
161.0351, 1806.534
161.5172, 1813.086
161.9993, 1818.403
162.4814, 1822.304
162.9636, 1826.952
163.4457, 1837.602
163.9278, 1864.087
164.4099, 1895.447
164.8920, 1909.089
165.3741, 1898.920
165.8563, 1887.989
166.3384, 1889.374
166.8205, 1899.767
167.3026, 1915.047
167.7847, 1937.830
168.2668, 1963.158
168.7490, 1979.463
169.2311, 1983.592
169.7132, 1985.740
170.1953, 1993.681
170.6774, 2003.165
171.1595, 2006.650
171.6417, 1996.612
172.1238, 1980.056
172.6059, 1976.313
173.0880, 1993.067
173.5701, 2007.281
174.0522, 2007.315
174.5344, 1998.964
175.0165, 1989.716
175.4986, 1981.522
175.9807, 1975.761
176.4628, 1976.563
176.9449, 1986.123
177.4271, 1998.748
177.9092, 2015.901
178.3913, 2033.433
178.8734, 2044.861
179.3555, 2045.272
179.8376, 2039.303
180.3197, 2040.758
180.8019, 2052.198
181.2840, 2067.207
181.7661, 2090.693
182.2482, 2113.990
182.7303, 2124.544
183.2124, 2113.886
183.6946, 2090.525
184.1767, 2079.443
184.6588, 2088.347
185.1409, 2096.712
185.6230, 2100.401
186.1051, 2100.154
186.5873, 2097.073
187.0694, 2091.807
187.5515, 2083.570
188.0336, 2068.537
188.5157, 2037.844
188.9978, 2016.460
189.4800, 2013.638
189.9621, 2019.647
190.4442, 2024.986
190.9263, 2025.566
191.4084, 2022.776
191.8905, 2018.726
192.3727, 2006.979
192.8548, 2006.456
193.3369, 2028.040
193.8190, 2056.715
194.3011, 2076.570
194.7832, 2081.134
195.2654, 2079.343
195.7475, 2092.268
196.2296, 2135.155
196.7117, 2163.869
197.1938, 2164.393
197.6759, 2155.453
198.1581, 2152.208
198.6402, 2159.897
199.1223, 2174.969
199.6044, 2191.392
200.0865, 2210.459
200.5686, 2228.326
201.0508, 2244.866
201.5329, 2260.262
202.0150, 2273.514
202.4971, 2284.715
202.9792, 2296.142
203.4613, 2311.869
203.9435, 2334.333
204.4256, 2355.644
204.9077, 2372.585
205.3898, 2390.378
205.8719, 2414.899
206.3540, 2446.276
206.8362, 2477.357
207.3183, 2496.717
207.8004, 2495.704
208.2825, 2504.920
208.7646, 2537.157
209.2467, 2568.743
209.7289, 2583.715
210.2110, 2581.547
210.6931, 2574.655
211.1752, 2578.852
211.6573, 2600.063
212.1395, 2610.182
212.6216, 2600.177
213.1037, 2587.623
213.5858, 2581.957
214.0679, 2582.515
214.5500, 2581.862
215.0322, 2571.117
215.5143, 2547.366
215.9964, 2533.357
216.4785, 2538.909
216.9606, 2544.890
217.4427, 2543.475
217.9249, 2535.987
218.4070, 2528.561
218.8891, 2527.071
219.3712, 2531.854
219.8533, 2530.281
220.3354, 2506.689
220.8176, 2491.964
221.2997, 2501.422
221.7818, 2526.332
222.2639, 2548.599
222.7460, 2555.029
223.2281, 2547.324
223.7103, 2543.379
224.1924, 2549.487
224.6745, 2552.542
225.1566, 2546.562
225.6387, 2536.461
226.1208, 2530.004
226.6030, 2532.063
227.0851, 2540.236
227.5672, 2544.680
228.0493, 2546.425
228.5314, 2542.193
229.0135, 2528.506
229.4957, 2510.114
229.9778, 2491.084
230.4599, 2473.053
230.9420, 2457.845
231.4241, 2451.066
231.9062, 2461.863
232.3884, 2465.197
232.8705, 2454.285
233.3526, 2437.735
233.8347, 2421.164
234.3168, 2406.772
234.7989, 2396.374
235.2811, 2394.353
235.7632, 2405.851
236.2453, 2413.545
236.7274, 2412.134
237.2095, 2409.628
237.6916, 2410.030
238.1738, 2414.658
238.6559, 2424.251
239.1380, 2442.348
239.6201, 2473.845
240.1022, 2495.541
240.5843, 2498.936
241.0665, 2498.665
241.5486, 2500.669
242.0307, 2505.609
242.5128, 2511.644
242.9949, 2517.521
243.4770, 2523.389
243.9592, 2527.335
244.4413, 2527.360
244.9234, 2527.262
245.4055, 2531.534
245.8876, 2537.217
246.3697, 2536.326
246.8519, 2519.518
247.3340, 2489.719
247.8161, 2475.119
248.2982, 2488.615
248.7803, 2500.668
249.2624, 2497.924
249.7446, 2487.517
250.2267, 2481.251
250.7088, 2485.822
251.1909, 2498.186
251.6730, 2510.327
252.1551, 2523.999
252.6373, 2533.667
253.1194, 2537.282
253.6015, 2536.658
254.0836, 2532.104
254.5657, 2522.563
255.0478, 2513.629
255.5300, 2515.913
256.0121, 2532.993
256.4942, 2547.695
256.9763, 2553.154
257.4584, 2555.442
257.9406, 2559.723
258.4227, 2567.200
258.9048, 2572.550
259.3869, 2568.650
259.8690, 2555.008
260.3511, 2543.218
260.8333, 2534.875
261.3154, 2529.739
261.7975, 2529.912
262.2796, 2534.726
262.7617, 2536.155
263.2438, 2527.042
263.7260, 2508.959
264.2081, 2490.546
264.6902, 2470.444
265.1723, 2453.818
265.6544, 2446.711
266.1365, 2446.319
266.6187, 2443.408
267.1008, 2432.157
267.5829, 2415.708
268.0650, 2400.092
268.5471, 2385.083
269.0292, 2372.163
269.5114, 2365.070
269.9935, 2360.649
270.4756, 2353.191
270.9577, 2338.892
271.4398, 2322.876
271.9219, 2310.980
272.4041, 2303.277
272.8862, 2296.458
273.3683, 2288.428
273.8504, 2280.616
274.3325, 2275.877
274.8146, 2276.266
275.2968, 2276.220
275.7789, 2270.279
276.2610, 2260.239
276.7431, 2253.510
277.2252, 2252.970
277.7073, 2256.685
278.1895, 2261.772
278.6716, 2268.469
279.1537, 2275.020
279.6358, 2281.394
280.1179, 2287.068
280.6000, 2290.341
281.0822, 2290.439
281.5643, 2290.643
282.0464, 2294.960
282.5285, 2303.577
283.0106, 2313.619
283.4927, 2326.669
283.9749, 2339.816
284.4570, 2349.808
284.9391, 2356.641
285.4212, 2364.071
285.9033, 2376.287
286.3854, 2392.839
286.8676, 2401.117
287.3497, 2390.874
287.8318, 2383.060
288.3139, 2390.473
288.7960, 2408.853
289.2781, 2427.211
289.7603, 2440.402
290.2424, 2447.469
290.7245, 2443.510
291.2066, 2416.064
291.6887, 2393.773
292.1708, 2384.317
292.6530, 2381.123
293.1351, 2375.448
293.6172, 2364.284
294.0993, 2351.814
294.5814, 2346.101
295.0635, 2355.961
295.5457, 2355.389
296.0278, 2335.229
296.5099, 2312.081
296.9920, 2297.588
297.4741, 2292.897
297.9562, 2292.445
298.4384, 2290.826
298.9205, 2288.031
299.4026, 2283.994
299.8847, 2275.182
300.3668, 2268.676
300.8489, 2267.762
301.3311, 2271.084
301.8131, 2276.024
302.2953, 2281.465
302.7774, 2286.479
303.2595, 2285.762
303.7416, 2273.160
304.2237, 2263.879
304.7058, 2265.498
305.1880, 2269.762
305.6701, 2266.120
306.1522, 2250.378
306.6343, 2231.404
307.1164, 2225.256
307.5985, 2236.412
308.0807, 2243.772
308.5628, 2240.826
309.0449, 2234.818
309.5270, 2227.832
310.0091, 2220.798
310.4912, 2217.382
310.9734, 2223.576
311.4555, 2238.117
311.9376, 2246.118
312.4197, 2241.788
312.9018, 2237.656
313.3839, 2242.332
313.8661, 2253.314
314.3482, 2264.172
314.8303, 2272.672
315.3124, 2278.997
315.7945, 2282.892
316.2766, 2283.937
316.7588, 2284.928
317.2409, 2286.363
317.7230, 2289.099
318.2051, 2295.366
318.6872, 2308.987
319.1693, 2319.837
319.6515, 2317.530
320.1336, 2304.994
320.6157, 2295.592
321.0978, 2294.599
321.5799, 2297.530
322.0620, 2297.027
322.5442, 2292.537
323.0263, 2288.985
323.5084, 2288.519
323.9905, 2289.431
324.4726, 2288.098
324.9547, 2283.950
325.4369, 2283.154
325.9190, 2293.597
326.4011, 2316.801
326.8832, 2329.459
327.3653, 2325.026
327.8474, 2316.594
328.3296, 2308.255
328.8117, 2301.689
329.2938, 2299.847
329.7759, 2304.411
330.2580, 2315.055
330.7401, 2330.200
331.2223, 2361.834
331.7044, 2383.139
332.1865, 2381.320
332.6686, 2372.442
333.1507, 2376.166
333.6328, 2397.664
334.1150, 2423.761
334.5971, 2433.890
335.0792, 2419.561
335.5613, 2412.030
336.0434, 2412.333
336.5255, 2417.578
337.0077, 2430.933
337.4898, 2448.779
337.9719, 2461.464
338.4540, 2459.608
338.9361, 2445.435
339.4182, 2438.972
339.9004, 2442.927
340.3825, 2451.339
340.8646, 2463.288
341.3467, 2477.765
341.8288, 2494.328
342.3109, 2513.438
342.7931, 2531.864
343.2752, 2544.362
343.7573, 2550.274
344.2394, 2554.699
344.7215, 2554.158
345.2036, 2556.583
345.6858, 2573.454
346.1679, 2604.460
346.6500, 2626.250
347.1321, 2612.429
347.6142, 2578.310
348.0963, 2568.830
348.5785, 2593.750
349.0606, 2626.697
349.5427, 2650.049
350.0248, 2665.241
350.5069, 2675.205
350.9890, 2677.810
351.4712, 2677.482
351.9533, 2679.299
352.4354, 2682.068
352.9175, 2677.876
353.3996, 2659.914
353.8817, 2636.245
354.3639, 2629.717
354.8460, 2647.351
355.3281, 2663.090
355.8102, 2673.852
356.2923, 2678.507
356.7744, 2673.483
357.2566, 2658.570
357.7387, 2640.669
358.2208, 2627.834
358.7029, 2621.808
359.1850, 2610.714
359.6671, 2586.300
360.1493, 2565.758
360.6314, 2562.276
361.1135, 2568.521
361.5956, 2566.242
362.0777, 2543.352
362.5598, 2508.518
363.0420, 2494.365
363.5241, 2518.245
364.0062, 2535.531
364.4883, 2540.837
364.9704, 2538.291
365.4525, 2527.483
365.9347, 2509.916
366.4168, 2495.084
366.8989, 2496.899
367.3810, 2516.862
367.8631, 2528.178
368.3452, 2523.831
368.8274, 2517.616
369.3095, 2519.039
369.7916, 2524.247
370.2737, 2523.304
370.7558, 2507.162
371.2379, 2485.830
371.7201, 2478.059
372.2022, 2485.399
372.6843, 2491.162
373.1664, 2485.447
373.6485, 2476.051
374.1306, 2476.384
374.6128, 2490.733
375.0949, 2500.755
375.5770, 2493.863
376.0591, 2476.410
376.5412, 2461.370
377.0233, 2451.703
377.5055, 2441.936
377.9876, 2426.492
378.4697, 2404.726
378.9518, 2381.660
379.4339, 2351.334
379.9160, 2325.190
380.3982, 2314.309
380.8803, 2313.832
381.3624, 2310.288
381.8445, 2296.363
382.3266, 2274.533
382.8087, 2251.829
383.2909, 2224.227
383.7730, 2201.543
384.2551, 2184.482
384.7372, 2172.031
385.2193, 2164.160
385.7014, 2160.396
386.1836, 2159.059
386.6657, 2159.301
387.1478, 2161.430
387.6299, 2159.019
388.1120, 2147.694
388.5941, 2136.651
389.0763, 2126.184
389.5584, 2118.572
390.0405, 2117.818
390.5226, 2126.539
391.0047, 2140.062
391.4868, 2152.420
391.9690, 2163.900
392.4511, 2170.769
392.9332, 2169.149
393.4153, 2164.898
393.8974, 2162.286
394.3795, 2161.473
394.8617, 2165.062
395.3438, 2177.485
395.8259, 2194.027
396.3080, 2207.623
396.7901, 2217.686
397.2722, 2223.626
397.7544, 2222.708
398.2365, 2217.192
398.7186, 2218.708
399.2007, 2232.177
399.6828, 2246.934
400.1649, 2261.259
400.6471, 2273.600
401.1292, 2280.039
401.6113, 2279.277
402.0934, 2276.813
402.5755, 2281.072
403.0576, 2295.106
403.5398, 2306.708
404.0219, 2316.542
404.5040, 2323.826
404.9861, 2325.269
405.4682, 2323.786
405.9503, 2325.907
406.4325, 2335.881
406.9146, 2352.218
407.3967, 2369.726
407.8788, 2388.740
408.3609, 2408.245
408.8430, 2434.703
409.3252, 2457.341
409.8073, 2463.961
410.2894, 2453.893
410.7715, 2443.675
411.2536, 2447.097
411.7357, 2462.501
412.2179, 2483.199
412.7000, 2512.250
413.1821, 2538.036
413.6642, 2550.427
414.1463, 2553.882
414.6284, 2555.747
415.1106, 2555.383
415.5927, 2556.265
416.0748, 2561.417
416.5569, 2569.946
417.0390, 2579.521
417.5211, 2589.680
418.0033, 2599.396
418.4854, 2607.922
418.9675, 2617.002
419.4496, 2617.591
419.9317, 2598.485
420.4138, 2579.691
420.8960, 2580.303
421.3781, 2594.284
421.8602, 2598.844
422.3423, 2578.018
422.8244, 2538.976
423.3065, 2513.237
423.7887, 2512.621
424.2708, 2507.084
424.7529, 2485.438
425.2350, 2463.428
425.7171, 2456.339
426.1992, 2464.953
426.6814, 2475.591
427.1635, 2476.106
427.6456, 2466.999
428.1277, 2452.827
428.6098, 2428.456
429.0919, 2409.033
429.5741, 2405.354
430.0562, 2410.542
430.5383, 2414.813
431.0204, 2415.106
431.5025, 2415.705
431.9846, 2422.717
432.4668, 2433.427
432.9489, 2436.522
433.4310, 2427.254
433.9131, 2416.040
434.3952, 2415.739
434.8773, 2427.620
435.3595, 2438.001
435.8416, 2445.091
436.3237, 2451.457
436.8058, 2459.119
437.2879, 2467.384
437.7701, 2473.921
438.2522, 2477.354
438.7343, 2479.535
439.2164, 2485.218
439.6985, 2496.412
440.1806, 2507.660
440.6628, 2517.253
441.1449, 2528.214
441.6270, 2543.365
442.1091, 2561.962
442.5912, 2581.063
443.0733, 2599.512
443.5555, 2616.228
444.0376, 2625.742
444.5197, 2624.830
445.0018, 2625.762
445.4839, 2634.213
445.9660, 2646.442
446.4482, 2660.475
446.9303, 2676.726
447.4124, 2689.114
447.8945, 2694.838
448.3766, 2693.854
448.8587, 2685.788
449.3409, 2670.463
449.8230, 2649.169
450.3051, 2622.271
450.7872, 2589.730
451.2693, 2554.153
451.7514, 2513.009
452.2336, 2472.066
452.7157, 2428.734
453.1978, 2388.450
453.6799, 2360.802
454.1620, 2347.934
454.6441, 2341.118
455.1263, 2328.239
455.6084, 2306.507
456.0905, 2294.633
456.5726, 2306.490
457.0547, 2314.335
457.5368, 2304.910
458.0190, 2287.073
458.5011, 2274.814
458.9832, 2273.800
459.4653, 2281.480
459.9474, 2299.107
460.4295, 2326.938
460.9117, 2341.482
461.3938, 2330.936
461.8759, 2315.726
462.3580, 2314.130
462.8401, 2324.013
463.3222, 2335.077
463.8044, 2342.352
464.2865, 2351.401
464.7686, 2369.573
465.2507, 2394.442
465.7328, 2416.313
466.2149, 2430.861
466.6971, 2440.538
467.1792, 2449.462
467.6613, 2455.058
468.1434, 2465.851
468.6255, 2489.891
469.1076, 2512.090
469.5898, 2519.131
470.0719, 2515.634
470.5540, 2517.148
471.0361, 2534.726
471.5182, 2560.656
472.0003, 2571.051
472.4825, 2558.619
472.9646, 2550.360
473.4467, 2557.695
473.9288, 2566.939
474.4109, 2570.754
474.8930, 2568.342
475.3752, 2560.255
475.8573, 2544.762
476.3394, 2524.635
476.8215, 2504.125
477.3036, 2483.374
477.7857, 2461.674
478.2679, 2437.319
478.7500, 2412.955
479.2321, 2395.534
479.7142, 2387.941
480.1963, 2379.112
480.6784, 2367.709
481.1606, 2353.673
481.6427, 2333.741
482.1248, 2309.923
482.6069, 2291.433
483.0890, 2285.778
483.5711, 2290.370
484.0533, 2290.884
484.5354, 2287.197
485.0175, 2279.188
485.4996, 2265.262
485.9817, 2248.750
486.4638, 2230.375
486.9460, 2211.160
487.4281, 2195.768
487.9102, 2189.659
488.3923, 2190.071
488.8744, 2189.154
489.3565, 2186.995
489.8387, 2182.295
490.3208, 2171.535
490.8029, 2159.379
491.2850, 2155.970
491.7671, 2165.118
492.2492, 2171.826
492.7314, 2172.035
493.2135, 2166.595
493.6956, 2155.315
494.1777, 2138.823
494.6598, 2118.707
495.1419, 2094.594
495.6241, 2069.001
496.1062, 2058.114
496.5883, 2076.462
497.0704, 2089.638
497.5525, 2094.311
498.0346, 2092.757
498.5168, 2083.541
498.9989, 2068.539
499.4810, 2056.469
499.9631, 2056.198
500.4452, 2064.537
500.9273, 2068.824
501.4095, 2067.646
501.8916, 2068.429
502.3737, 2074.817
502.8558, 2084.967
503.3379, 2095.818
503.8200, 2107.417
504.3022, 2119.132
504.7843, 2133.793
505.2664, 2146.659
505.7485, 2149.311
506.2306, 2142.888
506.7127, 2138.269
507.1949, 2142.635
507.6770, 2154.717
508.1591, 2169.102
508.6412, 2191.353
509.1233, 2207.617
509.6054, 2211.908
510.0876, 2214.306
510.5697, 2223.843
511.0518, 2239.369
511.5339, 2251.846
512.0161, 2253.623
512.4982, 2248.429
512.9803, 2244.542
513.4624, 2240.806
513.9445, 2246.748
514.4266, 2274.515
514.9088, 2305.954
515.3909, 2314.553
515.8730, 2298.089
516.3551, 2288.659
516.8372, 2301.129
517.3193, 2321.027
517.8015, 2338.485
518.2836, 2351.636
518.7657, 2357.499
519.2478, 2354.018
519.7299, 2344.218
520.2120, 2334.924
520.6942, 2324.126
521.1763, 2317.835
521.6584, 2316.789
522.1405, 2318.945
522.6226, 2326.624
523.1047, 2336.571
523.5869, 2341.566
524.0690, 2337.696
524.5511, 2327.386
525.0332, 2311.841
525.5153, 2291.129
525.9974, 2277.320
526.4796, 2276.797
526.9617, 2278.286
527.4438, 2268.888
527.9259, 2249.937
528.4080, 2231.747
528.8901, 2212.805
529.3723, 2197.879
529.8544, 2191.773
530.3365, 2191.309
530.8186, 2190.967
531.3007, 2188.777
531.7828, 2185.216
532.2650, 2182.063
532.7471, 2181.161
533.2292, 2168.573
533.7113, 2122.099
534.1934, 2089.716
534.6755, 2097.735
535.1577, 2123.689
535.6398, 2136.972
536.1219, 2128.387
536.6040, 2111.199
537.0861, 2093.952
537.5682, 2077.917
538.0504, 2067.773
538.5325, 2064.434
539.0146, 2064.425
539.4967, 2065.225
539.9788, 2067.456
540.4609, 2073.977
540.9431, 2091.158
541.4252, 2103.529
541.9073, 2103.180
542.3894, 2099.726
542.8715, 2105.351
543.3536, 2118.878
543.8358, 2127.008
544.3179, 2118.259
544.8000, 2096.455
545.2821, 2077.072
545.7642, 2057.915
546.2463, 2047.296
546.7285, 2053.229
547.2106, 2064.450
547.6927, 2072.532
548.1748, 2077.426
548.6569, 2083.687
549.1390, 2095.157
549.6211, 2107.608
550.1032, 2117.012
550.5853, 2123.358
551.0674, 2125.914
551.5496, 2123.764
552.0317, 2121.167
552.5138, 2125.408
552.9959, 2139.443
553.4780, 2150.420
553.9601, 2152.084
554.4423, 2157.848
554.9244, 2179.308
555.4065, 2206.507
555.8886, 2221.864
556.3707, 2218.664
556.8528, 2211.939
557.3350, 2221.391
557.8171, 2244.790
558.2992, 2264.795
558.7813, 2280.853
559.2634, 2290.136
559.7455, 2288.685
560.2277, 2278.924
560.7098, 2269.761
561.1919, 2261.809
561.6740, 2253.470
562.1561, 2246.579
562.6382, 2237.639
563.1204, 2220.905
563.6025, 2197.387
564.0846, 2174.216
564.5667, 2156.128
565.0488, 2142.825
565.5309, 2133.165
566.0131, 2128.328
566.4952, 2124.154
566.9773, 2118.524
567.4594, 2114.569
567.9415, 2116.542
568.4236, 2122.691
568.9058, 2124.858
569.3879, 2113.930
569.8700, 2102.631
570.3521, 2104.358
570.8342, 2116.636
571.3163, 2133.305
571.7985, 2153.233
572.2806, 2169.304
572.7627, 2171.527
573.2448, 2157.670
573.7269, 2151.220
574.2090, 2149.370
574.6912, 2157.785
575.1733, 2187.102
575.6554, 2222.606
576.1375, 2249.498
576.6196, 2264.128
577.1017, 2269.990
577.5839, 2264.067
578.0660, 2251.995
578.5481, 2256.526
579.0302, 2280.546
579.5123, 2297.458
579.9944, 2291.432
580.4766, 2274.485
580.9587, 2271.058
581.4408, 2285.059
581.9229, 2293.457
582.4050, 2290.412
582.8871, 2283.249
583.3693, 2273.531
583.8514, 2263.996
584.3335, 2261.513
584.8156, 2269.388
585.2977, 2276.987
585.7798, 2263.348
586.2620, 2225.553
586.7441, 2202.059
587.2262, 2201.089
587.7083, 2203.756
588.1904, 2197.188
588.6725, 2187.685
589.1547, 2186.471
589.6368, 2198.068
590.1189, 2209.893
590.6010, 2212.730
591.0831, 2214.123
591.5652, 2227.085
592.0474, 2250.050
592.5295, 2266.908
593.0116, 2265.842
593.4937, 2254.288
593.9758, 2256.681
594.4579, 2282.867
594.9401, 2299.537
595.4222, 2296.065
595.9043, 2289.457
596.3864, 2285.179
596.8685, 2284.538
597.3506, 2291.037
597.8328, 2312.237
598.3149, 2328.618
598.7970, 2316.372
599.2791, 2286.064
599.7612, 2264.197
600.2433, 2255.797
600.7255, 2256.328
601.2076, 2264.712
601.6897, 2278.411
602.1718, 2276.350
602.6539, 2231.626
603.1360, 2208.238
603.6182, 2230.377
604.1003, 2259.876
604.5824, 2265.769
605.0645, 2250.945
605.5466, 2239.891
606.0287, 2248.718
606.5109, 2266.079
606.9930, 2276.393
607.4751, 2279.997
607.9572, 2277.880
608.4393, 2268.445
608.9214, 2260.646
609.4036, 2264.486
609.8857, 2280.042
610.3678, 2291.597
610.8499, 2292.845
611.3320, 2298.399
611.8141, 2317.173
612.2963, 2338.414
612.7784, 2349.450
613.2605, 2350.316
613.7426, 2351.681
614.2247, 2360.680
614.7068, 2376.640
615.1890, 2401.607
615.6711, 2436.394
616.1532, 2462.421
616.6353, 2475.457
617.1174, 2475.430
617.5995, 2455.184
618.0817, 2414.173
618.5638, 2393.344
619.0459, 2423.207
619.5280, 2440.074
620.0101, 2409.030
620.4922, 2356.257
620.9744, 2314.579
621.4565, 2290.234
621.9386, 2268.999
622.4207, 2238.429
622.9028, 2200.567
623.3849, 2163.801
623.8671, 2128.411
624.3492, 2092.174
624.8313, 2052.768
625.3134, 2014.074
625.7955, 1978.301
626.2776, 1945.300
626.7598, 1926.385
627.2419, 1937.968
627.7240, 1948.041
628.2061, 1938.551
628.6882, 1918.151
629.1703, 1899.893
629.6525, 1886.868
630.1346, 1873.670
630.6167, 1853.082
631.0988, 1828.115
631.5809, 1817.568
632.0630, 1826.062
632.5452, 1830.516
633.0273, 1820.762
633.5094, 1807.101
633.9915, 1801.005
634.4736, 1802.087
634.9557, 1803.802
635.4379, 1807.053
635.9200, 1808.343
636.4021, 1804.432
636.8842, 1797.740
637.3663, 1791.451
637.8484, 1786.604
638.3306, 1783.348
638.8127, 1781.217
639.2948, 1780.924
639.7769, 1788.445
640.2590, 1807.270
640.7411, 1821.230
641.2233, 1821.294
641.7054, 1818.807
642.1875, 1829.318
642.6696, 1851.091
643.1517, 1861.052
643.6339, 1842.292
644.1160, 1823.549
644.5981, 1823.482
645.0802, 1832.488
645.5623, 1833.536
