##NAMES=Gatumbaite
##RRUFFID=R070388
##IDEAL CHEMISTRY=CaAl_2_(PO_4_)_2_(OH)_2_&#183;H_2_O
##LOCALITY=Buranga pegmatite, Gatumba District, Gisenyi Province, Rwanda
##OWNER=RRUFF
##SOURCE=Michael Scott
##DESCRIPTION=Radial aggregate of colorless acicular crystals on trolleite associated with wardite
##STATUS=The identification of this mineral has been confirmed by single-crystal X-ray diffraction.
##URL=rruff.info/R070388
163.1611, 4859.356
163.6432, 4873.464
164.1253, 4884.319
164.6075, 4892.833
165.0896, 4898.966
165.5717, 4908.830
166.0538, 4929.791
166.5359, 4955.969
167.0180, 4978.990
167.5002, 4991.022
167.9823, 5001.513
168.4644, 5017.618
168.9465, 5040.208
169.4286, 5065.983
169.9107, 5097.476
170.3929, 5130.471
170.8750, 5156.911
171.3571, 5167.073
171.8392, 5170.688
172.3213, 5177.283
172.8034, 5187.550
173.2856, 5202.211
173.7677, 5226.187
174.2498, 5256.527
174.7319, 5282.694
175.2140, 5291.820
175.6961, 5294.271
176.1783, 5307.534
176.6604, 5339.116
177.1425, 5374.288
177.6246, 5395.441
178.1067, 5403.572
178.5888, 5406.486
179.0710, 5403.669
179.5531, 5399.664
180.0352, 5406.013
180.5173, 5430.544
180.9994, 5461.431
181.4815, 5478.987
181.9637, 5483.606
182.4458, 5482.815
182.9279, 5476.479
183.4100, 5468.348
183.8921, 5473.618
184.3742, 5505.958
184.8564, 5550.407
185.3385, 5568.066
185.8206, 5557.438
186.3027, 5540.064
186.7848, 5537.599
187.2669, 5548.402
187.7491, 5559.685
188.2312, 5565.771
188.7133, 5568.779
189.1954, 5576.999
189.6775, 5590.852
190.1596, 5607.869
190.6418, 5629.168
191.1239, 5654.319
191.6060, 5670.796
192.0881, 5663.879
192.5702, 5638.433
193.0524, 5641.477
193.5345, 5679.022
194.0166, 5729.294
194.4987, 5757.816
194.9808, 5763.326
195.4629, 5766.116
195.9451, 5774.534
196.4272, 5788.612
196.9093, 5804.342
197.3914, 5820.377
197.8735, 5839.992
198.3556, 5874.771
198.8378, 5928.394
199.3199, 5973.205
199.8020, 5987.555
200.2841, 5968.367
200.7662, 5963.707
201.2483, 5979.033
201.7305, 6007.886
202.2126, 6034.560
202.6947, 6058.054
203.1768, 6083.107
203.6589, 6113.504
204.1410, 6149.875
204.6232, 6185.893
205.1053, 6222.958
205.5874, 6258.460
206.0695, 6281.743
206.5516, 6288.830
207.0337, 6294.133
207.5159, 6308.585
207.9980, 6334.427
208.4801, 6357.738
208.9622, 6377.548
209.4443, 6393.509
209.9264, 6401.913
210.4086, 6398.216
210.8907, 6396.121
211.3728, 6409.699
211.8549, 6447.483
212.3370, 6471.664
212.8191, 6474.121
213.3013, 6457.329
213.7834, 6441.035
214.2655, 6423.307
214.7476, 6409.154
215.2297, 6403.312
215.7118, 6407.308
216.1940, 6415.417
216.6761, 6427.258
217.1582, 6442.741
217.6403, 6459.759
218.1224, 6480.471
218.6045, 6499.582
219.0867, 6511.447
219.5688, 6513.376
220.0509, 6514.118
220.5330, 6515.182
221.0151, 6516.585
221.4972, 6517.982
221.9794, 6519.385
222.4615, 6520.783
222.9436, 6522.078
223.4257, 6522.884
223.9078, 6523.423
224.3899, 6496.852
224.8721, 6523.004
225.3542, 6538.798
225.8363, 6544.792
226.3184, 6511.632
226.8005, 6529.031
227.2827, 6526.168
227.7648, 6522.475
228.2469, 6546.990
228.7290, 6519.524
229.2111, 6543.592
229.6932, 6547.088
230.1754, 6560.000
230.6575, 6552.525
231.1396, 6551.346
231.6217, 6570.561
232.1038, 6570.493
232.5859, 6596.458
233.0681, 6609.611
233.5502, 6603.819
234.0323, 6589.635
234.5144, 6581.640
234.9965, 6579.903
235.4786, 6584.570
235.9608, 6597.580
236.4429, 6621.688
236.9250, 6639.858
237.4071, 6647.001
237.8892, 6651.246
238.3713, 6667.780
238.8535, 6710.700
239.3356, 6742.028
239.8177, 6745.081
240.2998, 6707.500
240.7819, 6689.958
241.2640, 6700.004
241.7462, 6725.399
242.2283, 6746.335
242.7104, 6765.211
243.1925, 6775.512
243.6746, 6772.450
244.1567, 6749.025
244.6389, 6736.578
245.1210, 6739.169
245.6031, 6750.274
246.0852, 6757.803
246.5673, 6756.996
247.0494, 6760.804
247.5316, 6775.411
248.0137, 6805.965
248.4958, 6829.936
248.9779, 6845.833
249.4600, 6855.841
249.9421, 6863.276
250.4243, 6867.087
250.9064, 6870.314
251.3885, 6874.201
251.8706, 6879.370
252.3527, 6882.723
252.8348, 6882.087
253.3170, 6880.962
253.7991, 6886.149
254.2812, 6898.984
254.7633, 6915.521
255.2454, 6936.243
255.7275, 6964.624
256.2097, 6983.227
256.6918, 6989.397
257.1739, 6987.423
257.6560, 6985.647
258.1381, 6986.321
258.6202, 6982.351
259.1024, 6967.294
259.5845, 6934.117
260.0666, 6921.829
260.5487, 6940.876
261.0308, 6972.909
261.5129, 6981.684
261.9951, 6955.086
262.4772, 6934.081
262.9593, 6938.208
263.4414, 6975.482
263.9235, 7000.153
264.4056, 7011.657
264.8878, 7011.266
265.3699, 6998.625
265.8520, 6968.103
266.3341, 6941.105
266.8162, 6926.616
267.2983, 6926.777
267.7805, 6926.024
268.2626, 6922.667
268.7447, 6920.309
269.2268, 6925.536
269.7089, 6939.516
270.1910, 6956.924
270.6732, 6978.759
271.1553, 7006.495
271.6374, 7020.210
272.1195, 7013.872
272.6016, 7002.378
273.0837, 7012.224
273.5659, 7047.580
274.0480, 7082.857
274.5301, 7105.661
275.0122, 7115.065
275.4943, 7140.850
275.9764, 7191.110
276.4586, 7242.514
276.9407, 7251.626
277.4228, 7212.124
277.9049, 7184.380
278.3870, 7198.823
278.8691, 7253.008
279.3513, 7288.850
279.8334, 7302.559
280.3155, 7307.670
280.7976, 7320.609
281.2798, 7341.339
281.7619, 7368.338
282.2440, 7405.797
282.7261, 7451.035
283.2082, 7481.958
283.6903, 7496.453
284.1725, 7504.403
284.6546, 7516.770
285.1367, 7533.370
285.6188, 7552.597
286.1009, 7579.279
286.5830, 7608.638
287.0652, 7618.227
287.5473, 7606.343
288.0294, 7584.405
288.5115, 7558.625
288.9936, 7530.596
289.4757, 7514.980
289.9579, 7526.413
290.4400, 7551.287
290.9221, 7548.053
291.4042, 7514.877
291.8863, 7476.480
292.3684, 7457.720
292.8506, 7455.214
293.3327, 7454.253
293.8148, 7452.602
294.2969, 7448.255
294.7790, 7433.783
295.2611, 7409.102
295.7433, 7387.232
296.2254, 7384.944
296.7075, 7394.879
297.1896, 7395.466
297.6717, 7372.460
298.1538, 7343.874
298.6360, 7340.958
299.1181, 7361.710
299.6002, 7382.714
300.0823, 7383.647
300.5644, 7372.485
301.0465, 7364.549
301.5287, 7365.497
302.0108, 7369.213
302.4929, 7370.083
302.9750, 7368.099
303.4571, 7363.172
303.9392, 7345.675
304.4214, 7328.020
304.9035, 7328.196
305.3856, 7357.156
305.8677, 7394.314
306.3498, 7429.941
306.8319, 7460.792
307.3141, 7475.884
307.7962, 7451.254
308.2783, 7415.590
308.7604, 7397.618
309.2425, 7408.083
309.7246, 7426.873
310.2068, 7443.933
310.6889, 7459.697
311.1710, 7475.482
311.6531, 7492.954
312.1352, 7510.091
312.6173, 7525.252
313.0995, 7537.817
313.5816, 7548.978
314.0637, 7559.394
314.5458, 7568.837
315.0279, 7576.977
315.5100, 7585.886
315.9922, 7591.801
316.4743, 7590.063
316.9564, 7576.458
317.4385, 7570.512
317.9206, 7584.333
318.4027, 7608.381
318.8849, 7629.326
319.3670, 7636.817
319.8491, 7646.560
320.3312, 7669.819
320.8133, 7712.635
321.2954, 7736.835
321.7776, 7720.431
322.2597, 7687.644
322.7418, 7664.289
323.2239, 7647.603
323.7060, 7647.136
324.1881, 7674.493
324.6703, 7733.516
325.1524, 7773.474
325.6345, 7779.307
326.1166, 7770.429
326.5987, 7762.417
327.0808, 7752.858
327.5630, 7747.118
328.0451, 7745.417
328.5272, 7747.800
329.0093, 7755.745
329.4914, 7773.571
329.9735, 7792.830
330.4557, 7807.543
330.9378, 7812.303
331.4199, 7822.661
331.9020, 7845.658
332.3841, 7876.208
332.8662, 7886.931
333.3484, 7863.649
333.8305, 7841.877
334.3126, 7841.335
334.7947, 7867.048
335.2768, 7900.556
335.7589, 7948.835
336.2411, 7999.994
336.7232, 8020.588
337.2053, 7999.702
337.6874, 7979.691
338.1695, 7981.267
338.6516, 8006.668
339.1338, 8035.792
339.6159, 8071.113
340.0980, 8105.239
340.5801, 8122.482
341.0622, 8121.210
341.5443, 8119.867
342.0265, 8127.483
342.5086, 8142.674
342.9907, 8150.645
343.4728, 8148.945
343.9549, 8149.391
344.4370, 8169.795
344.9192, 8208.008
345.4013, 8245.352
345.8834, 8279.039
346.3655, 8305.711
346.8476, 8310.533
347.3297, 8292.898
347.8119, 8271.458
348.2940, 8261.685
348.7761, 8261.956
349.2582, 8267.825
349.7403, 8279.960
350.2225, 8295.198
350.7046, 8307.773
351.1867, 8318.515
351.6688, 8332.971
352.1509, 8365.835
352.6331, 8402.278
353.1152, 8418.060
353.5973, 8400.655
354.0794, 8374.833
354.5615, 8362.130
355.0436, 8359.076
355.5258, 8355.107
356.0079, 8339.356
356.4900, 8322.957
356.9721, 8317.459
357.4542, 8328.287
357.9363, 8337.626
358.4185, 8328.115
358.9006, 8311.127
359.3827, 8306.339
359.8648, 8336.845
360.3469, 8369.303
360.8290, 8386.075
361.3112, 8384.140
361.7933, 8377.595
362.2754, 8364.261
362.7575, 8351.120
363.2396, 8345.744
363.7217, 8356.515
364.2039, 8368.622
364.6860, 8377.399
365.1681, 8382.729
365.6502, 8391.666
366.1323, 8411.414
366.6144, 8431.215
367.0966, 8443.560
367.5787, 8431.224
368.0608, 8432.543
368.5429, 8463.266
369.0250, 8513.851
369.5071, 8533.909
369.9893, 8504.648
370.4714, 8466.836
370.9535, 8438.653
371.4356, 8419.812
371.9177, 8412.852
372.3998, 8423.219
372.8820, 8442.782
373.3641, 8454.911
373.8462, 8461.141
374.3283, 8455.701
374.8104, 8429.989
375.2925, 8380.184
375.7747, 8356.058
376.2568, 8364.646
376.7389, 8384.540
377.2210, 8385.570
377.7031, 8366.318
378.1852, 8349.165
378.6674, 8343.863
379.1495, 8345.985
379.6316, 8334.003
380.1137, 8306.729
380.5958, 8277.013
381.0779, 8257.024
381.5601, 8245.079
382.0422, 8233.964
382.5243, 8220.717
383.0064, 8208.844
383.4885, 8203.499
383.9706, 8204.533
384.4528, 8211.166
384.9349, 8228.921
385.4170, 8250.437
385.8991, 8264.064
386.3812, 8267.883
386.8633, 8264.695
387.3455, 8250.052
387.8276, 8230.111
388.3097, 8218.803
388.7918, 8236.080
389.2739, 8256.684
389.7560, 8255.671
390.2382, 8228.823
390.7203, 8208.481
391.2024, 8218.808
391.6845, 8242.930
392.1666, 8261.568
392.6487, 8251.209
393.1309, 8250.236
393.6130, 8282.972
394.0951, 8345.791
394.5772, 8394.117
395.0593, 8404.643
395.5414, 8404.746
396.0236, 8411.421
396.5057, 8441.271
396.9878, 8460.891
397.4699, 8454.412
397.9520, 8433.706
398.4341, 8436.327
398.9163, 8483.713
399.3984, 8532.185
399.8805, 8564.446
400.3626, 8570.944
400.8447, 8590.765
401.3268, 8633.608
401.8090, 8682.585
402.2911, 8713.027
402.7732, 8717.242
403.2553, 8722.279
403.7374, 8735.642
404.2195, 8756.811
404.7017, 8776.987
405.1838, 8796.900
405.6659, 8814.002
406.1480, 8824.026
406.6301, 8826.856
407.1122, 8834.116
407.5944, 8849.901
408.0765, 8869.279
408.5586, 8878.494
409.0407, 8877.801
409.5228, 8878.162
410.0049, 8890.874
410.4871, 8910.298
410.9692, 8918.669
411.4513, 8911.900
411.9334, 8903.399
412.4155, 8907.983
412.8976, 8923.310
413.3798, 8942.161
413.8619, 8971.071
414.3440, 8996.450
414.8261, 8998.737
415.3082, 8977.762
415.7903, 8960.884
416.2725, 8965.918
416.7546, 8984.869
417.2367, 9009.531
417.7188, 9050.260
418.2009, 9081.336
418.6830, 9089.553
419.1652, 9077.883
419.6473, 9056.870
420.1294, 9008.824
420.6115, 8967.908
421.0937, 8955.437
421.5758, 8992.935
422.0579, 9019.032
422.5400, 9018.053
423.0221, 9002.628
423.5042, 8993.328
423.9864, 8991.467
424.4685, 8995.273
424.9506, 9007.733
425.4327, 9030.146
425.9148, 9040.643
426.3969, 9028.016
426.8791, 9016.226
427.3612, 9031.482
427.8433, 9090.217
428.3254, 9121.828
428.8075, 9105.969
429.2896, 9060.265
429.7718, 9046.463
430.2539, 9068.713
430.7360, 9099.925
431.2181, 9125.742
431.7002, 9146.481
432.1823, 9167.436
432.6645, 9189.649
433.1466, 9209.522
433.6287, 9217.331
434.1108, 9216.291
434.5929, 9222.766
435.0750, 9245.017
435.5572, 9278.306
436.0393, 9319.556
436.5214, 9368.088
437.0035, 9409.638
437.4856, 9425.619
437.9677, 9429.516
438.4499, 9440.193
438.9320, 9464.961
439.4141, 9493.318
439.8962, 9517.047
440.3783, 9538.359
440.8604, 9563.674
441.3426, 9610.683
441.8247, 9650.880
442.3068, 9662.951
442.7889, 9637.098
443.2710, 9619.450
443.7531, 9625.054
444.2353, 9644.063
444.7174, 9665.704
445.1995, 9703.943
445.6816, 9727.507
446.1637, 9726.994
446.6458, 9704.537
447.1280, 9680.068
447.6101, 9639.886
448.0922, 9612.803
448.5743, 9623.152
449.0564, 9706.363
449.5385, 9728.426
450.0207, 9666.844
450.5028, 9560.295
450.9849, 9481.121
451.4670, 9434.831
451.9491, 9391.129
452.4312, 9333.125
452.9134, 9265.706
453.3955, 9226.590
453.8776, 9217.524
454.3597, 9224.537
454.8418, 9240.415
455.3239, 9262.612
455.8061, 9279.123
456.2882, 9284.802
456.7703, 9287.744
457.2524, 9302.314
457.7345, 9325.286
458.2166, 9343.802
458.6988, 9342.397
459.1809, 9336.289
459.6630, 9342.846
460.1451, 9365.154
460.6272, 9390.836
461.1093, 9418.201
461.5915, 9442.424
462.0736, 9456.870
462.5557, 9439.587
463.0378, 9431.568
463.5199, 9456.457
464.0020, 9508.935
464.4842, 9549.132
464.9663, 9554.366
465.4484, 9555.532
465.9305, 9569.685
466.4126, 9611.074
466.8947, 9641.713
467.3769, 9657.289
467.8590, 9663.953
468.3411, 9671.620
468.8232, 9680.723
469.3053, 9690.032
469.7874, 9700.072
470.2696, 9710.603
470.7517, 9717.447
471.2338, 9720.802
471.7159, 9719.888
472.1980, 9711.018
472.6801, 9694.487
473.1623, 9685.998
473.6444, 9690.569
474.1265, 9698.454
474.6086, 9689.654
475.0907, 9666.970
475.5728, 9648.509
476.0550, 9655.291
476.5371, 9668.383
477.0192, 9650.627
477.5013, 9600.304
477.9834, 9553.313
478.4655, 9541.896
478.9477, 9549.000
479.4298, 9552.579
479.9119, 9545.234
480.3940, 9533.921
480.8761, 9516.606
481.3582, 9497.406
481.8404, 9488.475
482.3225, 9505.500
482.8046, 9524.037
483.2867, 9533.709
483.7688, 9533.037
484.2509, 9525.528
484.7331, 9499.151
485.2152, 9472.492
485.6973, 9463.809
486.1794, 9489.374
486.6615, 9504.458
487.1436, 9497.779
487.6258, 9475.661
488.1079, 9468.730
488.5900, 9480.381
489.0721, 9498.067
489.5542, 9518.128
490.0363, 9540.768
490.5185, 9553.397
491.0006, 9554.983
491.4827, 9548.568
491.9648, 9533.281
492.4470, 9511.462
492.9291, 9496.326
493.4112, 9493.719
493.8933, 9499.392
494.3754, 9507.622
494.8575, 9518.591
495.3397, 9532.912
495.8218, 9556.564
496.3039, 9581.332
496.7860, 9597.714
497.2681, 9603.458
497.7502, 9605.328
498.2324, 9602.412
498.7145, 9599.107
499.1966, 9601.349
499.6787, 9607.158
500.1608, 9622.573
500.6429, 9658.938
501.1251, 9713.681
501.6072, 9746.931
502.0893, 9736.542
502.5714, 9721.725
503.0535, 9720.583
503.5356, 9737.891
504.0178, 9757.376
504.4999, 9778.369
504.9820, 9802.034
505.4641, 9832.056
505.9462, 9870.134
506.4283, 9905.070
506.9105, 9932.540
507.3926, 9954.420
507.8747, 9977.142
508.3568, 10000.71
508.8389, 10026.89
509.3210, 10060.28
509.8032, 10097.68
510.2853, 10130.92
510.7674, 10158.95
511.2495, 10182.86
511.7316, 10204.79
512.2137, 10223.41
512.6959, 10235.78
513.1780, 10239.02
513.6601, 10237.21
514.1422, 10228.84
514.6243, 10215.73
515.1064, 10209.62
515.5886, 10217.74
516.0707, 10232.50
516.5528, 10250.15
517.0349, 10274.46
517.5170, 10293.12
517.9991, 10305.92
518.4813, 10311.95
518.9634, 10308.15
519.4455, 10282.40
519.9276, 10268.29
520.4097, 10277.63
520.8918, 10305.41
521.3740, 10318.91
521.8561, 10315.75
522.3382, 10306.26
522.8203, 10296.25
523.3024, 10285.74
523.7845, 10272.46
524.2667, 10255.23
524.7488, 10239.03
525.2309, 10230.70
525.7130, 10228.39
526.1951, 10225.78
526.6772, 10220.11
527.1594, 10213.54
527.6415, 10210.15
528.1236, 10208.73
528.6057, 10203.68
529.0878, 10185.68
529.5699, 10166.93
530.0521, 10157.58
530.5342, 10160.66
531.0163, 10164.75
531.4984, 10173.31
531.9805, 10178.02
532.4626, 10170.14
532.9448, 10119.59
533.4269, 10091.66
533.9090, 10105.22
534.3911, 10147.97
534.8732, 10170.03
535.3553, 10160.01
535.8375, 10151.28
536.3196, 10163.75
536.8017, 10199.85
537.2838, 10202.33
537.7659, 10161.47
538.2480, 10119.07
538.7302, 10128.78
539.2123, 10182.25
539.6944, 10220.58
540.1765, 10228.72
540.6586, 10220.47
541.1407, 10212.64
541.6229, 10204.59
542.1050, 10193.89
542.5871, 10174.19
543.0692, 10154.57
543.5513, 10144.36
544.0334, 10144.05
544.5156, 10145.05
544.9977, 10140.22
545.4798, 10136.83
545.9619, 10141.20
546.4440, 10164.00
546.9261, 10180.51
547.4083, 10179.72
547.8904, 10172.13
548.3725, 10177.31
548.8546, 10206.29
549.3367, 10229.71
549.8188, 10237.63
550.3010, 10232.02
550.7831, 10238.57
551.2652, 10261.52
551.7473, 10282.49
552.2294, 10285.30
552.7115, 10272.14
553.1937, 10264.07
553.6758, 10262.72
554.1579, 10266.62
554.6400, 10270.84
555.1221, 10278.56
555.6042, 10300.06
556.0864, 10357.42
556.5685, 10411.75
557.0506, 10420.66
557.5327, 10393.13
558.0148, 10362.14
558.4969, 10330.13
558.9791, 10309.85
559.4612, 10315.02
559.9433, 10354.04
560.4254, 10381.13
560.9075, 10390.16
561.3896, 10382.03
561.8718, 10356.19
562.3539, 10284.45
562.8360, 10244.48
563.3181, 10253.75
563.8002, 10292.88
564.2823, 10318.50
564.7645, 10330.84
565.2466, 10326.24
565.7287, 10289.82
566.2108, 10234.20
566.6929, 10229.55
567.1750, 10277.68
567.6572, 10336.71
568.1393, 10376.49
568.6214, 10400.53
569.1035, 10411.37
569.5856, 10406.28
570.0677, 10401.51
570.5499, 10414.89
571.0320, 10436.59
571.5141, 10451.18
571.9962, 10442.25
572.4783, 10435.83
572.9604, 10443.14
573.4426, 10462.27
573.9247, 10483.02
574.4068, 10508.81
574.8889, 10530.97
575.3710, 10543.22
575.8531, 10540.64
576.3353, 10555.75
576.8174, 10600.33
577.2995, 10644.92
577.7816, 10657.65
578.2637, 10634.83
578.7458, 10618.93
579.2280, 10616.79
579.7101, 10622.85
580.1922, 10627.79
580.6743, 10632.13
581.1564, 10638.89
581.6385, 10657.80
582.1207, 10675.46
582.6028, 10670.69
583.0849, 10645.86
583.5670, 10619.29
584.0491, 10596.94
584.5313, 10580.25
585.0134, 10570.30
585.4955, 10567.30
585.9776, 10570.84
586.4597, 10584.45
586.9418, 10603.12
587.4240, 10621.21
587.9061, 10640.44
588.3882, 10656.22
588.8703, 10667.69
589.3524, 10675.50
589.8345, 10678.53
590.3167, 10672.56
590.7988, 10679.01
591.2809, 10716.49
591.7630, 10775.34
592.2451, 10797.64
592.7272, 10781.96
593.2094, 10765.07
593.6915, 10783.24
594.1736, 10820.85
594.6557, 10846.55
595.1378, 10851.95
595.6199, 10857.67
596.1021, 10888.22
596.5842, 10926.34
597.0663, 10947.47
597.5485, 10929.20
598.0306, 10907.34
598.5127, 10886.99
598.9948, 10870.79
599.4769, 10869.82
599.9590, 10906.52
600.4412, 10931.44
600.9233, 10920.44
601.4054, 10868.97
601.8875, 10856.78
602.3696, 10896.05
602.8517, 10945.03
603.3339, 10964.80
603.8160, 10958.28
604.2981, 10961.33
604.7802, 10978.76
605.2623, 11003.39
605.7444, 11025.65
606.2266, 11047.67
606.7087, 11074.06
607.1908, 11109.24
607.6729, 11147.23
608.1550, 11192.34
608.6371, 11238.05
609.1193, 11264.70
609.6014, 11238.26
610.0835, 11213.03
610.5656, 11218.05
611.0477, 11259.65
611.5298, 11296.20
612.0120, 11333.78
612.4941, 11358.25
612.9762, 11352.92
613.4583, 11299.44
613.9404, 11288.54
614.4225, 11339.55
614.9047, 11406.32
615.3868, 11416.38
615.8689, 11374.41
616.3510, 11342.54
616.8331, 11344.51
617.3152, 11358.48
617.7974, 11356.51
618.2795, 11338.59
618.7616, 11305.04
619.2437, 11239.36
619.7258, 11170.70
620.2079, 11122.49
620.6901, 11096.05
621.1722, 11068.81
621.6543, 11031.37
622.1364, 10991.55
622.6185, 10954.10
623.1006, 10915.98
623.5828, 10887.05
624.0649, 10868.91
624.5470, 10858.47
625.0291, 10855.08
625.5112, 10862.04
625.9933, 10856.94
626.4755, 10831.96
626.9576, 10798.06
627.4397, 10777.68
627.9218, 10769.67
628.4039, 10765.25
628.8860, 10761.09
629.3682, 10757.50
629.8503, 10753.71
630.3324, 10750.21
630.8145, 10750.74
631.2966, 10762.09
631.7787, 10775.01
632.2609, 10783.40
632.7430, 10786.40
633.2251, 10785.02
633.7072, 10766.51
634.1893, 10751.77
634.6714, 10760.55
635.1536, 10813.01
635.6357, 10842.95
636.1178, 10837.87
636.5999, 10815.98
637.0820, 10810.03
637.5641, 10820.57
638.0463, 10835.56
638.5284, 10856.52
639.0105, 10874.89
639.4926, 10864.36
639.9747, 10831.14
640.4568, 10811.16
640.9390, 10835.04
641.4211, 10876.30
641.9032, 10915.34
642.3853, 10950.55
642.8674, 10973.61
643.3495, 10974.85
643.8317, 10966.89
644.3138, 10957.46
644.7959, 10940.96
645.2780, 10936.14
645.7601, 10947.40
646.2422, 10966.45
646.7244, 10984.24
647.2065, 11000.38
647.6886, 11018.11
648.1707, 11041.65
648.6528, 11061.62
649.1349, 11051.14
649.6171, 11015.29
650.0992, 10989.64
650.5813, 11002.80
651.0634, 11027.77
651.5455, 11032.84
652.0276, 11020.10
652.5098, 11000.44
652.9919, 10971.58
653.4740, 10943.88
653.9561, 10921.99
654.4382, 10905.34
654.9203, 10901.50
655.4025, 10924.75
655.8846, 10950.17
656.3667, 10959.80
656.8488, 10945.88
657.3309, 10940.68
657.8130, 10948.58
658.2952, 10959.40
658.7773, 10959.03
659.2594, 10948.05
