##NAMES=Gaudefroyite
##RRUFFID=R050675
##IDEAL CHEMISTRY=Ca_4_Mn^3+^_3_(BO_3_)_3_(CO_3_)O_3_
##LOCALITY=Wessels mine, Cape Province, South Africa
##OWNER=RRUFF
##SOURCE=University of Arizona Mineral Museum
##DESCRIPTION=Black hexagonal stubby dipyramidal crystals
##STATUS=The identification of this mineral has been confirmed by X-ray diffraction and chemical analysis
##URL=rruff.info/R050675
##MEASURED CHEMISTRY=Ca_4.00_(Mn^3+^_2.98_[box]_0.02_)_Σ=3_(BO_3_)_3_(CO_3_)(O_2.94_(OH)_0.06_)_Σ=3_ ; B, C, H not measured but estimated by charge balance.
92.02539, 113.7440
92.50751, 116.7850
92.98962, 119.0473
93.47174, 118.1339
93.95386, 115.8541
94.43597, 112.9290
94.91809, 109.6860
95.40021, 106.3623
95.88232, 103.3089
96.36444, 100.3161
96.84656, 97.89980
97.32867, 96.57061
97.81078, 95.87989
98.29290, 95.10867
98.77502, 93.63354
99.25713, 91.26756
99.73925, 88.80453
100.2214, 86.46280
100.7035, 83.89470
101.1856, 80.34689
101.6677, 76.04652
102.1498, 72.29878
102.6320, 70.70383
103.1141, 72.01965
103.5962, 74.10249
104.0783, 78.26289
104.5604, 82.68333
105.0425, 85.36947
105.5247, 85.73189
106.0068, 84.27598
106.4889, 81.53101
106.9710, 77.43932
107.4531, 73.10094
107.9352, 68.60253
108.4173, 64.08430
108.8995, 60.31898
109.3816, 57.80622
109.8637, 56.08539
110.3458, 54.59981
110.8279, 53.26991
111.3100, 52.23817
111.7922, 51.70312
112.2743, 51.74630
112.7564, 52.05573
113.2385, 52.93721
113.7206, 53.84473
114.2027, 54.26409
114.6849, 53.93738
115.1670, 53.05159
115.6491, 52.26519
116.1312, 51.63597
116.6133, 51.04316
117.0954, 50.49212
117.5776, 49.95725
118.0597, 49.36205
118.5418, 48.61893
119.0239, 47.71776
119.5060, 47.36600
119.9881, 47.99743
120.4703, 48.65071
120.9524, 48.99818
121.4345, 49.01648
121.9166, 48.79867
122.3987, 48.40425
122.8808, 47.79696
123.3630, 47.16380
123.8451, 46.46511
124.3272, 45.75872
124.8093, 45.11311
125.2914, 44.54114
125.7735, 44.00111
126.2557, 43.38417
126.7378, 42.71722
127.2199, 42.23490
127.7020, 42.14797
128.1841, 42.33712
128.6662, 42.42347
129.1483, 42.31768
129.6305, 42.12150
130.1126, 41.92782
130.5947, 41.73409
131.0768, 41.50813
131.5589, 41.17841
132.0410, 40.71646
132.5232, 40.38665
133.0053, 40.44662
133.4874, 40.49487
133.9695, 40.30771
134.4516, 39.84727
134.9337, 39.24865
135.4159, 38.70222
135.8980, 38.19373
136.3801, 37.77488
136.8622, 37.40859
137.3443, 37.13297
137.8264, 36.99925
138.3086, 37.02314
138.7907, 37.16014
139.2728, 37.28868
139.7549, 37.59199
140.2370, 37.66827
140.7191, 37.33169
141.2013, 36.77397
141.6834, 36.26215
142.1655, 35.93053
142.6476, 35.76115
143.1297, 35.67785
143.6118, 35.79779
144.0939, 35.86555
144.5761, 35.70864
145.0582, 35.38006
145.5403, 35.14709
146.0224, 35.28081
146.5045, 35.58485
146.9866, 35.49588
147.4688, 34.67772
147.9509, 33.71936
148.4330, 33.22079
148.9151, 33.24627
149.3972, 33.32666
149.8793, 33.10960
150.3615, 32.78640
150.8436, 32.60452
151.3257, 32.71710
151.8078, 32.99382
152.2899, 33.12773
152.7720, 33.03640
153.2542, 32.94278
153.7363, 32.93280
154.2184, 32.98106
154.7005, 33.05748
155.1826, 33.16401
155.6647, 33.28893
156.1469, 33.30354
156.6290, 33.02771
157.1111, 32.81398
157.5932, 32.80297
158.0753, 32.93186
158.5574, 33.06248
159.0396, 33.08290
159.5217, 32.98729
160.0038, 32.82511
160.4859, 32.59494
160.9680, 32.31144
161.4501, 31.88860
161.9323, 31.38179
162.4144, 30.98672
162.8965, 30.93086
163.3786, 31.33726
163.8607, 31.55730
164.3428, 31.57378
164.8250, 31.43792
165.3071, 31.11847
165.7892, 30.62479
166.2713, 30.12081
166.7534, 29.82040
167.2355, 29.75908
167.7177, 29.64968
168.1998, 29.40371
168.6819, 29.11331
169.1640, 28.94348
169.6461, 28.97013
170.1282, 28.96032
170.6104, 28.52036
171.0925, 27.70618
171.5746, 27.01566
172.0567, 26.68894
172.5388, 26.64158
173.0209, 26.63521
173.5031, 26.64400
173.9852, 26.66522
174.4673, 26.65814
174.9494, 26.63297
175.4315, 26.69643
175.9136, 27.08987
176.3958, 27.79020
176.8779, 28.03768
177.3600, 27.27265
177.8421, 26.38365
178.3242, 25.86921
178.8063, 25.74664
179.2885, 25.77270
179.7706, 25.66178
180.2527, 25.33142
180.7348, 25.23318
181.2169, 25.73676
181.6990, 26.22501
182.1812, 26.31642
182.6633, 25.97831
183.1454, 25.48880
183.6275, 25.22776
184.1096, 25.26008
184.5917, 25.41281
185.0738, 25.83568
185.5560, 26.25489
186.0381, 26.42743
186.5202, 26.31164
187.0023, 26.10184
187.4844, 26.14123
187.9665, 26.77365
188.4487, 27.10078
188.9308, 26.95834
189.4129, 26.60613
189.8950, 26.21626
190.3771, 25.85207
190.8592, 25.58901
191.3414, 25.60760
191.8235, 26.15191
192.3056, 26.51447
192.7877, 26.59838
193.2698, 26.46514
193.7519, 26.12819
194.2341, 25.55056
194.7162, 24.92027
195.1983, 24.66578
195.6804, 24.83894
196.1625, 25.05060
196.6446, 25.16861
197.1268, 25.24031
197.6089, 25.40279
198.0910, 25.76209
198.5731, 26.13120
199.0552, 26.18592
199.5373, 25.87601
200.0195, 25.58364
200.5016, 25.51354
200.9837, 25.63788
201.4658, 25.84302
201.9479, 26.23822
202.4300, 26.54547
202.9122, 26.37899
203.3943, 25.67495
203.8764, 25.06221
204.3585, 25.18210
204.8406, 26.02882
205.3227, 26.62702
205.8048, 26.59167
206.2870, 26.31808
206.7691, 26.02560
207.2512, 25.74449
207.7333, 25.53304
208.2154, 25.47578
208.6975, 25.59821
209.1797, 25.72398
209.6618, 25.75484
210.1439, 25.82944
210.6260, 26.07391
211.1081, 26.49339
211.5902, 26.93419
212.0724, 27.18988
212.5545, 27.20054
213.0366, 27.19757
213.5187, 27.24369
214.0008, 27.25190
214.4829, 27.10477
214.9651, 26.80743
215.4472, 26.52509
215.9293, 26.53589
216.4114, 27.09652
216.8935, 27.41492
217.3756, 27.19532
217.8578, 26.97630
218.3399, 27.21073
218.8220, 27.95881
219.3041, 28.87010
219.7862, 29.40335
220.2683, 29.35456
220.7505, 29.27825
221.2326, 29.10190
221.7147, 28.94479
222.1968, 28.89295
222.6789, 28.96832
223.1610, 29.15160
223.6432, 29.43638
224.1253, 30.00709
224.6074, 30.25554
225.0895, 29.85759
225.5716, 29.32135
226.0537, 29.14230
226.5358, 29.42924
227.0180, 29.88596
227.5001, 30.09678
227.9822, 29.96095
228.4643, 29.88360
228.9464, 29.89806
229.4285, 29.97752
229.9107, 30.10443
230.3928, 30.27572
230.8749, 30.47051
231.3570, 30.66394
231.8391, 30.85535
232.3212, 31.05154
232.8034, 31.32119
233.2855, 31.56979
233.7676, 31.62070
234.2497, 31.40876
234.7318, 31.20010
235.2139, 31.39316
235.6961, 31.92965
236.1782, 32.30663
236.6603, 32.20565
237.1424, 31.92720
237.6245, 31.98071
238.1066, 32.50854
238.5888, 33.10049
239.0709, 33.33232
239.5530, 33.30515
240.0351, 33.31675
240.5172, 33.55180
240.9993, 33.87402
241.4815, 34.00066
241.9636, 33.85731
242.4457, 33.66750
242.9278, 33.58059
243.4099, 33.56867
243.8920, 33.58586
244.3742, 33.65886
244.8563, 33.74113
245.3384, 33.73746
245.8205, 33.66442
246.3026, 33.45821
246.7847, 33.00557
247.2668, 32.42068
247.7490, 31.89103
248.2311, 31.55447
248.7132, 31.30330
249.1953, 30.80850
249.6774, 29.86013
250.1595, 29.10938
250.6417, 29.01558
251.1238, 29.20574
251.6059, 29.18219
252.0880, 28.65688
252.5701, 27.85972
253.0522, 27.37901
253.5344, 27.37706
254.0165, 27.39002
254.4986, 27.34966
254.9807, 27.22098
255.4628, 26.92393
255.9449, 26.39875
256.4271, 25.78294
256.9092, 25.40210
257.3913, 25.35826
257.8734, 25.37602
258.3555, 25.40475
258.8376, 25.45130
259.3198, 25.52198
259.8019, 25.61909
260.2840, 25.74163
260.7661, 25.88132
261.2482, 26.00553
261.7303, 26.21865
262.2125, 26.59547
262.6946, 27.01444
263.1767, 27.35859
263.6588, 27.59649
264.1409, 27.80171
264.6230, 28.11955
265.1052, 28.65670
265.5873, 29.09620
266.0694, 29.25324
266.5515, 29.43204
267.0336, 29.86013
267.5157, 30.58382
267.9979, 31.48928
268.4800, 32.42724
268.9621, 33.45243
269.4442, 34.37669
269.9263, 35.18870
270.4084, 35.93071
270.8906, 36.56100
271.3727, 37.10983
271.8548, 37.71801
272.3369, 38.58753
272.8190, 39.86340
273.3011, 40.89190
273.7833, 41.44419
274.2654, 41.98838
274.7475, 42.77363
275.2296, 43.81209
275.7117, 44.98127
276.1938, 46.17105
276.6760, 47.39209
277.1581, 48.57658
277.6402, 49.80523
278.1223, 50.93847
278.6044, 51.86719
279.0865, 52.63561
279.5686, 53.39045
280.0508, 54.25982
280.5329, 55.24690
281.0150, 56.10660
281.4971, 56.87689
281.9792, 57.51469
282.4613, 58.03925
282.9435, 58.42054
283.4256, 58.59560
283.9077, 58.52248
284.3898, 58.20697
284.8719, 57.69393
285.3540, 56.89504
285.8362, 56.03093
286.3183, 55.21977
286.8004, 54.37663
287.2825, 53.32617
287.7646, 51.96214
288.2467, 50.37280
288.7289, 48.83923
289.2110, 47.41754
289.6931, 45.98362
290.1752, 44.47865
290.6573, 42.96771
291.1394, 41.53515
291.6216, 40.20879
292.1037, 39.01556
292.5858, 38.02218
293.0679, 37.42000
293.5500, 36.65653
294.0321, 35.45866
294.5143, 34.16779
294.9964, 33.21436
295.4785, 32.70860
295.9606, 32.36352
296.4427, 31.76031
296.9248, 30.75799
297.4070, 29.92315
297.8891, 29.28522
298.3712, 28.81594
298.8533, 28.57883
299.3354, 28.55917
299.8175, 28.51012
300.2997, 28.15751
300.7818, 27.43388
301.2639, 26.84995
301.7460, 26.50327
302.2281, 26.22037
302.7102, 25.86594
303.1924, 25.44706
303.6745, 25.06709
304.1566, 24.79918
304.6387, 24.64841
305.1208, 24.56380
305.6029, 24.60398
306.0851, 24.64613
306.5672, 24.63577
307.0493, 24.57711
307.5314, 24.48658
308.0135, 24.36662
308.4956, 24.22708
308.9778, 24.11462
309.4599, 24.08993
309.9420, 24.01412
310.4241, 23.76369
310.9062, 23.43719
311.3883, 23.24845
311.8705, 23.30248
312.3526, 23.48440
312.8347, 23.51659
313.3168, 23.26334
313.7989, 23.19664
314.2810, 23.63743
314.7632, 24.23800
315.2453, 24.44378
315.7274, 24.08326
316.2095, 23.64087
316.6916, 23.82853
317.1737, 24.83515
317.6559, 25.64758
318.1380, 26.11096
318.6201, 26.39191
319.1022, 26.62341
319.5843, 26.82803
320.0664, 26.98145
320.5485, 27.01844
321.0306, 26.92897
321.5128, 27.09534
321.9949, 27.74444
322.4770, 28.45042
322.9591, 28.92527
323.4412, 29.19480
323.9233, 29.46799
324.4055, 29.88139
324.8876, 30.41801
325.3697, 30.91922
325.8518, 31.39468
326.3339, 31.83305
326.8160, 32.20336
327.2982, 32.53436
327.7803, 32.93325
328.2624, 33.48496
328.7445, 34.04607
329.2266, 34.18658
329.7087, 33.60314
330.1909, 33.20869
330.6730, 33.33045
331.1551, 33.67850
331.6372, 33.85873
332.1193, 33.75468
332.6014, 33.55532
333.0836, 33.53575
333.5657, 33.77766
334.0478, 33.96908
334.5299, 34.17105
335.0120, 34.27262
335.4941, 34.20980
335.9763, 33.96427
336.4584, 33.47984
336.9405, 32.64576
337.4226, 31.41065
337.9047, 30.51009
338.3868, 30.01279
338.8690, 29.73014
339.3511, 29.71931
339.8332, 29.86452
340.3153, 29.86332
340.7974, 29.51369
341.2795, 28.86753
341.7617, 28.24953
342.2438, 27.74997
342.7259, 27.17109
343.2080, 26.35686
343.6901, 25.46145
344.1722, 24.70396
344.6544, 24.17585
345.1365, 23.85054
345.6186, 23.68975
346.1007, 24.04064
346.5828, 24.00466
347.0649, 23.21727
347.5471, 22.25099
348.0292, 21.62037
348.5113, 21.41734
348.9934, 21.37996
349.4755, 21.21195
349.9576, 20.89526
350.4398, 20.49557
350.9219, 19.84735
351.4040, 19.27681
351.8861, 19.01995
352.3682, 19.01040
352.8503, 19.00084
353.3325, 18.79480
353.8146, 18.41272
354.2967, 18.17688
354.7788, 18.30216
355.2609, 18.32820
355.7430, 18.05616
356.2252, 17.65316
356.7073, 17.36361
357.1894, 17.30520
357.6715, 17.39509
358.1536, 17.42018
358.6357, 17.26999
359.1179, 17.22803
359.5999, 17.46164
360.0821, 17.70015
360.5642, 17.68527
361.0463, 17.38639
361.5284, 17.00381
362.0105, 16.78561
362.4926, 16.77118
362.9748, 16.77376
363.4569, 16.88502
363.9390, 16.92802
364.4211, 16.75665
364.9032, 16.44129
365.3853, 16.16920
365.8675, 16.07576
366.3496, 16.15277
366.8317, 16.33069
367.3138, 16.74554
367.7959, 17.08853
368.2780, 17.28183
368.7602, 17.37237
369.2423, 17.40310
369.7244, 17.38912
370.2065, 17.36656
370.6886, 17.42479
371.1707, 17.63107
371.6529, 17.74427
372.1350, 17.59930
372.6171, 17.45024
373.0992, 17.51179
373.5813, 17.78946
374.0634, 18.06634
374.5456, 18.06057
375.0277, 17.75032
375.5098, 17.64163
375.9919, 17.91348
376.4740, 18.21549
376.9561, 18.41948
377.4383, 18.52789
377.9204, 18.54749
378.4025, 18.42473
378.8846, 18.24881
379.3667, 18.32422
379.8488, 18.80896
380.3310, 19.13185
380.8131, 18.94036
381.2952, 18.52824
381.7773, 18.14851
382.2594, 17.84686
382.7415, 17.67142
383.2237, 17.73763
383.7058, 18.04364
384.1879, 18.27596
384.6700, 18.32402
385.1521, 18.30698
385.6342, 18.31842
386.1164, 18.36064
386.5985, 18.44696
387.0806, 18.64337
387.5627, 18.88304
388.0448, 19.00293
388.5269, 18.97692
389.0091, 18.87341
389.4912, 18.66964
389.9733, 18.42545
390.4554, 18.28133
390.9375, 18.28426
391.4196, 18.38041
391.9018, 18.64103
392.3839, 19.02540
392.8660, 19.11294
393.3481, 18.59299
393.8302, 17.78522
394.3123, 17.32396
394.7945, 17.27367
395.2766, 17.30713
395.7587, 17.37484
396.2408, 17.42448
396.7229, 17.32522
397.2050, 17.03101
397.6872, 16.74485
398.1693, 16.75040
398.6514, 17.08689
399.1335, 17.12890
399.6156, 16.49144
400.0977, 15.83948
400.5798, 15.72006
401.0620, 16.04974
401.5441, 16.35564
402.0262, 16.34004
402.5083, 16.07281
402.9904, 15.90386
403.4725, 15.94669
403.9547, 15.93184
404.4368, 15.73375
404.9189, 15.47852
405.4010, 15.33694
405.8831, 15.35963
406.3652, 15.45676
406.8474, 15.50036
407.3295, 15.47745
407.8116, 15.43149
408.2937, 15.45196
408.7758, 15.37626
409.2579, 14.99610
409.7401, 14.41690
410.2222, 13.97323
410.7043, 13.93228
411.1864, 14.23385
411.6685, 14.33902
412.1506, 13.97470
412.6328, 13.74613
413.1149, 13.91206
413.5970, 14.18077
414.0791, 14.19932
414.5612, 13.85418
415.0433, 13.36215
415.5255, 13.06671
416.0076, 13.03182
416.4897, 12.96863
416.9718, 12.79906
417.4539, 12.65067
417.9360, 12.61350
418.4182, 12.65904
418.9003, 12.68109
419.3824, 12.59721
419.8645, 12.42889
420.3466, 12.27666
420.8287, 12.17095
421.3109, 12.01734
421.7930, 11.64251
422.2751, 11.25857
422.7572, 11.16217
423.2393, 11.48555
423.7214, 11.86290
424.2036, 11.84210
424.6857, 11.44222
425.1678, 11.16175
425.6499, 11.11311
426.1320, 11.22246
426.6141, 11.49844
427.0963, 11.90528
427.5784, 12.14881
428.0605, 11.97473
428.5426, 11.61554
429.0247, 11.44203
429.5068, 11.48150
429.9890, 11.54174
430.4711, 11.51178
430.9532, 11.40805
431.4353, 11.28704
431.9174, 11.02223
432.3995, 10.92848
432.8817, 11.35489
433.3638, 12.04772
433.8459, 12.45349
434.3280, 12.38518
434.8101, 12.07981
435.2922, 11.85261
435.7744, 11.73377
436.2565, 11.57077
436.7386, 11.22386
437.2207, 10.93856
437.7028, 10.96480
438.1849, 11.23679
438.6671, 11.45236
439.1492, 11.39490
439.6313, 11.12669
440.1134, 11.01523
440.5955, 11.31150
441.0776, 11.45452
441.5598, 11.28451
442.0418, 10.98282
442.5240, 10.69733
443.0061, 10.48333
443.4882, 10.36760
443.9703, 10.40221
444.4524, 10.62507
444.9345, 10.82132
445.4167, 10.93746
445.8988, 11.07947
446.3809, 11.37046
446.8630, 11.70579
447.3451, 11.88093
447.8272, 11.76110
448.3094, 11.45021
448.7915, 11.20325
449.2736, 11.03505
449.7557, 10.88921
450.2378, 10.70357
450.7199, 10.56757
451.2021, 10.56035
451.6842, 10.68668
452.1663, 10.87112
452.6484, 11.11144
453.1305, 11.37336
453.6126, 11.46250
454.0948, 11.28211
454.5769, 11.13261
455.0590, 11.38190
455.5411, 11.78352
456.0232, 11.86309
456.5053, 11.32038
456.9875, 10.69848
457.4696, 10.50730
457.9517, 10.65211
458.4338, 10.65239
458.9159, 10.27125
459.3980, 9.834542
459.8802, 9.924731
460.3623, 10.59558
460.8444, 11.08695
461.3265, 11.22025
461.8086, 11.14628
462.2907, 10.89343
462.7729, 10.52050
463.2550, 10.27735
463.7371, 10.35882
464.2192, 10.69555
464.7013, 10.88829
465.1834, 10.77544
465.6656, 10.73480
466.1477, 10.97405
466.6298, 11.23456
467.1119, 11.16288
467.5940, 10.71187
468.0761, 10.21144
468.5583, 10.06754
469.0404, 10.34105
469.5225, 10.57384
470.0046, 10.79385
470.4867, 10.94197
470.9688, 10.93541
471.4510, 10.85684
471.9331, 10.84664
472.4152, 10.97758
472.8973, 11.16681
473.3794, 11.24498
473.8615, 11.17722
474.3437, 11.14877
474.8258, 11.31202
475.3079, 11.42363
475.7900, 11.26378
476.2721, 10.87971
476.7542, 10.55726
477.2364, 10.46924
477.7185, 10.56682
478.2006, 10.80135
478.6827, 11.21571
479.1648, 11.49546
479.6469, 11.39975
480.1291, 11.09684
480.6112, 10.90985
481.0933, 10.90493
481.5754, 10.86841
482.0575, 10.59166
482.5396, 10.23313
483.0217, 10.13420
483.5038, 10.37282
483.9860, 10.65213
484.4681, 10.67218
484.9502, 10.42014
485.4323, 10.30091
485.9144, 10.48237
486.3965, 10.61024
486.8787, 10.48244
487.3608, 10.20476
487.8429, 9.958617
488.3250, 9.816219
488.8071, 9.772143
489.2892, 9.820341
489.7714, 9.982233
490.2535, 10.19161
490.7356, 10.62463
491.2177, 10.93459
491.6998, 10.83236
492.1819, 10.45692
492.6641, 10.17032
493.1462, 10.21633
493.6283, 10.47237
494.1104, 10.56172
494.5925, 10.39346
495.0746, 10.30534
495.5568, 10.46400
496.0389, 10.66999
496.5210, 10.79846
497.0031, 10.83622
497.4852, 10.82141
497.9673, 10.76547
498.4495, 10.67800
498.9316, 10.57479
499.4137, 10.44628
499.8958, 10.35092
500.3779, 10.34775
500.8600, 10.39200
501.3422, 10.38755
501.8243, 10.30755
502.3064, 10.22688
502.7885, 10.13773
503.2706, 10.08391
503.7527, 10.18649
504.2349, 10.47427
504.7170, 10.74993
505.1991, 10.79461
505.6812, 10.58994
506.1633, 10.55682
506.6454, 10.90315
507.1276, 11.17091
507.6097, 11.15007
508.0918, 10.95402
508.5739, 10.72551
509.0560, 10.52472
509.5381, 10.41230
510.0203, 10.52395
510.5024, 10.99149
510.9845, 11.23059
511.4666, 10.98532
511.9487, 10.76423
512.4308, 10.79587
512.9130, 10.99502
513.3951, 11.16551
513.8772, 11.20059
514.3593, 11.18204
514.8414, 11.26272
515.3235, 11.45461
515.8057, 11.66075
516.2878, 11.89697
516.7699, 12.10209
517.2520, 12.23679
517.7341, 12.30098
518.2162, 12.29934
518.6984, 12.12257
519.1805, 11.94443
519.6626, 12.04554
520.1447, 12.40616
520.6268, 12.69185
521.1089, 12.69510
521.5911, 12.58527
522.0732, 12.78252
522.5553, 13.40129
523.0374, 13.93045
523.5195, 14.29082
524.0016, 14.52205
524.4838, 14.62538
524.9659, 14.62098
525.4480, 14.01976
525.9301, 14.74536
526.4122, 15.15896
526.8943, 15.27732
527.3765, 14.21615
527.8586, 14.67809
528.3407, 14.52964
528.8228, 14.35616
529.3049, 15.03247
529.7870, 14.14287
530.2692, 14.23169
530.7513, 14.89732
531.2334, 15.25094
531.7155, 15.30932
532.1976, 14.18818
532.6797, 14.59014
533.1619, 14.38170
533.6440, 14.14825
534.1261, 14.76458
534.6082, 13.81500
535.0903, 14.41786
535.5724, 14.40101
536.0546, 14.66777
536.5367, 14.32039
537.0188, 14.16270
537.5009, 14.61937
537.9830, 14.73586
538.4651, 14.31777
538.9473, 14.60257
539.4294, 13.63153
539.9115, 14.24088
540.3936, 14.02070
540.8757, 13.55938
541.3578, 13.21582
541.8400, 13.06734
542.3221, 12.99921
542.8042, 12.89295
543.2863, 12.74665
543.7684, 12.68234
544.2505, 12.77998
544.7326, 12.86755
545.2147, 12.94591
545.6968, 12.98149
546.1790, 12.92550
546.6611, 12.77046
547.1432, 12.58056
547.6253, 12.34684
548.1074, 12.09505
548.5895, 12.21535
549.0717, 12.97568
549.5538, 13.56253
550.0359, 13.26237
550.5180, 12.53325
551.0001, 12.01829
551.4822, 11.80693
551.9644, 11.85615
552.4465, 12.39676
552.9286, 13.12981
553.4107, 13.37847
553.8928, 13.00389
554.3749, 12.46175
554.8571, 12.11092
555.3392, 11.95394
555.8213, 12.04092
556.3034, 12.64451
556.7855, 13.12232
557.2676, 13.24538
557.7498, 13.18596
558.2319, 13.14904
558.7140, 13.18245
559.1961, 13.19624
559.6782, 13.07050
560.1603, 12.80303
560.6425, 12.65170
561.1246, 12.67800
561.6067, 12.73814
562.0888, 12.76070
562.5709, 12.80099
563.0530, 12.90856
563.5352, 13.09365
564.0173, 13.38603
564.4994, 14.00919
564.9815, 14.76904
565.4636, 14.90263
565.9457, 14.21157
566.4279, 13.56578
566.9100, 13.57055
567.3921, 14.08441
567.8742, 14.52538
568.3563, 14.87526
568.8384, 15.18364
569.3206, 15.59920
569.8027, 15.91577
570.2848, 15.78128
570.7669, 15.20271
571.2490, 14.58394
571.7311, 14.26526
572.2133, 14.23356
572.6954, 14.36812
573.1775, 14.97818
573.6596, 15.32225
574.1417, 15.11948
574.6238, 14.75104
575.1060, 14.52766
575.5881, 14.49401
576.0702, 14.53314
576.5523, 14.58140
577.0344, 14.62191
577.5165, 14.57152
577.9987, 14.40150
578.4808, 14.27025
578.9629, 14.28787
579.4450, 14.35252
579.9271, 14.31586
580.4092, 14.16186
580.8914, 14.00524
581.3735, 13.85448
581.8556, 13.74463
582.3377, 13.74929
582.8198, 13.84776
583.3019, 13.90906
583.7841, 13.85275
584.2662, 13.72089
584.7483, 13.63070
