##NAMES=Gaudefroyite
##RRUFFID=R050675
##IDEAL CHEMISTRY=Ca_4_Mn^3+^_3_(BO_3_)_3_(CO_3_)O_3_
##LOCALITY=Wessels mine, Cape Province, South Africa
##OWNER=RRUFF
##SOURCE=University of Arizona Mineral Museum
##DESCRIPTION=Black hexagonal stubby dipyramidal crystals
##STATUS=The identification of this mineral has been confirmed by X-ray diffraction and chemical analysis
##URL=rruff.info/R050675
##MEASURED CHEMISTRY=Ca_4.00_(Mn^3+^_2.98_[box]_0.02_)_Σ=3_(BO_3_)_3_(CO_3_)(O_2.94_(OH)_0.06_)_Σ=3_ ; B, C, H not measured but estimated by charge balance.
89.78156, 0.0000000E+00
90.26367, 39.23783
90.74579, 41.56365
91.22791, 40.84924
91.71002, 37.37799
92.19214, 33.59880
92.67426, 31.35821
93.15638, 30.34253
93.63850, 29.81862
94.12061, 29.86992
94.60273, 30.16005
95.08485, 29.80100
95.56696, 28.72613
96.04908, 27.47549
96.53120, 26.60624
97.01331, 26.12751
97.49543, 25.92383
97.97755, 26.25620
98.45966, 27.05593
98.94178, 26.94257
99.42390, 25.64411
99.90602, 23.81132
100.3881, 22.58088
100.8703, 21.96914
101.3524, 21.90115
101.8345, 22.61177
102.3166, 24.48620
102.7987, 25.37847
103.2808, 24.77539
103.7630, 23.09162
104.2451, 22.20634
104.7272, 22.45317
105.2093, 23.04716
105.6914, 23.53081
106.1735, 24.09588
106.6557, 24.20266
107.1378, 23.64154
107.6199, 22.38259
108.1020, 21.28576
108.5841, 20.11671
109.0662, 19.22764
109.5484, 18.91899
110.0305, 19.73814
110.5126, 20.58970
110.9947, 21.26801
111.4768, 21.72155
111.9590, 22.25546
112.4411, 23.28469
112.9232, 24.32029
113.4053, 24.70368
113.8874, 23.68400
114.3695, 22.51655
114.8517, 21.69793
115.3338, 21.42732
115.8159, 21.15125
116.2980, 20.65017
116.7801, 20.02356
117.2622, 19.49241
117.7444, 18.86951
118.2265, 18.52310
118.7086, 18.79021
119.1907, 20.27571
119.6728, 21.57595
120.1549, 21.69043
120.6371, 20.87232
121.1192, 20.14522
121.6013, 20.01293
122.0834, 20.31937
122.5655, 20.92269
123.0476, 22.10531
123.5298, 23.28317
124.0119, 23.74160
124.4940, 23.53745
124.9761, 23.47416
125.4582, 24.46305
125.9404, 26.04619
126.4225, 27.31684
126.9046, 27.65762
127.3867, 27.55136
127.8688, 27.71834
128.3509, 28.16160
128.8331, 28.84900
129.3152, 29.89871
129.7973, 31.23590
130.2794, 32.45913
130.7615, 33.41406
131.2436, 34.11662
131.7258, 34.50189
132.2079, 34.47092
132.6900, 34.40585
133.1721, 35.00878
133.6542, 36.28657
134.1364, 37.53999
134.6185, 38.27022
135.1006, 38.51257
135.5827, 39.10359
136.0648, 40.11409
136.5469, 41.49608
137.0291, 43.31403
137.5112, 45.71508
137.9933, 47.88995
138.4754, 49.37801
138.9575, 50.14152
139.4396, 50.31845
139.9218, 49.73365
140.4039, 48.57773
140.8860, 47.74887
141.3681, 47.23445
141.8502, 47.08480
142.3323, 47.38483
142.8145, 48.26588
143.2966, 49.28002
143.7787, 50.44352
144.2608, 51.75859
144.7429, 52.73436
145.2250, 53.18661
145.7072, 53.47579
146.1893, 53.93754
146.6714, 54.60109
147.1535, 55.39087
147.6356, 56.27911
148.1178, 57.24987
148.5999, 58.39882
149.0820, 59.75321
149.5641, 61.27117
150.0462, 62.89386
150.5283, 64.79134
151.0105, 66.60332
151.4926, 67.54313
151.9747, 67.89877
152.4568, 68.68709
152.9389, 70.49574
153.4210, 72.60176
153.9032, 74.01773
154.3853, 74.32417
154.8674, 74.22090
155.3495, 73.85154
155.8316, 73.00254
156.3137, 72.41783
156.7959, 72.23662
157.2780, 72.38235
157.7601, 72.71509
158.2422, 73.25408
158.7243, 73.92981
159.2065, 74.71476
159.6886, 75.61304
160.1707, 76.59710
160.6528, 77.91927
161.1349, 79.35709
161.6170, 80.31637
162.0992, 80.40118
162.5813, 80.05920
163.0634, 79.57985
163.5455, 79.03495
164.0276, 78.35744
164.5097, 77.52395
164.9919, 76.53716
165.4740, 75.40262
165.9561, 74.01946
166.4382, 72.54149
166.9203, 71.08035
167.4024, 69.51643
167.8846, 68.13267
168.3667, 67.09766
168.8488, 66.39039
169.3309, 65.88903
169.8130, 65.85477
170.2952, 65.88821
170.7773, 65.48713
171.2594, 64.01806
171.7415, 62.40264
172.2236, 61.35363
172.7057, 60.85380
173.1879, 60.69904
173.6700, 61.10491
174.1521, 61.71370
174.6342, 61.92479
175.1163, 61.11913
175.5984, 59.99298
176.0806, 59.35519
176.5627, 59.20110
177.0448, 59.28589
177.5269, 59.49320
178.0090, 59.78087
178.4911, 60.05494
178.9733, 60.43302
179.4554, 60.72433
179.9375, 60.46568
180.4196, 59.59583
180.9017, 58.77518
181.3838, 58.74224
181.8660, 59.35475
182.3481, 60.11114
182.8302, 60.96680
183.3123, 61.78579
183.7944, 62.12376
184.2766, 61.88752
184.7587, 61.63270
185.2408, 62.22889
185.7229, 63.52211
186.2050, 64.60520
186.6871, 64.90908
187.1693, 64.62087
187.6514, 64.37171
188.1335, 64.16560
188.6156, 64.05637
189.0977, 64.17027
189.5798, 64.49528
190.0620, 64.82066
190.5441, 65.12254
191.0262, 65.36628
191.5083, 65.27608
191.9904, 64.75466
192.4725, 64.08355
192.9547, 63.73384
193.4368, 63.70840
193.9189, 63.80510
194.4010, 63.85490
194.8831, 63.87806
195.3652, 64.29997
195.8474, 65.31924
196.3295, 66.47672
196.8116, 66.73366
197.2937, 66.00145
197.7758, 65.21651
198.2579, 64.90707
198.7401, 65.07931
199.2222, 65.44405
199.7043, 66.08817
200.1864, 66.78687
200.6685, 66.85758
201.1507, 66.12193
201.6328, 65.59283
202.1149, 66.10110
202.5970, 67.80322
203.0791, 68.86696
203.5612, 68.94754
204.0434, 68.44055
204.5255, 68.42759
205.0076, 69.00426
205.4897, 69.74418
205.9718, 70.45116
206.4539, 71.15820
206.9361, 71.57996
207.4182, 71.49914
207.9003, 71.20365
208.3824, 71.77244
208.8645, 73.55678
209.3466, 75.29428
209.8288, 76.15884
210.3109, 75.94260
210.7930, 75.75827
211.2751, 75.68749
211.7572, 75.72093
212.2393, 75.84755
212.7215, 76.11644
213.2036, 76.36707
213.6857, 76.52214
214.1678, 76.61313
214.6499, 76.46127
215.1320, 75.89272
215.6142, 75.07822
216.0963, 74.82719
216.5784, 75.36466
217.0605, 76.03420
217.5426, 76.43050
218.0247, 76.49865
218.5069, 76.43181
218.9890, 76.17330
219.4711, 75.78975
219.9532, 75.57262
220.4353, 75.48452
220.9175, 75.61970
221.3996, 76.09938
221.8817, 77.11795
222.3638, 77.95190
222.8459, 78.45182
223.3280, 78.70854
223.8102, 79.14360
224.2923, 79.81592
224.7744, 80.58472
225.2565, 81.37859
225.7386, 82.25111
226.2207, 82.99245
226.7029, 83.45876
227.1850, 83.75879
227.6671, 84.48849
228.1492, 85.95419
228.6313, 87.41386
229.1134, 88.39188
229.5956, 88.68079
230.0777, 88.96350
230.5598, 89.24340
231.0419, 89.55190
231.5240, 90.05923
232.0062, 90.84919
232.4883, 91.72553
232.9704, 92.59783
233.4525, 93.55001
233.9346, 94.28634
234.4167, 94.59060
234.8989, 94.63423
235.3810, 95.25703
235.8631, 96.77634
236.3452, 98.46854
236.8273, 99.93298
237.3094, 101.0423
237.7916, 102.1954
238.2737, 103.4686
238.7558, 104.8080
239.2379, 106.0102
239.7200, 107.0370
240.2021, 107.9773
240.6843, 108.8965
241.1664, 109.8522
241.6485, 110.6535
242.1306, 111.2319
242.6127, 111.6546
243.0948, 112.1995
243.5770, 113.1505
244.0591, 113.8371
244.5412, 113.8453
245.0233, 112.7477
245.5054, 111.9584
245.9876, 111.7060
246.4697, 111.7712
246.9518, 111.4100
247.4339, 110.3456
247.9160, 109.2653
248.3981, 108.5326
248.8803, 108.3443
249.3624, 108.0035
249.8445, 107.3945
250.3266, 106.6493
250.8087, 106.1378
251.2908, 105.9500
251.7730, 105.8533
252.2551, 105.8031
252.7372, 105.9847
253.2193, 105.6772
253.7014, 104.5779
254.1835, 103.1247
254.6657, 102.3913
255.1478, 102.7639
255.6299, 103.1771
256.1120, 103.1333
256.5941, 102.3698
257.0763, 102.0312
257.5584, 102.3322
258.0405, 102.9211
258.5226, 103.0744
259.0047, 102.6366
259.4868, 102.0896
259.9690, 101.6170
260.4511, 101.2493
260.9332, 100.8033
261.4153, 100.2117
261.8974, 99.59502
262.3795, 99.17864
262.8617, 99.02480
263.3438, 98.90872
263.8259, 98.72013
264.3080, 98.41945
264.7901, 98.28925
265.2722, 98.20354
265.7544, 98.43291
266.2365, 99.43626
266.7186, 101.3876
267.2007, 103.5756
267.6828, 105.8780
268.1649, 108.3537
268.6471, 110.2675
269.1292, 111.3591
269.6113, 112.3533
270.0934, 114.2201
270.5755, 117.1860
271.0576, 120.2278
271.5398, 123.0665
272.0219, 125.7324
272.5040, 128.3813
272.9861, 130.8856
273.4682, 133.5731
273.9503, 136.8326
274.4325, 140.6979
274.9146, 144.9026
275.3967, 149.5510
275.8788, 154.5598
276.3610, 158.7101
276.8431, 161.6243
277.3252, 164.7015
277.8073, 169.3068
278.2894, 175.5424
278.7715, 182.1514
279.2537, 189.1222
279.7358, 196.2701
280.2179, 202.8795
280.7000, 208.8976
281.1821, 214.7229
281.6642, 220.8884
282.1464, 227.4011
282.6285, 233.3496
283.1106, 238.5434
283.5927, 243.1186
284.0748, 247.7561
284.5569, 252.6087
285.0391, 256.2203
285.5212, 257.2807
286.0033, 255.9547
286.4854, 254.3665
286.9675, 253.0613
287.4496, 251.1785
287.9318, 246.7239
288.4139, 239.6185
288.8960, 231.7159
289.3781, 223.6465
289.8602, 215.5082
290.3423, 207.8513
290.8245, 200.8089
291.3066, 194.0169
291.7887, 186.9929
292.2708, 179.7411
292.7529, 172.5383
293.2350, 165.4658
293.7172, 158.5632
294.1993, 152.1640
294.6814, 146.2392
295.1635, 140.8211
295.6456, 135.9934
296.1277, 131.7400
296.6099, 128.0733
297.0920, 125.3919
297.5741, 123.2725
298.0562, 121.0221
298.5383, 118.6609
299.0204, 116.0429
299.5026, 112.6574
299.9847, 108.8792
300.4668, 105.5920
300.9489, 103.3918
301.4311, 101.8116
301.9132, 100.3095
302.3953, 98.87606
302.8774, 97.59640
303.3595, 96.59853
303.8416, 95.78388
304.3238, 94.95163
304.8059, 94.03411
305.2880, 93.09927
305.7701, 92.19955
306.2522, 91.33714
306.7343, 90.58107
307.2165, 90.13999
307.6986, 89.76630
308.1807, 89.10922
308.6628, 87.87625
309.1449, 86.66003
309.6270, 85.82922
310.1092, 85.35811
310.5913, 85.19407
311.0734, 85.41814
311.5555, 85.87363
312.0376, 86.49654
312.5197, 87.41785
313.0019, 88.11609
313.4840, 87.96673
313.9661, 87.39698
314.4482, 87.27764
314.9303, 88.27125
315.4124, 89.62316
315.8946, 90.89870
316.3767, 92.04513
316.8588, 93.15348
317.3409, 94.30059
317.8230, 95.43281
318.3051, 96.47478
318.7873, 97.15104
319.2694, 97.96821
319.7515, 99.16133
320.2336, 100.7602
320.7157, 102.4925
321.1978, 104.3237
321.6800, 106.2196
322.1621, 108.1425
322.6442, 110.2358
323.1263, 112.1990
323.6084, 113.7018
324.0905, 114.8125
324.5727, 116.5805
325.0548, 119.7137
325.5369, 123.1739
326.0190, 126.3279
326.5012, 128.8088
326.9833, 131.3672
327.4654, 134.0305
327.9475, 136.8008
328.4296, 139.6507
328.9117, 142.9350
329.3939, 145.9813
329.8760, 148.5058
330.3581, 150.1057
330.8402, 151.9295
331.3223, 154.0989
331.8044, 156.4637
332.2866, 158.7864
332.7687, 161.4101
333.2508, 163.4435
333.7329, 164.5603
334.2150, 164.6196
334.6971, 164.4219
335.1793, 163.9612
335.6614, 163.2477
336.1435, 162.2506
336.6256, 160.8230
337.1077, 159.5096
337.5898, 158.6072
338.0720, 158.0598
338.5541, 156.8699
339.0362, 154.9251
339.5183, 152.5855
340.0004, 150.2637
340.4825, 148.0118
340.9647, 145.2354
341.4468, 141.7143
341.9289, 137.6769
342.4110, 133.6866
342.8931, 129.7421
343.3752, 126.0538
343.8574, 123.0537
344.3395, 120.6427
344.8216, 117.6101
345.3037, 113.6448
345.7858, 109.3846
346.2679, 106.0142
346.7501, 103.4595
347.2322, 101.0175
347.7143, 98.26317
348.1964, 95.30515
348.6785, 92.38478
349.1607, 89.43431
349.6428, 86.77511
350.1249, 84.87296
350.6070, 83.55383
351.0891, 82.22977
351.5713, 80.56474
352.0534, 78.82520
352.5355, 77.38976
353.0176, 76.27104
353.4997, 75.28418
353.9818, 74.29644
354.4640, 73.35167
354.9461, 72.50772
355.4282, 71.81662
355.9103, 71.19955
356.3924, 70.61729
356.8745, 70.05711
357.3567, 69.48248
357.8388, 68.81329
358.3209, 68.14971
358.8030, 67.57045
359.2851, 67.09995
359.7672, 66.70038
360.2494, 66.39106
360.7315, 66.13423
361.2136, 65.86503
361.6957, 65.52133
362.1778, 65.18629
362.6599, 64.84962
363.1421, 64.48418
363.6242, 64.33940
364.1063, 64.75933
364.5884, 65.32780
365.0705, 65.61566
365.5526, 64.93343
366.0348, 64.59062
366.5169, 65.11736
366.9990, 66.44814
367.4811, 67.40240
367.9632, 67.57520
368.4453, 67.54462
368.9275, 67.63749
369.4096, 68.00066
369.8917, 68.28228
370.3738, 68.28963
370.8559, 68.21922
371.3380, 68.65309
371.8202, 70.04432
372.3023, 71.32845
372.7844, 72.00086
373.2665, 71.78975
373.7487, 72.11079
374.2308, 73.22875
374.7129, 74.61277
375.1950, 75.49670
375.6771, 75.66844
376.1592, 76.03227
376.6414, 76.89236
377.1235, 78.18738
377.6056, 79.32389
378.0877, 80.29174
378.5698, 81.16895
379.0519, 82.02428
379.5341, 82.85088
380.0162, 83.64526
380.4983, 84.33165
380.9804, 85.06953
381.4625, 86.29745
381.9446, 88.01871
382.4268, 89.66726
382.9089, 90.96458
383.3910, 91.92395
383.8731, 92.58035
384.3552, 92.89594
384.8373, 93.07936
385.3195, 93.46190
385.8016, 93.92691
386.2837, 94.13377
386.7658, 93.93028
387.2479, 93.38430
387.7300, 92.39906
388.2122, 91.00359
388.6943, 89.74998
389.1764, 89.20409
389.6585, 88.99525
390.1406, 88.70750
390.6227, 88.42088
391.1049, 87.74321
391.5870, 86.07267
392.0691, 83.73914
392.5512, 81.73646
393.0333, 80.68803
393.5154, 79.99956
393.9976, 79.33887
394.4797, 78.69447
394.9618, 77.95333
395.4439, 76.90884
395.9260, 75.79470
396.4081, 74.92525
396.8903, 74.91237
397.3724, 74.59917
397.8545, 73.40047
398.3366, 71.25501
398.8188, 69.72050
399.3009, 69.53488
399.7830, 69.57311
400.2651, 69.11109
400.7472, 67.56071
401.2293, 66.40585
401.7115, 65.94159
402.1936, 65.89455
402.6757, 65.38947
403.1578, 64.10390
403.6399, 62.91042
404.1220, 62.20708
404.6042, 62.07093
405.0863, 61.97630
405.5684, 61.97965
406.0505, 61.93569
406.5326, 61.63720
407.0147, 61.05861
407.4969, 60.38878
407.9790, 59.59296
408.4611, 58.75951
408.9432, 58.35836
409.4253, 58.44064
409.9074, 58.44306
410.3896, 57.72406
410.8717, 56.48974
411.3538, 55.75977
411.8359, 55.85636
412.3180, 56.08396
412.8001, 55.29089
413.2823, 53.72454
413.7644, 52.31929
414.2465, 51.65737
414.7286, 51.40568
415.2107, 51.14180
415.6928, 50.84808
416.1750, 50.56147
416.6571, 50.43332
417.1392, 50.29607
417.6213, 49.90617
418.1034, 48.91317
418.5855, 47.93943
419.0677, 47.50713
419.5498, 47.44395
420.0319, 47.12132
420.5140, 45.83870
420.9961, 44.52879
421.4782, 43.80335
421.9604, 43.97483
422.4425, 44.11598
422.9246, 43.98174
423.4067, 43.71755
423.8889, 43.52083
424.3710, 43.47614
424.8531, 43.43964
425.3352, 43.47328
425.8173, 43.58204
426.2994, 43.30122
426.7816, 42.21044
427.2637, 41.15864
427.7458, 40.74416
428.2279, 41.29952
428.7100, 41.68182
429.1921, 41.80784
429.6743, 41.72815
430.1564, 41.48930
430.6385, 41.01038
431.1206, 40.68826
431.6027, 40.76253
432.0848, 41.21048
432.5670, 41.46968
433.0491, 41.52095
433.5312, 41.46401
434.0133, 41.44471
434.4954, 41.43444
434.9775, 41.18657
435.4597, 40.47987
435.9418, 39.70854
436.4239, 39.73238
436.9060, 40.43243
437.3881, 41.04603
437.8702, 40.94215
438.3524, 40.50590
438.8345, 40.31338
439.3166, 40.45622
439.7987, 40.62785
440.2808, 40.60831
440.7629, 40.45268
441.2451, 40.24774
441.7272, 39.93026
442.2093, 39.65906
442.6914, 39.48833
443.1735, 39.42582
443.6556, 39.51389
444.1378, 39.87603
444.6199, 40.32204
445.1020, 40.75158
445.5841, 41.24164
446.0662, 41.53654
446.5483, 41.55638
447.0305, 41.37072
447.5126, 41.08396
447.9947, 40.48476
448.4768, 40.05357
448.9590, 39.94596
449.4411, 40.17057
449.9232, 40.30842
450.4053, 40.30445
450.8874, 40.29382
451.3695, 40.39645
451.8517, 40.65897
452.3338, 40.82190
452.8159, 40.83819
453.2980, 40.76844
453.7801, 40.76264
454.2622, 40.83177
454.7444, 40.79946
455.2265, 40.51175
455.7086, 40.04763
456.1907, 39.80596
456.6728, 39.80338
457.1549, 39.77198
457.6371, 39.25313
458.1192, 38.51605
458.6013, 38.26062
459.0834, 38.84717
459.5655, 39.62669
460.0476, 39.96067
460.5298, 39.92044
461.0119, 39.70495
461.4940, 39.10266
461.9761, 38.57953
462.4582, 38.61105
462.9403, 39.27911
463.4225, 39.84232
463.9046, 39.84063
464.3867, 39.63015
464.8688, 39.54773
465.3509, 40.05624
465.8330, 40.26826
466.3152, 39.70237
466.7973, 38.63628
467.2794, 38.07621
467.7615, 38.50621
468.2436, 39.03022
468.7257, 39.36127
469.2079, 39.45604
469.6900, 39.54868
470.1721, 39.67975
470.6542, 39.76264
471.1363, 39.66210
471.6184, 39.29262
472.1006, 39.08068
472.5827, 39.11586
473.0648, 39.34718
473.5469, 39.71767
474.0291, 40.25804
474.5112, 40.57958
474.9933, 40.26878
475.4754, 39.51213
475.9575, 39.14981
476.4396, 39.24083
476.9218, 39.49728
477.4039, 39.70018
477.8860, 39.83224
478.3681, 39.84593
478.8502, 39.69770
479.3323, 39.45959
479.8145, 39.16138
480.2966, 38.81964
480.7787, 38.50979
481.2608, 38.16115
481.7429, 37.92670
482.2250, 37.96597
482.7072, 38.35061
483.1893, 38.68608
483.6714, 38.77290
484.1535, 38.77184
484.6356, 38.84556
485.1177, 39.12015
485.5999, 39.35831
486.0820, 39.52382
486.5641, 39.62595
487.0462, 39.68847
487.5283, 39.61554
488.0104, 39.63451
488.4926, 39.86762
488.9747, 40.36271
489.4568, 40.75754
489.9389, 41.04403
490.4210, 41.23914
490.9031, 41.34531
491.3853, 41.35997
491.8674, 41.32784
492.3495, 41.23131
492.8316, 41.12396
493.3137, 41.11932
493.7958, 41.21347
494.2780, 41.37085
494.7601, 41.60243
495.2422, 41.87433
495.7243, 42.10825
496.2064, 42.30163
496.6885, 42.50732
497.1707, 42.78096
497.6528, 43.09430
498.1349, 43.41543
498.6170, 43.78490
499.0992, 44.09125
499.5813, 44.19096
500.0634, 44.18001
500.5455, 44.29490
501.0276, 44.73767
501.5097, 45.20853
501.9919, 45.50694
502.4740, 45.54491
502.9561, 45.95331
503.4382, 47.23112
503.9203, 48.57664
504.4024, 49.41765
504.8846, 49.37141
505.3667, 49.60932
505.8488, 50.33319
506.3309, 51.29163
506.8130, 51.89026
507.2951, 52.02712
507.7773, 52.24873
508.2594, 52.72900
508.7415, 53.45626
509.2236, 54.44057
509.7057, 55.69627
510.1878, 57.02264
510.6700, 58.24323
511.1521, 59.40963
511.6342, 60.69963
512.1163, 62.13889
512.5984, 63.66587
513.0806, 65.14626
513.5627, 66.66418
514.0448, 68.39549
514.5269, 70.63928
515.0090, 72.93913
515.4911, 74.82679
515.9733, 76.41414
516.4554, 78.38817
516.9375, 81.55339
517.4196, 84.80928
517.9017, 87.43126
518.3839, 88.92947
518.8660, 90.80067
519.3481, 93.26280
519.8302, 96.14249
520.3123, 99.21767
520.7944, 102.4509
521.2766, 105.9916
521.7587, 109.9503
522.2408, 114.2092
522.7229, 118.4893
523.2050, 122.8270
523.6871, 127.0607
524.1693, 131.0103
524.6514, 134.6641
525.1335, 138.8165
525.6156, 143.5510
526.0977, 148.3474
526.5798, 152.7316
527.0620, 156.8178
527.5441, 160.9729
528.0262, 165.5338
528.5083, 169.6672
528.9904, 172.1772
529.4725, 173.4982
529.9547, 174.6626
530.4368, 176.5007
530.9189, 178.0709
531.4010, 178.8536
531.8831, 178.8236
532.3652, 177.9428
532.8474, 175.9224
533.3295, 173.2444
533.8116, 170.1751
534.2937, 166.7160
534.7758, 162.9530
535.2579, 159.1045
535.7401, 154.8562
536.2222, 149.7389
536.7043, 142.9587
537.1864, 137.0188
537.6685, 132.6698
538.1506, 129.5244
538.6328, 125.9488
539.1149, 121.8257
539.5970, 117.7978
540.0791, 114.3649
540.5612, 111.3751
541.0433, 108.2853
541.5255, 105.0471
542.0076, 101.9883
542.4897, 99.39482
542.9718, 97.19510
543.4539, 95.22739
543.9360, 93.51958
544.4182, 91.94656
544.9003, 90.47637
545.3824, 89.08659
545.8645, 87.72842
546.3466, 86.30221
546.8287, 84.97292
547.3109, 83.71798
547.7930, 82.54673
548.2751, 81.87204
548.7572, 82.50384
549.2393, 83.06554
549.7214, 82.72855
550.2036, 80.69185
550.6857, 79.60660
551.1678, 79.77491
551.6499, 80.58886
552.1320, 81.29188
552.6141, 81.91084
553.0963, 82.25061
553.5784, 82.16889
554.0605, 81.86413
554.5426, 81.78664
555.0247, 81.93903
555.5068, 82.37157
555.9890, 83.24801
556.4711, 84.37688
556.9532, 85.37663
557.4353, 86.23325
557.9174, 87.21289
558.3995, 88.62800
558.8817, 90.21057
559.3638, 91.61926
559.8459, 92.52409
560.3281, 93.73564
560.8102, 95.83428
561.2923, 98.37778
561.7744, 100.6588
562.2565, 102.1194
562.7386, 103.7806
563.2208, 105.8810
563.7029, 108.3661
564.1850, 111.0436
564.6671, 114.0262
565.1492, 116.9497
565.6313, 119.5263
566.1135, 121.6686
566.5956, 124.4518
567.0777, 127.9874
567.5598, 131.7089
568.0419, 135.0955
568.5240, 138.1651
569.0062, 141.2371
569.4883, 144.4504
569.9704, 147.4228
570.4525, 149.7235
570.9346, 151.3823
571.4167, 152.3807
571.8989, 152.4954
572.3810, 152.1678
572.8631, 151.7877
573.3452, 151.2940
573.8273, 150.2289
574.3094, 148.1885
574.7916, 145.7188
575.2737, 143.0647
575.7558, 140.1897
576.2379, 137.3393
576.7200, 134.5738
577.2021, 131.8251
577.6843, 128.9387
578.1664, 125.7365
578.6485, 123.0279
579.1306, 121.0051
579.6127, 119.3564
580.0948, 117.2920
580.5770, 114.8181
581.0591, 112.6689
581.5412, 111.2965
582.0233, 110.3712
582.5054, 109.1679
