##NAMES=Gaylussite
##RRUFFID=R040146
##IDEAL CHEMISTRY=Na_2_Ca(CO_3_)_2_&#183;5H_2_O
##LOCALITY=Searles Lake, Trona, San Bernardino County, California, USA
##OWNER=RRUFF
##SOURCE=University of Arizona Mineral Museum
##DESCRIPTION=Colorless crystal fragments
##STATUS=The identification of this mineral has been confirmed by X-ray diffraction and chemical analysis
##URL=rruff.info/R040146
##MEASURED CHEMISTRY=Na_2.00_Ca_1.00_(C_1.00_O_3_)_2_Â·5H_2_O
151.1082, 6630.245
151.5903, 6789.806
152.0724, 6979.866
152.5545, 7195.911
153.0366, 7442.965
153.5188, 7714.794
154.0009, 7997.913
154.4830, 8280.777
154.9651, 8584.604
155.4472, 8921.791
155.9293, 9301.192
156.4115, 9701.366
156.8936, 10124.30
157.3757, 10567.35
157.8578, 11027.16
158.3399, 11508.66
158.8221, 12002.42
159.3042, 12506.98
159.7863, 13027.95
160.2684, 13553.32
160.7505, 14110.90
161.2326, 14692.45
161.7148, 15193.44
162.1969, 15579.94
162.6790, 15862.98
163.1611, 16049.42
163.6432, 16180.83
164.1253, 16188.81
164.6075, 16022.85
165.0896, 15680.63
165.5717, 15238.22
166.0538, 14671.01
166.5359, 14041.13
167.0180, 13436.71
167.5002, 12883.70
167.9823, 12370.98
168.4644, 11885.92
168.9465, 11424.89
169.4286, 11010.52
169.9107, 10666.71
170.3929, 10383.81
170.8750, 10132.54
171.3571, 9911.159
171.8392, 9711.375
172.3213, 9526.230
172.8034, 9357.977
173.2856, 9200.443
173.7677, 9052.042
174.2498, 8910.607
174.7319, 8771.470
175.2140, 8625.927
175.6961, 8481.976
176.1783, 8353.326
176.6604, 8246.514
177.1425, 8151.117
177.6246, 8065.310
178.1067, 7986.319
178.5888, 7890.038
179.0710, 7747.022
179.5531, 7575.428
180.0352, 7418.893
180.5173, 7296.999
180.9994, 7187.155
181.4815, 7049.828
181.9637, 6884.841
182.4458, 6724.762
182.9279, 6595.243
183.4100, 6492.426
183.8921, 6399.613
184.3742, 6313.700
184.8564, 6233.769
185.3385, 6161.060
185.8206, 6095.201
186.3027, 6033.496
186.7848, 5970.143
187.2669, 5906.513
187.7491, 5850.775
188.2312, 5806.762
188.7133, 5773.039
189.1954, 5743.519
189.6775, 5718.209
190.1596, 5698.004
190.6418, 5687.938
191.1239, 5687.652
191.6060, 5681.309
192.0881, 5654.559
192.5702, 5611.623
193.0524, 5593.811
193.5345, 5606.993
194.0166, 5630.088
194.4987, 5627.937
194.9808, 5598.767
195.4629, 5571.014
195.9451, 5556.444
196.4272, 5554.764
196.9093, 5565.209
197.3914, 5591.305
197.8735, 5623.950
198.3556, 5643.744
198.8378, 5648.140
199.3199, 5655.398
199.8020, 5674.734
200.2841, 5706.275
200.7662, 5747.690
201.2483, 5804.317
201.7305, 5865.753
202.2126, 5905.611
202.6947, 5921.042
203.1768, 5925.523
203.6589, 5921.564
204.1410, 5905.698
204.6232, 5908.336
205.1053, 5939.036
205.5874, 5986.966
206.0695, 6017.300
206.5516, 6029.189
207.0337, 6025.693
207.5159, 6005.266
207.9980, 5964.411
208.4801, 5925.064
208.9622, 5889.777
209.4443, 5858.057
209.9264, 5826.960
210.4086, 5795.156
210.8907, 5766.554
211.3728, 5744.670
211.8549, 5730.226
212.3370, 5719.460
212.8191, 5711.943
213.3013, 5707.667
213.7834, 5706.010
214.2655, 5706.775
214.7476, 5710.508
215.2297, 5718.355
215.7118, 5732.299
216.1940, 5744.709
216.6761, 5752.088
217.1582, 5755.066
217.6403, 5768.854
218.1224, 5798.510
218.6045, 5831.980
219.0867, 5857.041
219.5688, 5869.126
220.0509, 5883.661
220.5330, 5906.943
221.0151, 5939.810
221.4972, 5955.227
221.9794, 5947.161
222.4615, 5928.570
222.9436, 5913.284
223.4257, 5904.298
223.9078, 5892.043
224.3899, 5873.006
224.8721, 5845.991
225.3542, 5823.703
225.8363, 5802.597
226.3184, 5789.350
226.8005, 5793.580
227.2827, 5824.923
227.7648, 5855.362
228.2469, 5877.391
228.7290, 5889.568
229.2111, 5903.587
229.6932, 5918.003
230.1754, 5935.254
230.6575, 5960.788
231.1396, 6004.402
231.6217, 6038.264
232.1038, 6050.784
232.5859, 6035.256
233.0681, 6036.046
233.5502, 6064.284
234.0323, 6100.795
234.5144, 6115.175
234.9965, 6087.355
235.4786, 6071.506
235.9608, 6088.908
236.4429, 6150.428
236.9250, 6191.726
237.4071, 6198.536
237.8892, 6193.686
238.3713, 6214.518
238.8535, 6274.126
239.3356, 6337.465
239.8177, 6392.069
240.2998, 6432.829
240.7819, 6484.179
241.2640, 6543.558
241.7462, 6615.810
242.2283, 6711.476
242.7104, 6841.675
243.1925, 6977.031
243.6746, 7107.768
244.1567, 7231.784
244.6389, 7359.900
245.1210, 7490.083
245.6031, 7625.174
246.0852, 7769.194
246.5673, 7922.547
247.0494, 8084.160
247.5316, 8254.010
248.0137, 8432.878
248.4958, 8620.937
248.9779, 8830.927
249.4600, 9041.967
249.9421, 9208.432
250.4243, 9315.233
250.9064, 9406.811
251.3885, 9501.868
251.8706, 9610.859
252.3527, 9688.452
252.8348, 9728.881
253.3170, 9741.591
253.7991, 9744.529
254.2812, 9742.528
254.7633, 9721.549
255.2454, 9675.057
255.7275, 9600.217
256.2097, 9510.044
256.6918, 9397.864
257.1739, 9275.978
257.6560, 9166.221
258.1381, 9072.476
258.6202, 8982.454
259.1024, 8890.704
259.5845, 8797.563
260.0666, 8704.604
260.5487, 8609.988
261.0308, 8517.152
261.5129, 8432.348
261.9951, 8366.554
262.4772, 8283.999
262.9593, 8164.102
263.4414, 7991.914
263.9235, 7852.483
264.4056, 7758.999
264.8878, 7684.367
265.3699, 7573.039
265.8520, 7407.141
266.3341, 7252.890
266.8162, 7137.552
267.2983, 7068.644
267.7805, 6996.309
268.2626, 6918.250
268.7447, 6839.990
269.2268, 6772.152
269.7089, 6717.284
270.1910, 6663.808
270.6732, 6602.832
271.1553, 6531.883
271.6374, 6482.127
272.1195, 6456.870
272.6016, 6447.911
273.0837, 6445.040
273.5659, 6449.450
274.0480, 6453.699
274.5301, 6454.195
275.0122, 6450.708
275.4943, 6451.516
275.9764, 6459.037
276.4586, 6466.298
276.9407, 6458.711
277.4228, 6433.704
277.9049, 6416.996
278.3870, 6424.192
278.8691, 6453.691
279.3513, 6468.703
279.8334, 6468.377
280.3155, 6455.742
280.7976, 6432.359
281.2798, 6398.103
281.7619, 6360.888
282.2440, 6322.831
282.7261, 6284.090
283.2082, 6244.310
283.6903, 6202.155
284.1725, 6163.887
284.6546, 6140.997
285.1367, 6132.965
285.6188, 6120.679
286.1009, 6094.226
286.5830, 6057.766
287.0652, 6029.180
287.5473, 6009.258
288.0294, 5994.037
288.5115, 5982.014
288.9936, 5972.327
289.4757, 5958.479
289.9579, 5937.030
290.4400, 5910.131
290.9221, 5880.611
291.4042, 5847.903
291.8863, 5819.655
292.3684, 5808.624
292.8506, 5810.409
293.3327, 5805.472
293.8148, 5783.947
294.2969, 5754.026
294.7790, 5730.747
295.2611, 5714.042
295.7433, 5700.724
296.2254, 5688.640
296.7075, 5677.565
297.1896, 5667.097
297.6717, 5655.470
298.1538, 5645.508
298.6360, 5643.181
299.1181, 5647.899
299.6002, 5652.959
300.0823, 5654.916
300.5644, 5653.407
301.0465, 5646.929
301.5287, 5630.992
302.0108, 5615.087
302.4929, 5614.525
302.9750, 5626.231
303.4571, 5632.607
303.9392, 5613.946
304.4214, 5585.188
304.9035, 5567.366
305.3856, 5571.909
305.8677, 5578.901
306.3498, 5568.895
306.8319, 5546.093
307.3141, 5525.059
307.7962, 5509.544
308.2783, 5502.465
308.7604, 5509.331
309.2425, 5538.533
309.7246, 5565.524
310.2068, 5574.024
310.6889, 5568.007
311.1710, 5558.018
311.6531, 5542.933
312.1352, 5529.605
312.6173, 5524.704
313.0995, 5532.762
313.5816, 5539.207
314.0637, 5537.332
314.5458, 5529.098
315.0279, 5518.243
315.5100, 5496.352
315.9922, 5479.634
316.4743, 5478.306
316.9564, 5496.594
317.4385, 5517.597
317.9206, 5541.521
318.4027, 5563.521
318.8849, 5576.821
319.3670, 5572.415
319.8491, 5565.322
320.3312, 5562.367
320.8133, 5565.688
321.2954, 5562.911
321.7776, 5538.219
322.2597, 5511.352
322.7418, 5503.349
323.2239, 5537.538
323.7060, 5570.595
324.1881, 5592.112
324.6703, 5600.912
325.1524, 5608.932
325.6345, 5621.437
326.1166, 5630.989
326.5987, 5631.515
327.0808, 5603.713
327.5630, 5589.720
328.0451, 5601.406
328.5272, 5637.101
329.0093, 5660.098
329.4914, 5660.488
329.9735, 5656.694
330.4557, 5661.109
330.9378, 5682.143
331.4199, 5696.166
331.9020, 5696.034
332.3841, 5686.639
332.8662, 5694.339
333.3484, 5732.451
333.8305, 5767.345
334.3126, 5777.185
334.7947, 5748.605
335.2768, 5736.670
335.7589, 5748.476
336.2411, 5776.015
336.7232, 5801.098
337.2053, 5824.604
337.6874, 5842.516
338.1695, 5853.312
338.6516, 5856.895
339.1338, 5852.170
339.6159, 5836.756
340.0980, 5816.823
340.5801, 5800.919
341.0622, 5788.384
341.5443, 5784.842
342.0265, 5795.706
342.5086, 5819.180
342.9907, 5841.599
343.4728, 5864.221
343.9549, 5880.080
344.4370, 5874.019
344.9192, 5848.828
345.4013, 5831.440
345.8834, 5837.854
346.3655, 5857.215
346.8476, 5857.706
347.3297, 5838.723
347.8119, 5818.756
348.2940, 5818.878
348.7761, 5832.552
349.2582, 5839.518
349.7403, 5829.539
350.2225, 5814.988
350.7046, 5818.497
351.1867, 5837.189
351.6688, 5848.609
352.1509, 5826.074
352.6331, 5788.646
353.1152, 5766.134
353.5973, 5770.372
354.0794, 5781.230
354.5615, 5778.638
355.0436, 5767.432
355.5258, 5762.331
356.0079, 5778.950
356.4900, 5801.039
356.9721, 5813.722
357.4542, 5812.438
357.9363, 5809.497
358.4185, 5813.956
358.9006, 5821.204
359.3827, 5823.259
359.8648, 5804.843
360.3469, 5790.079
360.8290, 5796.624
361.3112, 5830.208
361.7933, 5853.589
362.2754, 5847.155
362.7575, 5827.533
363.2396, 5812.736
363.7217, 5805.821
364.2039, 5805.304
364.6860, 5815.782
365.1681, 5837.372
365.6502, 5848.584
366.1323, 5834.529
366.6144, 5816.975
367.0966, 5810.975
367.5787, 5831.341
368.0608, 5845.707
368.5429, 5849.229
369.0250, 5844.273
369.5071, 5842.985
369.9893, 5847.989
370.4714, 5853.594
370.9535, 5857.292
371.4356, 5859.299
371.9177, 5858.414
372.3998, 5852.401
372.8820, 5844.605
373.3641, 5842.876
373.8462, 5848.944
374.3283, 5856.642
374.8104, 5864.537
375.2925, 5873.090
375.7747, 5875.603
376.2568, 5869.187
376.7389, 5862.492
377.2210, 5869.321
377.7031, 5890.763
378.1852, 5910.252
378.6674, 5924.008
379.1495, 5931.740
379.6316, 5928.192
380.1137, 5911.623
380.5958, 5899.833
381.0779, 5916.829
381.5601, 5955.973
382.0422, 5982.060
382.5243, 5983.206
383.0064, 5973.446
383.4885, 5975.827
383.9706, 5989.140
384.4528, 6004.274
384.9349, 6023.423
385.4170, 6038.317
385.8991, 6030.182
386.3812, 5988.007
386.8633, 5949.312
387.3455, 5961.447
387.8276, 6004.404
388.3097, 6032.564
388.7918, 5996.267
389.2739, 5952.749
389.7560, 5956.668
390.2382, 6016.796
390.7203, 6068.512
391.2024, 6064.252
391.6845, 6036.683
392.1666, 6023.378
392.6487, 6056.717
393.1309, 6087.969
393.6130, 6094.661
394.0951, 6078.751
394.5772, 6065.886
395.0593, 6065.320
395.5414, 6068.112
396.0236, 6068.672
396.5057, 6056.972
396.9878, 6054.018
397.4699, 6067.533
397.9520, 6092.016
398.4341, 6110.017
398.9163, 6117.565
399.3984, 6122.776
399.8805, 6129.943
400.3626, 6144.230
400.8447, 6143.872
401.3268, 6119.461
401.8090, 6087.362
402.2911, 6070.331
402.7732, 6071.860
403.2553, 6079.832
403.7374, 6091.691
404.2195, 6107.413
404.7017, 6128.845
405.1838, 6159.667
405.6659, 6186.407
406.1480, 6196.320
406.6301, 6189.345
407.1122, 6173.522
407.5944, 6144.139
408.0765, 6113.056
408.5586, 6113.915
409.0407, 6146.117
409.5228, 6180.265
410.0049, 6195.338
410.4871, 6197.066
410.9692, 6201.890
411.4513, 6212.020
411.9334, 6223.077
412.4155, 6230.569
412.8976, 6235.122
413.3798, 6238.321
413.8619, 6236.330
414.3440, 6236.063
414.8261, 6251.666
415.3082, 6283.154
415.7903, 6301.603
416.2725, 6270.985
416.7546, 6223.464
417.2367, 6195.032
417.7188, 6210.536
418.2009, 6233.219
418.6830, 6249.410
419.1652, 6259.884
419.6473, 6266.851
420.1294, 6265.343
420.6115, 6264.824
421.0937, 6271.490
421.5758, 6291.640
422.0579, 6306.830
422.5400, 6316.454
423.0221, 6319.402
423.5042, 6313.647
423.9864, 6280.188
424.4685, 6259.567
424.9506, 6265.856
425.4327, 6302.020
425.9148, 6325.594
426.3969, 6331.820
426.8791, 6330.893
427.3612, 6330.790
427.8433, 6331.220
428.3254, 6333.309
428.8075, 6337.042
429.2896, 6342.627
429.7718, 6352.955
430.2539, 6370.042
430.7360, 6381.528
431.2181, 6372.099
431.7002, 6344.505
432.1823, 6344.099
432.6645, 6379.034
433.1466, 6421.523
433.6287, 6427.085
434.1108, 6403.420
434.5929, 6389.224
435.0750, 6410.572
435.5572, 6447.043
436.0393, 6461.968
436.5214, 6456.084
437.0035, 6445.102
437.4856, 6435.419
437.9677, 6430.051
438.4499, 6434.452
438.9320, 6455.271
439.4141, 6477.190
439.8962, 6488.860
440.3783, 6493.025
440.8604, 6497.105
441.3426, 6504.791
441.8247, 6512.924
442.3068, 6521.389
442.7889, 6531.878
443.2710, 6534.352
443.7531, 6521.399
444.2353, 6500.909
444.7174, 6481.376
445.1995, 6448.603
445.6816, 6434.051
446.1637, 6452.550
446.6458, 6499.882
447.1280, 6533.202
447.6101, 6546.624
448.0922, 6552.542
448.5743, 6556.525
449.0564, 6556.105
449.5385, 6560.686
450.0207, 6571.564
450.5028, 6586.524
450.9849, 6603.495
451.4670, 6624.129
451.9491, 6637.414
452.4312, 6636.099
452.9134, 6622.536
453.3955, 6614.423
453.8776, 6611.766
454.3597, 6614.484
454.8418, 6623.850
455.3239, 6638.958
455.8061, 6657.219
456.2882, 6682.663
456.7703, 6704.104
457.2524, 6700.726
457.7345, 6677.727
458.2166, 6656.166
458.6988, 6647.944
459.1809, 6648.188
459.6630, 6652.474
460.1451, 6660.573
460.6272, 6671.247
461.1093, 6684.785
461.5915, 6700.063
462.0736, 6715.430
462.5557, 6736.959
463.0378, 6752.030
463.5199, 6750.524
464.0020, 6735.312
464.4842, 6727.876
464.9663, 6739.791
465.4484, 6755.422
465.9305, 6766.267
466.4126, 6766.157
466.8947, 6772.292
467.3769, 6793.673
467.8590, 6817.355
468.3411, 6819.258
468.8232, 6782.075
469.3053, 6758.363
469.7874, 6767.874
470.2696, 6807.899
470.7517, 6825.671
471.2338, 6815.617
471.7159, 6800.424
472.1980, 6797.658
472.6801, 6807.274
473.1623, 6827.385
473.6444, 6861.941
474.1265, 6898.798
474.6086, 6913.426
475.0907, 6909.127
475.5728, 6907.269
476.0550, 6929.161
476.5371, 6957.245
477.0192, 6956.839
477.5013, 6926.415
477.9834, 6899.200
478.4655, 6904.587
478.9477, 6927.449
479.4298, 6947.905
479.9119, 6958.284
480.3940, 6967.411
480.8761, 6983.279
481.3582, 7001.961
481.8404, 7011.888
482.3225, 7003.188
482.8046, 6989.888
483.2867, 6974.290
483.7688, 6949.653
484.2509, 6946.989
484.7331, 6995.221
485.2152, 7052.980
485.6973, 7081.833
486.1794, 7064.945
486.6615, 7047.375
487.1436, 7033.233
487.6258, 7023.034
488.1079, 7018.934
488.5900, 7020.613
489.0721, 7029.471
489.5542, 7049.776
490.0363, 7081.772
490.5185, 7104.352
491.0006, 7114.917
491.4827, 7122.310
491.9648, 7143.612
492.4470, 7174.384
492.9291, 7188.153
493.4112, 7164.408
493.8933, 7128.481
494.3754, 7121.669
494.8575, 7140.317
495.3397, 7161.813
495.8218, 7173.237
496.3039, 7178.992
496.7860, 7181.863
497.2681, 7180.035
497.7502, 7184.501
498.2324, 7210.350
498.7145, 7243.429
499.1966, 7264.991
499.6787, 7257.095
500.1608, 7249.102
500.6429, 7252.602
501.1251, 7266.620
501.6072, 7272.432
502.0893, 7250.033
502.5714, 7235.788
503.0535, 7249.930
503.5356, 7314.124
504.0178, 7353.667
504.4999, 7359.545
504.9820, 7348.537
505.4641, 7343.039
505.9462, 7341.604
506.4283, 7354.735
506.9105, 7394.129
507.3926, 7448.390
507.8747, 7466.942
508.3568, 7448.075
508.8389, 7425.481
509.3210, 7423.234
509.8032, 7436.478
510.2853, 7452.903
510.7674, 7471.828
511.2495, 7490.230
511.7316, 7503.296
512.2137, 7513.691
512.6959, 7526.614
513.1780, 7549.032
513.6601, 7570.853
514.1422, 7583.864
514.6243, 7589.373
515.1064, 7596.685
515.5886, 7613.179
516.0707, 7630.028
516.5528, 7641.071
517.0349, 7640.952
517.5170, 7644.841
517.9991, 7660.861
518.4813, 7679.016
518.9634, 7686.526
519.4455, 7680.021
519.9276, 7668.346
520.4097, 7651.250
520.8918, 7630.138
521.3740, 7610.434
521.8561, 7589.819
522.3382, 7578.307
522.8203, 7585.745
523.3024, 7610.911
523.7845, 7636.153
524.2667, 7662.510
524.7488, 7681.590
525.2309, 7684.304
525.7130, 7671.707
526.1951, 7646.223
526.6772, 7593.677
527.1594, 7542.729
527.6415, 7535.929
528.1236, 7563.987
528.6057, 7585.986
529.0878, 7567.244
529.5699, 7540.836
530.0521, 7535.169
530.5342, 7560.394
531.0163, 7576.289
531.4984, 7558.736
531.9805, 7530.277
532.4626, 7514.829
532.9448, 7530.501
533.4269, 7541.332
533.9090, 7539.874
534.3911, 7530.288
534.8732, 7529.617
535.3553, 7543.190
535.8375, 7555.783
536.3196, 7561.288
536.8017, 7559.690
537.2838, 7551.199
537.7659, 7533.461
538.2480, 7516.342
538.7302, 7511.652
539.2123, 7517.804
539.6944, 7524.124
540.1765, 7528.133
540.6586, 7531.608
541.1407, 7535.475
541.6229, 7540.629
542.1050, 7550.271
542.5871, 7576.644
543.0692, 7601.409
543.5513, 7603.895
544.0334, 7583.237
544.5156, 7564.549
544.9977, 7563.049
545.4798, 7566.356
545.9619, 7564.266
546.4440, 7544.897
546.9261, 7534.906
547.4083, 7545.236
547.8904, 7565.842
548.3725, 7577.617
548.8546, 7569.994
549.3367, 7571.637
549.8188, 7594.604
550.3010, 7635.826
550.7831, 7658.387
551.2652, 7659.386
551.7473, 7651.365
552.2294, 7639.811
552.7115, 7625.520
553.1937, 7615.111
553.6758, 7607.472
554.1579, 7610.535
554.6400, 7646.120
555.1221, 7701.779
555.6042, 7741.052
556.0864, 7745.025
556.5685, 7733.589
557.0506, 7716.135
557.5327, 7696.843
558.0148, 7691.750
558.4969, 7732.031
558.9791, 7771.358
559.4612, 7774.515
559.9433, 7727.516
560.4254, 7698.902
560.9075, 7716.627
561.3896, 7749.502
561.8718, 7769.769
562.3539, 7767.569
562.8360, 7769.916
563.3181, 7782.002
563.8002, 7798.247
564.2823, 7803.399
564.7645, 7794.190
565.2466, 7788.468
565.7287, 7794.430
566.2108, 7809.733
566.6929, 7826.147
567.1750, 7843.965
567.6572, 7853.266
568.1393, 7831.584
568.6214, 7797.567
569.1035, 7792.620
569.5856, 7828.393
570.0677, 7871.930
570.5499, 7900.108
571.0320, 7917.437
571.5141, 7931.316
571.9962, 7951.404
572.4783, 7961.664
572.9604, 7948.481
573.4426, 7917.146
573.9247, 7894.670
574.4068, 7886.203
574.8889, 7887.168
575.3710, 7897.906
575.8531, 7920.985
576.3353, 7940.035
576.8174, 7955.693
577.2995, 7966.102
577.7816, 7967.799
578.2637, 7959.760
578.7458, 7954.158
579.2280, 7953.552
579.7101, 7954.654
580.1922, 7949.754
580.6743, 7940.363
581.1564, 7935.017
581.6385, 7943.888
582.1207, 7955.710
582.6028, 7952.549
583.0849, 7936.514
583.5670, 7923.891
584.0491, 7926.149
584.5313, 7934.482
585.0134, 7942.138
585.4955, 7947.407
585.9776, 7954.153
586.4597, 7966.414
586.9418, 7979.328
587.4240, 7987.462
587.9061, 7993.312
588.3882, 7989.789
588.8703, 7969.699
589.3524, 7941.495
589.8345, 7933.864
590.3167, 7954.079
590.7988, 7966.209
591.2809, 7945.601
591.7630, 7902.653
592.2451, 7900.230
592.7272, 7940.079
593.2094, 7977.791
593.6915, 7967.902
594.1736, 7931.316
594.6557, 7906.508
595.1378, 7900.116
595.6199, 7905.906
596.1021, 7928.399
596.5842, 7957.862
597.0663, 7980.510
597.5485, 7989.691
598.0306, 7993.161
598.5127, 7987.560
598.9948, 7976.665
599.4769, 7976.898
599.9590, 8002.841
600.4412, 8023.279
600.9233, 8024.560
601.4054, 8004.577
601.8875, 8000.299
602.3696, 8016.018
602.8517, 8037.048
603.3339, 8051.116
603.8160, 8058.812
604.2981, 8067.860
604.7802, 8081.085
605.2623, 8088.524
605.7444, 8064.734
606.2266, 8023.750
606.7087, 8004.979
607.1908, 8042.806
607.6729, 8087.115
608.1550, 8094.192
608.6371, 8074.102
609.1193, 8059.812
609.6014, 8070.916
610.0835, 8085.486
610.5656, 8091.229
611.0477, 8085.144
611.5298, 8088.851
612.0120, 8114.520
612.4941, 8138.631
612.9762, 8143.888
613.4583, 8123.669
613.9404, 8108.997
614.4225, 8102.715
614.9047, 8099.464
615.3868, 8086.827
615.8689, 8066.406
616.3510, 8062.525
616.8331, 8089.871
617.3152, 8127.346
617.7974, 8140.254
618.2795, 8134.186
618.7616, 8131.616
619.2437, 8155.806
619.7258, 8180.052
620.2079, 8179.634
620.6901, 8153.599
621.1722, 8134.730
621.6543, 8134.779
622.1364, 8145.448
622.6185, 8162.246
623.1006, 8188.177
623.5828, 8213.542
624.0649, 8243.166
624.5470, 8267.794
625.0291, 8270.584
625.5112, 8243.776
625.9933, 8240.180
626.4755, 8278.297
626.9576, 8332.466
627.4397, 8345.202
627.9218, 8321.371
628.4039, 8298.117
628.8860, 8296.157
629.3682, 8304.019
629.8503, 8305.303
630.3324, 8301.198
630.8145, 8301.236
631.2966, 8315.844
631.7787, 8333.171
632.2609, 8345.474
632.7430, 8351.816
633.2251, 8352.807
633.7072, 8339.466
634.1893, 8326.391
634.6714, 8326.924
635.1536, 8352.239
635.6357, 8364.634
636.1178, 8353.687
636.5999, 8336.577
637.0820, 8352.877
637.5641, 8404.594
638.0463, 8435.644
638.5284, 8414.966
639.0105, 8373.973
639.4926, 8381.377
639.9747, 8429.554
640.4568, 8473.837
640.9390, 8481.702
641.4211, 8477.172
641.9032, 8483.907
642.3853, 8503.536
642.8674, 8518.450
643.3495, 8517.091
643.8317, 8511.552
644.3138, 8509.460
644.7959, 8507.565
645.2780, 8518.203
645.7601, 8548.080
646.2422, 8584.511
