##NAMES=Gaylussite
##RRUFFID=R040146
##IDEAL CHEMISTRY=Na_2_Ca(CO_3_)_2_&#183;5H_2_O
##LOCALITY=Searles Lake, Trona, San Bernardino County, California, USA
##OWNER=RRUFF
##SOURCE=University of Arizona Mineral Museum
##DESCRIPTION=Colorless crystal fragments
##STATUS=The identification of this mineral has been confirmed by X-ray diffraction and chemical analysis
##URL=rruff.info/R040146
##MEASURED CHEMISTRY=Na_2.00_Ca_1.00_(C_1.00_O_3_)_2_Â·5H_2_O
141.7504, 920.4282
142.2325, 970.2919
142.7147, 1025.212
143.1968, 1084.401
143.6789, 1147.923
144.1610, 1215.327
144.6431, 1284.773
145.1252, 1358.763
145.6074, 1440.253
146.0895, 1528.523
146.5716, 1619.514
147.0537, 1712.003
147.5358, 1805.182
148.0179, 1888.088
148.5001, 1950.263
148.9822, 2009.987
149.4643, 2082.991
149.9464, 2169.915
150.4285, 2255.546
150.9106, 2325.380
151.3928, 2381.343
151.8749, 2448.496
152.3570, 2532.933
152.8391, 2626.259
153.3212, 2719.842
153.8033, 2812.641
154.2855, 2913.657
154.7676, 3032.145
155.2497, 3166.478
155.7318, 3307.705
156.2139, 3452.241
156.6960, 3604.242
157.1782, 3767.031
157.6603, 3939.858
158.1424, 4127.349
158.6245, 4332.795
159.1066, 4555.257
159.5887, 4797.164
160.0709, 5069.050
160.5530, 5356.546
161.0351, 5645.240
161.5172, 5940.896
161.9993, 6209.616
162.4814, 6439.386
162.9636, 6625.197
163.4457, 6745.738
163.9278, 6793.358
164.4099, 6769.827
164.8920, 6668.933
165.3741, 6476.808
165.8563, 6245.124
166.3384, 5989.638
166.8205, 5719.841
167.3026, 5449.516
167.7847, 5174.483
168.2668, 4904.463
168.7490, 4659.969
169.2311, 4442.723
169.7132, 4246.510
170.1953, 4071.127
170.6774, 3911.496
171.1595, 3760.847
171.6417, 3614.786
172.1238, 3476.270
172.6059, 3354.156
173.0880, 3253.678
173.5701, 3159.896
174.0522, 3063.086
174.5344, 2967.458
175.0165, 2881.406
175.4986, 2810.959
175.9807, 2750.971
176.4628, 2686.142
176.9449, 2613.563
177.4271, 2541.260
177.9092, 2472.055
178.3913, 2405.141
178.8734, 2339.754
179.3555, 2274.970
179.8376, 2211.058
180.3197, 2147.728
180.8019, 2083.491
181.2840, 2022.890
181.7661, 1966.041
182.2482, 1913.130
182.7303, 1864.944
183.2124, 1822.012
183.6946, 1783.685
184.1767, 1748.491
184.6588, 1718.615
185.1409, 1688.564
185.6230, 1651.520
186.1051, 1615.424
186.5873, 1590.565
187.0694, 1583.016
187.5515, 1585.838
188.0336, 1579.613
188.5157, 1556.243
188.9978, 1537.894
189.4800, 1533.010
189.9621, 1533.308
190.4442, 1529.286
190.9263, 1516.384
191.4084, 1499.633
191.8905, 1492.168
192.3727, 1502.008
192.8548, 1506.874
193.3369, 1500.905
193.8190, 1490.053
194.3011, 1479.228
194.7832, 1470.328
195.2654, 1463.602
195.7475, 1460.077
196.2296, 1462.285
196.7117, 1462.930
197.1938, 1458.811
197.6759, 1454.184
198.1581, 1452.613
198.6402, 1455.302
199.1223, 1461.179
199.6044, 1468.519
200.0865, 1478.176
200.5686, 1487.688
201.0508, 1495.962
201.5329, 1504.564
202.0150, 1514.692
202.4971, 1526.699
202.9792, 1539.825
203.4613, 1553.199
203.9435, 1567.838
204.4256, 1580.207
204.9077, 1588.358
205.3898, 1595.833
205.8719, 1607.478
206.3540, 1623.160
206.8362, 1636.005
207.3183, 1635.923
207.8004, 1618.297
208.2825, 1598.835
208.7646, 1574.020
209.2467, 1550.369
209.7289, 1533.011
210.2110, 1521.849
210.6931, 1511.879
211.1752, 1496.515
211.6573, 1472.959
212.1395, 1454.753
212.6216, 1445.509
213.1037, 1438.185
213.5858, 1428.549
214.0679, 1417.229
214.5500, 1408.208
215.0322, 1405.800
215.5143, 1410.970
215.9964, 1416.545
216.4785, 1421.806
216.9606, 1428.147
217.4427, 1436.641
217.9249, 1446.821
218.4070, 1457.202
218.8891, 1466.112
219.3712, 1473.402
219.8533, 1484.704
220.3354, 1510.472
220.8176, 1530.080
221.2997, 1536.343
221.7818, 1532.010
222.2639, 1522.699
222.7460, 1511.538
223.2281, 1498.956
223.7103, 1490.506
224.1924, 1488.317
224.6745, 1488.444
225.1566, 1492.830
225.6387, 1498.467
226.1208, 1500.148
226.6030, 1494.134
227.0851, 1483.620
227.5672, 1482.517
228.0493, 1500.791
228.5314, 1515.422
229.0135, 1519.850
229.4957, 1519.728
229.9778, 1522.208
230.4599, 1530.639
230.9420, 1541.583
231.4241, 1546.525
231.9062, 1542.974
232.3884, 1537.035
232.8705, 1526.947
233.3526, 1516.609
233.8347, 1509.549
234.3168, 1506.912
234.7989, 1506.750
235.2811, 1506.227
235.7632, 1506.435
236.2453, 1503.457
236.7274, 1492.529
237.2095, 1481.741
237.6916, 1476.416
238.1738, 1477.573
238.6559, 1482.659
239.1380, 1489.283
239.6201, 1498.328
240.1022, 1505.638
240.5843, 1506.445
241.0665, 1509.266
241.5486, 1518.229
242.0307, 1533.475
242.5128, 1552.710
242.9949, 1573.600
243.4770, 1595.981
243.9592, 1622.606
244.4413, 1657.477
244.9234, 1693.408
245.4055, 1726.902
245.8876, 1759.210
246.3697, 1793.682
246.8519, 1833.367
247.3340, 1877.868
247.8161, 1920.789
248.2982, 1957.366
248.7803, 1999.428
249.2624, 2052.646
249.7446, 2113.374
250.2267, 2175.462
250.7088, 2236.159
251.1909, 2296.064
251.6730, 2359.048
252.1551, 2432.603
252.6373, 2493.618
253.1194, 2533.673
253.6015, 2559.480
254.0836, 2576.770
254.5657, 2586.958
255.0478, 2591.832
255.5300, 2594.578
256.0121, 2595.968
256.4942, 2592.127
256.9763, 2576.678
257.4584, 2558.495
257.9406, 2544.097
258.4227, 2534.954
258.9048, 2526.899
259.3869, 2516.353
259.8690, 2503.322
260.3511, 2486.788
260.8333, 2464.096
261.3154, 2439.589
261.7975, 2418.242
262.2796, 2399.640
262.7617, 2376.110
263.2438, 2340.083
263.7260, 2293.397
264.2081, 2247.465
264.6902, 2204.543
265.1723, 2160.682
265.6544, 2111.933
266.1365, 2059.601
266.6187, 2008.691
267.1008, 1958.470
267.5829, 1911.777
268.0650, 1876.150
268.5471, 1854.282
269.0292, 1835.365
269.5114, 1812.235
269.9935, 1787.107
270.4756, 1763.443
270.9577, 1740.884
271.4398, 1721.193
271.9219, 1707.521
272.4041, 1700.011
272.8862, 1692.619
273.3683, 1680.154
273.8504, 1667.234
274.3325, 1662.492
274.8146, 1669.475
275.2968, 1678.951
275.7789, 1684.451
276.2610, 1687.124
276.7431, 1692.633
277.2252, 1705.078
277.7073, 1718.287
278.1895, 1722.023
278.6716, 1715.827
279.1537, 1705.764
279.6358, 1693.277
280.1179, 1678.468
280.6000, 1661.286
281.0822, 1641.508
281.5643, 1620.379
282.0464, 1598.827
282.5285, 1576.876
283.0106, 1555.649
283.4927, 1536.936
283.9749, 1517.963
284.4570, 1494.869
284.9391, 1467.795
285.4212, 1441.835
285.9033, 1421.644
286.3854, 1407.209
286.8676, 1390.581
287.3497, 1369.756
287.8318, 1348.875
288.3139, 1328.881
288.7960, 1310.301
289.2781, 1294.612
289.7603, 1282.834
290.2424, 1274.185
290.7245, 1265.689
291.2066, 1260.100
291.6887, 1251.293
292.1708, 1236.273
292.6530, 1218.259
293.1351, 1201.050
293.6172, 1185.998
294.0993, 1172.223
294.5814, 1157.940
295.0635, 1139.322
295.5457, 1128.089
296.0278, 1131.093
296.5099, 1136.026
296.9920, 1133.258
297.4741, 1122.426
297.9562, 1110.433
298.4384, 1104.672
298.9205, 1106.371
299.4026, 1105.731
299.8847, 1103.154
300.3668, 1097.941
300.8489, 1087.674
301.3310, 1074.535
301.8131, 1062.818
302.2953, 1055.358
302.7774, 1051.562
303.2595, 1048.559
303.7416, 1047.341
304.2237, 1045.431
304.7058, 1040.588
305.1880, 1035.608
305.6701, 1034.656
306.1522, 1039.458
306.6343, 1045.022
307.1164, 1041.579
307.5985, 1025.437
308.0807, 1014.137
308.5628, 1015.423
309.0449, 1019.364
309.5270, 1020.064
310.0091, 1017.096
310.4912, 1014.245
310.9734, 1015.529
311.4555, 1020.447
311.9376, 1023.547
312.4197, 1024.778
312.9018, 1023.441
313.3839, 1018.913
313.8661, 1011.800
314.3482, 1003.560
314.8303, 992.7803
315.3124, 982.1740
315.7945, 976.6047
316.2766, 976.4086
316.7588, 979.4395
317.2409, 987.2148
317.7230, 996.6689
318.2051, 1002.915
318.6872, 1005.527
319.1693, 1004.534
319.6515, 997.7802
320.1336, 986.7093
320.6157, 977.6758
321.0978, 972.9760
321.5799, 971.0962
322.0620, 969.8752
322.5442, 969.3137
323.0263, 969.0938
323.5084, 967.8843
323.9905, 967.4904
324.4726, 971.5263
324.9547, 980.5751
325.4369, 989.2211
325.9190, 992.0065
326.4011, 988.2073
326.8832, 985.5661
327.3653, 982.7692
327.8474, 982.2373
328.3296, 986.4593
328.8117, 994.2680
329.2938, 1002.416
329.7759, 1009.189
330.2580, 1014.586
330.7401, 1018.366
331.2223, 1021.260
331.7044, 1021.609
332.1865, 1015.113
332.6686, 1007.861
333.1507, 1007.859
333.6328, 1017.060
334.1150, 1028.873
334.5971, 1032.935
335.0792, 1024.716
335.5613, 1020.981
336.0434, 1026.247
336.5255, 1031.460
337.0077, 1031.382
337.4898, 1026.863
337.9719, 1022.169
338.4540, 1020.931
338.9361, 1022.587
339.4182, 1021.769
339.9004, 1015.520
340.3825, 1011.243
340.8646, 1013.692
341.3467, 1018.190
341.8288, 1018.143
342.3109, 1010.453
342.7931, 1000.439
343.2752, 997.2318
343.7573, 1002.289
344.2394, 1003.483
344.7215, 993.0912
345.2036, 981.6852
345.6858, 978.4843
346.1679, 983.7417
346.6500, 989.4517
347.1321, 990.2723
347.6142, 987.7001
348.0963, 986.2917
348.5785, 987.2319
349.0606, 986.9703
349.5427, 981.1702
350.0248, 971.7114
350.5069, 964.1909
350.9890, 959.4113
351.4712, 957.0300
351.9533, 958.4376
352.4354, 962.6703
352.9175, 964.4368
353.3996, 960.5616
353.8817, 953.4764
354.3639, 949.7153
354.8460, 950.6007
355.3281, 951.2141
355.8102, 950.2108
356.2923, 948.4868
356.7744, 946.8768
357.2566, 945.6100
357.7387, 945.0535
358.2208, 945.9138
358.7029, 948.8859
359.1850, 949.1813
359.6671, 945.6747
360.1493, 941.0627
360.6314, 935.3531
361.1135, 929.5289
361.5956, 925.4226
362.0777, 924.1959
362.5598, 925.1312
363.0420, 925.5676
363.5241, 924.8158
364.0062, 924.6968
364.4883, 927.1936
364.9704, 929.2596
365.4525, 927.5355
365.9347, 921.6546
366.4168, 915.1646
366.8989, 912.4849
367.3810, 913.8964
367.8631, 913.7850
368.3452, 908.6161
368.8274, 906.0821
369.3095, 913.3704
369.7916, 926.1234
370.2737, 933.7061
370.7558, 929.1386
371.2379, 918.2261
371.7201, 909.5261
372.2022, 902.8642
372.6843, 900.4491
373.1664, 906.1946
373.6485, 915.0690
374.1306, 919.0305
374.6128, 916.4933
375.0949, 913.9104
375.5770, 916.8808
376.0591, 921.7878
376.5412, 919.8500
377.0233, 908.4809
377.5055, 896.4833
377.9876, 893.0410
378.4697, 899.2533
378.9518, 905.1025
379.4339, 911.8493
379.9160, 916.9680
380.3982, 917.9732
380.8803, 915.9684
381.3624, 913.9679
381.8445, 913.5774
382.3266, 914.3950
382.8087, 915.2386
383.2909, 917.5362
383.7730, 917.8254
384.2551, 914.7362
384.7372, 910.4950
385.2193, 906.7220
385.7014, 903.7679
386.1836, 901.1774
386.6657, 898.3185
387.1478, 895.1195
387.6299, 893.3132
388.1120, 894.7117
388.5941, 895.4058
389.0763, 892.9972
389.5584, 889.3400
390.0405, 887.8589
390.5226, 890.6738
391.0047, 894.2705
391.4868, 891.1766
391.9690, 880.0985
392.4511, 875.3283
392.9332, 886.5581
393.4153, 900.2343
393.8974, 901.4426
394.3795, 890.2324
394.8617, 882.4335
395.3438, 890.3580
395.8259, 905.0672
396.3080, 911.2739
396.7901, 907.3580
397.2722, 900.3130
397.7544, 893.8414
398.2365, 888.2841
398.7186, 884.6546
399.2007, 882.6749
399.6828, 882.8817
400.1649, 887.0880
400.6471, 893.2525
401.1292, 898.5671
401.6113, 902.1368
402.0934, 903.1432
402.5755, 899.9047
403.0576, 889.8080
403.5398, 883.5645
404.0219, 880.6382
404.5040, 881.3917
404.9861, 890.0966
405.4682, 902.7291
405.9503, 909.6992
406.4325, 904.2756
406.9146, 890.2653
407.3967, 881.0020
407.8788, 877.3720
408.3609, 876.9285
408.8430, 883.3326
409.3252, 889.7493
409.8073, 889.6468
410.2894, 882.4180
410.7715, 874.7104
411.2536, 872.1942
411.7357, 874.1111
412.2179, 876.8441
412.7000, 880.3426
413.1821, 884.2114
413.6642, 889.5355
414.1463, 894.9464
414.6284, 897.2521
415.1106, 895.0906
415.5927, 890.6327
416.0748, 883.0527
416.5569, 874.1689
417.0390, 870.3740
417.5211, 874.4975
418.0033, 882.1290
418.4854, 886.8072
418.9675, 887.5276
419.4496, 888.4721
419.9317, 890.1840
420.4138, 891.8026
420.8960, 892.4169
421.3781, 892.3658
421.8602, 893.2581
422.3423, 896.4966
422.8244, 900.6889
423.3065, 899.5103
423.7887, 887.0453
424.2708, 878.4293
424.7529, 878.8010
425.2350, 880.8779
425.7171, 877.5585
426.1992, 868.4857
426.6814, 860.2108
427.1635, 860.4698
427.6456, 868.2939
428.1277, 871.4470
428.6098, 867.0405
429.0919, 863.5108
429.5741, 866.6442
430.0562, 873.0169
430.5383, 877.5765
431.0204, 878.6683
431.5025, 878.7427
431.9846, 880.4304
432.4668, 882.8901
432.9489, 882.2061
433.4310, 876.3606
433.9131, 870.6772
434.3952, 872.4902
434.8773, 882.8433
435.3595, 889.4229
435.8416, 891.0208
436.3237, 889.1520
436.8058, 881.1547
437.2879, 870.4105
437.7701, 865.6445
438.2522, 871.7382
438.7343, 883.8040
439.2164, 889.1655
439.6985, 882.2819
440.1806, 878.4404
440.6628, 879.9994
441.1449, 882.6084
441.6270, 883.2502
442.1091, 882.1716
442.5912, 881.6573
443.0733, 883.6995
443.5555, 887.5365
444.0376, 890.5031
444.5197, 893.0087
445.0018, 893.4659
445.4839, 888.1622
445.9660, 882.1029
446.4482, 881.1874
446.9303, 886.9047
447.4124, 891.6348
447.8945, 889.1309
448.3766, 882.6421
448.8587, 878.7697
449.3409, 878.4082
449.8230, 880.2239
450.3051, 884.0044
450.7872, 889.3218
451.2693, 892.1107
451.7514, 890.8359
452.2336, 889.0377
452.7157, 888.0528
453.1978, 887.1727
453.6799, 884.5851
454.1620, 880.0160
454.6441, 876.3508
455.1263, 877.8162
455.6084, 885.7399
456.0905, 891.2463
456.5726, 895.1651
457.0547, 895.5188
457.5368, 886.0286
458.0190, 873.8778
458.5011, 872.0001
458.9832, 887.4471
459.4653, 907.2219
459.9474, 910.8152
460.4295, 897.9128
460.9117, 889.8910
461.3938, 893.6029
461.8759, 899.5092
462.3580, 897.5289
462.8401, 889.5068
463.3222, 885.4377
463.8044, 893.1213
464.2865, 901.8806
464.7686, 900.1777
465.2507, 890.6765
465.7328, 885.1754
466.2149, 889.4750
466.6971, 897.9727
467.1792, 899.4426
467.6613, 887.9669
468.1434, 881.9161
468.6255, 883.1595
469.1076, 888.0555
469.5898, 896.5123
470.0719, 906.7678
470.5540, 915.4865
471.0361, 920.8449
471.5182, 922.6306
472.0003, 919.1677
472.4825, 907.3039
472.9646, 898.8705
473.4467, 898.9623
473.9288, 901.5599
474.4109, 903.4899
474.8930, 904.4366
475.3752, 904.7680
475.8573, 902.2362
476.3394, 900.1865
476.8215, 906.3544
477.3036, 920.9694
477.7857, 933.5083
478.2679, 939.1845
478.7500, 939.0657
479.2321, 934.5927
479.7142, 922.5306
480.1963, 914.8105
480.6784, 917.2891
481.1606, 922.6671
481.6427, 924.7220
482.1248, 922.9305
482.6069, 919.2370
483.0890, 914.6810
483.5711, 909.8840
484.0533, 908.5401
484.5354, 914.4641
485.0175, 917.5223
485.4996, 912.2818
485.9817, 906.7520
486.4638, 908.3220
486.9460, 917.1760
487.4281, 926.6687
487.9102, 932.2695
488.3923, 934.4985
488.8744, 933.9452
489.3565, 929.8391
489.8387, 927.4939
490.3208, 929.9038
490.8029, 935.7434
491.2850, 942.4196
491.7671, 951.3548
492.2492, 957.1093
492.7314, 955.7007
493.2135, 951.3037
493.6956, 948.5750
494.1777, 947.9241
494.6598, 947.1402
495.1419, 944.3331
495.6241, 940.0952
496.1062, 938.2296
496.5883, 940.1625
497.0704, 942.6369
497.5525, 946.5663
498.0346, 950.0443
498.5168, 950.9227
498.9989, 949.3391
499.4810, 947.8097
499.9631, 948.2151
500.4452, 950.3403
500.9273, 953.6150
501.4095, 958.3271
501.8916, 962.9685
502.3737, 966.5621
502.8558, 969.9369
503.3379, 974.6376
503.8200, 981.2377
504.3022, 986.7584
504.7843, 988.4573
505.2664, 989.4086
505.7485, 993.6301
506.2306, 1001.045
506.7127, 1008.937
507.1949, 1016.080
507.6770, 1021.500
508.1591, 1020.711
508.6412, 1006.521
509.1233, 996.5567
509.6054, 991.1802
510.0876, 990.5383
510.5697, 996.5858
511.0518, 1008.027
511.5339, 1020.213
512.0161, 1030.964
512.4982, 1039.318
512.9803, 1041.346
513.4624, 1035.715
513.9445, 1031.674
514.4266, 1032.048
514.9088, 1036.033
515.3909, 1043.181
515.8730, 1053.868
516.3551, 1062.922
516.8372, 1069.541
517.3193, 1073.318
517.8015, 1072.644
518.2836, 1068.518
518.7657, 1064.888
519.2478, 1063.994
519.7299, 1064.208
520.2120, 1061.569
520.6942, 1054.358
521.1763, 1047.473
521.6584, 1040.370
522.1405, 1034.067
522.6226, 1029.215
523.1047, 1025.601
523.5869, 1022.772
524.0690, 1020.638
524.5511, 1018.785
525.0332, 1017.215
525.5153, 1015.910
525.9974, 1011.632
526.4796, 1002.353
526.9617, 991.9057
527.4438, 984.9235
527.9259, 980.8846
528.4080, 975.3376
528.8901, 963.7112
529.3723, 954.3131
529.8544, 955.3454
530.3365, 961.5204
530.8186, 961.7040
531.3007, 952.2250
531.7828, 939.6476
532.2650, 933.3069
532.7471, 934.5424
533.2292, 933.5297
533.7113, 928.7805
534.1934, 923.3530
534.6755, 917.8738
535.1577, 912.4037
535.6398, 906.3713
536.1219, 899.3389
536.6040, 894.1640
537.0861, 895.2910
537.5682, 900.4794
538.0504, 901.9084
538.5325, 898.2140
539.0146, 894.1474
539.4967, 892.5590
539.9788, 893.4349
540.4609, 896.5737
540.9431, 907.7635
541.4252, 913.1346
541.9073, 906.1036
542.3894, 894.4733
542.8715, 883.9814
543.3536, 876.2343
543.8358, 872.2573
544.3179, 873.3194
544.8000, 878.3392
545.2821, 882.9658
545.7642, 887.8959
546.2463, 890.4489
546.7285, 885.9647
547.2106, 881.8406
547.6926, 885.8658
548.1747, 897.2454
548.6569, 904.8566
549.1390, 901.2247
549.6211, 893.2202
550.1032, 887.5905
550.5853, 884.1636
551.0674, 881.0839
551.5496, 877.3248
552.0317, 875.0149
552.5138, 878.1718
552.9959, 889.9388
553.4780, 896.4783
553.9601, 892.9788
554.4423, 890.2080
554.9244, 895.5088
555.4065, 903.4588
555.8886, 904.0931
556.3707, 893.5490
556.8528, 881.0262
557.3350, 878.0671
557.8171, 883.5622
558.2992, 888.5551
558.7813, 892.1846
559.2634, 895.4775
559.7455, 899.1436
560.2277, 902.9755
560.7098, 906.3547
561.1919, 909.5761
561.6740, 911.8416
562.1561, 913.5397
562.6382, 913.7682
563.1204, 910.2686
563.6025, 903.8025
564.0846, 898.6210
564.5667, 897.9581
565.0488, 900.6826
565.5309, 902.1964
566.0131, 901.6307
566.4952, 902.0423
566.9773, 903.5827
567.4594, 906.6470
567.9415, 913.0063
568.4236, 921.5941
568.9058, 927.7615
569.3879, 928.4359
569.8700, 926.8664
570.3521, 928.3040
570.8342, 930.5400
571.3163, 924.1157
571.7985, 905.3719
572.2806, 884.9349
572.7627, 875.8919
573.2448, 879.5059
573.7269, 882.4299
574.2090, 885.8262
574.6912, 887.2236
575.1733, 882.4853
575.6554, 877.2665
576.1375, 879.7657
576.6196, 890.9717
577.1017, 901.0231
577.5839, 898.6396
578.0660, 887.9775
578.5481, 883.4807
579.0302, 885.9556
579.5123, 889.5615
579.9944, 892.9176
580.4766, 894.7505
580.9587, 891.6536
581.4408, 882.1961
581.9229, 874.7715
582.4050, 873.1401
582.8871, 871.5677
583.3693, 863.6722
583.8514, 853.1346
584.3335, 849.0710
584.8156, 855.7514
585.2977, 866.5576
585.7798, 870.6506
586.2620, 867.3200
586.7441, 865.6587
587.2262, 867.4891
587.7083, 868.6964
588.1904, 866.1883
588.6725, 861.7176
589.1547, 857.7364
589.6368, 853.7781
590.1189, 852.3920
590.6010, 858.9730
591.0831, 866.5577
591.5652, 864.5710
592.0474, 853.5941
592.5295, 842.9235
593.0116, 838.7802
593.4937, 839.1763
593.9758, 837.6809
594.4579, 832.3832
594.9401, 829.7607
595.4222, 833.8715
595.9043, 837.5805
596.3864, 836.5776
596.8685, 832.3362
597.3506, 829.1776
597.8328, 829.8144
598.3149, 829.8421
598.7970, 821.9705
599.2791, 810.6512
599.7612, 809.5607
600.2433, 821.3694
600.7255, 832.9320
601.2076, 832.7346
601.6897, 822.3871
602.1718, 815.0090
602.6539, 810.7747
603.1360, 809.5570
603.6182, 813.5375
604.1003, 818.7496
604.5824, 823.2716
605.0645, 826.3849
605.5466, 826.7570
606.0287, 822.0619
606.5109, 816.3532
606.9930, 817.4688
607.4751, 824.1683
607.9572, 825.9179
608.4393, 819.2457
608.9214, 810.3291
609.4036, 804.9341
609.8857, 803.0884
610.3678, 802.8181
610.8499, 806.8235
611.3320, 808.8418
611.8141, 803.6104
612.2963, 798.0956
612.7784, 801.2563
613.2605, 812.5671
613.7426, 822.3427
614.2247, 822.2077
614.7068, 816.2397
615.1890, 814.4203
615.6711, 816.8982
616.1532, 820.9026
616.6353, 827.5988
617.1174, 831.9019
617.5995, 825.0604
618.0817, 806.7837
618.5638, 799.0248
619.0459, 812.0797
619.5280, 824.8430
620.0101, 828.9986
620.4922, 828.3756
620.9744, 827.4307
621.4565, 827.3838
621.9386, 828.0945
622.4207, 830.3496
622.9028, 832.8754
623.3849, 829.3320
623.8671, 818.1494
624.3492, 810.2996
624.8313, 810.6312
625.3134, 813.9280
625.7955, 812.8229
626.2776, 807.6367
626.7598, 807.5418
627.2419, 819.5966
627.7240, 830.7521
628.2061, 834.5383
628.6882, 833.1730
629.1703, 828.7182
629.6525, 822.4216
630.1346, 817.4957
630.6167, 817.8547
631.0988, 822.1787
631.5809, 822.2012
632.0630, 816.0292
632.5452, 813.0740
633.0273, 817.5875
633.5094, 825.2134
633.9915, 831.9871
634.4736, 837.8704
634.9557, 841.2759
635.4379, 839.0880
635.9200, 837.2387
636.4021, 838.3094
636.8842, 842.1766
