##NAMES=Gearksutite
##RRUFFID=R050657
##IDEAL CHEMISTRY=CaAlF_4_(OH)&#183;H_2_O
##LOCALITY=Jamestown, Colorado, USA
##OWNER=RRUFF
##SOURCE=University of Arizona Mineral Museum
##DESCRIPTION=White fragment
##STATUS=The identification of this mineral has been confirmed by X-ray diffraction and chemical analysis
##URL=rruff.info/R050657
##MEASURED CHEMISTRY=(Ca_0.98_Sr_0.02_)Al_1.00_F_4.00_(OH)Â·H_2_O
89.78156, 0.0000000E+00
90.26367, 63.53044
90.74579, 63.38337
91.22791, 63.55828
91.71002, 63.99907
92.19214, 64.19952
92.67426, 63.25488
93.15638, 61.68086
93.63850, 60.91581
94.12061, 62.16690
94.60273, 64.34763
95.08485, 64.95963
95.56696, 63.93391
96.04908, 61.77271
96.53120, 57.90698
97.01331, 52.57279
97.49543, 49.20925
97.97755, 50.25111
98.45966, 55.40984
98.94178, 59.68097
99.42390, 63.29577
99.90602, 65.61815
100.3881, 64.99725
100.8703, 60.69044
101.3524, 56.02879
101.8345, 52.57859
102.3166, 50.53609
102.7987, 48.91931
103.2808, 47.38279
103.7630, 46.23977
104.2451, 47.36261
104.7272, 52.91320
105.2093, 57.88485
105.6914, 58.46374
106.1735, 49.84369
106.6557, 45.19312
107.1378, 48.01718
107.6199, 58.68721
108.1020, 64.87741
108.5841, 62.72631
109.0662, 58.15380
109.5484, 56.44148
110.0305, 60.55009
110.5126, 64.55542
110.9947, 67.28126
111.4768, 68.36204
111.9590, 69.90142
112.4411, 71.94933
112.9232, 74.60706
113.4053, 77.94265
113.8874, 82.32751
114.3695, 87.12510
114.8517, 92.05077
115.3338, 96.98619
115.8159, 102.2464
116.2980, 108.1171
116.7801, 114.4379
117.2622, 120.8019
117.7444, 124.6800
118.2265, 130.0101
118.7086, 139.7604
119.1907, 157.1849
119.6728, 175.3111
120.1549, 188.8101
120.6371, 199.1702
121.1192, 212.4864
121.6013, 234.0147
122.0834, 259.6670
122.5655, 284.8123
123.0476, 307.4550
123.5298, 329.5565
124.0119, 352.7756
124.4940, 377.0779
124.9761, 402.0816
125.4582, 427.8758
125.9404, 453.9833
126.4225, 479.2456
126.9046, 503.2040
127.3867, 526.0444
127.8688, 548.2827
128.3509, 569.9964
128.8331, 590.3469
129.3152, 608.7880
129.7973, 625.2877
130.2794, 639.2838
130.7615, 646.9500
131.2436, 651.3959
131.7258, 663.5318
132.2079, 684.4230
132.6900, 711.0769
133.1721, 739.9411
133.6542, 770.9125
134.1364, 802.8282
134.6185, 836.6112
135.1006, 872.1982
135.5827, 903.5840
136.0648, 929.4847
136.5469, 952.2441
137.0291, 977.6609
137.5112, 1006.077
137.9933, 1035.072
138.4754, 1064.537
138.9575, 1095.019
139.4396, 1120.615
139.9218, 1139.014
140.4039, 1151.946
140.8860, 1167.263
141.3681, 1184.928
141.8502, 1204.912
142.3323, 1227.387
142.8145, 1254.603
143.2966, 1279.292
143.7787, 1299.813
144.2608, 1316.389
144.7429, 1331.938
145.2250, 1346.052
145.7072, 1359.690
146.1893, 1373.695
146.6714, 1387.237
147.1535, 1402.338
147.6356, 1419.235
148.1178, 1437.843
148.5999, 1458.349
149.0820, 1481.347
149.5641, 1505.929
150.0462, 1530.846
150.5283, 1558.723
151.0105, 1584.008
151.4926, 1590.319
151.9747, 1588.021
152.4568, 1587.741
152.9389, 1591.557
153.4210, 1597.082
153.9032, 1601.032
154.3853, 1602.162
154.8674, 1602.516
155.3495, 1602.450
155.8316, 1601.167
156.3137, 1601.367
156.7959, 1604.981
157.2780, 1610.203
157.7601, 1613.621
158.2422, 1610.816
158.7243, 1608.740
159.2065, 1610.943
159.6886, 1620.048
160.1707, 1629.595
160.6528, 1637.583
161.1349, 1644.558
161.6170, 1651.995
162.0992, 1662.379
162.5813, 1672.212
163.0634, 1678.784
163.5455, 1677.535
164.0276, 1678.335
164.5097, 1687.770
164.9919, 1703.670
165.4740, 1717.617
165.9561, 1725.683
166.4382, 1729.901
166.9203, 1732.220
167.4024, 1733.537
167.8846, 1732.808
168.3667, 1727.727
168.8488, 1719.092
169.3309, 1712.081
169.8130, 1710.781
170.2952, 1712.593
170.7773, 1714.331
171.2594, 1715.382
171.7415, 1715.581
172.2236, 1713.504
172.7057, 1709.399
173.1879, 1707.319
173.6700, 1710.842
174.1521, 1718.322
174.6342, 1726.963
175.1163, 1736.906
175.5984, 1746.933
176.0806, 1755.585
176.5627, 1762.899
177.0448, 1769.124
177.5269, 1773.098
178.0090, 1776.010
178.4911, 1780.815
178.9733, 1791.087
179.4554, 1803.251
179.9375, 1810.742
180.4196, 1812.966
180.9017, 1815.184
181.3838, 1824.090
181.8660, 1837.935
182.3481, 1850.807
182.8302, 1858.579
183.3123, 1863.549
183.7944, 1871.322
184.2766, 1882.529
184.7587, 1894.461
185.2408, 1904.475
185.7229, 1912.570
186.2050, 1919.199
186.6871, 1923.402
187.1693, 1926.102
187.6514, 1930.525
188.1335, 1937.049
188.6156, 1944.577
189.0977, 1951.730
189.5798, 1958.481
190.0620, 1965.322
190.5441, 1973.511
191.0262, 1982.471
191.5083, 1988.213
191.9904, 1990.122
192.4725, 1989.888
192.9547, 1990.340
193.4368, 1991.521
193.9189, 1992.361
194.4010, 1992.433
194.8831, 1991.742
195.3652, 1990.379
195.8474, 1988.723
196.3295, 1985.857
196.8116, 1979.058
197.2937, 1967.931
197.7758, 1956.952
198.2579, 1948.763
198.7401, 1943.392
199.2222, 1938.757
199.7043, 1934.477
200.1864, 1931.135
200.6685, 1930.544
201.1507, 1933.157
201.6328, 1936.317
202.1149, 1938.017
202.5970, 1937.924
203.0791, 1939.746
203.5612, 1944.023
204.0434, 1950.183
204.5255, 1956.695
205.0076, 1963.495
205.4897, 1970.902
205.9718, 1978.538
206.4539, 1985.889
206.9361, 1997.060
207.4182, 2013.934
207.9003, 2034.159
208.3824, 2050.958
208.8645, 2064.320
209.3466, 2074.442
209.8288, 2082.244
210.3109, 2088.708
210.7930, 2088.436
211.2751, 2080.000
211.7572, 2064.774
212.2393, 2047.052
212.7215, 2026.711
213.2036, 2004.553
213.6857, 1980.140
214.1678, 1951.458
214.6499, 1927.100
215.1320, 1908.026
215.6142, 1893.576
216.0963, 1881.217
216.5784, 1870.595
217.0605, 1862.727
217.5426, 1858.871
218.0247, 1860.646
218.5069, 1861.683
218.9890, 1861.039
219.4711, 1859.215
219.9532, 1858.786
220.4353, 1860.741
220.9175, 1862.490
221.3996, 1861.853
221.8817, 1856.729
222.3638, 1855.027
222.8459, 1859.063
223.3280, 1867.301
223.8102, 1871.202
224.2923, 1868.250
224.7744, 1864.908
225.2565, 1865.178
225.7386, 1869.828
226.2207, 1876.239
226.7029, 1884.743
227.1850, 1894.918
227.6671, 1904.227
228.1492, 1912.479
228.6313, 1920.131
229.1134, 1927.670
229.5956, 1936.232
230.0777, 1942.286
230.5598, 1945.393
231.0419, 1945.805
231.5240, 1944.526
232.0062, 1940.360
232.4883, 1936.178
232.9704, 1933.803
233.4525, 1934.169
233.9346, 1934.386
234.4167, 1934.545
234.8989, 1934.443
235.3810, 1932.756
235.8631, 1927.308
236.3452, 1923.078
236.8273, 1923.176
237.3094, 1929.941
237.7916, 1935.892
238.2737, 1940.651
238.7558, 1944.279
239.2379, 1947.205
239.7200, 1949.531
240.2021, 1950.978
240.6843, 1951.151
241.1664, 1948.772
241.6485, 1947.928
242.1306, 1949.015
242.6127, 1951.795
243.0948, 1955.214
243.5770, 1958.816
244.0591, 1963.791
244.5412, 1971.100
245.0233, 1982.876
245.5054, 1992.278
245.9876, 1997.814
246.4697, 2001.019
246.9518, 2006.846
247.4339, 2015.731
247.9160, 2026.634
248.3981, 2039.115
248.8803, 2053.838
249.3624, 2068.684
249.8445, 2083.572
250.3266, 2098.531
250.8087, 2113.760
251.2908, 2129.226
251.7730, 2144.724
252.2551, 2160.160
252.7372, 2176.265
253.2193, 2190.598
253.7014, 2202.653
254.1835, 2213.033
254.6657, 2223.559
255.1478, 2236.675
255.6299, 2245.645
256.1120, 2246.767
256.5941, 2236.702
257.0763, 2229.513
257.5584, 2225.895
258.0405, 2224.669
258.5226, 2223.700
259.0047, 2223.301
259.4868, 2222.519
259.9690, 2220.653
260.4511, 2217.074
260.9332, 2215.825
261.4153, 2218.848
261.8974, 2222.487
262.3795, 2220.508
262.8617, 2211.831
263.3438, 2200.071
263.8259, 2185.998
264.3080, 2169.495
264.7901, 2151.344
265.2722, 2130.095
265.7544, 2108.892
266.2365, 2093.043
266.7186, 2084.051
267.2007, 2075.864
267.6828, 2066.478
268.1649, 2055.594
268.6471, 2046.973
269.1292, 2040.617
269.6113, 2036.273
270.0934, 2033.747
270.5755, 2033.205
271.0576, 2033.826
271.5398, 2035.683
272.0219, 2038.750
272.5040, 2041.159
272.9861, 2042.476
273.4682, 2044.010
273.9503, 2047.986
274.4325, 2055.267
274.9146, 2059.917
275.3967, 2060.035
275.8788, 2056.142
276.3610, 2052.410
276.8431, 2049.021
277.3252, 2045.349
277.8073, 2040.878
278.2894, 2035.612
278.7715, 2029.615
279.2537, 2022.539
279.7358, 2014.815
280.2179, 2008.246
280.7000, 2003.043
281.1821, 1998.037
281.6642, 1991.985
282.1464, 1984.883
282.6285, 1978.322
283.1106, 1972.198
283.5927, 1967.057
284.0748, 1965.186
284.5569, 1966.941
285.0391, 1968.500
285.5212, 1966.593
286.0033, 1961.544
286.4854, 1957.084
286.9675, 1953.041
287.4496, 1950.716
287.9318, 1954.131
288.4139, 1963.407
288.8960, 1972.154
289.3781, 1976.920
289.8602, 1978.070
290.3423, 1976.823
290.8245, 1972.595
291.3066, 1967.828
291.7887, 1966.715
292.2708, 1968.950
292.7529, 1971.639
293.2350, 1974.273
293.7172, 1976.227
294.1993, 1974.958
294.6814, 1969.938
295.1635, 1963.670
295.6456, 1958.754
296.1277, 1955.129
296.6099, 1952.687
297.0920, 1953.144
297.5741, 1954.408
298.0562, 1951.749
298.5383, 1944.896
299.0204, 1937.116
299.5026, 1930.870
299.9847, 1926.216
300.4668, 1923.153
300.9489, 1923.263
301.4311, 1924.245
301.9132, 1922.493
302.3953, 1918.106
302.8774, 1913.642
303.3595, 1910.721
303.8416, 1909.186
304.3238, 1908.852
304.8059, 1911.016
305.2880, 1913.053
305.7701, 1911.002
306.2522, 1905.637
306.7343, 1901.827
307.2165, 1904.220
307.6986, 1909.504
308.1807, 1913.613
308.6628, 1915.630
309.1449, 1916.130
309.6270, 1914.617
310.1092, 1911.727
310.5913, 1909.586
311.0734, 1909.196
311.5555, 1910.118
312.0376, 1912.249
312.5197, 1916.098
313.0019, 1919.679
313.4840, 1921.791
313.9661, 1922.874
314.4482, 1923.853
314.9303, 1924.264
315.4124, 1925.337
315.8946, 1928.617
316.3767, 1935.143
316.8588, 1939.623
317.3409, 1938.121
317.8230, 1933.824
318.3051, 1930.936
318.7873, 1932.339
319.2694, 1933.995
319.7515, 1933.521
320.2336, 1930.514
320.7157, 1929.655
321.1978, 1934.443
321.6800, 1940.960
322.1621, 1945.657
322.6442, 1945.263
323.1263, 1945.602
323.6084, 1949.202
324.0905, 1955.712
324.5727, 1959.520
325.0548, 1955.810
325.5369, 1951.708
326.0190, 1951.533
326.5012, 1959.935
326.9833, 1967.295
327.4654, 1973.567
327.9475, 1978.439
328.4296, 1980.496
328.9117, 1975.418
329.3939, 1971.335
329.8760, 1971.716
330.3581, 1979.838
330.8402, 1986.291
331.3223, 1989.560
331.8044, 1991.554
332.2866, 1996.512
332.7687, 2007.446
333.2508, 2016.756
333.7329, 2021.946
334.2150, 2022.356
334.6971, 2021.449
335.1793, 2018.216
335.6614, 2014.631
336.1435, 2013.272
336.6256, 2014.500
337.1077, 2017.168
337.5898, 2021.416
338.0720, 2027.216
338.5541, 2032.007
339.0362, 2035.422
339.5183, 2038.901
340.0004, 2043.942
340.4825, 2050.898
340.9647, 2057.458
341.4468, 2063.164
341.9289, 2068.241
342.4110, 2073.431
342.8931, 2078.643
343.3752, 2084.142
343.8574, 2090.032
344.3395, 2096.317
344.8216, 2102.867
345.3037, 2109.816
345.7858, 2116.605
346.2679, 2122.228
346.7501, 2126.740
347.2322, 2130.658
347.7143, 2133.349
348.1964, 2135.609
348.6785, 2140.842
349.1607, 2149.762
349.6428, 2158.493
350.1249, 2162.386
350.6070, 2162.518
351.0891, 2162.283
351.5713, 2162.915
352.0534, 2164.077
352.5355, 2165.297
353.0176, 2166.581
353.4997, 2168.055
353.9818, 2170.954
354.4640, 2173.870
354.9461, 2174.285
355.4282, 2169.134
355.9103, 2164.287
356.3924, 2165.718
356.8745, 2172.218
357.3567, 2178.907
357.8388, 2182.908
358.3209, 2186.009
358.8030, 2189.947
359.2851, 2195.443
359.7672, 2200.609
360.2494, 2204.512
360.7315, 2207.390
361.2136, 2209.635
361.6957, 2210.327
362.1778, 2211.309
362.6599, 2213.724
363.1421, 2217.853
363.6242, 2221.770
364.1063, 2224.957
364.5884, 2227.608
365.0705, 2229.895
365.5526, 2232.178
366.0348, 2233.723
366.5169, 2234.398
366.9990, 2234.184
367.4811, 2233.049
367.9632, 2231.073
368.4453, 2228.088
368.9275, 2223.914
369.4096, 2214.814
369.8917, 2209.737
370.3738, 2210.652
370.8559, 2215.635
371.3380, 2219.433
371.8202, 2222.412
372.3023, 2223.746
372.7844, 2222.648
373.2665, 2218.133
373.7487, 2215.068
374.2308, 2212.916
374.7129, 2212.772
375.1950, 2216.800
375.6771, 2226.613
376.1592, 2235.567
376.6414, 2242.026
377.1235, 2246.136
377.6056, 2249.311
378.0877, 2251.300
378.5698, 2253.333
379.0519, 2257.003
379.5341, 2262.307
380.0162, 2266.171
380.4983, 2267.577
380.9804, 2267.828
381.4625, 2271.056
381.9446, 2277.186
382.4268, 2280.503
382.9089, 2275.495
383.3910, 2264.727
383.8731, 2256.760
384.3552, 2252.714
384.8373, 2249.368
385.3195, 2242.737
385.8016, 2233.699
386.2837, 2224.712
386.7658, 2217.234
387.2479, 2210.337
387.7300, 2202.233
388.2122, 2193.050
388.6943, 2184.935
389.1764, 2181.116
389.6585, 2178.813
390.1406, 2174.311
390.6227, 2164.424
391.1049, 2155.172
391.5870, 2151.000
392.0691, 2150.816
392.5512, 2151.340
393.0333, 2152.925
393.5154, 2153.446
393.9976, 2150.730
394.4797, 2142.926
394.9618, 2137.344
395.4439, 2138.633
395.9260, 2142.837
396.4081, 2144.694
396.8903, 2139.760
397.3724, 2135.700
397.8545, 2134.951
398.3366, 2137.703
398.8188, 2140.427
399.3009, 2143.033
399.7830, 2145.445
400.2651, 2147.642
400.7472, 2150.251
401.2293, 2151.592
401.7115, 2150.465
402.1936, 2148.106
402.6757, 2148.580
403.1578, 2153.776
403.6399, 2158.524
404.1220, 2160.140
404.6042, 2157.717
405.0863, 2157.645
405.5684, 2160.535
406.0505, 2164.776
406.5326, 2168.720
407.0147, 2172.548
407.4969, 2174.517
407.9790, 2172.903
408.4611, 2169.385
408.9432, 2171.757
409.4253, 2180.551
409.9074, 2189.723
410.3896, 2194.814
410.8717, 2196.350
411.3538, 2196.067
411.8359, 2193.424
412.3180, 2191.082
412.8001, 2193.835
413.2823, 2200.485
413.7644, 2206.441
414.2465, 2207.772
414.7286, 2207.641
415.2107, 2210.880
415.6928, 2217.767
416.1750, 2224.475
416.6571, 2227.148
417.1392, 2228.094
417.6213, 2230.567
418.1034, 2236.711
418.5855, 2243.494
419.0677, 2248.852
419.5498, 2253.300
420.0319, 2258.529
420.5140, 2265.909
420.9961, 2273.884
421.4782, 2281.712
421.9604, 2289.615
422.4425, 2296.448
422.9246, 2300.493
423.4067, 2303.664
423.8889, 2308.651
424.3710, 2318.962
424.8531, 2327.734
425.3352, 2331.933
425.8173, 2331.507
426.2994, 2335.744
426.7816, 2348.453
427.2637, 2361.935
427.7458, 2371.055
428.2279, 2374.180
428.7100, 2377.110
429.1921, 2380.274
429.6743, 2383.381
430.1564, 2385.845
430.6385, 2387.887
431.1206, 2388.446
431.6027, 2386.911
432.0848, 2383.328
432.5670, 2378.959
433.0491, 2373.704
433.5312, 2368.034
434.0133, 2362.988
434.4954, 2358.229
434.9775, 2351.086
435.4597, 2339.829
435.9418, 2327.255
436.4239, 2318.539
436.9060, 2313.370
437.3881, 2309.212
437.8702, 2304.517
438.3524, 2299.825
438.8345, 2295.681
439.3166, 2292.010
439.7987, 2289.646
440.2808, 2290.271
440.7629, 2292.424
441.2451, 2293.828
441.7272, 2293.298
442.2093, 2292.028
442.6914, 2290.281
443.1735, 2288.181
443.6556, 2286.484
444.1378, 2284.452
444.6199, 2283.621
445.1020, 2285.134
445.5841, 2290.309
446.0662, 2295.633
446.5483, 2301.789
447.0305, 2307.635
447.5126, 2311.169
447.9947, 2309.324
448.4768, 2308.886
448.9590, 2311.968
449.4411, 2318.649
449.9232, 2323.612
450.4053, 2326.487
450.8874, 2328.171
451.3695, 2328.446
451.8517, 2326.052
452.3338, 2328.482
452.8159, 2338.576
453.2980, 2351.215
453.7801, 2355.541
454.2622, 2351.077
454.7444, 2344.671
455.2265, 2339.197
455.7086, 2334.282
456.1907, 2328.461
456.6728, 2321.618
457.1549, 2314.618
457.6371, 2307.815
458.1192, 2301.382
458.6013, 2295.656
459.0834, 2291.137
459.5655, 2286.707
460.0476, 2281.315
460.5298, 2275.036
461.0119, 2268.401
461.4940, 2259.413
461.9761, 2251.555
462.4582, 2248.545
462.9403, 2251.028
463.4225, 2252.684
463.9046, 2249.113
464.3867, 2244.028
464.8688, 2241.030
465.3509, 2245.219
465.8330, 2246.751
466.3152, 2241.233
466.7973, 2231.016
467.2794, 2224.616
467.7615, 2225.496
468.2436, 2227.316
468.7257, 2228.103
469.2079, 2227.683
469.6900, 2226.962
470.1721, 2225.760
470.6542, 2224.431
471.1363, 2223.212
471.6184, 2221.919
472.1006, 2221.541
472.5827, 2222.612
473.0648, 2224.487
473.5469, 2224.913
474.0291, 2223.750
474.5112, 2222.879
474.9933, 2223.782
475.4754, 2225.980
475.9575, 2227.326
476.4396, 2227.694
476.9218, 2227.665
477.4039, 2227.546
477.8860, 2227.501
478.3681, 2228.027
478.8502, 2230.004
479.3323, 2231.691
479.8145, 2229.879
480.2966, 2225.864
480.7787, 2224.483
481.2608, 2231.323
481.7429, 2239.436
482.2250, 2243.533
482.7072, 2242.248
483.1893, 2241.432
483.6714, 2244.435
484.1535, 2248.328
484.6356, 2250.170
485.1177, 2247.794
485.5999, 2245.369
486.0820, 2243.278
486.5641, 2241.618
487.0462, 2240.611
487.5283, 2240.089
488.0104, 2240.543
488.4926, 2242.615
488.9747, 2246.832
489.4568, 2249.109
489.9389, 2248.886
490.4210, 2247.704
490.9031, 2246.996
491.3853, 2246.719
491.8674, 2247.444
492.3495, 2249.626
492.8316, 2252.425
493.3137, 2253.885
493.7958, 2254.102
494.2780, 2254.239
494.7601, 2255.143
495.2422, 2256.365
495.7243, 2256.625
496.2064, 2255.795
496.6885, 2255.828
497.1707, 2258.827
497.6528, 2263.490
498.1349, 2268.184
498.6170, 2273.450
499.0992, 2277.209
499.5813, 2276.624
500.0634, 2273.625
500.5455, 2272.945
501.0276, 2278.535
501.5097, 2284.592
501.9919, 2288.890
502.4740, 2291.085
502.9561, 2292.692
503.4382, 2293.323
503.9203, 2293.797
504.4024, 2294.660
504.8846, 2295.939
505.3667, 2297.657
505.8488, 2300.380
506.3309, 2303.196
506.8130, 2303.757
507.2951, 2301.487
507.7773, 2299.566
508.2594, 2299.106
508.7415, 2299.996
509.2236, 2301.636
509.7057, 2304.046
510.1878, 2307.036
510.6700, 2310.787
511.1521, 2315.039
511.6342, 2319.251
512.1163, 2323.499
512.5984, 2326.981
513.0806, 2328.101
513.5627, 2327.833
514.0448, 2328.219
514.5269, 2331.145
515.0090, 2334.186
515.4911, 2334.851
515.9733, 2333.680
516.4554, 2334.386
516.9375, 2339.628
517.4196, 2346.244
517.9017, 2352.676
518.3839, 2359.443
518.8660, 2364.224
519.3481, 2365.005
519.8302, 2364.451
520.3123, 2365.448
520.7944, 2369.433
521.2766, 2372.266
521.7587, 2372.392
522.2408, 2371.073
522.7229, 2373.649
523.2050, 2381.074
523.6871, 2389.031
524.1693, 2395.375
524.6514, 2400.161
525.1335, 2405.306
525.6156, 2410.957
526.0977, 2416.202
526.5798, 2419.353
527.0620, 2421.344
527.5441, 2425.094
528.0262, 2431.842
528.5083, 2439.355
528.9904, 2444.834
529.4725, 2449.082
529.9547, 2454.053
530.4368, 2461.957
530.9189, 2469.792
531.4010, 2474.890
531.8831, 2477.292
532.3652, 2480.780
532.8474, 2486.738
533.3295, 2494.114
533.8116, 2502.422
534.2937, 2512.466
534.7758, 2521.934
535.2579, 2531.226
535.7401, 2539.733
536.2222, 2546.126
536.7043, 2549.599
537.1864, 2553.174
537.6685, 2557.329
538.1506, 2562.180
538.6328, 2568.175
539.1149, 2575.571
539.5970, 2583.070
540.0791, 2589.217
540.5612, 2594.659
541.0433, 2602.436
541.5255, 2612.841
542.0076, 2623.595
542.4897, 2633.082
542.9718, 2641.250
543.4539, 2647.917
543.9360, 2652.038
544.4182, 2656.159
544.9003, 2663.109
545.3824, 2671.469
545.8645, 2678.126
546.3466, 2679.329
546.8287, 2680.739
547.3109, 2685.287
547.7930, 2693.117
548.2751, 2700.558
548.7572, 2708.637
549.2393, 2714.927
549.7214, 2717.832
550.2036, 2714.968
550.6857, 2714.260
551.1678, 2716.452
551.6499, 2720.120
552.1320, 2723.206
552.6141, 2725.568
553.0963, 2728.516
553.5784, 2732.280
554.0605, 2736.930
554.5426, 2742.940
555.0247, 2750.249
555.5068, 2757.674
555.9890, 2764.437
556.4711, 2770.801
556.9532, 2776.635
557.4353, 2781.935
557.9174, 2788.629
558.3995, 2797.579
558.8817, 2808.841
559.3638, 2823.007
559.8459, 2842.171
560.3281, 2859.927
560.8102, 2871.834
561.2923, 2880.976
561.7744, 2892.113
562.2565, 2906.864
562.7386, 2922.934
563.2208, 2940.272
563.7029, 2958.630
564.1850, 2977.570
564.6671, 2997.510
565.1492, 3016.979
565.6313, 3035.234
566.1135, 3052.059
566.5956, 3068.441
567.0777, 3084.075
567.5598, 3099.958
568.0419, 3117.969
568.5240, 3137.405
569.0062, 3155.625
569.4883, 3171.889
569.9704, 3186.802
570.4525, 3200.656
570.9346, 3213.671
571.4167, 3225.770
571.8989, 3237.622
572.3810, 3248.297
572.8631, 3257.640
573.3452, 3265.454
573.8273, 3271.095
574.3094, 3273.750
574.7916, 3274.548
575.2737, 3274.584
575.7558, 3275.260
576.2379, 3270.855
576.7200, 3261.562
577.2021, 3247.070
577.6843, 3225.995
578.1664, 3195.723
578.6485, 3167.058
579.1306, 3141.113
579.6127, 3116.857
580.0948, 3092.304
580.5770, 3067.562
581.0591, 3039.801
581.5412, 3006.461
582.0233, 2970.445
582.5054, 2937.240
582.9875, 2907.239
583.4697, 2880.060
583.9518, 2857.897
584.4339, 2837.605
584.9160, 2815.351
585.3981, 2790.413
585.8802, 2766.747
586.3624, 2746.678
