##NAMES=Gedrite
##RRUFFID=R050339
##IDEAL CHEMISTRY=[box]Mg_2_(Mg_3_Al_2_)(Si_6_Al_2_)O_22_(OH)_2_
##LOCALITY=Bamble, Telemark, Norway
##OWNER=RRUFF
##SOURCE=California Institute of Technology
##DESCRIPTION=Dark gray cleavage fragment
##STATUS=The identification of this mineral has been confirmed by X-ray diffraction and chemical analysis
##URL=rruff.info/R050339
##MEASURED CHEMISTRY=([box]_0.61_Na_0.39_)(Mg_4.55_Fe^2+^_1.40_Al_0.91_Ti_0.07_Ca_0.07_)_Σ7_(Si_6.56_Al_1.44_)_Σ8_O_22_(OH)_2_
151.3210, 18106.00
152.5490, 18152.00
153.7750, 18316.00
155.0020, 18180.00
156.2290, 18310.00
157.4550, 18432.00
158.6810, 18516.00
159.9080, 18603.00
161.1340, 18698.94
162.3590, 18803.00
163.5850, 18863.00
164.8110, 18861.00
166.0360, 18919.00
167.2610, 19061.00
168.4860, 18974.00
169.7110, 19354.00
170.9360, 19015.00
172.1610, 19190.00
173.3850, 19304.00
174.6100, 19160.00
175.8340, 19553.00
177.0580, 19541.00
178.2820, 19515.00
179.5050, 19902.00
180.7290, 19912.00
181.9520, 19943.00
183.1760, 20120.00
184.3990, 20027.00
185.6220, 20158.00
186.8450, 20158.00
188.0670, 20264.00
189.2900, 20568.00
190.5120, 20419.00
191.7340, 20767.00
192.9560, 20528.00
194.1780, 20499.00
195.4000, 20618.00
196.6220, 20668.00
197.8430, 20671.00
199.0640, 20757.10
200.2860, 20775.00
201.5070, 20828.00
202.7270, 20802.00
203.9480, 20767.48
205.1690, 20775.65
206.3890, 20759.00
207.6090, 20711.00
208.8290, 20742.00
210.0490, 20648.00
211.2690, 20808.00
212.4890, 20756.00
213.7080, 20778.00
214.9280, 20635.00
216.1470, 20798.00
217.3660, 20747.00
218.5850, 20869.00
219.8030, 20680.00
221.0220, 20857.00
222.2400, 20752.00
223.4590, 20788.00
224.6770, 20925.00
225.8950, 20734.00
227.1120, 20754.00
228.3300, 20983.00
229.5480, 20873.00
230.7650, 20975.00
231.9820, 20901.00
233.1990, 20947.00
234.4160, 20812.00
235.6330, 20940.00
236.8490, 20805.00
238.0660, 20985.00
239.2820, 20900.00
240.4980, 21032.00
241.7140, 21014.00
242.9300, 20966.00
244.1460, 20948.00
245.3610, 20863.00
246.5770, 20968.00
247.7920, 21040.00
249.0070, 20985.00
250.2220, 21117.00
251.4370, 20940.00
252.6510, 21356.00
253.8660, 21354.00
255.0800, 21184.00
256.2940, 21595.00
257.5080, 21739.00
258.7220, 21561.00
259.9360, 21381.00
261.1490, 21460.00
262.3630, 21286.00
263.5760, 21348.58
264.7890, 21331.00
266.0020, 21405.00
267.2150, 21505.00
268.4270, 21430.00
269.6400, 21527.00
270.8520, 21700.00
272.0640, 21564.00
273.2760, 21665.00
274.4880, 21530.00
275.7000, 21831.00
276.9120, 21907.00
278.1230, 21493.00
279.3340, 21721.00
280.5450, 22067.00
281.7560, 21841.00
282.9670, 22050.00
284.1780, 21931.00
285.3880, 21847.00
286.5980, 21985.00
287.8090, 21997.00
289.0190, 22214.00
290.2290, 22057.00
291.4380, 22131.00
292.6480, 22235.00
293.8570, 22273.00
295.0670, 22262.00
296.2760, 22357.35
297.4850, 22350.00
298.6930, 22450.00
299.9020, 22523.00
301.1110, 22501.00
302.3190, 22494.00
303.5270, 22553.00
304.7350, 22554.00
305.9430, 22578.00
307.1510, 22651.00
308.3580, 22560.00
309.5660, 22622.00
310.7730, 22750.00
311.9800, 22852.00
313.1870, 22814.00
314.3940, 22771.00
315.6010, 23012.00
316.8070, 22651.00
318.0130, 22683.00
319.2200, 22878.00
320.4260, 22911.00
321.6310, 22771.00
322.8370, 22938.00
324.0430, 22775.00
325.2480, 23073.00
326.4540, 22944.00
327.6590, 23215.00
328.8640, 23206.00
330.0680, 23332.00
331.2730, 23201.00
332.4780, 23286.00
333.6820, 23244.00
334.8860, 23546.00
336.0900, 23369.00
337.2940, 23559.00
338.4980, 23438.00
339.7010, 23576.00
340.9050, 23591.00
342.1080, 23598.00
343.3110, 23497.00
344.5140, 23599.00
345.7170, 23639.00
346.9200, 23712.00
348.1220, 23748.87
349.3240, 23528.00
350.5270, 23777.00
351.7290, 23849.00
352.9310, 23807.00
354.1320, 24030.00
355.3340, 23851.00
356.5350, 23842.00
357.7370, 23918.00
358.9380, 23862.00
360.1390, 23925.00
361.3400, 24076.00
362.5400, 24051.00
363.7410, 24148.00
364.9410, 24011.00
366.1410, 24144.00
367.3410, 24373.00
368.5410, 24309.00
369.7410, 24430.00
370.9400, 24354.00
372.1400, 24434.00
373.3390, 24560.00
374.5380, 24581.00
375.7370, 24556.00
376.9360, 24456.00
378.1350, 24475.00
379.3330, 24535.76
380.5310, 24773.00
381.7300, 24707.00
382.9280, 24862.00
384.1260, 24890.00
385.3230, 24823.00
386.5210, 24932.00
387.7180, 24756.00
388.9160, 24949.00
390.1130, 24876.00
391.3100, 24887.00
392.5060, 25098.00
393.7030, 24996.00
394.9000, 25235.00
396.0960, 25221.00
397.2920, 25011.00
398.4880, 25024.00
399.6840, 25081.00
400.8800, 25130.00
402.0750, 25032.00
403.2710, 25283.00
404.4660, 25284.00
405.6610, 25112.00
406.8560, 25253.00
408.0510, 25087.00
409.2450, 25487.00
410.4400, 25404.00
411.6340, 25339.00
412.8280, 25166.00
414.0220, 25364.00
415.2160, 25484.00
416.4100, 25617.00
417.6030, 25429.00
418.7970, 25539.00
419.9900, 25519.00
421.1830, 25518.00
422.3760, 25569.00
423.5690, 25666.00
424.7610, 25819.00
425.9540, 25783.00
427.1460, 25760.00
428.3380, 25894.00
429.5300, 25855.00
430.7220, 25666.00
431.9140, 25924.00
433.1050, 25829.00
434.2970, 25590.00
435.4880, 25866.00
436.6790, 25927.00
437.8700, 25896.00
439.0610, 26082.00
440.2510, 25954.00
441.4420, 25966.00
442.6320, 26016.00
443.8220, 26004.00
445.0120, 25966.00
446.2020, 26000.00
447.3910, 26013.42
448.5810, 26059.00
449.7700, 26094.87
450.9600, 26171.00
452.1490, 26227.00
453.3370, 26257.00
454.5260, 26272.00
455.7150, 26325.00
456.9030, 26172.00
458.0910, 26245.00
459.2800, 26223.00
460.4670, 26118.00
461.6550, 26314.00
462.8430, 26322.00
464.0300, 26395.00
465.2180, 26421.00
466.4050, 26469.00
467.5920, 26495.00
468.7790, 26630.00
469.9650, 26397.00
471.1520, 26658.00
472.3380, 26618.00
473.5250, 26784.00
474.7110, 26762.00
475.8970, 26468.00
477.0820, 26787.00
478.2680, 26613.00
479.4540, 26734.00
480.6390, 26861.00
481.8240, 26800.00
483.0090, 26912.00
484.1940, 26978.00
485.3780, 26793.00
486.5630, 27032.00
487.7470, 26860.00
488.9320, 26753.00
490.1160, 27054.00
491.3000, 27147.00
492.4830, 27117.00
493.6670, 27268.00
494.8500, 27191.00
496.0340, 26872.00
497.2170, 27012.00
498.4000, 27246.00
499.5820, 27239.00
500.7650, 27505.00
501.9480, 27356.00
503.1300, 27370.00
504.3120, 27257.00
505.4940, 27287.00
506.6760, 27528.00
507.8580, 27433.00
509.0390, 27279.00
510.2210, 27488.00
511.4020, 27336.00
512.5830, 27579.00
513.7640, 27901.00
514.9450, 27548.00
516.1250, 27673.00
517.3060, 27758.00
518.4860, 27793.00
519.6660, 27714.00
520.8460, 27797.00
522.0260, 27839.23
523.2060, 27959.00
524.3850, 27974.00
525.5650, 28156.00
526.7440, 28180.00
527.9230, 27960.00
529.1020, 27953.00
530.2810, 28092.00
531.4590, 28135.00
532.6380, 28415.00
533.8160, 28409.00
534.9940, 28463.11
536.1720, 28516.17
537.3500, 28500.00
538.5270, 28451.00
539.7050, 28550.00
540.8820, 28441.00
542.0590, 28509.00
543.2360, 28360.00
544.4130, 28328.00
545.5900, 28623.00
546.7660, 28666.00
547.9430, 28537.00
549.1190, 28495.00
550.2950, 28542.00
551.4710, 28443.00
552.6470, 28752.00
553.8220, 28814.00
554.9980, 28781.00
556.1730, 28773.00
557.3480, 28503.00
558.5230, 28705.00
559.6980, 28850.00
560.8730, 28921.00
562.0470, 28658.00
563.2220, 28903.00
564.3960, 28591.00
565.5700, 29156.00
566.7440, 28937.00
567.9170, 28800.00
569.0910, 29002.00
570.2640, 29033.00
571.4380, 28953.00
572.6110, 29033.00
573.7840, 29016.00
574.9570, 29218.00
576.1290, 29138.00
577.3020, 29235.00
578.4740, 29047.00
579.6460, 29250.00
580.8180, 29480.00
581.9900, 29641.00
583.1620, 29151.00
584.3330, 29258.00
585.5040, 29283.00
586.6760, 29396.00
587.8470, 29373.00
589.0180, 29350.00
590.1880, 29320.00
591.3590, 29441.00
592.5290, 29451.83
593.7000, 29283.00
594.8700, 29588.00
596.0400, 29672.00
597.2090, 29735.00
598.3790, 29601.00
599.5490, 29426.00
600.7180, 29759.00
601.8870, 29794.00
603.0560, 29725.00
604.2250, 29614.00
605.3940, 29748.00
606.5620, 29701.00
607.7300, 29994.00
608.8990, 29922.00
610.0670, 29888.00
611.2350, 30153.00
612.4020, 29770.00
613.5700, 29945.00
614.7370, 30142.00
615.9050, 30182.00
617.0720, 30361.00
618.2390, 30311.00
619.4060, 29942.00
620.5720, 30301.00
621.7390, 30082.00
622.9050, 30315.00
624.0710, 30391.00
625.2370, 30405.00
626.4030, 30163.00
627.5690, 30559.00
628.7340, 30437.00
629.9000, 30506.00
631.0650, 30595.00
632.2300, 30577.00
633.3950, 30791.00
634.5600, 30811.00
635.7240, 30903.00
636.8890, 30983.00
638.0530, 30849.00
639.2170, 31022.00
640.3810, 31248.00
641.5450, 31012.00
642.7080, 31066.00
643.8720, 31465.00
645.0350, 31140.00
646.1980, 31338.00
647.3610, 31620.00
648.5240, 31518.00
649.6870, 31702.00
650.8490, 31821.00
652.0120, 31646.00
653.1740, 32038.00
654.3360, 32006.00
655.4980, 31791.00
656.6600, 32044.00
657.8210, 32311.00
658.9830, 32326.00
660.1440, 32352.00
661.3050, 32290.00
662.4660, 32723.00
663.6270, 32432.00
664.7870, 32635.00
665.9480, 32809.00
667.1080, 33298.00
668.2680, 33326.00
669.4280, 33339.00
670.5880, 33558.00
671.7480, 33463.00
672.9070, 33447.00
674.0670, 33402.00
675.2260, 33168.00
676.3850, 33354.00
677.5440, 32821.00
678.7030, 32740.00
679.8610, 32853.00
681.0200, 32627.00
682.1780, 32412.00
683.3360, 32308.00
684.4940, 32348.00
685.6520, 32449.00
686.8090, 32602.00
687.9670, 32477.00
689.1240, 32403.00
690.2810, 32593.00
691.4380, 32397.00
692.5950, 32622.00
693.7520, 32311.00
694.9080, 32164.00
696.0650, 32548.00
697.2210, 32282.00
698.3770, 32528.00
699.5330, 32408.00
700.6880, 32223.00
701.8440, 32387.00
702.9990, 32454.00
704.1550, 32258.00
705.3100, 32552.00
706.4650, 32528.00
707.6190, 32386.00
708.7740, 32785.00
709.9290, 32730.00
711.0830, 32405.00
712.2370, 32448.00
713.3910, 32489.00
714.5450, 32377.00
715.6980, 32772.00
716.8520, 32580.00
718.0050, 32522.00
719.1580, 32880.00
720.3110, 32700.00
721.4640, 32775.00
722.6170, 32737.00
723.7700, 32702.00
724.9220, 32915.00
726.0740, 32738.00
727.2260, 32908.00
728.3780, 32892.00
729.5300, 32940.00
730.6810, 32913.00
731.8330, 32931.35
732.9840, 32982.87
734.1350, 32972.00
735.2860, 33048.00
736.4370, 33126.00
737.5880, 33072.00
738.7380, 33139.44
739.8880, 32975.00
741.0390, 33192.00
742.1890, 33198.00
743.3380, 33259.00
744.4880, 33547.00
745.6380, 33393.00
746.7870, 33237.00
747.9360, 33344.00
749.0850, 33396.00
750.2340, 33312.00
751.3830, 33508.00
752.5310, 33252.00
753.6800, 33594.00
754.8280, 33675.00
755.9760, 33469.00
757.1240, 33642.00
758.2720, 33763.00
759.4190, 33376.00
760.5670, 33885.00
761.7140, 33706.00
762.8610, 33702.00
764.0080, 33824.00
765.1550, 33791.00
766.3020, 33578.00
767.4480, 34112.00
768.5950, 33871.00
769.7410, 33929.26
770.8870, 34294.00
772.0330, 33888.00
773.1780, 33870.00
774.3240, 33933.00
775.4690, 34009.00
776.6140, 34065.00
777.7590, 34324.00
778.9040, 34171.00
780.0490, 34234.00
781.1940, 34034.00
782.3380, 33979.00
783.4820, 34233.00
784.6260, 34471.00
785.7700, 34160.00
786.9140, 34450.00
788.0580, 34676.00
789.2010, 34226.00
790.3450, 34507.00
791.4880, 34444.00
792.6310, 34337.00
793.7730, 34664.00
794.9160, 34478.00
796.0590, 34313.00
797.2010, 34761.00
798.3430, 34472.00
799.4850, 34613.00
800.6270, 34636.00
801.7690, 34516.00
802.9100, 34468.00
804.0520, 34697.00
805.1930, 34651.00
806.3340, 34820.00
807.4750, 34888.00
808.6160, 35060.00
809.7560, 34859.00
810.8970, 34780.00
812.0370, 34871.00
813.1770, 34941.00
814.3170, 35103.00
815.4570, 34907.00
816.5960, 35245.00
817.7360, 35010.00
818.8750, 34998.00
820.0140, 35354.00
821.1530, 35102.00
822.2920, 35135.00
823.4310, 35177.00
824.5690, 35140.00
825.7070, 35211.00
826.8460, 35413.00
827.9840, 35125.00
829.1220, 35334.00
830.2590, 35232.00
831.3970, 35251.00
832.5340, 35595.00
833.6710, 35600.00
834.8080, 35464.00
835.9450, 35532.00
837.0820, 35465.00
838.2190, 35694.00
839.3550, 35693.00
840.4910, 35664.00
841.6270, 35580.00
842.7630, 35640.04
843.8990, 35765.00
845.0350, 35713.00
846.1700, 35892.00
847.3060, 35918.00
848.4410, 35984.00
849.5760, 35876.00
850.7100, 35824.00
851.8450, 35909.24
852.9800, 36160.00
854.1140, 35976.00
855.2480, 36272.00
856.3820, 36157.00
857.5160, 35903.00
858.6500, 36386.00
859.7830, 36171.00
860.9170, 36353.00
862.0500, 36394.00
863.1830, 36323.00
864.3160, 36342.00
865.4480, 36310.05
866.5810, 36604.00
867.7130, 36254.00
868.8460, 36581.00
869.9780, 36596.00
871.1100, 36465.00
872.2410, 36656.00
873.3730, 36441.00
874.5050, 36725.00
875.6360, 36768.00
876.7670, 36606.00
877.8980, 36916.00
879.0290, 36657.00
880.1590, 36919.00
881.2900, 36987.00
882.4200, 36974.00
883.5500, 36807.00
884.6800, 37193.00
885.8100, 36887.00
886.9400, 36879.00
888.0690, 37021.00
889.1990, 36799.00
890.3280, 37103.00
891.4570, 37291.00
892.5860, 37298.00
893.7140, 37244.00
894.8430, 37214.00
895.9710, 37178.00
897.1000, 37255.00
898.2280, 37367.00
899.3560, 37355.00
900.4830, 37398.00
901.6110, 37648.00
902.7380, 37311.00
903.8660, 37573.00
904.9930, 37420.00
906.1200, 37694.00
907.2460, 37562.00
908.3730, 37628.00
909.5000, 37493.00
910.6260, 37848.00
911.7520, 37776.00
912.8780, 37434.00
914.0040, 37840.00
915.1290, 37873.00
916.2550, 37900.00
917.3800, 37925.00
918.5050, 38088.00
919.6300, 38159.00
920.7550, 38231.00
921.8800, 38183.00
923.0040, 38130.00
924.1290, 38419.00
925.2530, 38039.00
926.3770, 38327.00
927.5010, 38202.00
928.6250, 38280.00
929.7480, 38297.00
930.8720, 38551.00
931.9950, 38169.00
933.1180, 38491.00
934.2410, 38551.00
935.3640, 38232.00
936.4860, 38558.00
937.6090, 38510.00
938.7310, 38280.00
939.8530, 38873.00
940.9750, 38618.00
942.0970, 38476.00
943.2180, 38654.00
944.3400, 38812.00
945.4610, 38638.00
946.5820, 38955.00
947.7030, 38951.00
948.8240, 38763.00
949.9450, 38856.00
951.0650, 38916.00
952.1860, 38832.00
953.3060, 39025.00
954.4260, 39164.00
955.5460, 39300.00
956.6650, 39237.00
957.7850, 39328.75
958.9040, 39296.66
960.0230, 39398.00
961.1420, 39388.29
962.2610, 39356.00
963.3800, 39371.00
964.4990, 39349.00
965.6170, 39296.00
966.7350, 39233.00
967.8530, 39223.00
968.9710, 39260.38
970.0890, 39303.64
971.2070, 39426.00
972.3240, 39467.00
973.4410, 39618.00
974.5580, 39690.00
975.6750, 39724.00
976.7920, 39984.00
977.9090, 39992.85
979.0250, 40022.00
980.1410, 40076.00
981.2580, 40089.00
982.3740, 40095.85
983.4890, 40123.14
984.6050, 40095.00
985.7200, 40155.00
986.8360, 40184.00
987.9510, 40213.00
989.0660, 40354.00
990.1810, 40311.00
991.2950, 40055.00
992.4100, 40164.00
993.5240, 40299.00
994.6390, 40237.00
995.7530, 40652.00
996.8660, 40529.00
997.9800, 40437.00
999.0940, 40704.00
1000.207, 40415.00
1001.320, 40442.00
1002.433, 40608.00
1003.546, 40630.00
1004.659, 40658.00
1005.772, 40947.00
1006.884, 40827.00
1007.996, 40980.00
1009.108, 40791.00
1010.220, 40870.00
1011.332, 41086.00
1012.444, 40875.00
1013.555, 41032.00
1014.666, 41190.00
1015.777, 41019.00
1016.888, 40984.00
1017.999, 41268.00
1019.110, 41336.00
1020.220, 41059.00
1021.331, 41216.00
1022.441, 41323.00
1023.551, 41389.00
1024.661, 41479.00
1025.770, 41556.00
1026.880, 41565.28
1027.989, 41661.00
1029.098, 41610.00
1030.207, 41394.00
1031.316, 41484.00
1032.425, 41822.00
1033.533, 41565.00
1034.642, 41757.00
1035.750, 41856.00
1036.858, 41861.00
1037.966, 41740.00
1039.073, 41906.00
1040.181, 41798.00
1041.288, 41965.00
1042.396, 41758.00
1043.503, 41866.00
1044.610, 41756.00
1045.716, 41815.00
1046.823, 41774.00
1047.929, 41859.00
1049.036, 41874.34
1050.142, 41806.00
1051.248, 41866.00
1052.353, 41976.00
1053.459, 41807.00
1054.564, 42094.00
1055.670, 42020.00
1056.775, 41846.00
1057.880, 42199.00
1058.985, 41852.00
1060.089, 42234.00
1061.194, 42168.00
1062.298, 42047.00
1063.402, 42032.00
1064.506, 42426.00
1065.610, 42143.00
1066.713, 42396.00
1067.817, 42775.00
1068.920, 42394.00
1070.023, 42515.00
1071.126, 42448.00
1072.229, 42391.00
1073.332, 42684.00
1074.435, 42523.00
1075.537, 42534.00
1076.639, 42579.00
1077.741, 42748.00
1078.843, 42615.00
1079.945, 42889.00
1081.046, 43059.00
1082.148, 42604.00
1083.249, 43104.00
1084.350, 42960.00
1085.451, 42816.00
1086.551, 42968.00
1087.652, 43004.00
1088.752, 42698.00
1089.853, 43243.00
1090.953, 43057.00
1092.053, 42860.00
1093.152, 43172.00
1094.252, 43419.00
1095.351, 43000.00
1096.451, 43291.00
1097.550, 43292.00
1098.649, 43105.00
1099.748, 43236.00
1100.846, 43387.00
1101.945, 43309.00
1103.043, 43378.32
1104.141, 43530.00
1105.239, 43342.00
1106.337, 43385.00
1107.434, 43376.00
1108.532, 43103.00
1109.629, 43580.00
1110.726, 43661.00
1111.823, 43598.00
1112.920, 43614.00
1114.017, 43988.00
1115.113, 43916.00
1116.210, 43987.00
1117.306, 44157.00
1118.402, 43765.00
1119.498, 44103.00
1120.593, 44239.00
1121.689, 43592.00
1122.784, 44335.00
1123.879, 43834.00
1124.974, 44133.00
1126.069, 44513.00
1127.164, 44129.00
1128.259, 44030.00
1129.353, 44388.00
1130.447, 44180.00
1131.541, 44259.00
1132.635, 44412.00
1133.729, 44546.00
1134.822, 44322.00
1135.916, 44548.00
1137.009, 44352.00
1138.102, 44358.00
1139.195, 44796.00
1140.288, 44561.00
1141.380, 44668.00
1142.473, 44806.00
1143.565, 44704.00
1144.657, 44923.00
1145.749, 44580.00
1146.841, 44716.00
1147.932, 44418.00
1149.024, 44836.00
1150.115, 44780.00
1151.206, 45039.00
1152.297, 45071.00
1153.388, 45100.00
1154.479, 45118.00
1155.569, 45118.27
1156.659, 44948.00
1157.750, 45077.00
1158.839, 45019.11
1159.929, 44942.00
1161.019, 45098.00
1162.108, 45266.00
1163.198, 45347.00
1164.287, 45213.00
1165.376, 45677.00
1166.465, 45471.00
1167.553, 45403.00
1168.642, 45695.00
1169.730, 45568.00
1170.818, 45614.00
1171.906, 45752.00
1172.994, 45820.00
1174.082, 45615.00
1175.170, 46129.00
1176.257, 45482.00
1177.344, 45621.00
1178.431, 45881.00
1179.518, 45902.00
1180.605, 46002.00
1181.691, 46248.00
1182.778, 46063.00
1183.864, 46175.00
1184.950, 46145.00
1186.036, 45812.00
1187.122, 46291.00
1188.207, 46277.00
1189.292, 46141.00
1190.378, 45958.00
1191.463, 46278.00
1192.548, 46380.00
1193.632, 46476.00
1194.717, 46544.00
1195.801, 46469.00
1196.886, 46582.00
1197.970, 46534.00
1199.054, 46583.00
1200.137, 46326.00
1201.221, 46623.00
1202.305, 46567.00
1203.388, 47022.00
1204.471, 46953.00
1205.554, 46785.00
1206.637, 46658.00
1207.719, 46810.00
1208.802, 46686.00
1209.884, 46589.00
1210.966, 47018.00
1212.048, 47009.00
1213.130, 47111.00
1214.212, 47197.00
1215.293, 47055.00
1216.374, 46901.00
1217.456, 47236.00
1218.536, 47303.00
1219.617, 47225.00
1220.698, 47483.00
1221.778, 47274.00
1222.859, 47107.00
1223.939, 47273.07
1225.019, 47319.00
1226.099, 47453.00
1227.178, 47257.00
1228.258, 47395.00
1229.337, 47450.00
1230.417, 47444.00
1231.496, 47537.00
1232.574, 47535.00
1233.653, 47519.00
1234.732, 47509.00
1235.810, 47755.00
1236.888, 47840.00
1237.966, 48119.00
1239.044, 47885.00
1240.122, 48235.00
1241.199, 47892.00
1242.277, 48065.00
1243.354, 47972.00
1244.431, 47843.00
1245.508, 47945.00
1246.585, 48274.00
1247.661, 47919.00
1248.738, 48231.00
1249.814, 48343.00
1250.890, 48234.00
1251.966, 48344.00
1253.042, 48314.64
1254.117, 48309.00
1255.193, 48325.00
1256.268, 48630.00
1257.343, 48735.00
1258.418, 48432.00
1259.493, 48806.00
1260.567, 48642.00
1261.642, 48602.00
1262.716, 48797.00
1263.790, 48874.00
1264.864, 49062.00
1265.938, 48978.00
1267.011, 48864.00
1268.085, 48764.00
1269.158, 49162.00
1270.231, 49271.00
1271.304, 48884.00
##END=



