##NAMES=Gehlenite
##RRUFFID=R061091
##IDEAL CHEMISTRY=Ca_2_Al(SiAl)O_7_
##LOCALITY=Carneal Plug, Glenoe Larne District, County Antrim, Northern Ireland
##OWNER=RRUFF
##SOURCE=Michael Scott
##DESCRIPTION=Yellowish-brown anhedral blebs associated with black magnetite and white wollastonite
##STATUS=The identification of this mineral is confirmed by single-crystal X-ray diffraction and chemical analysis.
##URL=rruff.info/R061091
##MEASURED CHEMISTRY=(Ca_1.64_Na_0.36_)_Σ=2_(Al_0.38_Fe_0.36_Mg_0.26_)_Σ=1_(Si_1.98_Al_0.02_)_Σ=2_O_7_
114.8152, 934.5324
115.2973, 992.8621
115.7794, 1068.767
116.2615, 1167.250
116.7436, 1258.778
117.2257, 1328.496
117.7079, 1382.437
118.1900, 1430.280
118.6721, 1457.224
119.1542, 1489.993
119.6363, 1549.554
120.1184, 1646.586
120.6006, 1759.709
121.0827, 1886.484
121.5648, 2021.387
122.0469, 2139.663
122.5290, 2218.269
123.0111, 2272.672
123.4933, 2323.206
123.9754, 2368.432
124.4575, 2416.449
124.9396, 2449.865
125.4217, 2479.453
125.9038, 2508.312
126.3860, 2506.410
126.8681, 2485.789
127.3502, 2477.877
127.8323, 2512.531
128.3144, 2566.490
128.7965, 2586.493
129.2787, 2565.487
129.7608, 2527.380
130.2429, 2502.081
130.7250, 2488.078
131.2071, 2474.051
131.6892, 2447.875
132.1714, 2412.369
132.6535, 2390.406
133.1356, 2386.755
133.6177, 2395.344
134.0998, 2403.036
134.5819, 2410.413
135.0640, 2413.086
135.5462, 2401.901
136.0283, 2374.871
136.5104, 2362.289
136.9925, 2376.619
137.4746, 2414.922
137.9567, 2435.976
138.4389, 2439.262
138.9210, 2429.661
139.4031, 2410.078
139.8852, 2375.547
140.3673, 2347.534
140.8494, 2335.219
141.3316, 2343.966
141.8137, 2343.794
142.2958, 2329.984
142.7779, 2310.117
143.2600, 2302.401
143.7421, 2313.849
144.2243, 2326.654
144.7064, 2332.040
145.1885, 2325.323
145.6706, 2320.089
146.1527, 2317.982
146.6348, 2318.246
147.1170, 2315.556
147.5991, 2308.760
148.0812, 2299.665
148.5633, 2289.347
149.0454, 2270.886
149.5275, 2258.802
150.0097, 2258.651
150.4918, 2272.934
150.9739, 2277.845
151.4560, 2260.427
151.9381, 2238.357
152.4202, 2229.605
152.9024, 2251.241
153.3845, 2271.668
153.8666, 2283.441
154.3487, 2285.012
154.8308, 2280.374
155.3129, 2266.158
155.7950, 2246.557
156.2772, 2229.054
156.7593, 2210.417
157.2414, 2197.746
157.7235, 2195.267
158.2056, 2212.129
158.6877, 2226.085
159.1699, 2228.466
159.6520, 2222.656
160.1341, 2220.074
160.6162, 2228.508
161.0983, 2239.480
161.5804, 2246.972
162.0626, 2251.054
162.5447, 2249.804
163.0268, 2239.497
163.5089, 2220.983
163.9910, 2204.424
164.4731, 2197.128
164.9553, 2193.476
165.4374, 2187.279
165.9195, 2168.307
166.4016, 2151.728
166.8837, 2149.484
167.3658, 2163.296
167.8480, 2177.012
168.3301, 2177.708
168.8122, 2171.418
169.2943, 2168.832
169.7764, 2177.652
170.2585, 2191.159
170.7407, 2204.836
171.2228, 2219.979
171.7049, 2229.201
172.1870, 2222.418
172.6691, 2203.742
173.1512, 2185.753
173.6334, 2171.981
174.1155, 2164.115
174.5976, 2166.557
175.0797, 2185.530
175.5618, 2205.732
176.0439, 2205.824
176.5260, 2189.083
177.0082, 2176.497
177.4903, 2191.739
177.9724, 2221.822
178.4545, 2238.147
178.9366, 2226.521
179.4187, 2202.966
179.9009, 2190.963
180.3830, 2190.313
180.8651, 2195.592
181.3472, 2205.695
181.8293, 2218.660
182.3114, 2227.610
182.7936, 2228.596
183.2757, 2224.139
183.7578, 2219.643
184.2399, 2215.075
184.7220, 2210.786
185.2041, 2207.498
185.6863, 2205.033
186.1684, 2202.474
186.6505, 2198.032
187.1326, 2192.897
187.6147, 2192.444
188.0968, 2198.018
188.5790, 2204.909
189.0611, 2206.317
189.5432, 2202.328
190.0253, 2195.899
190.5074, 2185.852
190.9895, 2173.456
191.4717, 2168.054
191.9538, 2171.938
192.4359, 2180.921
192.9180, 2186.173
193.4001, 2187.389
193.8822, 2188.716
194.3644, 2193.516
194.8465, 2201.658
195.3286, 2208.261
195.8107, 2210.927
196.2928, 2212.444
196.7749, 2224.284
197.2570, 2248.677
197.7392, 2272.038
198.2213, 2278.103
198.7034, 2264.743
199.1855, 2263.558
199.6676, 2286.114
200.1497, 2326.478
200.6319, 2349.153
201.1140, 2350.635
201.5961, 2344.532
202.0782, 2343.960
202.5603, 2349.302
203.0424, 2358.309
203.5246, 2370.594
204.0067, 2386.208
204.4888, 2405.383
204.9709, 2430.354
205.4530, 2455.161
205.9352, 2470.618
206.4173, 2474.002
206.8994, 2478.415
207.3815, 2487.596
207.8636, 2501.636
208.3457, 2520.230
208.8279, 2545.071
209.3100, 2572.489
209.7921, 2595.434
210.2742, 2611.525
210.7563, 2629.634
211.2384, 2654.799
211.7206, 2690.604
212.2027, 2717.377
212.6848, 2731.885
213.1669, 2739.347
213.6490, 2752.157
214.1311, 2773.181
214.6133, 2793.394
215.0954, 2807.541
215.5775, 2812.328
216.0596, 2821.118
216.5417, 2835.483
217.0238, 2853.893
217.5059, 2872.534
217.9881, 2893.070
218.4702, 2911.114
218.9523, 2924.233
219.4344, 2931.376
219.9165, 2936.265
220.3986, 2938.968
220.8808, 2939.703
221.3629, 2938.682
221.8450, 2932.620
222.3271, 2929.556
222.8092, 2937.819
223.2913, 2969.255
223.7735, 2983.961
224.2556, 2971.565
224.7377, 2935.025
225.2198, 2908.615
225.7019, 2892.723
226.1840, 2886.063
226.6662, 2889.197
227.1483, 2909.444
227.6304, 2924.739
228.1125, 2933.229
228.5946, 2934.827
229.0767, 2923.438
229.5589, 2890.892
230.0410, 2853.787
230.5231, 2827.769
231.0052, 2817.441
231.4873, 2810.415
231.9694, 2806.760
232.4516, 2807.504
232.9337, 2796.860
233.4158, 2766.896
233.8979, 2732.646
234.3800, 2712.722
234.8621, 2717.156
235.3443, 2718.414
235.8264, 2709.250
236.3085, 2687.922
236.7906, 2668.133
237.2727, 2649.349
237.7548, 2632.553
238.2369, 2618.587
238.7191, 2606.425
239.2012, 2598.962
239.6833, 2598.860
240.1654, 2609.247
240.6475, 2612.218
241.1296, 2606.405
241.6118, 2593.760
242.0939, 2576.261
242.5760, 2548.230
243.0581, 2524.374
243.5402, 2509.853
244.0223, 2507.189
244.5045, 2505.750
244.9866, 2508.042
245.4687, 2510.360
245.9508, 2505.169
246.4329, 2487.853
246.9150, 2470.790
247.3972, 2459.033
247.8793, 2455.858
248.3614, 2448.613
248.8435, 2435.047
249.3256, 2418.424
249.8077, 2406.299
250.2899, 2401.846
250.7720, 2396.480
251.2541, 2384.821
251.7362, 2359.505
252.2183, 2348.754
252.7004, 2360.185
253.1826, 2383.149
253.6647, 2391.576
254.1468, 2377.838
254.6289, 2361.884
255.1110, 2352.890
255.5931, 2355.085
256.0753, 2352.740
256.5574, 2342.720
257.0395, 2329.133
257.5216, 2324.278
258.0037, 2333.581
258.4858, 2341.944
258.9680, 2340.285
259.4501, 2321.690
259.9322, 2314.207
260.4143, 2324.237
260.8964, 2344.246
261.3785, 2350.786
261.8607, 2339.117
262.3428, 2323.481
262.8249, 2311.261
263.3070, 2304.129
263.7891, 2294.334
264.2712, 2278.292
264.7534, 2260.498
265.2355, 2257.345
265.7176, 2274.472
266.1997, 2293.681
266.6818, 2305.143
267.1639, 2307.284
267.6461, 2306.722
268.1282, 2301.904
268.6103, 2295.474
269.0924, 2297.242
269.5745, 2311.079
270.0566, 2323.148
270.5387, 2323.459
271.0208, 2308.722
271.5030, 2297.995
271.9851, 2291.524
272.4672, 2290.745
272.9493, 2303.292
273.4314, 2333.782
273.9135, 2362.314
274.3957, 2374.779
274.8778, 2369.150
275.3599, 2362.077
275.8420, 2352.852
276.3241, 2344.721
276.8062, 2350.881
277.2884, 2375.700
277.7705, 2396.272
278.2526, 2391.752
278.7347, 2359.946
279.2168, 2343.933
279.6989, 2350.778
280.1811, 2373.773
280.6632, 2398.527
281.1453, 2426.036
281.6274, 2449.246
282.1095, 2461.778
282.5916, 2463.787
283.0738, 2465.462
283.5559, 2466.246
284.0380, 2469.256
284.5201, 2483.367
285.0022, 2509.268
285.4843, 2537.338
285.9665, 2560.289
286.4486, 2578.781
286.9307, 2601.331
287.4128, 2630.419
287.8949, 2661.550
288.3770, 2684.097
288.8592, 2698.157
289.3413, 2710.881
289.8234, 2729.304
290.3055, 2751.429
290.7876, 2764.600
291.2697, 2764.223
291.7519, 2760.201
292.2340, 2767.538
292.7161, 2786.231
293.1982, 2815.405
293.6803, 2864.591
294.1624, 2925.456
294.6446, 2969.044
295.1267, 2989.331
295.6088, 2997.824
296.0909, 3010.107
296.5730, 3025.337
297.0551, 3039.549
297.5373, 3048.473
298.0194, 3054.678
298.5015, 3064.506
298.9836, 3080.136
299.4657, 3095.432
299.9478, 3103.389
300.4300, 3104.562
300.9121, 3100.496
301.3942, 3086.204
301.8763, 3068.815
302.3584, 3061.912
302.8405, 3070.148
303.3227, 3078.051
303.8048, 3068.510
304.2869, 3045.816
304.7690, 3021.645
305.2511, 3001.879
305.7332, 2984.494
306.2154, 2967.990
306.6975, 2953.184
307.1796, 2935.619
307.6617, 2910.361
308.1438, 2879.997
308.6259, 2848.979
309.1081, 2816.422
309.5901, 2786.488
310.0723, 2763.674
310.5544, 2749.807
311.0365, 2736.329
311.5186, 2719.853
312.0007, 2699.733
312.4828, 2675.095
312.9650, 2642.740
313.4471, 2607.510
313.9292, 2572.235
314.4113, 2537.022
314.8934, 2502.422
315.3755, 2468.551
315.8577, 2435.166
316.3398, 2402.963
316.8219, 2369.502
317.3040, 2339.053
317.7861, 2315.966
318.2682, 2301.500
318.7504, 2282.564
319.2325, 2246.674
319.7146, 2206.773
320.1967, 2177.325
320.6788, 2172.233
321.1609, 2167.942
321.6431, 2139.118
322.1252, 2066.161
322.6073, 2075.053
323.0894, 2075.798
323.5715, 2068.831
324.0536, 2031.062
324.5358, 2033.066
325.0179, 2019.132
325.5000, 2004.545
325.9821, 2012.150
326.4642, 1978.861
326.9464, 1986.111
327.4285, 1977.181
327.9106, 1975.657
328.3927, 1958.094
328.8748, 1945.486
329.3569, 1948.921
329.8391, 1943.470
330.3212, 1924.061
330.8033, 1923.008
331.2854, 1889.159
331.7675, 1884.089
332.2496, 1891.435
332.7318, 1872.831
333.2139, 1872.071
333.6960, 1864.515
334.1781, 1826.078
334.6602, 1841.348
335.1423, 1833.391
335.6245, 1801.583
336.1066, 1815.013
336.5887, 1786.494
337.0708, 1772.949
337.5529, 1770.672
338.0350, 1756.648
338.5172, 1761.142
338.9993, 1747.797
339.4814, 1732.857
339.9635, 1724.875
340.4456, 1697.179
340.9277, 1706.054
341.4099, 1689.946
341.8920, 1686.258
342.3741, 1685.385
342.8562, 1662.960
343.3383, 1663.351
343.8204, 1628.360
344.3026, 1622.972
344.7847, 1614.399
345.2668, 1624.748
345.7489, 1589.930
346.2310, 1583.722
346.7131, 1589.696
347.1953, 1578.622
347.6774, 1574.677
348.1595, 1549.635
348.6416, 1544.412
349.1237, 1533.726
349.6058, 1541.918
350.0880, 1535.205
350.5700, 1510.522
351.0522, 1485.912
351.5343, 1495.462
352.0164, 1472.637
352.4985, 1467.277
352.9806, 1443.879
353.4627, 1436.056
353.9449, 1427.984
354.4270, 1427.899
354.9091, 1403.603
355.3912, 1410.712
355.8733, 1399.670
356.3554, 1393.974
356.8376, 1387.682
357.3197, 1357.034
357.8018, 1346.353
358.2839, 1364.245
358.7660, 1338.563
359.2481, 1321.675
359.7303, 1331.568
360.2124, 1336.820
360.6945, 1338.643
361.1766, 1330.567
361.6587, 1319.280
362.1408, 1308.453
362.6230, 1297.541
363.1051, 1289.556
363.5872, 1287.511
364.0693, 1288.724
364.5514, 1288.404
365.0335, 1283.805
365.5157, 1278.995
365.9978, 1276.048
366.4799, 1276.509
366.9620, 1273.856
367.4441, 1261.435
367.9262, 1247.656
368.4084, 1242.996
368.8905, 1258.364
369.3726, 1270.531
369.8547, 1274.002
370.3368, 1267.897
370.8189, 1264.273
371.3011, 1265.716
371.7832, 1267.419
372.2653, 1265.468
372.7474, 1260.226
373.2295, 1250.095
373.7116, 1231.886
374.1938, 1207.736
374.6759, 1193.980
375.1580, 1193.595
375.6401, 1197.650
376.1222, 1199.885
376.6043, 1199.612
377.0865, 1202.636
377.5686, 1211.948
378.0507, 1222.777
378.5328, 1219.995
379.0149, 1201.723
379.4970, 1185.515
379.9792, 1184.841
380.4613, 1197.687
380.9434, 1203.189
381.4255, 1198.955
381.9076, 1190.932
382.3897, 1185.699
382.8719, 1183.489
383.3540, 1186.324
383.8361, 1202.109
384.3182, 1222.517
384.8003, 1228.253
385.2824, 1218.304
385.7646, 1201.637
386.2467, 1180.395
386.7288, 1158.713
387.2109, 1145.503
387.6930, 1151.361
388.1751, 1161.930
388.6573, 1160.812
389.1394, 1149.427
389.6215, 1141.090
390.1036, 1147.531
390.5857, 1160.119
391.0678, 1170.019
391.5499, 1174.260
392.0320, 1175.947
392.5142, 1177.369
392.9963, 1177.674
393.4784, 1174.160
393.9605, 1158.426
394.4426, 1143.722
394.9247, 1138.297
395.4069, 1147.206
395.8890, 1156.934
396.3711, 1167.501
396.8532, 1176.541
397.3353, 1179.916
397.8174, 1172.356
398.2996, 1163.565
398.7817, 1156.710
399.2638, 1152.907
399.7459, 1146.114
400.2280, 1127.978
400.7101, 1112.062
401.1923, 1113.294
401.6744, 1145.735
402.1565, 1170.357
402.6386, 1179.379
403.1207, 1173.954
403.6028, 1165.954
404.0850, 1151.539
404.5671, 1141.578
405.0492, 1147.853
405.5313, 1175.383
406.0134, 1188.414
406.4955, 1177.725
406.9777, 1155.112
407.4598, 1152.428
407.9419, 1171.936
408.4240, 1189.873
408.9061, 1189.510
409.3882, 1174.461
409.8704, 1167.019
410.3525, 1169.385
410.8346, 1175.163
411.3167, 1176.069
411.7988, 1173.113
412.2809, 1170.965
412.7631, 1171.383
413.2452, 1173.925
413.7273, 1179.754
414.2094, 1188.803
414.6915, 1194.751
415.1736, 1190.647
415.6558, 1180.585
416.1379, 1170.664
416.6200, 1161.201
417.1021, 1154.064
417.5842, 1149.747
418.0663, 1148.557
418.5485, 1151.686
419.0306, 1163.749
419.5127, 1177.712
419.9948, 1188.950
420.4769, 1196.009
420.9590, 1201.134
421.4412, 1203.233
421.9233, 1204.012
422.4054, 1206.551
422.8875, 1211.403
423.3696, 1218.060
423.8517, 1227.665
424.3339, 1241.670
424.8160, 1250.725
425.2981, 1253.070
425.7802, 1251.464
426.2623, 1247.249
426.7444, 1232.729
427.2266, 1229.760
427.7087, 1246.488
428.1908, 1278.464
428.6729, 1298.605
429.1550, 1303.075
429.6371, 1304.309
430.1193, 1308.453
430.6014, 1315.033
431.0835, 1330.725
431.5656, 1360.191
432.0477, 1392.360
432.5298, 1401.438
433.0119, 1387.167
433.4940, 1380.795
433.9762, 1403.283
434.4583, 1446.081
434.9404, 1479.516
435.4225, 1503.337
435.9046, 1518.859
436.3867, 1519.980
436.8689, 1513.458
437.3510, 1516.177
437.8331, 1538.989
438.3152, 1568.150
438.7973, 1588.383
439.2794, 1601.254
439.7616, 1615.253
440.2437, 1639.472
440.7258, 1665.001
441.2079, 1681.686
441.6900, 1681.558
442.1721, 1687.185
442.6543, 1715.876
443.1364, 1756.740
443.6185, 1790.188
444.1006, 1808.438
444.5827, 1819.351
445.0648, 1822.276
445.5470, 1814.646
446.0291, 1817.005
446.5112, 1840.296
446.9933, 1869.806
447.4754, 1893.385
447.9576, 1907.648
448.4397, 1920.781
448.9218, 1933.474
449.4039, 1945.680
449.8860, 1957.014
450.3681, 1968.079
450.8503, 1976.995
451.3324, 1981.430
451.8145, 1979.803
452.2966, 1983.877
452.7787, 1996.002
453.2608, 2010.182
453.7430, 2015.503
454.2251, 2011.744
454.7072, 2011.328
455.1893, 2024.040
455.6714, 2042.943
456.1535, 2042.329
456.6357, 2021.812
457.1178, 2000.490
457.5999, 1995.805
458.0820, 2002.881
458.5641, 2012.282
459.0462, 2024.630
459.5284, 2033.782
460.0105, 2030.837
460.4926, 2019.201
460.9747, 2008.667
461.4568, 2001.363
461.9389, 1999.010
462.4211, 2004.709
462.9032, 2020.441
463.3853, 2034.376
463.8674, 2038.737
464.3495, 2039.792
464.8316, 2044.620
465.3138, 2058.115
465.7959, 2071.966
466.2780, 2086.080
466.7601, 2099.927
467.2422, 2107.468
467.7243, 2099.583
468.2065, 2093.767
468.6886, 2098.748
469.1707, 2117.874
469.6528, 2141.268
470.1349, 2172.610
470.6170, 2205.356
471.0992, 2227.611
471.5813, 2238.358
472.0634, 2242.365
472.5455, 2237.884
473.0276, 2226.996
473.5097, 2226.711
473.9918, 2237.988
474.4739, 2254.051
474.9561, 2268.524
475.4382, 2282.292
475.9203, 2300.352
476.4024, 2326.790
476.8845, 2352.480
477.3666, 2362.317
477.8488, 2359.528
478.3309, 2356.685
478.8130, 2365.455
479.2951, 2375.317
479.7772, 2373.090
480.2593, 2356.456
480.7415, 2341.659
481.2236, 2340.681
481.7057, 2345.781
482.1878, 2348.150
482.6699, 2344.025
483.1520, 2337.919
483.6342, 2333.840
484.1163, 2330.097
484.5984, 2317.552
485.0805, 2285.490
485.5626, 2252.143
486.0447, 2224.610
486.5269, 2202.101
487.0090, 2187.796
487.4911, 2185.331
487.9732, 2188.607
488.4553, 2190.723
488.9374, 2194.196
489.4196, 2188.170
489.9017, 2165.696
490.3838, 2131.134
490.8659, 2109.392
491.3480, 2101.845
491.8301, 2099.822
492.3123, 2099.334
492.7944, 2099.469
493.2765, 2095.331
493.7586, 2086.219
494.2407, 2073.082
494.7228, 2054.143
495.2050, 2031.763
495.6871, 2013.279
496.1692, 2005.205
496.6513, 2000.649
497.1334, 1991.871
497.6155, 1979.165
498.0977, 1968.194
498.5798, 1960.991
499.0619, 1957.792
499.5440, 1959.394
500.0261, 1969.679
500.5082, 1978.729
500.9904, 1984.372
501.4725, 1986.707
501.9546, 1986.029
502.4367, 1977.701
502.9188, 1970.908
503.4009, 1969.499
503.8831, 1974.567
504.3652, 1973.796
504.8473, 1963.957
505.3294, 1952.250
505.8115, 1944.548
506.2936, 1941.338
506.7758, 1940.112
507.2579, 1940.332
507.7400, 1942.712
508.2221, 1951.091
508.7042, 1965.776
509.1863, 1976.759
509.6685, 1978.647
510.1506, 1972.945
510.6327, 1960.753
511.1148, 1941.499
511.5969, 1927.257
512.0790, 1934.642
512.5612, 1953.540
513.0433, 1966.102
513.5254, 1964.264
514.0075, 1959.222
514.4896, 1956.938
514.9717, 1957.757
515.4539, 1962.554
515.9360, 1983.089
516.4181, 1998.442
516.9002, 1994.646
517.3823, 1966.376
517.8644, 1943.570
518.3466, 1930.383
518.8287, 1925.195
519.3108, 1926.911
519.7929, 1942.911
520.2750, 1954.019
520.7571, 1958.306
521.2393, 1956.623
521.7214, 1950.153
522.2035, 1935.958
522.6856, 1925.402
523.1677, 1926.099
523.6498, 1937.176
524.1320, 1940.466
524.6141, 1935.101
525.0962, 1925.868
525.5783, 1917.316
526.0604, 1908.970
526.5425, 1897.872
527.0247, 1880.400
527.5068, 1865.489
527.9889, 1869.114
528.4710, 1885.679
528.9531, 1897.254
529.4352, 1890.003
529.9174, 1876.919
530.3995, 1868.255
530.8816, 1865.384
531.3637, 1860.698
531.8458, 1846.421
532.3279, 1831.596
532.8101, 1824.098
533.2922, 1838.121
533.7743, 1843.838
534.2564, 1829.129
534.7385, 1804.760
535.2206, 1797.295
535.7027, 1818.869
536.1848, 1837.058
536.6669, 1840.273
537.1490, 1828.161
537.6312, 1817.223
538.1133, 1807.226
538.5954, 1799.278
539.0775, 1795.650
539.5596, 1795.843
540.0417, 1793.861
540.5239, 1788.114
541.0060, 1781.277
541.4881, 1777.577
541.9702, 1776.308
542.4523, 1774.849
542.9344, 1772.825
543.4166, 1769.370
543.8987, 1762.215
544.3808, 1751.571
544.8629, 1742.945
545.3450, 1742.538
545.8271, 1743.485
546.3093, 1739.728
546.7914, 1725.637
547.2735, 1714.909
547.7556, 1713.503
548.2377, 1716.606
548.7198, 1715.612
549.2020, 1705.022
549.6841, 1697.831
550.1662, 1698.861
550.6483, 1706.938
551.1304, 1707.991
551.6125, 1700.973
552.0947, 1689.840
552.5768, 1675.215
553.0589, 1657.262
553.5410, 1644.442
554.0231, 1637.604
554.5052, 1634.806
554.9874, 1636.817
555.4695, 1641.456
555.9516, 1640.561
556.4337, 1627.024
556.9158, 1610.771
557.3979, 1600.928
557.8801, 1597.398
558.3622, 1599.876
558.8443, 1616.458
559.3264, 1633.161
559.8085, 1639.115
560.2906, 1631.224
560.7728, 1622.428
561.2549, 1615.260
561.7370, 1609.125
562.2191, 1603.377
562.7012, 1595.588
563.1833, 1591.576
563.6655, 1593.184
564.1476, 1598.542
564.6297, 1603.787
565.1118, 1611.234
565.5939, 1611.123
566.0760, 1594.833
566.5582, 1565.433
567.0403, 1551.029
567.5224, 1552.970
568.0045, 1559.334
568.4866, 1558.757
568.9688, 1554.165
569.4509, 1553.541
569.9330, 1558.796
570.4151, 1567.087
570.8972, 1580.123
571.3793, 1593.879
571.8615, 1600.090
572.3436, 1586.732
572.8257, 1572.705
573.3078, 1569.024
573.7899, 1574.729
574.2720, 1579.012
574.7542, 1573.739
575.2363, 1570.985
575.7184, 1577.847
576.2005, 1599.899
576.6826, 1616.663
577.1647, 1627.139
577.6469, 1633.344
578.1290, 1635.503
578.6111, 1631.680
579.0932, 1635.294
579.5753, 1651.404
580.0574, 1673.976
580.5396, 1689.518
581.0217, 1698.273
581.5038, 1702.321
581.9859, 1699.020
582.4680, 1693.130
582.9501, 1690.615
583.4323, 1691.752
583.9144, 1701.215
584.3965, 1733.265
584.8786, 1770.116
585.3607, 1792.402
585.8428, 1788.160
586.3250, 1783.929
586.8071, 1786.283
587.2892, 1794.581
587.7713, 1807.829
588.2534, 1833.220
588.7355, 1855.025
589.2177, 1869.689
589.6998, 1878.137
590.1819, 1886.615
590.6640, 1893.402
591.1461, 1904.350
591.6282, 1925.193
592.1104, 1955.674
592.5925, 1978.989
593.0746, 1994.202
593.5567, 2006.160
594.0388, 2014.363
594.5209, 2023.107
595.0031, 2046.707
595.4852, 2095.735
595.9673, 2146.353
596.4494, 2172.927
596.9315, 2183.794
597.4136, 2197.754
597.8958, 2222.086
598.3779, 2252.229
598.8600, 2289.262
599.3421, 2332.993
599.8242, 2370.875
600.3063, 2395.614
600.7885, 2419.084
601.2706, 2445.461
601.7527, 2472.671
602.2348, 2510.351
602.7169, 2560.211
603.1990, 2617.462
603.6812, 2677.035
604.1633, 2738.479
604.6454, 2802.190
605.1275, 2869.902
605.6096, 2936.415
606.0917, 2986.090
606.5739, 3023.331
607.0560, 3073.026
607.5381, 3153.564
608.0202, 3250.008
