##NAMES=Gehlenite
##RRUFFID=R070478
##IDEAL CHEMISTRY=Ca_2_Al(SiAl)O_7_
##LOCALITY=Durham Ranch, South of Gillette, Sublette County, Wyoming, USA
##OWNER=RRUFF
##SOURCE=Michael Scott
##DESCRIPTION=Brown short, tetragonal prismatic crystals, associated with esseneite R061123
##STATUS=The identification of this mineral is confirmed by single-crystal X-ray diffraction and chemical analysis.
##URL=rruff.info/R070478
##MEASURED CHEMISTRY=(Ca_1.65_Na_0.34_K_0.01_)_Σ=2_(Al_0.64_Mg_0.21_Fe^3+^_0.15_)_Σ=1_(Si_1.56_Al_0.44_)_Σ=1_O_7_ ; = gray phase. The light phase is esseneite: (Ca_0.97_Na_0.03_)_Σ=1_(Fe^3+^_0.72_Mg_0.23_Ti_0.05_)_Σ=1_(Al_0.79_Si_0.21_)_Σ=1_Si_1.00_O_6_ (esseneite)
166.5476, 38471.33
167.0297, 38484.92
167.5118, 38482.71
167.9940, 38489.59
168.4761, 38542.78
168.9582, 38625.45
169.4403, 38668.14
169.9224, 38568.29
170.4045, 38426.54
170.8867, 38359.05
171.3688, 38468.41
171.8509, 38608.59
172.3330, 38642.95
172.8151, 38579.80
173.2972, 38526.25
173.7794, 38575.80
174.2615, 38685.77
174.7436, 38783.36
175.2257, 38847.23
175.7078, 38883.00
176.1899, 38891.11
176.6721, 38870.82
177.1542, 38845.66
177.6363, 38840.60
178.1184, 38848.66
178.6005, 38850.61
179.0826, 38833.89
179.5648, 38806.96
180.0469, 38780.75
180.5290, 38754.34
181.0111, 38736.50
181.4932, 38738.22
181.9753, 38757.61
182.4575, 38785.42
182.9396, 38830.11
183.4217, 38878.88
183.9038, 38894.47
184.3859, 38859.97
184.8680, 38814.30
185.3502, 38823.68
185.8323, 38883.57
186.3144, 38945.13
186.7965, 38974.16
187.2786, 38975.99
187.7607, 38971.98
188.2429, 38959.27
188.7250, 38948.71
189.2071, 38972.44
189.6892, 39031.02
190.1713, 39086.80
190.6534, 39096.70
191.1356, 39067.44
191.6177, 39060.23
192.0998, 39104.06
192.5819, 39175.25
193.0640, 39187.89
193.5461, 39134.58
194.0283, 39071.64
194.5104, 39058.96
194.9925, 39096.36
195.4746, 39134.14
195.9567, 39161.79
196.4388, 39179.40
196.9210, 39186.77
197.4031, 39186.57
197.8852, 39171.27
198.3673, 39114.82
198.8494, 39011.67
199.3315, 38942.95
199.8137, 38949.54
200.2958, 39029.35
200.7779, 39087.29
201.2600, 39114.48
201.7421, 39136.72
202.2242, 39202.46
202.7064, 39320.75
203.1885, 39427.96
203.6706, 39499.48
204.1527, 39533.88
204.6348, 39531.27
205.1169, 39473.33
205.5991, 39398.36
206.0812, 39380.64
206.5633, 39424.39
207.0454, 39508.09
207.5275, 39656.43
208.0096, 39905.91
208.4918, 40001.66
208.9739, 39883.86
209.4560, 39642.79
209.9381, 39518.51
210.4202, 39543.93
210.9023, 39600.42
211.3845, 39623.61
211.8666, 39607.24
212.3487, 39584.07
212.8308, 39552.60
213.3129, 39518.15
213.7951, 39501.82
214.2772, 39508.47
214.7593, 39524.71
215.2414, 39543.86
215.7235, 39569.63
216.2056, 39586.58
216.6878, 39590.80
217.1699, 39583.91
217.6520, 39571.51
218.1341, 39538.57
218.6162, 39522.29
219.0983, 39557.74
219.5805, 39670.59
220.0626, 39767.36
220.5447, 39831.19
221.0268, 39863.34
221.5089, 39898.34
221.9910, 39934.30
222.4732, 39975.34
222.9553, 40032.26
223.4374, 40127.09
223.9195, 40186.19
224.4016, 40183.85
224.8837, 40120.23
225.3659, 40086.52
225.8480, 40089.41
226.3301, 40114.92
226.8122, 40153.50
227.2943, 40220.21
227.7764, 40265.77
228.2586, 40265.09
228.7407, 40209.84
229.2228, 40211.04
229.7049, 40300.18
230.1870, 40413.57
230.6691, 40471.74
231.1513, 40439.42
231.6334, 40416.72
232.1155, 40433.52
232.5976, 40498.17
233.0797, 40540.63
233.5618, 40547.73
234.0440, 40545.11
234.5261, 40575.81
235.0082, 40692.10
235.4903, 40754.28
235.9724, 40704.93
236.4545, 40502.23
236.9367, 40391.46
237.4188, 40416.42
237.9009, 40503.98
238.3830, 40539.97
238.8651, 40488.68
239.3472, 40446.32
239.8294, 40447.84
240.3115, 40510.99
240.7936, 40541.32
241.2757, 40508.98
241.7578, 40457.93
242.2399, 40469.89
242.7221, 40583.51
243.2042, 40693.87
243.6863, 40762.66
244.1684, 40774.11
244.6505, 40791.86
245.1326, 40813.16
245.6148, 40841.94
246.0969, 40890.25
246.5790, 40981.23
247.0611, 41055.23
247.5432, 41085.24
248.0253, 41048.76
248.5075, 41038.14
248.9896, 41074.70
249.4717, 41127.75
249.9538, 41123.19
250.4359, 41009.95
250.9180, 40922.38
251.4002, 40925.82
251.8823, 41074.98
252.3644, 41158.26
252.8465, 41148.50
253.3286, 41084.45
253.8107, 41057.60
254.2929, 41094.91
254.7750, 41122.75
255.2571, 41097.04
255.7392, 40968.33
256.2213, 40932.55
256.7034, 41039.38
257.1855, 41219.20
257.6677, 41297.57
258.1498, 41227.70
258.6319, 41145.32
259.1140, 41115.55
259.5961, 41163.29
260.0782, 41186.77
260.5604, 41172.54
261.0425, 41138.25
261.5246, 41133.73
262.0067, 41174.05
262.4888, 41211.91
262.9709, 41219.08
263.4531, 41176.73
263.9352, 41169.81
264.4173, 41210.49
264.8994, 41282.83
265.3815, 41354.39
265.8636, 41438.43
266.3458, 41490.33
266.8279, 41472.17
267.3100, 41352.96
267.7921, 41296.75
268.2742, 41328.43
268.7563, 41413.37
269.2385, 41465.41
269.7206, 41480.00
270.2027, 41475.94
270.6848, 41451.42
271.1669, 41395.27
271.6490, 41384.26
272.1312, 41436.41
272.6133, 41521.95
273.0954, 41575.49
273.5775, 41592.30
274.0596, 41591.38
274.5417, 41573.91
275.0239, 41534.95
275.5060, 41525.33
275.9881, 41557.46
276.4702, 41609.49
276.9523, 41635.32
277.4344, 41631.86
277.9166, 41617.55
278.3987, 41598.11
278.8808, 41573.15
279.3629, 41555.03
279.8450, 41542.67
280.3271, 41539.85
280.8093, 41549.38
281.2914, 41568.84
281.7735, 41616.80
282.2556, 41726.52
282.7377, 41894.76
283.2198, 41994.30
283.7020, 42004.24
284.1841, 41969.29
284.6662, 41963.48
285.1483, 41987.16
285.6304, 42026.55
286.1125, 42089.55
286.5947, 42170.69
287.0768, 42213.10
287.5589, 42207.89
288.0410, 42181.32
288.5231, 42176.06
289.0052, 42192.00
289.4874, 42204.99
289.9695, 42194.48
290.4516, 42169.19
290.9337, 42174.98
291.4158, 42221.45
291.8979, 42274.71
292.3801, 42276.84
292.8622, 42235.07
293.3443, 42210.25
293.8264, 42250.56
294.3085, 42330.59
294.7906, 42377.90
295.2728, 42387.74
295.7549, 42374.65
296.2370, 42341.96
296.7191, 42296.41
297.2012, 42268.19
297.6833, 42289.68
298.1655, 42335.55
298.6476, 42353.90
299.1297, 42341.57
299.6118, 42316.49
300.0939, 42291.67
300.5760, 42268.45
301.0582, 42250.70
301.5403, 42238.93
302.0224, 42234.45
302.5045, 42242.05
302.9866, 42262.41
303.4688, 42285.41
303.9509, 42301.06
304.4330, 42312.96
304.9151, 42328.94
305.3972, 42363.03
305.8793, 42397.00
306.3615, 42403.73
306.8436, 42383.54
307.3257, 42369.27
307.8078, 42402.70
308.2899, 42454.80
308.7720, 42481.50
309.2542, 42435.20
309.7363, 42377.95
310.2184, 42361.88
310.7005, 42383.79
311.1826, 42406.57
311.6647, 42393.57
312.1469, 42372.72
312.6290, 42375.64
313.1111, 42455.12
313.5932, 42523.02
314.0753, 42520.65
314.5574, 42456.41
315.0396, 42391.85
315.5217, 42344.81
316.0038, 42317.74
316.4859, 42312.93
316.9680, 42344.01
317.4501, 42384.83
317.9323, 42435.13
318.4144, 42490.62
318.8965, 42531.24
319.3786, 42536.87
319.8607, 42533.48
320.3428, 42537.63
320.8250, 42553.56
321.3071, 42575.37
321.7892, 42606.27
322.2713, 42641.77
322.7534, 42668.83
323.2355, 42688.17
323.7177, 42693.64
324.1998, 42677.65
324.6819, 42602.13
325.1640, 42564.51
325.6461, 42619.20
326.1282, 42720.59
326.6104, 42763.88
327.0925, 42667.03
327.5746, 42573.64
328.0567, 42538.33
328.5388, 42604.98
329.0209, 42644.48
329.5031, 42644.39
329.9852, 42622.24
330.4673, 42607.11
330.9494, 42621.41
331.4315, 42619.20
331.9136, 42576.69
332.3958, 42469.22
332.8779, 42424.03
333.3600, 42475.98
333.8421, 42566.84
334.3242, 42621.46
334.8063, 42622.49
335.2885, 42616.34
335.7706, 42611.01
336.2527, 42605.32
336.7348, 42607.17
337.2169, 42618.70
337.6991, 42632.39
338.1812, 42638.28
338.6633, 42630.57
339.1454, 42633.23
339.6275, 42656.75
340.1096, 42696.40
340.5918, 42713.04
341.0739, 42699.45
341.5560, 42683.75
342.0381, 42695.81
342.5202, 42738.36
343.0023, 42771.28
343.4845, 42786.65
343.9666, 42788.62
344.4487, 42785.18
344.9308, 42775.74
345.4129, 42771.71
345.8951, 42795.52
346.3772, 42840.52
346.8593, 42842.32
347.3414, 42771.96
347.8235, 42689.77
348.3056, 42727.68
348.7878, 42875.80
349.2699, 43008.95
349.7520, 43018.31
350.2341, 42953.26
350.7162, 42939.68
351.1983, 42996.25
351.6805, 43080.04
352.1626, 43148.73
352.6447, 43201.58
353.1268, 43238.96
353.6089, 43237.80
354.0910, 43228.38
354.5732, 43264.29
355.0553, 43354.18
355.5374, 43427.88
356.0195, 43401.55
356.5016, 43322.02
356.9837, 43273.31
357.4659, 43338.36
357.9480, 43417.80
358.4301, 43428.55
358.9122, 43370.82
359.3943, 43315.02
359.8764, 43310.53
360.3586, 43327.29
360.8407, 43333.05
361.3228, 43288.70
361.8049, 43258.63
362.2870, 43279.04
362.7691, 43342.55
363.2513, 43403.23
363.7334, 43452.27
364.2155, 43486.62
364.6976, 43502.03
365.1797, 43466.46
365.6618, 43450.23
366.1440, 43482.43
366.6261, 43546.04
367.1082, 43588.85
367.5903, 43598.66
368.0724, 43591.09
368.5545, 43571.00
369.0367, 43527.25
369.5188, 43495.54
370.0009, 43481.34
370.4830, 43479.84
370.9651, 43483.16
371.4472, 43504.67
371.9294, 43515.66
372.4115, 43499.38
372.8936, 43441.67
373.3757, 43432.13
373.8578, 43491.01
374.3399, 43576.07
374.8221, 43624.25
375.3042, 43592.78
375.7863, 43644.13
376.2684, 43866.25
376.7505, 44229.63
377.2326, 44369.63
377.7148, 44231.04
378.1969, 44006.36
378.6790, 43845.59
379.1611, 43748.60
379.6432, 43714.47
380.1253, 43765.25
380.6075, 43862.89
381.0896, 43900.07
381.5717, 43875.61
382.0538, 43839.27
382.5359, 43819.07
383.0180, 43815.05
383.5002, 43825.96
383.9823, 43856.14
384.4644, 43890.13
384.9465, 43898.23
385.4286, 43886.57
385.9107, 43887.63
386.3929, 43917.13
386.8750, 43968.15
387.3571, 44040.20
387.8392, 44134.90
388.3213, 44216.82
388.8034, 44245.22
389.2856, 44239.54
389.7677, 44236.80
390.2498, 44247.98
390.7319, 44270.56
391.2140, 44314.74
391.6961, 44377.49
392.1783, 44421.56
392.6604, 44402.99
393.1425, 44367.87
393.6246, 44362.25
394.1067, 44448.56
394.5888, 44504.51
395.0710, 44439.82
395.5531, 44298.32
396.0352, 44225.70
396.5173, 44321.61
396.9994, 44453.35
397.4815, 44555.65
397.9637, 44621.73
398.4458, 44656.88
398.9279, 44639.27
399.4100, 44593.17
399.8921, 44560.78
400.3742, 44555.54
400.8564, 44550.24
401.3385, 44533.17
401.8206, 44498.58
402.3027, 44495.43
402.7848, 44550.62
403.2669, 44614.30
403.7491, 44632.15
404.2312, 44578.61
404.7133, 44546.03
405.1954, 44553.47
405.6775, 44596.05
406.1596, 44647.30
406.6418, 44710.97
407.1239, 44773.09
407.6060, 44828.23
408.0881, 44877.20
408.5702, 44892.92
409.0523, 44860.70
409.5345, 44810.81
410.0166, 44805.21
410.4987, 44841.93
410.9808, 44881.22
411.4629, 44902.54
411.9450, 44909.47
412.4272, 44907.15
412.9093, 44892.17
413.3914, 44891.78
413.8735, 44948.93
414.3556, 45044.52
414.8377, 45127.92
415.3199, 45186.71
415.8020, 45220.46
416.2841, 45218.92
416.7662, 45185.68
417.2483, 45151.44
417.7304, 45139.48
418.2126, 45135.25
418.6947, 45119.50
419.1768, 45064.78
419.6589, 45036.68
420.1410, 45102.18
420.6231, 45222.57
421.1053, 45302.29
421.5874, 45266.35
422.0695, 45211.49
422.5516, 45183.90
423.0337, 45193.09
423.5158, 45214.02
423.9980, 45249.05
424.4801, 45290.42
424.9622, 45328.56
425.4443, 45342.82
425.9264, 45373.57
426.4085, 45441.16
426.8907, 45544.20
427.3728, 45598.39
427.8549, 45569.50
428.3370, 45527.86
428.8191, 45525.11
429.3012, 45583.10
429.7834, 45620.61
430.2655, 45630.23
430.7476, 45617.55
431.2297, 45585.84
431.7118, 45525.26
432.1939, 45494.29
432.6761, 45536.95
433.1582, 45652.16
433.6403, 45747.59
434.1224, 45825.53
434.6045, 45875.46
435.0866, 45860.44
435.5688, 45792.75
436.0509, 45753.97
436.5330, 45773.55
437.0151, 45835.99
437.4972, 45929.92
437.9793, 46051.31
438.4615, 46153.34
438.9436, 46197.75
439.4257, 46200.73
439.9078, 46184.25
440.3899, 46148.17
440.8720, 46105.77
441.3542, 46060.87
441.8363, 46018.90
442.3184, 45991.18
442.8005, 46001.32
443.2826, 46016.05
443.7647, 46009.66
444.2469, 45975.45
444.7290, 45964.30
445.2111, 46008.01
445.6932, 46076.15
446.1753, 46139.14
446.6574, 46199.14
447.1396, 46244.38
447.6217, 46269.84
448.1038, 46275.59
448.5859, 46269.77
449.0680, 46227.75
449.5501, 46198.34
450.0323, 46210.30
450.5144, 46294.42
450.9965, 46344.43
451.4786, 46341.50
451.9607, 46321.14
452.4428, 46353.20
452.9250, 46455.13
453.4071, 46541.47
453.8892, 46582.32
454.3713, 46581.50
454.8534, 46564.65
455.3355, 46525.44
455.8177, 46499.88
456.2998, 46525.00
456.7819, 46593.61
457.2640, 46675.75
457.7461, 46773.40
458.2282, 46863.44
458.7104, 46905.85
459.1925, 46906.32
459.6746, 46892.52
460.1567, 46885.03
460.6388, 46871.28
461.1209, 46824.55
461.6031, 46737.68
462.0852, 46675.48
462.5673, 46712.02
463.0494, 46792.46
463.5315, 46844.94
464.0136, 46821.05
464.4958, 46789.27
464.9779, 46774.53
465.4600, 46777.01
465.9421, 46790.18
466.4242, 46827.53
466.9063, 46863.66
467.3885, 46882.32
467.8706, 46856.43
468.3527, 46853.41
468.8348, 46885.48
469.3169, 46932.71
469.7990, 46963.31
470.2812, 46963.08
470.7633, 46966.71
471.2454, 46988.68
471.7275, 47027.52
472.2096, 47029.39
472.6917, 46978.73
473.1739, 46932.39
473.6560, 46951.80
474.1381, 47039.54
474.6202, 47096.51
475.1023, 47107.98
475.5844, 47088.42
476.0666, 47048.37
476.5487, 46992.74
477.0308, 46961.77
477.5129, 46997.83
477.9950, 47067.29
478.4771, 47098.59
478.9593, 47086.95
479.4414, 47082.53
479.9235, 47126.61
480.4056, 47203.58
480.8877, 47290.80
481.3698, 47406.95
481.8520, 47498.95
482.3341, 47515.85
482.8162, 47477.83
483.2983, 47452.14
483.7804, 47476.24
484.2625, 47509.49
484.7447, 47530.25
485.2268, 47532.61
485.7089, 47534.89
486.1910, 47538.88
486.6731, 47544.36
487.1552, 47550.98
487.6374, 47555.70
488.1195, 47568.16
488.6016, 47597.22
489.0837, 47637.96
489.5658, 47657.04
490.0479, 47651.56
490.5301, 47633.14
491.0122, 47604.78
491.4943, 47566.04
491.9764, 47535.51
492.4585, 47513.52
492.9406, 47502.82
493.4228, 47503.38
493.9049, 47516.41
494.3870, 47551.98
494.8691, 47626.45
495.3512, 47717.09
495.8333, 47784.64
496.3155, 47828.71
496.7976, 47851.36
497.2797, 47831.22
497.7618, 47798.65
498.2439, 47793.68
498.7260, 47830.28
499.2082, 47870.82
499.6903, 47885.03
500.1724, 47888.29
500.6545, 47905.65
501.1366, 47980.50
501.6187, 48038.77
502.1009, 48048.70
502.5830, 48010.91
503.0651, 47968.18
503.5472, 47907.34
504.0293, 47859.98
504.5114, 47844.43
504.9936, 47878.92
505.4757, 47917.55
505.9578, 47974.71
506.4399, 48028.04
506.9220, 48018.44
507.4041, 47912.03
507.8863, 47863.39
508.3684, 47946.81
508.8505, 48133.91
509.3326, 48238.24
509.8147, 48250.09
510.2968, 48248.04
510.7790, 48313.71
511.2611, 48421.57
511.7432, 48471.36
512.2253, 48431.11
512.7074, 48377.63
513.1895, 48419.44
513.6716, 48520.79
514.1537, 48592.20
514.6359, 48541.61
515.1180, 48480.78
515.6001, 48521.70
516.0822, 48657.80
516.5643, 48755.55
517.0464, 48722.11
517.5286, 48648.96
518.0107, 48602.00
518.4928, 48607.79
518.9749, 48616.19
519.4570, 48619.10
519.9391, 48620.66
520.4213, 48627.99
520.9034, 48642.96
521.3855, 48661.79
521.8676, 48690.55
522.3497, 48727.43
522.8318, 48726.83
523.3140, 48670.58
523.7961, 48620.65
524.2782, 48635.26
524.7603, 48715.30
525.2424, 48763.02
525.7245, 48764.72
526.2067, 48748.05
526.6888, 48752.14
527.1709, 48774.50
527.6530, 48801.98
528.1351, 48839.95
528.6172, 48872.82
529.0994, 48862.84
529.5815, 48817.23
530.0636, 48793.91
530.5457, 48843.79
531.0278, 48924.55
531.5099, 48998.29
531.9921, 49053.09
532.4742, 49105.37
532.9563, 49162.27
533.4384, 49217.47
533.9205, 49261.80
534.4026, 49297.10
534.8848, 49316.64
535.3669, 49310.54
535.8490, 49283.87
536.3311, 49275.74
536.8132, 49306.75
537.2953, 49329.44
537.7775, 49310.09
538.2596, 49232.70
538.7417, 49209.79
539.2238, 49257.19
539.7059, 49330.91
540.1880, 49378.83
540.6702, 49402.18
541.1523, 49407.25
541.6344, 49387.51
542.1165, 49358.89
542.5986, 49334.98
543.0807, 49320.43
543.5629, 49347.90
544.0450, 49481.58
544.5271, 49641.69
545.0092, 49736.60
545.4913, 49750.34
545.9734, 49757.77
546.4556, 49813.56
546.9377, 49878.29
547.4198, 49911.77
547.9019, 49868.45
548.3840, 49833.27
548.8661, 49828.48
549.3483, 49845.99
549.8304, 49859.29
550.3125, 49861.72
550.7946, 49870.92
551.2767, 49899.38
551.7589, 49950.07
552.2410, 49972.29
552.7231, 49960.56
553.2052, 49934.60
553.6873, 49905.08
554.1694, 49872.05
554.6516, 49852.96
555.1337, 49848.00
555.6158, 49861.58
556.0979, 49921.42
556.5800, 50012.10
557.0621, 50070.21
557.5443, 50038.27
558.0264, 49973.96
558.5085, 49934.34
558.9906, 49919.75
559.4727, 49936.18
559.9548, 50037.57
560.4370, 50139.83
560.9191, 50166.66
561.4012, 50073.11
561.8833, 50002.27
562.3654, 50012.74
562.8475, 50058.51
563.3297, 50078.88
563.8118, 50043.29
564.2939, 50023.48
564.7760, 50028.76
565.2581, 50057.42
565.7402, 50108.82
566.2224, 50195.30
566.7045, 50267.60
567.1866, 50288.31
567.6687, 50260.76
568.1508, 50278.30
568.6329, 50347.05
569.1151, 50417.86
569.5972, 50431.14
570.0793, 50404.74
570.5614, 50390.80
571.0435, 50401.68
571.5256, 50426.44
572.0078, 50447.86
572.4899, 50474.48
572.9720, 50525.52
573.4541, 50673.02
573.9362, 50792.52
574.4183, 50795.35
574.9005, 50684.63
575.3826, 50594.18
575.8647, 50554.14
576.3468, 50541.78
576.8289, 50547.18
577.3110, 50584.98
577.7932, 50604.94
578.2753, 50596.42
578.7574, 50581.40
579.2395, 50594.71
579.7216, 50645.69
580.2037, 50674.59
580.6859, 50664.20
581.1680, 50628.69
581.6501, 50599.15
582.1323, 50575.90
582.6144, 50560.88
583.0965, 50547.62
583.5786, 50547.03
584.0607, 50589.18
584.5428, 50675.54
585.0250, 50752.50
585.5071, 50795.37
585.9892, 50803.03
586.4713, 50765.85
586.9534, 50636.99
587.4355, 50548.35
587.9177, 50564.55
588.3998, 50642.35
588.8819, 50711.09
589.3640, 50742.68
589.8461, 50787.84
590.3282, 50858.70
590.8104, 50950.75
591.2925, 51036.66
591.7746, 51113.96
592.2567, 51188.85
592.7388, 51269.40
593.2209, 51354.41
593.7031, 51414.68
594.1852, 51449.29
594.6673, 51461.16
595.1494, 51436.17
595.6315, 51391.25
596.1136, 51371.52
596.5958, 51389.80
597.0779, 51435.18
597.5600, 51524.19
598.0421, 51633.77
598.5242, 51711.64
599.0063, 51708.75
599.4885, 51696.63
599.9706, 51711.97
600.4527, 51753.76
600.9348, 51781.11
601.4169, 51749.10
601.8990, 51734.50
602.3812, 51774.89
602.8633, 51888.36
603.3454, 51991.43
603.8275, 52090.59
604.3096, 52164.00
604.7917, 52167.13
605.2739, 52095.44
605.7560, 52066.41
606.2381, 52107.28
606.7202, 52191.14
607.2023, 52296.87
607.6844, 52413.45
608.1666, 52497.07
608.6487, 52513.05
609.1308, 52494.26
609.6129, 52459.35
610.0950, 52413.59
610.5771, 52389.80
611.0593, 52421.19
611.5414, 52467.86
612.0235, 52506.14
612.5056, 52535.92
612.9877, 52549.62
613.4698, 52533.10
613.9520, 52508.49
614.4341, 52493.07
614.9162, 52482.93
615.3983, 52492.56
615.8804, 52529.71
616.3625, 52581.54
616.8447, 52619.80
617.3268, 52644.22
617.8089, 52662.02
618.2910, 52678.64
618.7731, 52688.84
619.2552, 52673.62
619.7374, 52636.42
620.2195, 52604.38
620.7016, 52606.54
621.1837, 52617.39
621.6658, 52603.77
622.1479, 52556.42
622.6301, 52529.12
623.1122, 52571.35
623.5943, 52630.77
624.0764, 52659.90
624.5585, 52598.54
625.0406, 52578.85
625.5228, 52634.70
626.0049, 52722.72
626.4870, 52764.41
626.9691, 52747.28
627.4512, 52721.27
627.9333, 52693.29
628.4155, 52667.50
628.8976, 52665.95
629.3797, 52687.80
629.8618, 52707.52
630.3439, 52702.34
630.8260, 52685.24
631.3082, 52675.56
631.7903, 52673.75
632.2724, 52689.37
632.7545, 52760.63
633.2366, 52836.48
633.7188, 52866.38
634.2009, 52824.11
634.6830, 52772.41
635.1651, 52736.07
635.6472, 52699.24
636.1293, 52637.00
636.6115, 52521.01
637.0936, 52428.26
637.5757, 52371.88
638.0578, 52347.51
638.5399, 52353.18
639.0220, 52396.01
639.5042, 52421.09
639.9863, 52380.25
640.4684, 52303.31
640.9505, 52310.64
641.4326, 52398.27
641.9147, 52483.91
642.3969, 52491.45
642.8790, 52467.03
643.3611, 52467.54
643.8432, 52502.29
644.3253, 52547.28
644.8074, 52615.33
645.2896, 52675.00
645.7717, 52696.91
646.2538, 52642.31
646.7359, 52590.50
647.2180, 52529.11
647.7001, 52481.58
648.1823, 52502.14
648.6644, 52623.18
649.1465, 52721.02
649.6286, 52763.16
650.1107, 52762.17
650.5928, 52755.47
651.0750, 52743.56
651.5571, 52735.22
652.0392, 52721.50
652.5213, 52719.63
653.0034, 52777.53
653.4855, 52893.22
653.9677, 52983.74
654.4498, 52976.37
654.9319, 52928.94
655.4140, 52888.12
655.8961, 52858.47
