##NAMES=Gehlenite
##RRUFFID=R070478
##IDEAL CHEMISTRY=Ca_2_Al(SiAl)O_7_
##LOCALITY=Durham Ranch, South of Gillette, Sublette County, Wyoming, USA
##OWNER=RRUFF
##SOURCE=Michael Scott
##DESCRIPTION=Brown short, tetragonal prismatic crystals, associated with esseneite R061123
##STATUS=The identification of this mineral is confirmed by single-crystal X-ray diffraction and chemical analysis.
##URL=rruff.info/R070478
##MEASURED CHEMISTRY=(Ca_1.65_Na_0.34_K_0.01_)_Σ=2_(Al_0.64_Mg_0.21_Fe^3+^_0.15_)_Σ=1_(Si_1.56_Al_0.44_)_Σ=1_O_7_ ; = gray phase. The light phase is esseneite: (Ca_0.97_Na_0.03_)_Σ=1_(Fe^3+^_0.72_Mg_0.23_Ti_0.05_)_Σ=1_(Al_0.79_Si_0.21_)_Σ=1_Si_1.00_O_6_ (esseneite)
183.1106, 39743.47
183.5927, 39721.67
184.0748, 39754.69
184.5569, 39846.94
185.0391, 39908.61
185.5212, 39914.68
186.0033, 39911.32
186.4854, 39910.94
186.9675, 39912.96
187.4496, 39911.15
187.9318, 39898.46
188.4139, 39874.21
188.8960, 39860.01
189.3781, 39847.48
189.8602, 39853.55
190.3423, 39895.71
190.8245, 39961.32
191.3066, 40025.04
191.7887, 40068.89
192.2708, 40092.79
192.7529, 40094.18
193.2350, 40036.39
193.7172, 39990.56
194.1993, 39990.96
194.6814, 40018.06
195.1635, 40025.91
195.6456, 39973.11
196.1277, 39865.14
196.6099, 39830.44
197.0920, 39974.71
197.5741, 40090.79
198.0562, 40107.68
198.5383, 40065.67
199.0204, 40045.74
199.5026, 40107.77
199.9847, 40239.37
200.4668, 40310.33
200.9489, 40246.08
201.4310, 40194.70
201.9131, 40195.88
202.3953, 40225.86
202.8774, 40240.00
203.3595, 40207.78
203.8416, 40142.86
204.3237, 40128.13
204.8058, 40236.67
205.2880, 40316.52
205.7701, 40323.96
206.2522, 40293.51
206.7343, 40272.76
207.2164, 40287.62
207.6985, 40329.54
208.1807, 40365.72
208.6628, 40398.52
209.1449, 40419.39
209.6270, 40420.81
210.1091, 40411.30
210.5912, 40394.23
211.0734, 40370.21
211.5555, 40351.43
212.0376, 40376.98
212.5197, 40506.79
213.0018, 40598.39
213.4839, 40623.86
213.9661, 40613.87
214.4482, 40600.44
214.9303, 40596.17
215.4124, 40589.36
215.8945, 40548.17
216.3766, 40407.77
216.8587, 40341.60
217.3409, 40402.76
217.8230, 40509.34
218.3051, 40593.96
218.7872, 40635.61
219.2693, 40656.08
219.7514, 40694.16
220.2336, 40769.00
220.7157, 40824.94
221.1978, 40846.89
221.6799, 40862.26
222.1620, 40899.75
222.6441, 40961.36
223.1263, 41016.66
223.6084, 41018.31
224.0905, 40936.71
224.5726, 40874.35
225.0547, 40809.06
225.5368, 40775.86
226.0190, 40827.99
226.5011, 40951.24
226.9832, 41059.39
227.4653, 41033.97
227.9474, 40814.34
228.4296, 40722.88
228.9117, 40902.26
229.3938, 41075.96
229.8759, 41106.30
230.3580, 41008.69
230.8401, 40887.93
231.3223, 40841.65
231.8044, 40878.91
232.2865, 40885.61
232.7686, 40818.88
233.2507, 40760.30
233.7328, 40733.66
234.2150, 40735.34
234.6971, 40753.23
235.1792, 40782.82
235.6613, 40821.73
236.1434, 40836.00
236.6255, 40794.56
237.1077, 40760.78
237.5898, 40758.99
238.0719, 40773.76
238.5540, 40779.74
239.0361, 40761.85
239.5182, 40724.46
240.0004, 40684.87
240.4825, 40638.79
240.9646, 40598.35
241.4467, 40577.95
241.9288, 40560.62
242.4109, 40525.02
242.8931, 40460.64
243.3752, 40379.54
243.8573, 40303.12
244.3394, 40210.89
244.8215, 40170.64
245.3036, 40234.81
245.7858, 40327.34
246.2679, 40384.36
246.7500, 40385.99
247.2321, 40352.09
247.7142, 40306.05
248.1963, 40239.41
248.6785, 40188.62
249.1606, 40173.36
249.6427, 40165.33
250.1248, 40149.30
250.6069, 40122.09
251.0890, 40086.14
251.5712, 40044.83
252.0533, 39998.84
252.5354, 39939.46
253.0175, 39829.33
253.4996, 39737.45
253.9817, 39711.21
254.4639, 39744.02
254.9460, 39787.33
255.4281, 39801.60
255.9102, 39789.46
256.3923, 39788.18
256.8745, 39816.20
257.3566, 39831.36
257.8387, 39808.76
258.3208, 39756.67
258.8029, 39697.63
259.2850, 39640.25
259.7672, 39585.32
260.2493, 39538.07
260.7314, 39504.19
261.2135, 39464.76
261.6956, 39392.59
262.1777, 39311.54
262.6599, 39261.51
263.1420, 39270.74
263.6241, 39305.71
264.1062, 39319.25
264.5883, 39310.75
265.0704, 39284.72
265.5526, 39220.02
266.0347, 39148.64
266.5168, 39114.63
266.9989, 39140.71
267.4810, 39173.25
267.9631, 39155.90
268.4453, 39091.91
268.9274, 39037.09
269.4095, 39009.87
269.8916, 39002.80
270.3737, 39006.78
270.8558, 39026.70
271.3380, 39033.57
271.8201, 38987.61
272.3022, 38911.82
272.7843, 38886.21
273.2664, 38942.88
273.7485, 39027.72
274.2307, 39077.89
274.7128, 39095.49
275.1949, 39100.71
275.6770, 39078.09
276.1591, 39054.17
276.6412, 39079.16
277.1234, 39165.21
277.6055, 39251.43
278.0876, 39269.05
278.5697, 39223.55
279.0518, 39219.51
279.5339, 39312.13
280.0161, 39416.86
280.4982, 39462.14
280.9803, 39449.66
281.4624, 39423.50
281.9445, 39409.64
282.4266, 39408.38
282.9088, 39414.98
283.3909, 39436.64
283.8730, 39458.32
284.3551, 39466.15
284.8372, 39469.13
285.3193, 39489.82
285.8015, 39540.56
286.2836, 39611.61
286.7657, 39673.82
287.2478, 39707.52
287.7299, 39760.41
288.2120, 39862.68
288.6942, 39977.40
289.1763, 40058.32
289.6584, 40092.07
290.1405, 40102.07
290.6226, 40122.86
291.1047, 40155.75
291.5869, 40198.84
292.0690, 40272.99
292.5511, 40340.95
293.0332, 40368.56
293.5153, 40359.09
293.9974, 40347.80
294.4796, 40369.07
294.9617, 40425.74
295.4438, 40489.20
295.9259, 40580.57
296.4080, 40656.83
296.8901, 40698.71
297.3723, 40713.47
297.8544, 40716.64
298.3365, 40717.39
298.8186, 40715.41
299.3007, 40710.13
299.7828, 40700.55
300.2650, 40687.91
300.7471, 40660.99
301.2292, 40635.88
301.7113, 40632.98
302.1934, 40660.34
302.6755, 40701.99
303.1577, 40733.18
303.6398, 40756.13
304.1219, 40761.75
304.6040, 40735.93
305.0861, 40702.32
305.5682, 40674.29
306.0504, 40654.07
306.5325, 40636.74
307.0146, 40614.46
307.4967, 40588.00
307.9788, 40579.87
308.4609, 40614.38
308.9431, 40638.80
309.4252, 40616.04
309.9073, 40558.49
310.3894, 40503.30
310.8715, 40465.36
311.3536, 40444.02
311.8358, 40441.01
312.3179, 40459.93
312.8000, 40484.29
313.2821, 40522.96
313.7642, 40556.67
314.2463, 40548.84
314.7285, 40465.10
315.2106, 40377.06
315.6927, 40364.52
316.1748, 40416.70
316.6569, 40440.94
317.1390, 40392.43
317.6212, 40307.09
318.1033, 40244.29
318.5854, 40201.71
319.0675, 40184.23
319.5496, 40202.05
320.0317, 40243.90
320.5139, 40300.38
320.9960, 40372.25
321.4781, 40429.11
321.9602, 40426.25
322.4423, 40350.38
322.9244, 40309.88
323.4066, 40333.20
323.8887, 40375.43
324.3708, 40408.22
324.8529, 40429.63
325.3350, 40448.04
325.8171, 40472.50
326.2993, 40499.93
326.7814, 40490.29
327.2635, 40398.13
327.7456, 40326.55
328.2277, 40325.69
328.7098, 40356.31
329.1920, 40357.05
329.6741, 40301.70
330.1562, 40216.42
330.6383, 40157.29
331.1204, 40140.67
331.6025, 40125.45
332.0847, 40120.95
332.5668, 40111.00
333.0489, 40077.84
333.5310, 40023.65
334.0131, 39970.47
334.4952, 39943.35
334.9774, 39945.17
335.4595, 39943.44
335.9416, 39940.80
336.4237, 39931.80
336.9058, 39931.79
337.3879, 39922.85
337.8701, 39865.73
338.3522, 39722.38
338.8343, 39535.51
339.3164, 39417.78
339.7985, 39387.68
340.2806, 39373.75
340.7627, 39372.73
341.2448, 39364.39
341.7270, 39324.19
342.2091, 39243.22
342.6912, 39153.73
343.1733, 39081.39
343.6554, 39025.20
344.1375, 38982.01
344.6197, 38954.09
345.1018, 38934.63
345.5839, 38930.11
346.0660, 38937.07
346.5481, 38907.52
347.0302, 38808.28
347.5124, 38670.50
347.9945, 38522.03
348.4766, 38364.97
348.9587, 38237.06
349.4408, 38171.97
349.9229, 38162.30
350.4051, 38142.11
350.8872, 38112.75
351.3693, 38073.26
351.8514, 38030.26
352.3335, 37976.87
352.8156, 37892.83
353.2978, 37768.09
353.7799, 37622.89
354.2620, 37496.96
354.7441, 37396.32
355.2262, 37307.92
355.7083, 37213.43
356.1905, 37143.38
356.6726, 37151.34
357.1547, 37223.95
357.6368, 37272.15
358.1189, 37201.41
358.6010, 37002.08
359.0832, 36846.88
359.5653, 36755.49
360.0474, 36689.16
360.5295, 36676.35
361.0116, 36674.83
361.4937, 36608.57
361.9759, 36431.66
362.4580, 36213.37
362.9401, 36120.96
363.4222, 36216.00
363.9043, 36265.16
364.3864, 36184.73
364.8686, 36068.05
365.3507, 35967.23
365.8328, 35891.48
366.3149, 35834.25
366.7970, 35805.81
367.2791, 35796.73
367.7613, 35747.92
368.2434, 35632.40
368.7255, 35521.83
369.2076, 35488.39
369.6897, 35499.28
370.1718, 35475.42
370.6540, 35372.48
371.1361, 35244.13
371.6182, 35137.35
372.1003, 35051.27
372.5824, 34980.09
373.0645, 34925.09
373.5467, 34879.53
374.0288, 34827.62
374.5109, 34768.06
374.9930, 34708.02
375.4751, 34638.52
375.9572, 34574.49
376.4394, 34540.07
376.9215, 34538.14
377.4036, 34543.21
377.8857, 34531.79
378.3678, 34505.00
378.8499, 34448.89
379.3321, 34321.60
379.8142, 34213.42
380.2963, 34168.29
380.7784, 34167.31
381.2605, 34178.03
381.7426, 34184.65
382.2248, 34180.79
382.7069, 34142.67
383.1890, 34029.31
383.6711, 33964.37
384.1532, 34018.83
384.6353, 34078.38
385.1175, 34046.24
385.5996, 33920.49
386.0817, 33788.55
386.5638, 33737.79
387.0459, 33760.87
387.5280, 33768.04
388.0102, 33751.98
388.4923, 33729.80
388.9744, 33719.01
389.4565, 33707.30
389.9386, 33667.64
390.4207, 33567.66
390.9029, 33469.65
391.3850, 33457.05
391.8671, 33518.81
392.3492, 33553.49
392.8313, 33516.32
393.3134, 33448.17
393.7956, 33414.02
394.2777, 33415.68
394.7598, 33425.19
395.2419, 33456.13
395.7240, 33480.04
396.2061, 33457.92
396.6883, 33390.38
397.1704, 33317.50
397.6525, 33270.37
398.1346, 33248.51
398.6167, 33235.22
399.0988, 33227.97
399.5810, 33231.77
400.0631, 33283.40
400.5452, 33334.50
401.0273, 33304.68
401.5094, 33168.79
401.9915, 33003.68
402.4737, 32939.21
402.9558, 33022.93
403.4379, 33065.73
403.9200, 33017.24
404.4021, 32969.64
404.8842, 32971.49
405.3664, 33009.95
405.8485, 33039.93
406.3306, 33031.33
406.8127, 32996.07
407.2948, 32959.82
407.7769, 32915.98
408.2591, 32895.53
408.7412, 32935.74
409.2233, 32992.52
409.7054, 33016.24
410.1875, 32998.77
410.6696, 32966.27
411.1518, 32921.85
411.6339, 32875.75
412.1160, 32855.61
412.5981, 32869.14
413.0802, 32887.90
413.5623, 32883.30
414.0445, 32854.94
414.5266, 32843.77
415.0087, 32873.44
415.4908, 32896.71
415.9729, 32878.62
416.4550, 32837.50
416.9372, 32816.44
417.4193, 32835.24
417.9014, 32871.16
418.3835, 32875.71
418.8656, 32821.78
419.3477, 32786.36
419.8299, 32781.90
420.3120, 32782.83
420.7941, 32772.71
421.2762, 32753.26
421.7583, 32737.57
422.2404, 32738.83
422.7226, 32750.61
423.2047, 32741.37
423.6868, 32701.71
424.1689, 32662.40
424.6510, 32620.06
425.1331, 32590.78
425.6153, 32601.35
426.0974, 32662.19
426.5795, 32715.87
427.0616, 32701.25
427.5437, 32641.99
428.0258, 32622.65
428.5080, 32664.81
428.9901, 32713.45
429.4722, 32711.94
429.9543, 32668.36
430.4364, 32656.36
430.9185, 32704.92
431.4007, 32761.71
431.8828, 32808.39
432.3649, 32839.90
432.8470, 32843.16
433.3291, 32811.73
433.8112, 32762.03
434.2934, 32724.55
434.7755, 32707.37
435.2576, 32685.04
435.7397, 32632.41
436.2218, 32597.41
436.7039, 32618.46
437.1861, 32682.52
437.6682, 32748.93
438.1503, 32791.04
438.6324, 32814.95
439.1145, 32844.21
439.5966, 32892.64
440.0788, 32912.02
440.5609, 32865.52
441.0430, 32799.36
441.5251, 32742.18
442.0072, 32698.35
442.4893, 32674.49
442.9715, 32684.33
443.4536, 32716.09
443.9357, 32744.60
444.4178, 32768.91
444.8999, 32779.72
445.3820, 32760.94
445.8642, 32722.50
446.3463, 32712.04
446.8284, 32755.41
447.3105, 32794.74
447.7926, 32811.25
448.2747, 32808.57
448.7569, 32777.41
449.2390, 32718.38
449.7211, 32678.31
450.2032, 32727.89
450.6853, 32901.30
451.1674, 32976.74
451.6496, 32869.14
452.1317, 32760.90
452.6138, 32711.33
453.0959, 32703.93
453.5780, 32706.77
454.0602, 32706.43
454.5423, 32704.97
455.0244, 32704.06
455.5065, 32702.86
455.9886, 32710.33
456.4707, 32734.50
456.9529, 32760.74
457.4350, 32778.38
457.9171, 32788.14
458.3992, 32795.31
458.8813, 32801.64
459.3634, 32806.07
459.8456, 32808.80
460.3277, 32809.00
460.8098, 32797.33
461.2919, 32761.20
461.7740, 32724.49
462.2561, 32747.79
462.7383, 32884.69
463.2204, 32953.51
463.7025, 32878.57
464.1846, 32774.56
464.6667, 32726.82
465.1488, 32736.76
465.6310, 32768.79
466.1131, 32801.85
466.5952, 32830.07
467.0773, 32819.59
467.5594, 32739.75
468.0415, 32678.06
468.5237, 32646.77
469.0058, 32640.54
469.4879, 32669.06
469.9700, 32728.25
470.4521, 32774.66
470.9342, 32765.45
471.4164, 32717.22
471.8985, 32681.61
472.3806, 32662.06
472.8627, 32646.33
473.3448, 32626.04
473.8269, 32605.27
474.3091, 32594.60
474.7912, 32599.30
475.2733, 32603.72
475.7554, 32591.75
476.2375, 32579.93
476.7196, 32598.94
477.2018, 32650.80
477.6839, 32698.59
478.1660, 32704.32
478.6481, 32667.44
479.1302, 32654.08
479.6123, 32708.87
480.0945, 32734.50
480.5766, 32683.64
481.0587, 32609.38
481.5408, 32581.08
482.0229, 32614.73
482.5050, 32648.69
482.9872, 32603.57
483.4693, 32485.60
483.9514, 32391.79
484.4335, 32321.88
484.9156, 32287.56
485.3977, 32341.57
485.8799, 32429.98
486.3620, 32446.83
486.8441, 32329.58
487.3262, 32212.31
487.8083, 32194.27
488.2904, 32234.80
488.7726, 32250.13
489.2547, 32219.80
489.7368, 32171.55
490.2189, 32134.49
490.7010, 32110.47
491.1831, 32079.58
491.6653, 32034.89
492.1474, 31992.50
492.6295, 31949.56
493.1116, 31915.16
493.5937, 31906.38
494.0758, 31927.99
494.5580, 31955.49
495.0401, 31956.11
495.5222, 31928.83
496.0043, 31898.38
496.4864, 31873.79
496.9685, 31833.28
497.4507, 31740.46
497.9328, 31627.71
498.4149, 31560.01
498.8970, 31568.36
499.3791, 31597.56
499.8612, 31615.11
500.3434, 31620.68
500.8255, 31608.14
501.3076, 31574.42
501.7897, 31542.65
502.2718, 31542.23
502.7539, 31578.41
503.2361, 31581.49
503.7182, 31533.36
504.2003, 31477.11
504.6824, 31412.40
505.1645, 31353.32
505.6466, 31322.96
506.1288, 31327.25
506.6109, 31338.57
507.0930, 31316.87
507.5751, 31259.74
508.0572, 31218.67
508.5393, 31204.94
509.0215, 31192.25
509.5036, 31153.55
509.9857, 31109.82
510.4678, 31100.22
510.9499, 31148.24
511.4320, 31200.09
511.9142, 31223.02
512.3963, 31221.13
512.8784, 31199.98
513.3605, 31160.47
513.8427, 31114.41
514.3248, 31072.33
514.8069, 31034.14
515.2890, 30996.93
515.7711, 30939.89
516.2532, 30908.63
516.7354, 30953.56
517.2175, 31009.92
517.6996, 30993.03
518.1817, 30888.31
518.6638, 30766.15
519.1459, 30701.68
519.6281, 30692.05
520.1102, 30691.95
520.5923, 30705.42
521.0744, 30719.65
521.5565, 30732.00
522.0386, 30739.70
522.5208, 30735.80
523.0029, 30714.20
523.4850, 30698.62
523.9671, 30721.47
524.4492, 30749.76
524.9313, 30711.30
525.4135, 30604.87
525.8956, 30535.56
526.3777, 30596.22
526.8598, 30755.03
527.3419, 30806.51
527.8240, 30618.75
528.3062, 30491.65
528.7883, 30489.38
529.2704, 30523.73
529.7525, 30529.87
530.2346, 30498.83
530.7167, 30449.71
531.1989, 30381.62
531.6810, 30312.60
532.1631, 30312.46
532.6452, 30397.59
533.1273, 30450.36
533.6094, 30405.02
534.0916, 30323.76
534.5737, 30300.72
535.0558, 30343.83
535.5379, 30372.34
536.0200, 30350.73
536.5021, 30316.03
536.9843, 30289.47
537.4664, 30277.56
537.9485, 30301.48
538.4306, 30376.21
538.9127, 30465.09
539.3948, 30473.67
539.8770, 30335.46
540.3591, 30278.85
540.8412, 30411.18
541.3233, 30529.66
541.8054, 30525.85
542.2875, 30434.94
542.7697, 30346.81
543.2518, 30297.00
543.7339, 30274.50
544.2160, 30278.00
544.6981, 30301.37
545.1802, 30303.22
545.6624, 30266.22
546.1445, 30234.17
546.6266, 30254.92
547.1087, 30330.85
547.5908, 30394.64
548.0729, 30425.93
548.5551, 30468.71
549.0372, 30563.10
549.5193, 30667.56
550.0014, 30721.15
550.4835, 30711.81
550.9656, 30681.70
551.4478, 30677.04
551.9299, 30696.27
552.4120, 30701.78
552.8941, 30669.65
553.3762, 30672.72
553.8583, 30791.84
554.3405, 30939.80
554.8226, 31012.52
555.3047, 30987.49
555.7868, 30962.41
556.2689, 30994.74
556.7510, 31048.39
557.2332, 31076.62
557.7153, 31078.57
558.1974, 31077.71
558.6795, 31088.58
559.1616, 31105.38
559.6437, 31111.54
560.1259, 31108.65
560.6080, 31092.42
561.0901, 31055.08
561.5722, 31013.86
562.0543, 30973.15
562.5364, 30937.32
563.0186, 30913.31
563.5007, 30904.38
563.9828, 30909.61
564.4649, 30936.84
564.9470, 30982.16
565.4291, 31007.34
565.9113, 31000.36
566.3934, 30981.17
566.8755, 30968.85
567.3576, 30963.05
567.8397, 30949.73
568.3218, 30932.37
568.8040, 30902.88
569.2861, 30839.40
569.7682, 30771.04
570.2503, 30733.20
570.7324, 30733.40
571.2145, 30758.22
571.6967, 30801.67
572.1788, 30859.27
572.6609, 30890.77
573.1430, 30891.81
573.6251, 30877.56
574.1072, 30829.67
574.5894, 30784.13
575.0715, 30788.53
575.5536, 30849.33
576.0357, 30898.76
576.5178, 30883.91
576.9999, 30865.40
577.4821, 30926.41
577.9642, 31042.37
578.4463, 31109.87
578.9284, 31077.95
579.4105, 30997.27
579.8926, 30964.13
580.3748, 30993.19
580.8569, 31024.22
581.3390, 31054.27
581.8211, 31090.42
582.3032, 31146.06
582.7853, 31206.63
583.2675, 31247.16
583.7496, 31257.65
584.2317, 31257.07
584.7138, 31244.31
585.1959, 31235.13
585.6780, 31284.48
586.1602, 31400.23
586.6422, 31504.17
587.1243, 31530.71
587.6064, 31504.45
588.0886, 31537.83
588.5707, 31726.78
589.0528, 31843.89
589.5349, 31827.99
590.0170, 31780.51
590.4991, 31768.00
590.9813, 31791.65
591.4634, 31823.55
591.9455, 31843.93
592.4276, 31870.66
592.9097, 31951.55
593.3918, 32083.54
593.8740, 32166.53
594.3561, 32159.65
594.8382, 32143.08
595.3203, 32198.86
595.8024, 32322.83
596.2845, 32419.70
596.7667, 32466.21
597.2488, 32512.08
597.7309, 32569.40
598.2130, 32637.63
598.6951, 32722.64
599.1772, 32821.13
599.6594, 32911.91
600.1415, 32974.74
600.6236, 33015.36
601.1057, 33052.32
601.5878, 33076.01
602.0699, 33140.13
602.5521, 33307.29
603.0342, 33478.27
603.5163, 33518.02
603.9984, 33432.89
604.4805, 33417.75
604.9626, 33589.70
605.4448, 33777.63
605.9269, 33867.37
606.4090, 33889.62
606.8911, 33900.93
607.3732, 33921.89
607.8553, 33965.82
608.3375, 34056.50
608.8196, 34194.07
609.3017, 34300.09
609.7838, 34366.27
610.2659, 34415.93
610.7480, 34452.23
611.2302, 34479.05
611.7123, 34495.14
612.1944, 34499.90
612.6765, 34514.79
613.1586, 34567.88
613.6407, 34622.06
614.1229, 34625.25
614.6050, 34594.11
615.0871, 34591.18
615.5692, 34643.71
616.0513, 34720.71
616.5334, 34774.21
617.0156, 34802.07
617.4977, 34817.27
617.9798, 34806.41
618.4619, 34799.05
618.9440, 34818.28
619.4261, 34839.93
619.9083, 34825.32
620.3904, 34763.04
620.8725, 34712.16
621.3546, 34728.19
621.8367, 34767.13
622.3188, 34764.92
622.8010, 34722.21
623.2831, 34670.14
623.7652, 34623.72
624.2473, 34578.39
624.7294, 34522.26
625.2115, 34444.38
625.6937, 34390.71
626.1758, 34384.20
626.6579, 34378.53
627.1400, 34370.17
627.6221, 34348.68
628.1042, 34297.54
628.5864, 34210.60
629.0685, 34110.13
629.5506, 33988.60
630.0327, 33872.84
630.5148, 33835.56
630.9969, 33870.98
631.4791, 33863.49
631.9612, 33743.98
632.4433, 33561.47
632.9254, 33431.05
633.4075, 33391.20
633.8896, 33310.81
634.3718, 33144.84
634.8539, 32987.55
635.3360, 32885.88
635.8181, 32816.38
636.3002, 32737.90
636.7823, 32637.05
637.2645, 32532.46
637.7466, 32448.28
638.2287, 32368.36
638.7108, 32243.40
639.1929, 32074.19
639.6750, 31944.96
640.1572, 31910.05
640.6393, 31925.62
641.1214, 31884.76
641.6035, 31750.79
642.0856, 31641.92
642.5677, 31577.71
643.0499, 31515.51
643.5320, 31428.07
644.0141, 31332.98
644.4962, 31264.49
644.9783, 31235.65
645.4604, 31212.70
645.9426, 31159.87
646.4247, 31095.88
646.9068, 31068.06
647.3889, 31076.07
647.8710, 31062.58
648.3531, 30990.64
648.8353, 30893.06
649.3174, 30846.44
649.7995, 30879.54
650.2816, 30892.25
650.7637, 30853.54
651.2458, 30828.13
651.7280, 30861.37
652.2101, 30917.13
652.6922, 30937.77
653.1743, 30905.04
653.6564, 30857.38
654.1385, 30819.26
654.6207, 30786.86
655.1028, 30758.54
655.5849, 30731.84
656.0670, 30691.36
656.5491, 30629.33
657.0313, 30550.34
657.5134, 30462.00
657.9955, 30359.79
658.4776, 30262.14
658.9597, 30159.72
659.4418, 30073.18
659.9240, 30044.11
660.4061, 30019.32
660.8882, 29913.18
661.3703, 29701.95
661.8524, 29501.96
662.3345, 29394.35
662.8167, 29332.48
663.2988, 29270.66
663.7809, 29201.07
664.2630, 29102.48
664.7451, 28964.52
665.2272, 28813.07
665.7094, 28692.64
666.1915, 28610.61
666.6736, 28504.48
667.1557, 28337.14
667.6378, 28200.87
668.1199, 28162.17
668.6021, 28148.51
669.0842, 28068.98
669.5663, 27911.77
670.0484, 27777.54
670.5305, 27734.04
671.0126, 27713.77
671.4948, 27663.21
671.9769, 27583.18
672.4590, 27468.56
