##NAMES=Gehlenite
##RRUFFID=R061091
##IDEAL CHEMISTRY=Ca_2_Al(SiAl)O_7_
##LOCALITY=Carneal Plug, Glenoe Larne District, County Antrim, Northern Ireland
##OWNER=RRUFF
##SOURCE=Michael Scott
##DESCRIPTION=Yellowish-brown anhedral blebs associated with black magnetite and white wollastonite
##STATUS=The identification of this mineral is confirmed by single-crystal X-ray diffraction and chemical analysis.
##URL=rruff.info/R061091
##MEASURED CHEMISTRY=(Ca_1.64_Na_0.36_)_Σ=2_(Al_0.38_Fe_0.36_Mg_0.26_)_Σ=1_(Si_1.98_Al_0.02_)_Σ=2_O_7_
137.0571, 1428.063
137.5392, 1437.463
138.0213, 1461.071
138.5035, 1485.631
138.9856, 1504.692
139.4677, 1518.807
139.9498, 1527.561
140.4319, 1518.269
140.9140, 1519.884
141.3961, 1559.507
141.8783, 1636.931
142.3604, 1720.519
142.8425, 1785.541
143.3246, 1833.254
143.8067, 1887.584
144.2888, 1957.836
144.7710, 2032.598
145.2531, 2107.439
145.7352, 2164.318
146.2173, 2188.412
146.6994, 2178.880
147.1815, 2151.441
147.6637, 2130.537
148.1458, 2126.939
148.6279, 2125.353
149.1100, 2116.179
149.5921, 2098.577
150.0742, 2080.548
150.5564, 2073.111
151.0385, 2079.489
151.5206, 2077.764
152.0027, 2058.950
152.4848, 2034.481
152.9669, 2007.619
153.4491, 1979.533
153.9312, 1953.744
154.4133, 1937.484
154.8954, 1936.235
155.3775, 1925.496
155.8596, 1891.423
156.3418, 1854.562
156.8239, 1828.327
157.3060, 1815.587
157.7881, 1809.609
158.2702, 1800.153
158.7523, 1784.871
159.2345, 1771.675
159.7166, 1759.077
160.1987, 1749.726
160.6808, 1747.174
161.1629, 1751.919
161.6451, 1759.365
162.1272, 1761.970
162.6093, 1759.384
163.0914, 1753.167
163.5735, 1738.392
164.0556, 1724.307
164.5378, 1720.107
165.0199, 1727.881
165.5020, 1740.098
165.9841, 1742.780
166.4662, 1729.078
166.9483, 1717.636
167.4305, 1709.641
167.9126, 1703.615
168.3947, 1699.318
168.8768, 1696.413
169.3589, 1693.035
169.8410, 1685.236
170.3232, 1667.153
170.8053, 1653.280
171.2874, 1644.767
171.7695, 1639.434
172.2516, 1635.395
172.7337, 1631.944
173.2159, 1629.334
173.6980, 1628.300
174.1801, 1632.816
174.6622, 1632.950
175.1443, 1625.745
175.6264, 1615.642
176.1085, 1607.062
176.5907, 1601.440
177.0728, 1596.457
177.5549, 1587.544
178.0370, 1565.419
178.5191, 1552.401
179.0012, 1554.381
179.4834, 1562.484
179.9655, 1569.303
180.4476, 1572.302
180.9297, 1571.681
181.4118, 1567.675
181.8939, 1555.302
182.3761, 1546.827
182.8582, 1545.113
183.3403, 1546.024
183.8224, 1544.928
184.3045, 1540.446
184.7866, 1535.526
185.2688, 1535.523
185.7509, 1547.944
186.2330, 1552.905
186.7151, 1546.201
187.1972, 1533.823
187.6793, 1521.686
188.1615, 1511.428
188.6436, 1501.033
189.1257, 1486.853
189.6078, 1463.952
190.0899, 1446.856
190.5720, 1436.571
191.0542, 1431.829
191.5363, 1432.120
192.0184, 1437.229
192.5005, 1445.597
192.9826, 1455.375
193.4647, 1469.025
193.9469, 1478.366
194.4290, 1483.498
194.9111, 1484.189
195.3932, 1478.694
195.8753, 1466.901
196.3574, 1452.902
196.8396, 1441.677
197.3217, 1432.367
197.8038, 1429.789
198.2859, 1442.774
198.7680, 1457.680
199.2501, 1460.516
199.7323, 1448.902
200.2144, 1432.500
200.6965, 1422.084
201.1786, 1418.341
201.6607, 1421.576
202.1428, 1437.984
202.6250, 1457.635
203.1071, 1474.423
203.5892, 1486.882
204.0713, 1491.997
204.5534, 1484.100
205.0355, 1457.392
205.5177, 1444.828
205.9998, 1457.076
206.4819, 1475.886
206.9640, 1487.334
207.4461, 1490.073
207.9282, 1491.415
208.4104, 1499.540
208.8925, 1516.409
209.3746, 1522.424
209.8567, 1507.732
210.3388, 1490.120
210.8209, 1480.422
211.3030, 1479.464
211.7852, 1483.802
212.2673, 1490.982
212.7494, 1501.228
213.2315, 1513.510
213.7136, 1532.941
214.1957, 1549.902
214.6779, 1556.333
215.1600, 1553.971
215.6421, 1552.789
216.1242, 1561.284
216.6063, 1578.990
217.0884, 1588.006
217.5706, 1585.470
218.0527, 1578.601
218.5348, 1565.527
219.0169, 1549.877
219.4990, 1543.210
219.9811, 1555.073
220.4633, 1582.598
220.9454, 1597.472
221.4275, 1587.910
221.9096, 1580.776
222.3917, 1591.748
222.8738, 1613.135
223.3560, 1625.777
223.8381, 1617.984
224.3202, 1594.154
224.8023, 1575.961
225.2844, 1563.947
225.7665, 1555.655
226.2487, 1552.059
226.7308, 1551.654
227.2129, 1552.298
227.6950, 1553.165
228.1771, 1553.819
228.6592, 1552.871
229.1414, 1551.734
229.6235, 1547.367
230.1056, 1535.492
230.5877, 1521.288
231.0698, 1512.439
231.5519, 1511.974
232.0341, 1515.620
232.5162, 1514.356
232.9983, 1503.727
233.4804, 1494.742
233.9625, 1488.306
234.4446, 1483.436
234.9268, 1480.441
235.4089, 1479.186
235.8910, 1476.402
236.3731, 1466.283
236.8552, 1439.764
237.3373, 1424.847
237.8195, 1433.693
238.3016, 1445.887
238.7837, 1443.789
239.2658, 1425.292
239.7479, 1402.029
240.2300, 1387.763
240.7122, 1385.209
241.1943, 1383.797
241.6764, 1383.838
242.1585, 1384.582
242.6406, 1385.680
243.1227, 1387.069
243.6049, 1389.084
244.0870, 1392.618
244.5691, 1398.643
245.0512, 1398.137
245.5333, 1386.865
246.0154, 1374.248
246.4975, 1362.364
246.9797, 1352.251
247.4618, 1345.781
247.9439, 1345.060
248.4260, 1349.728
248.9081, 1348.770
249.3902, 1335.460
249.8724, 1323.660
250.3545, 1315.418
250.8366, 1311.087
251.3187, 1311.396
251.8008, 1317.209
252.2829, 1326.843
252.7651, 1332.804
253.2472, 1333.787
253.7293, 1332.165
254.2114, 1326.383
254.6935, 1318.980
255.1756, 1312.723
255.6578, 1308.840
256.1399, 1306.457
256.6220, 1303.642
257.1041, 1300.552
257.5862, 1296.671
258.0684, 1291.353
258.5505, 1285.708
259.0326, 1279.981
259.5147, 1274.461
259.9968, 1257.728
260.4789, 1271.832
260.9611, 1278.685
261.4432, 1278.680
261.9253, 1251.270
262.4074, 1259.247
262.8895, 1253.043
263.3716, 1246.257
263.8537, 1259.215
264.3358, 1235.791
264.8180, 1248.436
265.3001, 1246.683
265.7822, 1251.519
266.2643, 1242.086
266.7464, 1237.061
267.2285, 1247.546
267.7107, 1257.456
268.1928, 1254.233
268.6749, 1240.427
269.1570, 1234.295
269.6391, 1241.458
270.1212, 1248.199
270.6034, 1249.084
271.0855, 1245.563
271.5676, 1239.772
272.0497, 1231.865
272.5318, 1223.072
273.0139, 1215.798
273.4961, 1209.522
273.9782, 1206.250
274.4603, 1206.287
274.9424, 1209.904
275.4245, 1219.358
275.9066, 1237.955
276.3888, 1256.013
276.8709, 1261.276
277.3530, 1253.196
277.8351, 1242.305
278.3172, 1226.252
278.7993, 1213.450
279.2815, 1215.594
279.7636, 1236.367
280.2457, 1254.723
280.7278, 1251.660
281.2099, 1232.243
281.6920, 1220.379
282.1742, 1223.749
282.6563, 1232.788
283.1384, 1238.035
283.6205, 1239.758
284.1026, 1238.232
284.5847, 1231.026
285.0669, 1221.369
285.5490, 1213.384
286.0311, 1207.065
286.5132, 1206.014
286.9953, 1217.334
287.4774, 1238.997
287.9596, 1254.233
288.4417, 1253.550
288.9238, 1250.440
289.4059, 1259.765
289.8880, 1280.629
290.3701, 1296.869
290.8523, 1296.406
291.3344, 1282.003
291.8165, 1273.386
292.2986, 1271.833
292.7807, 1274.109
293.2628, 1282.053
293.7450, 1292.844
294.2271, 1298.143
294.7092, 1292.547
295.1913, 1283.189
295.6734, 1290.571
296.1555, 1333.304
296.6377, 1363.793
297.1198, 1369.789
297.6019, 1363.359
298.0840, 1356.330
298.5661, 1352.274
299.0482, 1350.449
299.5304, 1349.998
300.0125, 1352.051
300.4946, 1352.571
300.9767, 1348.943
301.4588, 1346.046
301.9409, 1349.183
302.4231, 1357.015
302.9052, 1362.286
303.3873, 1357.498
303.8694, 1341.719
304.3515, 1332.612
304.8336, 1335.759
305.3158, 1339.804
305.7979, 1345.072
306.2800, 1348.577
306.7621, 1344.678
307.2442, 1329.007
307.7263, 1306.105
308.2085, 1293.191
308.6906, 1300.314
309.1727, 1300.725
309.6548, 1283.411
310.1369, 1261.112
310.6190, 1246.290
311.1012, 1242.844
311.5833, 1245.069
312.0654, 1245.351
312.5475, 1243.399
313.0296, 1240.892
313.5117, 1239.728
313.9939, 1236.635
314.4760, 1228.863
314.9581, 1216.649
315.4402, 1203.382
315.9223, 1193.131
316.4044, 1184.666
316.8866, 1168.998
317.3687, 1139.195
317.8508, 1113.595
318.3329, 1107.054
318.8150, 1113.522
319.2971, 1119.152
319.7793, 1120.547
320.2614, 1117.380
320.7435, 1107.071
321.2256, 1089.000
321.7077, 1072.631
322.1898, 1062.461
322.6720, 1057.837
323.1541, 1056.957
323.6362, 1062.129
324.1183, 1067.047
324.6004, 1067.309
325.0826, 1064.293
325.5647, 1062.860
326.0468, 1065.714
326.5289, 1068.286
327.0110, 1061.209
327.4931, 1041.686
327.9753, 1025.999
328.4574, 1019.693
328.9395, 1017.252
329.4216, 1013.141
329.9037, 1006.495
330.3858, 999.1049
330.8680, 992.7330
331.3501, 987.5765
331.8322, 981.4656
332.3143, 969.8997
332.7964, 961.8916
333.2785, 965.5206
333.7606, 976.0426
334.2427, 981.8856
334.7249, 975.7825
335.2070, 960.8653
335.6891, 950.6497
336.1712, 950.3306
336.6533, 948.2681
337.1354, 940.9211
337.6176, 932.7081
338.0997, 928.0128
338.5818, 928.0821
339.0639, 930.7971
339.5460, 934.2574
340.0281, 940.4091
340.5103, 940.2911
340.9924, 925.7900
341.4745, 911.4561
341.9566, 903.8336
342.4387, 902.5793
342.9208, 904.2471
343.4030, 907.5399
343.8851, 911.8015
344.3672, 913.5128
344.8493, 912.2545
345.3314, 909.1754
345.8135, 903.9896
346.2957, 897.6966
346.7778, 891.5555
347.2599, 885.9202
347.7420, 880.6982
348.2241, 874.3145
348.7062, 866.9395
349.1884, 865.5990
349.6705, 877.6866
350.1526, 892.0246
350.6347, 891.6927
351.1168, 874.1490
351.5989, 860.2645
352.0811, 864.6384
352.5632, 876.8734
353.0453, 877.7272
353.5274, 863.2050
354.0095, 846.6265
354.4916, 841.1816
354.9738, 847.8649
355.4559, 848.7261
355.9380, 836.7083
356.4201, 825.0914
356.9022, 822.5776
357.3843, 827.2206
357.8665, 832.2675
358.3486, 834.1473
358.8307, 833.3513
359.3128, 831.6860
359.7949, 827.2389
360.2770, 824.2708
360.7592, 825.3340
361.2413, 826.7708
361.7234, 824.5067
362.2055, 817.8442
362.6876, 809.6360
363.1697, 802.9407
363.6519, 796.9463
364.1340, 796.0631
364.6161, 810.1005
365.0982, 819.9518
365.5803, 814.4784
366.0624, 798.7547
366.5446, 785.4650
367.0267, 782.7139
367.5088, 787.6436
367.9909, 791.4206
368.4730, 792.9504
368.9551, 796.0757
369.4373, 807.7104
369.9194, 818.7295
370.4015, 818.4401
370.8836, 803.0310
371.3657, 786.6681
371.8478, 784.2028
372.3300, 792.8497
372.8121, 795.3823
373.2942, 785.9100
373.7763, 774.1223
374.2584, 771.3488
374.7405, 776.1273
375.2227, 778.0402
375.7048, 769.0002
376.1869, 759.3283
376.6690, 762.0645
377.1511, 776.3859
377.6332, 789.0023
378.1154, 791.8999
378.5975, 786.5769
379.0796, 780.4705
379.5617, 768.6412
380.0438, 762.0726
380.5259, 769.3335
381.0081, 781.0037
381.4902, 783.5366
381.9723, 773.2534
382.4544, 758.4632
382.9365, 750.9185
383.4186, 752.9328
383.9008, 754.9121
384.3829, 757.9464
384.8650, 759.9453
385.3471, 759.4952
385.8292, 757.1537
386.3113, 754.4867
386.7935, 752.6334
387.2756, 751.1456
387.7577, 747.6589
388.2398, 739.1697
388.7219, 735.0826
389.2040, 742.5986
389.6862, 752.6990
390.1683, 756.6667
390.6504, 752.4564
391.1325, 746.7214
391.6146, 744.8379
392.0967, 746.6587
392.5789, 752.7093
393.0610, 767.1591
393.5431, 778.1235
394.0252, 771.1711
394.5073, 751.0266
394.9894, 735.1493
395.4716, 727.6644
395.9537, 726.4553
396.4358, 732.5533
396.9179, 744.5126
397.4000, 753.9415
397.8821, 756.5854
398.3643, 753.9822
398.8464, 750.2043
399.3285, 745.0212
399.8106, 739.1990
400.2927, 727.9540
400.7748, 718.7817
401.2570, 723.1997
401.7391, 741.1965
402.2212, 758.4279
402.7033, 758.7913
403.1854, 740.1238
403.6675, 728.9554
404.1497, 727.8096
404.6317, 731.7054
405.1139, 745.5765
405.5960, 762.1807
406.0781, 769.9766
406.5602, 763.1975
407.0423, 749.5940
407.5244, 743.7834
408.0066, 747.9362
408.4887, 750.0655
408.9708, 744.9979
409.4529, 739.6940
409.9350, 740.0854
410.4171, 745.6176
410.8993, 749.3895
411.3814, 743.5055
411.8635, 734.1417
412.3456, 735.6390
412.8277, 749.9399
413.3098, 763.5598
413.7920, 769.0237
414.2741, 767.1856
414.7562, 762.6752
415.2383, 751.9571
415.7204, 743.6996
416.2025, 744.4615
416.6847, 749.4078
417.1668, 749.6987
417.6489, 742.9219
418.1310, 734.6273
418.6131, 732.3397
419.0952, 738.5322
419.5774, 740.0842
420.0595, 730.3896
420.5416, 723.2587
421.0237, 725.2890
421.5058, 734.7202
421.9879, 748.1755
422.4701, 764.4247
422.9522, 780.5494
423.4343, 788.2993
423.9164, 784.6585
424.3985, 780.0322
424.8806, 775.5522
425.3628, 771.1298
425.8449, 764.7659
426.3270, 757.1823
426.8091, 754.4874
427.2912, 765.6922
427.7733, 785.0803
428.2555, 793.8160
428.7376, 788.5981
429.2197, 784.2610
429.7018, 791.7993
430.1839, 806.2181
430.6660, 815.3620
431.1482, 816.2153
431.6303, 815.2775
432.1124, 813.2728
432.5945, 812.3190
433.0766, 817.6912
433.5587, 831.0118
434.0409, 846.3535
434.5230, 856.5906
435.0051, 860.7735
435.4872, 863.9033
435.9693, 863.8966
436.4514, 865.0891
436.9336, 869.9255
437.4157, 877.3765
437.8978, 885.6829
438.3799, 894.1192
438.8620, 901.7068
439.3441, 904.9168
439.8263, 899.8520
440.3084, 901.3410
440.7905, 916.6002
441.2726, 934.9578
441.7547, 951.6715
442.2368, 966.0741
442.7190, 978.3278
443.2011, 988.4576
443.6832, 996.5193
444.1653, 1002.027
444.6474, 1004.566
445.1295, 1007.538
445.6117, 1012.574
446.0938, 1019.285
446.5759, 1026.746
447.0580, 1035.557
447.5401, 1043.624
448.0222, 1048.912
448.5044, 1053.500
448.9865, 1061.162
449.4686, 1072.280
449.9507, 1082.635
450.4328, 1087.755
450.9149, 1087.392
451.3971, 1089.709
451.8792, 1098.666
452.3613, 1105.572
452.8434, 1107.333
453.3255, 1106.150
453.8076, 1105.552
454.2898, 1106.666
454.7719, 1106.371
455.2540, 1098.782
455.7361, 1082.601
456.2182, 1070.465
456.7003, 1062.661
457.1825, 1060.058
457.6646, 1067.575
458.1467, 1080.238
458.6288, 1085.191
459.1109, 1073.786
459.5930, 1057.048
460.0752, 1046.958
460.5573, 1042.636
461.0394, 1038.896
461.5215, 1034.406
462.0036, 1028.717
462.4857, 1019.671
462.9679, 1004.609
463.4500, 997.9623
463.9321, 1008.241
464.4142, 1021.408
464.8963, 1029.253
465.3784, 1031.327
465.8606, 1028.636
466.3427, 1021.219
466.8248, 1011.524
467.3069, 1007.522
467.7890, 1011.089
468.2711, 1017.080
468.7533, 1029.259
469.2354, 1040.141
469.7175, 1042.704
470.1996, 1037.918
470.6817, 1033.967
471.1638, 1037.917
471.6460, 1047.062
472.1281, 1052.821
472.6102, 1054.175
473.0923, 1057.808
473.5744, 1067.755
474.0565, 1081.589
474.5387, 1095.383
475.0208, 1111.502
475.5029, 1120.684
475.9850, 1113.395
476.4671, 1099.976
476.9492, 1094.549
477.4313, 1098.374
477.9135, 1102.500
478.3956, 1099.067
478.8777, 1088.964
479.3598, 1083.956
479.8419, 1089.683
480.3240, 1093.897
480.8062, 1092.920
481.2883, 1090.902
481.7704, 1093.923
482.2525, 1102.411
482.7346, 1108.607
483.2167, 1102.174
483.6989, 1084.277
484.1810, 1072.374
484.6631, 1069.262
485.1452, 1066.694
485.6273, 1056.750
486.1094, 1045.416
486.5916, 1043.091
487.0737, 1056.151
487.5558, 1067.524
488.0379, 1064.608
488.5200, 1052.871
489.0021, 1043.435
489.4843, 1038.621
489.9664, 1034.007
490.4485, 1024.582
490.9306, 1009.866
491.4127, 1001.758
491.8948, 1007.065
492.3770, 1009.965
492.8591, 1006.072
493.3412, 997.4034
493.8233, 984.3889
494.3054, 967.9331
494.7875, 954.1599
495.2697, 953.0297
495.7518, 965.3059
496.2339, 972.0009
496.7160, 968.7488
497.1981, 966.0865
497.6802, 974.2075
498.1624, 985.5712
498.6445, 985.8503
499.1266, 965.9311
499.6087, 946.0509
500.0908, 943.3763
500.5729, 952.3623
501.0551, 959.8405
501.5372, 962.9794
502.0193, 963.1423
502.5014, 961.5920
502.9835, 958.3024
503.4656, 953.2586
503.9478, 943.0210
504.4299, 935.2276
504.9120, 932.6141
505.3941, 933.7379
505.8762, 937.9163
506.3583, 944.5323
506.8405, 950.0596
507.3226, 948.9664
507.8047, 940.8295
508.2868, 934.6838
508.7689, 930.6238
509.2510, 928.7553
509.7332, 928.3719
510.2153, 930.2316
510.6974, 936.7368
511.1795, 951.4389
511.6616, 963.9290
512.1437, 962.9302
512.6259, 954.6180
513.1080, 955.3669
513.5901, 968.8910
514.0722, 980.5378
514.5543, 974.7421
515.0364, 950.9931
515.5186, 938.4946
516.0007, 945.8649
516.4828, 952.5729
516.9649, 954.2141
517.4470, 952.3021
517.9291, 947.6484
518.4113, 940.9593
518.8934, 935.1929
519.3755, 933.5229
519.8576, 935.8690
520.3397, 941.2647
520.8218, 953.3665
521.3040, 960.7552
521.7861, 952.8885
522.2682, 938.1566
522.7503, 927.7549
523.2324, 923.7195
523.7145, 922.1724
524.1967, 918.7023
524.6788, 917.3420
525.1609, 929.2920
525.6430, 954.4766
526.1251, 971.9344
526.6072, 962.7970
527.0894, 931.5789
527.5715, 917.6092
528.0536, 944.1728
528.5357, 958.5307
529.0178, 948.4318
529.4999, 929.3282
529.9821, 912.5891
530.4642, 900.5609
530.9463, 891.5251
531.4284, 884.9332
531.9105, 880.0894
532.3926, 873.1094
532.8748, 862.5468
533.3569, 858.9677
533.8390, 871.9696
534.3211, 890.4968
534.8032, 895.9430
535.2853, 885.6526
535.7675, 875.9337
536.2496, 869.4499
536.7317, 866.6413
537.2138, 870.9700
537.6959, 879.9612
538.1780, 884.3355
538.6602, 878.1161
539.1423, 866.3784
539.6244, 863.6089
540.1065, 876.8759
540.5886, 882.7792
541.0707, 874.9608
541.5529, 863.6892
542.0350, 851.2823
542.5171, 839.6609
542.9992, 833.0731
543.4813, 834.4921
543.9634, 840.6060
544.4456, 849.9557
544.9277, 861.3146
545.4098, 866.4373
545.8919, 862.0341
546.3740, 853.4200
546.8561, 846.4507
547.3383, 841.3798
547.8204, 836.6577
548.3025, 832.5582
548.7846, 828.5033
549.2667, 825.9802
549.7488, 822.7701
550.2310, 813.4464
550.7131, 796.9249
551.1952, 781.9686
551.6773, 783.2601
552.1594, 801.0182
552.6415, 806.3619
553.1237, 792.1917
553.6058, 778.6641
554.0879, 778.3508
554.5700, 784.6315
555.0521, 788.4628
555.5342, 788.4225
556.0164, 786.8666
556.4985, 784.5533
556.9806, 781.6193
557.4627, 778.8252
557.9448, 775.9584
558.4269, 770.1650
558.9091, 758.2319
559.3912, 743.1289
559.8733, 739.4739
560.3554, 756.8030
560.8375, 769.6537
561.3196, 778.5777
561.8018, 780.4979
562.2839, 770.0746
562.7660, 749.7474
563.2481, 729.4937
563.7302, 713.4781
564.2123, 702.3019
564.6945, 698.8050
565.1766, 702.3160
565.6587, 705.1131
566.1408, 704.2326
566.6229, 702.8965
567.1050, 705.1205
567.5872, 711.4559
568.0693, 719.0765
568.5514, 733.4318
569.0335, 743.2241
569.5156, 741.0835
569.9977, 732.0197
570.4799, 721.9737
570.9620, 713.3618
571.4441, 708.8621
571.9262, 714.8423
572.4083, 730.7869
572.8904, 737.4596
573.3726, 730.8359
573.8547, 723.6833
574.3368, 721.4077
574.8189, 723.2524
575.3010, 728.5935
575.7831, 738.9118
576.2653, 748.1039
576.7474, 754.9179
577.2295, 758.7218
577.7116, 758.3195
578.1937, 754.0267
578.6758, 746.3097
579.1580, 734.6340
579.6401, 722.6744
580.1222, 722.7877
580.6042, 742.6284
581.0864, 755.4587
581.5685, 753.7124
582.0506, 748.5656
582.5327, 744.3176
583.0148, 741.2039
583.4969, 738.5396
583.9791, 734.3844
584.4612, 733.1217
584.9433, 743.5260
585.4254, 760.2275
585.9075, 765.7430
586.3896, 755.5516
586.8718, 742.6955
587.3539, 739.9926
587.8360, 747.3354
588.3181, 753.9143
588.8002, 760.7988
589.2823, 765.6202
589.7645, 765.9260
590.2466, 765.3608
590.7287, 768.1053
591.2108, 774.1777
591.6929, 779.0775
592.1750, 777.2127
592.6572, 772.7308
593.1393, 776.2073
593.6214, 787.5717
594.1035, 796.6722
594.5856, 798.4944
595.0677, 798.3893
595.5499, 804.8270
596.0320, 820.0726
596.5141, 831.8816
596.9962, 838.1663
597.4783, 842.8387
597.9604, 845.9484
598.4426, 849.2685
598.9247, 856.6877
599.4068, 869.1938
599.8889, 880.6238
600.3710, 881.2965
600.8531, 872.7718
601.3353, 871.1046
601.8174, 877.3660
602.2995, 888.6003
602.7816, 905.7124
603.2637, 925.8111
603.7458, 942.9113
604.2280, 956.5763
604.7101, 969.0648
605.1922, 980.8169
605.6743, 991.7629
606.1564, 999.9702
606.6385, 1007.296
607.1207, 1018.936
607.6028, 1037.798
608.0849, 1060.282
608.5670, 1079.168
609.0491, 1093.724
609.5313, 1111.963
610.0134, 1136.400
610.4955, 1161.635
610.9776, 1183.483
611.4597, 1203.957
611.9418, 1226.225
612.4240, 1248.197
612.9061, 1277.302
613.3882, 1323.230
613.8703, 1374.602
614.3524, 1418.032
614.8345, 1452.360
615.3167, 1480.242
615.7988, 1501.921
616.2809, 1523.626
616.7630, 1566.123
617.2451, 1636.543
617.7272, 1705.725
618.2094, 1772.969
618.6915, 1835.183
619.1736, 1889.287
619.6557, 1937.347
620.1378, 1985.474
620.6199, 2030.608
621.1021, 2083.633
621.5842, 2158.358
622.0663, 2243.835
622.5484, 2320.360
623.0305, 2385.303
623.5126, 2451.717
623.9948, 2532.244
624.4769, 2621.599
624.9590, 2686.879
625.4411, 2713.581
625.9232, 2747.010
626.4053, 2808.779
626.8875, 2867.688
627.3696, 2900.028
627.8517, 2910.617
628.3338, 2923.294
628.8159, 2959.140
629.2980, 2986.426
629.7802, 2973.085
630.2623, 2932.188
