##NAMES=Geikielite
##RRUFFID=R070479
##IDEAL CHEMISTRY=MgTi^4+^O_3_
##LOCALITY=Colombo, Sri Lanka
##OWNER=RRUFF
##SOURCE=Royal Ontario Museum
##DESCRIPTION=Dark red fragment
##STATUS=The identification of this mineral has been confirmed only by single crystal X-ray diffraction.
##URL=rruff.info/R070479
93.74609, 2.110255
94.22821, 2.135147
94.71033, 2.087112
95.19244, 1.997248
95.67456, 1.978744
96.15668, 2.111467
96.63879, 2.352360
97.12091, 2.568124
97.60303, 2.762190
98.08514, 2.924016
98.56726, 3.013711
99.04938, 3.029178
99.53149, 3.066121
100.0136, 3.169642
100.4957, 3.339481
100.9778, 3.546633
101.4600, 3.797054
101.9421, 4.076035
102.4242, 4.341951
102.9063, 4.593463
103.3884, 4.841013
103.8705, 5.083249
104.3527, 5.313715
104.8348, 5.568911
105.3169, 5.864547
105.7990, 6.191646
106.2811, 6.510086
106.7632, 6.832307
107.2454, 7.129962
107.7275, 7.376445
108.2096, 7.556926
108.6917, 7.709909
109.1738, 7.822564
109.6559, 7.885742
110.1381, 8.003511
110.6202, 8.190914
111.1023, 8.428359
111.5844, 8.696487
112.0665, 8.968177
112.5486, 9.299167
113.0308, 9.716872
113.5129, 10.25116
113.9950, 10.77711
114.4771, 11.29501
114.9592, 11.78982
115.4413, 12.24708
115.9235, 12.61590
116.4056, 12.97888
116.8877, 13.37761
117.3698, 13.85958
117.8519, 14.29812
118.3340, 14.65587
118.8162, 14.93874
119.2983, 15.15993
119.7804, 15.26471
120.2625, 15.34425
120.7446, 15.46419
121.2267, 15.62516
121.7089, 15.85129
122.1910, 16.22335
122.6731, 16.70297
123.1552, 17.11099
123.6373, 17.33313
124.1194, 17.42120
124.6016, 17.43390
125.0837, 17.28534
125.5658, 17.14788
126.0479, 17.21627
126.5300, 17.48483
127.0121, 17.82597
127.4943, 18.15943
127.9764, 18.48470
128.4585, 18.81007
128.9406, 19.13528
129.4227, 19.46050
129.9048, 19.79166
130.3869, 20.13187
130.8691, 20.45306
131.3512, 20.74481
131.8333, 20.93173
132.3154, 20.93022
132.7975, 20.71674
133.2796, 20.38781
133.7618, 20.25766
134.2439, 20.34980
134.7260, 20.57675
135.2081, 20.85513
135.6902, 21.19210
136.1723, 21.44650
136.6545, 21.47968
137.1366, 21.29294
137.6187, 21.27082
138.1008, 21.46651
138.5829, 21.79717
139.0650, 22.12180
139.5472, 22.48133
140.0293, 22.69446
140.5114, 22.60076
140.9935, 22.11311
141.4756, 21.72298
141.9577, 21.47534
142.4399, 21.35080
142.9220, 21.26620
143.4041, 21.20794
143.8862, 21.20712
144.3683, 21.29910
144.8504, 21.53633
145.3326, 21.74460
145.8147, 21.89580
146.2968, 21.99463
146.7789, 22.08305
147.2610, 22.18107
147.7431, 22.25392
148.2253, 22.26813
148.7074, 22.15510
149.1895, 22.07904
149.6716, 22.05630
150.1537, 22.08164
150.6358, 22.19256
151.1180, 22.46206
151.6001, 22.78374
152.0822, 23.04291
152.5643, 23.26200
153.0464, 23.39896
153.5285, 23.41674
154.0107, 23.27218
154.4928, 23.18032
154.9749, 23.24868
155.4570, 23.34835
155.9391, 23.31661
156.4212, 22.93121
156.9034, 22.58879
157.3855, 22.43477
157.8676, 22.54581
158.3497, 22.65753
158.8318, 22.74482
159.3139, 22.80120
159.7961, 22.81619
160.2782, 22.72237
160.7603, 22.63590
161.2424, 22.61267
161.7245, 22.67420
162.2066, 22.76842
162.6888, 22.92237
163.1709, 23.09860
163.6530, 23.21421
164.1351, 23.17456
164.6172, 23.10185
165.0993, 23.07334
165.5815, 23.10627
166.0636, 23.18044
166.5457, 23.31234
167.0278, 23.48303
167.5099, 23.63481
167.9921, 23.74954
168.4742, 23.82714
168.9563, 23.85868
169.4384, 23.78616
169.9205, 23.74204
170.4026, 23.89153
170.8848, 24.17867
171.3669, 24.36155
171.8490, 24.19846
172.3311, 23.88153
172.8132, 23.63668
173.2953, 23.53214
173.7775, 23.52004
174.2596, 23.57918
174.7417, 23.70334
175.2238, 23.84690
175.7059, 24.00491
176.1880, 24.15573
176.6702, 24.25928
177.1523, 24.25043
177.6344, 24.22550
178.1165, 24.32868
178.5986, 24.55421
179.0807, 24.77127
179.5629, 24.86347
180.0450, 24.86649
180.5271, 24.86201
181.0092, 24.87182
181.4913, 24.89394
181.9734, 24.90377
182.4556, 24.89871
182.9377, 24.94969
183.4198, 25.18220
183.9019, 25.54403
184.3840, 25.84363
184.8661, 25.93488
185.3483, 25.92775
185.8304, 26.13799
186.3125, 26.59170
186.7946, 27.03561
187.2767, 27.11438
187.7588, 26.89525
188.2409, 26.76700
188.7231, 26.98239
189.2052, 27.42271
189.6873, 27.61106
190.1694, 27.50653
190.6515, 27.35918
191.1336, 27.53640
191.6158, 28.01323
192.0979, 28.43168
192.5800, 28.59924
193.0621, 28.55935
193.5442, 28.60119
194.0263, 28.73211
194.5085, 28.92373
194.9906, 29.13067
195.4727, 29.35208
195.9548, 29.62046
196.4369, 29.99817
196.9190, 30.47140
197.4012, 30.79856
197.8833, 30.95557
198.3654, 31.01952
198.8475, 31.07645
199.3296, 31.11909
199.8117, 31.23003
200.2939, 31.47724
200.7760, 31.86187
201.2581, 32.19488
201.7402, 32.46545
202.2223, 32.69572
202.7044, 32.94050
203.1866, 33.21255
203.6687, 33.41769
204.1508, 33.47266
204.6329, 33.35484
205.1150, 33.34420
205.5971, 33.45367
206.0793, 33.65918
206.5614, 33.93989
207.0435, 34.31812
207.5256, 34.67486
208.0077, 34.96793
208.4898, 35.20197
208.9720, 35.33373
209.4541, 35.33632
209.9362, 35.26050
210.4183, 35.21215
210.9004, 35.20152
211.3825, 35.18769
211.8647, 35.16425
212.3468, 35.14520
212.8289, 35.03643
213.3110, 34.79007
213.7931, 34.48545
214.2752, 34.33049
214.7574, 34.39988
215.2395, 34.43530
215.7216, 34.31422
216.2037, 34.00319
216.6858, 33.65621
217.1679, 33.24003
217.6501, 32.80720
218.1322, 32.50484
218.6143, 32.39768
219.0964, 32.28087
219.5785, 32.05753
220.0606, 31.68202
220.5428, 31.33170
221.0249, 30.99193
221.5070, 30.68715
221.9891, 30.50708
222.4712, 30.53837
222.9533, 30.52862
223.4355, 30.34209
223.9176, 29.86456
224.3997, 29.53572
224.8818, 29.40027
225.3639, 29.39090
225.8460, 29.35371
226.3282, 29.28572
226.8103, 29.19549
227.2924, 29.09142
227.7745, 28.98234
228.2566, 28.82555
228.7387, 28.58798
229.2209, 28.31626
229.7030, 28.13290
230.1851, 28.09155
230.6672, 28.04871
231.1493, 27.93053
231.6314, 27.66835
232.1136, 27.52375
232.5957, 27.54456
233.0778, 27.66199
233.5599, 27.72950
234.0420, 27.73957
234.5241, 27.71157
235.0063, 27.64490
235.4884, 27.51844
235.9705, 27.41456
236.4526, 27.32939
236.9347, 27.26718
237.4168, 27.24134
237.8990, 27.27990
238.3811, 27.30888
238.8632, 27.29525
239.3453, 27.21625
239.8274, 27.16491
240.3095, 27.16131
240.7917, 27.17466
241.2738, 27.13218
241.7559, 26.95007
242.2380, 26.85083
242.7201, 26.93772
243.2022, 27.29087
243.6844, 27.56181
244.1665, 27.73363
244.6486, 27.83616
245.1307, 27.90964
245.6128, 27.90815
246.0949, 27.95580
246.5771, 28.10793
247.0592, 28.40414
247.5413, 28.64312
248.0234, 28.79017
248.5055, 28.90163
248.9876, 29.05980
249.4697, 29.27497
249.9519, 29.51910
250.4340, 29.78731
250.9161, 30.08297
251.3982, 30.39197
251.8803, 30.73852
252.3624, 31.07685
252.8446, 31.32661
253.3267, 31.43310
253.8088, 31.56466
254.2909, 31.77940
254.7730, 32.09493
255.2551, 32.35223
255.7373, 32.49221
256.2194, 32.63374
256.7015, 32.93980
257.1836, 33.51625
257.6657, 34.02211
258.1479, 34.33950
258.6300, 34.44654
259.1121, 34.69681
259.5942, 35.16993
260.0763, 35.69362
260.5584, 36.08489
261.0406, 36.27874
261.5227, 36.49731
262.0048, 36.80610
262.4869, 37.19984
262.9690, 37.53567
263.4511, 37.81226
263.9333, 38.03011
264.4154, 38.17583
264.8975, 38.22125
265.3796, 38.29139
265.8617, 38.43815
266.3438, 38.64436
266.8260, 38.71930
267.3081, 38.61736
267.7902, 38.46742
268.2723, 38.39912
268.7544, 38.45656
269.2365, 38.42035
269.7187, 38.24169
270.2008, 37.94092
270.6829, 37.64138
271.1650, 37.35252
271.6471, 37.04177
272.1292, 36.67085
272.6114, 36.21553
273.0935, 35.83789
273.5756, 35.59399
274.0577, 35.43069
274.5398, 35.14163
275.0219, 34.69344
275.5041, 34.22635
275.9862, 33.82697
276.4683, 33.49980
276.9504, 33.19880
277.4325, 32.91896
277.9146, 32.66360
278.3968, 32.45485
278.8788, 32.30563
279.3610, 32.14298
279.8431, 31.90884
280.3252, 31.60198
280.8073, 31.34086
281.2894, 31.13621
281.7715, 30.97617
282.2537, 30.85854
282.7358, 30.79134
283.2179, 30.69135
283.7000, 30.47698
284.1821, 30.15679
284.6642, 29.96223
285.1464, 29.92110
285.6285, 29.94562
286.1106, 29.88247
286.5927, 29.73032
287.0748, 29.63290
287.5569, 29.67118
288.0391, 29.82703
288.5212, 29.99545
289.0033, 30.18786
289.4854, 30.34617
289.9675, 30.37613
290.4496, 30.28776
290.9318, 30.20039
291.4139, 30.17686
291.8960, 30.18616
292.3781, 30.10896
292.8602, 29.93690
293.3423, 29.75826
293.8245, 29.63587
294.3066, 29.57427
294.7887, 29.59968
295.2708, 29.75045
295.7529, 29.97485
296.2350, 30.18218
296.7172, 30.37110
297.1993, 30.52178
297.6814, 30.58944
298.1635, 30.60397
298.6456, 30.65234
299.1277, 30.77036
299.6099, 30.91658
300.0920, 31.02494
300.5741, 31.10087
301.0562, 31.16954
301.5383, 31.20705
302.0204, 31.25712
302.5026, 31.41959
302.9847, 31.75997
303.4668, 32.12283
303.9489, 32.31926
304.4310, 32.38164
304.9131, 32.44523
305.3953, 32.57396
305.8774, 32.75499
306.3595, 32.98061
306.8416, 33.25875
307.3237, 33.54009
307.8058, 33.77903
308.2880, 33.98518
308.7701, 34.17987
309.2522, 34.38147
309.7343, 34.57400
310.2164, 34.73665
310.6985, 34.86644
311.1807, 34.99823
311.6628, 35.14191
312.1449, 35.30781
312.6270, 35.50652
313.1091, 35.74298
313.5912, 36.01495
314.0734, 36.37144
314.5555, 36.80999
315.0376, 37.15260
315.5197, 37.21207
316.0018, 37.16529
316.4839, 37.19445
316.9661, 37.45190
317.4482, 37.70884
317.9303, 37.84432
318.4124, 37.87834
318.8945, 37.94773
319.3766, 38.16537
319.8588, 38.40193
320.3409, 38.55769
320.8230, 38.52762
321.3051, 38.52645
321.7872, 38.64399
322.2693, 38.84005
322.7515, 38.99187
323.2336, 39.01700
323.7157, 39.03114
324.1978, 39.09087
324.6799, 39.21943
325.1620, 39.36006
325.6442, 39.53792
326.1263, 39.71921
326.6084, 39.84391
327.0905, 39.83995
327.5726, 39.83947
328.0547, 39.87006
328.5369, 39.91632
329.0190, 40.05066
329.5011, 40.39448
329.9832, 40.77347
330.4653, 40.98891
330.9474, 40.92807
331.4296, 40.84260
331.9117, 40.74908
332.3938, 40.64306
332.8759, 40.65424
333.3580, 40.89137
333.8401, 41.14409
334.3223, 41.23774
334.8044, 41.10158
335.2865, 40.94845
335.7686, 40.79652
336.2507, 40.64616
336.7328, 40.51363
337.2150, 40.41296
337.6971, 40.30087
338.1792, 40.14246
338.6613, 39.92212
339.1434, 39.73008
339.6255, 39.60048
340.1077, 39.47814
340.5898, 39.21997
341.0719, 38.80786
341.5540, 38.35567
342.0361, 37.92379
342.5182, 37.51279
343.0004, 37.04515
343.4825, 36.49556
343.9646, 35.95976
344.4467, 35.63945
344.9288, 35.54152
345.4109, 35.33363
345.8931, 34.85084
346.3752, 34.16523
346.8573, 33.58639
347.3394, 33.11294
347.8215, 32.71261
348.3036, 32.38214
348.7858, 32.10551
349.2679, 31.80439
349.7500, 31.45017
350.2321, 31.06911
350.7142, 30.72892
351.1964, 30.42468
351.6785, 30.09204
352.1606, 29.63003
352.6427, 29.11919
353.1248, 28.72342
353.6069, 28.49254
354.0891, 28.30484
354.5712, 28.01254
355.0533, 27.65293
355.5354, 27.32587
356.0175, 27.12600
356.4996, 26.97044
356.9818, 26.75813
357.4639, 26.47391
357.9460, 26.20220
358.4281, 26.02570
358.9102, 25.89413
359.3923, 25.73724
359.8745, 25.45993
360.3566, 25.20098
360.8387, 25.07896
361.3208, 25.08200
361.8029, 25.05031
362.2850, 24.83285
362.7672, 24.58916
363.2493, 24.45411
363.7314, 24.56310
364.2135, 24.66194
364.6956, 24.69425
365.1777, 24.65899
365.6599, 24.55076
366.1420, 24.26768
366.6241, 23.98808
367.1062, 23.79740
367.5883, 23.71432
368.0704, 23.69271
368.5526, 23.72812
369.0347, 23.82206
369.5168, 23.97767
369.9989, 24.34847
370.4810, 24.62066
370.9631, 24.69884
371.4453, 24.55276
371.9274, 24.44601
372.4095, 24.39108
372.8916, 24.36573
373.3737, 24.34349
373.8558, 24.28137
374.3380, 24.31548
374.8201, 24.50738
375.3022, 24.81750
375.7843, 25.01228
376.2664, 25.05922
376.7485, 25.06438
377.2307, 24.93228
377.7128, 25.21718
378.1949, 25.41921
378.6770, 25.54241
379.1591, 25.37370
379.6412, 25.56430
380.1234, 25.60015
380.6055, 25.62225
381.0876, 25.84141
381.5697, 25.67558
382.0518, 25.87611
382.5339, 25.91963
383.0161, 26.02380
383.4982, 25.97228
383.9803, 25.95878
384.4624, 26.08562
384.9445, 26.12279
385.4266, 26.02347
385.9088, 26.08580
386.3909, 25.83785
386.8730, 25.84774
387.3551, 25.96450
387.8372, 25.83415
388.3193, 25.86072
388.8015, 25.81689
389.2836, 25.67291
389.7657, 25.51950
390.2478, 25.25198
390.7299, 24.95085
391.2120, 24.62242
391.6942, 24.29871
392.1763, 24.02077
392.6584, 23.79671
393.1405, 23.55612
393.6226, 23.22320
394.1047, 22.86868
394.5869, 22.57250
395.0690, 22.40761
395.5511, 22.25721
396.0332, 22.07301
396.5153, 21.86408
396.9974, 21.68069
397.4796, 21.51441
397.9617, 21.39261
398.4438, 21.34701
398.9259, 21.51348
399.4080, 21.52080
399.8901, 21.21026
400.3723, 20.73727
400.8544, 20.39338
401.3365, 20.23522
401.8186, 20.13951
402.3007, 20.10393
402.7828, 20.14561
403.2649, 20.08548
403.7470, 19.84458
404.2292, 19.58586
404.7113, 19.47073
405.1934, 19.55810
405.6755, 19.60930
406.1576, 19.57134
406.6397, 19.47942
407.1219, 19.47918
407.6040, 19.60096
408.0861, 19.69550
408.5682, 19.64899
409.0503, 19.46509
409.5324, 19.34462
410.0146, 19.30541
410.4967, 19.30247
410.9788, 19.28369
411.4609, 19.24848
411.9430, 19.18652
412.4251, 19.05826
412.9073, 18.91514
413.3894, 18.87772
413.8715, 18.94451
414.3536, 19.04039
414.8357, 19.15218
415.3178, 19.24374
415.8000, 19.22925
416.2821, 19.03918
416.7642, 18.83824
417.2463, 18.80643
417.7284, 18.89215
418.2105, 18.95894
418.6927, 18.91175
419.1748, 18.83600
419.6569, 18.80058
420.1390, 18.81680
420.6211, 18.82728
421.1032, 18.77716
421.5854, 18.71824
422.0675, 18.70626
422.5496, 18.80930
423.0317, 18.90598
423.5138, 18.96224
423.9959, 18.98142
424.4781, 18.99207
424.9602, 19.00778
425.4423, 19.00824
425.9244, 18.97756
426.4065, 18.86738
426.8886, 18.81849
427.3708, 18.86756
427.8529, 18.96184
428.3350, 19.01692
428.8171, 19.00482
429.2992, 19.00602
429.7813, 19.05453
430.2635, 19.14719
430.7456, 19.17158
431.2277, 19.10232
431.7098, 19.01968
432.1919, 18.99208
432.6740, 19.02412
433.1562, 19.05401
433.6383, 19.07210
434.1204, 19.08755
434.6025, 19.13897
435.0846, 19.22445
435.5667, 19.26027
436.0489, 19.16614
436.5310, 18.98759
437.0131, 18.85745
437.4952, 18.77687
437.9773, 18.75185
438.4594, 18.83096
438.9416, 18.96775
439.4237, 19.06004
439.9058, 19.04585
440.3879, 19.01346
440.8700, 19.07144
441.3521, 19.19021
441.8343, 19.26504
442.3164, 19.13782
442.7985, 19.00858
443.2806, 19.07241
443.7627, 19.41334
444.2448, 19.67768
444.7270, 19.64647
445.2091, 19.48068
445.6912, 19.37045
446.1733, 19.38435
446.6554, 19.43454
447.1375, 19.51063
447.6197, 19.60944
448.1018, 19.70206
448.5839, 19.79928
449.0660, 19.87826
449.5481, 19.92069
450.0302, 19.87524
450.5124, 19.90615
450.9945, 20.05675
451.4766, 20.25435
451.9587, 20.37647
452.4408, 20.39888
452.9229, 20.41654
453.4051, 20.46757
453.8872, 20.54144
454.3693, 20.53526
454.8514, 20.42921
455.3335, 20.32940
455.8156, 20.33650
456.2978, 20.43842
456.7799, 20.51319
457.2620, 20.53418
457.7441, 20.55093
458.2262, 20.68111
458.7083, 20.88872
459.1905, 21.01670
459.6726, 20.90085
460.1547, 20.69596
460.6368, 20.61712
461.1189, 20.66385
461.6010, 20.75852
462.0832, 20.90419
462.5653, 21.04356
463.0474, 21.10391
463.5295, 21.03555
464.0116, 20.94308
464.4937, 20.85970
464.9759, 20.79288
465.4580, 20.76074
465.9401, 20.77890
466.4222, 20.82455
466.9043, 20.91738
467.3864, 21.07720
467.8686, 21.13713
468.3507, 20.97520
468.8328, 20.77172
469.3149, 20.65689
469.7970, 20.67987
470.2791, 20.71382
470.7613, 20.77789
471.2434, 20.84033
471.7255, 20.80031
472.2076, 20.60885
472.6897, 20.43853
473.1718, 20.37886
473.6540, 20.43013
474.1361, 20.35845
474.6182, 20.13486
475.1003, 19.89403
475.5824, 19.79093
476.0645, 19.80921
476.5467, 19.80018
477.0288, 19.72421
477.5109, 19.62496
477.9930, 19.58979
478.4751, 19.60178
478.9572, 19.58001
479.4394, 19.44597
479.9215, 19.26687
480.4036, 19.11945
480.8857, 19.00676
481.3678, 18.93459
481.8499, 18.93716
482.3321, 18.97005
482.8142, 18.98431
483.2963, 18.96903
483.7784, 18.92900
484.2605, 18.85114
484.7426, 18.74937
485.2248, 18.65855
485.7069, 18.58148
486.1890, 18.52298
486.6711, 18.49520
487.1532, 18.51202
487.6353, 18.49180
488.1175, 18.41035
488.5996, 18.31371
489.0817, 18.23423
489.5638, 18.16327
490.0459, 18.13987
490.5280, 18.19865
491.0102, 18.28819
491.4923, 18.26289
491.9744, 18.09802
492.4565, 17.94277
492.9386, 17.88058
493.4207, 17.88927
493.9029, 17.80223
494.3850, 17.60852
494.8671, 17.42071
495.3492, 17.36057
495.8313, 17.39010
496.3134, 17.40008
496.7956, 17.36473
497.2777, 17.31023
497.7598, 17.25406
498.2419, 17.20065
498.7240, 17.16244
499.2061, 17.17995
499.6883, 17.18878
500.1704, 17.11586
500.6525, 16.96211
501.1346, 16.86124
501.6167, 16.93274
502.0988, 17.03598
502.5810, 17.06652
503.0631, 16.95686
503.5452, 16.85201
504.0273, 16.76526
504.5094, 16.69519
504.9915, 16.64289
505.4737, 16.61953
505.9558, 16.59577
506.4379, 16.55413
506.9200, 16.49816
507.4021, 16.49720
507.8842, 16.56087
508.3664, 16.65760
508.8485, 16.80808
509.3306, 17.01645
509.8127, 17.05149
510.2948, 16.86903
510.7769, 16.59440
511.2591, 16.36465
511.7412, 16.18821
512.2233, 16.12272
512.7054, 16.25156
513.1875, 16.44888
513.6696, 16.52527
514.1517, 16.49804
514.6339, 16.46225
515.1160, 16.48676
515.5981, 16.52636
516.0802, 16.53799
516.5623, 16.51270
517.0444, 16.47767
517.5266, 16.43743
518.0087, 16.39749
518.4908, 16.36386
518.9729, 16.37133
519.4550, 16.34798
519.9371, 16.22739
520.4193, 16.05115
520.9014, 16.00213
521.3835, 16.19551
521.8656, 16.36710
522.3477, 16.41486
522.8298, 16.32196
523.3120, 16.23844
523.7941, 16.16192
524.2762, 16.10270
524.7583, 16.07397
525.2404, 16.07638
525.7225, 16.09233
526.2047, 16.12429
526.6868, 16.15881
527.1689, 16.17198
527.6510, 16.16543
528.1331, 16.15072
528.6152, 16.11167
529.0974, 16.07778
529.5795, 16.11093
530.0616, 16.20427
530.5437, 16.27434
531.0258, 16.25747
531.5079, 16.19608
531.9901, 16.12031
532.4722, 16.01532
532.9543, 15.95366
533.4364, 16.01364
533.9185, 16.11782
534.4006, 16.16219
534.8828, 16.03088
535.3649, 15.94404
535.8470, 15.98017
536.3291, 16.11000
536.8112, 16.16088
537.2933, 16.07117
537.7755, 15.99910
538.2576, 16.03243
538.7397, 16.19251
539.2218, 16.28180
539.7039, 16.28632
540.1860, 16.25572
540.6682, 16.24507
541.1503, 16.25114
541.6324, 16.23086
542.1145, 16.16245
542.5966, 16.08928
543.0787, 16.09715
543.5609, 16.16426
544.0430, 16.20910
544.5251, 16.13817
545.0072, 16.05768
545.4893, 16.09962
545.9714, 16.25597
546.4536, 16.38655
546.9357, 16.41079
547.4178, 16.38320
547.8999, 16.34027
548.3820, 16.27693
548.8641, 16.22443
549.3463, 16.05484
549.8284, 16.23671
550.3105, 16.34352
550.7926, 16.37932
551.2747, 16.13103
551.7568, 16.24987
552.2390, 16.22176
552.7211, 16.18774
553.2032, 16.35860
553.6853, 16.15228
554.1674, 16.32014
554.6495, 16.33881
555.1317, 16.42594
555.6138, 16.36522
556.0959, 16.35032
556.5780, 16.48358
557.0601, 16.53500
557.5422, 16.45774
558.0244, 16.54996
558.5065, 16.33972
558.9886, 16.39512
559.4707, 16.56522
559.9528, 16.49602
560.4349, 16.59157
560.9171, 16.62455
561.3992, 16.37271
561.8813, 16.61654
562.3634, 16.64618
562.8455, 16.45591
563.3276, 16.68312
563.8098, 16.52344
564.2919, 16.50202
564.7740, 16.58469
565.2561, 16.55910
565.7382, 16.70452
566.2203, 16.68544
566.7025, 16.65178
567.1846, 16.68243
567.6667, 16.53132
568.1488, 16.71777
568.6309, 16.67384
569.1130, 16.74461
569.5952, 16.84148
570.0773, 16.73963
570.5594, 16.84841
571.0415, 16.63087
571.5236, 16.68660
572.0057, 16.71304
572.4879, 16.91421
572.9700, 16.69875
573.4521, 16.74739
573.9342, 16.90856
574.4163, 16.91257
574.8984, 16.98247
575.3806, 16.85783
575.8627, 16.91676
576.3448, 17.01503
576.8269, 17.10578
577.3090, 17.18887
577.7911, 17.25450
578.2733, 17.27717
578.7554, 17.23386
579.2375, 17.19115
579.7196, 17.16360
580.2017, 17.15214
580.6838, 17.18147
581.1660, 17.26122
581.6481, 17.32246
582.1302, 17.29482
582.6123, 17.20233
583.0944, 17.14019
583.5765, 17.11387
584.0587, 17.12619
584.5408, 17.20459
585.0229, 17.31916
585.5050, 17.42310
585.9871, 17.52612
586.4692, 17.57789
586.9514, 17.50866
587.4335, 17.36927
587.9156, 17.26635
588.3977, 17.21414
588.8798, 17.22151
589.3619, 17.31436
589.8441, 17.49174
590.3262, 17.64560
590.8083, 17.78949
591.2904, 17.88982
591.7725, 17.92451
592.2546, 17.88468
592.7368, 17.81527
