##NAMES=Geikielite
##RRUFFID=R070479
##IDEAL CHEMISTRY=MgTi^4+^O_3_
##LOCALITY=Colombo, Sri Lanka
##OWNER=RRUFF
##SOURCE=Royal Ontario Museum
##DESCRIPTION=Dark red fragment
##STATUS=The identification of this mineral has been confirmed only by single crystal X-ray diffraction.
##URL=rruff.info/R070479
93.46680, 2379.863
93.94891, 2349.997
94.43103, 2355.974
94.91315, 2381.065
95.39526, 2400.498
95.87738, 2410.317
96.35950, 2415.010
96.84161, 2415.042
97.32373, 2411.271
97.80585, 2404.481
98.28796, 2396.995
98.77008, 2389.508
99.25220, 2382.548
99.73431, 2376.606
100.2164, 2371.791
100.6985, 2362.460
101.1807, 2354.033
101.6628, 2347.384
102.1449, 2342.481
102.6270, 2339.036
103.1091, 2336.609
103.5912, 2334.265
104.0734, 2329.890
104.5555, 2327.309
105.0376, 2327.676
105.5197, 2330.222
106.0018, 2333.428
106.4839, 2335.997
106.9661, 2337.698
107.4482, 2339.844
107.9303, 2341.420
108.4124, 2343.367
108.8945, 2346.589
109.3766, 2351.073
109.8588, 2355.611
110.3409, 2358.281
110.8230, 2358.537
111.3051, 2360.713
111.7872, 2366.813
112.2693, 2374.790
112.7515, 2381.549
113.2336, 2386.083
113.7157, 2389.561
114.1978, 2393.206
114.6799, 2396.964
115.1620, 2401.233
115.6442, 2406.719
116.1263, 2413.345
116.6084, 2418.920
117.0905, 2421.012
117.5726, 2423.181
118.0547, 2428.127
118.5369, 2436.318
119.0190, 2445.825
119.5011, 2454.150
119.9832, 2460.963
120.4653, 2467.092
120.9474, 2471.971
121.4296, 2476.679
121.9117, 2482.142
122.3938, 2488.754
122.8759, 2496.200
123.3580, 2503.558
123.8401, 2511.217
124.3223, 2518.222
124.8044, 2523.559
125.2865, 2528.287
125.7686, 2534.163
126.2507, 2542.534
126.7328, 2553.079
127.2150, 2561.136
127.6971, 2564.911
128.1792, 2568.616
128.6613, 2573.879
129.1434, 2580.700
129.6255, 2588.464
130.1077, 2597.187
130.5898, 2606.655
131.0719, 2614.998
131.5540, 2620.862
132.0361, 2626.296
132.5182, 2634.031
133.0004, 2644.814
133.4825, 2655.265
133.9646, 2661.532
134.4467, 2665.270
134.9288, 2669.853
135.4109, 2677.473
135.8931, 2687.183
136.3752, 2695.655
136.8573, 2701.767
137.3394, 2707.889
137.8215, 2715.486
138.3036, 2724.226
138.7858, 2732.954
139.2679, 2740.676
139.7500, 2747.239
140.2321, 2754.050
140.7142, 2762.253
141.1963, 2769.804
141.6785, 2775.852
142.1606, 2780.335
142.6427, 2783.761
143.1248, 2786.516
143.6069, 2787.590
144.0890, 2790.489
144.5712, 2796.436
145.0533, 2803.025
145.5354, 2809.054
146.0175, 2814.039
146.4996, 2817.798
146.9817, 2819.934
147.4639, 2819.331
147.9460, 2818.724
148.4281, 2817.909
148.9102, 2817.225
149.3923, 2817.636
149.8744, 2819.847
150.3566, 2822.163
150.8387, 2820.185
151.3208, 2813.289
151.8029, 2805.300
152.2850, 2797.097
152.7671, 2788.786
153.2493, 2780.980
153.7314, 2774.357
154.2135, 2767.906
154.6956, 2759.909
155.1777, 2749.951
155.6598, 2739.462
156.1420, 2729.913
156.6241, 2721.422
157.1062, 2711.995
157.5883, 2699.573
158.0704, 2686.411
158.5525, 2674.707
159.0347, 2665.315
159.5168, 2656.626
159.9989, 2645.757
160.4810, 2631.415
160.9631, 2618.174
161.4452, 2607.726
161.9274, 2598.682
162.4095, 2589.598
162.8916, 2579.776
163.3737, 2569.810
163.8558, 2561.839
164.3379, 2558.073
164.8201, 2553.499
165.3022, 2546.811
165.7843, 2538.975
166.2664, 2531.338
166.7485, 2524.689
167.2306, 2518.900
167.7128, 2512.586
168.1949, 2505.103
168.6770, 2497.792
169.1591, 2489.959
169.6412, 2482.477
170.1233, 2477.382
170.6055, 2476.581
171.0876, 2479.840
171.5697, 2478.544
172.0518, 2468.547
172.5339, 2458.842
173.0160, 2454.228
173.4982, 2454.098
173.9803, 2454.278
174.4624, 2451.189
174.9445, 2445.172
175.4266, 2442.086
175.9087, 2444.719
176.3909, 2448.382
176.8730, 2448.957
177.3551, 2446.134
177.8372, 2442.776
178.3193, 2441.156
178.8014, 2440.811
179.2836, 2440.490
179.7657, 2439.587
180.2478, 2438.676
180.7299, 2438.785
181.2120, 2440.284
181.6941, 2441.807
182.1763, 2441.986
182.6584, 2441.516
183.1405, 2441.716
183.6226, 2443.450
184.1047, 2446.306
184.5868, 2449.007
185.0690, 2451.595
185.5511, 2453.870
186.0332, 2455.499
186.5153, 2456.785
186.9974, 2458.332
187.4795, 2460.602
187.9617, 2463.546
188.4438, 2466.376
188.9259, 2469.075
189.4080, 2471.675
189.8901, 2474.165
190.3722, 2476.571
190.8544, 2478.919
191.3365, 2481.164
191.8186, 2483.287
192.3007, 2485.900
192.7828, 2489.733
193.2649, 2493.428
193.7471, 2496.506
194.2292, 2499.023
194.7113, 2501.297
195.1934, 2503.575
195.6755, 2505.862
196.1576, 2508.233
196.6398, 2510.636
197.1219, 2513.135
197.6040, 2515.649
198.0861, 2518.225
198.5682, 2521.060
199.0503, 2524.311
199.5325, 2527.995
200.0146, 2532.167
200.4967, 2537.832
200.9788, 2543.159
201.4609, 2546.675
201.9430, 2548.315
202.4252, 2549.343
202.9073, 2550.979
203.3894, 2553.305
203.8715, 2555.278
204.3536, 2556.529
204.8357, 2557.607
205.3179, 2559.012
205.8000, 2560.826
206.2821, 2562.905
206.7642, 2565.410
207.2463, 2568.235
207.7284, 2570.436
208.2106, 2572.226
208.6927, 2573.170
209.1748, 2572.310
209.6569, 2569.161
210.1390, 2565.692
210.6211, 2563.677
211.1033, 2562.662
211.5854, 2561.634
212.0675, 2560.297
212.5496, 2558.678
213.0317, 2556.792
213.5138, 2554.542
213.9960, 2552.209
214.4781, 2549.737
214.9602, 2547.293
215.4423, 2545.296
215.9244, 2544.451
216.4065, 2544.271
216.8886, 2542.618
217.3708, 2537.838
217.8529, 2534.143
218.3350, 2533.971
218.8171, 2536.064
219.2992, 2538.036
219.7813, 2538.297
220.2635, 2537.149
220.7456, 2536.701
221.2277, 2537.990
221.7098, 2538.726
222.1919, 2537.256
222.6740, 2534.814
223.1562, 2533.586
223.6383, 2535.288
224.1204, 2539.648
224.6025, 2543.215
225.0846, 2544.187
225.5667, 2546.241
226.0489, 2550.987
226.5310, 2557.396
227.0131, 2563.518
227.4952, 2567.953
227.9773, 2570.832
228.4594, 2574.732
228.9416, 2580.972
229.4237, 2586.869
229.9058, 2591.193
230.3879, 2594.734
230.8700, 2598.991
231.3521, 2605.052
231.8343, 2612.789
232.3164, 2620.021
232.7985, 2626.396
233.2806, 2632.662
233.7627, 2638.543
234.2448, 2644.469
234.7270, 2651.283
235.2091, 2659.562
235.6912, 2669.181
236.1733, 2678.984
236.6554, 2689.323
237.1375, 2699.512
237.6197, 2709.331
238.1018, 2718.828
238.5839, 2728.036
239.0660, 2736.749
239.5481, 2745.362
240.0302, 2756.160
240.5124, 2770.391
240.9945, 2784.907
241.4766, 2798.685
241.9587, 2811.878
242.4408, 2824.431
242.9229, 2835.712
243.4051, 2847.017
243.8872, 2862.673
244.3693, 2884.499
244.8514, 2907.189
245.3335, 2929.084
245.8156, 2950.054
246.2978, 2969.254
246.7799, 2985.330
247.2620, 3000.508
247.7441, 3019.984
248.2262, 3045.326
248.7083, 3070.729
249.1905, 3093.087
249.6726, 3113.001
250.1547, 3133.126
250.6368, 3155.011
251.1189, 3176.955
251.6010, 3196.248
252.0832, 3212.597
252.5653, 3228.362
253.0474, 3244.541
253.5295, 3261.173
254.0116, 3279.181
254.4937, 3299.861
254.9759, 3320.603
255.4580, 3337.747
255.9401, 3351.173
256.4222, 3365.378
256.9043, 3384.088
257.3864, 3406.300
257.8686, 3426.562
258.3507, 3442.320
258.8328, 3457.805
259.3149, 3477.460
259.7970, 3500.713
260.2791, 3522.794
260.7613, 3540.193
261.2434, 3553.563
261.7255, 3566.801
262.2076, 3580.095
262.6897, 3593.488
263.1718, 3607.307
263.6540, 3621.338
264.1361, 3634.862
264.6182, 3648.835
265.1003, 3662.443
265.5824, 3670.785
266.0645, 3671.438
266.5467, 3669.616
267.0288, 3668.567
267.5109, 3667.484
267.9930, 3664.691
268.4751, 3660.030
268.9572, 3652.925
269.4394, 3640.066
269.9215, 3618.082
270.4036, 3595.001
270.8857, 3575.288
271.3678, 3556.548
271.8499, 3534.794
272.3321, 3507.319
272.8142, 3475.771
273.2963, 3446.073
273.7784, 3418.563
274.2605, 3392.841
274.7426, 3368.638
275.2248, 3345.765
275.7069, 3324.547
276.1890, 3305.181
276.6711, 3286.880
277.1532, 3267.695
277.6353, 3246.674
278.1175, 3226.455
278.5996, 3205.992
279.0817, 3187.121
279.5638, 3171.674
280.0459, 3160.266
280.5280, 3152.059
281.0102, 3145.541
281.4923, 3141.385
281.9744, 3137.722
282.4565, 3134.183
282.9386, 3131.070
283.4207, 3128.772
283.9029, 3127.346
284.3850, 3126.355
284.8671, 3124.784
285.3492, 3121.237
285.8313, 3120.760
286.3134, 3125.872
286.7956, 3131.868
287.2777, 3135.977
287.7598, 3137.819
288.2419, 3138.712
288.7240, 3139.903
289.2061, 3140.898
289.6883, 3144.066
290.1704, 3150.648
290.6525, 3158.054
291.1346, 3164.967
291.6167, 3171.521
292.0988, 3178.810
292.5810, 3188.206
293.0631, 3200.104
293.5452, 3209.564
294.0273, 3214.168
294.5094, 3218.781
294.9915, 3224.518
295.4737, 3231.558
295.9558, 3239.996
296.4379, 3250.064
296.9200, 3261.645
297.4021, 3272.174
297.8842, 3280.841
298.3664, 3289.298
298.8485, 3297.879
299.3306, 3306.450
299.8127, 3314.726
300.2948, 3322.528
300.7769, 3329.875
301.2591, 3336.759
301.7412, 3342.657
302.2233, 3348.665
302.7054, 3354.479
303.1875, 3360.562
303.6696, 3367.637
304.1518, 3375.953
304.6339, 3384.848
305.1160, 3393.026
305.5981, 3400.049
306.0802, 3406.818
306.5623, 3413.059
307.0445, 3419.228
307.5266, 3425.818
308.0087, 3432.890
308.4908, 3440.042
308.9729, 3446.646
309.4550, 3452.251
309.9372, 3458.447
310.4193, 3466.438
310.9014, 3474.023
311.3835, 3479.323
311.8656, 3482.587
312.3477, 3485.789
312.8299, 3491.060
313.3120, 3499.020
313.7941, 3505.166
314.2762, 3508.891
314.7583, 3511.724
315.2404, 3514.191
315.7226, 3516.272
316.2047, 3517.556
316.6868, 3517.543
317.1689, 3516.410
317.6510, 3517.193
318.1331, 3523.986
318.6153, 3528.117
319.0974, 3526.380
319.5795, 3521.021
320.0616, 3515.650
320.5437, 3512.183
321.0258, 3509.664
321.5080, 3504.814
321.9901, 3494.242
322.4722, 3485.595
322.9543, 3481.433
323.4364, 3478.372
323.9185, 3472.710
324.4007, 3463.348
324.8828, 3452.229
325.3649, 3442.585
325.8470, 3433.525
326.3291, 3428.120
326.8112, 3428.241
327.2934, 3430.088
327.7755, 3431.553
328.2576, 3432.111
328.7397, 3431.967
329.2218, 3431.350
329.7039, 3430.309
330.1861, 3428.489
330.6682, 3425.303
331.1503, 3422.005
331.6324, 3418.876
332.1145, 3416.055
332.5966, 3413.856
333.0788, 3412.661
333.5609, 3412.335
334.0430, 3410.642
334.5251, 3407.086
335.0072, 3402.541
335.4893, 3396.227
335.9715, 3389.236
336.4536, 3383.407
336.9357, 3379.781
337.4178, 3377.074
337.8999, 3371.568
338.3820, 3362.336
338.8642, 3351.241
339.3463, 3337.003
339.8284, 3321.904
340.3105, 3308.453
340.7926, 3297.120
341.2747, 3286.015
341.7568, 3272.168
342.2390, 3254.735
342.7211, 3236.624
343.2032, 3216.223
343.6853, 3196.650
344.1674, 3180.525
344.6495, 3167.276
345.1317, 3153.905
345.6138, 3137.487
346.0959, 3117.829
346.5780, 3098.468
347.0601, 3078.947
347.5422, 3060.230
348.0244, 3042.233
348.5065, 3025.288
348.9886, 3010.189
349.4707, 2997.800
349.9528, 2987.105
350.4349, 2974.140
350.9171, 2956.967
351.3992, 2940.229
351.8813, 2924.224
352.3634, 2909.281
352.8455, 2896.047
353.3276, 2884.677
353.8098, 2874.371
354.2919, 2863.754
354.7740, 2852.373
355.2561, 2842.095
355.7382, 2833.842
356.2203, 2826.144
356.7025, 2818.097
357.1846, 2809.705
357.6667, 2801.719
358.1488, 2795.163
358.6309, 2790.156
359.1130, 2784.260
359.5952, 2776.258
360.0773, 2768.746
360.5594, 2762.514
361.0415, 2757.577
361.5236, 2753.959
362.0057, 2751.924
362.4879, 2751.051
362.9700, 2750.064
363.4521, 2748.956
363.9342, 2747.755
364.4163, 2746.946
364.8984, 2745.848
365.3806, 2743.318
365.8627, 2738.752
366.3448, 2734.212
366.8269, 2732.463
367.3090, 2733.729
367.7911, 2735.627
368.2733, 2737.980
368.7554, 2740.544
369.2375, 2743.319
369.7196, 2746.260
370.2017, 2748.869
370.6838, 2750.324
371.1660, 2751.008
371.6481, 2752.848
372.1302, 2756.461
372.6123, 2760.422
373.0944, 2764.305
373.5765, 2767.820
374.0587, 2770.167
374.5408, 2769.976
375.0229, 2769.156
375.5050, 2770.877
375.9871, 2775.437
376.4692, 2779.883
376.9514, 2782.538
377.4335, 2784.309
377.9156, 2786.478
378.3977, 2789.122
378.8798, 2792.262
379.3619, 2796.518
379.8441, 2801.458
380.3262, 2804.994
380.8083, 2805.981
381.2904, 2806.354
381.7725, 2808.818
382.2546, 2813.269
382.7368, 2817.273
383.2189, 2820.003
383.7010, 2821.876
384.1831, 2823.574
384.6652, 2825.208
385.1473, 2826.086
385.6295, 2825.371
386.1116, 2823.289
386.5937, 2821.703
387.0758, 2820.387
387.5579, 2819.848
388.0400, 2821.690
388.5222, 2824.847
389.0043, 2825.741
389.4864, 2822.612
389.9685, 2816.371
390.4506, 2808.859
390.9327, 2799.254
391.4149, 2790.358
391.8970, 2782.916
392.3791, 2776.402
392.8612, 2770.487
393.3433, 2765.055
393.8254, 2759.404
394.3076, 2752.677
394.7897, 2744.553
395.2718, 2736.984
395.7539, 2729.693
396.2360, 2723.096
396.7181, 2718.108
397.2003, 2714.126
397.6824, 2709.548
398.1645, 2703.272
398.6466, 2695.684
399.1287, 2688.498
399.6108, 2680.836
400.0930, 2674.775
400.5751, 2671.321
401.0572, 2669.200
401.5393, 2667.220
402.0214, 2664.968
402.5035, 2662.471
402.9857, 2659.809
403.4678, 2657.160
403.9499, 2653.809
404.4320, 2649.275
404.9141, 2644.567
405.3962, 2639.583
405.8784, 2634.790
406.3605, 2631.378
406.8426, 2630.620
407.3247, 2631.890
407.8068, 2630.525
408.2889, 2623.613
408.7711, 2618.260
409.2532, 2617.101
409.7353, 2617.655
410.2174, 2617.287
410.6995, 2615.076
411.1816, 2611.904
411.6638, 2608.879
412.1459, 2605.975
412.6280, 2603.413
413.1101, 2601.558
413.5922, 2599.788
414.0743, 2597.758
414.5565, 2595.507
415.0386, 2593.268
415.5207, 2591.188
416.0028, 2589.259
416.4849, 2587.431
416.9670, 2585.664
417.4492, 2584.128
417.9313, 2583.826
418.4134, 2583.535
418.8955, 2581.307
419.3776, 2575.945
419.8597, 2570.294
420.3419, 2567.083
420.8240, 2566.131
421.3061, 2565.779
421.7882, 2565.755
422.2703, 2565.934
422.7524, 2566.280
423.2346, 2566.794
423.7167, 2567.005
424.1988, 2567.254
424.6809, 2566.874
425.1630, 2564.312
425.6451, 2559.411
426.1273, 2555.008
426.6094, 2553.278
427.0915, 2553.894
427.5736, 2554.295
428.0557, 2554.096
428.5378, 2554.091
429.0200, 2554.886
429.5021, 2556.099
429.9842, 2556.937
430.4663, 2557.107
430.9484, 2556.874
431.4305, 2556.653
431.9127, 2556.462
432.3948, 2556.251
432.8769, 2555.471
433.3590, 2555.091
433.8411, 2556.146
434.3232, 2558.387
434.8054, 2560.617
435.2875, 2561.938
435.7696, 2562.385
436.2517, 2562.371
436.7338, 2560.373
437.2159, 2559.702
437.6981, 2561.804
438.1802, 2565.046
438.6623, 2567.447
439.1444, 2568.403
439.6265, 2569.074
440.1086, 2571.639
440.5908, 2577.478
441.0729, 2580.659
441.5550, 2578.705
442.0371, 2576.373
442.5192, 2575.202
443.0013, 2575.337
443.4835, 2576.650
443.9656, 2579.253
444.4477, 2582.815
444.9298, 2586.343
445.4119, 2590.154
445.8940, 2593.183
446.3762, 2594.784
446.8583, 2595.644
447.3404, 2595.947
447.8225, 2595.700
448.3046, 2595.993
448.7867, 2597.868
449.2689, 2601.130
449.7510, 2604.885
450.2331, 2609.247
450.7152, 2613.582
451.1973, 2617.341
451.6794, 2620.656
452.1616, 2623.889
452.6437, 2627.665
453.1258, 2630.938
453.6079, 2632.068
454.0900, 2631.446
454.5721, 2631.773
455.0543, 2634.506
455.5364, 2638.405
456.0185, 2640.884
456.5006, 2641.639
456.9827, 2642.515
457.4648, 2644.305
457.9470, 2646.211
458.4291, 2647.513
458.9112, 2648.087
459.3933, 2647.822
459.8754, 2646.303
460.3575, 2643.631
460.8397, 2643.358
461.3218, 2648.852
461.8039, 2652.437
462.2860, 2651.019
462.7681, 2646.908
463.2502, 2643.112
463.7324, 2640.718
464.2145, 2639.091
464.6966, 2637.378
465.1787, 2635.958
465.6608, 2633.274
466.1429, 2627.960
466.6251, 2622.758
467.1072, 2618.454
467.5893, 2615.234
468.0714, 2613.538
468.5535, 2614.126
469.0356, 2615.515
469.5178, 2612.889
469.9999, 2604.246
470.4820, 2596.843
470.9641, 2594.414
471.4462, 2592.668
471.9283, 2587.867
472.4105, 2579.740
472.8926, 2571.992
473.3747, 2568.008
473.8568, 2566.774
474.3389, 2564.624
474.8210, 2561.264
475.3032, 2557.232
475.7853, 2553.128
476.2674, 2548.538
476.7495, 2542.374
477.2316, 2533.117
477.7137, 2524.385
478.1959, 2519.360
478.6780, 2516.925
479.1601, 2513.755
479.6422, 2508.862
480.1243, 2503.002
480.6064, 2496.625
481.0886, 2489.267
481.5707, 2484.952
482.0528, 2486.869
482.5349, 2489.339
483.0170, 2488.231
483.4991, 2484.389
483.9813, 2481.166
484.4634, 2480.521
484.9455, 2481.318
485.4276, 2480.197
485.9097, 2476.727
486.3918, 2471.743
486.8740, 2463.290
487.3561, 2454.869
487.8382, 2448.861
488.3203, 2445.501
488.8024, 2444.102
489.2845, 2444.761
489.7667, 2446.947
490.2488, 2444.887
490.7309, 2435.085
491.2130, 2426.722
491.6951, 2422.178
492.1772, 2420.132
492.6594, 2419.892
493.1415, 2421.278
493.6236, 2422.383
494.1057, 2420.823
494.5878, 2416.962
495.0699, 2414.038
495.5521, 2412.594
496.0342, 2411.721
496.5163, 2411.000
496.9984, 2410.321
497.4805, 2409.414
497.9626, 2407.843
498.4448, 2406.423
498.9269, 2406.145
499.4090, 2406.640
499.8911, 2406.497
500.3732, 2405.111
500.8553, 2403.308
501.3375, 2402.437
501.8196, 2402.884
502.3017, 2402.166
502.7838, 2398.628
503.2659, 2395.173
503.7480, 2394.174
504.2302, 2394.999
504.7123, 2395.333
505.1944, 2393.795
505.6765, 2391.188
506.1586, 2389.874
506.6407, 2390.736
507.1228, 2391.554
507.6049, 2392.882
508.0871, 2393.686
508.5692, 2392.849
509.0513, 2390.682
509.5334, 2388.547
510.0155, 2387.319
510.4977, 2387.059
510.9798, 2388.389
511.4619, 2392.380
511.9440, 2395.532
512.4261, 2396.689
512.9083, 2396.550
513.3904, 2395.397
513.8725, 2393.276
514.3546, 2390.985
514.8367, 2388.556
515.3188, 2386.424
515.8010, 2385.886
516.2831, 2387.180
516.7652, 2389.585
517.2473, 2393.644
517.7294, 2398.306
518.2115, 2400.257
518.6937, 2397.846
519.1758, 2394.984
519.6579, 2393.453
520.1400, 2392.599
520.6221, 2391.148
521.1042, 2388.817
521.5864, 2386.771
522.0685, 2386.400
522.5506, 2387.937
523.0327, 2388.650
523.5148, 2387.409
523.9969, 2386.760
524.4791, 2388.658
524.9612, 2391.238
525.4433, 2391.478
525.9254, 2388.412
526.4075, 2384.355
526.8896, 2382.904
527.3718, 2384.614
527.8539, 2386.066
528.3360, 2387.933
528.8181, 2388.641
529.3002, 2386.469
529.7823, 2382.896
530.2645, 2380.812
530.7466, 2381.776
531.2287, 2383.598
531.7108, 2383.423
532.1929, 2381.374
532.6750, 2379.311
533.1572, 2377.546
533.6393, 2376.105
534.1214, 2374.749
534.6035, 2373.571
535.0856, 2373.597
535.5677, 2376.386
536.0499, 2379.297
536.5320, 2380.285
537.0141, 2379.742
537.4962, 2379.034
537.9783, 2378.741
538.4604, 2378.496
538.9426, 2377.567
539.4247, 2375.236
539.9068, 2374.121
540.3889, 2375.198
540.8710, 2376.462
541.3531, 2376.874
541.8353, 2376.604
542.3174, 2376.353
542.7995, 2376.529
543.2816, 2376.689
543.7637, 2375.607
544.2458, 2372.609
544.7280, 2370.556
545.2101, 2370.354
545.6922, 2370.775
546.1743, 2371.733
546.6564, 2372.846
547.1385, 2373.003
547.6207, 2371.292
548.1028, 2368.662
548.5849, 2366.213
549.0670, 2363.978
549.5491, 2362.818
550.0313, 2363.524
550.5134, 2364.807
550.9955, 2364.488
551.4776, 2362.500
551.9597, 2361.193
552.4418, 2361.487
552.9240, 2362.247
553.4061, 2362.416
553.8882, 2362.245
554.3703, 2362.960
554.8524, 2365.311
555.3345, 2368.095
555.8167, 2368.427
556.2988, 2364.136
556.7809, 2361.584
557.2630, 2361.256
557.7451, 2361.912
558.2272, 2363.305
558.7094, 2365.083
559.1915, 2366.787
559.6736, 2368.293
560.1557, 2369.199
560.6378, 2368.301
561.1199, 2365.203
561.6021, 2362.857
562.0842, 2362.259
562.5663, 2362.263
563.0484, 2361.898
563.5305, 2361.257
564.0126, 2360.841
564.4948, 2361.597
564.9769, 2362.118
565.4590, 2360.290
565.9411, 2356.737
566.4232, 2354.394
566.9053, 2354.471
567.3875, 2355.927
567.8696, 2357.186
568.3517, 2358.063
568.8338, 2359.458
569.3159, 2362.482
569.7980, 2364.931
570.2802, 2365.070
570.7623, 2363.837
571.2444, 2363.271
571.7265, 2364.308
572.2086, 2366.035
572.6907, 2366.858
573.1729, 2366.685
573.6550, 2365.909
574.1371, 2363.378
574.6192, 2361.488
575.1013, 2361.712
575.5834, 2363.285
576.0656, 2364.717
576.5477, 2365.599
577.0298, 2365.799
577.5119, 2364.522
577.9940, 2362.219
578.4761, 2361.581
578.9583, 2363.690
579.4404, 2366.004
579.9225, 2365.965
580.4046, 2363.655
580.8867, 2361.615
581.3688, 2358.587
581.8510, 2357.315
582.3331, 2360.713
582.8152, 2366.009
583.2973, 2368.950
583.7794, 2368.409
584.2615, 2366.448
584.7437, 2365.304
585.2258, 2364.969
585.7079, 2365.561
586.1900, 2367.232
586.6721, 2369.737
587.1542, 2374.908
587.6363, 2379.876
588.1184, 2380.613
588.6005, 2376.358
589.0826, 2372.058
589.5648, 2372.747
590.0469, 2377.091
590.5290, 2380.037
591.0111, 2381.039
591.4932, 2382.155
591.9753, 2385.128
592.4575, 2388.741
