##NAMES=Geminite
##RRUFFID=R070434
##IDEAL CHEMISTRY=Cu^2+^(As^5+^O_3_OH)&#183;H_2_O
##LOCALITY=Jáchymov (St Joachimsthal), Ostrov, Krusné Hory Mountains (Erzgebirge), Karlovy Vary Region, Bohemia (Böhmen; Boehmen), Czech Republic
##OWNER=RRUFF
##SOURCE=Michael Scott
##DESCRIPTION=Stellate aggregates of pale green bladed crystals
##STATUS=The identification of this mineral has been confirmed by single-crystal X-ray diffraction.
##URL=rruff.info/R070434
156.6724, 1290.843
157.1546, 1315.194
157.6367, 1314.505
158.1188, 1315.020
158.6009, 1327.040
159.0830, 1356.310
159.5652, 1383.816
160.0473, 1405.751
160.5294, 1422.835
161.0115, 1436.154
161.4936, 1443.318
161.9757, 1448.823
162.4579, 1455.580
162.9400, 1466.901
163.4221, 1474.837
163.9042, 1472.837
164.3863, 1463.971
164.8684, 1458.499
165.3506, 1464.804
165.8327, 1474.611
166.3148, 1481.174
166.7969, 1480.655
167.2790, 1478.410
167.7611, 1476.769
168.2433, 1475.743
168.7254, 1475.453
169.2075, 1476.571
169.6896, 1478.285
170.1717, 1479.640
170.6538, 1480.162
171.1360, 1480.270
171.6181, 1479.331
172.1002, 1477.246
172.5823, 1477.325
173.0644, 1482.901
173.5465, 1492.250
174.0287, 1502.376
174.5108, 1513.205
174.9929, 1523.511
175.4750, 1532.251
175.9571, 1539.392
176.4392, 1544.759
176.9214, 1546.559
177.4035, 1546.081
177.8856, 1546.935
178.3677, 1552.987
178.8498, 1561.142
179.3319, 1567.108
179.8141, 1570.807
180.2962, 1571.073
180.7783, 1565.982
181.2604, 1556.008
181.7425, 1543.175
182.2246, 1525.358
182.7068, 1505.721
183.1889, 1491.950
183.6710, 1487.603
184.1531, 1486.847
184.6352, 1480.194
185.1173, 1467.846
185.5995, 1454.607
186.0816, 1444.390
186.5637, 1436.490
187.0458, 1427.659
187.5279, 1415.371
188.0100, 1402.876
188.4922, 1399.666
188.9743, 1406.260
189.4564, 1414.045
189.9385, 1413.782
190.4206, 1406.555
190.9027, 1400.931
191.3849, 1401.506
191.8670, 1405.555
192.3491, 1400.754
192.8312, 1385.341
193.3133, 1369.543
193.7955, 1367.164
194.2776, 1377.917
194.7597, 1387.430
195.2418, 1390.232
195.7239, 1387.001
196.2060, 1382.367
196.6882, 1375.646
197.1703, 1369.335
197.6524, 1367.715
198.1345, 1371.084
198.6166, 1374.825
199.0987, 1375.449
199.5809, 1372.948
200.0630, 1377.656
200.5451, 1392.617
201.0272, 1410.222
201.5093, 1415.600
201.9914, 1406.694
202.4736, 1395.751
202.9557, 1387.117
203.4378, 1380.401
203.9199, 1381.358
204.4020, 1392.073
204.8841, 1409.070
205.3663, 1425.400
205.8484, 1442.574
206.3305, 1453.986
206.8126, 1452.840
207.2947, 1435.985
207.7768, 1426.905
208.2590, 1430.347
208.7411, 1442.019
209.2232, 1445.832
209.7053, 1438.703
210.1874, 1431.095
210.6695, 1430.893
211.1517, 1440.288
211.6338, 1447.798
212.1159, 1452.011
212.5980, 1453.164
213.0801, 1452.575
213.5622, 1450.178
214.0444, 1446.161
214.5265, 1439.991
215.0086, 1430.165
215.4907, 1422.843
215.9728, 1418.939
216.4549, 1418.382
216.9371, 1420.883
217.4192, 1428.248
217.9013, 1435.976
218.3834, 1439.985
218.8655, 1440.079
219.3476, 1436.721
219.8298, 1427.959
220.3119, 1413.758
220.7940, 1407.079
221.2761, 1411.044
221.7582, 1418.958
222.2403, 1423.846
222.7225, 1425.154
223.2046, 1424.046
223.6867, 1417.271
224.1688, 1402.787
224.6509, 1407.881
225.1330, 1443.769
225.6152, 1488.821
226.0973, 1514.527
226.5794, 1514.320
227.0615, 1507.510
227.5436, 1496.853
228.0257, 1480.206
228.5079, 1472.865
228.9900, 1479.561
229.4721, 1491.935
229.9542, 1497.305
230.4363, 1491.236
230.9185, 1486.215
231.4006, 1485.794
231.8827, 1490.403
232.3648, 1498.236
232.8469, 1511.272
233.3290, 1526.446
233.8112, 1539.058
234.2933, 1550.513
234.7754, 1556.948
235.2575, 1555.012
235.7396, 1539.004
236.2217, 1533.681
236.7039, 1544.142
237.1860, 1562.939
237.6681, 1574.862
238.1502, 1575.396
238.6323, 1576.196
239.1144, 1582.622
239.5966, 1599.321
240.0787, 1608.507
240.5608, 1606.509
241.0429, 1598.346
241.5250, 1595.786
242.0071, 1603.373
242.4893, 1609.674
242.9714, 1608.999
243.4535, 1595.662
243.9356, 1589.115
244.4177, 1593.089
244.8998, 1602.919
245.3820, 1605.631
245.8641, 1595.776
246.3462, 1586.811
246.8283, 1585.868
247.3104, 1598.901
247.7925, 1605.566
248.2747, 1603.648
248.7568, 1595.626
249.2389, 1587.886
249.7210, 1578.332
250.2031, 1572.234
250.6852, 1574.082
251.1674, 1592.355
251.6495, 1597.394
252.1316, 1582.612
252.6137, 1555.039
253.0958, 1536.955
253.5779, 1531.036
254.0601, 1530.462
254.5422, 1532.884
255.0243, 1541.384
255.5064, 1544.415
255.9885, 1538.602
256.4706, 1527.463
256.9528, 1523.275
257.4349, 1529.834
257.9170, 1537.085
258.3991, 1539.040
258.8812, 1532.509
259.3633, 1529.651
259.8455, 1532.011
260.3276, 1538.324
260.8097, 1544.098
261.2918, 1549.022
261.7739, 1554.066
262.2560, 1560.617
262.7382, 1570.820
263.2203, 1575.666
263.7024, 1572.708
264.1845, 1564.549
264.6666, 1560.350
265.1487, 1561.539
265.6309, 1563.815
266.1130, 1564.770
266.5951, 1564.201
267.0772, 1562.973
267.5593, 1560.892
268.0414, 1558.269
268.5236, 1555.589
269.0057, 1551.613
269.4878, 1550.507
269.9699, 1556.304
270.4520, 1571.387
270.9341, 1581.958
271.4163, 1585.498
271.8984, 1584.491
272.3805, 1586.564
272.8626, 1592.348
273.3447, 1599.428
273.8268, 1607.152
274.3090, 1616.019
274.7911, 1621.763
275.2732, 1623.282
275.7553, 1621.846
276.2374, 1620.586
276.7195, 1619.381
277.2017, 1618.771
277.6838, 1620.234
278.1659, 1624.261
278.6480, 1622.854
279.1301, 1611.925
279.6122, 1598.395
280.0944, 1601.433
280.5765, 1623.818
281.0586, 1647.080
281.5407, 1658.591
282.0229, 1658.236
282.5050, 1661.671
282.9871, 1671.729
283.4692, 1684.384
283.9513, 1691.998
284.4334, 1694.557
284.9156, 1692.189
285.3977, 1680.784
285.8798, 1661.594
286.3619, 1653.035
286.8440, 1659.622
287.3261, 1672.547
287.8083, 1674.837
288.2904, 1666.408
288.7725, 1656.679
289.2546, 1651.520
289.7367, 1650.096
290.2188, 1646.458
290.7010, 1638.895
291.1831, 1631.760
291.6652, 1633.632
292.1473, 1643.953
292.6294, 1654.623
293.1115, 1662.840
293.5937, 1668.036
294.0758, 1667.266
294.5579, 1659.172
295.0400, 1648.460
295.5221, 1640.846
296.0042, 1636.104
296.4864, 1633.324
296.9685, 1631.201
297.4506, 1630.706
297.9327, 1635.241
298.4148, 1646.003
298.8969, 1657.620
299.3791, 1662.778
299.8612, 1662.992
300.3433, 1663.277
300.8254, 1666.114
301.3075, 1670.698
301.7896, 1676.201
302.2718, 1682.880
302.7539, 1688.758
303.2360, 1688.665
303.7181, 1685.946
304.2002, 1688.776
304.6823, 1708.259
305.1645, 1732.121
305.6466, 1743.729
306.1287, 1741.536
306.6108, 1738.042
307.0929, 1746.030
307.5750, 1759.770
308.0572, 1769.075
308.5393, 1765.937
309.0214, 1758.540
309.5035, 1752.431
309.9856, 1747.811
310.4677, 1747.138
310.9499, 1756.143
311.4320, 1769.161
311.9141, 1778.465
312.3962, 1778.350
312.8783, 1775.786
313.3604, 1774.884
313.8426, 1775.695
314.3247, 1777.099
314.8068, 1775.799
315.2889, 1775.802
315.7710, 1781.247
316.2531, 1803.552
316.7353, 1822.643
317.2174, 1826.223
317.6995, 1815.861
318.1816, 1808.301
318.6637, 1808.851
319.1458, 1815.546
319.6280, 1826.809
320.1101, 1853.219
320.5922, 1872.971
321.0743, 1873.637
321.5564, 1859.424
322.0385, 1853.888
322.5207, 1871.518
323.0028, 1894.475
323.4849, 1911.546
323.9670, 1916.204
324.4491, 1920.782
324.9312, 1926.111
325.4134, 1932.497
325.8955, 1941.086
326.3776, 1957.299
326.8597, 1971.795
327.3418, 1979.979
327.8239, 1972.883
328.3061, 1971.656
328.7882, 1980.359
329.2703, 1995.366
329.7524, 2007.433
330.2345, 2015.093
330.7166, 2021.244
331.1988, 2027.019
331.6809, 2032.933
332.1630, 2036.931
332.6451, 2037.716
333.1272, 2037.057
333.6093, 2038.295
334.0915, 2042.476
334.5736, 2046.934
335.0557, 2050.888
335.5378, 2054.268
336.0199, 2057.607
336.5020, 2061.966
336.9842, 2065.296
337.4663, 2064.412
337.9484, 2057.994
338.4305, 2050.746
338.9126, 2042.711
339.3947, 2033.901
339.8769, 2032.225
340.3590, 2040.785
340.8411, 2050.140
341.3232, 2047.594
341.8053, 2030.969
342.2874, 2019.567
342.7696, 2019.548
343.2517, 2028.866
343.7338, 2037.177
344.2159, 2044.666
344.6980, 2050.808
345.1801, 2055.246
345.6623, 2057.958
346.1444, 2059.107
346.6265, 2058.470
347.1086, 2056.498
347.5907, 2053.729
348.0728, 2050.219
348.5550, 2047.162
349.0371, 2045.457
349.5192, 2044.962
350.0013, 2045.589
350.4834, 2048.036
350.9655, 2050.190
351.4477, 2047.172
351.9298, 2040.255
352.4119, 2035.980
352.8940, 2043.238
353.3762, 2054.461
353.8583, 2056.349
354.3404, 2045.793
354.8225, 2031.552
355.3046, 2017.396
355.7867, 2005.679
356.2689, 2002.045
356.7510, 2017.980
357.2331, 2038.283
357.7152, 2047.819
358.1973, 2044.528
358.6794, 2040.169
359.1616, 2043.370
359.6437, 2049.938
360.1258, 2054.007
360.6079, 2045.696
361.0900, 2040.562
361.5721, 2051.012
362.0543, 2076.999
362.5364, 2097.497
363.0185, 2095.732
363.5006, 2088.398
363.9827, 2090.471
364.4648, 2124.427
364.9470, 2148.948
365.4291, 2147.991
365.9112, 2124.962
366.3933, 2104.909
366.8754, 2089.508
367.3575, 2080.431
367.8397, 2078.819
368.3218, 2093.886
368.8039, 2105.042
369.2860, 2108.339
369.7681, 2106.581
370.2502, 2108.512
370.7324, 2122.976
371.2145, 2132.216
371.6966, 2127.456
372.1787, 2097.848
372.6608, 2081.949
373.1429, 2086.323
373.6251, 2100.856
374.1072, 2108.834
374.5893, 2107.703
375.0714, 2104.966
375.5535, 2101.454
376.0356, 2096.648
376.5178, 2101.209
376.9999, 2120.744
377.4820, 2139.971
377.9641, 2137.008
378.4462, 2107.354
378.9283, 2085.887
379.4105, 2084.528
379.8926, 2098.047
380.3747, 2099.736
380.8568, 2087.260
381.3389, 2077.539
381.8210, 2090.693
382.3032, 2122.968
382.7853, 2143.598
383.2674, 2144.560
383.7495, 2134.193
384.2316, 2124.813
384.7137, 2116.695
385.1959, 2113.928
385.6780, 2123.657
386.1601, 2140.087
386.6422, 2149.967
387.1243, 2150.557
387.6064, 2149.065
388.0886, 2155.169
388.5707, 2165.582
389.0528, 2171.630
389.5349, 2163.439
390.0170, 2152.052
390.4991, 2148.386
390.9813, 2153.463
391.4634, 2160.926
391.9455, 2167.595
392.4276, 2173.949
392.9097, 2180.598
393.3918, 2191.114
393.8740, 2198.934
394.3561, 2198.704
394.8382, 2191.442
395.3203, 2187.006
395.8024, 2191.241
396.2845, 2198.250
396.7667, 2204.049
397.2488, 2208.000
397.7309, 2210.571
398.2130, 2213.177
398.6951, 2214.661
399.1772, 2211.351
399.6594, 2192.079
400.1415, 2177.355
400.6236, 2176.604
401.1057, 2201.229
401.5878, 2212.210
402.0699, 2199.872
402.5521, 2178.604
403.0342, 2169.718
403.5163, 2178.288
403.9984, 2190.704
404.4805, 2207.031
404.9626, 2227.446
405.4448, 2230.458
405.9269, 2208.588
406.4090, 2183.050
406.8911, 2175.887
407.3732, 2190.125
407.8553, 2202.305
408.3375, 2207.649
408.8196, 2208.381
409.3017, 2212.521
409.7838, 2220.668
410.2659, 2225.483
410.7480, 2219.681
411.2302, 2205.378
411.7123, 2192.530
412.1944, 2181.688
412.6765, 2174.402
413.1586, 2173.496
413.6407, 2178.253
414.1229, 2185.438
414.6050, 2198.467
415.0871, 2211.159
415.5692, 2211.738
416.0513, 2199.310
416.5334, 2186.314
417.0156, 2183.220
417.4977, 2185.664
417.9798, 2187.136
418.4619, 2183.822
418.9440, 2180.055
419.4261, 2177.209
419.9083, 2175.739
420.3904, 2177.955
420.8725, 2189.654
421.3546, 2202.528
421.8367, 2210.618
422.3188, 2212.039
422.8010, 2210.143
423.2831, 2202.521
423.7652, 2192.302
424.2473, 2185.994
424.7295, 2190.642
425.2116, 2193.642
425.6937, 2189.703
426.1758, 2175.808
426.6579, 2166.760
427.1400, 2165.705
427.6222, 2167.333
428.1043, 2165.879
428.5864, 2158.524
429.0685, 2154.096
429.5506, 2156.406
430.0327, 2163.694
430.5149, 2161.244
430.9970, 2145.005
431.4791, 2128.713
431.9612, 2122.723
432.4433, 2127.618
432.9254, 2132.500
433.4076, 2136.680
433.8897, 2139.875
434.3718, 2141.046
434.8539, 2140.253
435.3360, 2139.650
435.8181, 2142.892
436.3003, 2147.074
436.7824, 2140.553
437.2645, 2121.920
437.7466, 2106.533
438.2287, 2114.115
438.7108, 2136.169
439.1930, 2154.207
439.6751, 2162.494
440.1572, 2163.358
440.6393, 2153.940
441.1214, 2136.877
441.6035, 2125.189
442.0857, 2132.596
442.5678, 2145.113
443.0499, 2149.535
443.5320, 2137.864
444.0141, 2131.755
444.4962, 2148.149
444.9784, 2174.402
445.4605, 2189.336
445.9426, 2172.065
446.4247, 2157.069
446.9068, 2158.356
447.3889, 2179.485
447.8711, 2194.225
448.3532, 2197.842
448.8353, 2196.688
449.3174, 2195.196
449.7995, 2192.153
450.2816, 2190.789
450.7638, 2191.430
451.2459, 2193.986
451.7280, 2199.261
452.2101, 2210.126
452.6922, 2216.857
453.1743, 2212.736
453.6565, 2196.430
454.1386, 2183.593
454.6207, 2175.073
455.1028, 2168.509
455.5849, 2158.966
456.0670, 2146.909
456.5492, 2140.379
457.0313, 2145.557
457.5134, 2156.733
457.9955, 2159.352
458.4776, 2153.706
458.9597, 2147.102
459.4419, 2147.498
459.9240, 2150.405
460.4061, 2147.179
460.8882, 2133.577
461.3703, 2119.403
461.8524, 2114.954
462.3346, 2116.588
462.8167, 2115.952
463.2988, 2106.855
463.7809, 2095.924
464.2630, 2087.421
464.7451, 2081.942
465.2273, 2076.124
465.7094, 2064.847
466.1915, 2054.724
466.6736, 2051.602
467.1557, 2060.981
467.6378, 2072.538
468.1200, 2089.567
468.6021, 2109.072
469.0842, 2116.684
469.5663, 2105.702
470.0484, 2090.634
470.5305, 2075.794
471.0127, 2058.247
471.4948, 2052.420
471.9769, 2062.919
472.4590, 2079.308
472.9411, 2087.399
473.4232, 2086.364
473.9054, 2082.005
474.3875, 2074.287
474.8696, 2064.803
475.3517, 2060.573
475.8338, 2061.748
476.3159, 2064.647
476.7981, 2066.430
477.2802, 2067.650
477.7623, 2070.508
478.2444, 2076.023
478.7265, 2081.046
479.2086, 2083.270
479.6908, 2082.224
480.1729, 2076.642
480.6550, 2055.402
481.1371, 2036.519
481.6192, 2039.750
482.1013, 2064.745
482.5835, 2086.437
483.0656, 2088.003
483.5477, 2082.819
484.0298, 2082.116
484.5119, 2092.939
484.9940, 2102.360
485.4762, 2110.201
485.9583, 2114.813
486.4404, 2111.953
486.9225, 2092.187
487.4046, 2073.650
487.8867, 2060.516
488.3689, 2052.700
488.8510, 2051.097
489.3331, 2057.354
489.8152, 2067.788
490.2973, 2080.412
490.7794, 2097.049
491.2616, 2107.513
491.7437, 2109.574
492.2258, 2104.990
492.7079, 2096.473
493.1900, 2083.771
493.6722, 2073.529
494.1543, 2074.173
494.6364, 2080.839
495.1185, 2074.580
495.6006, 2053.362
496.0828, 2030.511
496.5649, 2019.414
497.0470, 2016.767
497.5291, 2016.221
498.0112, 2017.428
498.4933, 2017.942
498.9755, 2015.865
499.4576, 2011.387
499.9397, 2005.297
500.4218, 1992.156
500.9039, 1981.624
501.3860, 1981.770
501.8682, 1998.643
502.3503, 2009.735
502.8324, 2006.829
503.3145, 1996.619
503.7966, 1987.069
504.2787, 1979.751
504.7609, 1971.578
505.2430, 1960.605
505.7251, 1947.870
506.2072, 1941.046
506.6893, 1943.835
507.1714, 1946.000
507.6536, 1940.510
508.1357, 1925.791
508.6178, 1917.860
509.0999, 1919.473
509.5820, 1922.572
510.0641, 1912.823
510.5463, 1891.625
511.0284, 1877.372
511.5105, 1878.453
511.9926, 1887.914
512.4747, 1893.635
512.9568, 1895.781
513.4390, 1895.752
513.9211, 1895.295
514.4032, 1892.872
514.8853, 1884.979
515.3674, 1869.050
515.8495, 1856.370
516.3317, 1855.952
516.8138, 1862.433
517.2959, 1868.400
517.7780, 1872.840
518.2601, 1875.074
518.7422, 1873.503
519.2244, 1868.661
519.7065, 1865.693
520.1886, 1867.411
520.6707, 1869.194
521.1528, 1868.771
521.6349, 1864.447
522.1171, 1862.735
522.5992, 1866.037
523.0813, 1869.538
523.5634, 1865.470
524.0455, 1851.937
524.5276, 1840.641
525.0098, 1833.297
525.4919, 1830.875
525.9740, 1840.400
526.4561, 1862.371
526.9382, 1880.122
527.4203, 1876.830
527.9025, 1861.736
528.3846, 1859.562
528.8667, 1874.884
529.3488, 1888.329
529.8309, 1876.121
530.3130, 1850.737
530.7952, 1832.245
531.2773, 1833.145
531.7594, 1838.888
532.2415, 1845.083
532.7236, 1850.595
533.2057, 1850.309
533.6879, 1832.003
534.1700, 1815.998
534.6521, 1813.400
535.1342, 1830.752
535.6163, 1845.970
536.0984, 1862.059
536.5806, 1873.452
537.0627, 1872.447
537.5448, 1851.178
538.0269, 1836.880
538.5090, 1835.792
538.9911, 1843.654
539.4733, 1846.183
539.9554, 1842.561
540.4375, 1839.754
540.9196, 1843.892
541.4017, 1852.623
541.8839, 1852.399
542.3660, 1841.868
542.8481, 1833.370
543.3302, 1842.275
543.8123, 1861.229
544.2944, 1875.921
544.7766, 1882.339
545.2587, 1883.331
545.7408, 1879.111
546.2229, 1871.023
546.7050, 1862.300
547.1871, 1849.106
547.6693, 1840.007
548.1514, 1841.609
548.6335, 1855.622
549.1156, 1865.670
549.5977, 1868.574
550.0798, 1867.141
550.5620, 1862.834
551.0441, 1852.125
551.5262, 1845.816
552.0083, 1846.635
552.4904, 1850.408
552.9725, 1846.716
553.4547, 1832.676
553.9368, 1826.961
554.4189, 1840.832
554.9010, 1867.364
555.3831, 1877.956
555.8652, 1872.380
556.3474, 1862.586
556.8295, 1857.087
557.3116, 1854.240
557.7937, 1850.386
558.2758, 1844.510
558.7579, 1839.705
559.2401, 1839.362
559.7222, 1841.696
560.2043, 1843.960
560.6864, 1842.173
561.1685, 1842.969
561.6506, 1851.938
562.1328, 1867.061
562.6149, 1877.665
563.0970, 1877.938
563.5791, 1876.599
564.0612, 1877.757
564.5433, 1883.106
565.0255, 1883.877
565.5076, 1876.628
565.9897, 1868.880
566.4718, 1870.751
566.9539, 1885.230
567.4360, 1888.755
567.9182, 1873.396
568.4003, 1850.402
568.8824, 1845.705
569.3645, 1857.938
569.8466, 1869.881
570.3287, 1869.604
570.8109, 1864.240
571.2930, 1866.672
571.7751, 1876.747
572.2572, 1886.553
572.7393, 1892.273
573.2214, 1894.169
573.7036, 1891.620
574.1857, 1881.367
574.6678, 1874.023
575.1499, 1878.029
575.6320, 1886.167
576.1141, 1887.904
576.5963, 1870.106
577.0784, 1858.967
577.5605, 1862.398
578.0426, 1877.510
578.5247, 1886.068
579.0068, 1886.298
579.4890, 1883.451
579.9711, 1877.813
580.4532, 1868.793
580.9353, 1871.813
581.4174, 1889.936
581.8995, 1907.410
582.3817, 1902.221
582.8638, 1880.715
583.3459, 1866.586
583.8280, 1866.937
584.3101, 1874.070
584.7922, 1882.531
585.2744, 1891.057
585.7565, 1896.620
586.2386, 1897.451
586.7207, 1895.138
587.2028, 1889.860
587.6849, 1881.771
588.1671, 1873.271
588.6492, 1856.837
589.1313, 1846.191
589.6134, 1851.834
590.0955, 1888.767
590.5776, 1908.107
591.0598, 1901.571
591.5419, 1884.877
592.0240, 1879.222
592.5061, 1887.099
592.9882, 1893.287
593.4703, 1893.501
593.9525, 1890.898
594.4346, 1893.795
594.9167, 1901.823
595.3988, 1909.799
595.8809, 1917.634
596.3630, 1922.440
596.8452, 1916.923
597.3273, 1901.126
597.8094, 1886.389
598.2915, 1880.365
598.7736, 1879.134
599.2557, 1878.870
599.7379, 1878.115
600.2200, 1879.616
600.7021, 1884.766
601.1843, 1892.527
601.6664, 1901.541
602.1485, 1918.755
602.6306, 1927.128
603.1127, 1919.322
603.5948, 1899.896
604.0770, 1893.090
604.5591, 1902.059
605.0412, 1913.442
605.5233, 1920.386
606.0054, 1923.424
606.4875, 1927.882
606.9697, 1934.252
607.4518, 1936.745
607.9339, 1923.592
608.4160, 1903.278
608.8981, 1894.910
609.3802, 1905.903
609.8624, 1919.702
610.3445, 1924.285
610.8266, 1923.135
611.3087, 1922.194
611.7908, 1927.102
612.2729, 1928.897
612.7551, 1919.597
613.2372, 1901.997
613.7193, 1897.141
614.2014, 1918.676
614.6835, 1936.778
615.1656, 1937.900
615.6478, 1919.759
616.1299, 1905.946
616.6120, 1896.138
617.0941, 1891.790
617.5762, 1897.144
618.0583, 1910.736
618.5405, 1919.347
619.0226, 1920.082
619.5047, 1918.104
619.9868, 1919.907
620.4689, 1924.095
620.9510, 1927.316
621.4332, 1925.672
621.9153, 1924.740
622.3974, 1932.292
622.8795, 1944.881
623.3616, 1948.391
623.8438, 1923.842
624.3259, 1901.577
624.8080, 1897.420
625.2901, 1914.840
625.7722, 1930.214
626.2543, 1945.588
626.7365, 1956.370
627.2186, 1957.240
627.7007, 1945.943
628.1828, 1939.673
628.6649, 1940.685
629.1470, 1944.580
629.6292, 1946.236
630.1113, 1945.527
630.5934, 1941.214
631.0755, 1929.374
631.5576, 1917.976
632.0397, 1918.507
632.5219, 1928.062
633.0040, 1937.616
633.4861, 1941.997
633.9682, 1945.446
634.4503, 1951.800
634.9324, 1961.394
635.4146, 1965.814
635.8967, 1960.328
636.3788, 1951.516
636.8609, 1942.267
637.3430, 1930.853
637.8251, 1923.815
638.3073, 1921.604
638.7894, 1923.175
639.2715, 1928.134
639.7536, 1936.498
640.2357, 1945.907
640.7178, 1958.147
641.2000, 1967.138
641.6821, 1955.662
642.1642, 1930.872
642.6463, 1918.372
643.1284, 1946.620
643.6105, 1980.033
644.0927, 1986.929
644.5748, 1970.638
645.0569, 1954.505
645.5390, 1943.217
646.0211, 1937.896
646.5032, 1940.713
646.9854, 1955.382
647.4675, 1964.443
647.9496, 1963.221
648.4317, 1961.655
648.9138, 1969.513
649.3959, 1989.537
649.8781, 2001.845
650.3602, 2003.576
650.8423, 1999.495
651.3244, 1996.296
651.8065, 1993.526
