##NAMES=Geminite
##RRUFFID=R070434
##IDEAL CHEMISTRY=Cu^2+^(As^5+^O_3_OH)&#183;H_2_O
##LOCALITY=Jáchymov (St Joachimsthal), Ostrov, Krusné Hory Mountains (Erzgebirge), Karlovy Vary Region, Bohemia (Böhmen; Boehmen), Czech Republic
##OWNER=RRUFF
##SOURCE=Michael Scott
##DESCRIPTION=Stellate aggregates of pale green bladed crystals
##STATUS=The identification of this mineral has been confirmed by single-crystal X-ray diffraction.
##URL=rruff.info/R070434
160.0806, 1063.606
160.5627, 1095.379
161.0449, 1116.496
161.5270, 1124.350
162.0091, 1128.914
162.4912, 1139.065
162.9733, 1151.050
163.4554, 1157.296
163.9376, 1148.027
164.4197, 1133.341
164.9018, 1134.555
165.3839, 1158.297
165.8660, 1179.247
166.3481, 1176.142
166.8303, 1160.062
167.3124, 1149.660
167.7945, 1157.424
168.2766, 1174.043
168.7587, 1176.924
169.2408, 1158.294
169.7230, 1143.720
170.2051, 1151.283
170.6872, 1170.752
171.1693, 1186.392
171.6514, 1189.805
172.1335, 1185.293
172.6157, 1183.887
173.0978, 1187.703
173.5799, 1190.347
174.0620, 1188.881
174.5441, 1184.642
175.0262, 1179.253
175.5084, 1172.877
175.9905, 1166.223
176.4726, 1161.040
176.9547, 1157.101
177.4368, 1155.316
177.9189, 1156.266
178.4010, 1159.135
178.8832, 1163.423
179.3653, 1170.132
179.8474, 1177.002
180.3295, 1176.340
180.8116, 1161.833
181.2937, 1151.015
181.7759, 1152.695
182.2580, 1159.657
182.7401, 1163.353
183.2222, 1159.850
183.7043, 1150.140
184.1864, 1135.192
184.6686, 1106.277
185.1507, 1088.387
185.6328, 1094.914
186.1149, 1111.763
186.5970, 1122.422
187.0791, 1118.605
187.5613, 1106.013
188.0434, 1099.981
188.5255, 1105.091
189.0076, 1109.209
189.4897, 1111.124
189.9718, 1110.327
190.4540, 1105.294
190.9361, 1094.983
191.4182, 1082.415
191.9003, 1075.005
192.3824, 1074.903
192.8645, 1076.575
193.3467, 1081.925
193.8288, 1086.964
194.3109, 1086.199
194.7930, 1077.308
195.2751, 1066.075
195.7572, 1065.671
196.2394, 1082.918
196.7215, 1098.698
197.2036, 1116.341
197.6857, 1128.766
198.1678, 1126.735
198.6499, 1107.610
199.1321, 1081.540
199.6142, 1067.969
200.0963, 1074.445
200.5784, 1078.869
201.0605, 1078.541
201.5426, 1076.256
202.0248, 1073.067
202.5069, 1069.578
202.9890, 1067.521
203.4711, 1071.137
203.9532, 1087.262
204.4353, 1093.119
204.9175, 1079.116
205.3996, 1062.128
205.8817, 1053.092
206.3638, 1054.327
206.8459, 1061.421
207.3280, 1069.205
207.8102, 1079.008
208.2923, 1085.766
208.7744, 1088.777
209.2565, 1089.730
209.7386, 1090.212
210.2207, 1090.012
210.7029, 1086.965
211.1850, 1076.916
211.6671, 1055.626
212.1492, 1043.421
212.6313, 1046.175
213.1134, 1052.300
213.5956, 1057.359
214.0777, 1060.673
214.5598, 1063.282
215.0419, 1066.326
215.5240, 1070.083
216.0061, 1072.309
216.4883, 1071.012
216.9704, 1070.061
217.4525, 1072.012
217.9346, 1075.801
218.4167, 1078.038
218.8988, 1075.191
219.3810, 1066.997
219.8631, 1063.354
220.3452, 1068.656
220.8273, 1074.508
221.3094, 1080.339
221.7915, 1084.978
222.2737, 1086.350
222.7558, 1082.387
223.2379, 1073.833
223.7200, 1069.035
224.2021, 1071.158
224.6842, 1073.937
225.1664, 1076.676
225.6485, 1079.133
226.1306, 1080.934
226.6127, 1081.719
227.0948, 1081.995
227.5770, 1084.085
228.0591, 1091.181
228.5412, 1095.685
229.0233, 1095.103
229.5054, 1091.869
229.9875, 1088.387
230.4697, 1085.683
230.9518, 1083.996
231.4339, 1084.215
231.9160, 1088.560
232.3981, 1090.914
232.8802, 1090.639
233.3624, 1088.318
233.8445, 1083.366
234.3266, 1075.789
234.8087, 1068.255
235.2908, 1065.986
235.7729, 1072.203
236.2551, 1076.048
236.7372, 1073.544
237.2193, 1070.794
237.7014, 1073.140
238.1835, 1081.028
238.6656, 1089.288
239.1478, 1089.888
239.6299, 1078.771
240.1120, 1075.228
240.5941, 1088.854
241.0762, 1102.875
241.5583, 1108.133
242.0405, 1105.170
242.5226, 1101.384
243.0047, 1105.668
243.4868, 1119.404
243.9689, 1124.404
244.4510, 1111.650
244.9332, 1098.140
245.4153, 1087.825
245.8974, 1081.712
246.3795, 1081.063
246.8616, 1088.369
247.3437, 1102.500
247.8259, 1113.129
248.3080, 1121.231
248.7901, 1123.835
249.2722, 1116.551
249.7543, 1104.274
250.2364, 1095.045
250.7186, 1093.809
251.2007, 1097.638
251.6828, 1097.185
252.1649, 1088.013
252.6470, 1083.831
253.1291, 1091.180
253.6113, 1104.243
254.0934, 1117.389
254.5755, 1128.819
255.0576, 1138.723
255.5397, 1148.811
256.0219, 1161.043
256.5040, 1165.735
256.9861, 1150.206
257.4682, 1131.660
257.9503, 1123.411
258.4324, 1128.484
258.9146, 1137.496
259.3967, 1140.293
259.8788, 1136.521
260.3609, 1135.102
260.8430, 1141.555
261.3251, 1147.330
261.8073, 1145.431
262.2894, 1136.028
262.7715, 1125.848
263.2536, 1117.697
263.7357, 1112.129
264.2178, 1113.156
264.7000, 1124.380
265.1821, 1137.543
265.6642, 1148.000
266.1463, 1155.714
266.6284, 1160.006
267.1105, 1157.667
267.5927, 1152.214
268.0748, 1152.156
268.5569, 1159.621
269.0390, 1166.156
269.5211, 1166.172
270.0032, 1161.232
270.4854, 1152.671
270.9675, 1135.723
271.4496, 1119.472
271.9317, 1115.198
272.4138, 1123.182
272.8959, 1134.130
273.3781, 1145.768
273.8602, 1156.372
274.3423, 1163.186
274.8244, 1165.765
275.3065, 1165.099
275.7886, 1159.791
276.2708, 1151.191
276.7529, 1145.174
277.2350, 1144.757
277.7171, 1146.582
278.1992, 1145.334
278.6813, 1141.124
279.1635, 1134.678
279.6456, 1123.525
280.1277, 1110.910
280.6098, 1101.771
281.0919, 1096.906
281.5740, 1097.300
282.0562, 1107.172
282.5383, 1127.821
283.0204, 1140.565
283.5025, 1136.909
283.9846, 1128.501
284.4667, 1127.577
284.9489, 1134.421
285.4310, 1138.094
285.9131, 1127.814
286.3952, 1104.086
286.8773, 1091.534
287.3594, 1097.319
287.8416, 1106.183
288.3237, 1113.826
288.8058, 1118.857
289.2879, 1117.482
289.7700, 1106.459
290.2521, 1089.350
290.7343, 1081.571
291.2164, 1092.945
291.6985, 1100.819
292.1806, 1099.344
292.6627, 1093.419
293.1448, 1088.300
293.6270, 1085.918
294.1091, 1086.682
294.5912, 1091.904
295.0733, 1108.222
295.5554, 1115.971
296.0375, 1107.150
296.5197, 1096.160
297.0018, 1095.590
297.4839, 1105.212
297.9660, 1113.363
298.4481, 1106.001
298.9302, 1078.660
299.4124, 1067.264
299.8945, 1087.885
300.3766, 1107.882
300.8587, 1117.262
301.3408, 1117.205
301.8229, 1111.387
302.3050, 1100.910
302.7871, 1088.057
303.2693, 1085.795
303.7514, 1108.641
304.2335, 1120.250
304.7156, 1103.078
305.1977, 1076.500
305.6798, 1061.775
306.1620, 1066.942
306.6441, 1082.699
307.1262, 1094.540
307.6083, 1101.611
308.0904, 1107.751
308.5725, 1113.639
309.0547, 1118.708
309.5368, 1122.648
310.0189, 1125.394
310.5010, 1126.746
310.9831, 1126.730
311.4652, 1125.291
311.9474, 1120.823
312.4295, 1108.332
312.9116, 1100.215
313.3937, 1107.075
313.8758, 1124.033
314.3579, 1138.354
314.8401, 1143.162
315.3222, 1142.341
315.8043, 1142.294
316.2864, 1143.081
316.7685, 1144.294
317.2506, 1145.691
317.7328, 1147.415
318.2149, 1149.972
318.6970, 1154.546
319.1791, 1157.950
319.6612, 1156.416
320.1433, 1151.198
320.6255, 1148.185
321.1076, 1150.062
321.5897, 1153.920
322.0718, 1154.902
322.5539, 1152.593
323.0360, 1150.806
323.5182, 1150.997
324.0003, 1152.141
324.4824, 1153.515
324.9645, 1154.983
325.4466, 1154.821
325.9287, 1150.574
326.4109, 1141.686
326.8930, 1136.843
327.3751, 1137.573
327.8572, 1140.723
328.3393, 1145.744
328.8214, 1151.862
329.3036, 1157.285
329.7857, 1160.939
330.2678, 1163.189
330.7499, 1165.581
331.2320, 1165.151
331.7141, 1168.593
332.1963, 1182.224
332.6784, 1197.524
333.1605, 1204.318
333.6426, 1199.851
334.1247, 1190.498
334.6068, 1185.418
335.0890, 1185.350
335.5711, 1187.918
336.0532, 1200.302
336.5353, 1208.742
337.0174, 1203.422
337.4995, 1187.096
337.9817, 1169.747
338.4638, 1158.642
338.9459, 1153.535
339.4280, 1152.696
339.9101, 1159.967
340.3922, 1165.894
340.8744, 1165.905
341.3565, 1163.789
341.8386, 1165.482
342.3207, 1174.139
342.8028, 1182.922
343.2849, 1178.680
343.7671, 1158.505
344.2492, 1146.418
344.7313, 1156.206
345.2134, 1169.799
345.6955, 1171.753
346.1776, 1161.579
346.6598, 1151.293
347.1419, 1147.476
347.6240, 1149.324
348.1061, 1156.283
348.5882, 1170.548
349.0703, 1182.917
349.5525, 1182.566
350.0346, 1174.036
350.5167, 1170.934
350.9988, 1182.133
351.4809, 1194.463
351.9630, 1196.776
352.4452, 1190.403
352.9273, 1181.623
353.4094, 1171.700
353.8915, 1163.132
354.3736, 1164.484
354.8557, 1183.795
355.3379, 1194.268
355.8200, 1179.831
356.3021, 1157.985
356.7842, 1152.126
357.2663, 1166.426
357.7484, 1184.612
358.2306, 1188.222
358.7127, 1174.091
359.1948, 1162.294
359.6769, 1151.011
360.1590, 1143.445
360.6411, 1143.184
361.1233, 1147.693
361.6054, 1151.673
362.0875, 1151.981
362.5696, 1149.600
363.0517, 1147.964
363.5338, 1145.998
364.0160, 1146.765
364.4981, 1154.758
364.9802, 1162.753
365.4623, 1163.612
365.9444, 1156.294
366.4265, 1146.892
366.9087, 1140.392
367.3908, 1136.437
367.8729, 1141.861
368.3550, 1168.829
368.8371, 1190.813
369.3192, 1191.071
369.8014, 1176.462
370.2835, 1163.772
370.7656, 1161.983
371.2477, 1165.652
371.7298, 1165.567
372.2119, 1161.318
372.6941, 1157.149
373.1762, 1153.733
373.6583, 1152.255
374.1404, 1155.906
374.6225, 1167.864
375.1046, 1173.844
375.5868, 1158.550
376.0689, 1133.336
376.5510, 1122.137
377.0331, 1130.704
377.5152, 1146.590
377.9973, 1158.319
378.4795, 1165.362
378.9616, 1170.525
379.4437, 1174.511
379.9258, 1175.989
380.4079, 1170.452
380.8900, 1161.377
381.3722, 1160.300
381.8543, 1174.925
382.3364, 1196.642
382.8185, 1199.099
383.3006, 1157.143
383.7827, 1128.292
384.2649, 1119.107
384.7470, 1119.844
385.2291, 1123.671
385.7112, 1128.906
386.1933, 1136.698
386.6754, 1149.877
387.1576, 1169.119
387.6397, 1179.604
388.1218, 1173.958
388.6039, 1167.661
389.0860, 1166.243
389.5681, 1167.404
390.0503, 1167.316
390.5324, 1164.265
391.0145, 1159.479
391.4966, 1154.800
391.9787, 1150.310
392.4608, 1145.103
392.9430, 1136.802
393.4251, 1129.799
393.9072, 1128.722
394.3893, 1133.542
394.8714, 1138.943
395.3535, 1141.994
395.8357, 1144.073
396.3178, 1148.254
396.7999, 1154.984
397.2820, 1160.297
397.7641, 1161.500
398.2462, 1158.780
398.7284, 1154.547
399.2105, 1148.336
399.6926, 1141.235
400.1747, 1131.602
400.6568, 1121.839
401.1389, 1116.766
401.6211, 1117.974
402.1032, 1121.238
402.5853, 1119.874
403.0674, 1110.562
403.5495, 1107.010
404.0316, 1112.260
404.5138, 1119.554
404.9959, 1127.441
405.4780, 1134.486
405.9601, 1138.270
406.4422, 1137.072
406.9243, 1131.946
407.4065, 1126.296
407.8886, 1119.034
408.3707, 1113.569
408.8528, 1111.943
409.3349, 1111.273
409.8170, 1108.866
410.2992, 1104.462
410.7813, 1100.720
411.2634, 1098.259
411.7455, 1097.917
412.2276, 1106.421
412.7097, 1129.286
413.1919, 1148.689
413.6740, 1147.571
414.1561, 1134.430
414.6382, 1125.538
415.1203, 1126.366
415.6024, 1129.169
416.0846, 1128.341
416.5667, 1124.862
417.0488, 1121.750
417.5309, 1120.050
418.0130, 1118.995
418.4951, 1117.107
418.9773, 1113.260
419.4594, 1112.838
419.9415, 1124.335
420.4236, 1132.470
420.9057, 1121.938
421.3878, 1097.956
421.8700, 1078.799
422.3521, 1076.540
422.8342, 1087.561
423.3163, 1096.333
423.7984, 1102.707
424.2805, 1106.831
424.7627, 1106.075
425.2448, 1105.076
425.7269, 1109.981
426.2090, 1120.400
426.6911, 1127.489
427.1732, 1118.387
427.6554, 1095.267
428.1375, 1086.813
428.6196, 1101.356
429.1017, 1114.601
429.5838, 1111.295
430.0659, 1099.497
430.5481, 1090.793
431.0302, 1088.444
431.5123, 1088.528
431.9944, 1090.312
432.4765, 1092.267
432.9586, 1086.566
433.4408, 1068.602
433.9229, 1051.627
434.4050, 1054.369
434.8871, 1079.682
435.3692, 1093.574
435.8513, 1084.793
436.3335, 1072.591
436.8156, 1067.474
437.2977, 1068.684
437.7798, 1072.959
438.2619, 1078.912
438.7440, 1085.074
439.2262, 1087.213
439.7083, 1079.649
440.1904, 1078.389
440.6725, 1097.110
441.1546, 1110.581
441.6367, 1095.290
442.1189, 1057.345
442.6010, 1024.746
443.0831, 1020.544
443.5652, 1037.443
444.0473, 1047.644
444.5294, 1049.919
445.0116, 1048.889
445.4937, 1041.003
445.9758, 1033.427
446.4579, 1035.949
446.9400, 1051.576
447.4221, 1062.714
447.9043, 1051.418
448.3864, 1029.393
448.8685, 1023.566
449.3506, 1038.496
449.8327, 1055.160
450.3148, 1059.127
450.7970, 1051.215
451.2791, 1043.137
451.7612, 1031.714
452.2433, 1023.798
452.7254, 1024.016
453.2076, 1028.265
453.6897, 1031.503
454.1718, 1032.088
454.6539, 1030.123
455.1360, 1025.017
455.6181, 1015.474
456.1003, 1010.178
456.5824, 1012.935
457.0645, 1016.284
457.5466, 1019.667
458.0287, 1021.768
458.5108, 1019.866
458.9930, 1012.038
459.4751, 1003.606
459.9572, 1004.150
460.4393, 1013.875
460.9214, 1017.372
461.4035, 1006.753
461.8857, 995.9148
462.3678, 999.2990
462.8499, 1014.150
463.3320, 1026.260
463.8141, 1030.253
464.2962, 1031.150
464.7784, 1034.953
465.2605, 1039.956
465.7426, 1037.258
466.2247, 1021.359
466.7068, 1001.685
467.1889, 997.6942
467.6711, 1023.705
468.1532, 1034.989
468.6353, 1016.433
469.1174, 996.5565
469.5995, 998.0525
470.0816, 1014.365
470.5638, 1021.513
471.0459, 1002.396
471.5280, 969.3025
472.0101, 961.0309
472.4922, 990.6393
472.9743, 1009.557
473.4565, 992.7103
473.9386, 972.4279
474.4207, 971.9955
474.9028, 990.7618
475.3849, 1008.234
475.8670, 1010.998
476.3492, 1005.672
476.8313, 1003.690
477.3134, 1005.352
477.7955, 1005.570
478.2776, 1001.057
478.7597, 994.1156
479.2419, 990.6534
479.7240, 992.5553
480.2061, 992.7309
480.6882, 987.1460
481.1703, 981.0663
481.6524, 980.9993
482.1346, 986.0350
482.6167, 988.5179
483.0988, 981.9760
483.5809, 968.9127
484.0630, 963.4995
484.5451, 971.6088
485.0273, 977.8969
485.5094, 981.3349
485.9915, 981.5430
486.4736, 975.3027
486.9557, 963.7753
487.4378, 956.0203
487.9200, 960.8790
488.4021, 974.8578
488.8842, 989.8752
489.3663, 1007.593
489.8484, 1015.361
490.3305, 999.7383
490.8127, 973.5590
491.2948, 964.8786
491.7769, 980.9003
492.2590, 993.2109
492.7411, 989.4689
493.2232, 978.5464
493.7054, 969.6937
494.1875, 964.0881
494.6696, 959.3532
495.1517, 953.8327
495.6338, 947.5482
496.1159, 940.2578
496.5981, 926.5715
497.0802, 919.8865
497.5623, 928.0626
498.0444, 938.8779
498.5265, 942.3821
499.0086, 937.5270
499.4908, 929.3199
499.9729, 919.0586
500.4550, 908.8331
500.9371, 908.7940
501.4192, 922.0681
501.9013, 932.2164
502.3835, 930.4059
502.8656, 922.1844
503.3477, 917.5150
503.8298, 918.4749
504.3119, 914.9055
504.7940, 893.5916
505.2762, 871.1525
505.7583, 871.5773
506.2404, 893.4553
506.7225, 914.0870
507.2046, 918.6455
507.6867, 909.5157
508.1689, 896.6026
508.6510, 866.6621
509.1331, 853.0438
509.6152, 869.0349
510.0973, 892.2031
510.5794, 908.0329
511.0616, 915.0505
511.5437, 918.0591
512.0258, 920.7692
512.5079, 921.7854
512.9901, 916.0578
513.4722, 902.3668
513.9543, 889.3431
514.4364, 878.8734
514.9185, 871.6128
515.4006, 868.9036
515.8828, 871.1409
516.3649, 872.5221
516.8470, 870.4877
517.3291, 867.4282
517.8112, 864.9376
518.2933, 863.3517
518.7755, 862.9091
519.2576, 863.6087
519.7397, 866.1492
520.2218, 873.0839
520.7039, 893.1004
521.1860, 900.5207
521.6682, 885.1797
522.1503, 868.3222
522.6324, 860.6192
523.1145, 860.8907
523.5966, 863.9550
524.0787, 867.7308
524.5609, 871.4776
525.0430, 874.9691
525.5251, 878.1795
526.0072, 876.3605
526.4893, 866.0659
526.9714, 854.1470
527.4536, 846.9756
527.9357, 844.2307
528.4178, 846.0474
528.8999, 860.7114
529.3820, 871.7935
529.8641, 866.8688
530.3463, 851.8666
530.8284, 838.6457
531.3105, 831.1937
531.7926, 825.0701
532.2747, 812.4512
532.7568, 789.9255
533.2390, 782.1130
533.7211, 801.5150
534.2032, 821.8846
534.6853, 837.7513
535.1674, 848.8719
535.6495, 854.8918
536.1317, 855.4594
536.6138, 853.5188
537.0959, 850.3254
537.5780, 846.7764
538.0601, 846.9459
538.5422, 852.0167
539.0244, 854.9899
539.5065, 848.9347
539.9886, 836.8101
540.4707, 833.4277
540.9528, 847.1451
541.4349, 857.0942
541.9171, 858.1273
542.3992, 854.1463
542.8813, 846.2885
543.3634, 836.4427
543.8455, 830.1218
544.3276, 832.4639
544.8098, 841.1190
545.2919, 845.1384
545.7740, 841.7668
546.2561, 841.4208
546.7382, 854.1323
547.2203, 865.1388
547.7024, 859.6982
548.1845, 839.1048
548.6666, 822.6371
549.1487, 822.3898
549.6309, 827.9203
550.1130, 826.9694
550.5951, 821.2740
551.0772, 820.3542
551.5593, 828.7192
552.0414, 839.8885
552.5236, 843.2959
553.0057, 836.5852
553.4878, 829.8834
553.9699, 820.4995
554.4520, 813.9396
554.9341, 814.0218
555.4163, 817.8823
555.8984, 821.0820
556.3805, 821.9990
556.8626, 822.0795
557.3447, 822.0084
557.8268, 822.1927
558.3090, 827.2974
558.7911, 840.1174
559.2732, 850.1903
559.7553, 848.3846
560.2374, 838.7225
560.7195, 834.6981
561.2017, 839.6258
561.6838, 844.5366
562.1659, 845.7781
562.6480, 846.1411
563.1301, 850.5914
563.6122, 858.0661
564.0944, 861.2961
564.5765, 854.6296
565.0586, 840.1897
565.5407, 825.1312
566.0228, 806.0463
566.5049, 794.9937
566.9871, 800.5632
567.4692, 809.7560
567.9513, 815.5944
568.4334, 818.0110
568.9155, 818.9206
569.3976, 819.7563
569.8798, 818.8753
570.3619, 812.4427
570.8440, 802.6249
571.3261, 796.9854
571.8082, 797.9685
572.2903, 802.4084
572.7725, 806.5843
573.2546, 810.3289
573.7367, 815.5804
574.2188, 829.5652
574.7009, 836.4360
575.1830, 823.1238
575.6652, 805.4097
576.1473, 803.8036
576.6294, 821.5277
577.1115, 839.6435
577.5936, 838.6344
578.0757, 824.3089
578.5579, 816.5515
579.0400, 816.3235
579.5221, 816.8355
580.0042, 815.6642
580.4863, 812.8759
580.9684, 807.1340
581.4506, 795.8817
581.9327, 792.1372
582.4148, 806.3060
582.8969, 820.7547
583.3790, 823.3466
583.8611, 816.9100
584.3433, 808.7091
584.8254, 802.0479
585.3075, 797.1734
585.7896, 794.8507
586.2717, 795.3140
586.7538, 795.4765
587.2360, 794.0818
587.7181, 794.2333
588.2002, 801.3086
588.6823, 810.1411
589.1644, 811.4775
589.6465, 801.6570
590.1287, 790.8109
590.6108, 781.6260
591.0929, 775.3255
591.5750, 774.6786
592.0571, 779.0521
592.5392, 784.0726
593.0214, 786.7546
593.5035, 788.2892
593.9856, 793.4512
594.4677, 807.6224
594.9498, 812.5458
595.4319, 798.5858
595.9141, 782.2769
596.3962, 767.9167
596.8783, 757.8778
597.3604, 757.8869
597.8425, 774.9583
598.3246, 793.1238
598.8068, 797.1020
599.2889, 791.0141
599.7710, 784.3505
600.2531, 778.9039
600.7352, 776.2411
601.2173, 777.9807
601.6995, 783.6599
602.1816, 789.5739
602.6637, 800.0744
603.1458, 804.5760
603.6279, 795.8250
604.1100, 785.9873
604.5922, 785.9735
605.0743, 794.0200
605.5564, 799.1714
606.0385, 793.1841
606.5206, 783.5894
607.0027, 782.3046
607.4849, 788.3389
607.9670, 793.7274
608.4491, 796.3823
608.9312, 798.6487
609.4133, 803.7202
609.8954, 811.5986
610.3776, 813.7029
610.8597, 804.7635
611.3418, 797.3058
611.8239, 795.1953
612.3060, 795.3201
612.7881, 793.9968
613.2703, 791.2257
613.7524, 790.5165
614.2345, 796.1160
614.7166, 804.3335
615.1987, 805.2859
615.6808, 798.6469
616.1630, 791.4388
616.6451, 783.9764
617.1272, 779.8594
617.6093, 786.4510
618.0914, 804.0284
618.5735, 810.2609
619.0557, 793.2311
619.5378, 777.5220
620.0199, 772.7599
620.5020, 774.5820
620.9841, 779.7930
621.4662, 786.2076
621.9484, 787.8163
622.4305, 776.4061
622.9126, 757.0563
623.3947, 751.2640
623.8768, 761.4125
624.3589, 771.3433
624.8411, 776.4874
625.3232, 779.0588
625.8053, 783.0261
626.2874, 788.2563
626.7695, 786.3184
627.2516, 762.4122
627.7338, 745.8152
628.2159, 760.8834
628.6980, 788.8231
629.1801, 800.3801
629.6622, 789.8633
630.1443, 774.3345
630.6265, 770.3716
631.1086, 775.7691
631.5907, 778.1280
632.0728, 776.8629
632.5549, 774.7976
633.0370, 772.1995
633.5192, 769.6995
634.0013, 767.2209
634.4834, 764.8577
634.9655, 765.6544
635.4476, 774.6349
635.9297, 782.2808
636.4119, 783.0120
636.8940, 778.9896
637.3761, 772.1445
637.8582, 763.7566
638.3403, 757.6172
638.8224, 757.5294
639.3046, 762.9885
639.7867, 773.1600
640.2688, 792.4448
640.7509, 800.0707
641.2330, 780.5313
641.7151, 756.0433
642.1973, 752.0389
642.6794, 766.5638
643.1615, 775.4368
643.6436, 768.5514
644.1257, 760.2760
644.6078, 757.7808
645.0900, 759.2778
645.5721, 763.5131
646.0542, 769.2874
646.5363, 772.1505
647.0184, 767.0558
647.5005, 756.1366
647.9827, 748.6686
648.4648, 743.9755
648.9469, 746.6583
649.4290, 766.2028
649.9111, 784.4654
650.3932, 778.6050
650.8754, 753.0558
651.3575, 739.6650
651.8396, 756.3863
652.3217, 771.9590
652.8038, 766.7092
653.2859, 754.0336
653.7681, 753.1448
654.2502, 765.9959
654.7323, 780.7914
655.2144, 788.7859
