##NAMES=Genthelvite
##RRUFFID=R080134
##IDEAL CHEMISTRY=Be_3_Zn^2+^_4_(SiO_4_)_3_S^2-^
##LOCALITY=Rockport, Essex County, Massachusetts, USA
##OWNER=RRUFF
##SOURCE=James Shigley
##DESCRIPTION=Massive pink, exhibiting greasy luster, associated with albite
##STATUS=The identification of this mineral has been confirmed only by single crystal X-ray diffraction.
##URL=rruff.info/R080134
93.30109, 0.0000000E+00
93.78320, 181.2633
94.26532, 181.7202
94.74744, 182.3470
95.22955, 182.6876
95.71167, 183.1981
96.19379, 183.6272
96.67590, 184.4417
97.15802, 185.0171
97.64014, 185.2326
98.12225, 185.1620
98.60437, 184.9893
99.08649, 184.9142
99.56860, 184.6830
100.0507, 183.8855
100.5328, 182.1375
101.0150, 180.2217
101.4971, 178.5919
101.9792, 177.2247
102.4613, 176.3708
102.9434, 176.6667
103.4255, 177.2191
103.9077, 177.3010
104.3898, 176.5969
104.8719, 175.6112
105.3540, 175.4395
105.8361, 176.7131
106.3182, 177.7007
106.8004, 177.8585
107.2825, 177.5925
107.7646, 177.3814
108.2467, 177.5238
108.7288, 177.9743
109.2109, 178.1683
109.6931, 177.6472
110.1752, 177.3214
110.6573, 177.4996
111.1394, 178.0932
111.6215, 178.8296
112.1036, 179.4844
112.5858, 180.0499
113.0679, 180.5265
113.5500, 180.9089
114.0321, 181.2131
114.5142, 181.2816
114.9964, 181.0920
115.4785, 181.1363
115.9606, 182.2341
116.4427, 184.3154
116.9248, 186.1100
117.4069, 187.1977
117.8891, 187.8037
118.3712, 188.3555
118.8533, 188.8216
119.3354, 189.4369
119.8175, 190.5704
120.2996, 192.1654
120.7818, 193.5320
121.2639, 193.9782
121.7460, 193.4597
122.2281, 193.2330
122.7102, 193.8314
123.1923, 194.5891
123.6745, 195.1155
124.1566, 195.3595
124.6387, 195.6056
125.1208, 196.2987
125.6029, 197.6800
126.0850, 199.0227
126.5672, 200.3453
127.0493, 201.5734
127.5314, 202.7278
128.0135, 203.8117
128.4956, 204.6753
128.9777, 204.9018
129.4599, 203.9697
129.9420, 202.9136
130.4241, 201.8394
130.9062, 200.6784
131.3883, 199.2273
131.8704, 197.2957
132.3526, 195.0767
132.8347, 193.6469
133.3168, 193.2377
133.7989, 193.1677
134.2810, 193.0846
134.7632, 193.0546
135.2453, 193.4686
135.7274, 194.7991
136.2095, 196.7742
136.6916, 198.3248
137.1737, 199.5102
137.6559, 200.1875
138.1380, 200.2275
138.6201, 199.6207
139.1022, 198.3948
139.5843, 196.1220
140.0664, 193.2931
140.5486, 190.5802
141.0307, 188.1551
141.5128, 186.0453
141.9949, 184.3400
142.4770, 182.9165
142.9591, 182.1828
143.4413, 182.3302
143.9234, 183.1726
144.4055, 184.3897
144.8876, 185.7914
145.3697, 187.3747
145.8518, 189.0799
146.3340, 190.9454
146.8161, 192.9074
147.2982, 194.9069
147.7803, 196.9794
148.2624, 199.2194
148.7445, 201.7576
149.2267, 204.6529
149.7088, 207.5437
150.1909, 210.2135
150.6730, 213.0381
151.1551, 216.3229
151.6372, 220.0702
152.1194, 223.9532
152.6015, 227.6217
153.0836, 231.0191
153.5657, 234.1934
154.0478, 237.0159
154.5299, 239.6812
155.0121, 242.3652
155.4942, 245.1087
155.9763, 247.8640
156.4584, 250.6107
156.9405, 253.3956
157.4226, 255.8961
157.9048, 257.7281
158.3869, 259.2243
158.8690, 261.1067
159.3511, 263.6555
159.8332, 266.5422
160.3153, 269.3700
160.7975, 272.1370
161.2796, 274.8958
161.7617, 277.6531
162.2438, 280.4292
162.7259, 283.2813
163.2081, 286.4864
163.6902, 289.5597
164.1723, 292.0407
164.6544, 293.9125
165.1365, 295.6239
165.6186, 297.6880
166.1008, 300.1774
166.5829, 302.6636
167.0650, 305.0313
167.5471, 307.4015
168.0292, 309.8755
168.5113, 312.4703
168.9935, 315.0472
169.4756, 317.3995
169.9577, 319.6100
170.4398, 321.3905
170.9219, 323.1892
171.4040, 324.3978
171.8862, 324.8601
172.3683, 324.4540
172.8504, 322.6485
173.3325, 318.1232
173.8146, 309.4819
174.2967, 299.3624
174.7789, 286.9324
175.2610, 273.3561
175.7431, 259.8339
176.2252, 246.7508
176.7073, 234.2815
177.1894, 223.1474
177.6716, 213.1144
178.1537, 204.4201
178.6358, 197.2475
179.1179, 191.4173
179.6000, 186.5585
180.0821, 182.6178
180.5643, 179.4551
181.0464, 176.6092
181.5285, 174.2816
182.0106, 171.8819
182.4927, 169.0655
182.9748, 165.9097
183.4570, 162.7561
183.9391, 159.7560
184.4212, 156.8737
184.9033, 154.0150
185.3854, 151.1242
185.8675, 148.3469
186.3497, 145.7751
186.8318, 143.4079
187.3139, 141.2635
187.7960, 139.1987
188.2781, 137.4671
188.7602, 136.4543
189.2424, 136.3866
189.7245, 136.7068
190.2066, 136.6383
190.6887, 136.0069
191.1708, 135.6289
191.6530, 136.1627
192.1351, 136.9028
192.6172, 137.1518
193.0993, 136.5906
193.5814, 135.7200
194.0635, 135.5972
194.5457, 136.6392
195.0278, 137.6272
195.5099, 138.4224
195.9920, 138.9916
196.4741, 139.2555
196.9562, 139.1679
197.4384, 138.8465
197.9205, 138.6538
198.4026, 138.9734
198.8847, 138.8614
199.3668, 138.1777
199.8489, 137.0447
200.3311, 135.5498
200.8132, 133.7299
201.2953, 131.6551
201.7774, 129.6247
202.2595, 127.6550
202.7416, 125.7089
203.2238, 123.7221
203.7059, 121.7616
204.1880, 119.8438
204.6701, 117.9672
205.1522, 116.2136
205.6343, 114.9936
206.1165, 114.7596
206.5986, 114.4608
207.0807, 113.7584
207.5628, 112.8437
208.0449, 112.0832
208.5270, 111.6763
209.0092, 111.5522
209.4913, 111.4324
209.9734, 111.4001
210.4555, 111.2780
210.9376, 110.8434
211.4197, 110.2437
211.9019, 109.9227
212.3840, 110.1909
212.8661, 110.8156
213.3482, 111.1216
213.8303, 110.9714
214.3124, 110.7553
214.7946, 110.6906
215.2767, 110.7505
215.7588, 110.7898
216.2409, 110.7433
216.7230, 110.6361
217.2052, 110.4826
217.6873, 110.1794
218.1694, 110.0566
218.6515, 110.4892
219.1336, 111.4554
219.6157, 112.3194
220.0979, 112.7741
220.5800, 113.0479
221.0621, 113.4372
221.5442, 114.0224
222.0263, 114.5194
222.5084, 114.5455
222.9906, 114.0422
223.4727, 113.7079
223.9548, 113.7468
224.4369, 114.0658
224.9190, 114.7014
225.4011, 115.6796
225.8833, 116.7108
226.3654, 117.4172
226.8475, 117.7061
227.3296, 118.1024
227.8117, 118.8727
228.2938, 119.6828
228.7760, 120.2623
229.2581, 120.5720
229.7402, 120.8671
230.2223, 121.5754
230.7044, 122.9471
231.1865, 123.9277
231.6687, 123.8854
232.1508, 123.8111
232.6329, 124.3960
233.1150, 125.7356
233.5971, 127.3429
234.0792, 128.5306
234.5614, 129.1012
235.0435, 129.7268
235.5256, 130.2371
236.0077, 130.9290
236.4898, 132.0910
236.9719, 133.7161
237.4541, 135.4959
237.9362, 137.0392
238.4183, 138.3628
238.9004, 139.3365
239.3825, 139.8488
239.8646, 140.1620
240.3468, 140.5605
240.8289, 141.0199
241.3110, 141.1732
241.7931, 140.5260
242.2752, 138.7615
242.7573, 137.0330
243.2395, 135.1325
243.7216, 133.4138
244.2037, 132.2313
244.6858, 131.5627
245.1679, 130.9860
245.6501, 130.0278
246.1322, 128.5694
246.6143, 127.1628
247.0964, 125.9334
247.5785, 124.6523
248.0606, 123.0663
248.5428, 121.2084
249.0249, 119.4128
249.5070, 118.0443
249.9891, 117.1885
250.4712, 116.0946
250.9533, 114.2919
251.4355, 112.6246
251.9176, 111.8025
252.3997, 111.7884
252.8818, 111.8604
253.3639, 111.4039
253.8460, 110.3985
254.3282, 109.5891
254.8103, 109.0609
255.2924, 108.6536
255.7745, 108.2544
256.2566, 107.8670
256.7387, 107.5883
257.2209, 107.5294
257.7030, 107.6522
258.1851, 107.6572
258.6672, 107.4468
259.1493, 107.1975
259.6314, 107.0184
260.1136, 106.9069
260.5957, 106.8259
261.0778, 106.7418
261.5599, 106.6816
262.0420, 106.7061
262.5241, 106.8931
263.0063, 107.0729
263.4884, 107.1277
263.9705, 107.0657
264.4526, 106.9420
264.9347, 106.6975
265.4168, 106.4697
265.8990, 106.5149
266.3811, 106.9578
266.8632, 107.4107
267.3453, 107.5640
267.8274, 107.4554
268.3095, 107.3799
268.7917, 107.4502
269.2738, 107.6011
269.7559, 107.7436
270.2380, 107.8795
270.7201, 107.9940
271.2022, 108.0332
271.6844, 108.0195
272.1665, 108.1128
272.6486, 108.3832
273.1307, 108.7535
273.6128, 109.1044
274.0949, 109.4392
274.5771, 109.8806
275.0592, 110.5655
275.5413, 111.4532
276.0234, 112.2963
276.5055, 113.0509
276.9876, 113.7635
277.4698, 114.4219
277.9519, 115.0519
278.4340, 115.7912
278.9161, 116.8199
279.3982, 118.0521
279.8803, 119.0920
280.3625, 119.7555
280.8446, 120.4747
281.3267, 121.5064
281.8088, 122.7762
282.2909, 124.1267
282.7730, 125.4680
283.2552, 126.8206
283.7373, 128.2548
284.2194, 129.7858
284.7015, 131.3748
285.1836, 133.1256
285.6658, 134.9037
286.1479, 136.4920
286.6300, 137.7163
287.1121, 138.7546
287.5942, 140.0263
288.0764, 141.6429
288.5585, 143.2349
289.0406, 144.7929
289.5227, 146.2105
290.0048, 147.3213
290.4869, 148.0502
290.9691, 148.5560
291.4512, 149.1051
291.9333, 149.7142
292.4154, 150.3147
292.8975, 151.1061
293.3796, 151.7597
293.8618, 151.9255
294.3439, 151.5168
294.8260, 150.9140
295.3081, 150.6004
295.7902, 150.6266
296.2723, 150.7026
296.7545, 150.9356
297.2366, 151.0949
297.7187, 150.9744
298.2008, 150.5865
298.6829, 150.1827
299.1650, 150.0789
299.6472, 150.3246
300.1293, 150.3912
300.6114, 150.2390
301.0935, 149.8875
301.5756, 149.1734
302.0577, 148.2239
302.5399, 147.4068
303.0220, 147.0675
303.5041, 147.1831
303.9862, 147.2277
304.4683, 147.1469
304.9504, 147.0545
305.4326, 147.0513
305.9147, 147.0650
306.3968, 146.9709
306.8789, 146.7071
307.3610, 146.2711
307.8431, 145.6524
308.3253, 144.8314
308.8074, 143.8333
309.2895, 142.6677
309.7716, 141.3572
310.2537, 139.9297
310.7358, 138.3851
311.2180, 136.7537
311.7001, 135.0940
312.1822, 133.3112
312.6643, 131.6866
313.1464, 130.3373
313.6285, 129.0998
314.1107, 127.7912
314.5928, 126.3706
315.0749, 125.0255
315.5570, 124.0581
316.0391, 123.5615
316.5212, 123.1076
317.0034, 122.6835
317.4855, 122.2641
317.9676, 121.7862
318.4497, 121.2736
318.9318, 120.8589
319.4139, 120.7092
319.8961, 120.8544
320.3782, 120.9720
320.8603, 121.0390
321.3424, 121.0989
321.8245, 121.1894
322.3066, 121.2890
322.7888, 121.3475
323.2709, 121.3337
323.7530, 121.2474
324.2351, 121.1115
324.7172, 121.1115
325.1993, 120.7649
325.6815, 119.8760
326.1636, 118.6060
326.6457, 117.1326
327.1278, 115.5131
327.6099, 113.8324
328.0920, 112.2620
328.5742, 110.7423
329.0563, 109.4784
329.5384, 108.5899
330.0205, 107.8997
330.5026, 107.3270
330.9847, 106.8431
331.4669, 106.3086
331.9490, 105.4220
332.4311, 104.0144
332.9132, 103.0001
333.3953, 102.9056
333.8774, 102.9608
334.3596, 102.7356
334.8417, 102.2217
335.3238, 101.7157
335.8059, 101.5008
336.2880, 101.5799
336.7701, 101.7056
337.2523, 101.9727
337.7344, 102.1705
338.2165, 102.2265
338.6986, 102.1453
339.1807, 101.9447
339.6628, 101.6141
340.1450, 101.1768
340.6271, 100.6821
341.1092, 99.99720
341.5913, 99.52583
342.0735, 99.64317
342.5556, 99.95736
343.0377, 99.93674
343.5198, 99.30904
344.0019, 98.49961
344.4840, 98.23006
344.9662, 98.61651
345.4483, 99.02139
345.9304, 99.43671
346.4125, 99.68654
346.8946, 99.54386
347.3767, 98.97756
347.8589, 98.34897
348.3410, 97.97434
348.8231, 97.84924
349.3052, 97.88211
349.7873, 98.27396
350.2694, 98.57195
350.7516, 98.35365
351.2337, 97.74065
351.7158, 97.26043
352.1979, 97.36385
352.6800, 97.85133
353.1621, 98.04005
353.6443, 97.81104
354.1264, 97.52871
354.6085, 97.35332
355.0906, 97.27570
355.5727, 97.32014
356.0548, 97.59537
356.5370, 97.87549
357.0191, 97.78735
357.5012, 97.29081
357.9833, 96.88546
358.4654, 96.83485
358.9475, 96.95551
359.4297, 97.00628
359.9118, 96.93678
360.3939, 96.94087
360.8760, 97.30978
361.3581, 97.93006
361.8402, 98.18803
362.3224, 97.80289
362.8045, 97.22768
363.2866, 96.90730
363.7687, 96.82053
364.2508, 96.84004
364.7329, 96.97839
365.2151, 97.17180
365.6972, 97.31345
366.1793, 97.39068
366.6614, 97.44169
367.1435, 97.49471
367.6256, 97.54351
368.1078, 97.56924
368.5899, 97.60066
369.0720, 97.58267
369.5541, 97.47092
370.0362, 97.26952
370.5183, 96.99837
371.0005, 96.65149
371.4826, 96.25232
371.9647, 95.82111
372.4468, 95.25771
372.9289, 94.90820
373.4110, 95.02962
373.8932, 95.43428
374.3753, 95.83910
374.8574, 96.19599
375.3395, 96.37272
375.8216, 96.07262
376.3037, 95.19959
376.7859, 94.74680
377.2680, 95.18813
377.7501, 95.82778
378.2322, 96.10126
378.7143, 95.97736
379.1964, 95.65593
379.6786, 95.22290
380.1607, 94.71230
380.6428, 94.46706
381.1249, 94.71848
381.6070, 94.93999
382.0891, 94.93315
382.5713, 94.76733
383.0534, 94.54965
383.5355, 94.31496
384.0176, 94.12973
384.4997, 94.14721
384.9818, 94.63392
385.4640, 94.88570
385.9461, 94.80195
386.4282, 94.53059
386.9103, 94.10165
387.3924, 93.57053
387.8745, 93.12356
388.3567, 92.97873
388.8388, 93.18269
389.3209, 93.35937
389.8030, 93.60127
390.2851, 93.72981
390.7672, 93.58733
391.2494, 93.28497
391.7315, 93.04470
392.2136, 93.00001
392.6957, 93.10034
393.1778, 93.14834
393.6599, 93.02644
394.1421, 93.02480
394.6242, 93.40224
395.1063, 93.77103
395.5884, 93.64272
396.0706, 92.95528
396.5527, 92.23219
397.0348, 92.23650
397.5169, 93.21217
397.9990, 93.93977
398.4811, 94.33762
398.9633, 94.54362
399.4454, 94.51321
399.9275, 94.32494
400.4096, 94.15060
400.8917, 94.12704
401.3738, 94.19975
401.8560, 94.11486
402.3381, 93.75892
402.8202, 93.46241
403.3023, 93.32565
403.7844, 93.28978
404.2665, 93.30608
404.7487, 93.36248
405.2308, 93.44600
405.7129, 93.55494
406.1950, 93.69365
406.6771, 93.79317
407.1592, 93.81358
407.6414, 93.81839
408.1235, 93.84742
408.6056, 93.90057
409.0877, 93.97059
409.5698, 94.10464
410.0519, 94.24468
410.5341, 94.21392
411.0162, 93.95188
411.4983, 93.73705
411.9804, 93.80736
412.4625, 94.02148
412.9446, 94.14652
413.4268, 94.11977
413.9089, 94.04037
414.3910, 93.92801
414.8731, 93.81071
415.3552, 93.85265
415.8373, 94.16824
416.3195, 94.56123
416.8016, 94.76197
417.2837, 94.78683
417.7658, 94.66070
418.2479, 94.31445
418.7300, 93.86087
419.2122, 93.37626
419.6943, 92.87884
420.1764, 92.49207
420.6585, 92.34383
421.1406, 92.41022
421.6227, 92.38512
422.1049, 92.15869
422.5870, 91.96920
423.0691, 91.95121
423.5512, 92.02818
424.0333, 92.05241
424.5154, 91.96329
424.9976, 91.82169
425.4797, 91.73977
425.9618, 91.73461
426.4439, 91.76619
426.9260, 91.93793
427.4081, 92.06743
427.8903, 91.97959
428.3724, 91.70521
428.8545, 91.42683
429.3366, 91.28770
429.8187, 91.28568
430.3008, 91.37080
430.7830, 91.55373
431.2651, 91.82628
431.7472, 92.27624
432.2293, 92.78220
432.7114, 93.23611
433.1935, 93.59242
433.6757, 93.79161
434.1578, 93.61382
434.6399, 92.79848
435.1220, 92.52807
435.6041, 93.50689
436.0862, 94.53352
436.5684, 95.01260
437.0505, 95.01968
437.5326, 94.96370
438.0147, 95.08874
438.4968, 95.37288
438.9789, 95.76255
439.4611, 96.30868
439.9432, 96.83041
440.4253, 97.30220
440.9074, 97.69265
441.3895, 97.91821
441.8716, 97.93156
442.3538, 97.96257
442.8359, 98.29796
443.3180, 98.86887
443.8001, 99.25883
444.2822, 99.41370
444.7643, 99.32373
445.2465, 98.92928
445.7286, 98.27534
446.2107, 97.50381
446.6928, 96.73385
447.1749, 95.80926
447.6570, 94.38618
448.1392, 92.54499
448.6213, 90.98524
449.1034, 90.08895
449.5855, 89.72047
450.0677, 89.55801
450.5498, 89.81399
451.0319, 89.80197
451.5140, 89.10010
451.9961, 88.14871
452.4782, 87.46425
452.9604, 87.14773
453.4425, 87.05379
453.9246, 87.05932
454.4067, 87.17972
454.8888, 87.23571
455.3709, 87.24515
455.8531, 87.18494
456.3352, 86.95298
456.8173, 86.66541
457.2994, 86.54699
457.7815, 86.70415
458.2636, 86.96445
458.7458, 86.94299
459.2279, 86.43577
459.7100, 86.07126
460.1921, 85.93830
460.6742, 85.87350
461.1563, 85.77485
461.6385, 85.65186
462.1206, 85.57982
462.6027, 85.61577
463.0848, 85.75005
463.5669, 85.97515
464.0490, 86.44719
464.5312, 86.67885
465.0133, 86.31798
465.4954, 85.74654
465.9775, 85.33292
466.4596, 85.16187
466.9417, 85.09858
467.4239, 85.02851
467.9060, 84.95671
468.3881, 84.91148
468.8702, 84.88358
469.3523, 84.91011
469.8344, 85.01647
470.3166, 85.19904
470.7987, 85.46812
471.2808, 85.96835
471.7629, 86.44730
472.2450, 86.68179
472.7271, 86.69351
473.2093, 86.55677
473.6914, 86.24820
474.1735, 85.90691
474.6556, 85.85078
475.1377, 86.20504
475.6198, 86.37656
476.1020, 86.20435
476.5841, 85.86348
477.0662, 85.41824
477.5483, 84.92548
478.0304, 84.55445
478.5125, 84.45249
478.9947, 84.58346
479.4768, 84.63610
479.9589, 84.51185
480.4410, 84.42805
480.9231, 84.55631
481.4052, 84.66277
481.8874, 84.39066
482.3695, 83.70811
482.8516, 83.05647
483.3337, 83.05968
483.8158, 83.84203
484.2979, 84.21265
484.7801, 83.82496
485.2622, 83.39674
485.7443, 83.19295
486.2264, 83.11074
486.7085, 82.94608
487.1906, 82.58457
487.6728, 82.21522
488.1549, 82.17730
488.6370, 82.50051
489.1191, 82.66119
489.6012, 82.47443
490.0833, 82.16164
490.5655, 81.88108
491.0476, 81.64116
491.5297, 81.50465
492.0118, 81.60318
492.4939, 81.75925
492.9760, 81.69078
493.4582, 81.40902
493.9403, 81.23145
494.4224, 81.33685
494.9045, 81.63513
495.3866, 81.91871
495.8687, 82.24582
496.3509, 82.43081
496.8330, 82.23814
497.3151, 81.99165
497.7972, 82.10764
498.2793, 82.59051
498.7614, 83.05612
499.2436, 83.14722
499.7257, 82.89640
500.2078, 82.91603
500.6899, 83.65712
501.1720, 84.12114
501.6541, 83.90771
502.1363, 83.45695
502.6184, 83.26053
503.1005, 83.43966
503.5826, 83.74691
504.0647, 83.84754
504.5468, 83.70219
505.0290, 83.76259
505.5111, 84.25628
505.9932, 84.67641
506.4753, 84.74100
506.9575, 84.62863
507.4396, 84.63847
507.9217, 84.90382
508.4038, 85.24297
508.8859, 85.44572
509.3680, 85.51624
509.8502, 85.52725
510.3323, 85.48964
510.8144, 85.40296
511.2965, 85.22083
511.7786, 84.96940
512.2607, 84.80334
512.7429, 84.87565
513.2250, 84.95757
513.7071, 84.90357
514.1892, 84.69743
514.6713, 84.23481
515.1534, 83.40275
515.6356, 82.48079
516.1177, 82.05210
516.5998, 82.47920
517.0819, 82.58115
517.5640, 81.91279
518.0461, 81.25107
518.5283, 81.28916
519.0104, 81.84689
519.4925, 82.18990
519.9746, 81.80161
520.4567, 80.92805
520.9388, 80.52602
521.4210, 81.03148
521.9031, 81.18787
522.3852, 80.40836
522.8673, 79.60616
523.3494, 79.54813
523.8315, 80.18179
524.3137, 80.80681
524.7958, 80.84762
525.2779, 80.46041
525.7600, 80.16711
526.2421, 79.96349
526.7242, 79.87237
527.2064, 79.97655
527.6885, 80.16467
528.1706, 80.30461
528.6527, 80.38689
529.1348, 80.42332
529.6169, 80.35483
530.0991, 80.26805
530.5812, 80.34357
531.0633, 80.60007
531.5454, 80.83281
532.0275, 80.88412
532.5096, 80.78211
532.9918, 80.71960
533.4739, 80.67539
533.9560, 80.69006
534.4381, 80.80356
534.9202, 80.96312
535.4023, 81.14272
535.8845, 81.32024
536.3666, 81.43263
536.8487, 81.40612
537.3308, 81.24113
537.8129, 81.08992
538.2950, 80.97716
538.7772, 80.84441
539.2593, 80.57716
539.7414, 80.33546
540.2235, 80.34867
540.7056, 80.66557
541.1877, 80.98889
541.6699, 81.00022
542.1520, 80.73962
542.6341, 80.46139
543.1162, 80.13696
543.5983, 79.90819
544.0804, 79.91529
544.5626, 80.07499
545.0447, 80.25037
545.5268, 80.45632
546.0089, 80.61354
546.4910, 80.61834
546.9731, 80.55576
547.4553, 80.64558
547.9374, 80.93730
548.4195, 81.14606
548.9016, 80.95858
549.3837, 80.36129
549.8658, 79.99648
550.3480, 79.98160
550.8301, 80.01260
551.3122, 80.05569
551.7943, 80.07688
552.2764, 79.97955
552.7585, 79.76537
553.2407, 79.64133
553.7228, 79.96241
554.2049, 80.78170
554.6870, 81.02905
555.1691, 80.21923
555.6512, 79.51633
556.1334, 79.34846
556.6155, 79.51442
557.0976, 79.76083
557.5797, 80.02086
558.0618, 80.35875
558.5439, 80.93040
559.0261, 81.64001
559.5082, 82.11543
559.9903, 82.27172
560.4724, 82.33346
560.9545, 82.40494
561.4366, 82.52281
561.9188, 82.82359
562.4009, 83.56124
562.8830, 84.16294
563.3651, 84.26485
563.8472, 84.16766
564.3293, 84.29472
564.8115, 84.72988
565.2936, 85.28863
565.7757, 85.80674
566.2578, 86.28641
566.7399, 86.62759
567.2220, 86.57938
567.7042, 86.69804
568.1863, 87.12556
568.6684, 87.73416
569.1505, 88.43787
569.6326, 89.19624
570.1147, 89.92493
570.5969, 90.59891
571.0790, 91.18948
571.5611, 91.45257
572.0432, 91.26856
572.5253, 91.09396
573.0074, 91.18410
573.4896, 91.41650
573.9717, 91.65770
574.4538, 91.96677
574.9359, 92.03130
575.4180, 91.59807
575.9001, 90.88142
576.3823, 90.20901
576.8644, 89.60013
577.3465, 88.81117
577.8286, 87.62438
578.3107, 86.14884
578.7928, 84.92240
579.2750, 83.99483
579.7571, 83.26616
580.2392, 82.94699
580.7213, 82.67160
581.2034, 82.08335
581.6855, 81.22884
582.1677, 80.44125
582.6498, 79.96883
583.1319, 79.75996
583.6140, 79.71052
584.0961, 79.93626
584.5782, 79.91384
585.0604, 79.24390
585.5425, 78.46626
586.0246, 78.00400
586.5067, 77.86279
586.9889, 77.90411
587.4710, 78.21780
587.9531, 78.58475
588.4352, 78.79582
588.9174, 78.83951
589.3995, 78.64194
589.8816, 78.11682
590.3637, 77.49445
