##NAMES=Genthelvite
##RRUFFID=R080134
##IDEAL CHEMISTRY=Be_3_Zn^2+^_4_(SiO_4_)_3_S^2-^
##LOCALITY=Rockport, Essex County, Massachusetts, USA
##OWNER=RRUFF
##SOURCE=James Shigley
##DESCRIPTION=Massive pink, exhibiting greasy luster, associated with albite
##STATUS=The identification of this mineral has been confirmed only by single crystal X-ray diffraction.
##URL=rruff.info/R080134
91.00781, 11.31595
91.48993, 11.08406
91.97205, 10.99169
92.45416, 11.05298
92.93628, 11.25197
93.41840, 11.53763
93.90051, 11.86826
94.38263, 12.33586
94.86475, 13.18112
95.34686, 14.40058
95.82898, 15.66610
96.31110, 16.58863
96.79321, 17.22626
97.27533, 18.18316
97.75745, 19.62731
98.23956, 21.47366
98.72168, 23.30745
99.20380, 25.06626
99.68591, 26.94955
100.1680, 29.20115
100.6501, 31.84791
101.1323, 34.62378
101.6144, 37.31609
102.0965, 39.85690
102.5786, 43.15673
103.0607, 47.38435
103.5428, 52.24454
104.0250, 57.40252
104.5071, 62.94542
104.9892, 68.56493
105.4713, 74.08817
105.9534, 79.38049
106.4355, 84.84936
106.9177, 90.60323
107.3998, 96.53526
107.8819, 102.5180
108.3640, 108.5146
108.8461, 114.5221
109.3282, 120.6223
109.8104, 126.8886
110.2925, 133.0251
110.7746, 138.8824
111.2567, 144.4820
111.7388, 150.2413
112.2209, 155.6985
112.7031, 161.5323
113.1852, 168.2801
113.6673, 176.3743
114.1494, 185.0193
114.6315, 194.0439
115.1136, 203.5168
115.5958, 213.4372
116.0779, 223.8980
116.5600, 234.7883
117.0421, 245.9353
117.5242, 257.4447
118.0063, 269.1985
118.4885, 281.5009
118.9706, 294.5584
119.4527, 307.1247
119.9348, 318.5820
120.4169, 329.0263
120.8990, 338.8098
121.3812, 347.6527
121.8633, 356.0528
122.3454, 364.3843
122.8275, 372.8069
123.3096, 381.0692
123.7917, 389.0645
124.2739, 396.7516
124.7560, 403.9800
125.2381, 410.2913
125.7202, 416.1602
126.2023, 422.2445
126.6844, 428.6062
127.1666, 435.4239
127.6487, 443.5638
128.1308, 452.9384
128.6129, 461.5474
129.0950, 468.6446
129.5771, 473.9181
130.0593, 476.0750
130.5414, 473.6348
131.0235, 468.2525
131.5056, 462.5410
131.9877, 454.6299
132.4698, 447.3189
132.9520, 446.5837
133.4341, 452.0961
133.9162, 459.2626
134.3983, 466.6968
134.8804, 474.4292
135.3625, 483.4483
135.8447, 494.3664
136.3268, 505.1651
136.8089, 514.1857
137.2910, 522.0593
137.7731, 525.1749
138.2552, 521.9851
138.7374, 512.2730
139.2195, 498.3184
139.7016, 478.6463
140.1837, 455.9932
140.6658, 435.8183
141.1479, 417.2775
141.6301, 402.4499
142.1122, 392.2702
142.5943, 387.3641
143.0764, 385.1686
143.5585, 385.9031
144.0406, 389.1512
144.5228, 393.6845
145.0049, 399.8620
145.4870, 406.7961
145.9691, 413.9516
146.4512, 421.5834
146.9333, 429.1537
147.4155, 436.2208
147.8976, 443.0336
148.3797, 451.2955
148.8618, 461.6520
149.3439, 473.0719
149.8260, 484.8652
150.3082, 497.7925
150.7903, 510.3684
151.2724, 522.4108
151.7545, 533.8367
152.2366, 545.8425
152.7188, 559.0218
153.2009, 572.5316
153.6830, 585.5455
154.1651, 598.4411
154.6472, 610.4394
155.1293, 620.9623
155.6115, 629.9210
156.0936, 638.6115
156.5757, 647.5583
157.0578, 656.2828
157.5399, 664.1365
158.0220, 670.2784
158.5042, 676.1957
158.9863, 682.3895
159.4684, 688.9859
159.9505, 695.5917
160.4326, 702.1660
160.9147, 708.6399
161.3969, 714.9026
161.8790, 720.2820
162.3611, 725.9097
162.8432, 732.5888
163.3253, 740.7262
163.8074, 748.7405
164.2896, 755.8258
164.7717, 762.2556
165.2538, 768.5814
165.7359, 775.6767
166.2180, 782.3834
166.7001, 787.7574
167.1823, 791.2551
167.6644, 794.0881
168.1465, 796.8159
168.6286, 799.4323
169.1107, 801.9308
169.5928, 805.1524
170.0750, 807.9031
170.5571, 809.2644
171.0392, 809.8547
171.5213, 807.6641
172.0034, 802.5049
172.4855, 793.6961
172.9677, 778.4479
173.4498, 754.0209
173.9319, 722.2557
174.4140, 685.2563
174.8961, 640.8568
175.3782, 594.5279
175.8604, 549.2494
176.3425, 505.1786
176.8246, 465.5703
177.3067, 432.2284
177.7888, 404.5721
178.2709, 382.0459
178.7531, 365.0759
179.2352, 352.3145
179.7173, 342.1805
180.1994, 334.5788
180.6815, 328.6882
181.1636, 324.6119
181.6458, 321.8238
182.1279, 318.9415
182.6100, 315.8460
183.0921, 312.2153
183.5742, 307.2541
184.0563, 301.0367
184.5385, 293.7670
185.0206, 285.4305
185.5027, 276.1293
185.9848, 266.7242
186.4669, 256.7012
186.9490, 246.8408
187.4312, 239.0956
187.9133, 233.6311
188.3954, 230.0361
188.8775, 228.4723
189.3596, 228.7859
189.8417, 229.5064
190.3239, 229.8852
190.8060, 230.1566
191.2881, 231.4937
191.7702, 233.9176
192.2523, 237.2441
192.7344, 241.5654
193.2166, 246.8646
193.6987, 252.1690
194.1808, 257.2649
194.6629, 262.1158
195.1450, 266.5693
195.6271, 270.6629
196.1093, 274.2736
196.5914, 277.6521
197.0735, 280.9357
197.5556, 282.3297
198.0377, 281.1923
198.5198, 277.5125
199.0020, 271.3069
199.4841, 262.3253
199.9662, 251.2280
200.4483, 238.3871
200.9304, 223.4872
201.4125, 208.7612
201.8947, 194.8978
202.3768, 181.8339
202.8589, 170.4805
203.3410, 161.0213
203.8231, 152.9985
204.3052, 145.7069
204.7874, 139.0590
205.2695, 133.3150
205.7516, 128.7230
206.2337, 125.4100
206.7158, 122.3823
207.1979, 119.6280
207.6801, 117.1461
208.1622, 114.9924
208.6443, 113.1843
209.1264, 111.6045
209.6085, 110.1964
210.0906, 108.9475
210.5728, 107.9449
211.0549, 107.2714
211.5370, 106.7926
212.0191, 106.1775
212.5012, 105.2935
212.9833, 104.5883
213.4655, 104.3285
213.9476, 104.6519
214.4297, 104.8919
214.9118, 104.9818
215.3939, 105.0103
215.8760, 105.1922
216.3581, 105.5247
216.8403, 106.0127
217.3224, 106.6839
217.8045, 107.6208
218.2866, 108.4809
218.7687, 109.1719
219.2508, 109.8089
219.7330, 110.6551
220.2151, 111.6461
220.6972, 112.9523
221.1793, 114.6900
221.6614, 117.0630
222.1435, 119.3463
222.6257, 121.5111
223.1078, 123.5870
223.5899, 125.7290
224.0720, 128.0218
224.5541, 130.2566
225.0362, 132.3596
225.5184, 134.2133
226.0005, 136.1870
226.4826, 138.2963
226.9647, 140.5339
227.4468, 142.9486
227.9289, 145.5359
228.4111, 148.2890
228.8932, 151.2388
229.3753, 154.5094
229.8574, 157.6611
230.3395, 160.5883
230.8216, 163.3887
231.3038, 166.3616
231.7859, 169.3939
232.2680, 172.7361
232.7501, 176.4859
233.2322, 180.6111
233.7143, 185.2147
234.1965, 190.4911
234.6786, 196.2338
235.1607, 201.8659
235.6428, 206.9737
236.1249, 212.5666
236.6070, 219.2753
237.0892, 228.1730
237.5713, 235.7581
238.0534, 241.5674
238.5355, 246.1799
239.0176, 251.1776
239.4997, 257.4784
239.9819, 262.9370
240.4640, 266.6568
240.9461, 268.5954
241.4282, 268.9775
241.9103, 267.7885
242.3924, 265.0546
242.8746, 260.7102
243.3567, 254.1022
243.8388, 246.8835
244.3209, 239.6038
244.8030, 232.2329
245.2851, 225.1207
245.7673, 218.4965
246.2494, 212.0408
246.7315, 205.0569
247.2136, 197.4021
247.6957, 189.4401
248.1778, 181.1237
248.6600, 172.0847
249.1421, 163.9810
249.6242, 156.8443
250.1063, 150.5630
250.5884, 144.9355
251.0705, 139.9837
251.5527, 135.6289
252.0348, 131.9208
252.5169, 128.9086
252.9990, 126.2509
253.4811, 123.9439
253.9632, 121.9632
254.4454, 120.3099
254.9275, 119.0279
255.4096, 117.9674
255.8917, 117.1218
256.3738, 116.5619
256.8560, 115.9019
257.3381, 115.0608
257.8202, 114.1837
258.3023, 113.4710
258.7844, 112.9492
259.2665, 112.5554
259.7487, 112.3219
260.2308, 112.2988
260.7129, 112.0746
261.1950, 111.5661
261.6771, 110.9490
262.1592, 110.4506
262.6414, 110.0825
263.1235, 109.8136
263.6056, 109.6345
264.0877, 109.5418
264.5698, 109.5880
265.0519, 109.8262
265.5341, 110.1302
266.0162, 110.3199
266.4983, 110.3037
266.9804, 110.4500
267.4625, 110.8427
267.9446, 111.4774
268.4268, 112.3525
268.9089, 113.5028
269.3910, 114.8006
269.8731, 116.0947
270.3552, 117.3189
270.8373, 118.7747
271.3195, 120.5468
271.8016, 122.6189
272.2837, 124.9138
272.7658, 127.5082
273.2479, 130.2180
273.7300, 132.9259
274.2122, 135.6179
274.6943, 138.3059
275.1764, 140.8600
275.6585, 143.3985
276.1406, 146.6361
276.6227, 150.7169
277.1049, 155.0246
277.5870, 159.0245
278.0691, 162.6754
278.5512, 166.4889
279.0333, 170.4935
279.5154, 174.7440
279.9976, 179.4595
280.4797, 184.6989
280.9618, 190.1697
281.4439, 195.7743
281.9260, 201.4879
282.4081, 207.4760
282.8903, 213.8068
283.3724, 220.3694
283.8545, 226.7445
284.3366, 232.8676
284.8187, 239.5130
285.3008, 247.3197
285.7830, 256.2504
286.2651, 265.1091
286.7472, 273.9603
287.2293, 282.4962
287.7114, 289.9055
288.1935, 296.1967
288.6757, 302.5583
289.1578, 310.0363
289.6399, 318.2978
290.1220, 325.2429
290.6041, 330.7103
291.0862, 335.1395
291.5684, 339.0439
292.0505, 342.4403
292.5326, 345.3389
293.0147, 347.8578
293.4968, 349.9013
293.9789, 351.2323
294.4611, 351.8159
294.9432, 351.8064
295.4253, 351.3943
295.9074, 350.5436
296.3895, 349.1177
296.8716, 346.8687
297.3538, 344.0408
297.8359, 341.0772
298.3180, 337.9515
298.8001, 334.7355
299.2822, 331.4188
299.7643, 328.0145
300.2465, 324.6004
300.7286, 321.0939
301.2107, 317.6740
301.6928, 314.4720
302.1749, 311.5227
302.6570, 308.9203
303.1392, 307.0305
303.6213, 305.5186
304.1034, 303.8544
304.5855, 301.8323
305.0676, 299.6383
305.5497, 297.3764
306.0319, 295.0643
306.5140, 292.6762
306.9961, 290.6591
307.4782, 288.4210
307.9603, 285.2022
308.4424, 280.7299
308.9246, 275.4562
309.4067, 269.5690
309.8888, 263.1589
310.3709, 256.3586
310.8530, 249.1429
311.3351, 241.6898
311.8173, 234.0615
312.2994, 226.0068
312.7815, 218.3182
313.2636, 211.5854
313.7457, 205.5989
314.2278, 199.9382
314.7100, 194.1652
315.1921, 188.9261
315.6742, 184.6401
316.1563, 181.4145
316.6384, 178.7959
317.1205, 176.7732
317.6027, 175.2488
318.0848, 174.1138
318.5669, 173.2238
319.0490, 172.8135
319.5311, 173.0441
320.0132, 173.9333
320.4954, 175.1068
320.9775, 176.8451
321.4596, 178.6284
321.9417, 179.9877
322.4238, 180.7789
322.9059, 181.1888
323.3881, 181.6057
323.8702, 181.9136
324.3523, 180.8265
324.8344, 177.7709
325.3165, 173.5272
325.7986, 168.5369
326.2808, 162.1362
326.7629, 155.8165
327.2450, 149.4106
327.7271, 143.0908
328.2092, 137.5126
328.6913, 132.8238
329.1735, 128.7607
329.6556, 125.1827
330.1377, 122.2878
330.6198, 119.4887
331.1019, 116.5859
331.5840, 113.8445
332.0662, 111.7409
332.5483, 110.6004
333.0304, 109.6231
333.5125, 108.6148
333.9946, 107.5785
334.4767, 106.4092
334.9589, 104.9948
335.4410, 103.5706
335.9231, 102.4786
336.4052, 101.8867
336.8873, 101.1981
337.3694, 100.1868
337.8516, 98.89430
338.3336, 98.00893
338.8158, 97.61952
339.2979, 97.45023
339.7800, 97.32511
340.2621, 97.28671
340.7442, 96.98309
341.2263, 96.26114
341.7085, 95.28413
342.1906, 94.67822
342.6727, 94.49254
343.1548, 94.33828
343.6369, 93.87779
344.1190, 93.14291
344.6012, 92.61817
345.0833, 92.39368
345.5654, 92.32964
346.0475, 92.25896
346.5296, 92.17227
347.0117, 91.91159
347.4939, 91.21764
347.9760, 90.27272
348.4581, 89.66160
348.9402, 89.43618
349.4223, 89.41454
349.9044, 89.51106
350.3866, 89.66425
350.8687, 89.66476
351.3508, 89.30849
351.8329, 88.80091
352.3150, 88.48520
352.7971, 88.35435
353.2793, 88.21233
353.7614, 87.75861
354.2435, 87.21577
354.7256, 86.96251
355.2077, 87.27573
355.6898, 87.70467
356.1720, 87.86367
356.6541, 87.79672
357.1362, 87.69698
357.6183, 87.65674
358.1004, 87.64339
358.5826, 87.62527
359.0647, 87.58821
359.5468, 87.56689
360.0289, 87.56578
360.5110, 87.59418
360.9931, 87.67033
361.4753, 87.87922
361.9574, 88.07461
362.4395, 88.17383
362.9216, 88.15675
363.4037, 88.12669
363.8858, 88.08003
364.3680, 88.05018
364.8501, 88.07254
365.3322, 88.35658
365.8143, 88.48892
366.2964, 88.33568
366.7785, 87.89996
367.2607, 87.42334
367.7428, 86.87284
368.2249, 86.32435
368.7070, 85.82349
369.1891, 85.47011
369.6712, 85.03376
370.1534, 84.40419
370.6355, 83.68028
371.1176, 83.19598
371.5997, 83.21329
372.0818, 83.12502
372.5639, 82.60379
373.0461, 81.35528
373.5282, 80.65638
374.0103, 80.68849
374.4924, 81.08275
374.9745, 81.30407
375.4566, 81.33740
375.9388, 81.23870
376.4209, 80.94869
376.9030, 80.49248
377.3851, 80.36895
377.8672, 80.65866
378.3493, 81.02534
378.8315, 81.12600
379.3136, 80.95763
379.7957, 80.81114
380.2778, 80.70516
380.7599, 80.68875
381.2420, 80.97935
381.7242, 81.57186
382.2063, 82.06721
382.6884, 82.16125
383.1705, 81.93484
383.6526, 81.61855
384.1347, 81.19889
384.6169, 80.82803
385.0990, 80.84859
385.5811, 81.11699
386.0632, 81.16846
386.5453, 80.44213
387.0274, 79.52895
387.5096, 79.36099
387.9917, 79.94038
388.4738, 80.49011
388.9559, 80.27544
389.4380, 79.70140
389.9201, 79.30454
390.4023, 79.37325
390.8844, 79.53706
391.3665, 79.55753
391.8486, 79.46842
392.3307, 79.39120
392.8128, 79.38554
393.2950, 79.41016
393.7771, 79.40791
394.2592, 79.29272
394.7413, 79.35390
395.2234, 79.87219
395.7055, 80.58647
396.1877, 81.09356
396.6698, 81.07629
397.1519, 81.05601
397.6340, 81.17081
398.1161, 81.42942
398.5982, 81.80582
399.0804, 82.45872
399.5625, 83.13379
400.0446, 83.64685
400.5267, 83.91222
401.0088, 84.14450
401.4909, 84.34496
401.9731, 84.52535
402.4552, 84.72292
402.9373, 84.92727
403.4194, 85.16740
403.9015, 85.46031
404.3836, 85.81474
404.8658, 86.19838
405.3479, 86.63778
405.8300, 87.06270
406.3121, 87.37385
406.7942, 87.56454
407.2763, 87.66297
407.7585, 87.57747
408.2406, 87.39399
408.7227, 87.67455
409.2048, 88.46274
409.6869, 89.32485
410.1690, 89.80647
410.6512, 89.99753
411.1333, 90.38237
411.6154, 91.11271
412.0975, 91.96510
412.5796, 92.67610
413.0617, 93.23915
413.5439, 93.63779
414.0260, 93.74205
414.5081, 93.72814
414.9902, 93.83692
415.4723, 94.09044
415.9544, 94.42974
416.4366, 95.09366
416.9187, 95.75150
417.4008, 95.90723
417.8829, 95.12183
418.3650, 94.00211
418.8471, 92.86540
419.3293, 91.70122
419.8114, 90.37135
420.2935, 88.49380
420.7756, 86.64160
421.2577, 85.25726
421.7398, 84.54924
422.2220, 83.98815
422.7041, 83.49561
423.1862, 83.06764
423.6683, 82.69390
424.1504, 82.28214
424.6325, 82.01124
425.1147, 81.97625
425.5968, 82.21191
426.0789, 82.35633
426.5610, 82.34341
427.0431, 82.29958
427.5252, 82.32014
428.0074, 82.39936
428.4895, 82.56561
428.9716, 82.86788
429.4537, 83.24067
429.9358, 83.44997
430.4179, 83.44578
430.9001, 83.45095
431.3822, 83.61733
431.8643, 83.94933
432.3464, 84.05984
432.8285, 83.85720
433.3106, 83.72878
433.7928, 84.33085
434.2749, 85.56052
434.7570, 86.53667
435.2391, 86.89151
435.7212, 86.90403
436.2033, 87.12148
436.6855, 87.52123
437.1676, 87.89021
437.6497, 87.85729
438.1318, 87.76054
438.6139, 88.19073
439.0960, 89.35359
439.5782, 90.63548
440.0603, 91.51748
440.5424, 92.16399
441.0245, 92.86901
441.5066, 93.84550
441.9887, 94.85368
442.4709, 95.85467
442.9530, 96.83042
443.4351, 97.48658
443.9172, 97.74509
444.3993, 97.61349
444.8814, 97.09599
445.3636, 96.22816
445.8457, 94.92867
446.3278, 93.05033
446.8099, 90.73807
447.2920, 88.28976
447.7741, 85.28532
448.2563, 82.61635
448.7384, 80.70162
449.2205, 79.65493
449.7026, 78.24361
450.1847, 76.15768
450.6668, 74.11819
451.1490, 72.85418
451.6311, 72.55310
452.1132, 72.30368
452.5953, 71.98572
453.0774, 71.62591
453.5595, 71.28384
454.0417, 70.96178
454.5238, 70.62036
455.0059, 70.19358
455.4880, 69.71488
455.9701, 69.32582
456.4522, 69.02738
456.9344, 68.85306
457.4165, 68.89684
457.8986, 69.09893
458.3807, 69.30016
458.8628, 69.50114
459.3449, 69.62244
459.8271, 69.45570
460.3092, 69.08788
460.7913, 68.88796
461.2734, 69.31173
461.7555, 69.85204
462.2376, 70.05687
462.7198, 69.80408
463.2019, 69.48908
463.6840, 69.23044
464.1661, 69.03439
464.6482, 68.90844
465.1303, 68.93812
465.6125, 68.94933
466.0946, 68.87486
466.5767, 68.72574
467.0588, 68.62007
467.5409, 68.64261
468.0230, 68.64291
468.5052, 68.53506
468.9873, 68.20493
469.4694, 68.07063
469.9515, 68.25531
470.4336, 68.53049
470.9157, 68.52757
471.3979, 68.12217
471.8800, 67.88191
472.3621, 68.02153
472.8442, 68.43444
473.3263, 68.62614
473.8084, 68.58840
474.2906, 68.39403
474.7727, 67.97350
475.2548, 67.40524
475.7369, 67.10779
476.2190, 67.16424
476.7011, 67.32623
477.1833, 67.32002
477.6654, 67.17880
478.1475, 66.99320
478.6296, 66.75468
479.1117, 66.52239
479.5938, 66.41295
480.0760, 66.39555
480.5581, 66.26950
481.0402, 65.69817
481.5223, 65.10191
482.0044, 64.86874
482.4865, 65.23451
482.9687, 65.51814
483.4508, 65.43161
483.9329, 65.14053
484.4150, 64.88287
484.8971, 64.67669
485.3792, 64.53148
485.8614, 64.45037
486.3435, 64.43127
486.8256, 64.48344
487.3077, 64.75916
487.7898, 64.92680
488.2719, 64.76794
488.7541, 64.13944
489.2362, 63.65200
489.7183, 63.31440
490.2004, 63.11076
490.6825, 63.05355
491.1646, 63.16134
491.6468, 63.21576
492.1289, 63.11184
492.6110, 62.93053
493.0931, 62.97015
493.5752, 63.22648
494.0573, 63.38540
494.5395, 63.07607
495.0216, 62.53184
495.5037, 62.23700
495.9858, 62.26955
496.4679, 62.46054
496.9500, 62.73452
497.4322, 63.05268
497.9143, 63.34569
498.3964, 63.54246
498.8785, 63.74709
499.3606, 64.08797
499.8427, 64.51541
500.3249, 64.77494
500.8070, 64.59730
501.2891, 64.37572
501.7712, 64.31634
502.2533, 64.48366
502.7354, 64.68710
503.2176, 64.90769
503.6997, 65.15935
504.1818, 65.47384
504.6639, 65.97654
505.1460, 66.29989
505.6281, 66.34255
506.1103, 66.17320
506.5924, 66.05088
507.0745, 65.97847
507.5566, 65.93990
508.0387, 65.94066
508.5208, 65.97755
509.0030, 65.98091
509.4851, 65.94401
509.9672, 65.91196
510.4493, 65.96294
510.9314, 66.06456
511.4135, 66.09508
511.8957, 65.98897
512.3778, 65.86329
512.8599, 65.88654
513.3420, 66.00937
513.8242, 66.08530
514.3063, 66.01109
514.7884, 65.88145
515.2705, 65.78727
515.7526, 65.73585
516.2347, 65.60857
516.7169, 65.13948
517.1990, 64.70364
517.6811, 64.59359
518.1632, 65.17984
518.6453, 65.65172
519.1274, 65.87640
519.6096, 65.94514
520.0917, 66.01028
520.5738, 66.02652
521.0559, 66.11888
521.5380, 66.37717
522.0201, 66.78020
522.5023, 66.88885
522.9844, 66.57701
523.4665, 66.33268
523.9486, 66.59531
524.4307, 67.33443
524.9128, 67.85210
525.3950, 68.03600
525.8771, 68.17908
526.3592, 68.82455
526.8413, 69.79162
527.3234, 70.42446
527.8055, 70.22562
528.2877, 69.81372
528.7698, 69.88243
529.2519, 70.36308
529.7340, 70.96587
530.2161, 71.68458
530.6982, 72.35616
531.1804, 72.82322
531.6625, 73.01137
532.1446, 73.28866
532.6267, 73.83704
533.1088, 74.49883
533.5909, 75.12000
534.0731, 75.69032
534.5552, 76.21834
535.0373, 76.76765
535.5194, 77.26797
536.0015, 77.55325
536.4836, 77.54906
536.9658, 77.47825
537.4479, 77.44217
537.9300, 77.43106
538.4121, 77.20658
538.8942, 76.75366
539.3763, 76.14648
539.8585, 75.34956
540.3406, 74.41676
540.8227, 73.69321
541.3048, 73.25391
541.7869, 72.88975
542.2690, 72.31985
542.7512, 71.61689
543.2333, 70.96256
543.7154, 70.41233
544.1975, 69.95834
544.6796, 69.63061
545.1617, 69.40450
545.6439, 69.18437
546.1260, 68.87583
546.6081, 68.59872
547.0902, 68.45168
547.5723, 68.49877
548.0544, 68.45545
548.5366, 68.10847
549.0187, 67.75398
549.5008, 67.65895
549.9829, 67.99529
550.4650, 68.28420
550.9471, 68.50174
551.4293, 68.64107
551.9114, 68.63389
552.3935, 68.41646
552.8756, 68.37026
553.3577, 68.72498
553.8398, 69.36861
554.3220, 69.73089
554.8041, 69.80276
555.2862, 69.90816
555.7683, 70.21437
556.2504, 70.75233
556.7325, 71.66916
557.2147, 73.04721
557.6968, 74.45081
558.1789, 75.38616
558.6610, 76.14664
559.1431, 77.15536
559.6252, 78.79140
560.1074, 80.46511
560.5895, 81.91628
561.0716, 83.21839
561.5537, 84.58744
562.0358, 86.09595
562.5179, 87.66874
563.0001, 89.28677
563.4822, 90.94855
563.9643, 92.59301
564.4464, 94.25918
564.9285, 95.85608
565.4106, 97.26027
565.8928, 98.40262
566.3749, 99.84470
566.8570, 101.6455
567.3391, 103.7584
567.8212, 106.2308
568.3033, 109.0305
568.7855, 111.7475
569.2676, 114.2585
569.7497, 116.6286
570.2318, 118.9846
570.7139, 121.2941
571.1960, 123.6134
571.6782, 126.2411
572.1603, 128.6807
572.6424, 130.5550
573.1245, 131.8531
573.6066, 132.5079
574.0887, 132.4435
574.5709, 131.7657
575.0530, 130.5777
575.5351, 129.2474
576.0172, 126.8238
576.4993, 122.8203
576.9814, 117.9481
577.4636, 113.3595
577.9457, 109.0518
578.4278, 105.0549
578.9099, 101.4795
579.3920, 98.26130
579.8741, 95.09473
580.3563, 91.97460
580.8384, 89.18009
581.3205, 86.97414
581.8026, 85.20010
582.2847, 83.45977
582.7668, 81.72688
583.2490, 80.29012
583.7311, 79.62681
584.2132, 79.31832
584.6953, 78.77595
585.1774, 77.71346
585.6595, 76.77174
586.1416, 76.42496
586.6237, 76.37768
587.1058, 76.17565
587.5880, 75.59238
588.0701, 74.97722
