##NAMES=Georgechaoite
##RRUFFID=R100082
##IDEAL CHEMISTRY=KNaZr^4+^Si_3_O_9_&#183;2H_2_O
##LOCALITY=Pocos de Caldas, Minas Gerais, Brazil
##OWNER=RRUFF
##SOURCE=Luiz Menezes 
##DESCRIPTION=Blocky yellowish-orange crystals associated with colorless analcime
##STATUS=The identification of this mineral has been confirmed by single-crystal X-ray diffraction.
##URL=rruff.info/R100082
91.53320, 329.3220
92.01532, 331.0930
92.49744, 330.8795
92.97955, 332.5274
93.46167, 332.9039
93.94379, 330.8856
94.42590, 328.6421
94.90802, 326.3285
95.39014, 323.1740
95.87225, 318.9220
96.35437, 314.9947
96.83649, 312.7960
97.31860, 311.1932
97.80072, 308.8703
98.28284, 304.6284
98.76495, 298.7042
99.24707, 293.7465
99.72919, 290.3676
100.2113, 287.3755
100.6934, 284.3324
101.1755, 281.3370
101.6577, 278.7179
102.1398, 276.7404
102.6219, 275.4603
103.1040, 274.4770
103.5861, 273.8710
104.0682, 273.3483
104.5504, 272.8041
105.0325, 272.1925
105.5146, 271.4283
105.9967, 270.3217
106.4788, 268.6147
106.9609, 267.1600
107.4431, 266.2793
107.9252, 265.5833
108.4073, 264.4967
108.8894, 262.7496
109.3715, 260.7090
109.8536, 259.0173
110.3358, 257.6633
110.8179, 256.4706
111.3000, 255.2257
111.7821, 253.9718
112.2642, 253.2018
112.7463, 253.7229
113.2285, 254.4467
113.7106, 254.2124
114.1927, 252.6609
114.6748, 250.5808
115.1569, 248.9715
115.6390, 247.7931
116.1212, 247.2176
116.6033, 247.9727
117.0854, 249.0069
117.5675, 249.1239
118.0496, 247.5948
118.5317, 244.9122
119.0139, 243.4712
119.4960, 244.6618
119.9781, 245.7388
120.4602, 246.2756
120.9423, 246.3421
121.4244, 246.1242
121.9066, 245.7415
122.3887, 245.1754
122.8708, 244.6903
123.3529, 244.4649
123.8350, 244.1454
124.3171, 243.3071
124.7993, 242.0574
125.2814, 241.1168
125.7635, 241.3281
126.2456, 243.0417
126.7277, 244.1449
127.2098, 244.4601
127.6920, 244.2147
128.1741, 243.5804
128.6562, 242.5595
129.1383, 241.3016
129.6204, 239.6897
130.1025, 237.7459
130.5847, 236.4500
131.0668, 236.7617
131.5489, 238.1590
132.0310, 238.7374
132.5131, 237.5462
132.9952, 236.0069
133.4774, 235.4448
133.9595, 235.8772
134.4416, 236.4539
134.9237, 236.4547
135.4058, 235.8293
135.8879, 234.9833
136.3701, 233.4404
136.8522, 232.0556
137.3343, 231.4336
137.8164, 231.7062
138.2985, 232.4336
138.7806, 232.8986
139.2628, 233.0716
139.7449, 232.9860
140.2270, 232.5066
140.7091, 231.8855
141.1912, 231.3304
141.6733, 230.9369
142.1555, 230.6728
142.6376, 230.4377
143.1197, 230.0965
143.6018, 229.9381
144.0839, 230.1424
144.5660, 230.5332
145.0482, 230.7773
145.5303, 230.6310
146.0124, 230.2133
146.4945, 230.4368
146.9766, 232.0005
147.4587, 233.3701
147.9409, 233.5624
148.4230, 232.8418
148.9051, 232.4933
149.3872, 233.5864
149.8693, 235.8743
150.3514, 237.5332
150.8336, 238.3118
151.3157, 238.5894
151.7978, 238.4780
152.2799, 237.8872
152.7620, 237.5939
153.2441, 238.7149
153.7263, 240.5329
154.2084, 241.8377
154.6905, 241.9356
155.1726, 241.2846
155.6547, 240.8552
156.1368, 240.6436
156.6190, 240.7016
157.1011, 241.1515
157.5832, 241.8452
158.0653, 242.5072
158.5474, 242.9881
159.0295, 243.2898
159.5117, 243.4031
159.9938, 242.5901
160.4759, 242.3664
160.9580, 243.8218
161.4401, 246.4201
161.9222, 248.7573
162.4044, 249.4200
162.8865, 248.0069
163.3686, 247.2831
163.8507, 247.5038
164.3328, 248.1212
164.8149, 249.1190
165.2971, 250.3782
165.7792, 251.6067
166.2613, 252.4966
166.7434, 253.0453
167.2255, 253.1340
167.7076, 252.3344
168.1898, 251.4368
168.6719, 251.1922
169.1540, 251.6890
169.6361, 252.1966
170.1182, 251.6372
170.6003, 249.4664
171.0825, 247.5266
171.5646, 245.9324
172.0467, 244.5978
172.5288, 243.5445
173.0109, 242.8282
173.4930, 242.1063
173.9752, 240.6144
174.4573, 238.2069
174.9394, 236.1820
175.4215, 235.1855
175.9036, 234.8333
176.3857, 234.2786
176.8679, 233.2436
177.3500, 231.9573
177.8321, 230.7456
178.3142, 229.6125
178.7963, 228.4543
179.2784, 227.1753
179.7606, 225.7865
180.2427, 224.4512
180.7248, 223.1196
181.2069, 221.9610
181.6890, 221.2194
182.1711, 220.9274
182.6533, 220.6170
183.1354, 219.6496
183.6175, 217.8752
184.0996, 216.6369
184.5817, 216.7310
185.0638, 217.1809
185.5460, 217.4839
186.0281, 217.5273
186.5102, 217.4651
186.9923, 217.5744
187.4744, 218.0649
187.9565, 218.1391
188.4387, 217.4668
188.9208, 216.5435
189.4029, 215.5516
189.8850, 214.5814
190.3671, 213.8802
190.8492, 213.9994
191.3314, 215.8176
191.8135, 217.0294
192.2956, 217.3114
192.7777, 217.0978
193.2598, 216.6338
193.7419, 216.0349
194.2241, 215.4702
194.7062, 215.3491
195.1883, 216.5533
195.6704, 217.1812
196.1525, 216.7559
196.6346, 215.8732
197.1168, 215.2499
197.5989, 215.2049
198.0810, 215.5071
198.5631, 215.4810
199.0452, 214.7348
199.5273, 214.1979
200.0095, 214.0300
200.4916, 214.1640
200.9737, 214.5878
201.4558, 215.3875
201.9379, 216.2937
202.4200, 216.4848
202.9022, 215.6978
203.3843, 214.8480
203.8664, 214.2032
204.3485, 213.7341
204.8306, 213.3556
205.3127, 213.0124
205.7949, 212.7740
206.2770, 212.7727
206.7591, 213.0770
207.2412, 213.4405
207.7233, 213.7880
208.2054, 214.1033
208.6876, 214.2756
209.1697, 214.2422
209.6518, 214.0339
210.1339, 213.6946
210.6160, 213.1642
211.0981, 212.6831
211.5803, 212.3311
212.0624, 212.1063
212.5445, 212.3725
213.0266, 213.8086
213.5087, 215.4651
213.9908, 216.4473
214.4730, 216.5739
214.9551, 216.2884
215.4372, 215.9822
215.9193, 215.6328
216.4014, 215.3988
216.8836, 215.3689
217.3657, 215.4532
217.8478, 215.5827
218.3299, 215.7385
218.8120, 216.0055
219.2941, 216.5007
219.7763, 217.2471
220.2584, 218.1538
220.7405, 219.4822
221.2226, 220.7882
221.7047, 221.7279
222.1868, 222.2153
222.6690, 222.4709
223.1511, 222.8648
223.6332, 223.5553
224.1153, 224.0120
224.5974, 224.1768
225.0795, 224.1416
225.5617, 223.7658
226.0438, 223.0747
226.5259, 222.5089
227.0080, 222.9525
227.4901, 225.4074
227.9722, 227.0320
228.4544, 227.2248
228.9365, 226.9896
229.4186, 227.1192
229.9007, 227.8254
230.3828, 228.7431
230.8649, 229.2243
231.3471, 228.9245
231.8292, 228.7073
232.3113, 228.4550
232.7934, 228.3403
233.2755, 228.5339
233.7576, 229.0726
234.2398, 229.8360
234.7219, 230.6287
235.2040, 231.5412
235.6861, 232.3052
236.1682, 232.9484
236.6503, 233.4337
237.1325, 233.6379
237.6146, 233.5440
238.0967, 233.3923
238.5788, 233.5594
239.0609, 234.2636
239.5430, 234.7863
240.0252, 234.9207
240.5073, 234.9522
240.9894, 235.1850
241.4715, 235.6922
241.9536, 236.2946
242.4357, 236.7809
242.9179, 237.1553
243.4000, 237.3655
243.8821, 237.2935
244.3642, 237.1057
244.8463, 237.0273
245.3284, 237.1123
245.8106, 237.1349
246.2927, 236.7489
246.7748, 235.9328
247.2569, 235.2912
247.7390, 234.8431
248.2211, 234.6433
248.7033, 234.8738
249.1854, 235.6138
249.6675, 236.3867
250.1496, 236.7676
250.6317, 236.7867
251.1138, 236.4718
251.5960, 235.5572
252.0781, 234.4231
252.5602, 233.5183
253.0423, 232.8865
253.5244, 232.4868
254.0065, 232.4621
254.4887, 232.6778
254.9708, 232.7580
255.4529, 232.2651
255.9350, 231.7238
256.4171, 232.0406
256.8992, 233.4374
257.3813, 234.7906
257.8635, 235.0803
258.3456, 234.7901
258.8277, 234.7048
259.3098, 235.1514
259.7919, 235.8551
260.2740, 236.5028
260.7562, 237.1412
261.2383, 237.5148
261.7204, 237.1507
262.2025, 236.5079
262.6846, 236.1476
263.1667, 236.2731
263.6489, 236.6944
264.1310, 237.1773
264.6131, 237.7314
265.0952, 238.3046
265.5773, 239.0311
266.0594, 239.6999
266.5416, 239.9943
267.0237, 239.6888
267.5058, 239.3695
267.9879, 239.9646
268.4700, 241.7077
268.9521, 243.2871
269.4343, 244.1363
269.9164, 244.7056
270.3985, 245.2498
270.8806, 245.8174
271.3627, 246.4908
271.8448, 247.5004
272.3270, 248.9907
272.8091, 250.0784
273.2912, 250.0576
273.7733, 249.8674
274.2554, 250.1314
274.7375, 250.9465
275.2197, 251.8722
275.7018, 252.4165
276.1839, 252.5246
276.6660, 252.5885
277.1481, 252.5108
277.6302, 252.5115
278.1124, 252.7833
278.5945, 253.3015
279.0766, 253.8106
279.5587, 253.9491
280.0408, 253.6324
280.5229, 253.7272
281.0051, 254.8691
281.4872, 255.9305
281.9693, 256.4706
282.4514, 256.5062
282.9335, 256.2554
283.4156, 255.8804
283.8978, 255.3819
284.3799, 254.7119
284.8620, 253.2443
285.3441, 252.2661
285.8262, 252.7477
286.3083, 254.0779
286.7905, 254.9014
287.2726, 254.1037
287.7547, 251.8965
288.2368, 250.3336
288.7189, 249.7271
289.2010, 249.4734
289.6832, 249.6921
290.1653, 250.0862
290.6474, 250.2332
291.1295, 249.8747
291.6116, 249.1184
292.0938, 248.4160
292.5759, 248.0144
293.0580, 247.2884
293.5401, 245.7927
294.0222, 244.0650
294.5043, 242.7843
294.9865, 242.2679
295.4686, 242.1412
295.9507, 241.4484
296.4328, 239.6998
296.9149, 238.2566
297.3970, 237.3698
297.8792, 236.7623
298.3613, 236.2498
298.8434, 235.7605
299.3255, 235.2592
299.8076, 234.6926
300.2897, 234.0641
300.7719, 233.3487
301.2540, 232.2118
301.7361, 231.2356
302.2182, 231.0228
302.7003, 231.5428
303.1824, 232.0377
303.6646, 231.4057
304.1467, 229.0475
304.6288, 227.7716
305.1109, 228.3960
305.5930, 229.3079
306.0751, 229.9903
306.5573, 230.3114
307.0394, 230.1993
307.5215, 229.4393
308.0036, 227.9262
308.4857, 227.2754
308.9678, 228.3963
309.4500, 229.5224
309.9321, 230.1743
310.4142, 230.4439
310.8963, 230.6031
311.3784, 230.8223
311.8605, 231.1014
312.3427, 231.4357
312.8248, 231.9107
313.3069, 232.3471
313.7890, 232.7029
314.2711, 233.0064
314.7532, 233.3006
315.2354, 233.6060
315.7175, 233.9101
316.1996, 234.2151
316.6817, 234.9000
317.1638, 234.9238
317.6459, 233.5788
318.1281, 231.9251
318.6102, 231.0110
319.0923, 231.1367
319.5744, 231.6828
320.0565, 231.5739
320.5386, 230.3693
321.0208, 229.5264
321.5029, 228.9780
321.9850, 228.8327
322.4671, 229.4339
322.9492, 230.6623
323.4313, 231.8267
323.9135, 232.0855
324.3956, 231.1842
324.8777, 230.6604
325.3598, 230.6943
325.8419, 230.9362
326.3240, 231.2847
326.8062, 231.7345
327.2883, 232.3514
327.7704, 233.2674
328.2525, 234.4387
328.7346, 235.1025
329.2167, 234.7679
329.6989, 234.4516
330.1810, 234.5574
330.6631, 234.8078
331.1452, 234.7004
331.6273, 233.9115
332.1094, 232.7732
332.5916, 232.3633
333.0737, 233.1892
333.5558, 233.9075
334.0379, 234.4691
334.5200, 234.7451
335.0021, 234.5658
335.4843, 233.8848
335.9664, 232.8812
336.4485, 231.8778
336.9306, 230.9950
337.4127, 229.7274
337.8948, 227.6684
338.3770, 225.4966
338.8591, 223.5762
339.3412, 221.9441
339.8233, 220.4664
340.3055, 218.9478
340.7876, 217.3565
341.2697, 216.1114
341.7518, 215.6702
342.2339, 215.1457
342.7160, 214.1530
343.1982, 212.7967
343.6803, 211.3672
344.1624, 210.0478
344.6445, 208.8160
345.1266, 207.5142
345.6087, 205.8717
346.0909, 204.6372
346.5730, 204.3361
347.0551, 204.4172
347.5372, 204.1019
348.0193, 202.9749
348.5014, 201.6425
348.9836, 201.3745
349.4657, 202.6280
349.9478, 203.4114
350.4299, 202.5955
350.9120, 201.4866
351.3941, 201.1012
351.8763, 201.6179
352.3584, 202.3221
352.8405, 202.4628
353.3226, 202.0239
353.8047, 201.6084
354.2868, 201.2119
354.7690, 200.9519
355.2511, 201.0110
355.7332, 201.3013
356.2153, 201.4642
356.6974, 201.1918
357.1795, 200.5929
357.6617, 200.0888
358.1438, 199.7088
358.6259, 199.3801
359.1080, 199.0055
359.5901, 198.6607
360.0722, 198.4793
360.5544, 198.5357
361.0365, 198.7444
361.5186, 199.0404
362.0007, 199.4459
362.4828, 199.7485
362.9649, 199.8634
363.4471, 199.8175
363.9292, 199.6554
364.4113, 199.3878
364.8934, 198.9661
365.3755, 198.2363
365.8576, 197.2725
366.3398, 196.5204
366.8219, 196.2006
367.3040, 195.9391
367.7861, 195.2881
368.2682, 194.2897
368.7503, 193.3588
369.2325, 192.6362
369.7146, 192.0896
370.1967, 191.7208
370.6788, 191.5627
371.1609, 191.3712
371.6430, 190.9438
372.1252, 190.3270
372.6073, 189.6891
373.0894, 188.9408
373.5715, 188.2683
374.0536, 188.0172
374.5357, 188.0766
375.0179, 187.7040
375.5000, 186.3789
375.9821, 184.5497
376.4642, 183.2933
376.9463, 182.8106
377.4284, 182.3552
377.9106, 181.4886
378.3927, 180.5090
378.8748, 180.0406
379.3569, 180.2987
379.8390, 180.6915
380.3211, 180.3283
380.8033, 178.9658
381.2854, 178.3521
381.7675, 179.5264
382.2496, 180.8403
382.7317, 180.8388
383.2138, 179.5553
383.6960, 178.0678
384.1781, 177.0929
384.6602, 176.6379
385.1423, 176.7112
385.6244, 177.9148
386.1065, 178.8705
386.5887, 179.0127
387.0708, 178.6201
387.5529, 178.1203
388.0350, 177.6873
388.5171, 177.3764
388.9992, 177.3190
389.4814, 177.8727
389.9635, 178.1270
390.4456, 177.9166
390.9277, 177.5233
391.4098, 177.0571
391.8919, 176.6001
392.3741, 176.3287
392.8562, 176.4290
393.3383, 176.9226
393.8204, 177.6521
394.3025, 179.3470
394.7846, 180.5139
395.2668, 180.1075
395.7489, 178.8559
396.2310, 178.1921
396.7131, 179.0049
397.1952, 180.7936
397.6773, 181.8083
398.1595, 181.6310
398.6416, 181.3212
399.1237, 180.7415
399.6058, 180.2693
400.0879, 180.3689
400.5700, 181.0894
401.0522, 181.8725
401.5343, 181.9015
402.0164, 180.9598
402.4985, 180.5645
402.9806, 181.3694
403.4627, 182.1766
403.9449, 182.3558
404.4270, 182.1061
404.9091, 182.0265
405.3912, 182.6050
405.8733, 183.5628
406.3554, 183.9721
406.8376, 183.6099
407.3197, 183.2581
407.8018, 183.1600
408.2839, 183.2601
408.7660, 183.5748
409.2481, 184.1495
409.7303, 184.7261
410.2124, 185.0917
410.6945, 185.2455
411.1766, 185.1649
411.6587, 184.7497
412.1408, 184.2125
412.6230, 183.6790
413.1051, 183.1694
413.5872, 182.8627
414.0693, 183.0091
414.5514, 183.3401
415.0335, 183.4027
415.5157, 183.1516
415.9978, 182.8645
416.4799, 182.7651
416.9620, 182.7517
417.4441, 182.5153
417.9262, 181.8558
418.4084, 181.2218
418.8905, 180.7637
419.3726, 180.5239
419.8547, 180.7226
420.3368, 181.5300
420.8189, 182.4874
421.3011, 182.8211
421.7832, 182.3993
422.2653, 181.9635
422.7474, 181.2842
423.2295, 180.8305
423.7116, 181.2123
424.1938, 182.3502
424.6759, 183.4597
425.1580, 183.9244
425.6401, 183.7800
426.1222, 183.7004
426.6043, 183.6975
427.0865, 183.7324
427.5686, 183.6780
428.0507, 183.6909
428.5328, 184.0691
429.0149, 184.9163
429.4970, 185.9198
429.9792, 186.5171
430.4613, 186.4582
430.9434, 186.5327
431.4255, 186.9219
431.9076, 187.2637
432.3897, 187.2998
432.8719, 187.0891
433.3540, 186.8493
433.8361, 186.6900
434.3182, 186.6631
434.8003, 187.2132
435.2824, 188.9186
435.7646, 190.3120
436.2467, 190.8667
436.7288, 191.0424
437.2109, 191.2962
437.6930, 191.7710
438.1751, 192.3556
438.6573, 192.9837
439.1394, 193.6741
439.6215, 194.0862
440.1036, 193.7670
440.5857, 193.6239
441.0678, 194.3503
441.5500, 195.7671
442.0321, 197.1702
442.5142, 198.3512
442.9963, 199.2408
443.4784, 199.6340
443.9605, 199.4746
444.4427, 199.2430
444.9248, 199.0539
445.4069, 199.0102
445.8890, 199.2599
446.3711, 199.8423
446.8532, 200.6282
447.3354, 201.8939
447.8175, 203.2718
448.2996, 203.8449
448.7817, 203.3351
449.2638, 202.4683
449.7459, 201.8738
450.2281, 201.5703
450.7102, 201.9057
451.1923, 203.3083
451.6744, 204.9845
452.1565, 206.9563
452.6386, 208.8419
453.1208, 209.4829
453.6029, 208.1580
454.0850, 205.6149
454.5671, 203.9241
455.0492, 203.6705
455.5313, 203.5376
456.0135, 203.7961
456.4956, 203.9777
456.9777, 203.5077
457.4598, 202.4462
457.9419, 201.5241
458.4240, 201.5310
458.9062, 202.4900
459.3883, 202.7516
459.8704, 201.6522
460.3525, 200.5615
460.8346, 199.6036
461.3167, 198.8849
461.7989, 198.6343
462.2810, 198.9479
462.7631, 199.3605
463.2452, 198.9834
463.7273, 197.5800
464.2094, 196.8172
464.6916, 197.6217
465.1737, 198.4414
465.6558, 198.1886
466.1379, 197.1220
466.6200, 196.2915
467.1021, 196.3681
467.5843, 197.0059
468.0664, 197.5385
468.5485, 197.9541
469.0306, 198.3677
469.5127, 198.8350
469.9948, 199.3309
470.4770, 199.7887
470.9591, 200.1767
471.4412, 200.6452
471.9233, 201.3456
472.4054, 202.1616
472.8875, 202.8171
473.3697, 203.2491
473.8518, 203.7784
474.3339, 204.7733
474.8160, 206.2210
475.2981, 207.3078
475.7802, 207.8008
476.2624, 208.1848
476.7445, 208.7419
477.2266, 209.3358
477.7087, 209.6953
478.1908, 209.7140
478.6729, 209.4762
479.1551, 209.1255
479.6372, 208.6104
480.1193, 208.0886
480.6014, 207.5881
481.0835, 207.0537
481.5656, 206.5206
482.0478, 205.9325
482.5299, 205.1301
483.0120, 203.9740
483.4941, 202.5967
483.9762, 201.5772
484.4583, 201.2057
484.9405, 200.5982
485.4226, 199.2567
485.9047, 197.8514
486.3868, 196.9160
486.8689, 196.5112
487.3510, 196.3408
487.8332, 196.1660
488.3153, 196.0157
488.7974, 196.0947
489.2795, 196.5650
489.7616, 196.8797
490.2437, 196.5016
490.7259, 195.7954
491.2080, 195.3076
491.6901, 195.1919
492.1722, 195.1987
492.6543, 195.0345
493.1364, 194.8443
493.6186, 195.0849
494.1007, 195.9134
494.5828, 197.0485
495.0649, 198.3053
495.5470, 199.7211
496.0291, 200.5830
496.5113, 200.2234
496.9934, 199.9089
497.4755, 200.3543
497.9576, 201.4425
498.4397, 202.8197
498.9218, 204.3134
499.4040, 205.9444
499.8861, 207.7635
500.3682, 210.0130
500.8503, 211.9755
501.3324, 213.1619
501.8145, 214.5171
502.2967, 216.7027
502.7788, 219.6083
503.2609, 222.7145
503.7430, 225.6900
504.2251, 228.5776
504.7072, 231.5277
505.1894, 234.6230
505.6715, 237.6176
506.1536, 240.0315
506.6357, 242.6015
507.1178, 246.0138
507.5999, 250.3209
508.0821, 254.8212
508.5642, 259.0924
509.0463, 263.1500
509.5284, 266.9835
510.0105, 270.4901
510.4926, 274.1792
510.9748, 278.1831
511.4569, 282.6488
511.9390, 287.9069
512.4211, 294.3139
512.9032, 300.8322
513.3853, 306.7750
513.8674, 312.5216
514.3495, 318.7216
514.8317, 325.5722
515.3138, 332.5567
515.7959, 339.1101
516.2780, 346.1169
516.7601, 351.8040
517.2422, 359.7897
517.7244, 367.2909
518.2065, 373.9274
518.6886, 379.6132
519.1707, 384.3336
519.6528, 388.0688
520.1349, 390.7315
520.6171, 392.3268
521.0992, 393.1702
521.5813, 391.6710
522.0634, 386.6158
522.5455, 380.2469
523.0276, 373.1548
523.5098, 365.3354
523.9919, 356.6588
524.4740, 346.9130
524.9561, 336.6161
525.4382, 326.1205
525.9203, 315.4702
526.4025, 305.4856
526.8846, 296.5322
527.3667, 288.1842
527.8488, 279.7640
528.3309, 271.3935
528.8130, 263.8006
529.2952, 257.4904
529.7773, 251.8341
530.2594, 246.0844
530.7415, 240.4025
531.2236, 235.6693
531.7057, 232.4396
532.1879, 229.8762
532.6700, 226.3082
533.1521, 220.8417
533.6342, 216.3880
534.1163, 213.5920
534.5984, 211.3369
535.0806, 208.8802
535.5627, 206.3208
536.0448, 204.1540
536.5269, 202.7063
537.0090, 201.8154
537.4911, 201.0909
537.9733, 200.8335
538.4554, 200.0472
538.9375, 198.0673
539.4196, 196.0027
539.9017, 194.5581
540.3839, 193.6826
540.8660, 192.8822
541.3481, 191.8782
541.8302, 190.7142
542.3123, 189.3489
542.7944, 187.7111
543.2766, 186.5679
543.7587, 186.5939
544.2408, 186.9711
544.7229, 186.3829
545.2050, 184.6846
545.6871, 183.3622
546.1693, 183.3386
546.6514, 183.6908
547.1335, 183.4243
547.6156, 182.5173
548.0977, 181.3434
548.5798, 180.0523
549.0620, 178.7788
549.5441, 177.9883
550.0262, 178.2210
550.5083, 178.2310
550.9904, 177.7814
551.4725, 177.2813
551.9547, 177.0456
552.4368, 177.0641
552.9189, 177.1580
553.4010, 177.2267
553.8831, 177.2320
554.3652, 176.9812
554.8474, 176.3419
555.3295, 175.7875
555.8116, 175.5935
556.2937, 175.4218
556.7758, 174.9481
557.2579, 174.1909
557.7401, 173.5751
558.2222, 173.3687
558.7043, 173.4570
559.1864, 173.7780
559.6685, 174.3289
560.1506, 174.5592
560.6328, 174.0959
561.1149, 173.2471
561.5970, 172.6671
562.0791, 172.3902
562.5612, 172.2019
563.0433, 171.9715
563.5255, 171.8803
564.0076, 172.2014
564.4897, 172.8376
564.9718, 173.4101
565.4539, 173.6885
565.9360, 173.6899
566.4182, 173.4566
566.9003, 172.8621
567.3824, 172.2641
567.8645, 171.5980
568.3466, 171.0121
568.8287, 170.4795
569.3109, 170.0931
569.7930, 170.1857
570.2751, 171.2683
570.7572, 172.6402
571.2393, 172.6188
571.7214, 171.0741
572.2036, 169.7171
572.6857, 169.0333
573.1678, 168.8423
573.6499, 169.0355
574.1320, 169.5993
574.6141, 170.0282
575.0963, 169.9119
575.5784, 169.8201
576.0605, 170.4872
576.5426, 171.6453
577.0247, 172.3656
577.5068, 172.2173
577.9890, 171.4512
578.4711, 170.4632
578.9532, 168.8790
579.4353, 168.0680
579.9174, 168.5224
580.3995, 169.1543
580.8817, 169.6116
581.3638, 169.8274
581.8459, 169.7132
582.3280, 169.1982
582.8101, 168.5735
583.2922, 168.3579
583.7744, 168.5879
584.2565, 168.6786
584.7386, 168.4241
585.2207, 168.2033
585.7029, 168.5112
586.1850, 169.0614
586.6671, 169.0744
587.1492, 168.0394
587.6313, 166.8517
588.1135, 165.9820
588.5956, 165.4709
