##NAMES=Georgbarsanovite
##RRUFFID=R070101
##IDEAL CHEMISTRY=Na_12_(Mn^2+^,Sr)_3_Ca_6_Fe^2+^_3_Zr^4+^_3_Nb^5+^Si_25_O_76_Cl_2_&#183;H_2_O
##LOCALITY=Petrelius Mountain, Khibiny Massif, Kola Peninsula, Russia
##OWNER=RRUFF
##SOURCE=Michael Scott
##DESCRIPTION=Brown crystal fragment, co-type material
##STATUS=The identification of this mineral has been confirmed only by single crystal X-ray diffraction.
##URL=rruff.info/R070101
159.3973, 8483.748
159.8794, 8524.149
160.3615, 8545.918
160.8436, 8575.996
161.3257, 8653.705
161.8079, 8790.127
162.2900, 8915.555
162.7721, 8998.980
163.2542, 9073.855
163.7363, 9164.135
164.2184, 9276.258
164.7006, 9392.551
165.1827, 9487.042
165.6648, 9552.746
166.1469, 9625.569
166.6290, 9721.685
167.1111, 9821.863
167.5933, 9913.568
168.0754, 9993.990
168.5575, 10066.47
169.0396, 10136.77
169.5217, 10207.31
170.0038, 10267.72
170.4860, 10305.25
170.9681, 10340.12
171.4502, 10388.76
171.9323, 10454.77
172.4144, 10524.48
172.8965, 10576.07
173.3787, 10603.55
173.8608, 10628.35
174.3429, 10651.08
174.8250, 10673.19
175.3071, 10690.61
175.7892, 10703.87
176.2714, 10724.82
176.7535, 10778.59
177.2356, 10895.34
177.7177, 10972.71
178.1998, 10970.04
178.6819, 10955.11
179.1641, 10976.50
179.6462, 11044.47
180.1283, 11131.50
180.6104, 11196.38
181.0925, 11229.86
181.5746, 11259.69
182.0567, 11280.21
182.5389, 11302.37
183.0210, 11334.48
183.5031, 11377.82
183.9852, 11426.80
184.4673, 11473.12
184.9494, 11511.69
185.4316, 11558.71
185.9137, 11621.32
186.3958, 11685.61
186.8779, 11742.21
187.3600, 11789.68
187.8421, 11833.28
188.3243, 11880.69
188.8064, 11938.35
189.2885, 11983.72
189.7706, 12009.03
190.2527, 12030.62
190.7348, 12055.62
191.2170, 12086.48
191.6991, 12125.22
192.1812, 12175.88
192.6633, 12247.55
193.1454, 12304.82
193.6275, 12341.97
194.1097, 12372.32
194.5918, 12399.54
195.0739, 12426.24
195.5560, 12457.39
196.0381, 12498.61
196.5202, 12551.86
197.0024, 12609.24
197.4845, 12684.03
197.9666, 12751.42
198.4487, 12797.49
198.9308, 12821.95
199.4129, 12832.22
199.8951, 12833.42
200.3772, 12821.41
200.8593, 12823.68
201.3414, 12850.94
201.8235, 12879.66
202.3056, 12899.87
202.7878, 12911.08
203.2699, 12917.02
203.7520, 12920.71
204.2341, 12922.03
204.7162, 12922.00
205.1983, 12911.52
205.6805, 12908.44
206.1626, 12932.05
206.6447, 12971.72
207.1268, 12997.18
207.6089, 12983.04
208.0910, 12928.57
208.5732, 12883.89
209.0553, 12837.94
209.5374, 12810.96
210.0195, 12826.24
210.5016, 12867.01
210.9837, 12894.64
211.4659, 12881.02
211.9480, 12830.82
212.4301, 12805.83
212.9122, 12830.64
213.3943, 12851.72
213.8764, 12855.67
214.3586, 12846.31
214.8407, 12830.35
215.3228, 12810.97
215.8049, 12789.81
216.2870, 12776.41
216.7691, 12774.82
217.2513, 12776.25
217.7334, 12783.17
218.2155, 12791.44
218.6976, 12793.27
219.1797, 12784.39
219.6618, 12770.84
220.1440, 12772.13
220.6261, 12815.14
221.1082, 12841.58
221.5903, 12833.08
222.0724, 12811.29
222.5546, 12801.64
223.0367, 12814.21
223.5188, 12839.65
224.0009, 12858.18
224.4830, 12875.09
224.9651, 12875.88
225.4473, 12849.80
225.9294, 12813.51
226.4115, 12778.11
226.8936, 12748.01
227.3757, 12728.14
227.8578, 12729.38
228.3400, 12781.25
228.8221, 12795.18
229.3042, 12735.32
229.7863, 12665.65
230.2684, 12634.13
230.7505, 12648.19
231.2327, 12680.96
231.7148, 12699.46
232.1969, 12698.48
232.6790, 12699.00
233.1611, 12700.01
233.6432, 12702.99
234.1254, 12709.95
234.6075, 12720.20
235.0896, 12731.15
235.5717, 12740.97
236.0538, 12750.59
236.5359, 12751.93
237.0181, 12730.29
237.5002, 12715.38
237.9823, 12726.33
238.4644, 12755.46
238.9465, 12781.60
239.4286, 12788.21
239.9108, 12775.64
240.3929, 12760.05
240.8750, 12725.36
241.3571, 12704.52
241.8392, 12712.79
242.3213, 12740.18
242.8035, 12770.37
243.2856, 12794.10
243.7677, 12811.53
244.2498, 12823.53
244.7319, 12823.45
245.2140, 12825.37
245.6962, 12833.41
246.1783, 12843.59
246.6604, 12851.37
247.1425, 12854.60
247.6246, 12854.17
248.1067, 12851.78
248.5889, 12844.41
249.0710, 12840.23
249.5531, 12839.94
250.0352, 12842.67
250.5173, 12848.44
250.9994, 12857.05
251.4816, 12866.73
251.9637, 12871.99
252.4458, 12862.06
252.9279, 12875.42
253.4100, 12947.53
253.8921, 13015.45
254.3743, 13031.03
254.8564, 12994.56
255.3385, 12949.86
255.8206, 12950.45
256.3027, 13008.90
256.7849, 13046.23
257.2670, 13043.88
257.7491, 13035.28
258.2312, 13029.04
258.7133, 13027.15
259.1954, 13030.49
259.6776, 13040.19
260.1597, 13056.03
260.6418, 13074.78
261.1239, 13098.32
261.6060, 13122.53
262.0881, 13150.76
262.5703, 13178.04
263.0524, 13195.20
263.5345, 13193.36
264.0166, 13180.55
264.4987, 13184.31
264.9808, 13216.30
265.4630, 13242.01
265.9451, 13240.33
266.4272, 13230.82
266.9093, 13239.61
267.3914, 13280.71
267.8735, 13327.30
268.3557, 13329.00
268.8378, 13270.87
269.3199, 13231.69
269.8020, 13254.02
270.2841, 13294.61
270.7662, 13326.37
271.2484, 13344.42
271.7305, 13352.83
272.2126, 13349.88
272.6947, 13335.94
273.1768, 13334.46
273.6589, 13364.87
274.1411, 13393.31
274.6232, 13385.87
275.1053, 13345.64
275.5874, 13314.86
276.0695, 13332.93
276.5516, 13382.80
277.0338, 13401.37
277.5159, 13371.16
277.9980, 13332.85
278.4801, 13318.33
278.9622, 13320.96
279.4443, 13323.60
279.9265, 13320.86
280.4086, 13314.38
280.8907, 13307.35
281.3728, 13300.33
281.8549, 13288.38
282.3370, 13262.02
282.8192, 13229.51
283.3013, 13210.67
283.7834, 13216.42
284.2655, 13226.73
284.7476, 13224.49
285.2297, 13211.79
285.7119, 13201.73
286.1940, 13198.58
286.6761, 13203.15
287.1582, 13218.12
287.6403, 13250.35
288.1224, 13275.69
288.6046, 13282.48
289.0867, 13275.73
289.5688, 13264.14
290.0509, 13249.59
290.5330, 13233.27
291.0151, 13216.68
291.4973, 13199.86
291.9794, 13182.67
292.4615, 13161.10
292.9436, 13141.35
293.4257, 13133.02
293.9078, 13136.27
294.3900, 13136.41
294.8721, 13115.69
295.3542, 13070.56
295.8363, 13057.16
296.3184, 13104.23
296.8005, 13153.13
297.2827, 13175.32
297.7648, 13174.14
298.2469, 13164.03
298.7290, 13153.75
299.2111, 13142.49
299.6932, 13124.96
300.1754, 13091.65
300.6575, 13063.59
301.1396, 13039.51
301.6217, 13024.34
302.1038, 13027.70
302.5859, 13052.97
303.0681, 13088.54
303.5501, 13111.73
304.0323, 13114.88
304.5144, 13117.63
304.9965, 13123.04
305.4786, 13126.10
305.9607, 13122.46
306.4428, 13112.10
306.9250, 13099.18
307.4071, 13088.92
307.8892, 13082.67
308.3713, 13069.19
308.8534, 13033.09
309.3355, 13004.11
309.8177, 12999.58
310.2998, 13009.92
310.7819, 13012.56
311.2640, 12989.72
311.7461, 12950.19
312.2282, 12934.07
312.7104, 12963.16
313.1925, 12975.60
313.6746, 12944.50
314.1567, 12893.69
314.6388, 12847.31
315.1209, 12813.17
315.6031, 12786.59
316.0852, 12761.45
316.5673, 12737.31
317.0494, 12717.74
317.5315, 12710.22
318.0136, 12702.18
318.4958, 12680.82
318.9779, 12645.91
319.4600, 12614.63
319.9421, 12600.75
320.4242, 12600.19
320.9063, 12596.96
321.3885, 12586.63
321.8706, 12579.72
322.3527, 12595.04
322.8348, 12622.60
323.3169, 12631.28
323.7990, 12592.17
324.2812, 12541.86
324.7633, 12523.12
325.2454, 12535.89
325.7275, 12555.25
326.2096, 12570.84
326.6917, 12581.72
327.1739, 12586.02
327.6560, 12575.18
328.1381, 12570.84
328.6202, 12593.33
329.1023, 12628.25
329.5844, 12641.76
330.0666, 12619.90
330.5487, 12586.60
331.0308, 12581.22
331.5129, 12614.55
331.9950, 12645.36
332.4771, 12677.93
332.9593, 12702.62
333.4414, 12706.18
333.9235, 12690.38
334.4056, 12673.28
334.8877, 12672.42
335.3698, 12689.10
335.8520, 12690.31
336.3341, 12658.44
336.8162, 12632.20
337.2983, 12628.89
337.7804, 12638.75
338.2625, 12643.60
338.7447, 12633.89
339.2268, 12616.33
339.7089, 12610.89
340.1910, 12634.05
340.6731, 12640.25
341.1552, 12613.04
341.6374, 12578.17
342.1195, 12554.10
342.6016, 12544.63
343.0837, 12543.13
343.5658, 12543.02
344.0479, 12544.22
344.5301, 12547.59
345.0122, 12551.70
345.4943, 12559.96
345.9764, 12581.97
346.4585, 12609.24
346.9406, 12623.05
347.4228, 12613.17
347.9049, 12583.66
348.3870, 12534.57
348.8691, 12454.42
349.3512, 12399.63
349.8333, 12420.00
350.3155, 12467.70
350.7976, 12488.57
351.2797, 12470.01
351.7618, 12443.41
352.2439, 12435.27
352.7260, 12439.78
353.2082, 12430.39
353.6903, 12394.52
354.1724, 12356.36
354.6545, 12353.77
355.1366, 12383.71
355.6187, 12399.11
356.1009, 12383.44
356.5830, 12352.56
357.0651, 12318.00
357.5472, 12281.72
358.0293, 12248.53
358.5114, 12220.48
358.9936, 12198.36
359.4757, 12187.92
359.9578, 12202.33
360.4399, 12211.01
360.9220, 12197.77
361.4041, 12175.54
361.8863, 12166.74
362.3684, 12179.31
362.8505, 12197.96
363.3326, 12196.52
363.8147, 12166.09
364.2968, 12134.18
364.7790, 12092.09
365.2611, 12056.05
365.7432, 12040.17
366.2253, 12040.37
366.7074, 12039.28
367.1895, 12020.85
367.6717, 11988.47
368.1538, 11975.55
368.6359, 12000.31
369.1180, 12018.46
369.6001, 12011.35
370.0822, 11995.21
370.5644, 11991.65
371.0465, 12009.37
371.5286, 12029.25
372.0107, 12019.98
372.4928, 11978.42
372.9749, 11954.31
373.4571, 11969.88
373.9392, 11992.56
374.4213, 11998.43
374.9034, 11988.29
375.3855, 11970.84
375.8676, 11940.60
376.3498, 11909.02
376.8319, 11899.57
377.3140, 11915.29
377.7961, 11932.30
378.2782, 11935.49
378.7603, 11928.13
379.2425, 11923.40
379.7246, 11924.70
380.2067, 11924.28
380.6888, 11912.68
381.1709, 11897.36
381.6530, 11896.90
382.1352, 11918.36
382.6173, 11945.05
383.0994, 11951.95
383.5815, 11930.07
384.0636, 11911.87
384.5457, 11887.63
385.0279, 11875.06
385.5100, 11894.87
385.9921, 11938.44
386.4742, 11977.04
386.9563, 11990.27
387.4384, 11981.38
387.9206, 11969.98
388.4027, 11945.70
388.8848, 11933.65
389.3669, 11944.36
389.8490, 11964.22
390.3311, 11985.10
390.8133, 12003.44
391.2954, 12010.32
391.7775, 11987.07
392.2596, 11929.89
392.7417, 11894.53
393.2238, 11901.31
393.7060, 11910.44
394.1881, 11901.81
394.6702, 11878.52
395.1523, 11848.26
395.6344, 11805.06
396.1165, 11764.46
396.5987, 11759.64
397.0808, 11792.12
397.5629, 11806.20
398.0450, 11772.07
398.5271, 11711.50
399.0092, 11661.52
399.4914, 11622.58
399.9735, 11591.83
400.4556, 11569.39
400.9377, 11553.79
401.4198, 11546.09
401.9019, 11546.04
402.3841, 11544.78
402.8662, 11534.32
403.3483, 11514.43
403.8304, 11492.22
404.3125, 11460.47
404.7946, 11434.77
405.2768, 11424.67
405.7589, 11423.30
406.2410, 11419.59
406.7231, 11408.90
407.2052, 11394.17
407.6873, 11381.79
408.1695, 11377.42
408.6516, 11361.94
409.1337, 11324.60
409.6158, 11286.01
410.0979, 11249.52
410.5800, 11220.34
411.0622, 11211.40
411.5443, 11242.33
412.0264, 11295.23
412.5085, 11304.23
412.9906, 11252.75
413.4727, 11204.52
413.9549, 11192.85
414.4370, 11193.19
414.9191, 11180.25
415.4012, 11148.18
415.8833, 11116.13
416.3654, 11097.87
416.8476, 11089.57
417.3297, 11082.57
417.8118, 11076.59
418.2939, 11065.56
418.7760, 11038.58
419.2581, 10997.57
419.7403, 10976.08
420.2224, 11002.29
420.7045, 11021.98
421.1866, 10995.92
421.6687, 10941.88
422.1508, 10899.81
422.6330, 10886.30
423.1151, 10892.52
423.5972, 10902.41
424.0793, 10923.72
424.5614, 10932.10
425.0435, 10922.33
425.5257, 10905.71
426.0078, 10886.73
426.4899, 10866.76
426.9720, 10847.05
427.4541, 10828.61
427.9362, 10810.85
428.4184, 10785.19
428.9005, 10728.69
429.3826, 10716.97
429.8647, 10839.86
430.3468, 10975.63
430.8289, 11009.07
431.3111, 10920.20
431.7932, 10805.18
432.2753, 10724.97
432.7574, 10675.38
433.2395, 10648.42
433.7216, 10648.42
434.2038, 10649.96
434.6859, 10632.19
435.1680, 10599.67
435.6501, 10573.94
436.1322, 10555.90
436.6143, 10545.05
437.0965, 10545.67
437.5786, 10552.62
438.0607, 10556.43
438.5428, 10554.03
439.0249, 10547.05
439.5070, 10536.45
439.9892, 10517.35
440.4713, 10512.49
440.9534, 10538.60
441.4355, 10560.37
441.9176, 10559.59
442.3997, 10541.93
442.8819, 10518.72
443.3640, 10494.69
443.8461, 10475.74
444.3282, 10481.58
444.8103, 10526.03
445.2924, 10549.58
445.7746, 10522.43
446.2567, 10484.67
446.7388, 10460.10
447.2209, 10448.96
447.7030, 10439.76
448.1852, 10422.01
448.6673, 10403.09
449.1494, 10401.69
449.6315, 10419.60
450.1136, 10427.32
450.5957, 10402.79
451.0779, 10361.90
451.5600, 10346.88
452.0421, 10374.01
452.5242, 10388.10
453.0063, 10362.05
453.4884, 10320.38
453.9706, 10286.01
454.4527, 10264.45
454.9348, 10261.77
455.4169, 10289.15
455.8990, 10344.36
456.3811, 10356.88
456.8633, 10261.06
457.3454, 10197.84
457.8275, 10218.04
458.3096, 10267.46
458.7917, 10285.41
459.2738, 10256.03
459.7560, 10210.54
460.2381, 10179.82
460.7202, 10163.80
461.2023, 10169.44
461.6844, 10214.72
462.1665, 10252.37
462.6487, 10243.90
463.1308, 10211.05
463.6129, 10193.73
464.0950, 10207.14
464.5771, 10229.96
465.0592, 10253.38
465.5414, 10272.87
466.0235, 10270.57
466.5056, 10239.02
466.9877, 10198.20
467.4698, 10171.50
467.9519, 10161.62
468.4341, 10152.22
468.9162, 10143.89
469.3983, 10135.38
469.8804, 10125.63
470.3625, 10115.39
470.8446, 10106.05
471.3268, 10098.30
471.8089, 10091.70
472.2910, 10086.03
472.7731, 10082.58
473.2552, 10076.04
473.7373, 10058.37
474.2195, 10044.67
474.7016, 10046.19
475.1837, 10057.39
475.6658, 10063.46
476.1479, 10056.85
476.6300, 10041.78
477.1122, 10020.13
477.5943, 9992.223
478.0764, 9975.666
478.5585, 9981.075
479.0406, 9993.310
479.5227, 9988.257
480.0049, 9964.745
480.4870, 9951.684
480.9691, 9967.328
481.4512, 9985.130
481.9333, 9979.213
482.4154, 9956.024
482.8976, 9940.964
483.3797, 9948.694
483.8618, 9969.379
484.3439, 9977.443
484.8260, 9962.424
485.3081, 9953.810
485.7903, 9955.652
486.2724, 9960.287
486.7545, 9964.229
487.2366, 9966.923
487.7187, 9968.333
488.2008, 9967.606
488.6830, 9966.503
489.1651, 9970.693
489.6472, 9981.528
490.1293, 9987.411
490.6114, 9982.251
491.0935, 9972.496
491.5757, 9962.983
492.0578, 9953.303
492.5399, 9954.405
493.0220, 9981.411
493.5041, 10013.10
493.9862, 10028.13
494.4684, 10027.26
494.9505, 10021.77
495.4326, 10017.96
495.9147, 10012.99
496.3968, 9998.704
496.8789, 9958.999
497.3611, 9935.883
497.8432, 9936.752
498.3253, 9946.905
498.8074, 9959.308
499.2895, 9972.495
499.7716, 9986.353
500.2538, 10000.77
500.7359, 10015.85
501.2180, 10033.77
501.7001, 10056.92
502.1822, 10070.52
502.6643, 10066.60
503.1465, 10054.50
503.6286, 10039.78
504.1107, 10022.96
504.5928, 10017.19
505.0749, 10037.95
505.5570, 10064.60
506.0392, 10073.12
506.5213, 10066.44
507.0034, 10064.03
507.4855, 10076.19
507.9676, 10095.47
508.4497, 10105.68
508.9319, 10100.82
509.4140, 10098.07
509.8961, 10102.91
510.3782, 10104.79
510.8603, 10092.71
511.3424, 10072.59
511.8246, 10061.44
512.3067, 10071.39
512.7888, 10088.21
513.2709, 10075.74
513.7531, 10026.64
514.2352, 10003.42
514.7173, 10036.08
515.1994, 10079.77
515.6815, 10096.91
516.1636, 10090.39
516.6458, 10076.52
517.1279, 10051.66
517.6100, 10028.49
518.0921, 10017.09
518.5742, 10016.33
519.0563, 10024.56
519.5385, 10041.94
520.0206, 10060.79
520.5027, 10068.85
520.9848, 10062.12
521.4669, 10058.27
521.9490, 10056.93
522.4312, 10058.46
522.9133, 10066.03
523.3954, 10075.78
523.8775, 10082.84
524.3596, 10085.44
524.8417, 10081.37
525.3239, 10063.45
525.8060, 10032.32
526.2881, 10010.00
526.7702, 9999.979
527.2523, 9997.484
527.7344, 10001.53
528.2166, 10010.45
528.6987, 10020.80
529.1808, 10046.59
529.6629, 10055.53
530.1450, 10006.00
530.6271, 9936.582
531.1093, 9919.697
531.5914, 9968.141
532.0735, 10025.90
532.5556, 10032.42
533.0377, 9987.375
533.5198, 9965.593
534.0020, 9990.466
534.4841, 10009.52
534.9662, 10004.67
535.4483, 9994.218
535.9304, 9999.096
536.4125, 10022.43
536.8947, 10046.31
537.3768, 10056.15
537.8589, 10054.88
538.3410, 10049.63
538.8231, 10039.97
539.3052, 10032.99
539.7874, 10036.50
540.2695, 10042.47
540.7516, 10030.84
541.2337, 9996.049
541.7158, 9961.105
542.1979, 9917.821
542.6801, 9885.764
543.1622, 9892.814
543.6443, 9928.854
544.1264, 9955.092
544.6085, 9946.550
545.0906, 9916.215
545.5728, 9899.299
546.0549, 9898.025
546.5370, 9903.527
547.0191, 9918.466
547.5012, 9936.929
547.9833, 9955.370
548.4655, 9974.331
548.9476, 9996.127
549.4297, 10022.81
549.9117, 10051.46
550.3939, 10083.31
550.8760, 10115.20
551.3581, 10131.06
551.8402, 10123.46
552.3223, 10119.46
552.8044, 10155.33
553.2866, 10239.18
553.7687, 10291.76
554.2508, 10288.62
554.7329, 10287.64
555.2150, 10302.75
555.6971, 10331.02
556.1793, 10371.31
556.6614, 10421.91
557.1435, 10472.35
557.6256, 10511.47
558.1077, 10540.44
558.5898, 10568.13
559.0720, 10593.15
559.5541, 10622.48
560.0362, 10664.42
560.5183, 10710.37
561.0004, 10745.58
561.4825, 10769.70
561.9647, 10783.54
562.4468, 10779.02
562.9289, 10770.11
563.4110, 10766.56
563.8931, 10770.87
564.3752, 10787.74
564.8574, 10820.79
565.3395, 10863.12
565.8216, 10896.72
566.3037, 10918.75
566.7858, 10939.98
567.2679, 10972.08
567.7501, 10992.71
568.2322, 10982.22
568.7143, 10951.76
569.1964, 10932.17
569.6785, 10949.13
570.1606, 10954.61
570.6428, 10886.21
571.1249, 10768.43
571.6070, 10678.66
572.0891, 10635.57
572.5712, 10597.35
573.0533, 10522.05
573.5355, 10411.80
574.0176, 10325.26
574.4997, 10288.85
574.9818, 10240.64
575.4639, 10155.09
575.9460, 10063.13
576.4282, 9997.789
576.9103, 9960.017
577.3924, 9922.440
577.8745, 9858.284
578.3566, 9781.378
578.8387, 9731.688
579.3209, 9711.170
579.8030, 9697.336
580.2851, 9684.329
580.7672, 9672.384
581.2493, 9664.325
581.7314, 9661.045
582.2136, 9647.899
582.6957, 9613.654
583.1778, 9578.198
583.6599, 9551.844
584.1420, 9532.852
584.6241, 9518.906
585.1063, 9508.734
585.5884, 9496.111
586.0705, 9467.159
586.5526, 9420.112
587.0347, 9406.674
587.5168, 9453.489
587.9990, 9485.411
588.4811, 9449.570
588.9632, 9389.511
589.4453, 9358.188
589.9274, 9365.701
590.4095, 9374.939
590.8917, 9372.729
591.3738, 9360.625
591.8559, 9332.714
592.3380, 9294.271
592.8201, 9268.110
593.3022, 9266.459
593.7844, 9281.956
594.2665, 9299.979
594.7486, 9326.313
595.2307, 9340.688
595.7128, 9343.552
596.1949, 9333.446
596.6771, 9288.420
597.1592, 9234.694
597.6413, 9224.063
598.1234, 9282.621
598.6055, 9347.270
599.0876, 9358.831
599.5698, 9335.885
600.0519, 9322.634
600.5340, 9324.815
601.0161, 9325.748
601.4982, 9311.593
601.9803, 9288.967
602.4625, 9284.595
602.9446, 9314.561
603.4267, 9340.210
603.9088, 9362.820
604.3909, 9379.483
604.8730, 9383.433
605.3552, 9379.844
605.8373, 9382.491
606.3194, 9400.325
606.8015, 9421.974
607.2836, 9430.961
607.7657, 9428.977
608.2479, 9425.033
608.7300, 9418.633
609.2121, 9420.580
609.6942, 9444.887
610.1763, 9487.155
610.6584, 9509.325
611.1406, 9492.423
611.6227, 9483.302
612.1048, 9490.691
612.5869, 9508.662
613.0690, 9539.746
613.5511, 9577.889
614.0333, 9604.108
614.5154, 9604.195
614.9975, 9588.168
615.4796, 9576.061
615.9617, 9568.036
616.4438, 9560.146
616.9260, 9552.339
617.4081, 9543.086
617.8902, 9532.135
618.3723, 9518.818
618.8544, 9499.279
619.3365, 9462.827
619.8187, 9432.843
620.3008, 9424.901
620.7829, 9422.804
621.2650, 9410.861
621.7471, 9385.815
622.2292, 9347.823
622.7114, 9291.263
623.1935, 9229.269
623.6756, 9207.703
624.1577, 9234.381
624.6398, 9252.380
625.1219, 9247.896
625.6041, 9231.452
626.0862, 9209.819
626.5683, 9184.071
627.0504, 9159.348
627.5325, 9130.947
628.0146, 9110.033
628.4968, 9104.753
628.9789, 9108.287
629.4610, 9119.527
629.9431, 9133.302
630.4252, 9127.331
630.9073, 9077.894
631.3895, 8998.062
631.8716, 8943.358
632.3537, 8918.001
632.8358, 8900.107
633.3179, 8884.854
633.8000, 8875.331
634.2822, 8882.032
634.7643, 8900.146
635.2464, 8899.296
635.7285, 8856.263
636.2106, 8812.305
636.6927, 8789.819
637.1749, 8779.135
637.6570, 8763.665
638.1391, 8742.288
638.6212, 8731.950
639.1033, 8752.196
639.5854, 8790.847
640.0676, 8787.915
640.5497, 8726.837
641.0318, 8688.370
641.5139, 8707.486
641.9960, 8736.782
642.4781, 8725.680
642.9603, 8684.412
643.4424, 8667.651
643.9245, 8714.696
644.4066, 8756.596
644.8887, 8752.193
645.3708, 8724.482
645.8530, 8703.332
646.3351, 8694.448
646.8172, 8689.997
647.2993, 8684.353
647.7814, 8677.121
648.2635, 8666.642
648.7457, 8652.602
649.2278, 8635.754
649.7099, 8608.879
650.1920, 8588.118
650.6741, 8592.143
651.1563, 8614.483
651.6384, 8629.931
652.1205, 8629.860
652.6026, 8627.414
653.0847, 8633.089
653.5668, 8636.952
654.0490, 8620.291
654.5311, 8586.057
655.0132, 8560.481
655.4953, 8564.014
