##NAMES=Georgechaoite
##RRUFFID=R100082
##IDEAL CHEMISTRY=KNaZr^4+^Si_3_O_9_&#183;2H_2_O
##LOCALITY=Pocos de Caldas, Minas Gerais, Brazil
##OWNER=RRUFF
##SOURCE=Luiz Menezes 
##DESCRIPTION=Blocky yellowish-orange crystals associated with colorless analcime
##STATUS=The identification of this mineral has been confirmed by single-crystal X-ray diffraction.
##URL=rruff.info/R100082
90.49219, 30.39898
90.97430, 31.01315
91.45642, 31.23257
91.93854, 30.65637
92.42065, 29.80227
92.90277, 29.54269
93.38489, 30.04204
93.86700, 30.62559
94.34912, 30.29361
94.83124, 29.20493
95.31335, 28.28155
95.79547, 28.19702
96.27759, 28.77866
96.75970, 29.31779
97.24182, 29.71191
97.72394, 30.02256
98.20605, 30.53988
98.68817, 31.33278
99.17029, 31.77040
99.65240, 31.01865
100.1345, 28.94946
100.6166, 27.61458
101.0988, 27.64160
101.5809, 28.82651
102.0630, 29.37863
102.5451, 29.10410
103.0272, 28.55070
103.5093, 28.30996
103.9915, 28.45754
104.4736, 28.73677
104.9557, 29.15526
105.4378, 29.79685
105.9199, 30.08354
106.4020, 29.83423
106.8842, 29.32062
107.3663, 29.04676
107.8484, 29.50109
108.3305, 29.62859
108.8126, 28.97242
109.2947, 26.43782
109.7769, 24.94076
110.2590, 24.90933
110.7411, 25.99109
111.2232, 27.09040
111.7053, 28.68420
112.1874, 29.94640
112.6696, 30.49132
113.1517, 29.67742
113.6338, 28.79653
114.1159, 27.87699
114.5980, 26.96545
115.0801, 26.35966
115.5623, 26.30611
116.0444, 26.50745
116.5265, 26.73277
117.0086, 26.80565
117.4907, 26.99729
117.9728, 27.57437
118.4550, 28.55927
118.9371, 29.23849
119.4192, 29.30477
119.9013, 28.88159
120.3834, 28.12294
120.8655, 26.14548
121.3477, 24.45113
121.8298, 24.50455
122.3119, 26.75386
122.7940, 28.84019
123.2761, 28.62761
123.7582, 26.95687
124.2404, 25.70032
124.7225, 26.12155
125.2046, 27.42356
125.6867, 28.64092
126.1688, 29.62779
126.6509, 30.53504
127.1331, 31.55531
127.6152, 32.65674
128.0973, 33.68099
128.5794, 34.11172
129.0615, 34.37284
129.5436, 35.54114
130.0258, 38.09928
130.5079, 41.40027
130.9900, 44.26181
131.4721, 46.65991
131.9542, 49.32296
132.4363, 52.92843
132.9185, 57.39238
133.4006, 62.11161
133.8827, 66.82542
134.3648, 71.65549
134.8469, 77.33655
135.3290, 83.87208
135.8112, 91.27840
136.2933, 99.35713
136.7754, 108.1064
137.2575, 118.0344
137.7396, 129.3652
138.2217, 141.9029
138.7039, 156.0239
139.1860, 172.1385
139.6681, 189.2322
140.1502, 206.0801
140.6323, 222.3418
141.1144, 238.9412
141.5966, 256.5110
142.0787, 275.3853
142.5608, 293.3657
143.0429, 310.4790
143.5250, 326.6530
144.0071, 341.4837
144.4893, 354.3200
144.9714, 366.6613
145.4535, 378.9474
145.9356, 391.1456
146.4177, 403.5515
146.8998, 415.7630
147.3820, 428.1553
147.8641, 442.8936
148.3462, 460.6063
148.8283, 479.8822
149.3104, 500.2007
149.7925, 521.3106
150.2747, 543.6765
150.7568, 567.4693
151.2389, 592.5561
151.7210, 617.3932
152.2031, 641.6287
152.6852, 665.5734
153.1674, 689.6923
153.6495, 715.9265
154.1316, 740.0936
154.6137, 761.4033
155.0958, 779.8191
155.5779, 796.8232
156.0601, 812.4610
156.5422, 826.8580
157.0243, 839.9297
157.5064, 850.3827
157.9885, 860.7074
158.4706, 871.7193
158.9528, 883.5750
159.4349, 895.0908
159.9170, 905.3278
160.3991, 915.2523
160.8812, 925.9811
161.3633, 939.7252
161.8455, 952.8282
162.3276, 962.8803
162.8097, 968.5570
163.2918, 976.0811
163.7739, 988.2806
164.2560, 1002.715
164.7382, 1010.973
165.2203, 1018.502
165.7024, 1026.274
166.1845, 1033.484
166.6666, 1039.950
167.1487, 1046.275
167.6309, 1052.985
168.1130, 1059.889
168.5951, 1066.453
169.0772, 1072.750
169.5593, 1078.520
170.0414, 1083.514
170.5236, 1087.637
171.0057, 1091.170
171.4878, 1094.153
171.9699, 1096.717
172.4520, 1099.199
172.9341, 1102.743
173.4163, 1105.999
173.8984, 1107.113
174.3805, 1104.708
174.8626, 1101.682
175.3447, 1100.662
175.8268, 1101.376
176.3090, 1102.658
176.7911, 1104.324
177.2732, 1105.913
177.7553, 1106.597
178.2374, 1105.823
178.7195, 1104.430
179.2017, 1103.174
179.6838, 1102.082
180.1659, 1101.613
180.6480, 1102.754
181.1301, 1104.790
181.6122, 1106.026
182.0944, 1105.523
182.5765, 1104.291
183.0586, 1103.766
183.5407, 1103.952
184.0228, 1105.083
184.5049, 1108.193
184.9871, 1112.656
185.4692, 1116.100
185.9513, 1117.730
186.4334, 1117.913
186.9155, 1116.950
187.3976, 1114.698
187.8798, 1112.981
188.3619, 1114.385
188.8440, 1118.398
189.3261, 1121.609
189.8082, 1122.666
190.2903, 1122.065
190.7725, 1121.452
191.2546, 1120.780
191.7367, 1120.306
192.2188, 1120.545
192.7009, 1121.445
193.1830, 1121.995
193.6652, 1121.679
194.1473, 1120.640
194.6294, 1119.731
195.1115, 1118.932
195.5936, 1118.320
196.0757, 1117.988
196.5579, 1117.936
197.0400, 1118.144
197.5221, 1118.779
198.0042, 1119.790
198.4863, 1120.202
198.9684, 1119.741
199.4506, 1119.303
199.9327, 1120.699
200.4148, 1124.231
200.8969, 1126.885
201.3790, 1126.753
201.8611, 1123.669
202.3433, 1122.790
202.8254, 1124.674
203.3075, 1127.835
203.7896, 1130.064
204.2717, 1131.470
204.7538, 1131.425
205.2360, 1128.904
205.7181, 1123.404
206.2002, 1120.063
206.6823, 1119.277
207.1644, 1120.150
207.6465, 1121.287
208.1287, 1122.871
208.6108, 1124.077
209.0929, 1124.433
209.5750, 1123.772
210.0571, 1123.256
210.5392, 1122.850
211.0214, 1122.670
211.5035, 1123.045
211.9856, 1124.199
212.4677, 1125.341
212.9498, 1126.238
213.4319, 1127.014
213.9141, 1126.878
214.3962, 1125.272
214.8783, 1123.094
215.3604, 1122.656
215.8425, 1124.716
216.3246, 1126.745
216.8067, 1127.394
217.2889, 1125.963
217.7710, 1125.528
218.2531, 1126.494
218.7352, 1128.257
219.2173, 1129.159
219.6994, 1128.198
220.1816, 1128.264
220.6637, 1131.358
221.1458, 1139.840
221.6279, 1144.372
222.1100, 1143.570
222.5921, 1139.300
223.0743, 1136.378
223.5564, 1135.426
224.0385, 1134.825
224.5206, 1133.771
225.0027, 1131.774
225.4848, 1130.702
225.9670, 1130.840
226.4491, 1131.861
226.9312, 1132.928
227.4133, 1133.985
227.8954, 1135.163
228.3775, 1136.493
228.8597, 1138.024
229.3418, 1139.593
229.8239, 1141.289
230.3060, 1142.951
230.7881, 1144.099
231.2702, 1144.518
231.7524, 1144.690
232.2345, 1144.711
232.7166, 1144.123
233.1987, 1144.513
233.6808, 1146.712
234.1629, 1149.674
234.6451, 1150.394
235.1272, 1147.244
235.6093, 1144.326
236.0914, 1143.793
236.5735, 1147.847
237.0556, 1149.183
237.5378, 1146.361
238.0199, 1141.295
238.5020, 1138.904
238.9841, 1140.519
239.4662, 1142.843
239.9483, 1144.565
240.4305, 1145.595
240.9126, 1146.151
241.3947, 1145.975
241.8768, 1145.382
242.3589, 1145.171
242.8410, 1145.515
243.3232, 1145.918
243.8053, 1146.118
244.2874, 1145.847
244.7695, 1146.038
245.2516, 1147.085
245.7337, 1148.437
246.2159, 1148.812
246.6980, 1147.735
247.1801, 1146.446
247.6622, 1145.438
248.1443, 1144.886
248.6264, 1144.105
249.1086, 1142.801
249.5907, 1141.420
250.0728, 1140.941
250.5549, 1141.863
251.0370, 1142.843
251.5191, 1143.355
252.0013, 1143.219
252.4834, 1143.181
252.9655, 1143.455
253.4476, 1143.670
253.9297, 1143.020
254.4118, 1140.909
254.8940, 1139.024
255.3761, 1137.988
255.8582, 1137.973
256.3403, 1138.201
256.8224, 1139.068
257.3046, 1139.889
257.7867, 1139.236
258.2688, 1136.030
258.7509, 1133.674
259.2330, 1133.618
259.7151, 1136.421
260.1973, 1138.370
260.6794, 1139.488
261.1615, 1139.730
261.6436, 1138.697
262.1257, 1135.560
262.6078, 1133.173
263.0900, 1132.721
263.5721, 1134.491
264.0542, 1135.110
264.5363, 1134.025
265.0184, 1132.426
265.5005, 1131.907
265.9827, 1132.870
266.4648, 1133.680
266.9469, 1133.614
267.4290, 1132.616
267.9111, 1133.165
268.3932, 1136.164
268.8754, 1139.285
269.3575, 1139.451
269.8396, 1135.630
270.3217, 1132.708
270.8038, 1132.183
271.2859, 1133.900
271.7681, 1134.769
272.2502, 1134.545
272.7323, 1133.998
273.2144, 1134.062
273.6965, 1134.960
274.1786, 1135.230
274.6608, 1134.307
275.1429, 1132.433
275.6250, 1131.429
276.1071, 1131.535
276.5892, 1131.842
277.0714, 1131.437
277.5535, 1130.215
278.0356, 1129.246
278.5177, 1128.654
278.9998, 1128.491
279.4819, 1129.204
279.9641, 1131.054
280.4462, 1132.773
280.9283, 1133.308
281.4104, 1132.633
281.8925, 1131.663
282.3746, 1130.417
282.8568, 1129.056
283.3389, 1127.897
283.8210, 1126.882
284.3031, 1126.444
284.7852, 1127.119
285.2673, 1128.821
285.7495, 1130.326
286.2316, 1131.408
286.7137, 1132.280
287.1958, 1133.461
287.6779, 1134.950
288.1600, 1136.318
288.6422, 1137.176
289.1243, 1137.609
289.6064, 1138.334
290.0885, 1139.566
290.5706, 1140.740
291.0527, 1140.416
291.5349, 1138.754
292.0170, 1137.953
292.4991, 1140.433
292.9812, 1144.968
293.4633, 1146.606
293.9454, 1144.690
294.4276, 1141.697
294.9097, 1140.885
295.3918, 1141.924
295.8739, 1143.112
296.3560, 1143.454
296.8381, 1143.362
297.3203, 1143.673
297.8024, 1144.368
298.2845, 1145.678
298.7666, 1149.042
299.2487, 1153.436
299.7308, 1155.821
300.2130, 1153.153
300.6951, 1148.374
301.1772, 1146.710
301.6593, 1148.160
302.1414, 1149.670
302.6235, 1147.210
303.1057, 1142.944
303.5878, 1141.398
304.0699, 1146.086
304.5520, 1152.629
305.0341, 1156.050
305.5162, 1156.578
305.9984, 1156.193
306.4805, 1156.172
306.9626, 1156.138
307.4447, 1155.412
307.9268, 1152.918
308.4089, 1150.830
308.8911, 1151.663
309.3732, 1154.765
309.8553, 1157.483
310.3374, 1157.725
310.8195, 1157.048
311.3016, 1157.059
311.7838, 1158.399
312.2659, 1159.824
312.7480, 1160.471
313.2301, 1160.577
313.7122, 1160.732
314.1943, 1161.522
314.6765, 1162.285
315.1586, 1162.516
315.6407, 1162.043
316.1228, 1161.436
316.6049, 1160.541
317.0870, 1159.746
317.5692, 1159.694
318.0513, 1161.209
318.5334, 1163.003
319.0155, 1164.568
319.4976, 1165.899
319.9797, 1166.682
320.4619, 1166.096
320.9440, 1165.129
321.4261, 1164.898
321.9082, 1166.556
322.3903, 1168.105
322.8724, 1168.932
323.3546, 1169.010
323.8367, 1168.867
324.3188, 1168.043
324.8009, 1167.368
325.2830, 1167.489
325.7651, 1169.495
326.2473, 1171.225
326.7294, 1172.248
327.2115, 1172.675
327.6936, 1173.320
328.1757, 1174.330
328.6578, 1175.507
329.1400, 1176.775
329.6221, 1178.905
330.1042, 1180.050
330.5863, 1179.863
331.0684, 1178.652
331.5505, 1177.282
332.0327, 1174.965
332.5148, 1173.361
332.9969, 1173.322
333.4790, 1175.767
333.9611, 1177.197
334.4432, 1177.498
334.9254, 1176.826
335.4075, 1175.363
335.8896, 1172.741
336.3717, 1170.021
336.8538, 1167.273
337.3359, 1164.331
337.8180, 1163.399
338.3001, 1165.560
338.7823, 1168.102
339.2644, 1167.465
339.7465, 1162.711
340.2286, 1158.976
340.7107, 1157.933
341.1928, 1159.036
341.6750, 1158.393
342.1571, 1155.617
342.6392, 1152.478
343.1213, 1150.474
343.6034, 1149.631
344.0855, 1148.736
344.5677, 1147.732
345.0498, 1146.403
345.5319, 1143.767
346.0140, 1139.752
346.4961, 1136.426
346.9782, 1135.791
347.4604, 1137.208
347.9425, 1137.478
348.4246, 1136.140
348.9067, 1134.150
349.3888, 1132.709
349.8709, 1131.789
350.3531, 1131.186
350.8352, 1130.934
351.3173, 1130.912
351.7994, 1130.922
352.2815, 1130.969
352.7636, 1130.925
353.2458, 1130.785
353.7279, 1130.453
354.2100, 1129.700
354.6921, 1127.447
355.1742, 1125.389
355.6563, 1125.876
356.1385, 1128.654
356.6206, 1131.143
357.1027, 1131.027
357.5848, 1129.820
358.0669, 1129.392
358.5490, 1130.888
359.0312, 1132.279
359.5133, 1132.048
359.9954, 1130.608
360.4775, 1129.264
360.9596, 1128.629
361.4417, 1128.300
361.9239, 1128.103
362.4060, 1128.203
362.8881, 1127.849
363.3702, 1126.452
363.8523, 1124.478
364.3344, 1122.644
364.8166, 1120.798
365.2987, 1119.434
365.7808, 1119.006
366.2629, 1119.677
366.7450, 1119.976
367.2271, 1119.394
367.7093, 1118.501
368.1914, 1117.800
368.6735, 1118.250
369.1556, 1117.893
369.6377, 1116.194
370.1198, 1113.304
370.6020, 1110.526
371.0841, 1107.029
371.5662, 1104.407
372.0483, 1103.750
372.5304, 1107.152
373.0125, 1108.451
373.4947, 1106.494
373.9768, 1102.716
374.4589, 1100.607
374.9410, 1101.102
375.4231, 1101.307
375.9052, 1099.599
376.3874, 1095.404
376.8695, 1094.226
377.3516, 1097.134
377.8337, 1101.251
378.3158, 1102.886
378.7979, 1101.719
379.2801, 1100.536
379.7622, 1100.265
380.2443, 1100.553
380.7264, 1099.407
381.2085, 1096.581
381.6906, 1094.075
382.1728, 1094.083
382.6549, 1096.152
383.1370, 1097.391
383.6191, 1097.183
384.1012, 1096.168
384.5833, 1095.059
385.0655, 1093.939
385.5476, 1093.406
386.0297, 1094.570
386.5118, 1096.367
386.9939, 1096.493
387.4760, 1094.509
387.9582, 1092.656
388.4403, 1093.870
388.9224, 1096.753
389.4045, 1098.390
389.8866, 1095.875
390.3687, 1092.792
390.8509, 1092.475
391.3330, 1094.729
391.8151, 1097.161
392.2972, 1098.852
392.7793, 1099.790
393.2614, 1099.945
393.7436, 1099.125
394.2257, 1097.779
394.7078, 1095.186
395.1899, 1092.125
395.6720, 1090.644
396.1541, 1093.123
396.6363, 1095.965
397.1184, 1097.441
397.6005, 1097.003
398.0826, 1096.386
398.5647, 1095.559
399.0468, 1094.797
399.5290, 1094.432
400.0111, 1094.734
400.4932, 1095.175
400.9753, 1095.627
401.4574, 1096.092
401.9395, 1096.908
402.4217, 1098.604
402.9038, 1100.085
403.3859, 1100.456
403.8680, 1098.844
404.3501, 1098.274
404.8322, 1099.468
405.3144, 1101.573
405.7965, 1102.164
406.2786, 1100.812
406.7607, 1099.378
407.2428, 1098.745
407.7249, 1098.939
408.2071, 1098.831
408.6892, 1098.257
409.1713, 1097.838
409.6534, 1098.690
410.1355, 1100.724
410.6176, 1102.133
411.0998, 1102.178
411.5819, 1101.408
412.0640, 1101.174
412.5461, 1101.455
413.0282, 1101.667
413.5103, 1101.456
413.9925, 1100.844
414.4746, 1099.765
414.9567, 1098.047
415.4388, 1096.331
415.9209, 1094.883
416.4030, 1093.914
416.8852, 1093.912
417.3673, 1096.452
417.8494, 1099.189
418.3315, 1100.095
418.8136, 1099.031
419.2957, 1097.353
419.7779, 1094.941
420.2600, 1092.666
420.7421, 1091.446
421.2242, 1092.574
421.7063, 1093.711
422.1884, 1094.081
422.6706, 1093.853
423.1527, 1093.671
423.6348, 1093.635
424.1169, 1093.734
424.5990, 1094.060
425.0811, 1095.024
425.5633, 1095.295
426.0454, 1094.334
426.5275, 1092.884
427.0096, 1091.797
427.4917, 1090.579
427.9738, 1090.553
428.4560, 1092.486
428.9381, 1096.255
429.4202, 1098.661
429.9023, 1099.301
430.3844, 1099.257
430.8665, 1099.199
431.3487, 1099.103
431.8308, 1099.081
432.3129, 1099.131
432.7950, 1099.245
433.2771, 1099.403
433.7592, 1099.591
434.2414, 1099.857
434.7235, 1100.100
435.2056, 1100.412
435.6877, 1101.245
436.1698, 1102.613
436.6519, 1104.189
437.1341, 1106.083
437.6162, 1107.928
438.0983, 1108.678
438.5804, 1107.483
439.0625, 1105.905
439.5446, 1105.986
440.0268, 1107.309
440.5089, 1108.339
440.9910, 1107.569
441.4731, 1106.487
441.9552, 1106.637
442.4373, 1108.474
442.9195, 1110.016
443.4016, 1110.092
443.8837, 1109.365
444.3658, 1108.640
444.8479, 1108.219
445.3300, 1107.776
445.8122, 1106.660
446.2943, 1105.109
446.7764, 1105.108
447.2585, 1109.301
447.7406, 1113.297
448.2227, 1114.804
448.7049, 1112.260
449.1870, 1110.129
449.6691, 1108.079
450.1512, 1106.620
450.6333, 1106.776
451.1154, 1109.458
451.5976, 1111.797
452.0797, 1112.973
452.5618, 1113.064
453.0439, 1113.109
453.5260, 1113.076
454.0081, 1113.094
454.4903, 1113.335
454.9724, 1113.791
455.4545, 1114.047
455.9366, 1113.988
456.4187, 1113.841
456.9008, 1114.002
457.3830, 1114.443
457.8651, 1114.931
458.3472, 1115.755
458.8293, 1116.439
459.3114, 1116.030
459.7935, 1114.534
460.2757, 1112.580
460.7578, 1109.796
461.2399, 1107.147
461.7220, 1106.117
462.2041, 1107.856
462.6862, 1109.962
463.1684, 1110.947
463.6505, 1111.114
464.1326, 1111.149
464.6147, 1110.979
465.0968, 1111.017
465.5789, 1111.476
466.0611, 1112.381
466.5432, 1113.538
467.0253, 1115.510
467.5074, 1117.373
467.9895, 1118.339
468.4716, 1117.328
468.9538, 1116.756
469.4359, 1116.925
469.9180, 1117.639
470.4001, 1118.310
470.8822, 1119.014
471.3643, 1119.567
471.8465, 1119.848
472.3286, 1119.828
472.8107, 1120.013
473.2928, 1120.445
473.7749, 1121.026
474.2570, 1121.552
474.7392, 1122.034
475.2213, 1123.043
475.7034, 1125.010
476.1855, 1127.206
476.6676, 1127.737
477.1497, 1126.798
477.6319, 1126.272
478.1140, 1128.090
478.5961, 1130.783
479.0782, 1131.706
479.5603, 1130.580
480.0424, 1129.028
480.5246, 1128.437
481.0067, 1128.217
481.4888, 1127.518
481.9709, 1125.619
482.4530, 1123.677
482.9352, 1122.388
483.4173, 1121.555
483.8994, 1120.560
484.3815, 1118.967
484.8636, 1117.341
485.3457, 1115.878
485.8279, 1114.499
486.3100, 1113.614
486.7921, 1113.924
487.2742, 1114.381
487.7563, 1114.020
488.2384, 1112.127
488.7206, 1110.652
489.2027, 1109.888
489.6848, 1109.690
490.1669, 1109.670
490.6490, 1110.026
491.1311, 1109.982
491.6133, 1108.949
492.0954, 1106.952
492.5775, 1105.355
493.0596, 1104.056
493.5417, 1103.680
494.0238, 1105.814
494.5060, 1109.766
494.9881, 1112.040
495.4702, 1111.019
495.9523, 1109.083
496.4344, 1109.587
496.9165, 1112.116
497.3987, 1115.105
497.8808, 1117.942
498.3629, 1120.689
498.8450, 1123.432
499.3271, 1126.198
499.8092, 1128.805
500.2914, 1130.821
500.7735, 1132.792
501.2556, 1135.302
501.7377, 1139.097
502.2198, 1142.654
502.7019, 1145.029
503.1841, 1146.896
503.6662, 1150.103
504.1483, 1155.304
504.6304, 1161.434
505.1125, 1168.622
505.5946, 1177.092
506.0768, 1183.825
506.5589, 1187.985
507.0410, 1191.607
507.5231, 1196.119
508.0052, 1201.440
508.4873, 1208.418
508.9695, 1217.651
509.4516, 1227.605
509.9337, 1234.763
510.4158, 1239.310
510.8979, 1244.750
511.3800, 1253.188
511.8622, 1263.428
512.3443, 1272.772
512.8264, 1281.201
513.3085, 1289.965
513.7906, 1300.033
514.2728, 1310.962
514.7549, 1322.317
515.2370, 1334.219
515.7191, 1345.898
516.2012, 1356.763
516.6833, 1367.086
517.1655, 1377.466
517.6476, 1388.850
518.1297, 1399.581
518.6118, 1409.098
519.0939, 1417.436
519.5760, 1425.080
520.0582, 1433.957
520.5403, 1440.434
521.0224, 1442.838
521.5045, 1440.619
521.9866, 1435.972
522.4688, 1428.780
522.9509, 1419.257
523.4330, 1407.330
523.9151, 1392.760
524.3972, 1376.843
524.8793, 1359.492
525.3615, 1341.463
525.8436, 1324.460
526.3257, 1308.408
526.8078, 1292.913
527.2899, 1277.542
527.7720, 1262.393
528.2542, 1247.802
528.7363, 1233.837
529.2184, 1220.635
529.7005, 1208.131
530.1826, 1196.704
530.6647, 1186.940
531.1469, 1179.333
531.6290, 1173.032
532.1111, 1168.579
532.5932, 1165.089
533.0753, 1160.776
533.5574, 1154.002
534.0396, 1147.342
534.5217, 1141.402
535.0038, 1136.257
535.4859, 1132.227
535.9680, 1130.084
536.4501, 1128.304
536.9323, 1125.986
537.4144, 1122.758
537.8965, 1119.987
538.3786, 1117.813
538.8607, 1115.957
539.3428, 1114.089
539.8250, 1112.201
540.3071, 1110.289
540.7892, 1108.454
541.2713, 1106.553
541.7534, 1104.154
542.2355, 1101.314
542.7177, 1098.609
543.1998, 1096.186
543.6819, 1094.181
544.1640, 1092.996
544.6461, 1092.693
545.1282, 1092.387
545.6104, 1091.266
546.0925, 1089.883
546.5746, 1088.858
547.0567, 1088.472
547.5388, 1088.297
548.0209, 1088.835
548.5031, 1089.450
548.9852, 1088.764
549.4673, 1084.474
549.9494, 1081.072
550.4315, 1079.835
550.9136, 1080.756
551.3958, 1081.820
551.8779, 1083.238
552.3600, 1084.452
552.8421, 1085.125
553.3242, 1085.240
553.8063, 1084.970
554.2885, 1084.268
554.7706, 1083.337
555.2527, 1082.183
555.7348, 1080.925
556.2169, 1080.406
556.6990, 1081.290
557.1812, 1082.503
557.6633, 1082.284
558.1454, 1080.991
558.6275, 1079.973
559.1096, 1080.677
559.5917, 1081.516
560.0739, 1080.794
560.5560, 1078.366
561.0381, 1076.747
561.5202, 1077.384
562.0023, 1078.983
562.4844, 1080.627
562.9666, 1082.629
563.4487, 1083.974
563.9308, 1084.167
564.4129, 1083.871
564.8950, 1084.140
565.3771, 1085.329
565.8593, 1086.227
566.3414, 1086.423
566.8235, 1086.122
567.3056, 1086.465
567.7877, 1087.581
568.2698, 1088.319
568.7520, 1087.620
569.2341, 1085.935
569.7162, 1085.118
570.1983, 1085.285
570.6804, 1085.517
571.1625, 1084.731
571.6447, 1083.513
572.1268, 1082.963
572.6089, 1083.907
573.0910, 1084.358
573.5731, 1082.142
574.0552, 1078.714
574.5374, 1076.565
575.0195, 1078.017
575.5016, 1079.388
575.9837, 1079.404
576.4658, 1078.141
576.9479, 1076.876
577.4301, 1074.879
577.9122, 1073.828
578.3943, 1074.879
578.8764, 1078.751
579.3585, 1080.439
579.8406, 1079.304
580.3228, 1077.400
580.8049, 1077.161
581.2870, 1078.437
581.7691, 1078.326
582.2512, 1075.832
582.7333, 1072.912
583.2155, 1072.693
583.6976, 1074.526
584.1797, 1076.397
584.6617, 1077.195
585.1439, 1077.714
585.6260, 1078.821
586.1081, 1080.347
586.5902, 1081.464
587.0723, 1082.453
587.5544, 1082.396
