##NAMES=Germanite
##RRUFFID=R050439
##IDEAL CHEMISTRY=Cu^1+^_8_Cu^2+^_5_Fe^3+^_2_Ge^4+^_2_S^2-^_16_
##LOCALITY=Tsumeb mine, Tsumeb, Otavi District, Oshikoto, Namibia
##OWNER=RRUFF
##SOURCE=University of Arizona Mineral Museum
##DESCRIPTION=Black with purple hints, massive
##STATUS=The identification of this mineral has been confirmed by X-ray diffraction and chemical analysis
##URL=rruff.info/R050439
##MEASURED CHEMISTRY=(Cu_11.61_Fe^2+^_0.87_Zn_0.52_)_Σ=13_Fe_2.00_(Ge_1.71_As_0.29_)_Σ=2_S_16.00_ ; = dark-gray phase. (Cu_10.59_Zn_0.41_)_Σ=11_Fe_4.00_(Ge_1.46_As_0.54_)_Σ=2_S_16.00_ = lighter-gray phase. Lightest phase is PbS.
91.00781, 32.76909
91.48993, 33.23045
91.97205, 33.41593
92.45416, 33.05053
92.93628, 32.42118
93.41840, 32.25280
93.90051, 32.85634
94.38263, 33.62396
94.86475, 33.30787
95.34686, 31.92100
95.82898, 30.70058
96.31110, 30.99962
96.79321, 32.63680
97.27533, 33.61301
97.75745, 33.19648
98.23956, 31.81055
98.72168, 31.31865
99.20380, 31.90221
99.68591, 32.82490
100.1680, 33.23950
100.6501, 33.00740
101.1323, 32.93618
101.6144, 33.34771
102.0965, 34.30596
102.5786, 34.94510
103.0607, 35.16592
103.5428, 35.16054
104.0250, 35.20093
104.5071, 35.13554
104.9892, 35.37148
105.4713, 36.07973
105.9534, 37.41711
106.4355, 38.89239
106.9177, 40.66619
107.3998, 42.58468
107.8819, 44.23322
108.3640, 45.79913
108.8461, 46.92712
109.3282, 47.45632
109.8104, 46.19431
110.2925, 45.68564
110.7746, 46.30508
111.2567, 47.92394
111.7388, 49.56767
112.2209, 51.11528
112.7031, 52.65093
113.1852, 54.25089
113.6673, 56.14769
114.1494, 57.88593
114.6315, 59.12583
115.1136, 59.84239
115.5958, 61.06533
116.0779, 63.83227
116.5600, 67.06457
117.0421, 69.54262
117.5242, 70.19904
118.0063, 70.50439
118.4885, 71.11262
118.9706, 72.03664
119.4527, 73.53114
119.9348, 76.21819
120.4169, 79.55259
120.8990, 82.57884
121.3812, 84.57774
121.8633, 86.14164
122.3454, 88.02504
122.8275, 90.77275
123.3096, 92.79755
123.7917, 91.95964
124.2739, 88.95100
124.7560, 86.31137
125.2381, 85.85612
125.7202, 86.82216
126.2023, 87.92567
126.6844, 88.88014
127.1666, 89.87051
127.6487, 91.27758
128.1308, 93.07777
128.6129, 94.78114
129.0950, 95.75443
129.5771, 96.24887
130.0593, 97.23241
130.5414, 99.36588
131.0235, 102.0131
131.5056, 103.2502
131.9877, 102.5782
132.4698, 101.1310
132.9520, 100.6116
133.4341, 100.9728
133.9162, 101.5096
134.3983, 101.9590
134.8804, 102.3596
135.3625, 103.0267
135.8447, 103.9628
136.3268, 105.1500
136.8089, 106.5136
137.2910, 108.0056
137.7731, 109.9641
138.2552, 113.2129
138.7374, 118.2360
139.2195, 120.2795
139.7016, 118.6458
140.1837, 114.8027
140.6658, 111.6122
141.1479, 108.9134
141.6301, 107.1017
142.1122, 106.5046
142.5943, 107.6913
143.0764, 108.4829
143.5585, 108.6536
144.0406, 108.4122
144.5228, 108.4955
145.0049, 108.9336
145.4870, 109.6469
145.9691, 110.6567
146.4512, 112.6572
146.9333, 113.8322
147.4155, 113.7733
147.8976, 112.6354
148.3797, 111.8652
148.8618, 111.6557
149.3439, 111.6640
149.8260, 111.6682
150.3082, 111.8016
150.7903, 111.7822
151.2724, 111.4727
151.7545, 110.8606
152.2366, 110.4856
152.7188, 110.0954
153.2009, 110.0706
153.6830, 110.7235
154.1651, 113.7106
154.6472, 115.7886
155.1293, 115.7118
155.6115, 113.1164
156.0936, 111.3015
156.5757, 111.3733
157.0578, 112.3060
157.5399, 112.9801
158.0220, 113.0026
158.5042, 112.8527
158.9863, 112.6286
159.4684, 112.2805
159.9505, 112.1607
160.4326, 112.6470
160.9147, 113.3875
161.3969, 113.8573
161.8790, 113.8048
162.3611, 113.4906
162.8432, 113.0297
163.3253, 112.4193
163.8074, 111.7354
164.2896, 110.9014
164.7717, 110.0154
165.2538, 109.2754
165.7359, 108.8145
166.2180, 108.5030
166.7001, 108.2733
167.1823, 108.1808
167.6644, 108.0153
168.1465, 107.4213
168.6286, 106.6024
169.1107, 106.1342
169.5928, 107.2210
170.0750, 108.4511
170.5571, 108.2057
171.0392, 105.4083
171.5213, 102.2532
172.0034, 100.5640
172.4855, 100.1190
172.9677, 99.97215
173.4498, 99.62306
173.9319, 99.16434
174.4140, 98.74203
174.8961, 98.47684
175.3782, 98.16779
175.8604, 97.53750
176.3425, 96.61175
176.8246, 95.63775
177.3067, 94.73035
177.7888, 93.89887
178.2709, 93.19994
178.7531, 92.80616
179.2352, 92.42040
179.7173, 91.41830
180.1994, 89.82452
180.6815, 88.36930
181.1636, 87.83297
181.6458, 87.98170
182.1279, 88.14376
182.6100, 88.12471
183.0921, 87.97124
183.5742, 87.73389
184.0563, 87.41112
184.5385, 87.11340
185.0206, 87.00864
185.5027, 87.05004
185.9848, 87.02731
186.4669, 86.96207
186.9490, 86.76941
187.4312, 86.06441
187.9133, 84.79464
188.3954, 83.44536
188.8775, 82.50973
189.3596, 81.98237
189.8417, 81.80891
190.3239, 82.11244
190.8060, 82.79330
191.2881, 83.38124
191.7702, 83.89293
192.2523, 84.23168
192.7344, 84.09475
193.2166, 83.48483
193.6987, 83.15929
194.1808, 83.73323
194.6629, 85.06827
195.1450, 85.36406
195.6271, 84.35406
196.1093, 82.98680
196.5914, 82.72147
197.0735, 83.63563
197.5556, 84.67355
198.0377, 85.48695
198.5198, 86.08330
199.0020, 86.29887
199.4841, 86.06463
199.9662, 85.56940
200.4483, 85.03947
200.9304, 84.44054
201.4125, 84.01025
201.8947, 83.96380
202.3768, 84.35493
202.8589, 84.41773
203.3410, 84.07027
203.8231, 83.49640
204.3052, 83.06810
204.7874, 82.83864
205.2695, 82.52515
205.7516, 81.89217
206.2337, 80.83075
206.7158, 80.24004
207.1979, 80.27352
207.6801, 80.63911
208.1622, 80.78915
208.6443, 80.75665
209.1264, 80.41953
209.6085, 79.50782
210.0906, 77.70493
210.5728, 76.83217
211.0549, 77.15672
211.5370, 78.25581
212.0191, 79.27515
212.5012, 80.36037
212.9833, 81.03362
213.4655, 80.88527
213.9476, 79.52135
214.4297, 78.85744
214.9118, 79.20817
215.3939, 80.13567
215.8760, 80.52615
216.3581, 80.15907
216.8403, 79.70190
217.3224, 79.45404
217.8045, 79.42913
218.2866, 79.59026
218.7687, 80.05659
219.2508, 80.66103
219.7330, 80.89682
220.2151, 80.54936
220.6972, 80.22455
221.1793, 80.22693
221.6614, 80.67443
222.1435, 81.14441
222.6257, 81.71313
223.1078, 82.27460
223.5899, 82.52260
224.0720, 82.30477
224.5541, 82.01875
225.0362, 81.84233
225.5184, 81.81668
226.0005, 81.80568
226.4826, 81.80102
226.9647, 81.81310
227.4468, 81.85939
227.9289, 81.89731
228.4111, 82.03897
228.8932, 82.34569
229.3753, 82.87108
229.8574, 83.44352
230.3395, 84.10728
230.8216, 84.80138
231.3038, 85.41033
231.7859, 86.12190
232.2680, 86.46233
232.7501, 86.08622
233.2322, 84.30580
233.7143, 83.38936
234.1965, 83.65150
234.6786, 84.71646
235.1607, 85.57571
235.6428, 86.28400
236.1249, 86.70421
236.6070, 86.68475
237.0892, 85.75727
237.5713, 85.45171
238.0534, 86.02879
238.5355, 87.15880
239.0176, 87.98791
239.4997, 88.35989
239.9819, 88.66936
240.4640, 89.08810
240.9461, 89.70048
241.4282, 90.21636
241.9103, 90.54553
242.3924, 90.80737
242.8746, 91.33348
243.3567, 92.41603
243.8388, 93.32043
244.3209, 93.70598
244.8030, 93.31148
245.2851, 93.07511
245.7673, 92.95204
246.2494, 93.00610
246.7315, 93.41014
247.2136, 94.36580
247.6957, 95.35099
248.1778, 96.12700
248.6600, 96.51747
249.1421, 97.23096
249.6242, 98.37293
250.1063, 99.78468
250.5884, 101.1860
251.0705, 102.6506
251.5527, 103.9839
252.0348, 105.1179
252.5169, 106.0791
252.9990, 106.7174
253.4811, 106.7366
253.9632, 106.6312
254.4454, 107.3134
254.9275, 109.1133
255.4096, 111.0783
255.8917, 112.9491
256.3738, 114.7409
256.8560, 116.3067
257.3381, 117.6209
257.8202, 118.7433
258.3023, 119.7414
258.7844, 120.4665
259.2665, 121.3751
259.7487, 122.6831
260.2308, 124.4751
260.7129, 126.0172
261.1950, 127.2076
261.6771, 128.2527
262.1592, 129.4317
262.6414, 130.7793
263.1235, 132.1391
263.6056, 133.3926
264.0877, 134.5216
264.5698, 136.0315
265.0519, 138.0510
265.5341, 140.2670
266.0162, 142.3923
266.4983, 144.4707
266.9804, 146.2507
267.4625, 147.5196
267.9446, 148.2828
268.4268, 149.7347
268.9089, 152.0918
269.3910, 154.7034
269.8731, 157.0113
270.3552, 159.0481
270.8373, 160.5497
271.3195, 161.2959
271.8016, 161.3813
272.2837, 161.8511
272.7658, 162.7708
273.2479, 163.9438
273.7300, 165.3757
274.2122, 167.1948
274.6943, 168.4090
275.1764, 168.6034
275.6585, 168.0320
276.1406, 168.0988
276.6227, 168.9592
277.1049, 169.9486
277.5870, 170.5323
278.0691, 170.6835
278.5512, 170.7353
279.0333, 170.7015
279.5154, 170.6250
279.9976, 170.6543
280.4797, 170.8006
280.9618, 170.9947
281.4439, 171.0757
281.9260, 171.0384
282.4081, 171.5419
282.8903, 172.8691
283.3724, 174.5620
283.8545, 175.6825
284.3366, 176.2502
284.8187, 176.0325
285.3008, 174.3647
285.7830, 171.4195
286.2651, 169.5240
286.7472, 169.0925
287.2293, 169.3643
287.7114, 168.9686
288.1935, 167.9098
288.6757, 166.7572
289.1578, 166.0331
289.6399, 165.5567
290.1220, 164.2894
290.6041, 161.9883
291.0862, 159.4758
291.5684, 158.1596
292.0505, 157.8901
292.5326, 157.3226
293.0147, 155.5529
293.4968, 152.9710
293.9789, 150.5908
294.4611, 148.4310
294.9432, 146.6564
295.4253, 145.4998
295.9074, 144.9147
296.3895, 144.7150
296.8716, 145.0860
297.3538, 145.7270
297.8359, 145.9278
298.3180, 145.6678
298.8001, 145.4654
299.2822, 145.8951
299.7643, 146.7756
300.2465, 147.6294
300.7286, 148.3015
301.2107, 148.8457
301.6928, 149.2514
302.1749, 149.5319
302.6570, 149.9485
303.1392, 150.9860
303.6213, 152.2585
304.1034, 153.0499
304.5855, 152.9308
305.0676, 152.5294
305.5497, 152.7035
306.0319, 153.2782
306.5140, 153.3501
306.9961, 152.0159
307.4782, 149.9611
307.9603, 147.9600
308.4424, 146.1986
308.9246, 144.5366
309.4067, 142.8371
309.8888, 141.1486
310.3709, 139.5797
310.8530, 138.1136
311.3351, 136.8521
311.8173, 135.9072
312.2994, 135.3323
312.7815, 134.9299
313.2636, 134.7151
313.7457, 134.5854
314.2278, 134.3541
314.7100, 133.7339
315.1921, 133.1441
315.6742, 132.8957
316.1563, 133.0826
316.6384, 133.2222
317.1205, 132.8507
317.6027, 132.3836
318.0848, 132.3507
318.5669, 133.4287
319.0490, 134.5153
319.5311, 135.1370
320.0132, 135.2535
320.4954, 135.3522
320.9775, 135.5616
321.4596, 135.8126
321.9417, 136.0440
322.4238, 136.1932
322.9059, 136.3719
323.3881, 136.7213
323.8702, 137.2007
324.3523, 137.3736
324.8344, 136.7443
325.3165, 136.0759
325.7986, 135.8142
326.2808, 136.6700
326.7629, 137.1393
327.2450, 136.7785
327.7271, 135.8694
328.2092, 135.5210
328.6913, 136.0279
329.1735, 136.8451
329.6556, 137.7671
330.1377, 138.7216
330.6198, 139.9233
331.1019, 141.4884
331.5840, 143.2599
332.0662, 144.9647
332.5483, 146.4828
333.0304, 148.1136
333.5125, 149.8864
333.9946, 151.7840
334.4767, 154.0458
334.9589, 156.8985
335.4410, 159.8630
335.9231, 162.1864
336.4052, 163.3689
336.8873, 165.1762
337.3694, 168.0636
337.8516, 171.9761
338.3336, 176.4056
338.8158, 181.6509
339.2979, 186.8076
339.7800, 190.9589
340.2621, 193.8720
340.7442, 197.1754
341.2263, 201.0455
341.7085, 205.4997
342.1906, 210.5399
342.6727, 216.2960
343.1548, 222.0995
343.6369, 227.5715
344.1190, 232.6842
344.6012, 237.7422
345.0833, 242.6892
345.5654, 247.6866
346.0475, 253.3036
346.5296, 259.4476
347.0117, 265.0680
347.4939, 269.3192
347.9760, 272.5215
348.4581, 275.9240
348.9402, 279.6900
349.4223, 282.9610
349.9044, 285.0268
350.3866, 285.8900
350.8687, 285.6074
351.3508, 283.8231
351.8329, 281.0722
352.3150, 278.2458
352.7971, 275.3145
353.2793, 271.8135
353.7614, 267.3809
354.2435, 262.0714
354.7256, 255.9055
355.2077, 248.5991
355.6898, 240.8369
356.1720, 232.9385
356.6541, 224.9509
357.1362, 217.1373
357.6183, 209.0854
358.1004, 201.4830
358.5826, 195.0400
359.0647, 190.1596
359.5468, 185.7450
360.0289, 181.0820
360.5110, 176.4768
360.9931, 172.4968
361.4753, 169.8448
361.9574, 167.5393
362.4395, 165.1385
362.9216, 162.5951
363.4037, 159.9907
363.8858, 156.8559
364.3680, 153.8662
364.8501, 151.7252
365.3322, 151.6170
365.8143, 151.3423
366.2964, 150.2189
366.7785, 148.2575
367.2607, 146.6086
367.7428, 145.5924
368.2249, 144.7695
368.7070, 143.8706
369.1891, 142.6786
369.6712, 141.7080
370.1534, 141.0930
370.6355, 140.7074
371.1176, 140.1580
371.5997, 139.3567
372.0818, 138.4973
372.5639, 137.6649
373.0461, 136.9094
373.5282, 135.9433
374.0103, 134.5618
374.4924, 133.1357
374.9745, 132.3918
375.4566, 132.6907
375.9388, 132.4950
376.4209, 131.1555
376.9030, 128.7611
377.3851, 127.1225
377.8672, 126.3871
378.3493, 125.8795
378.8315, 124.9534
379.3136, 123.5948
379.7957, 122.3008
380.2778, 121.1855
380.7599, 120.1568
381.2420, 118.8703
381.7242, 117.3472
382.2063, 115.9538
382.6884, 115.0405
383.1705, 114.4721
383.6526, 113.8414
384.1347, 113.1218
384.6169, 112.2822
385.0990, 111.2613
385.5811, 110.0881
386.0632, 108.9055
386.5453, 107.9680
387.0274, 106.9699
387.5096, 105.4634
387.9917, 103.4552
388.4738, 101.2726
388.9559, 98.99838
389.4380, 96.80325
389.9201, 94.91856
390.4023, 93.69402
390.8844, 92.50967
391.3665, 90.80950
391.8486, 88.75204
392.3307, 86.97908
392.8128, 86.17060
393.2950, 85.50480
393.7771, 84.34276
394.2592, 82.32622
394.7413, 80.51266
395.2234, 79.44115
395.7055, 78.75481
396.1877, 77.90246
396.6698, 76.55963
397.1519, 75.22694
397.6340, 74.10251
398.1161, 73.23634
398.5982, 72.18449
399.0804, 70.66367
399.5625, 69.10338
400.0446, 67.81599
400.5267, 66.94093
401.0088, 66.13676
401.4909, 65.39211
401.9731, 64.70287
402.4552, 64.04610
402.9373, 63.33761
403.4194, 62.79919
403.9015, 62.56433
404.3836, 62.70786
404.8658, 62.89228
405.3479, 63.20030
405.8300, 63.43269
406.3121, 63.20307
406.7942, 62.42839
407.2763, 61.76432
407.7585, 61.42316
408.2406, 61.36580
408.7227, 61.46617
409.2048, 61.75660
409.6869, 61.93010
410.1690, 61.54116
410.6512, 60.73940
411.1333, 60.28608
411.6154, 60.44206
412.0975, 60.78979
412.5796, 60.60667
413.0617, 60.00434
413.5439, 59.53458
414.0260, 59.64433
414.5081, 60.02385
414.9902, 60.22404
415.4723, 60.19969
415.9544, 60.14731
416.4366, 60.28602
416.9187, 60.48713
417.4008, 60.55746
417.8829, 60.19600
418.3650, 59.87964
418.8471, 59.94100
419.3293, 60.32370
419.8114, 60.68946
420.2935, 61.06126
420.7756, 61.25704
421.2577, 61.09126
421.7398, 60.20405
422.2220, 59.60027
422.7041, 59.76484
423.1862, 60.30951
423.6683, 60.53514
424.1504, 59.97514
424.6325, 59.46884
425.1147, 59.17533
425.5968, 59.07159
426.0789, 59.38150
426.5610, 60.52844
427.0431, 61.70545
427.5252, 62.17164
428.0074, 61.44798
428.4895, 61.15960
428.9716, 61.65488
429.4537, 62.64363
429.9358, 63.17837
430.4179, 63.15464
430.9001, 63.04263
431.3822, 63.12410
431.8643, 63.40542
432.3464, 63.38464
432.8285, 62.98754
433.3106, 62.52686
433.7928, 62.46390
434.2749, 62.74409
434.7570, 62.89680
435.2391, 62.70763
435.7212, 62.35775
436.2033, 62.26075
436.6855, 62.38558
437.1676, 62.40761
437.6497, 62.01420
438.1318, 61.39412
438.6139, 60.89840
439.0960, 60.67193
439.5782, 60.24432
440.0603, 58.93393
440.5424, 57.16533
441.0245, 55.75285
441.5066, 55.25076
441.9887, 55.01794
442.4709, 54.71136
442.9530, 54.32075
443.4351, 53.96381
443.9172, 53.72001
444.3993, 53.50770
444.8814, 53.27142
445.3636, 52.98771
445.8457, 52.69474
446.3278, 52.38624
446.8099, 52.07331
447.2920, 51.77472
447.7741, 51.47770
448.2563, 51.20783
448.7384, 50.96825
449.2205, 50.74981
449.7026, 50.61842
450.1847, 50.59623
450.6668, 50.63581
451.1490, 50.77191
451.6311, 51.13490
452.1132, 51.02898
452.5953, 50.15281
453.0774, 48.89365
453.5595, 48.28509
454.0417, 48.37302
454.5238, 48.67469
455.0059, 49.02998
455.4880, 49.40050
455.9701, 49.53263
456.4522, 49.37682
456.9344, 49.25801
457.4165, 49.69206
457.8986, 50.46188
458.3807, 50.94516
458.8628, 50.89260
459.3449, 50.52969
459.8271, 49.84068
460.3092, 48.97190
460.7913, 48.53313
461.2734, 49.48188
461.7555, 50.65199
462.2376, 50.95550
462.7198, 50.05557
463.2019, 49.16228
463.6840, 48.91078
464.1661, 48.96060
464.6482, 48.89976
465.1303, 48.32182
465.6125, 47.93278
466.0946, 48.05753
466.5767, 48.62679
467.0588, 48.96810
467.5409, 48.76762
468.0230, 48.56368
468.5052, 48.59962
468.9873, 48.98757
469.4694, 49.36509
469.9515, 49.86283
470.4336, 50.23890
470.9157, 50.05326
471.3979, 49.08167
471.8800, 48.33474
472.3621, 48.14065
472.8442, 48.36891
473.3263, 48.34425
473.8084, 48.02726
474.2906, 47.76241
474.7727, 47.94028
475.2548, 48.42673
475.7369, 48.51867
476.2190, 48.08009
476.7011, 47.49934
477.1833, 47.22553
477.6654, 47.18422
478.1475, 47.17170
478.6296, 47.10788
479.1117, 47.02893
479.5938, 47.01811
480.0760, 47.05115
480.5581, 46.96842
481.0402, 46.56712
481.5223, 46.07880
482.0044, 45.63300
482.4865, 45.13585
482.9687, 45.01505
483.4508, 45.81656
483.9329, 46.97966
484.4150, 47.69474
484.8971, 47.48600
485.3792, 47.17382
485.8614, 46.92346
486.3435, 46.73043
486.8256, 46.48102
487.3077, 45.95383
487.7898, 45.63290
488.2719, 45.88659
488.7541, 47.06063
489.2362, 47.65611
489.7183, 47.54062
490.2004, 47.00933
490.6825, 46.38385
491.1646, 45.62481
491.6468, 45.16898
492.1289, 45.20624
492.6110, 45.60058
493.0931, 46.07571
493.5752, 46.62849
494.0573, 46.94964
494.5395, 46.67782
495.0216, 46.04137
495.5037, 45.44366
495.9858, 44.90921
496.4679, 44.60746
496.9500, 44.88914
497.4322, 45.48450
497.9143, 45.94131
498.3964, 45.90272
498.8785, 45.83753
499.3606, 46.12285
499.8427, 46.65464
500.3249, 46.92693
500.8070, 46.51730
501.2891, 46.00138
501.7712, 45.65855
502.2533, 45.51624
502.7354, 45.55200
503.2176, 46.03825
503.6997, 46.55920
504.1818, 46.67103
504.6639, 46.10595
505.1460, 45.62761
505.6281, 45.36355
506.1103, 45.26159
506.5924, 45.10629
507.0745, 44.85136
507.5566, 44.70427
508.0387, 44.91036
508.5208, 45.43188
509.0030, 45.36989
509.4851, 44.61979
509.9672, 43.87518
510.4493, 44.03185
510.9314, 44.83494
511.4135, 45.39553
511.8957, 45.38309
512.3778, 45.21822
512.8599, 45.59200
513.3420, 46.25136
513.8242, 46.45375
514.3063, 45.10036
514.7884, 43.64622
515.2705, 43.38768
515.7526, 44.41709
516.2347, 45.34354
516.7169, 45.60424
517.1990, 45.54978
517.6811, 45.44445
518.1632, 45.36625
518.6453, 45.19051
519.1274, 44.89351
519.6096, 44.48956
520.0917, 43.96015
520.5738, 42.94206
521.0559, 42.41983
521.5380, 42.83152
522.0201, 44.09962
522.5023, 44.81052
522.9844, 44.82197
523.4665, 44.68452
523.9486, 44.89682
524.4307, 45.42520
524.9128, 45.44221
525.3950, 44.78660
525.8771, 43.95538
526.3592, 43.64309
526.8413, 43.72744
527.3234, 43.73558
527.8055, 43.30320
528.2877, 42.89590
528.7698, 43.16633
529.2519, 43.97578
529.7340, 44.74410
530.2161, 45.20467
530.6982, 45.45710
531.1804, 45.49551
531.6625, 45.25139
532.1446, 45.21307
532.6267, 45.95343
533.1088, 46.77164
533.5909, 47.01058
534.0731, 45.94275
534.5552, 45.08558
535.0373, 44.46153
535.5194, 44.13013
536.0015, 44.31161
536.4836, 45.40030
536.9658, 46.18404
537.4479, 46.11575
537.9300, 45.24710
538.4121, 44.74652
538.8942, 44.66201
539.3763, 44.75718
539.8585, 44.88033
540.3406, 45.02360
540.8227, 45.16557
541.3048, 45.32733
541.7869, 45.40310
542.2690, 45.25026
542.7512, 44.90823
543.2333, 44.47352
543.7154, 43.84163
544.1975, 43.25440
544.6796, 42.88397
545.1617, 42.71975
545.6439, 42.73210
546.1260, 43.08337
546.6081, 43.47153
547.0902, 43.68908
547.5723, 43.64219
548.0544, 43.72031
548.5366, 44.11292
549.0187, 44.57830
549.5008, 44.89979
549.9829, 44.96644
550.4650, 45.10860
550.9471, 45.45701
551.4293, 45.84116
551.9114, 45.79830
552.3935, 45.22632
552.8756, 44.72495
553.3577, 44.56221
553.8398, 44.65496
554.3220, 44.56925
554.8041, 44.29577
555.2862, 44.12058
555.7683, 44.38580
556.2504, 44.88554
556.7325, 45.19989
557.2147, 45.25455
557.6968, 45.22768
558.1789, 45.31199
558.6610, 45.40025
559.1431, 45.33390
559.6252, 44.79080
560.1074, 44.35493
560.5895, 44.45546
561.0716, 44.88340
561.5537, 44.94037
562.0358, 43.87781
562.5179, 43.01445
563.0001, 42.91935
563.4822, 43.68998
563.9643, 44.14787
564.4464, 44.13902
564.9285, 44.03471
565.4106, 44.14977
565.8928, 44.54748
566.3749, 44.71430
566.8570, 44.54679
567.3391, 44.28312
567.8212, 44.30624
568.3033, 44.58161
568.7855, 44.86113
569.2676, 45.10750
569.7497, 45.26702
570.2318, 45.22915
570.7139, 45.02402
571.1960, 44.78082
571.6782, 44.50777
572.1603, 44.27509
572.6424, 44.17392
573.1245, 44.22047
573.6066, 44.22941
574.0887, 44.06593
574.5709, 43.87445
575.0530, 43.76223
575.5351, 43.64153
576.0172, 43.76483
576.4993, 44.38490
576.9814, 45.13387
577.4636, 45.37921
577.9457, 44.94442
578.4278, 44.46333
578.9099, 44.04723
579.3920, 43.71510
579.8741, 43.56133
580.3563, 43.59431
580.8384, 43.70641
581.3205, 43.87448
581.8026, 44.07107
