##NAMES=Gersdorffite-P213
##RRUFFID=R070304
##IDEAL CHEMISTRY=Ni^3+^(AsS)^3-^
##LOCALITY=Aït Ahmane, Bou Azzer, Anti-Atlas Mts, Morocco
##OWNER=RRUFF
##SOURCE=Michael Scott
##DESCRIPTION=Steel gray metallic massive, this sample used by Bayliss to create ICDD data. Structure refined to determine space group.
##STATUS=The identification of this mineral is confirmed by single-crystal X-ray diffraction and chemical analysis.
##URL=rruff.info/R070304
##MEASURED CHEMISTRY=(Ni_0.99_Co_0.01_)_Σ=1_As_1.00_S_1.00_ ; trace amounts of Fe
133.2699, 207.2375
133.7520, 218.9599
134.2341, 230.1685
134.7162, 237.4768
135.1983, 240.9051
135.6804, 248.2540
136.1626, 260.6164
136.6447, 275.2810
137.1268, 287.0210
137.6089, 295.2062
138.0910, 302.3639
138.5731, 311.7311
139.0553, 326.3707
139.5374, 328.5363
140.0195, 313.1738
140.5016, 285.1692
140.9837, 264.0543
141.4658, 251.4992
141.9480, 242.8804
142.4301, 235.2331
142.9122, 228.0807
143.3943, 222.8849
143.8764, 219.4851
144.3585, 217.9291
144.8407, 219.7760
145.3228, 226.7408
145.8049, 235.8023
146.2870, 244.5094
146.7691, 256.8902
147.2512, 263.4711
147.7334, 260.3480
148.2155, 244.0888
148.6976, 233.4243
149.1797, 229.3624
149.6618, 230.6296
150.1439, 235.5097
150.6261, 249.1133
151.1082, 261.6868
151.5903, 270.4102
152.0724, 273.3210
152.5545, 276.5989
153.0366, 279.4198
153.5188, 282.9221
154.0009, 289.3144
154.4830, 311.0453
154.9651, 326.7842
155.4472, 326.1323
155.9293, 293.0465
156.4115, 265.3778
156.8936, 251.9401
157.3757, 250.0392
157.8578, 249.9752
158.3399, 251.4022
158.8221, 252.3761
159.3042, 251.6093
159.7863, 242.8072
160.2684, 238.0786
160.7505, 243.4867
161.2326, 257.8765
161.7148, 271.9881
162.1969, 284.7960
162.6790, 294.3952
163.1611, 298.8328
163.6432, 294.7167
164.1253, 287.5717
164.6075, 279.7572
165.0896, 271.3374
165.5717, 262.6100
166.0538, 250.6834
166.5359, 239.0945
167.0180, 232.8144
167.5002, 236.7527
167.9823, 244.9035
168.4644, 254.0394
168.9465, 264.4346
169.4286, 272.2677
169.9107, 273.5001
170.3929, 270.0365
170.8750, 265.9142
171.3571, 263.9404
171.8392, 262.0679
172.3213, 257.2865
172.8034, 248.1770
173.2856, 239.7672
173.7677, 236.8649
174.2498, 238.6550
174.7319, 242.3486
175.2140, 248.6228
175.6961, 255.1947
176.1783, 257.7761
176.6604, 253.6965
177.1425, 248.7678
177.6246, 252.1029
178.1067, 262.3151
178.5888, 270.6098
179.0710, 269.5212
179.5531, 261.7599
180.0352, 252.4100
180.5173, 240.1548
180.9994, 229.5888
181.4815, 230.6048
181.9637, 242.8964
182.4458, 256.5602
182.9279, 263.8925
183.4100, 265.7769
183.8921, 265.6513
184.3742, 264.0860
184.8564, 261.3222
185.3385, 257.0040
185.8206, 250.8531
186.3027, 246.0790
186.7848, 246.6444
187.2669, 251.9827
187.7491, 257.8126
188.2312, 263.7126
188.7133, 268.9783
189.1954, 270.2582
189.6775, 266.8875
190.1596, 262.4567
190.6418, 262.1653
191.1239, 265.8748
191.6060, 267.9473
192.0881, 263.8082
192.5702, 254.7188
193.0524, 253.5392
193.5345, 262.5961
194.0166, 273.5230
194.4987, 270.5747
194.9808, 252.6016
195.4629, 238.0798
195.9451, 237.5997
196.4272, 250.8385
196.9093, 262.1972
197.3914, 271.4510
197.8735, 278.4106
198.3556, 281.4314
198.8378, 279.6609
199.3199, 279.2780
199.8020, 283.8145
200.2841, 293.4648
200.7662, 305.1058
201.2483, 319.9281
201.7305, 335.3951
202.2126, 345.2966
202.6947, 349.1899
203.1768, 349.1668
203.6589, 344.4252
204.1410, 333.5643
204.6232, 328.6225
205.1053, 332.0970
205.5874, 341.5450
206.0695, 348.6626
206.5516, 352.5178
207.0337, 356.4905
207.5159, 363.6442
207.9980, 375.0128
208.4801, 383.7373
208.9622, 387.8268
209.4443, 388.6484
209.9264, 393.1508
210.4086, 402.3576
210.8907, 413.2350
211.3728, 423.0256
211.8549, 430.8617
212.3370, 440.9763
212.8191, 454.6695
213.3013, 471.3774
213.7834, 487.0750
214.2655, 500.6106
214.7476, 515.0622
215.2297, 534.1025
215.7118, 561.3966
216.1940, 583.7615
216.6761, 599.4337
217.1582, 608.4761
217.6403, 609.4003
218.1224, 600.1429
218.6045, 585.5430
219.0867, 569.3086
219.5688, 549.8365
220.0509, 533.0458
220.5330, 522.1771
221.0151, 517.3486
221.4972, 505.3197
221.9794, 481.7879
222.4615, 455.7499
222.9436, 437.0696
223.4257, 429.6526
223.9078, 421.3401
224.3899, 408.8545
224.8721, 391.4844
225.3542, 377.3385
225.8363, 367.7983
226.3184, 360.0533
226.8005, 349.9979
227.2827, 334.5040
227.7648, 323.0420
228.2469, 320.0906
228.7290, 327.8289
229.2111, 326.5834
229.6932, 311.2157
230.1754, 291.0495
230.6575, 278.1613
231.1396, 275.4311
231.6217, 275.1676
232.1038, 275.9849
232.5859, 278.4617
233.0681, 278.6218
233.5502, 274.6928
234.0323, 269.7234
234.5144, 268.5226
234.9965, 274.0830
235.4786, 278.3306
235.9608, 278.2054
236.4429, 272.2162
236.9250, 269.0740
237.4071, 270.8201
237.8892, 274.1683
238.3713, 273.8771
238.8535, 268.7392
239.3356, 261.8782
239.8177, 252.9750
240.2998, 239.5443
240.7819, 234.4288
241.2640, 242.9584
241.7462, 256.6202
242.2283, 259.5515
242.7104, 242.7033
243.1925, 230.1146
243.6746, 231.7539
244.1567, 254.6200
244.6389, 267.3081
245.1210, 265.3372
245.6031, 255.8804
246.0852, 252.0224
246.5673, 258.0068
247.0494, 262.3274
247.5316, 260.1744
248.0137, 248.6523
248.4958, 240.2323
248.9779, 234.5763
249.4600, 232.2793
249.9421, 236.0254
250.4243, 252.2274
250.9064, 262.9976
251.3885, 259.8976
251.8706, 236.5385
252.3527, 220.5983
252.8348, 213.6993
253.3170, 213.1880
253.7991, 214.7488
254.2812, 219.7582
254.7633, 224.1704
255.2454, 226.3730
255.7275, 225.7998
256.2097, 224.9152
256.6918, 223.2741
257.1739, 221.6361
257.6560, 221.7012
258.1381, 224.6123
258.6202, 226.8480
259.1024, 226.4999
259.5845, 222.2511
260.0666, 221.4296
260.5487, 226.4225
261.0308, 233.0251
261.5129, 232.5062
261.9951, 221.0706
262.4772, 211.6279
262.9593, 210.5857
263.4414, 220.7718
263.9235, 225.0482
264.4056, 220.3223
264.8878, 212.6181
265.3699, 214.6229
265.8520, 231.8154
266.3341, 243.0070
266.8162, 235.9262
267.2983, 205.3840
267.7805, 191.8396
268.2626, 201.0481
268.7447, 221.0404
269.2268, 231.2301
269.7089, 229.5167
270.1910, 225.5360
270.6732, 223.2218
271.1553, 223.0518
271.6374, 219.0469
272.1195, 209.3215
272.6016, 198.5165
273.0837, 195.2949
273.5659, 201.0967
274.0480, 206.9864
274.5301, 209.6151
275.0122, 208.8691
275.4943, 207.0208
275.9764, 203.2500
276.4586, 199.9207
276.9407, 201.5153
277.4228, 208.6744
277.9049, 214.9611
278.3870, 216.8374
278.8691, 214.6233
279.3513, 216.3277
279.8334, 222.9585
280.3155, 230.9155
280.7976, 235.5132
281.2798, 236.6333
281.7619, 236.2168
282.2440, 233.8181
282.7261, 230.0234
283.2082, 230.0588
283.6903, 234.7345
284.1725, 240.2587
284.6546, 241.9667
285.1367, 239.9449
285.6188, 236.7223
286.1009, 232.1073
286.5830, 226.9077
287.0652, 224.5122
287.5473, 224.9908
288.0294, 227.9689
288.5115, 234.4767
288.9936, 243.9950
289.4757, 252.1723
289.9579, 259.3800
290.4400, 263.8191
290.9221, 257.6886
291.4042, 240.0962
291.8863, 223.0784
292.3684, 220.2530
292.8506, 228.9713
293.3327, 237.6806
293.8148, 242.9426
294.2969, 245.8945
294.7790, 249.4396
295.2611, 253.5873
295.7433, 255.6710
296.2254, 251.8883
296.7075, 244.0159
297.1896, 237.0213
297.6717, 231.2270
298.1538, 227.8257
298.6360, 230.4924
299.1181, 238.7083
299.6002, 246.0535
300.0823, 246.4236
300.5644, 242.6166
301.0465, 239.8455
301.5287, 239.3150
302.0108, 240.5690
302.4929, 245.2087
302.9750, 252.2936
303.4571, 256.1762
303.9392, 250.0648
304.4214, 239.3928
304.9035, 231.4045
305.3856, 228.6864
305.8677, 227.9838
306.3498, 225.3667
306.8319, 222.0768
307.3141, 222.5098
307.7962, 233.4729
308.2783, 247.4495
308.7604, 256.7535
309.2425, 257.8493
309.7246, 258.0435
310.2068, 264.1260
310.6889, 273.2242
311.1710, 277.9775
311.6531, 268.7288
312.1352, 257.5042
312.6173, 253.9143
313.0995, 261.8171
313.5816, 270.6613
314.0637, 276.4190
314.5458, 279.6647
315.0279, 281.5528
315.5100, 279.7802
315.9922, 278.8338
316.4743, 281.5067
316.9564, 288.9201
317.4385, 296.6303
317.9206, 302.5231
318.4027, 307.9832
318.8849, 314.9457
319.3670, 325.9259
319.8491, 336.7415
320.3312, 347.2076
320.8133, 358.2871
321.2954, 362.9780
321.7776, 352.2652
322.2597, 337.4919
322.7418, 330.7484
323.2239, 341.3029
323.7060, 352.5251
324.1881, 361.6778
324.6703, 368.7928
325.1524, 371.9304
325.6345, 370.5785
326.1166, 365.3400
326.5987, 356.6059
327.0808, 337.6927
327.5630, 323.2040
328.0451, 316.5005
328.5272, 317.1557
329.0093, 315.8926
329.4914, 312.3984
329.9735, 307.3224
330.4557, 301.0132
330.9378, 292.9288
331.4199, 284.2846
331.9020, 273.2724
332.3841, 261.4156
332.8662, 256.8271
333.3484, 263.3652
333.8305, 271.3889
334.3126, 275.6072
334.7947, 274.7009
335.2768, 273.7580
335.7589, 272.4499
336.2411, 271.5632
336.7232, 274.2112
337.2053, 282.5653
337.6874, 288.0354
338.1695, 283.4479
338.6516, 266.3970
339.1338, 262.6445
339.6159, 277.0573
340.0980, 297.8750
340.5801, 304.4530
341.0622, 295.6114
341.5443, 283.7582
342.0265, 272.4261
342.5086, 261.9194
342.9907, 254.2569
343.4728, 249.6430
343.9549, 247.3353
344.4370, 247.6609
344.9192, 250.2535
345.4013, 251.5439
345.8834, 249.5971
346.3655, 245.6274
346.8476, 243.1343
347.3297, 242.1864
347.8119, 241.0258
348.2940, 237.6004
348.7761, 232.5822
349.2582, 228.0529
349.7403, 224.5275
350.2225, 221.7209
350.7046, 218.4854
351.1867, 215.0928
351.6688, 213.8744
352.1509, 221.5141
352.6331, 231.1177
353.1152, 231.0481
353.5973, 214.3187
354.0794, 195.6322
354.5615, 189.8254
355.0436, 193.2278
355.5258, 194.6688
356.0079, 184.9697
356.4900, 172.3100
356.9721, 163.4516
357.4542, 159.4648
357.9363, 159.1686
358.4185, 165.8125
358.9006, 175.2912
359.3827, 180.5024
359.8648, 173.1363
360.3469, 165.1811
360.8290, 163.9572
361.3112, 171.2584
361.7933, 176.6094
362.2754, 175.1752
362.7575, 170.6774
363.2396, 167.1455
363.7217, 165.7003
364.2039, 165.1396
364.6860, 164.2921
365.1681, 163.1362
365.6502, 165.7375
366.1323, 178.5414
366.6144, 191.6414
367.0966, 198.2253
367.5787, 195.8467
368.0608, 189.4718
368.5429, 175.6004
369.0250, 156.7128
369.5071, 146.1616
369.9893, 149.9909
370.4714, 155.1335
370.9535, 154.4794
371.4356, 142.0503
371.9177, 138.1042
372.3998, 147.0544
372.8820, 162.5286
373.3641, 169.6265
373.8462, 165.1945
374.3283, 160.5650
374.8104, 160.6911
375.2925, 166.1515
375.7747, 169.1499
376.2568, 168.7489
376.7389, 167.7934
377.2210, 171.9744
377.7031, 182.0139
378.1852, 186.4673
378.6674, 179.5242
379.1495, 164.3337
379.6316, 153.1097
380.1137, 145.8525
380.5958, 143.4167
381.0779, 149.8343
381.5601, 163.0422
382.0422, 172.3071
382.5243, 174.9034
383.0064, 173.0949
383.4885, 168.9143
383.9706, 162.8286
384.4528, 158.5650
384.9349, 162.0462
385.4170, 168.1220
385.8991, 166.8580
386.3812, 154.4050
386.8633, 142.2389
387.3455, 141.5546
387.8276, 149.3448
388.3097, 158.7839
388.7918, 170.7913
389.2739, 180.1961
389.7560, 181.0457
390.2382, 172.1192
390.7203, 163.9721
391.2024, 162.5461
391.6845, 164.9467
392.1666, 167.8417
392.6487, 173.7547
393.1309, 176.5576
393.6130, 170.9512
394.0951, 157.9675
394.5772, 149.6774
395.0593, 154.4121
395.5414, 161.4700
396.0236, 164.1123
396.5057, 155.1568
396.9878, 149.1747
397.4699, 148.8255
397.9520, 152.6134
398.4341, 155.9551
398.9163, 162.1611
399.3984, 164.4192
399.8805, 158.6837
400.3626, 139.2429
400.8447, 129.2026
401.3268, 132.6154
401.8090, 142.4524
402.2911, 149.3115
402.7732, 152.9511
403.2553, 153.9089
403.7374, 151.1807
404.2195, 145.1302
404.7017, 143.1720
405.1838, 146.7605
405.6659, 150.4999
406.1480, 147.8260
406.6301, 138.5628
407.1122, 133.9865
407.5944, 136.8322
408.0765, 144.8137
408.5586, 154.7561
409.0407, 166.5980
409.5228, 174.0129
410.0049, 169.5347
410.4871, 157.2850
410.9692, 148.6328
411.4513, 144.8715
411.9334, 144.0863
412.4155, 146.0732
412.8976, 149.5324
413.3798, 150.6944
413.8619, 143.8625
414.3440, 136.2000
414.8261, 137.1803
415.3082, 146.9249
415.7903, 154.4877
416.2725, 148.6428
416.7546, 138.2245
417.2367, 133.2730
417.7188, 143.0072
418.2009, 152.2712
418.6830, 152.5484
419.1652, 146.1994
419.6473, 141.8694
420.1294, 144.6374
420.6115, 148.5463
421.0937, 150.1579
421.5758, 147.2640
422.0579, 145.8114
422.5400, 146.8942
423.0221, 149.7979
423.5042, 153.4526
423.9864, 161.1353
424.4685, 165.7615
424.9506, 164.5178
425.4327, 156.7264
425.9148, 151.7832
426.3969, 149.0353
426.8791, 149.8653
427.3612, 157.1360
427.8433, 174.9559
428.3254, 185.7739
428.8075, 184.9538
429.2896, 176.2699
429.7718, 173.1759
430.2539, 176.7863
430.7360, 180.0191
431.2181, 177.1373
431.7002, 168.8224
432.1823, 166.0497
432.6645, 170.5542
433.1466, 176.6290
433.6287, 175.6141
434.1108, 168.8362
434.5929, 162.8896
435.0750, 162.2600
435.5572, 163.4316
436.0393, 158.4714
436.5214, 147.7610
437.0035, 139.3747
437.4856, 142.4703
437.9677, 151.0379
438.4499, 156.3122
438.9320, 153.6609
439.4141, 151.3110
439.8962, 157.0759
440.3783, 167.8804
440.8604, 175.9670
441.3426, 177.8362
441.8247, 175.9679
442.3068, 170.2478
442.7889, 159.1246
443.2710, 151.6724
443.7531, 154.4369
444.2353, 160.5054
444.7174, 162.2809
445.1995, 150.7682
445.6816, 143.5833
446.1637, 147.9089
446.6458, 161.8950
447.1280, 164.9203
447.6101, 145.5856
448.0922, 127.8433
448.5743, 126.9915
449.0564, 154.1584
449.5385, 167.9832
450.0207, 164.0595
450.5028, 149.4166
450.9849, 134.7116
451.4670, 118.5301
451.9491, 110.4014
452.4312, 117.9453
452.9134, 138.2692
453.3955, 147.8643
453.8776, 145.6657
454.3597, 140.2584
454.8418, 139.5830
455.3239, 142.7477
455.8061, 146.5570
456.2882, 151.6104
456.7703, 154.9768
457.2524, 149.4628
457.7345, 137.5682
458.2166, 129.4135
458.6988, 134.8645
459.1809, 145.3595
459.6630, 151.2417
460.1451, 150.9889
460.6272, 150.5398
461.1093, 156.5805
461.5915, 163.7253
462.0736, 165.1243
462.5557, 149.8035
463.0378, 136.9014
463.5199, 134.5712
464.0020, 141.7325
464.4842, 149.5124
464.9663, 160.6490
465.4484, 168.5067
465.9305, 169.0296
466.4126, 154.4405
466.8947, 146.1843
467.3769, 148.4096
467.8590, 155.1558
468.3411, 156.2848
468.8232, 148.2398
469.3053, 141.6359
469.7874, 139.4779
470.2696, 141.5358
470.7517, 143.7269
471.2338, 146.1250
471.7159, 148.4122
472.1980, 150.7132
472.6801, 152.9895
473.1623, 153.1297
473.6444, 150.1902
474.1265, 146.2746
474.6086, 145.2358
475.0907, 146.6890
475.5728, 148.1444
476.0550, 147.2812
476.5371, 145.9338
477.0192, 147.8140
477.5013, 153.0977
477.9834, 157.8881
478.4655, 159.5871
478.9477, 158.8584
479.4298, 156.3972
479.9119, 150.3559
480.3940, 145.2027
480.8761, 143.8649
481.3582, 145.3506
481.8404, 146.8456
482.3225, 146.1855
482.8046, 146.3587
483.2867, 149.1011
483.7688, 155.5470
484.2509, 161.1221
484.7331, 169.8713
485.2152, 175.2210
485.6973, 169.9633
486.1794, 142.7636
486.6615, 124.6634
487.1436, 122.8152
487.6258, 133.4251
488.1079, 138.2932
488.5900, 135.7056
489.0721, 132.0079
489.5542, 130.5768
490.0363, 131.4186
490.5185, 132.4634
491.0006, 133.6729
491.4827, 135.0110
491.9648, 135.9305
492.4470, 136.7134
492.9291, 139.0990
493.4112, 144.8223
493.8933, 151.4246
494.3754, 156.1859
494.8575, 158.8477
495.3397, 157.5126
495.8218, 146.4775
496.3039, 132.9115
496.7860, 124.5188
497.2681, 122.5814
497.7502, 124.6749
498.2324, 131.7289
498.7145, 141.3794
499.1966, 150.5513
499.6787, 162.8577
500.1608, 169.8946
500.6429, 165.1425
501.1251, 149.7265
501.6072, 141.8046
502.0893, 150.4633
502.5714, 159.8382
503.0535, 162.1942
503.5356, 153.4953
504.0178, 147.3374
504.4999, 143.9250
504.9820, 142.9470
505.4641, 144.6319
505.9462, 149.7357
506.4283, 153.5300
506.9105, 154.4860
507.3926, 153.1115
507.8747, 151.1684
508.3568, 148.6228
508.8389, 145.9773
509.3210, 143.9178
509.8032, 142.0086
510.2853, 138.1564
510.7674, 131.2395
511.2495, 126.0827
511.7316, 129.2448
512.2137, 137.7637
512.6959, 145.5388
513.1780, 150.9476
513.6601, 154.0655
514.1422, 154.2757
514.6243, 151.8953
515.1064, 149.0282
515.5886, 145.9522
516.0707, 143.0141
516.5528, 140.4302
517.0349, 138.1300
517.5170, 136.3257
517.9991, 132.1597
518.4813, 129.6391
518.9634, 135.0308
519.4455, 157.8406
519.9276, 171.8736
520.4097, 168.8932
520.8918, 152.0422
521.3740, 141.4836
521.8561, 137.9606
522.3382, 138.2720
522.8203, 141.7118
523.3024, 147.9861
523.7845, 152.5567
524.2667, 155.1542
524.7488, 156.1699
525.2309, 155.6568
525.7130, 153.9278
526.1951, 152.0437
526.6772, 149.9317
527.1594, 148.2422
527.6415, 148.3203
528.1236, 149.7187
528.6057, 150.4663
529.0878, 147.1733
529.5699, 144.2857
530.0521, 146.3378
530.5342, 155.6879
531.0163, 161.8821
531.4984, 158.0796
531.9805, 150.9802
532.4626, 147.6979
532.9448, 151.1404
533.4269, 156.3066
533.9090, 165.7431
534.3911, 176.8399
534.8732, 177.9855
535.3553, 163.0099
535.8375, 149.6629
536.3196, 146.9653
536.8017, 155.5726
537.2838, 160.3661
537.7659, 161.3682
538.2480, 158.6004
538.7302, 148.9872
539.2123, 134.0898
539.6944, 126.0450
540.1765, 129.5832
540.6586, 137.2244
541.1407, 137.5348
541.6229, 132.6799
542.1050, 130.4426
542.5871, 138.5149
543.0692, 148.7757
543.5513, 154.3081
544.0334, 154.6901
544.5156, 152.2017
544.9977, 143.8059
545.4798, 135.3314
545.9619, 131.7169
546.4440, 138.9477
546.9261, 143.5235
547.4083, 139.9048
547.8904, 133.2399
548.3725, 133.0990
548.8546, 144.0567
549.3367, 154.0830
549.8188, 160.5734
550.3010, 163.6351
550.7831, 164.0204
551.2652, 161.0703
551.7473, 157.6332
552.2294, 155.9203
552.7115, 155.7171
553.1937, 155.3112
553.6758, 154.8491
554.1579, 153.0096
554.6400, 145.5489
555.1221, 135.0872
555.6042, 129.4675
556.0864, 135.1882
556.5685, 143.1115
557.0506, 141.8379
557.5327, 134.5206
558.0148, 132.9575
558.4969, 153.9154
558.9791, 174.1205
559.4612, 175.7979
559.9433, 151.8254
560.4254, 137.1939
560.9075, 147.5086
561.3896, 164.7247
561.8718, 172.9290
562.3539, 166.7775
562.8360, 160.5421
563.3181, 155.0682
563.8002, 150.2832
564.2823, 145.8096
564.7645, 141.5248
565.2466, 138.2059
565.7287, 135.6293
566.2108, 134.2427
566.6929, 137.5258
567.1750, 145.6617
567.6572, 153.7167
568.1393, 157.4851
568.6214, 158.1113
569.1035, 157.5843
569.5856, 156.1091
570.0677, 153.9523
570.5499, 149.8061
571.0320, 145.4201
571.5141, 143.5240
571.9962, 147.4148
572.4783, 151.6942
572.9604, 156.1048
573.4426, 159.7285
573.9247, 158.1418
574.4068, 141.6950
574.8889, 128.1412
575.3710, 125.1230
575.8531, 134.9889
576.3353, 143.5418
576.8174, 151.7272
577.2995, 157.0729
577.7816, 156.1929
578.2637, 148.4104
578.7458, 141.4897
579.2280, 136.4207
579.7101, 132.9283
580.1922, 131.1244
580.6743, 130.7200
581.1564, 130.0842
581.6385, 128.6145
582.1207, 126.4036
582.6028, 121.4953
583.0849, 114.7816
583.5670, 112.8577
584.0491, 124.2486
584.5313, 139.0413
585.0134, 149.8025
585.4955, 154.9917
585.9776, 157.4335
586.4597, 157.0568
586.9418, 154.5443
587.4240, 150.4515
587.9061, 141.0913
588.3882, 136.1301
588.8703, 138.4964
589.3524, 145.4072
589.8345, 148.1628
590.3167, 145.4512
590.7988, 143.7155
591.2809, 146.8882
591.7630, 153.5182
592.2451, 155.9082
592.7272, 153.9779
593.2094, 149.7555
593.6915, 143.2643
594.1736, 136.0174
594.6557, 130.7600
595.1378, 128.0109
595.6199, 127.3807
596.1021, 129.9402
596.5842, 134.1091
597.0663, 137.6476
597.5485, 141.9852
598.0306, 143.2206
598.5127, 135.2971
598.9948, 121.9285
599.4769, 119.4325
599.9590, 141.5228
600.4412, 158.9618
600.9233, 160.2770
601.4054, 144.0706
601.8875, 134.1479
602.3696, 131.5258
602.8517, 132.9056
603.3339, 136.9357
603.8160, 143.3114
604.2981, 147.1436
604.7802, 147.3621
605.2623, 146.6963
605.7444, 148.7509
606.2266, 152.7590
606.7087, 156.5703
607.1908, 159.5466
607.6729, 161.9427
608.1550, 165.8236
608.6371, 169.6467
609.1193, 168.5332
609.6014, 156.1115
610.0835, 142.0338
610.5656, 129.1173
611.0477, 116.6192
611.5298, 113.6049
612.0120, 128.0200
612.4941, 144.1971
612.9762, 151.3829
613.4583, 146.9169
613.9404, 143.1124
614.4225, 140.7999
614.9047, 138.6324
615.3868, 132.0578
615.8689, 121.8846
616.3510, 120.4690
616.8331, 135.5185
617.3152, 155.7436
617.7974, 165.5562
618.2795, 165.7923
618.7616, 160.4018
619.2437, 144.2473
619.7258, 128.7466
620.2079, 123.7703
620.6901, 129.7726
621.1722, 135.4586
621.6543, 134.9952
622.1364, 134.2967
622.6185, 137.7642
623.1006, 149.9465
623.5828, 156.8339
624.0649, 158.2384
624.5470, 154.5180
625.0291, 143.2506
625.5112, 121.1392
625.9933, 110.3754
626.4755, 118.3078
