##NAMES=Gerstleyite
##RRUFFID=R060255
##IDEAL CHEMISTRY=Na_2_(Sb,As)_8_S_13_&#183;2H_2_O
##LOCALITY=Western mine, Boron, Kern County, California, USA
##OWNER=RRUFF
##SOURCE=Michael Scott
##DESCRIPTION=Deep red granular or platy aggregates
##STATUS=The identification of this mineral has been confirmed by single-crystal X-ray diffraction.
##URL=rruff.info/R060255
##MEASURED CHEMISTRY=Na_1.13_(Sb_8.23_Fe_0.29_As_0.18_Cu_0.01_)_Σ=8.71_S_13_(OH)·3.75H_2_O
89.60352, 38.14240
90.08563, 32.94632
90.56775, 31.80556
91.04987, 36.58797
91.53198, 43.73162
92.01410, 49.66439
92.49622, 54.37330
92.97833, 56.90173
93.46045, 55.21274
93.94257, 50.30903
94.42468, 45.56517
94.90680, 41.21215
95.38892, 37.94326
95.87103, 38.31131
96.35315, 42.77861
96.83527, 49.04613
97.31738, 55.12901
97.79950, 61.10094
98.28162, 64.86235
98.76373, 64.72334
99.24585, 60.55526
99.72797, 57.02657
100.2101, 54.36851
100.6922, 52.25816
101.1743, 49.45095
101.6564, 45.07862
102.1385, 42.30087
102.6207, 43.93282
103.1028, 52.50249
103.5849, 57.24306
104.0670, 55.42525
104.5491, 48.28669
105.0313, 45.72308
105.5134, 51.26969
105.9955, 57.70460
106.4776, 59.08193
106.9597, 49.13570
107.4418, 43.03826
107.9240, 44.41243
108.4061, 54.49582
108.8882, 62.43079
109.3703, 68.84487
109.8524, 72.87029
110.3345, 73.52792
110.8167, 66.79011
111.2988, 60.36194
111.7809, 55.92780
112.2630, 53.62041
112.7451, 53.21145
113.2272, 57.17598
113.7094, 62.73415
114.1915, 65.33361
114.6736, 58.47704
115.1557, 52.24299
115.6378, 52.11702
116.1199, 63.19318
116.6021, 73.13235
117.0842, 77.11592
117.5663, 76.51179
118.0484, 75.42927
118.5305, 73.67281
119.0126, 73.09465
119.4948, 75.35025
119.9769, 83.02316
120.4590, 91.53329
120.9411, 97.39014
121.4232, 101.0357
121.9053, 105.5896
122.3875, 112.5730
122.8696, 121.7779
123.3517, 132.9151
123.8338, 147.9767
124.3159, 163.9102
124.7980, 175.3696
125.2802, 182.1208
125.7623, 191.9089
126.2444, 210.8227
126.7265, 238.1302
127.2086, 271.8793
127.6907, 316.1315
128.1729, 365.5299
128.6550, 409.7895
129.1371, 448.5168
129.6192, 482.1172
130.1013, 508.6880
130.5834, 529.0770
131.0656, 552.0634
131.5477, 584.8009
132.0298, 625.1510
132.5119, 662.8621
132.9940, 697.8458
133.4761, 728.5621
133.9583, 750.2736
134.4404, 761.9233
134.9225, 776.4651
135.4046, 805.3786
135.8867, 849.1251
136.3688, 888.2453
136.8510, 918.1700
137.3331, 941.8951
137.8152, 973.3231
138.2973, 1013.796
138.7794, 1058.590
139.2615, 1105.067
139.7437, 1153.163
140.2258, 1201.298
140.7079, 1249.235
141.1900, 1296.810
141.6721, 1345.656
142.1542, 1397.494
142.6364, 1448.127
143.1185, 1492.858
143.6006, 1529.784
144.0827, 1563.762
144.5648, 1595.000
145.0469, 1623.407
145.5291, 1651.893
146.0112, 1682.237
146.4933, 1712.009
146.9754, 1738.235
147.4575, 1758.525
147.9396, 1777.764
148.4218, 1796.823
148.9039, 1813.538
149.3860, 1835.114
149.8681, 1865.489
150.3502, 1900.067
150.8323, 1929.824
151.3145, 1946.303
151.7966, 1964.715
152.2787, 1990.762
152.7608, 2032.070
153.2429, 2069.150
153.7250, 2099.642
154.2072, 2124.890
154.6893, 2148.667
155.1714, 2161.179
155.6535, 2161.845
156.1356, 2165.044
156.6177, 2176.499
157.0999, 2186.676
157.5820, 2193.054
158.0641, 2196.561
158.5462, 2200.920
159.0283, 2208.464
159.5104, 2216.375
159.9926, 2222.819
160.4747, 2228.708
160.9568, 2231.851
161.4389, 2229.967
161.9210, 2223.794
162.4031, 2218.815
162.8853, 2218.957
163.3674, 2220.490
163.8495, 2219.998
164.3316, 2214.291
164.8137, 2208.010
165.2958, 2203.668
165.7780, 2201.209
166.2601, 2198.534
166.7422, 2194.162
167.2243, 2188.937
167.7064, 2183.999
168.1885, 2177.762
168.6707, 2173.243
169.1528, 2173.705
169.6349, 2179.575
170.1170, 2185.285
170.5991, 2186.618
171.0812, 2185.284
171.5634, 2184.230
172.0455, 2184.748
172.5276, 2186.181
173.0097, 2188.006
173.4918, 2190.256
173.9739, 2192.576
174.4561, 2197.022
174.9382, 2201.642
175.4203, 2201.685
175.9024, 2188.731
176.3845, 2171.761
176.8666, 2164.110
177.3488, 2168.526
177.8309, 2176.727
178.3130, 2181.073
178.7951, 2181.970
179.2772, 2180.703
179.7593, 2177.329
180.2415, 2172.432
180.7236, 2166.048
181.2057, 2156.801
181.6878, 2149.500
182.1699, 2153.267
182.6520, 2166.414
183.1342, 2178.172
183.6163, 2179.149
184.0984, 2172.936
184.5805, 2170.595
185.0626, 2175.265
185.5447, 2181.892
186.0269, 2181.125
186.5090, 2173.211
186.9911, 2164.564
187.4732, 2158.654
187.9553, 2155.516
188.4374, 2156.425
188.9196, 2163.365
189.4017, 2172.497
189.8838, 2174.750
190.3659, 2169.883
190.8480, 2163.589
191.3301, 2159.833
191.8123, 2158.460
192.2944, 2158.343
192.7765, 2159.750
193.2586, 2162.000
193.7407, 2162.859
194.2228, 2162.198
194.7050, 2161.226
195.1871, 2160.278
195.6692, 2159.372
196.1513, 2161.091
196.6334, 2167.077
197.1155, 2175.779
197.5977, 2181.138
198.0798, 2182.734
198.5619, 2182.494
199.0440, 2181.814
199.5261, 2180.632
200.0082, 2179.627
200.4904, 2178.509
200.9725, 2177.596
201.4546, 2179.555
201.9367, 2185.212
202.4188, 2191.359
202.9009, 2194.672
203.3831, 2194.877
203.8652, 2194.176
204.3473, 2192.688
204.8294, 2190.561
205.3115, 2189.381
205.7936, 2188.955
206.2758, 2189.876
206.7579, 2194.178
207.2400, 2203.564
207.7221, 2208.440
208.2042, 2204.603
208.6863, 2192.336
209.1685, 2185.219
209.6506, 2183.429
210.1327, 2186.338
210.6148, 2195.256
211.0969, 2213.371
211.5790, 2226.187
212.0612, 2227.713
212.5433, 2217.579
213.0254, 2214.952
213.5075, 2222.376
213.9896, 2233.838
214.4717, 2241.616
214.9538, 2243.879
215.4360, 2247.723
215.9181, 2256.219
216.4002, 2269.890
216.8823, 2278.334
217.3644, 2279.817
217.8465, 2278.008
218.3287, 2276.644
218.8108, 2273.893
219.2929, 2276.078
219.7750, 2287.110
220.2571, 2308.930
220.7392, 2321.378
221.2214, 2319.218
221.7035, 2313.101
222.1856, 2317.485
222.6677, 2337.464
223.1498, 2357.241
223.6319, 2372.306
224.1141, 2382.384
224.5962, 2391.202
225.0783, 2398.171
225.5604, 2404.286
226.0425, 2411.147
226.5246, 2419.689
227.0068, 2426.930
227.4889, 2430.673
227.9710, 2429.494
228.4531, 2435.220
228.9352, 2451.764
229.4173, 2471.901
229.8995, 2485.516
230.3816, 2489.761
230.8637, 2492.826
231.3458, 2496.280
231.8279, 2499.834
232.3100, 2506.524
232.7922, 2519.745
233.2743, 2533.337
233.7564, 2538.381
234.2385, 2527.994
234.7206, 2521.300
235.2027, 2524.937
235.6849, 2541.386
236.1670, 2551.982
236.6491, 2555.121
237.1312, 2553.750
237.6133, 2551.314
238.0954, 2546.969
238.5776, 2542.919
239.0597, 2539.146
239.5418, 2535.205
240.0239, 2535.260
240.5060, 2542.182
240.9881, 2550.739
241.4703, 2553.977
241.9524, 2548.374
242.4345, 2543.946
242.9166, 2544.322
243.3987, 2550.828
243.8808, 2551.425
244.3630, 2541.659
244.8451, 2529.875
245.3272, 2526.855
245.8093, 2538.992
246.2914, 2548.092
246.7735, 2548.448
247.2557, 2538.642
247.7378, 2534.976
248.2199, 2540.263
248.7020, 2548.852
249.1841, 2554.359
249.6662, 2554.769
250.1484, 2555.959
250.6305, 2559.591
251.1126, 2565.808
251.5947, 2570.350
252.0768, 2571.590
252.5589, 2572.756
253.0411, 2577.533
253.5232, 2587.644
254.0053, 2597.434
254.4874, 2605.506
254.9695, 2611.853
255.4516, 2619.655
255.9338, 2630.229
256.4159, 2640.699
256.8980, 2647.703
257.3801, 2649.363
257.8622, 2652.541
258.3444, 2659.428
258.8265, 2669.833
259.3086, 2676.154
259.7907, 2675.212
260.2728, 2674.717
260.7549, 2682.756
261.2371, 2704.138
261.7192, 2720.648
262.2013, 2727.854
262.6834, 2726.790
263.1655, 2726.606
263.6476, 2725.187
264.1298, 2728.138
264.6119, 2742.533
265.0940, 2773.971
265.5761, 2796.849
266.0582, 2804.028
266.5403, 2799.063
267.0225, 2803.937
267.5046, 2822.761
267.9867, 2842.703
268.4688, 2853.276
268.9509, 2851.688
269.4330, 2853.175
269.9152, 2860.257
270.3973, 2871.606
270.8794, 2881.061
271.3615, 2887.231
271.8436, 2895.309
272.3257, 2910.166
272.8079, 2933.587
273.2900, 2952.337
273.7721, 2964.544
274.2542, 2971.915
274.7363, 2978.428
275.2184, 2983.128
275.7006, 2990.742
276.1827, 3005.183
276.6648, 3027.190
277.1469, 3047.444
277.6290, 3064.456
278.1111, 3080.358
278.5933, 3100.087
279.0754, 3124.294
279.5575, 3149.511
280.0396, 3174.602
280.5217, 3199.344
281.0038, 3222.037
281.4860, 3242.237
281.9681, 3260.886
282.4502, 3279.677
282.9323, 3298.624
283.4144, 3316.955
283.8965, 3336.705
284.3787, 3356.915
284.8608, 3367.127
285.3429, 3365.789
285.8250, 3358.345
286.3071, 3353.266
286.7892, 3350.443
287.2714, 3343.669
287.7535, 3328.427
288.2356, 3306.197
288.7177, 3285.963
289.1998, 3267.541
289.6819, 3250.974
290.1641, 3237.433
290.6462, 3226.478
291.1283, 3214.365
291.6104, 3199.354
292.0925, 3182.225
292.5746, 3165.641
293.0568, 3149.553
293.5389, 3133.530
294.0210, 3118.313
294.5031, 3103.209
294.9852, 3085.393
295.4673, 3062.357
295.9495, 3037.097
296.4316, 3015.700
296.9137, 2998.177
297.3958, 2982.907
297.8779, 2971.663
298.3600, 2961.841
298.8422, 2945.732
299.3243, 2916.845
299.8064, 2885.729
300.2885, 2868.601
300.7706, 2863.974
301.2527, 2861.187
301.7349, 2852.999
302.2170, 2841.520
302.6991, 2830.583
303.1812, 2821.234
303.6633, 2811.964
304.1454, 2799.790
304.6276, 2785.917
305.1097, 2774.403
305.5918, 2771.627
306.0739, 2771.161
306.5560, 2763.998
307.0381, 2746.125
307.5203, 2729.253
308.0024, 2725.313
308.4845, 2729.961
308.9666, 2733.016
309.4487, 2729.294
309.9308, 2721.800
310.4130, 2711.985
310.8951, 2699.391
311.3772, 2688.587
311.8593, 2684.467
312.3414, 2683.883
312.8235, 2681.774
313.3057, 2675.602
313.7878, 2667.614
314.2699, 2657.905
314.7520, 2646.348
315.2341, 2637.434
315.7162, 2635.169
316.1984, 2636.115
316.6805, 2636.446
317.1626, 2632.725
317.6447, 2630.182
318.1268, 2631.079
318.6089, 2635.329
319.0911, 2640.732
319.5732, 2649.149
320.0553, 2657.083
320.5374, 2661.771
321.0195, 2659.501
321.5016, 2657.382
321.9838, 2657.743
322.4659, 2659.885
322.9480, 2660.335
323.4301, 2655.656
323.9122, 2651.065
324.3943, 2649.508
324.8765, 2654.728
325.3586, 2657.940
325.8407, 2658.050
326.3228, 2655.564
326.8049, 2651.780
327.2870, 2644.004
327.7692, 2637.348
328.2513, 2634.308
328.7334, 2638.913
329.2155, 2637.834
329.6976, 2627.251
330.1797, 2612.211
330.6619, 2600.609
331.1440, 2593.028
331.6261, 2588.026
332.1082, 2585.999
332.5903, 2587.659
333.0724, 2587.659
333.5546, 2586.380
334.0367, 2583.083
334.5188, 2576.442
335.0009, 2564.104
335.4830, 2553.898
335.9651, 2549.039
336.4473, 2548.626
336.9294, 2540.785
337.4115, 2522.379
337.8936, 2502.805
338.3757, 2491.816
338.8578, 2492.774
339.3399, 2484.179
339.8221, 2460.161
340.3042, 2426.348
340.7863, 2402.731
341.2684, 2390.785
341.7505, 2380.103
342.2326, 2363.871
342.7148, 2342.278
343.1969, 2321.344
343.6790, 2301.763
344.1611, 2282.768
344.6432, 2262.741
345.1253, 2241.686
345.6075, 2222.586
346.0896, 2208.396
346.5717, 2197.549
347.0538, 2183.749
347.5359, 2166.421
348.0180, 2148.018
348.5002, 2130.507
348.9823, 2114.063
349.4644, 2099.459
349.9465, 2087.108
350.4286, 2076.777
350.9107, 2068.307
351.3929, 2061.737
351.8750, 2055.942
352.3571, 2051.856
352.8392, 2047.720
353.3213, 2039.837
353.8034, 2025.171
354.2856, 2009.557
354.7677, 1998.448
355.2498, 1991.336
355.7319, 1985.860
356.2140, 1980.818
356.6961, 1976.573
357.1783, 1974.092
357.6604, 1974.741
358.1425, 1973.441
358.6246, 1964.515
359.1067, 1951.406
359.5888, 1940.775
360.0710, 1935.817
360.5531, 1933.890
361.0352, 1934.342
361.5173, 1937.496
361.9994, 1939.418
362.4815, 1937.302
362.9637, 1933.685
363.4458, 1931.286
363.9279, 1932.959
364.4100, 1933.840
364.8921, 1931.903
365.3742, 1927.374
365.8564, 1923.641
366.3385, 1921.651
366.8206, 1920.379
367.3027, 1919.209
367.7848, 1919.942
368.2669, 1918.551
368.7491, 1913.555
369.2312, 1906.235
369.7133, 1900.271
370.1954, 1895.606
370.6775, 1892.428
371.1596, 1891.608
371.6418, 1895.764
372.1239, 1894.526
372.6060, 1885.312
373.0881, 1872.624
373.5702, 1862.229
374.0523, 1853.131
374.5345, 1848.843
375.0166, 1852.069
375.4987, 1862.631
375.9808, 1867.819
376.4629, 1866.788
376.9450, 1862.148
377.4272, 1854.930
377.9093, 1844.479
378.3914, 1837.201
378.8735, 1834.772
379.3556, 1835.673
379.8377, 1836.099
380.3199, 1836.090
380.8020, 1834.954
381.2841, 1832.317
381.7662, 1828.190
382.2483, 1822.047
382.7304, 1813.084
383.2126, 1804.521
383.6947, 1802.359
384.1768, 1805.184
384.6589, 1805.844
385.1410, 1799.344
385.6231, 1789.167
386.1053, 1779.943
386.5874, 1771.747
387.0695, 1766.748
387.5516, 1770.853
388.0337, 1778.736
388.5158, 1780.835
388.9980, 1769.435
389.4801, 1756.358
389.9622, 1751.910
390.4443, 1754.540
390.9264, 1757.789
391.4085, 1757.932
391.8907, 1757.294
392.3728, 1757.992
392.8549, 1761.162
393.3370, 1763.650
393.8191, 1763.916
394.3012, 1762.616
394.7834, 1760.862
395.2655, 1758.783
395.7476, 1756.473
396.2297, 1753.391
396.7118, 1749.175
397.1939, 1747.031
397.6761, 1750.022
398.1582, 1753.949
398.6403, 1755.309
399.1224, 1752.184
399.6045, 1748.374
400.0866, 1742.463
400.5688, 1735.484
401.0509, 1734.029
401.5330, 1743.253
402.0151, 1751.752
402.4972, 1753.588
402.9793, 1745.238
403.4615, 1739.509
403.9436, 1737.412
404.4257, 1737.120
404.9078, 1734.985
405.3899, 1729.876
405.8720, 1727.267
406.3542, 1730.133
406.8363, 1737.844
407.3184, 1741.217
407.8005, 1739.359
408.2826, 1736.850
408.7647, 1739.866
409.2469, 1747.652
409.7290, 1749.961
410.2111, 1742.963
410.6932, 1731.886
411.1753, 1726.188
411.6574, 1725.719
412.1396, 1728.461
412.6217, 1737.241
413.1038, 1747.520
413.5859, 1749.212
414.0680, 1740.220
414.5501, 1729.992
415.0323, 1728.014
415.5144, 1731.255
415.9965, 1733.739
416.4786, 1733.272
416.9607, 1730.751
417.4428, 1725.490
417.9250, 1717.962
418.4071, 1712.104
418.8892, 1710.881
419.3713, 1711.803
419.8534, 1712.641
420.3355, 1711.396
420.8177, 1712.500
421.2998, 1720.639
421.7819, 1732.066
422.2640, 1738.842
422.7461, 1735.327
423.2282, 1730.299
423.7104, 1726.402
424.1925, 1723.651
424.6746, 1722.956
425.1567, 1726.757
425.6388, 1731.170
426.1209, 1732.809
426.6031, 1730.804
427.0852, 1727.120
427.5673, 1720.275
428.0494, 1711.546
428.5315, 1709.019
429.0136, 1715.201
429.4958, 1722.217
429.9779, 1726.170
430.4600, 1727.006
430.9421, 1723.974
431.4242, 1715.291
431.9063, 1706.068
432.3885, 1706.352
432.8706, 1716.290
433.3527, 1722.681
433.8348, 1718.352
434.3169, 1707.825
434.7990, 1705.811
435.2812, 1712.364
435.7633, 1719.790
436.2454, 1720.840
436.7275, 1717.863
437.2096, 1716.552
437.6917, 1718.590
438.1739, 1721.167
438.6560, 1721.938
439.1381, 1720.922
439.6202, 1718.152
440.1023, 1709.919
440.5844, 1702.425
441.0666, 1702.276
441.5487, 1710.194
442.0308, 1716.591
442.5129, 1714.781
442.9950, 1709.967
443.4771, 1707.120
443.9593, 1710.434
444.4414, 1712.784
444.9235, 1710.936
445.4056, 1706.360
445.8877, 1704.247
446.3698, 1707.504
446.8520, 1711.466
447.3341, 1714.536
447.8162, 1716.882
448.2983, 1717.565
448.7804, 1716.045
449.2625, 1713.193
449.7447, 1709.587
450.2268, 1703.590
450.7089, 1700.743
451.1910, 1703.205
451.6731, 1709.715
452.1552, 1713.568
452.6374, 1714.298
453.1195, 1713.938
453.6016, 1714.313
454.0837, 1715.340
454.5658, 1712.402
455.0479, 1703.954
455.5301, 1695.508
456.0122, 1696.450
456.4943, 1705.323
456.9764, 1713.262
457.4585, 1717.414
457.9406, 1718.413
458.4228, 1716.055
458.9049, 1710.730
459.3870, 1706.143
459.8691, 1705.951
460.3512, 1707.705
460.8333, 1707.915
461.3155, 1704.823
461.7976, 1703.132
462.2797, 1708.409
462.7618, 1716.839
463.2439, 1721.677
463.7260, 1715.709
464.2082, 1709.818
464.6903, 1710.299
465.1724, 1717.316
465.6545, 1721.138
466.1366, 1715.337
466.6187, 1708.564
467.1009, 1706.486
467.5830, 1715.279
468.0651, 1720.856
468.5472, 1722.061
469.0293, 1720.336
469.5114, 1718.146
469.9936, 1714.063
470.4757, 1712.507
470.9578, 1716.423
471.4399, 1725.700
471.9220, 1727.877
472.4041, 1721.143
472.8863, 1712.650
473.3684, 1708.761
473.8505, 1709.376
474.3326, 1711.083
474.8147, 1713.953
475.2968, 1716.574
475.7790, 1715.447
476.2611, 1711.237
476.7432, 1708.400
477.2253, 1712.550
477.7074, 1718.217
478.1895, 1714.680
478.6717, 1701.866
479.1538, 1690.297
479.6359, 1689.266
480.1180, 1693.657
480.6001, 1697.049
481.0822, 1696.995
481.5644, 1697.031
482.0465, 1699.503
482.5286, 1703.414
483.0107, 1706.588
483.4928, 1708.004
483.9749, 1708.848
484.4571, 1709.215
484.9392, 1708.898
485.4213, 1709.824
485.9034, 1713.539
486.3855, 1717.605
486.8676, 1720.436
487.3498, 1721.756
487.8319, 1722.280
488.3140, 1722.275
488.7961, 1721.355
489.2782, 1718.031
489.7603, 1711.238
490.2425, 1705.699
490.7246, 1704.167
491.2067, 1706.069
491.6888, 1704.212
492.1709, 1697.905
492.6530, 1692.040
493.1352, 1691.859
493.6173, 1696.177
494.0994, 1699.958
494.5815, 1701.997
495.0636, 1703.854
495.5457, 1709.081
496.0279, 1716.056
496.5100, 1719.902
496.9921, 1715.665
497.4742, 1708.938
497.9563, 1704.230
498.4384, 1701.640
498.9206, 1700.566
499.4027, 1703.119
499.8848, 1705.620
500.3669, 1704.750
500.8490, 1696.330
501.3311, 1690.308
501.8133, 1689.878
502.2954, 1693.073
502.7775, 1696.187
503.2596, 1701.532
503.7417, 1703.730
504.2238, 1699.604
504.7060, 1689.357
505.1881, 1685.828
505.6702, 1692.090
506.1523, 1700.067
506.6344, 1704.611
507.1165, 1705.480
507.5987, 1704.383
508.0808, 1701.008
508.5629, 1696.559
509.0450, 1692.253
509.5271, 1688.210
510.0092, 1685.999
510.4914, 1686.613
510.9735, 1689.150
511.4556, 1692.192
511.9377, 1695.654
512.4199, 1698.977
512.9020, 1702.128
513.3841, 1704.762
513.8662, 1706.446
514.3483, 1707.084
514.8304, 1706.906
515.3126, 1704.906
515.7947, 1702.521
516.2768, 1701.553
516.7589, 1703.684
517.2410, 1706.086
517.7231, 1708.492
518.2053, 1710.630
518.6874, 1711.297
519.1695, 1709.075
519.6516, 1706.514
520.1337, 1704.535
520.6158, 1703.320
521.0980, 1701.775
521.5801, 1699.471
522.0622, 1697.431
522.5443, 1696.744
523.0264, 1697.594
523.5085, 1698.781
523.9907, 1700.107
524.4728, 1701.688
524.9549, 1704.227
525.4370, 1707.667
525.9191, 1710.281
526.4012, 1710.614
526.8834, 1709.656
527.3655, 1710.110
527.8476, 1711.921
528.3297, 1712.431
528.8118, 1706.556
529.2939, 1699.312
529.7761, 1697.669
530.2582, 1705.710
530.7403, 1713.516
531.2224, 1714.891
531.7045, 1712.475
532.1866, 1710.618
532.6688, 1712.579
533.1509, 1713.158
533.6330, 1708.637
534.1151, 1699.451
534.5972, 1696.344
535.0793, 1704.926
535.5615, 1713.852
536.0436, 1717.521
536.5257, 1714.370
537.0078, 1711.499
537.4899, 1708.746
537.9720, 1706.591
538.4542, 1705.966
538.9363, 1706.992
539.4184, 1707.934
539.9005, 1708.795
540.3826, 1708.926
540.8647, 1705.812
541.3469, 1699.994
541.8290, 1695.536
542.3111, 1696.427
542.7932, 1699.362
543.2753, 1698.661
543.7574, 1694.180
544.2396, 1690.799
544.7217, 1693.066
545.2038, 1697.519
545.6859, 1700.549
546.1680, 1700.213
546.6501, 1700.368
547.1323, 1702.903
547.6144, 1706.638
548.0965, 1709.576
548.5786, 1711.138
549.0607, 1712.187
549.5428, 1713.251
550.0250, 1714.169
550.5071, 1712.723
550.9892, 1706.987
551.4713, 1702.400
551.9534, 1703.304
552.4355, 1710.795
552.9177, 1711.196
553.3998, 1702.572
553.8819, 1692.835
554.3640, 1693.072
554.8461, 1701.306
555.3282, 1706.174
555.8104, 1703.841
556.2925, 1698.629
556.7746, 1694.452
557.2567, 1691.899
557.7388, 1692.829
558.2209, 1702.490
558.7031, 1712.905
559.1852, 1717.889
559.6673, 1717.369
560.1494, 1714.555
560.6315, 1707.999
561.1136, 1701.491
561.5958, 1697.449
562.0779, 1696.210
562.5600, 1697.587
563.0421, 1704.543
563.5242, 1712.382
564.0063, 1714.892
564.4885, 1709.592
564.9706, 1704.522
565.4527, 1700.525
565.9348, 1697.938
566.4169, 1698.135
566.8990, 1701.291
567.3812, 1705.584
567.8633, 1711.915
568.3454, 1718.738
568.8275, 1719.003
569.3096, 1712.521
569.7917, 1706.505
570.2739, 1708.709
570.7560, 1715.014
571.2381, 1719.176
571.7202, 1719.705
572.2023, 1718.780
572.6844, 1716.936
573.1666, 1714.779
573.6487, 1713.173
574.1308, 1713.004
574.6129, 1712.831
575.0950, 1712.335
575.5771, 1711.512
576.0593, 1710.347
576.5414, 1708.260
577.0235, 1706.517
577.5056, 1705.108
577.9877, 1703.738
578.4698, 1706.363
578.9520, 1714.479
579.4341, 1722.849
579.9162, 1726.537
580.3983, 1725.785
580.8804, 1724.235
581.3625, 1722.179
581.8447, 1720.052
582.3268, 1719.113
582.8089, 1718.684
583.2910, 1716.610
583.7731, 1708.194
584.2552, 1701.267
584.7373, 1705.669
