##NAMES=Gillespite
##RRUFFID=R061031
##IDEAL CHEMISTRY=BaFe^2+^Si_4_O_10_
##LOCALITY=La Madrelena mine, Tres Pozos, Municipio de Tecate, Baja California Norte, Mexico
##OWNER=RRUFF
##SOURCE=Michael Scott
##DESCRIPTION=Rose-red cleavage fragment embedded in white sanbornite
##STATUS=The identification of this mineral has been confirmed by X-ray diffraction and chemical analysis
##URL=rruff.info/R061031
##MEASURED CHEMISTRY=Ba_1.00_Fe^2+^_1.00_(Si_3.97_Ti_0.03_)_Σ=4_O_10_ ; = host gray phase : (Ba_0.99_K_0.01_)(Al_0.97_Fe^3+^_0.02_Ti_0.01_)_Σ=2_Si_2.00_O_8_ ; = lighter gray inclusion = celsian ; Ba_1.00_CO_3_ = lightest areas = witherite 
122.0099, 391.1790
122.4920, 398.1502
122.9741, 409.9461
123.4562, 426.6736
123.9384, 448.5079
124.4205, 478.7434
124.9026, 512.6744
125.3847, 543.9031
125.8668, 571.3933
126.3489, 600.6688
126.8311, 633.2848
127.3132, 670.3738
127.7953, 717.0030
128.2774, 778.3635
128.7595, 850.2646
129.2416, 923.9161
129.7238, 1000.152
130.2059, 1075.868
130.6880, 1153.563
131.1701, 1230.191
131.6522, 1295.782
132.1344, 1342.262
132.6165, 1372.533
133.0986, 1399.683
133.5807, 1426.698
134.0628, 1446.118
134.5449, 1454.270
135.0271, 1452.228
135.5092, 1444.042
135.9913, 1427.469
136.4734, 1403.071
136.9555, 1391.426
137.4376, 1410.522
137.9198, 1426.537
138.4019, 1418.402
138.8840, 1389.883
139.3661, 1361.227
139.8482, 1353.147
140.3303, 1368.747
140.8125, 1380.605
141.2946, 1380.866
141.7767, 1382.349
142.2588, 1390.420
142.7409, 1405.482
143.2230, 1424.988
143.7052, 1443.209
144.1873, 1454.540
144.6694, 1485.908
145.1515, 1552.527
145.6336, 1627.502
146.1157, 1702.574
146.5979, 1773.924
147.0800, 1836.061
147.5621, 1880.072
148.0442, 1898.480
148.5263, 1916.355
149.0084, 1943.112
149.4906, 1963.914
149.9727, 1969.106
150.4548, 1956.563
150.9369, 1930.647
151.4190, 1898.720
151.9011, 1866.677
152.3833, 1815.546
152.8654, 1729.949
153.3475, 1637.342
153.8296, 1559.229
154.3117, 1501.880
154.7938, 1457.052
155.2760, 1410.161
155.7581, 1354.679
156.2402, 1307.604
156.7223, 1269.847
157.2044, 1239.537
157.6865, 1215.906
158.1687, 1198.634
158.6508, 1185.870
159.1329, 1174.068
159.6150, 1162.929
160.0971, 1153.277
160.5792, 1149.074
161.0614, 1144.671
161.5435, 1133.072
162.0256, 1111.679
162.5077, 1084.978
162.9898, 1063.386
163.4719, 1051.257
163.9541, 1039.624
164.4362, 1028.133
164.9183, 1017.099
165.4004, 1006.418
165.8825, 995.9130
166.3646, 986.8351
166.8468, 982.4386
167.3289, 987.6180
167.8110, 991.4207
168.2931, 992.9501
168.7752, 992.5505
169.2573, 990.5349
169.7395, 986.9890
170.2216, 982.1733
170.7037, 976.7565
171.1858, 975.0469
171.6679, 967.3164
172.1500, 945.9980
172.6322, 918.9435
173.1143, 898.2711
173.5964, 889.4920
174.0785, 888.8472
174.5606, 886.0872
175.0427, 880.9650
175.5249, 874.4560
176.0070, 865.9573
176.4891, 856.2874
176.9712, 846.1266
177.4533, 835.4408
177.9354, 825.4407
178.4176, 820.6088
178.8997, 826.2336
179.3818, 828.2148
179.8639, 820.2961
180.3460, 806.6384
180.8281, 794.6588
181.3103, 787.4140
181.7924, 783.7772
182.2745, 781.2086
182.7566, 781.7465
183.2387, 779.9454
183.7208, 771.8358
184.2030, 760.4799
184.6851, 752.3146
185.1672, 750.6185
185.6493, 752.2941
186.1314, 748.8663
186.6135, 737.0945
187.0957, 727.3428
187.5778, 724.4542
188.0599, 725.6873
188.5420, 725.6105
189.0241, 722.0723
189.5062, 716.1150
189.9884, 710.1853
190.4705, 704.9869
190.9526, 698.5798
191.4347, 687.7546
191.9168, 675.4598
192.3989, 667.8580
192.8811, 667.7953
193.3632, 672.5755
193.8453, 677.3831
194.3274, 684.4116
194.8095, 686.9855
195.2916, 678.4439
195.7738, 664.3634
196.2559, 656.6918
196.7380, 660.8971
197.2201, 670.3201
197.7022, 670.9189
198.1843, 660.4001
198.6665, 650.6430
199.1486, 645.2500
199.6307, 643.0162
200.1128, 641.7063
200.5949, 640.6207
201.0770, 640.2025
201.5592, 641.7112
202.0413, 645.5792
202.5234, 649.0506
203.0055, 651.8381
203.4876, 653.6376
203.9697, 654.3177
204.4519, 654.1356
204.9340, 651.8408
205.4161, 643.5713
205.8982, 627.4391
206.3803, 615.3290
206.8624, 611.5389
207.3446, 613.2125
207.8267, 617.1006
208.3088, 622.9570
208.7909, 628.2279
209.2730, 628.5023
209.7551, 623.1925
210.2373, 618.0256
210.7194, 612.5223
211.2015, 608.3655
211.6836, 608.5236
212.1657, 613.9384
212.6479, 621.4379
213.1300, 627.2355
213.6121, 631.2626
214.0942, 634.6769
214.5763, 638.6330
215.0584, 641.6453
215.5406, 642.1218
216.0227, 639.7972
216.5048, 634.7913
216.9869, 626.2960
217.4690, 613.7513
217.9511, 603.2090
218.4333, 593.8908
218.9154, 587.5258
219.3975, 587.7422
219.8796, 594.8747
220.3617, 601.9678
220.8438, 601.7640
221.3260, 593.2218
221.8081, 586.7430
222.2902, 584.4126
222.7723, 583.1158
223.2544, 579.9972
223.7365, 574.9496
224.2187, 570.1432
224.7008, 567.4382
225.1829, 567.0419
225.6650, 566.7183
226.1471, 566.6910
226.6292, 566.5492
227.1114, 565.4544
227.5935, 563.6841
228.0756, 562.9767
228.5577, 564.8999
229.0398, 569.3436
229.5219, 572.7418
230.0041, 572.4069
230.4862, 573.5810
230.9683, 580.7548
231.4504, 592.2899
231.9325, 602.3392
232.4146, 607.2155
232.8968, 607.3083
233.3789, 606.6041
233.8610, 603.2724
234.3431, 601.2088
234.8252, 600.6277
235.3073, 602.3397
235.7895, 609.4813
236.2716, 625.1463
236.7537, 645.5728
237.2358, 653.7037
237.7179, 637.4774
238.2000, 624.9957
238.6822, 623.6245
239.1643, 629.7083
239.6464, 638.4578
240.1285, 648.0703
240.6106, 657.1356
241.0927, 661.5948
241.5749, 657.1332
242.0570, 653.3979
242.5391, 652.7680
243.0212, 652.5948
243.5033, 649.4588
243.9854, 642.1949
244.4676, 632.7703
244.9497, 624.6966
245.4318, 616.4931
245.9139, 612.5201
246.3960, 616.2969
246.8781, 622.2121
247.3603, 625.6968
247.8424, 625.6045
248.3245, 623.4137
248.8066, 621.1074
249.2887, 618.9649
249.7708, 615.9240
250.2530, 610.2859
250.7351, 605.1215
251.2172, 602.6547
251.6993, 602.9373
252.1814, 604.3439
252.6635, 604.9012
253.1457, 603.7949
253.6278, 605.9573
254.1099, 615.9344
254.5920, 624.6039
255.0741, 626.6423
255.5562, 623.4357
256.0384, 620.3358
256.5205, 622.1144
257.0026, 628.8920
257.4847, 632.9602
257.9668, 632.7356
258.4489, 631.1987
258.9311, 627.2434
259.4132, 622.6364
259.8953, 620.2260
260.3774, 621.8970
260.8595, 627.1882
261.3416, 633.9534
261.8238, 645.9891
262.3059, 654.1923
262.7880, 653.8647
263.2701, 649.7881
263.7522, 648.1724
264.2343, 652.1595
264.7165, 658.9266
265.1986, 661.0992
265.6807, 654.9574
266.1628, 652.1635
266.6449, 658.1447
267.1270, 666.4064
267.6092, 670.5690
268.0913, 668.6357
268.5734, 665.6609
269.0555, 669.8582
269.5376, 683.4635
270.0197, 694.0106
270.5019, 696.3538
270.9840, 696.6473
271.4661, 697.7304
271.9482, 700.1075
272.4303, 703.9361
272.9124, 710.0576
273.3946, 718.4236
273.8767, 725.5179
274.3588, 729.6342
274.8409, 733.8422
275.3230, 739.5055
275.8051, 746.8010
276.2873, 756.4062
276.7694, 771.3785
277.2515, 789.3012
277.7336, 800.6143
278.2157, 800.8792
278.6978, 802.9036
279.1800, 818.5468
279.6621, 842.8265
280.1442, 864.1891
280.6263, 877.5421
281.1084, 886.1781
281.5905, 893.2119
282.0727, 897.9462
282.5548, 906.7668
283.0369, 927.0164
283.5190, 953.6350
284.0011, 974.7833
284.4832, 986.4931
284.9654, 995.3836
285.4475, 1004.853
285.9296, 1015.284
286.4117, 1029.018
286.8938, 1046.744
287.3759, 1068.958
287.8581, 1096.520
288.3402, 1132.192
288.8223, 1166.846
289.3044, 1194.642
289.7865, 1218.802
290.2686, 1246.150
290.7508, 1279.173
291.2329, 1314.721
291.7150, 1347.724
292.1971, 1376.889
292.6792, 1407.857
293.1613, 1440.886
293.6435, 1476.327
294.1256, 1516.081
294.6077, 1560.073
295.0898, 1603.618
295.5719, 1641.467
296.0540, 1671.890
296.5362, 1703.959
297.0183, 1741.583
297.5004, 1777.165
297.9825, 1806.134
298.4646, 1829.062
298.9467, 1849.773
299.4289, 1871.775
299.9110, 1894.525
300.3931, 1908.892
300.8752, 1913.738
301.3573, 1911.864
301.8394, 1904.542
302.3216, 1890.669
302.8037, 1867.659
303.2858, 1834.010
303.7679, 1792.534
304.2500, 1751.074
304.7321, 1709.656
305.2143, 1667.910
305.6964, 1626.633
306.1785, 1584.668
306.6606, 1540.439
307.1427, 1493.531
307.6248, 1445.722
308.1070, 1398.642
308.5891, 1350.826
309.0712, 1308.962
309.5533, 1277.978
310.0354, 1249.428
310.5175, 1219.253
310.9997, 1187.697
311.4818, 1157.500
311.9639, 1129.558
312.4460, 1104.303
312.9281, 1084.942
313.4102, 1072.774
313.8924, 1065.166
314.3745, 1059.621
314.8566, 1057.083
315.3387, 1059.451
315.8208, 1067.882
316.3029, 1081.440
316.7851, 1099.081
317.2672, 1121.052
317.7493, 1145.473
318.2314, 1170.160
318.7135, 1197.874
319.1956, 1231.569
319.6778, 1270.526
320.1599, 1318.163
320.6420, 1380.452
321.1241, 1455.024
321.6062, 1530.374
322.0883, 1601.677
322.5705, 1674.422
323.0526, 1759.106
323.5347, 1858.502
324.0168, 1951.297
324.4989, 2036.699
324.9810, 2109.862
325.4632, 2167.969
325.9453, 2210.633
326.4274, 2228.242
326.9095, 2210.066
327.3916, 2151.660
327.8737, 2075.749
328.3559, 1971.557
328.8380, 1860.769
329.3201, 1750.566
329.8022, 1643.998
330.2843, 1544.885
330.7664, 1454.950
331.2486, 1376.077
331.7307, 1320.005
332.2128, 1305.132
332.6949, 1291.707
333.1770, 1271.964
333.6591, 1252.028
334.1413, 1239.897
334.6234, 1238.316
335.1055, 1243.057
335.5876, 1246.084
336.0698, 1242.879
336.5519, 1248.662
337.0340, 1272.492
337.5161, 1297.304
337.9982, 1312.651
338.4803, 1318.565
338.9625, 1321.939
339.4446, 1328.639
339.9267, 1338.586
340.4088, 1348.683
340.8909, 1362.079
341.3730, 1370.989
341.8552, 1371.946
342.3373, 1366.840
342.8194, 1359.016
343.3015, 1350.165
343.7836, 1339.156
344.2657, 1322.612
344.7479, 1299.222
345.2300, 1278.190
345.7121, 1264.419
346.1942, 1254.270
346.6763, 1243.389
347.1584, 1231.101
347.6406, 1219.339
348.1227, 1209.287
348.6048, 1200.736
349.0869, 1192.945
349.5690, 1185.730
350.0511, 1179.272
350.5333, 1172.446
351.0154, 1164.974
351.4975, 1164.364
351.9796, 1177.136
352.4617, 1193.891
352.9438, 1204.188
353.4260, 1208.532
353.9081, 1216.946
354.3902, 1237.419
354.8723, 1268.620
355.3544, 1295.665
355.8365, 1310.902
356.3187, 1331.560
356.8008, 1366.981
357.2829, 1409.729
357.7650, 1446.760
358.2471, 1472.857
358.7292, 1497.185
359.2114, 1538.964
359.6935, 1611.229
360.1756, 1677.397
360.6577, 1729.125
361.1398, 1782.300
361.6219, 1847.989
362.1041, 1925.985
362.5862, 2007.756
363.0683, 2083.336
363.5504, 2153.657
364.0325, 2240.274
364.5146, 2354.988
364.9968, 2471.334
365.4789, 2575.347
365.9610, 2675.826
366.4431, 2785.211
366.9252, 2910.311
367.4073, 3044.624
367.8895, 3180.261
368.3716, 3316.401
368.8537, 3454.696
369.3358, 3596.721
369.8179, 3738.993
370.3000, 3879.522
370.7822, 4018.766
371.2643, 4146.761
371.7464, 4255.976
372.2285, 4349.396
372.7106, 4437.076
373.1927, 4522.863
373.6749, 4587.230
374.1570, 4608.694
374.6391, 4586.228
375.1212, 4556.729
375.6033, 4529.438
376.0854, 4488.394
376.5676, 4422.489
377.0497, 4334.254
377.5318, 4231.379
378.0139, 4116.548
378.4960, 3991.988
378.9781, 3865.823
379.4603, 3734.705
379.9424, 3604.526
380.4245, 3474.232
380.9066, 3345.380
381.3887, 3217.046
381.8708, 3089.725
382.3530, 2967.811
382.8351, 2856.248
383.3172, 2756.687
383.7993, 2655.973
384.2814, 2550.529
384.7635, 2447.766
385.2457, 2347.191
385.7278, 2251.772
386.2099, 2166.988
386.6920, 2096.237
387.1741, 2035.511
387.6563, 1976.906
388.1384, 1920.181
388.6205, 1866.666
389.1026, 1818.595
389.5847, 1773.124
390.0668, 1726.681
390.5490, 1678.671
391.0311, 1635.464
391.5132, 1602.616
391.9953, 1577.352
392.4774, 1554.478
392.9595, 1533.749
393.4417, 1512.254
393.9238, 1485.894
394.4059, 1455.327
394.8880, 1430.757
395.3701, 1413.777
395.8522, 1401.946
396.3344, 1394.747
396.8165, 1391.603
397.2986, 1391.916
397.7807, 1395.725
398.2628, 1401.334
398.7449, 1404.579
399.2271, 1400.988
399.7092, 1401.671
400.1913, 1408.981
400.6734, 1418.703
401.1555, 1426.708
401.6376, 1433.352
402.1198, 1442.505
402.6019, 1456.778
403.0840, 1476.397
403.5661, 1506.635
404.0482, 1555.522
404.5303, 1604.829
405.0125, 1644.232
405.4946, 1682.143
405.9767, 1729.682
406.4588, 1791.619
406.9409, 1861.529
407.4230, 1928.729
407.9052, 1993.505
408.3873, 2071.523
408.8694, 2164.608
409.3515, 2275.171
409.8336, 2405.088
410.3157, 2553.492
410.7979, 2715.120
411.2800, 2882.385
411.7621, 3065.209
412.2442, 3274.752
412.7263, 3510.852
413.2084, 3770.660
413.6906, 4053.591
414.1727, 4358.905
414.6548, 4695.155
415.1369, 5066.111
415.6190, 5455.016
416.1011, 5851.671
416.5833, 6268.114
417.0654, 6725.983
417.5475, 7227.645
418.0296, 7742.046
418.5117, 8237.555
418.9938, 8720.918
419.4760, 9154.854
419.9581, 9574.622
420.4402, 9907.004
420.9223, 10135.54
421.4044, 10256.15
421.8865, 10262.81
422.3687, 10151.24
422.8508, 9927.458
423.3329, 9591.349
423.8150, 9132.604
424.2971, 8622.902
424.7792, 8038.365
425.2614, 7450.140
425.7435, 6921.642
426.2256, 6458.366
426.7077, 6033.813
427.1898, 5648.519
427.6719, 5293.851
428.1541, 4947.659
428.6362, 4608.642
429.1183, 4308.686
429.6004, 4071.858
430.0825, 3893.465
430.5646, 3725.693
431.0468, 3563.858
431.5289, 3416.748
432.0110, 3285.170
432.4931, 3171.051
432.9752, 3078.970
433.4573, 3009.670
433.9395, 2956.142
434.4216, 2908.351
434.9037, 2864.167
435.3858, 2835.572
435.8679, 2821.193
436.3500, 2823.777
436.8322, 2855.677
437.3143, 2904.409
437.7964, 2945.063
438.2785, 2962.240
438.7606, 2972.165
439.2427, 3008.014
439.7249, 3073.955
440.2070, 3137.851
440.6891, 3196.771
441.1712, 3245.015
441.6533, 3273.149
442.1354, 3281.222
442.6176, 3295.823
443.0997, 3341.714
443.5818, 3394.120
444.0639, 3418.551
444.5460, 3413.438
445.0281, 3396.827
445.5103, 3379.472
445.9924, 3360.186
446.4745, 3332.523
446.9566, 3303.640
447.4387, 3259.134
447.9208, 3190.871
448.4030, 3108.864
448.8851, 3021.313
449.3672, 2931.192
449.8493, 2839.266
450.3314, 2747.289
450.8135, 2655.635
451.2957, 2555.964
451.7778, 2437.763
452.2599, 2324.573
452.7420, 2220.662
453.2241, 2126.910
453.7062, 2045.810
454.1884, 1980.030
454.6705, 1918.884
455.1526, 1847.226
455.6347, 1766.116
456.1168, 1694.521
456.5989, 1638.211
457.0811, 1589.043
457.5632, 1539.138
458.0453, 1488.602
458.5274, 1441.996
459.0095, 1399.395
459.4916, 1361.412
459.9738, 1331.939
460.4559, 1308.080
460.9380, 1280.976
461.4201, 1246.195
461.9022, 1206.540
462.3843, 1167.355
462.8665, 1123.341
463.3486, 1090.202
463.8307, 1074.782
464.3128, 1063.845
464.7949, 1050.790
465.2770, 1034.723
465.7592, 1016.112
466.2413, 994.1570
466.7234, 971.0428
467.2055, 955.5964
467.6876, 951.2226
468.1697, 944.4679
468.6519, 929.4415
469.1340, 910.8879
469.6161, 891.6971
470.0982, 871.9794
470.5803, 855.0377
471.0624, 844.4010
471.5446, 837.1600
472.0267, 828.2555
472.5088, 817.1589
472.9909, 806.0745
473.4730, 796.2078
473.9551, 787.5918
474.4373, 780.6546
474.9194, 780.2932
475.4015, 775.1302
475.8836, 758.7095
476.3657, 738.5811
476.8478, 721.6261
477.3300, 709.7390
477.8121, 703.0301
478.2942, 702.5351
478.7763, 708.4125
479.2584, 712.3477
479.7405, 714.9604
480.2227, 714.5323
480.7048, 709.3358
481.1869, 701.6351
481.6690, 694.4105
482.1511, 688.5918
482.6332, 682.5388
483.1154, 672.9584
483.5975, 661.5657
484.0796, 656.0069
484.5617, 658.6627
485.0438, 662.8748
485.5259, 662.5180
486.0081, 657.9249
486.4902, 655.9184
486.9723, 661.7529
487.4544, 664.6157
487.9365, 656.5529
488.4186, 643.3676
488.9008, 634.4114
489.3829, 632.7733
489.8650, 634.9337
490.3471, 636.2000
490.8292, 636.4207
491.3113, 636.4738
491.7935, 637.7452
492.2756, 637.3133
492.7577, 632.5889
493.2398, 625.8748
493.7219, 621.1033
494.2040, 620.0930
494.6862, 620.4854
495.1683, 619.1609
495.6504, 616.4268
496.1325, 615.5206
496.6146, 618.1946
497.0967, 620.3133
497.5789, 615.7529
498.0610, 605.2949
498.5431, 600.7714
499.0252, 611.2413
499.5073, 620.0975
499.9895, 616.1053
500.4716, 603.8854
500.9537, 592.5676
501.4358, 585.6544
501.9179, 581.7673
502.4001, 578.7989
502.8822, 576.7324
503.3643, 575.6946
503.8464, 576.9196
504.3285, 577.9772
504.8106, 576.5090
505.2928, 574.4875
505.7749, 576.5412
506.2570, 586.2632
506.7391, 596.0045
507.2212, 594.7178
507.7033, 583.3898
508.1855, 571.6948
508.6676, 560.0716
509.1497, 552.3814
509.6318, 556.0079
510.1139, 570.1942
510.5960, 576.4722
511.0782, 565.5270
511.5603, 553.9360
512.0424, 551.0151
512.5245, 553.9387
513.0066, 557.1107
513.4887, 558.3906
513.9708, 558.5897
514.4529, 558.9251
514.9351, 559.5047
515.4172, 559.7533
515.8993, 558.5977
516.3814, 558.2557
516.8635, 561.0248
517.3456, 564.8365
517.8278, 565.8514
518.3099, 562.0814
518.7920, 556.8688
519.2741, 553.3690
519.7562, 551.4886
520.2383, 550.8905
520.7205, 551.7512
521.2026, 553.0384
521.6847, 553.8738
522.1668, 554.2261
522.6489, 554.3192
523.1310, 553.2299
523.6132, 552.8986
524.0953, 555.7504
524.5774, 559.2511
525.0595, 559.5273
525.5416, 555.4954
526.0237, 549.4053
526.5059, 543.4432
526.9880, 537.4042
527.4701, 534.2726
527.9522, 535.1147
528.4343, 537.4379
528.9164, 541.2495
529.3986, 545.4158
529.8807, 548.7893
530.3628, 551.6099
530.8449, 551.5786
531.3270, 542.8319
531.8091, 530.6701
532.2913, 528.9578
532.7734, 540.0679
533.2555, 551.0161
533.7376, 550.3807
534.2197, 539.9058
534.7018, 537.2858
535.1840, 549.6418
535.6661, 560.0001
536.1482, 563.5758
536.6303, 565.2132
537.1124, 570.6102
537.5945, 579.8845
538.0767, 587.5629
538.5588, 587.1700
539.0409, 581.1559
539.5230, 582.9498
540.0051, 595.0703
540.4872, 606.5481
540.9694, 612.9462
541.4515, 616.5387
541.9336, 619.2158
542.4157, 620.3392
542.8978, 625.4653
543.3799, 637.0159
543.8621, 653.3598
544.3442, 674.6404
544.8263, 699.6173
545.3084, 723.8116
545.7905, 744.6097
546.2726, 763.0519
546.7548, 781.1717
547.2369, 795.0950
547.7190, 816.6143
548.2011, 850.5032
548.6832, 887.5156
549.1653, 923.4079
549.6475, 957.9468
550.1296, 992.3138
550.6117, 1028.589
551.0938, 1062.371
551.5759, 1086.375
552.0580, 1101.269
552.5402, 1113.295
553.0223, 1125.480
553.5044, 1131.477
553.9865, 1123.250
554.4686, 1099.127
554.9507, 1072.633
555.4329, 1043.630
555.9150, 1012.551
556.3971, 979.1065
556.8792, 943.7456
557.3613, 906.0981
557.8434, 866.3480
558.3256, 827.2036
558.8077, 792.0198
559.2898, 760.8278
559.7719, 730.8026
560.2540, 700.4373
560.7361, 674.0737
561.2183, 655.9275
561.7004, 642.3430
562.1825, 629.1042
562.6646, 615.2151
563.1467, 603.1635
563.6288, 596.3550
564.1110, 590.8722
564.5931, 580.4470
565.0752, 565.1429
565.5573, 550.2653
566.0394, 539.1862
566.5215, 531.6075
567.0037, 526.8388
567.4858, 528.2809
567.9679, 526.4702
568.4500, 516.1474
568.9321, 506.6752
569.4142, 505.8872
569.8964, 511.6779
570.3785, 515.1644
570.8606, 509.7649
571.3427, 501.9237
571.8248, 501.9458
572.3069, 508.5859
572.7891, 512.9636
573.2712, 512.5481
573.7533, 509.0037
574.2354, 503.1082
574.7175, 494.0692
575.1996, 490.6710
575.6818, 500.6328
576.1639, 507.1075
576.6460, 499.8475
577.1281, 487.4445
577.6102, 482.0907
578.0923, 486.7332
578.5745, 493.8407
579.0566, 495.0301
579.5387, 491.1036
580.0208, 489.2822
580.5029, 490.4221
580.9850, 490.7883
581.4672, 488.2667
581.9493, 484.0338
582.4315, 480.1205
582.9136, 476.2377
583.3957, 473.7907
583.8778, 472.6032
584.3599, 473.4593
584.8420, 478.8159
585.3242, 487.0784
585.8063, 493.2748
586.2884, 494.6700
586.7705, 492.8897
587.2526, 491.9026
587.7347, 492.9688
588.2169, 489.5285
588.6990, 476.2821
589.1811, 464.0163
589.6632, 457.4355
590.1453, 456.2376
590.6274, 460.4118
591.1096, 474.4466
591.5917, 485.6725
592.0738, 483.0536
592.5559, 472.2136
593.0380, 462.2108
593.5201, 455.0751
594.0023, 452.2735
594.4844, 455.7838
594.9665, 464.5634
595.4486, 470.1046
595.9307, 469.6678
596.4128, 470.2888
596.8950, 475.7861
597.3771, 480.2935
597.8592, 477.7511
598.3413, 469.3010
598.8234, 462.6600
599.3055, 463.1787
599.7877, 466.9554
600.2698, 469.4088
600.7519, 470.5986
601.2340, 470.2924
601.7161, 468.0371
602.1982, 466.4301
602.6804, 469.3029
603.1625, 477.7682
603.6446, 481.4542
604.1267, 475.8119
604.6088, 471.2892
605.0909, 472.7134
605.5731, 475.6076
606.0552, 473.5924
606.5373, 465.8300
607.0194, 458.9812
607.5015, 460.2648
607.9836, 466.6239
608.4658, 469.6132
608.9479, 468.9818
609.4300, 467.4954
609.9121, 466.0323
610.3942, 464.7821
610.8763, 463.9240
611.3585, 463.0008
611.8406, 464.1079
612.3227, 470.0162
