##NAMES=Gillespite
##RRUFFID=R060060
##IDEAL CHEMISTRY=BaFe^2+^Si_4_O_10_
##LOCALITY=Incline, California, USA
##OWNER=RRUFF
##SOURCE=University of Arizona Mineral Museum
##DESCRIPTION=Salmon-red platelets associated with white sanbornite
##STATUS=The identification of this mineral has been confirmed by X-ray diffraction and chemical analysis
##URL=rruff.info/R060060
##MEASURED CHEMISTRY=Ba_1.00_(Fe^2+^_0.99_Fe^3+^_0.01_)_Σ=1_(Si_3.99_Al_0.01_)_Σ=4_O_10_
104.4330, 165.0312
104.9152, 173.0490
105.3973, 180.9698
105.8794, 188.4691
106.3615, 194.6987
106.8436, 202.1569
107.3257, 211.9398
107.8079, 224.7247
108.2900, 235.9777
108.7721, 243.1802
109.2542, 249.6566
109.7363, 260.3810
110.2184, 279.6033
110.7006, 299.0300
111.1827, 315.9152
111.6648, 327.3441
112.1469, 342.1509
112.6290, 362.4595
113.1111, 386.1484
113.5933, 409.6718
114.0754, 431.0754
114.5575, 453.0996
115.0396, 477.0666
115.5217, 505.9501
116.0038, 533.3022
116.4859, 557.7258
116.9681, 579.4352
117.4502, 599.1965
117.9323, 618.6320
118.4144, 635.5114
118.8965, 648.2338
119.3786, 656.8635
119.8608, 660.7900
120.3429, 659.2181
120.8250, 652.2780
121.3071, 641.4566
121.7892, 626.1172
122.2713, 607.7069
122.7535, 587.9608
123.2356, 565.7300
123.7177, 543.5432
124.1998, 523.8151
124.6819, 506.3746
125.1640, 489.7545
125.6462, 471.9766
126.1283, 453.9023
126.6104, 437.3442
127.0925, 422.9840
127.5746, 410.6382
128.0567, 400.3731
128.5389, 392.2161
129.0210, 385.5673
129.5031, 380.3280
129.9852, 376.2646
130.4673, 372.4367
130.9494, 368.7520
131.4316, 364.8289
131.9137, 358.2818
132.3958, 348.5719
132.8779, 338.5748
133.3600, 328.9277
133.8421, 319.7033
134.3243, 312.3511
134.8064, 308.6365
135.2885, 308.2199
135.7706, 307.0078
136.2527, 304.4814
136.7348, 300.9325
137.2169, 297.0273
137.6991, 292.6306
138.1812, 288.2958
138.6633, 284.6895
139.1454, 281.9789
139.6275, 278.2823
140.1096, 272.9916
140.5918, 266.4625
141.0739, 261.1328
141.5560, 257.6450
142.0381, 254.1798
142.5202, 248.9615
143.0023, 241.4240
143.4845, 233.9133
143.9666, 226.9510
144.4487, 220.4828
144.9308, 213.9075
145.4129, 206.6503
145.8951, 199.7720
146.3772, 194.2246
146.8593, 190.5686
147.3414, 187.4017
147.8235, 184.6664
148.3056, 182.5741
148.7878, 179.7018
149.2699, 175.1594
149.7520, 170.1753
150.2341, 166.4404
150.7162, 165.4735
151.1983, 164.0989
151.6805, 161.3009
152.1626, 156.1810
152.6447, 152.0096
153.1268, 149.1577
153.6089, 147.1608
154.0910, 145.2758
154.5732, 143.8703
155.0553, 142.1991
155.5374, 139.9840
156.0195, 136.9501
156.5016, 133.9089
156.9837, 130.7999
157.4659, 127.7680
157.9480, 125.1091
158.4301, 122.8260
158.9122, 120.9917
159.3943, 119.7222
159.8764, 119.3962
160.3586, 119.0252
160.8407, 118.6263
161.3228, 118.0315
161.8049, 116.7674
162.2870, 113.5669
162.7691, 110.3134
163.2512, 108.2993
163.7334, 108.7811
164.2155, 109.2362
164.6976, 108.5174
165.1797, 106.8576
165.6618, 105.1655
166.1439, 103.7811
166.6261, 102.6057
167.1082, 101.5701
167.5903, 100.7719
168.0724, 99.98479
168.5545, 98.90292
169.0366, 97.61674
169.5188, 96.69062
170.0009, 97.08659
170.4830, 97.82842
170.9651, 97.77402
171.4472, 95.75069
171.9293, 93.45119
172.4115, 92.36318
172.8936, 92.39807
173.3757, 92.50895
173.8578, 92.17463
174.3399, 91.39145
174.8220, 90.13786
175.3042, 87.89359
175.7863, 85.47273
176.2684, 83.62355
176.7505, 82.34349
177.2326, 81.64164
177.7147, 81.84381
178.1969, 82.64497
178.6790, 83.38366
179.1611, 83.83846
179.6432, 84.05974
180.1253, 84.15730
180.6074, 84.13957
181.0896, 83.84862
181.5717, 82.96265
182.0538, 81.64044
182.5359, 80.34717
183.0180, 79.17670
183.5001, 78.20432
183.9823, 77.67513
184.4644, 77.62720
184.9465, 77.78957
185.4286, 78.05972
185.9107, 78.36177
186.3928, 78.28155
186.8750, 77.38509
187.3571, 75.95103
187.8392, 74.82973
188.3213, 74.07352
188.8034, 73.49429
189.2855, 72.83279
189.7677, 72.11117
190.2498, 71.53335
190.7319, 71.20885
191.2140, 71.11748
191.6961, 71.18103
192.1782, 71.41987
192.6603, 71.74264
193.1425, 72.18108
193.6246, 72.73314
194.1067, 72.84586
194.5888, 71.94562
195.0709, 70.17018
195.5530, 68.90569
196.0352, 68.16383
196.5173, 67.95892
196.9994, 68.59546
197.4815, 70.16341
197.9636, 71.42522
198.4457, 71.70399
198.9279, 70.98778
199.4100, 70.11140
199.8921, 68.97165
200.3742, 67.87638
200.8563, 67.49756
201.3384, 67.93817
201.8206, 68.45226
202.3027, 68.69878
202.7848, 68.66591
203.2669, 68.51137
203.7490, 68.22433
204.2311, 67.83824
204.7133, 67.43165
205.1954, 67.02232
205.6775, 66.52443
206.1596, 65.75240
206.6417, 64.58080
207.1238, 64.09145
207.6060, 64.55248
208.0881, 65.47813
208.5702, 65.67274
209.0523, 64.83221
209.5344, 64.19200
210.0165, 64.59106
210.4987, 66.44244
210.9808, 67.24909
211.4629, 66.48003
211.9450, 64.98790
212.4271, 64.96774
212.9092, 67.10381
213.3914, 69.00617
213.8735, 69.28408
214.3556, 67.29181
214.8377, 66.20083
215.3198, 66.40083
215.8019, 67.36522
216.2841, 67.85576
216.7662, 67.86149
217.2483, 67.43678
217.7304, 66.43476
218.2125, 64.46162
218.6946, 63.24818
219.1767, 63.10149
219.6589, 63.60783
220.1410, 63.72546
220.6231, 63.27308
221.1052, 62.77009
221.5873, 62.42315
222.0694, 62.21989
222.5516, 62.25301
223.0337, 62.72437
223.5158, 63.35052
223.9979, 63.31926
224.4800, 62.01530
224.9621, 61.12397
225.4443, 61.60686
225.9264, 64.48807
226.4085, 66.08071
226.8906, 65.89598
227.3727, 64.62035
227.8548, 63.85959
228.3370, 63.79485
228.8191, 63.95842
229.3012, 64.16893
229.7833, 64.40165
230.2654, 64.77020
230.7475, 65.43812
231.2297, 66.17838
231.7118, 66.43147
232.1939, 65.89399
232.6760, 65.35542
233.1581, 65.06116
233.6402, 64.88889
234.1224, 65.37629
234.6045, 67.02252
235.0866, 69.13568
235.5687, 70.15832
236.0508, 69.47218
236.5329, 68.70730
237.0151, 68.54433
237.4972, 69.33868
237.9793, 69.62729
238.4614, 69.02010
238.9435, 68.08461
239.4256, 67.98324
239.9078, 69.20316
240.3899, 70.47359
240.8720, 71.35921
241.3541, 71.75996
241.8362, 72.12604
242.3183, 72.47949
242.8005, 72.79212
243.2826, 73.01462
243.7647, 73.12206
244.2468, 73.17908
244.7289, 73.19592
245.2110, 73.15762
245.6931, 73.15684
246.1753, 73.28986
246.6574, 73.39843
247.1395, 73.20201
247.6216, 72.48750
248.1037, 71.84276
248.5858, 71.48357
249.0680, 71.50060
249.5501, 71.27441
250.0322, 70.53284
250.5143, 69.75993
250.9964, 69.71111
251.4785, 70.99641
251.9607, 71.86407
252.4428, 71.59767
252.9249, 69.93942
253.4070, 69.50733
253.8891, 71.07632
254.3712, 73.14786
254.8534, 73.83234
255.3355, 72.34743
255.8176, 71.05618
256.2997, 70.48139
256.7818, 70.64980
257.2639, 71.10120
257.7461, 71.99383
258.2282, 72.99477
258.7103, 73.73613
259.1924, 74.13115
259.6745, 74.49519
260.1566, 74.96693
260.6388, 75.53865
261.1209, 75.57135
261.6030, 74.78247
262.0851, 73.84813
262.5672, 73.35323
263.0493, 73.29465
263.5315, 73.71262
264.0136, 74.81054
264.4957, 76.46919
264.9778, 77.60995
265.4599, 78.08082
265.9420, 78.28285
266.4242, 78.49861
266.9063, 78.71934
267.3884, 78.98009
267.8705, 79.23831
268.3526, 79.53673
268.8347, 80.12074
269.3169, 81.03088
269.7990, 82.12700
270.2811, 83.40147
270.7632, 84.94456
271.2453, 86.23588
271.7274, 87.22327
272.2096, 87.92516
272.6917, 88.30568
273.1738, 88.14208
273.6559, 88.31424
274.1380, 89.46230
274.6201, 91.76409
275.1023, 94.03807
275.5844, 96.32079
276.0665, 98.41715
276.5486, 99.78423
277.0307, 100.2077
277.5128, 100.7606
277.9950, 102.1701
278.4771, 104.5326
278.9592, 106.3685
279.4413, 107.4942
279.9234, 108.3056
280.4055, 109.3814
280.8877, 110.6746
281.3698, 112.5974
281.8519, 115.6749
282.3340, 119.8960
282.8161, 123.4816
283.2982, 126.4299
283.7804, 128.7384
284.2625, 130.0146
284.7446, 130.2151
285.2267, 130.8702
285.7088, 132.7046
286.1909, 135.5712
286.6730, 138.5578
287.1552, 141.7357
287.6373, 144.7489
288.1194, 146.8800
288.6015, 148.2111
289.0836, 149.9566
289.5657, 152.6540
290.0479, 156.0522
290.5300, 159.3721
291.0121, 162.6051
291.4942, 165.5820
291.9763, 168.0083
292.4584, 169.9482
292.9406, 171.9292
293.4227, 174.0969
293.9048, 176.3593
294.3869, 178.4145
294.8690, 180.2709
295.3511, 182.2581
295.8333, 184.7683
296.3154, 187.6518
296.7975, 190.5834
297.2796, 193.6414
297.7617, 196.4452
298.2438, 198.2262
298.7260, 199.0603
299.2081, 199.6684
299.6902, 200.7529
300.1723, 201.9384
300.6544, 202.4535
301.1365, 202.1231
301.6187, 201.2457
302.1008, 200.2442
302.5829, 199.0313
303.0650, 197.2290
303.5471, 194.2343
304.0292, 190.6533
304.5114, 187.2669
304.9935, 184.0674
305.4756, 181.3424
305.9577, 179.7264
306.4398, 178.7826
306.9219, 177.4934
307.4041, 174.9577
307.8862, 172.0623
308.3683, 169.7178
308.8504, 168.0107
309.3325, 166.2652
309.8146, 163.9222
310.2968, 161.2586
310.7789, 158.6504
311.2610, 156.2488
311.7431, 153.9890
312.2252, 151.6719
312.7073, 149.3391
313.1895, 147.5195
313.6716, 146.7619
314.1537, 146.5736
314.6358, 146.4451
315.1179, 145.8584
315.6000, 145.6874
316.0822, 146.7448
316.5643, 148.7287
317.0464, 150.3905
317.5285, 150.4658
318.0106, 150.4475
318.4927, 151.4376
318.9749, 154.1039
319.4570, 157.0352
319.9391, 159.4999
320.4212, 161.8341
320.9033, 164.8833
321.3854, 169.0777
321.8676, 173.9046
322.3497, 179.2803
322.8318, 185.5149
323.3139, 191.3349
323.7960, 196.3094
324.2781, 200.7253
324.7603, 205.0815
325.2424, 210.7017
325.7245, 215.1054
326.2066, 217.5025
326.6887, 217.7059
327.1708, 216.8675
327.6530, 215.6398
328.1351, 213.1643
328.6172, 208.6471
329.0993, 199.9996
329.5814, 191.5633
330.0635, 183.6683
330.5457, 176.3214
331.0278, 169.7782
331.5099, 163.7869
331.9920, 158.7678
332.4741, 155.1407
332.9562, 153.5610
333.4384, 152.1549
333.9205, 150.6902
334.4026, 149.3157
334.8847, 148.5636
335.3668, 148.6451
335.8489, 149.0387
336.3311, 149.4971
336.8132, 149.9664
337.2953, 150.6703
337.7774, 151.6437
338.2595, 152.8191
338.7416, 154.2387
339.2238, 156.2740
339.7059, 157.4520
340.1880, 156.8375
340.6701, 154.3322
341.1522, 153.1202
341.6343, 153.5128
342.1164, 154.5008
342.5985, 154.9193
343.0807, 154.7169
343.5628, 154.4450
344.0449, 154.1882
344.5270, 153.9856
345.0091, 154.1032
345.4912, 154.6079
345.9734, 154.9714
346.4555, 154.5765
346.9376, 153.5307
347.4197, 152.6856
347.9018, 152.0888
348.3839, 151.9296
348.8661, 152.7442
349.3482, 154.4732
349.8303, 156.3483
350.3124, 157.7789
350.7945, 158.9996
351.2766, 160.6696
351.7588, 162.9203
352.2409, 165.4349
352.7230, 167.7741
353.2051, 170.0746
353.6872, 172.7952
354.1693, 176.2066
354.6515, 180.1190
355.1336, 184.2012
355.6157, 188.4939
356.0978, 193.2799
356.5799, 199.1806
357.0620, 205.6905
357.5442, 212.0583
358.0263, 217.9563
358.5084, 223.6661
358.9905, 229.2839
359.4726, 234.8608
359.9547, 240.8078
360.4369, 247.2039
360.9190, 254.0789
361.4011, 261.4830
361.8832, 269.6147
362.3653, 277.9072
362.8474, 286.2957
363.3296, 294.6623
363.8117, 302.7945
364.2938, 310.1895
364.7759, 317.5809
365.2580, 325.1611
365.7401, 332.8223
366.2223, 341.2378
366.7044, 351.4827
367.1865, 362.1900
367.6686, 371.9989
368.1507, 379.2476
368.6328, 386.9724
369.1150, 396.3703
369.5971, 407.4929
370.0792, 417.0314
370.5613, 424.4237
371.0434, 430.5391
371.5255, 435.8177
372.0077, 439.5116
372.4898, 443.6253
372.9719, 449.1097
373.4540, 455.0632
373.9361, 458.6728
374.4182, 459.7076
374.9004, 458.7343
375.3825, 455.8199
375.8646, 450.7454
376.3467, 444.6811
376.8288, 437.4753
377.3109, 429.3990
377.7931, 420.4946
378.2752, 410.4764
378.7573, 400.8764
379.2394, 392.6085
379.7215, 385.2768
380.2036, 374.9254
380.6858, 361.2834
381.1679, 346.7934
381.6500, 333.4670
382.1321, 321.2135
382.6142, 310.5667
383.0963, 301.9575
383.5785, 294.3511
384.0606, 285.2609
384.5427, 274.9822
385.0248, 265.0372
385.5069, 256.3982
385.9890, 248.8553
386.4712, 242.2395
386.9533, 236.6183
387.4354, 231.5066
387.9175, 227.1256
388.3996, 223.0000
388.8817, 218.0066
389.3639, 210.3122
389.8460, 202.4117
390.3281, 196.8140
390.8102, 193.4614
391.2923, 190.9511
391.7744, 188.3888
392.2566, 186.1658
392.7387, 184.7754
393.2208, 185.2195
393.7029, 185.1996
394.1850, 182.9529
394.6671, 179.2741
395.1493, 176.2442
395.6314, 174.4067
396.1135, 173.6187
396.5956, 173.9340
397.0777, 175.5757
397.5598, 177.4629
398.0419, 179.2367
398.5240, 181.1706
399.0062, 183.5788
399.4883, 185.8789
399.9704, 189.3231
400.4525, 194.7149
400.9346, 202.0011
401.4167, 208.3372
401.8989, 212.1722
402.3810, 216.4450
402.8631, 222.9418
403.3452, 232.6201
403.8273, 242.6745
404.3094, 252.7690
404.7916, 263.1935
405.2737, 274.6687
405.7558, 287.6750
406.2379, 300.5974
406.7200, 312.6959
407.2021, 323.8941
407.6843, 336.3654
408.1664, 350.2498
408.6485, 364.7923
409.1306, 378.8645
409.6127, 392.5250
410.0948, 406.4274
410.5770, 420.5861
411.0591, 435.2667
411.5412, 450.5847
412.0233, 466.6830
412.5054, 484.3150
412.9875, 504.1533
413.4697, 525.9435
413.9518, 549.0338
414.4339, 573.2108
414.9160, 598.2972
415.3981, 623.1294
415.8802, 648.3326
416.3624, 676.7281
416.8445, 712.2120
417.3266, 749.7315
417.8087, 785.1027
418.2908, 818.0283
418.7729, 850.3782
419.2551, 884.1559
419.7372, 917.2559
420.2193, 947.4188
420.7014, 975.6191
421.1835, 998.4388
421.6656, 1015.779
422.1478, 1026.492
422.6299, 1027.981
423.1120, 1017.189
423.5941, 998.7576
424.0762, 974.2248
424.5583, 942.6749
425.0405, 908.3997
425.5226, 871.4081
426.0047, 832.0571
426.4868, 790.9352
426.9689, 744.0450
427.4510, 700.7383
427.9332, 663.1036
428.4153, 630.5944
428.8974, 600.1644
429.3795, 571.7585
429.8616, 545.8691
430.3438, 522.9587
430.8259, 503.1092
431.3080, 485.0777
431.7901, 468.7769
432.2722, 454.4312
432.7543, 442.0876
433.2365, 431.8891
433.7186, 422.9001
434.2007, 414.8218
434.6828, 407.7186
435.1649, 401.8458
435.6470, 397.2045
436.1292, 393.7162
436.6113, 391.6409
437.0934, 390.6945
437.5755, 390.0065
438.0576, 389.4209
438.5397, 389.0690
439.0219, 389.0350
439.5040, 389.3549
439.9861, 390.1314
440.4682, 391.8295
440.9503, 393.7629
441.4324, 395.2136
441.9146, 396.1610
442.3967, 397.1229
442.8788, 399.2469
443.3609, 401.1943
443.8430, 401.5432
444.3251, 399.3476
444.8073, 396.3282
445.2894, 392.8027
445.7715, 388.8856
446.2536, 384.8743
446.7357, 381.9186
447.2178, 377.9115
447.7000, 371.8696
448.1821, 363.2814
448.6642, 354.3343
449.1463, 345.1357
449.6284, 335.5901
450.1105, 325.4448
450.5927, 314.1776
451.0747, 303.1985
451.5569, 292.5221
452.0390, 282.2625
452.5211, 272.5354
453.0032, 263.6381
453.4853, 254.7094
453.9674, 245.2079
454.4496, 235.0109
454.9317, 225.7856
455.4138, 217.6860
455.8959, 210.3148
456.3780, 203.0975
456.8601, 196.0703
457.3423, 189.9633
457.8244, 185.5635
458.3065, 181.7564
458.7886, 176.2920
459.2707, 169.2733
459.7528, 162.3006
460.2350, 155.9658
460.7171, 150.3773
461.1992, 145.5959
461.6813, 141.6829
462.1634, 138.4784
462.6455, 136.3692
463.1277, 134.7564
463.6098, 132.7107
464.0919, 129.4101
464.5740, 126.0366
465.0561, 123.1810
465.5382, 120.7760
466.0204, 118.2736
466.5025, 114.9138
466.9846, 111.8077
467.4667, 109.6808
467.9488, 109.2009
468.4309, 108.4178
468.9131, 107.1898
469.3952, 105.6128
469.8773, 103.7626
470.3594, 101.1933
470.8415, 99.05258
471.3236, 97.73631
471.8058, 97.12516
472.2879, 95.97139
472.7700, 94.01316
473.2521, 92.16785
473.7342, 91.30243
474.2163, 91.52920
474.6985, 90.61183
475.1806, 88.06294
475.6627, 85.26724
476.1448, 84.42646
476.6269, 85.31606
477.1090, 86.04603
477.5912, 85.95203
478.0733, 85.26518
478.5554, 84.21085
479.0375, 82.83481
479.5196, 81.62852
480.0017, 80.95555
480.4839, 80.63085
480.9660, 80.56953
481.4481, 80.91927
481.9302, 80.84576
482.4123, 79.20403
482.8944, 76.91238
483.3766, 75.32472
483.8587, 75.66786
484.3408, 76.04295
484.8229, 75.58263
485.3050, 74.38744
485.7871, 73.46837
486.2693, 73.42393
486.7514, 73.38219
487.2335, 72.84633
487.7156, 71.40403
488.1977, 70.38575
488.6798, 69.98891
489.1620, 69.87399
489.6441, 69.59502
490.1262, 69.06131
490.6083, 68.57913
491.0904, 68.16659
491.5725, 67.86409
492.0547, 68.02622
492.5368, 68.79457
493.0189, 69.23416
493.5010, 68.49715
493.9831, 66.79221
494.4652, 65.46739
494.9474, 64.59042
495.4295, 64.13924
495.9116, 64.44141
496.3937, 65.18235
496.8758, 65.45848
497.3579, 64.83483
497.8401, 63.77996
498.3222, 62.35416
498.8043, 60.80222
499.2864, 60.01387
499.7685, 61.27303
500.2506, 62.92886
500.7328, 63.75334
501.2149, 63.52315
501.6970, 63.03959
502.1791, 62.34389
502.6612, 61.64554
503.1433, 61.14257
503.6255, 60.70473
504.1076, 60.66185
504.5897, 61.45897
505.0718, 62.69651
505.5539, 63.16916
506.0360, 62.38859
506.5181, 61.58543
507.0002, 61.25557
507.4824, 61.44604
507.9645, 61.21722
508.4466, 60.40142
508.9287, 59.56455
509.4108, 59.24645
509.8929, 59.44340
510.3751, 59.80128
510.8572, 60.33908
511.3393, 60.88145
511.8214, 60.98695
512.3035, 60.76942
512.7856, 60.83731
513.2678, 61.98212
513.7499, 63.34980
514.2320, 63.62358
514.7141, 62.86647
515.1962, 61.96941
515.6783, 61.55781
516.1605, 61.26907
516.6426, 60.66639
517.1247, 59.39344
517.6068, 58.52205
518.0889, 58.76603
518.5710, 59.60200
519.0532, 60.27208
519.5353, 60.71714
520.0174, 60.89009
520.4995, 60.57519
520.9816, 59.87399
521.4637, 59.57619
521.9459, 59.98579
522.4280, 60.39846
522.9101, 60.40707
523.3922, 59.84482
523.8743, 59.78928
524.3564, 60.48707
524.8386, 61.19578
525.3207, 60.77352
525.8028, 59.23139
526.2849, 58.20685
526.7670, 58.19448
527.2491, 58.73330
527.7313, 58.97330
528.2134, 58.96606
528.6955, 59.00468
529.1776, 59.25194
529.6597, 59.64351
530.1418, 60.17139
530.6240, 60.82176
531.1061, 61.36036
531.5882, 61.53734
532.0703, 61.56802
532.5524, 61.67081
533.0345, 62.00304
533.5167, 62.21530
533.9988, 61.82101
534.4809, 61.29749
534.9630, 61.45758
535.4451, 63.12818
535.9272, 64.71201
536.4094, 65.78603
536.8915, 66.40627
537.3736, 67.39914
537.8557, 68.97955
538.3378, 70.59370
538.8199, 72.03434
539.3021, 73.35458
539.7842, 73.92612
540.2663, 73.48954
540.7484, 73.01361
541.2305, 73.96336
541.7126, 76.14149
542.1948, 77.82610
542.6769, 78.31831
543.1590, 78.48111
543.6411, 79.65197
544.1232, 81.63121
544.6053, 83.66274
545.0875, 85.06806
545.5696, 86.53931
546.0517, 88.88475
546.5338, 92.11942
547.0159, 95.19229
547.4980, 97.46024
547.9802, 99.48836
548.4623, 101.7302
548.9444, 104.4363
549.4265, 107.0521
549.9086, 109.7513
550.3907, 112.2198
550.8729, 114.0054
551.3550, 114.5914
551.8371, 115.3969
552.3192, 116.9663
552.8013, 118.9917
553.2834, 119.8525
553.7656, 119.4739
554.2477, 118.1814
554.7298, 115.7189
555.2119, 112.2518
555.6940, 109.8325
556.1761, 108.6081
556.6583, 107.2124
557.1404, 104.1228
557.6225, 99.80980
558.1046, 95.38059
558.5867, 90.93339
559.0688, 86.72852
559.5510, 83.02651
560.0331, 79.75305
560.5152, 76.68311
560.9973, 73.40254
561.4794, 70.59585
561.9615, 68.85732
562.4437, 68.07750
562.9258, 67.12943
563.4079, 65.65456
563.8900, 64.07076
564.3721, 62.51662
564.8542, 60.82684
565.3364, 59.74090
565.8185, 59.60186
566.3006, 59.67936
566.7827, 59.21864
567.2648, 58.14894
567.7469, 56.90975
568.2291, 55.34233
568.7112, 53.96503
569.1933, 54.18425
569.6754, 55.82760
570.1575, 57.02144
570.6396, 56.63680
571.1218, 55.42086
571.6039, 54.35544
572.0860, 53.48121
572.5681, 53.04105
573.0502, 53.67766
573.5323, 54.54236
574.0145, 54.88374
574.4966, 54.53493
574.9787, 53.94283
575.4608, 52.85735
575.9429, 51.80659
576.4250, 51.32039
576.9072, 52.32321
577.3893, 52.81845
577.8714, 52.35775
578.3535, 51.37684
578.8356, 50.90481
579.3177, 51.15273
579.7999, 51.39083
580.2820, 51.39113
580.7641, 51.19016
581.2462, 50.96769
581.7283, 50.70184
582.2104, 50.63117
582.6926, 51.16660
583.1747, 52.02995
583.6568, 52.37872
584.1389, 52.13517
584.6210, 51.60314
585.1031, 50.89887
585.5853, 50.14089
586.0674, 49.46958
586.5495, 48.73479
587.0316, 48.41678
587.5137, 49.09444
587.9958, 50.31842
588.4779, 51.22230
588.9600, 51.52934
589.4421, 51.55003
589.9243, 51.23526
590.4064, 50.64112
590.8885, 50.25107
591.3706, 50.19663
591.8527, 50.13581
592.3348, 49.85052
592.8170, 49.29459
593.2991, 49.04401
593.7812, 49.14003
594.2633, 49.37749
594.7454, 49.56690
595.2275, 49.71962
595.7097, 49.90716
596.1918, 50.17566
596.6739, 50.37975
597.1560, 50.39218
597.6381, 50.20718
598.1202, 49.81330
598.6024, 48.91552
599.0845, 48.06980
599.5666, 47.59155
