##NAMES=Gillulyite
##RRUFFID=R070433
##IDEAL CHEMISTRY=Tl_2_As_8_S_13_
##LOCALITY=Mercur Gold mine, Mercur District (Camp Floyd District), Oquirrh Mountains, Tooele County, Utah, USA
##OWNER=RRUFF
##SOURCE=Michael Scott
##DESCRIPTION=Aggregate of vitreous dark red platy crystals associated with colorless barite and calcite
##STATUS=The identification of this mineral has been confirmed by single-crystal X-ray diffraction.
##URL=rruff.info/R070433
142.2089, 693.4217
142.6911, 705.5927
143.1732, 715.1010
143.6553, 723.4668
144.1374, 733.7004
144.6195, 746.9673
145.1016, 760.0416
145.5838, 771.2824
146.0659, 778.7381
146.5480, 788.9026
147.0301, 804.9383
147.5122, 824.0655
147.9943, 835.3880
148.4765, 831.7179
148.9586, 826.7757
149.4407, 827.9278
149.9228, 838.6262
150.4049, 850.9520
150.8870, 865.1173
151.3692, 881.0389
151.8513, 895.9233
152.3334, 912.4669
152.8155, 926.4008
153.2976, 934.8813
153.7797, 936.6448
154.2619, 933.9769
154.7440, 924.6574
155.2261, 906.6917
155.7082, 894.8123
156.1903, 900.4579
156.6724, 910.2161
157.1546, 908.0662
157.6367, 879.1895
158.1188, 848.2059
158.6009, 823.3142
159.0830, 805.9559
159.5652, 792.1673
160.0473, 783.3270
160.5294, 777.2903
161.0115, 770.0436
161.4936, 757.4554
161.9757, 745.2169
162.4579, 736.6743
162.9400, 734.2717
163.4221, 732.5504
163.9042, 727.7328
164.3863, 721.4631
164.8684, 719.2424
165.3506, 729.5124
165.8327, 741.9836
166.3148, 748.0005
166.7969, 738.1295
167.2790, 728.2884
167.7611, 728.0741
168.2433, 736.6129
168.7254, 746.2438
169.2075, 753.5248
169.6896, 759.1509
170.1717, 763.8898
170.6538, 767.9531
171.1360, 771.2841
171.6181, 772.3719
172.1002, 771.0565
172.5823, 772.6576
173.0644, 784.2875
173.5465, 801.3473
174.0287, 815.8034
174.5108, 823.6641
174.9929, 827.1956
175.4750, 827.4761
175.9571, 823.7545
176.4392, 821.6055
176.9214, 828.9999
177.4035, 842.7365
177.8856, 854.0286
178.3677, 856.8268
178.8498, 854.4363
179.3319, 852.1508
179.8141, 850.8800
180.2962, 849.0742
180.7783, 843.8407
181.2604, 835.9229
181.7425, 828.7314
182.2246, 825.4845
182.7068, 824.6536
183.1889, 822.1100
183.6710, 815.9335
184.1531, 809.4456
184.6352, 809.8448
185.1173, 816.7143
185.5995, 822.3480
186.0816, 818.5520
186.5637, 807.9435
187.0458, 800.2200
187.5279, 798.7288
188.0100, 800.9568
188.4922, 801.6988
188.9743, 800.9487
189.4564, 798.8840
189.9385, 795.2018
190.4206, 790.0892
190.9027, 785.0715
191.3849, 781.1531
191.8670, 777.6307
192.3491, 770.3504
192.8312, 758.1999
193.3133, 747.4521
193.7955, 747.3682
194.2776, 757.7095
194.7597, 766.6484
195.2418, 770.4160
195.7239, 769.1960
196.2060, 762.5408
196.6882, 748.4028
197.1703, 734.1182
197.6524, 732.7894
198.1345, 745.4007
198.6166, 756.2772
199.0987, 755.6502
199.5809, 743.5028
200.0630, 740.9167
200.5451, 751.2184
201.0272, 766.3536
201.5093, 770.1479
201.9914, 760.1397
202.4736, 751.2529
202.9557, 751.9014
203.4378, 762.9606
203.9199, 772.9967
204.4020, 780.9529
204.8841, 788.0026
205.3663, 798.1776
205.8484, 813.1483
206.3305, 825.6172
206.8126, 829.5038
207.2947, 822.6370
207.7768, 821.4386
208.2590, 829.9258
208.7411, 844.1566
209.2232, 849.2932
209.7053, 842.3757
210.1874, 833.4178
210.6695, 828.7610
211.1517, 828.8304
211.6338, 832.1929
212.1159, 841.8013
212.5980, 854.9707
213.0801, 853.8619
213.5622, 832.7543
214.0444, 808.1510
214.5265, 793.9052
215.0086, 792.8288
215.4907, 792.7177
215.9728, 791.8447
216.4549, 790.2686
216.9371, 788.6443
217.4192, 786.6669
217.9013, 785.1142
218.3834, 785.2835
218.8655, 788.6623
219.3476, 789.4800
219.8298, 784.7796
220.3119, 774.4910
220.7940, 771.5625
221.2761, 779.0054
221.7582, 790.3647
222.2403, 799.7946
222.7225, 809.1623
223.2046, 811.5336
223.6867, 802.0004
224.1688, 778.4531
224.6509, 767.1846
225.1330, 773.2864
225.6152, 786.7783
226.0973, 794.6160
226.5794, 793.9578
227.0615, 793.2687
227.5436, 794.5299
228.0257, 797.7988
228.5079, 803.2260
228.9900, 813.2003
229.4721, 823.5819
229.9542, 827.8090
230.4363, 822.2416
230.9185, 817.1515
231.4006, 815.6973
231.8827, 818.6772
232.3648, 821.9757
232.8469, 825.2531
233.3290, 829.0839
233.8112, 834.9410
234.2933, 845.2285
234.7754, 853.5334
235.2575, 857.5858
235.7396, 856.5527
236.2217, 853.5292
236.7039, 846.0363
237.1860, 837.6671
237.6681, 835.9507
238.1502, 844.3246
238.6323, 853.9093
239.1144, 861.0768
239.5966, 863.1997
240.0787, 870.4097
240.5608, 886.2073
241.0429, 905.8082
241.5250, 918.2040
242.0071, 920.1379
242.4893, 919.8045
242.9714, 920.3325
243.4535, 921.7269
243.9356, 923.7756
244.4177, 925.1816
244.8998, 927.5681
245.3820, 936.2085
245.8641, 956.8995
246.3462, 975.3612
246.8283, 983.9557
247.3104, 976.2703
247.7925, 974.0979
248.2747, 979.4313
248.7568, 990.0775
249.2389, 1000.312
249.7210, 1011.624
250.2031, 1020.269
250.6852, 1023.472
251.1674, 1016.764
251.6495, 1015.388
252.1316, 1021.134
252.6137, 1032.243
253.0958, 1042.912
253.5779, 1051.520
254.0601, 1062.264
254.5422, 1078.719
255.0243, 1106.274
255.5064, 1124.904
255.9885, 1130.444
256.4706, 1126.986
256.9528, 1127.594
257.4349, 1130.814
257.9170, 1140.563
258.3991, 1161.461
258.8812, 1200.872
259.3633, 1229.992
259.8455, 1244.259
260.3276, 1247.944
260.8097, 1255.782
261.2918, 1269.573
261.7739, 1284.339
262.2560, 1296.881
262.7382, 1305.436
263.2203, 1317.823
263.7024, 1336.869
264.1845, 1359.597
264.6666, 1375.085
265.1487, 1379.183
265.6309, 1384.357
266.1130, 1399.386
266.5951, 1428.792
267.0772, 1452.300
267.5593, 1467.612
268.0414, 1476.585
268.5236, 1483.294
269.0057, 1484.931
269.4878, 1491.211
269.9699, 1510.205
270.4520, 1545.494
270.9341, 1576.672
271.4163, 1601.600
271.8984, 1621.599
272.3805, 1639.453
272.8626, 1653.795
273.3447, 1670.574
273.8268, 1694.440
274.3090, 1726.411
274.7911, 1757.838
275.2732, 1787.430
275.7553, 1815.833
276.2374, 1845.744
276.7195, 1879.047
277.2017, 1907.617
277.6838, 1921.816
278.1659, 1919.425
278.6480, 1931.777
279.1301, 1965.704
279.6122, 2011.918
280.0944, 2051.318
280.5765, 2083.906
281.0586, 2108.245
281.5407, 2119.775
282.0229, 2118.359
282.5050, 2122.445
282.9871, 2134.583
283.4692, 2151.852
283.9513, 2169.905
284.4334, 2189.085
284.9156, 2205.010
285.3977, 2214.127
285.8798, 2216.855
286.3619, 2218.782
286.8440, 2220.360
287.3261, 2221.379
287.8083, 2223.157
288.2904, 2225.750
288.7725, 2223.154
289.2546, 2208.899
289.7367, 2185.241
290.2188, 2163.659
290.7010, 2144.316
291.1831, 2129.176
291.6652, 2124.654
292.1473, 2129.891
292.6294, 2133.450
293.1115, 2129.020
293.5937, 2117.732
294.0758, 2101.590
294.5579, 2078.740
295.0400, 2057.090
295.5221, 2050.320
296.0042, 2056.075
296.4864, 2060.760
296.9685, 2054.615
297.4506, 2042.286
297.9327, 2035.364
298.4148, 2035.346
298.8969, 2037.418
299.3791, 2035.455
299.8612, 2030.580
300.3433, 2026.701
300.8254, 2028.168
301.3075, 2031.300
301.7896, 2031.329
302.2718, 2028.469
302.7539, 2019.152
303.2360, 1996.283
303.7181, 1963.994
304.2002, 1931.820
304.6823, 1903.933
305.1645, 1879.000
305.6466, 1858.049
306.1287, 1841.532
306.6108, 1821.640
307.0929, 1788.227
307.5750, 1747.210
308.0572, 1708.007
308.5393, 1673.209
309.0214, 1643.547
309.5035, 1620.724
309.9856, 1605.041
310.4677, 1590.905
310.9499, 1575.075
311.4320, 1558.317
311.9141, 1541.432
312.3962, 1523.860
312.8783, 1506.737
313.3604, 1490.675
313.8426, 1475.748
314.3247, 1461.692
314.8068, 1448.141
315.2889, 1435.665
315.7710, 1424.719
316.2531, 1414.986
316.7353, 1407.103
317.2174, 1403.497
317.6995, 1403.429
318.1816, 1399.543
318.6637, 1384.842
319.1458, 1367.225
319.6280, 1353.033
320.1101, 1346.403
320.5922, 1340.831
321.0743, 1334.292
321.5564, 1327.125
322.0385, 1321.250
322.5207, 1316.470
323.0028, 1313.564
323.4849, 1313.119
323.9670, 1319.507
324.4491, 1323.212
324.9312, 1318.749
325.4134, 1309.439
325.8955, 1307.777
326.3776, 1327.339
326.8597, 1345.835
327.3418, 1352.627
327.8239, 1334.161
328.3061, 1322.127
328.7882, 1319.501
329.2703, 1323.814
329.7524, 1328.961
330.2345, 1339.418
330.7166, 1346.300
331.1988, 1345.348
331.6809, 1330.613
332.1630, 1321.615
332.6451, 1317.771
333.1272, 1319.913
333.6093, 1330.674
334.0915, 1357.800
334.5736, 1381.595
335.0557, 1395.730
335.5378, 1398.946
336.0199, 1397.153
336.5020, 1387.393
336.9842, 1375.471
337.4663, 1370.191
337.9484, 1374.652
338.4305, 1377.089
338.9126, 1372.341
339.3947, 1360.345
339.8769, 1358.115
340.3590, 1370.051
340.8411, 1382.770
341.3232, 1378.165
341.8053, 1353.100
342.2874, 1335.101
342.7696, 1331.296
343.2517, 1340.382
343.7338, 1359.241
344.2159, 1390.673
344.6980, 1418.436
345.1801, 1423.507
345.6623, 1407.694
346.1444, 1398.916
346.6265, 1405.309
347.1086, 1420.252
347.5907, 1428.641
348.0728, 1430.367
348.5550, 1430.602
349.0371, 1430.885
349.5192, 1432.412
350.0013, 1440.308
350.4834, 1457.697
350.9655, 1477.287
351.4477, 1487.517
351.9298, 1490.004
352.4119, 1492.002
352.8940, 1499.851
353.3762, 1509.635
353.8583, 1515.103
354.3404, 1515.460
354.8225, 1511.562
355.3046, 1502.789
355.7867, 1490.272
356.2689, 1476.724
356.7510, 1459.801
357.2331, 1444.606
357.7152, 1437.036
358.1973, 1438.161
358.6794, 1440.349
359.1616, 1438.541
359.6437, 1434.798
360.1258, 1432.002
360.6079, 1436.168
361.0900, 1437.534
361.5721, 1430.229
362.0543, 1414.161
362.5364, 1395.139
363.0185, 1369.601
363.5006, 1344.838
363.9827, 1327.659
364.4648, 1329.782
364.9470, 1329.128
365.4291, 1319.171
365.9112, 1300.829
366.3933, 1280.594
366.8754, 1257.233
367.3575, 1233.885
367.8397, 1212.456
368.3218, 1181.229
368.8039, 1166.341
369.2860, 1190.763
369.7681, 1235.024
370.2502, 1240.492
370.7324, 1166.054
371.2145, 1093.801
371.6966, 1057.012
372.1787, 1074.594
372.6608, 1079.974
373.1429, 1065.193
373.6251, 1042.548
374.1072, 1032.248
374.5893, 1037.517
375.0714, 1049.005
375.5535, 1066.321
376.0356, 1090.337
376.5178, 1105.053
376.9999, 1107.591
377.4820, 1105.531
377.9641, 1106.374
378.4462, 1109.832
378.9283, 1118.570
379.4105, 1135.769
379.8926, 1158.530
380.3747, 1171.649
380.8568, 1173.711
381.3389, 1175.587
381.8210, 1187.391
382.3032, 1207.967
382.7853, 1228.584
383.2674, 1246.989
383.7495, 1265.399
384.2316, 1289.397
384.7137, 1318.412
385.1959, 1343.827
385.6780, 1355.319
386.1601, 1359.903
386.6422, 1373.742
387.1243, 1401.294
387.6064, 1429.804
388.0886, 1446.884
388.5707, 1454.693
389.0528, 1458.353
389.5349, 1461.294
390.0170, 1460.857
390.4991, 1455.042
390.9813, 1443.785
391.4634, 1425.813
391.9455, 1395.346
392.4276, 1359.102
392.9097, 1325.615
393.3918, 1297.719
393.8740, 1273.578
394.3561, 1255.379
394.8382, 1242.037
395.3203, 1223.044
395.8024, 1185.536
396.2845, 1146.673
396.7667, 1118.549
397.2488, 1115.768
397.7309, 1108.306
398.2130, 1086.065
398.6951, 1054.533
399.1772, 1030.932
399.6594, 1023.025
400.1415, 1018.509
400.6236, 1012.859
401.1057, 1004.600
401.5878, 998.7942
402.0699, 996.7454
402.5521, 996.5158
403.0342, 995.4887
403.5163, 994.3671
403.9984, 991.1688
404.4805, 985.2561
404.9626, 976.6666
405.4448, 965.5199
405.9269, 949.6034
406.4090, 935.1937
406.8911, 930.0073
407.3732, 935.8820
407.8553, 938.4024
408.3375, 934.5854
408.8196, 925.9075
409.3017, 915.4320
409.7838, 902.7681
410.2659, 892.6837
410.7480, 891.3588
411.2302, 896.4806
411.7123, 895.4870
412.1944, 885.5673
412.6765, 873.3932
413.1586, 868.7415
413.6407, 870.0657
414.1229, 870.6559
414.6050, 862.9939
415.0871, 854.0539
415.5692, 857.3117
416.0513, 873.8990
416.5334, 888.4833
417.0156, 886.1179
417.4977, 874.6454
417.9798, 865.8621
418.4619, 866.4092
418.9440, 868.8604
419.4261, 866.3802
419.9083, 860.5781
420.3904, 860.6240
420.8725, 881.6532
421.3546, 903.3156
421.8367, 909.7133
422.3188, 886.6334
422.8010, 868.0176
423.2831, 866.3553
423.7652, 874.6953
424.2473, 877.9380
424.7295, 866.4745
425.2116, 856.5206
425.6937, 854.4553
426.1758, 863.5454
426.6579, 868.0595
427.1400, 866.4774
427.6222, 861.3470
428.1043, 854.4470
428.5864, 842.3068
429.0685, 835.5819
429.5506, 837.6829
430.0327, 847.2838
430.5149, 854.5449
430.9970, 858.4097
431.4791, 862.3854
431.9612, 871.3939
432.4433, 886.3925
432.9254, 889.1134
433.4076, 873.5606
433.8897, 852.0327
434.3718, 850.9705
434.8539, 869.6923
435.3360, 884.2784
435.8181, 877.5829
436.3003, 857.8185
436.7824, 848.6667
437.2645, 851.3232
437.7466, 856.4251
438.2287, 853.8364
438.7108, 846.8167
439.1930, 842.6780
439.6751, 845.9423
440.1572, 851.1722
440.6393, 852.8093
441.1214, 851.5792
441.6035, 851.0651
442.0857, 855.1757
442.5678, 859.8480
443.0499, 860.8206
443.5320, 854.4565
444.0141, 851.4512
444.4962, 862.7157
444.9784, 879.0766
445.4605, 885.1689
445.9426, 864.4911
446.4247, 844.6612
446.9068, 834.2999
447.3889, 834.5813
447.8711, 839.7165
448.3532, 856.2228
448.8353, 873.0353
449.3174, 881.8530
449.7995, 877.4548
450.2816, 873.8023
450.7638, 872.7244
451.2459, 873.3470
451.7280, 871.7524
452.2101, 866.2827
452.6922, 862.5512
453.1743, 864.6843
453.6565, 873.6050
454.1386, 878.9310
454.6207, 880.5847
455.1028, 878.4568
455.5849, 869.8763
456.0670, 855.4359
456.5492, 844.8195
457.0313, 841.2703
457.5134, 843.9835
457.9955, 854.5580
458.4776, 872.6710
458.9597, 887.1840
459.4419, 886.1974
459.9240, 876.3558
460.4061, 868.9992
460.8882, 867.2479
461.3703, 866.7596
461.8524, 862.9995
462.3346, 857.6019
462.8167, 854.4457
463.2988, 858.3078
463.7809, 862.7895
464.2630, 862.9537
464.7451, 857.8751
465.2273, 855.1048
465.7094, 860.1334
466.1915, 867.2505
466.6736, 871.3780
467.1557, 869.4281
467.6378, 866.8245
468.1200, 862.4920
468.6021, 857.5794
469.0842, 857.7074
469.5663, 868.2804
470.0484, 877.5405
470.5305, 879.6110
471.0127, 870.6719
471.4948, 868.1185
471.9769, 875.1387
472.4590, 884.5419
472.9411, 885.7263
473.4232, 877.4687
473.9054, 868.8152
474.3875, 861.7507
474.8696, 856.3586
475.3517, 852.6915
475.8338, 850.6475
476.3159, 851.6436
476.7981, 860.5015
477.2802, 873.5787
477.7623, 878.6733
478.2444, 872.3710
478.7265, 862.8947
479.2086, 859.0156
479.6908, 859.4591
480.1729, 861.1076
480.6550, 863.7363
481.1371, 866.0723
481.6192, 866.8366
482.1013, 866.0438
482.5835, 864.9832
483.0656, 863.7372
483.5477, 862.8179
484.0298, 862.7974
484.5119, 866.5489
484.9940, 867.5143
485.4762, 861.2350
485.9583, 851.0233
486.4404, 845.4078
486.9225, 846.0670
487.4046, 850.8021
487.8867, 862.0665
488.3689, 883.2963
488.8510, 889.2018
489.3331, 872.1811
489.8152, 849.0820
490.2973, 835.7338
490.7794, 833.3755
491.2616, 836.8517
491.7437, 848.0156
492.2258, 862.4332
492.7079, 865.3713
493.1900, 856.1226
493.6722, 848.9983
494.1543, 856.2131
494.6364, 872.5901
495.1185, 879.5062
495.6006, 875.2586
496.0828, 868.1807
496.5649, 866.9142
497.0470, 868.9871
497.5291, 869.3480
498.0112, 865.7853
498.4933, 860.3176
498.9755, 852.1823
499.4576, 842.8268
499.9397, 838.2583
500.4218, 845.4254
500.9039, 855.2943
501.3860, 862.5784
501.8682, 866.4342
502.3503, 867.8972
502.8324, 864.6388
503.3145, 860.0571
503.7966, 858.2351
504.2787, 862.2300
504.7609, 865.4663
505.2430, 866.1688
505.7251, 865.0114
506.2072, 867.6029
506.6893, 877.7221
507.1714, 884.7835
507.6536, 881.4461
508.1357, 865.9916
508.6178, 854.6055
509.0999, 848.1918
509.5820, 844.8861
510.0641, 841.6359
510.5463, 838.6966
511.0284, 839.6761
511.5105, 848.7635
511.9926, 860.2111
512.4747, 860.7526
512.9568, 851.7681
513.4390, 844.8220
513.9211, 851.2355
514.4032, 862.8967
514.8853, 869.1010
515.3674, 867.0781
515.8495, 864.9813
516.3317, 869.7275
516.8138, 876.9296
517.2959, 880.5208
517.7780, 874.8525
518.2601, 868.9917
518.7422, 865.4434
519.2244, 864.2165
519.7065, 864.9020
520.1886, 868.4798
520.6707, 873.1273
521.1528, 879.1182
521.6349, 890.8181
522.1171, 891.1901
522.5992, 872.7448
523.0813, 850.4647
523.5634, 847.4913
524.0455, 868.9283
524.5276, 881.4276
525.0098, 871.9747
525.4919, 849.4770
525.9740, 846.5584
526.4561, 863.7805
526.9382, 880.5793
527.4203, 879.1405
527.9025, 867.4450
528.3846, 865.8326
528.8667, 877.5496
529.3488, 890.5629
529.8309, 893.5399
530.3130, 890.1122
530.7952, 886.1786
531.2773, 884.6072
531.7594, 882.6108
532.2415, 876.5186
532.7236, 867.9843
533.2057, 864.3913
533.6879, 875.4330
534.1700, 886.0524
534.6521, 887.7361
535.1342, 874.7919
535.6163, 867.2500
536.0984, 869.8964
536.5806, 875.0823
537.0627, 873.6677
537.5448, 859.7192
538.0269, 854.4774
538.5090, 865.2162
538.9911, 885.1274
539.4733, 889.3047
539.9554, 875.5065
540.4375, 862.6111
540.9196, 862.0844
541.4017, 871.4658
541.8839, 879.7925
542.3660, 886.8619
542.8481, 893.0299
543.3302, 900.2776
543.8123, 906.8011
544.2944, 908.5995
544.7766, 901.9147
545.2587, 894.4886
545.7408, 891.4357
546.2229, 892.3840
546.7050, 896.3126
547.1871, 907.9676
547.6693, 918.0866
548.1514, 921.8292
548.6335, 918.4595
549.1156, 913.1862
549.5977, 892.0518
550.0798, 906.1212
550.5620, 914.1331
551.0441, 916.4128
551.5262, 895.7919
552.0083, 904.7423
552.4904, 901.8419
552.9725, 898.4555
553.4547, 911.5680
553.9368, 894.2780
554.4189, 907.1287
554.9010, 907.9479
555.3831, 914.2736
555.8652, 908.6752
556.3474, 906.7599
556.8295, 916.7725
557.3116, 920.1804
557.7937, 913.2094
558.2758, 896.9793
558.7579, 887.9401
559.2401, 883.9963
559.7222, 884.8062
560.2043, 889.9125
560.6864, 906.1184
561.1685, 919.8748
561.6506, 924.3404
562.1328, 920.7629
562.6149, 916.2808
563.0970, 909.2884
563.5791, 904.3143
564.0612, 904.2950
564.5433, 912.2263
565.0255, 912.7764
565.5076, 900.7223
565.9897, 887.4913
566.4718, 886.6187
566.9539, 900.9588
567.4360, 908.9871
567.9182, 905.2527
568.4003, 895.8230
568.8824, 894.0452
569.3645, 899.3427
569.8466, 904.4670
570.3287, 903.5218
570.8109, 900.7023
571.2930, 904.6949
571.7751, 915.2556
572.2572, 923.8427
572.7393, 906.0659
573.2214, 920.2819
573.7036, 928.4404
574.1857, 930.8667
574.6678, 910.3925
575.1499, 919.4895
575.6320, 916.7357
576.1141, 913.4960
576.5963, 926.7551
577.0784, 909.6118
577.5605, 922.6091
578.0426, 923.5749
578.5247, 930.0472
579.0068, 924.5956
579.4890, 922.8270
579.9711, 923.1014
580.4532, 933.3818
580.9353, 939.5765
581.4174, 941.3977
581.8995, 940.2961
582.3817, 935.8472
582.8638, 929.4359
583.3459, 926.8752
583.8280, 931.6084
584.3101, 936.7493
584.7922, 920.4077
585.2744, 933.3573
585.7565, 940.2496
586.2386, 941.4095
586.7207, 919.6690
587.2028, 927.4998
587.6849, 923.4798
588.1671, 918.9735
588.6492, 930.9664
589.1313, 912.5566
589.6134, 924.2877
590.0955, 923.9871
590.5776, 927.2841
591.0598, 930.8732
591.5419, 934.1265
592.0240, 936.2329
592.5061, 937.4949
592.9882, 935.6912
593.4703, 929.2375
593.9525, 920.5422
594.4346, 915.3967
594.9167, 913.6879
595.3988, 913.8185
595.8809, 914.4558
596.3630, 916.5026
596.8452, 923.4458
597.3273, 935.1371
597.8094, 943.6406
598.2915, 941.3370
598.7736, 934.3685
599.2557, 928.2866
599.7379, 923.4643
600.2200, 921.4387
600.7021, 923.3561
601.1843, 928.1943
601.6664, 934.6278
602.1485, 949.7773
602.6306, 956.0733
603.1127, 945.6282
603.5948, 923.4296
604.0770, 916.7492
604.5591, 930.1741
605.0412, 944.1597
605.5233, 946.7512
606.0054, 939.6599
606.4875, 938.3659
606.9697, 943.3646
607.4518, 949.3157
607.9339, 951.8252
608.4160, 951.4340
608.8981, 948.7445
609.3802, 942.9467
609.8624, 937.3820
610.3445, 933.8270
610.8266, 932.3149
611.3087, 932.8293
611.7908, 938.3137
612.2729, 942.8586
612.7551, 942.8167
613.2372, 939.1768
613.7193, 939.5181
614.2014, 947.6293
614.6835, 955.3354
615.1656, 959.7042
615.6478, 960.7106
616.1299, 957.2609
616.6120, 946.9310
617.0941, 938.5481
617.5762, 943.1826
618.0583, 958.9145
618.5405, 968.8080
619.0226, 969.4331
619.5047, 966.2642
619.9868, 965.3878
620.4689, 966.1035
620.9510, 966.6674
621.4332, 964.3080
621.9153, 963.3239
622.3974, 969.2755
622.8795, 979.8135
623.3616, 985.2914
623.8438, 976.1275
624.3259, 966.7358
624.8080, 965.4980
625.2901, 974.9762
625.7722, 976.2781
626.2543, 963.0919
626.7365, 949.5745
627.2186, 947.6508
627.7007, 959.6864
628.1828, 968.0856
628.6649, 971.1664
629.1470, 971.2404
629.6292, 972.2079
630.1113, 973.3624
630.5934, 970.3646
631.0755, 957.4814
631.5576, 944.9803
632.0397, 947.9096
632.5219, 962.3138
633.0040, 975.8652
633.4861, 985.8417
633.9682, 990.0652
634.4503, 983.8579
634.9324, 966.7607
635.4146, 955.5845
635.8967, 958.1132
636.3788, 964.0745
636.8609, 967.7827
637.3430, 967.1920
