##NAMES=Gismondine
##RRUFFID=R060809
##IDEAL CHEMISTRY=Ca_2_(Si_4_Al_4_)O_16_&#183;8H_2_O
##LOCALITY=Arensberg, Eifel Mountains, Germany
##OWNER=RRUFF
##SOURCE=Michael Scott
##DESCRIPTION=Colorless pseudo-octahedral crystals
##STATUS=The identification of this mineral has been confirmed by single-crystal X-ray diffraction.
##URL=rruff.info/R060809
153.824, 6748.054
154.307, 6736.785
154.789, 6719.762
155.271, 6715.663
155.753, 6739.042
156.235, 6766.261
156.717, 6788.507
157.199, 6801.240
157.682, 6819.339
158.164, 6846.719
158.646, 6881.262
159.128, 6919.258
159.610, 6961.311
160.092, 7004.282
160.574, 7045.742
161.056, 7083.717
161.538, 7121.667
162.020, 7162.742
162.503, 7204.860
162.985, 7242.099
163.467, 7266.922
163.949, 7287.870
164.431, 7311.447
164.913, 7341.550
165.395, 7372.471
165.877, 7405.219
166.360, 7438.549
166.842, 7463.446
167.324, 7464.689
167.806, 7458.566
168.288, 7463.092
168.770, 7493.915
169.252, 7531.523
169.734, 7562.679
170.217, 7587.255
170.699, 7610.007
171.181, 7633.059
171.663, 7656.536
172.145, 7680.982
172.627, 7701.539
173.109, 7725.653
173.591, 7762.136
174.073, 7811.887
174.555, 7868.479
175.038, 7929.595
175.520, 7993.429
176.002, 8053.851
176.484, 8107.284
176.966, 8155.932
177.448, 8201.498
177.930, 8242.195
178.413, 8287.511
178.895, 8352.880
179.377, 8435.065
179.859, 8516.000
180.341, 8582.429
180.823, 8641.848
181.305, 8712.342
181.787, 8802.393
182.269, 8892.562
182.751, 8952.019
183.234, 8983.010
183.716, 9012.042
184.198, 9063.138
184.680, 9127.957
185.162, 9179.845
185.644, 9216.343
186.126, 9235.304
186.608, 9223.045
187.091, 9219.311
187.573, 9215.576
188.055, 9211.843
188.537, 9208.108
189.019, 9204.375
189.501, 9200.641
189.983, 9186.506
190.465, 9152.048
190.947, 9096.027
191.430, 9033.546
191.912, 8977.887
192.394, 8929.599
192.876, 8884.942
193.358, 8842.484
193.840, 8803.452
194.322, 8774.682
194.804, 8758.726
195.286, 8744.287
195.769, 8716.398
196.251, 8673.953
196.733, 8635.392
197.215, 8611.236
197.697, 8599.043
198.179, 8568.513
198.661, 8516.711
199.143, 8454.388
199.626, 8396.126
200.108, 8342.102
200.590, 8289.322
201.072, 8234.405
201.554, 8176.967
202.036, 8128.022
202.518, 8087.822
203.000, 8055.141
203.482, 8031.532
203.965, 8020.233
204.447, 8002.408
204.929, 7964.504
205.411, 7901.271
205.893, 7858.679
206.375, 7843.853
206.857, 7842.506
207.339, 7826.290
207.822, 7793.669
208.304, 7751.007
208.786, 7698.789
209.268, 7633.489
209.750, 7576.377
210.232, 7529.344
210.714, 7490.820
211.196, 7451.246
211.678, 7401.852
212.161, 7372.796
212.643, 7330.009
213.125, 7325.644
213.607, 7311.947
214.089, 7289.431
214.571, 7231.655
215.053, 7219.409
215.535, 7188.917
216.018, 7157.676
216.500, 7151.833
216.982, 7099.186
217.464, 7090.453
217.946, 7067.472
218.428, 7062.787
218.910, 7049.352
219.392, 7023.682
219.874, 6994.399
220.357, 6966.865
220.839, 6942.350
221.321, 6917.022
221.803, 6889.004
222.285, 6859.665
222.767, 6837.447
223.249, 6829.440
223.731, 6819.551
224.214, 6793.118
224.696, 6734.603
225.178, 6694.553
225.660, 6684.052
226.142, 6700.462
226.624, 6709.352
227.106, 6709.267
227.588, 6703.025
228.070, 6690.831
228.553, 6663.274
229.035, 6648.613
229.517, 6655.875
229.999, 6684.238
230.481, 6699.776
230.963, 6698.268
231.445, 6688.490
231.927, 6677.970
232.410, 6667.729
232.892, 6654.782
233.374, 6638.017
233.856, 6617.449
234.338, 6597.567
234.820, 6578.480
235.302, 6559.896
235.784, 6540.273
236.266, 6513.555
236.749, 6497.803
237.231, 6501.979
237.713, 6527.485
238.195, 6536.275
238.677, 6518.722
239.159, 6493.585
239.641, 6480.542
240.123, 6487.790
240.605, 6492.488
241.088, 6489.368
241.570, 6477.853
242.052, 6465.637
242.534, 6444.673
243.016, 6430.010
243.498, 6440.802
243.980, 6495.502
244.462, 6542.474
244.945, 6572.570
245.427, 6585.525
245.909, 6577.052
246.391, 6532.665
246.873, 6479.176
247.355, 6448.157
247.837, 6452.502
248.319, 6455.417
248.801, 6446.555
249.284, 6424.174
249.766, 6412.361
250.248, 6418.793
250.730, 6429.185
251.212, 6425.859
251.694, 6400.870
252.176, 6378.522
252.658, 6367.071
253.141, 6368.856
253.623, 6357.213
254.105, 6319.951
254.587, 6281.276
255.069, 6272.814
255.551, 6312.696
256.033, 6345.625
256.515, 6355.370
256.997, 6338.638
257.480, 6331.257
257.962, 6335.668
258.444, 6346.234
258.926, 6357.174
259.408, 6370.923
259.890, 6378.471
260.372, 6373.190
260.854, 6352.594
261.336, 6352.136
261.819, 6383.870
262.301, 6421.030
262.783, 6427.101
263.265, 6387.448
263.747, 6354.524
264.229, 6342.889
264.711, 6353.596
265.193, 6363.507
265.676, 6374.458
266.158, 6381.893
266.640, 6379.385
267.122, 6364.184
267.604, 6347.919
268.086, 6331.947
268.568, 6316.174
269.050, 6310.869
269.532, 6319.122
270.015, 6332.903
270.497, 6344.640
270.979, 6355.613
271.461, 6359.341
271.943, 6351.090
272.425, 6331.828
272.907, 6322.061
273.389, 6324.518
273.871, 6331.336
274.354, 6331.289
274.836, 6321.106
275.318, 6322.931
275.800, 6348.104
276.282, 6392.752
276.764, 6418.128
277.246, 6420.842
277.728, 6413.247
278.211, 6406.941
278.693, 6401.913
279.175, 6396.889
279.657, 6389.133
280.139, 6380.705
280.621, 6386.652
281.103, 6410.201
281.585, 6435.934
282.068, 6448.962
282.550, 6448.859
283.032, 6446.598
283.514, 6444.028
283.996, 6441.522
284.478, 6440.682
284.960, 6441.760
285.442, 6443.545
285.924, 6444.674
286.406, 6445.317
286.889, 6447.252
287.371, 6451.583
287.853, 6457.168
288.335, 6459.295
288.817, 6457.528
289.299, 6458.059
289.781, 6467.448
290.263, 6484.326
290.746, 6501.770
291.228, 6519.979
291.710, 6536.202
292.192, 6544.146
292.674, 6543.776
293.156, 6538.776
293.638, 6528.613
294.120, 6515.514
294.603, 6507.683
295.085, 6507.589
295.567, 6512.437
296.049, 6523.513
296.531, 6539.372
297.013, 6544.313
297.495, 6508.616
297.977, 6454.291
298.459, 6435.174
298.942, 6469.368
299.424, 6525.396
299.906, 6569.466
300.388, 6601.147
300.870, 6620.857
301.352, 6619.307
301.834, 6607.196
302.316, 6601.401
302.798, 6603.835
303.281, 6613.919
303.763, 6637.417
304.245, 6669.429
304.727, 6695.134
305.209, 6696.140
305.691, 6689.417
306.173, 6698.479
306.655, 6730.688
307.138, 6762.304
307.620, 6773.041
308.102, 6768.337
308.584, 6760.117
309.066, 6753.018
309.548, 6746.277
310.030, 6738.085
310.512, 6727.561
310.994, 6720.760
311.477, 6721.631
311.959, 6728.938
312.441, 6740.751
312.923, 6761.157
313.405, 6782.318
313.887, 6796.738
314.369, 6803.104
314.851, 6814.210
315.333, 6848.848
315.816, 6888.450
316.298, 6909.758
316.780, 6884.275
317.262, 6856.508
317.744, 6847.740
318.226, 6859.190
318.708, 6875.157
319.190, 6896.212
319.672, 6916.780
320.155, 6931.590
320.637, 6941.139
321.119, 6942.935
321.601, 6925.325
322.083, 6890.279
322.565, 6879.608
323.047, 6927.026
323.530, 6987.202
324.012, 7028.620
324.494, 7038.276
324.976, 7038.120
325.458, 7021.626
325.940, 6992.948
326.422, 6981.330
326.904, 7000.059
327.386, 7028.389
327.868, 7055.584
328.351, 7087.557
328.833, 7110.902
329.315, 7129.000
329.797, 7138.985
330.279, 7129.747
330.761, 7075.504
331.243, 7029.160
331.725, 7014.444
332.208, 7047.856
332.690, 7079.318
333.172, 7107.340
333.654, 7134.098
334.136, 7166.654
334.618, 7216.733
335.100, 7252.652
335.582, 7257.255
336.065, 7218.562
336.547, 7203.386
337.029, 7216.743
337.511, 7248.216
337.993, 7283.219
338.475, 7324.461
338.957, 7361.011
339.439, 7390.746
339.921, 7413.631
340.404, 7424.465
340.886, 7421.533
341.368, 7410.705
341.850, 7394.011
342.332, 7370.337
342.814, 7360.278
343.296, 7375.376
343.778, 7408.644
344.260, 7426.983
344.743, 7429.405
345.225, 7426.206
345.707, 7425.902
346.189, 7428.292
346.671, 7430.286
347.153, 7428.677
347.635, 7428.729
348.117, 7443.216
348.599, 7471.631
349.082, 7503.271
349.564, 7534.736
350.046, 7563.133
350.528, 7579.430
351.010, 7578.255
351.492, 7572.375
351.974, 7581.779
352.457, 7601.977
352.939, 7614.816
353.421, 7597.151
353.903, 7570.512
354.385, 7566.214
354.867, 7591.273
355.349, 7623.296
355.831, 7645.632
356.313, 7661.334
356.796, 7676.565
357.278, 7701.872
357.760, 7722.881
358.242, 7726.340
358.724, 7710.645
359.206, 7691.687
359.688, 7669.920
360.170, 7652.431
360.652, 7647.623
361.135, 7668.917
361.617, 7693.774
362.099, 7713.259
362.581, 7727.298
363.063, 7739.580
363.545, 7744.352
364.027, 7751.533
364.509, 7720.906
364.991, 7757.222
365.474, 7777.288
365.956, 7781.978
366.438, 7725.236
366.920, 7747.820
367.402, 7738.614
367.884, 7728.104
368.366, 7761.853
368.848, 7743.551
369.331, 7739.709
369.813, 7762.721
370.295, 7798.969
370.777, 7818.388
371.259, 7798.679
371.741, 7790.983
372.223, 7816.751
372.705, 7888.764
373.188, 7938.033
373.670, 7955.558
374.152, 7957.699
374.634, 7965.044
375.116, 7979.058
375.598, 7992.525
376.080, 7998.945
376.562, 8000.181
377.044, 8032.267
377.526, 8106.775
378.009, 8180.749
378.491, 8210.546
378.973, 8193.789
379.455, 8181.230
379.937, 8181.723
380.419, 8193.352
380.901, 8210.395
381.384, 8233.087
381.866, 8264.005
382.348, 8309.072
382.830, 8364.777
383.312, 8417.319
383.794, 8463.785
384.276, 8508.991
384.758, 8560.042
385.240, 8615.899
385.723, 8673.229
386.205, 8736.134
386.687, 8796.649
387.169, 8839.284
387.651, 8860.882
388.133, 8883.503
388.615, 8929.721
389.097, 8989.635
389.579, 9045.449
390.062, 9092.213
390.544, 9131.399
391.026, 9161.623
391.508, 9183.667
391.990, 9203.954
392.472, 9216.107
392.954, 9233.563
393.436, 9269.842
393.918, 9351.641
394.401, 9422.356
394.883, 9459.619
395.365, 9470.573
395.847, 9477.975
396.329, 9491.627
396.811, 9500.100
397.293, 9506.449
397.775, 9512.799
398.258, 9519.148
398.740, 9525.497
399.222, 9531.847
399.704, 9538.197
400.186, 9539.686
400.668, 9527.214
401.150, 9498.076
401.632, 9449.356
402.114, 9413.060
402.597, 9396.655
403.079, 9384.531
403.561, 9361.855
404.043, 9323.785
404.525, 9289.531
405.007, 9265.192
405.489, 9246.364
405.971, 9212.989
406.453, 9161.715
406.936, 9107.209
407.418, 9056.262
407.900, 9008.598
408.382, 8972.225
408.864, 8950.195
409.346, 8933.594
409.828, 8907.687
410.310, 8872.763
410.793, 8836.447
411.275, 8803.930
411.757, 8772.326
412.239, 8729.477
412.721, 8673.654
413.203, 8625.032
413.685, 8615.634
414.167, 8628.451
414.650, 8626.842
415.132, 8584.215
415.614, 8534.997
416.096, 8519.361
416.578, 8531.385
417.060, 8540.529
417.542, 8518.336
418.024, 8489.109
418.506, 8476.508
418.988, 8491.024
419.471, 8509.187
419.953, 8523.205
420.435, 8533.021
420.917, 8538.812
421.399, 8538.992
421.881, 8536.839
422.363, 8533.807
422.845, 8530.280
423.328, 8525.307
423.810, 8513.278
424.292, 8502.481
424.774, 8500.930
425.256, 8500.314
425.738, 8520.327
426.220, 8577.666
426.702, 8663.887
427.185, 8715.582
427.667, 8712.542
428.149, 8701.043
428.631, 8707.381
429.113, 8738.106
429.595, 8765.730
430.077, 8789.568
430.559, 8809.544
431.041, 8822.455
431.524, 8825.481
432.006, 8837.913
432.488, 8870.009
432.970, 8919.412
433.452, 8971.869
433.934, 9029.283
434.416, 9078.568
434.898, 9091.498
435.380, 9080.076
435.863, 9100.588
436.345, 9183.913
436.827, 9287.832
437.309, 9344.275
437.791, 9360.135
438.273, 9370.791
438.755, 9383.859
439.237, 9410.967
439.720, 9475.519
440.202, 9592.389
440.684, 9699.896
441.166, 9744.979
441.648, 9752.971
442.130, 9766.283
442.612, 9804.639
443.094, 9849.453
443.576, 9894.286
444.059, 9938.896
444.541, 9977.063
445.023, 9997.108
445.505, 10016.040
445.987, 10046.510
446.469, 10113.730
446.951, 10164.320
447.433, 10182.680
447.915, 10181.150
448.398, 10195.050
448.880, 10233.040
449.362, 10275.160
449.844, 10313.490
450.326, 10344.690
450.808, 10389.130
451.290, 10455.350
451.772, 10523.190
452.254, 10567.080
452.737, 10582.780
453.219, 10598.830
453.701, 10624.810
454.183, 10655.050
454.665, 10665.290
455.147, 10654.420
455.629, 10640.280
456.112, 10635.850
456.594, 10638.940
457.076, 10642.500
457.558, 10647.120
458.040, 10647.550
458.522, 10638.760
459.004, 10620.820
459.486, 10594.120
459.968, 10550.260
460.451, 10502.970
460.933, 10465.450
461.415, 10438.320
461.897, 10413.920
462.379, 10387.920
462.861, 10362.340
463.343, 10338.560
463.825, 10316.040
464.307, 10297.030
464.790, 10285.400
465.272, 10278.020
465.754, 10266.090
466.236, 10242.940
466.718, 10219.170
467.200, 10200.360
467.682, 10190.420
468.164, 10170.740
468.647, 10129.630
469.129, 10086.340
469.611, 10061.990
470.093, 10067.070
470.575, 10066.310
471.057, 10052.710
471.539, 10029.100
472.021, 10009.830
472.503, 9997.656
472.986, 9979.226
473.468, 9944.797
473.950, 9895.164
474.432, 9844.152
474.914, 9791.375
475.396, 9741.935
475.878, 9702.608
476.360, 9672.807
476.842, 9649.358
477.325, 9637.921
477.807, 9628.227
478.289, 9604.929
478.771, 9569.191
479.253, 9528.936
479.735, 9489.971
480.217, 9449.096
480.699, 9398.701
481.181, 9328.105
481.664, 9272.722
482.146, 9267.203
482.628, 9286.592
483.110, 9288.957
483.592, 9245.791
484.074, 9197.237
484.556, 9157.817
485.039, 9129.431
485.521, 9095.071
486.003, 9035.589
486.485, 8982.062
486.967, 8955.558
487.449, 8984.173
487.931, 8988.251
488.413, 8955.127
488.895, 8900.966
489.378, 8862.157
489.860, 8843.674
490.342, 8824.386
490.824, 8795.341
491.306, 8757.598
491.788, 8724.564
492.270, 8696.199
492.752, 8671.686
493.234, 8651.333
493.717, 8634.326
494.199, 8615.728
494.681, 8591.496
495.163, 8570.636
495.645, 8570.934
496.127, 8586.336
496.609, 8595.407
497.091, 8579.991
497.573, 8556.799
498.056, 8541.394
498.538, 8535.303
499.020, 8529.982
499.502, 8520.380
499.984, 8509.780
500.466, 8501.430
500.948, 8506.266
501.430, 8502.330
501.913, 8472.664
502.395, 8429.005
502.877, 8407.622
503.359, 8435.903
503.841, 8462.374
504.323, 8469.555
504.805, 8452.428
505.287, 8443.582
505.770, 8447.956
506.252, 8453.691
506.734, 8450.524
507.216, 8439.022
507.698, 8412.046
508.180, 8360.231
508.662, 8300.355
509.144, 8282.249
509.626, 8305.672
510.108, 8322.497
510.591, 8298.797
511.073, 8249.392
511.555, 8207.891
512.037, 8175.172
512.519, 8154.664
513.001, 8160.293
513.483, 8177.241
513.966, 8181.456
514.448, 8156.471
514.930, 8129.457
515.412, 8116.033
515.894, 8113.816
516.376, 8116.555
516.858, 8129.383
517.340, 8140.063
517.822, 8143.236
518.305, 8138.146
518.787, 8126.770
519.269, 8099.663
519.751, 8072.078
520.233, 8056.589
520.715, 8060.500
521.197, 8063.260
521.679, 8062.726
522.161, 8060.106
522.644, 8061.114
523.126, 8069.265
523.608, 8067.291
524.090, 8040.140
524.572, 7992.267
525.054, 7966.747
525.536, 7964.974
526.018, 7972.055
526.500, 7976.264
526.983, 7977.850
527.465, 7978.590
527.947, 7980.956
528.429, 7978.128
528.911, 7951.631
529.393, 7913.330
529.875, 7892.954
530.357, 7924.581
530.839, 7963.879
531.322, 7983.037
531.804, 7980.123
532.286, 7970.563
532.768, 7951.682
533.250, 7933.099
533.732, 7921.978
534.214, 7926.157
534.696, 7928.533
535.179, 7928.458
535.661, 7926.578
536.143, 7922.856
536.625, 7912.753
537.107, 7911.795
537.589, 7931.446
538.071, 7967.381
538.553, 7968.755
539.036, 7927.913
539.518, 7886.951
540.000, 7881.350
540.482, 7905.558
540.964, 7928.091
541.446, 7946.070
541.928, 7959.760
542.410, 7964.536
542.892, 7964.962
543.375, 7972.756
543.857, 8007.807
544.339, 8040.520
544.821, 8038.517
545.303, 8009.077
545.785, 7989.748
546.267, 8022.145
546.749, 8052.782
547.231, 8040.451
547.714, 7954.378
548.196, 7903.444
548.678, 7934.083
549.160, 7992.122
549.642, 8018.896
550.124, 7989.036
550.606, 7973.109
551.088, 7989.235
551.570, 8024.345
552.053, 8025.645
552.535, 7983.950
553.017, 7946.812
553.499, 7945.487
553.981, 7974.125
554.463, 7974.906
554.945, 7944.653
555.427, 7913.049
555.909, 7915.625
556.392, 7939.357
556.874, 7954.323
557.356, 7950.541
557.838, 7942.156
558.320, 7940.229
558.802, 7943.576
559.284, 7949.439
559.766, 7957.534
560.249, 7967.014
560.731, 7976.538
561.213, 7986.162
561.695, 7999.887
562.177, 8030.110
562.659, 8055.895
563.141, 8064.813
563.623, 8049.426
564.106, 8030.497
564.588, 8001.262
565.070, 7974.197
565.552, 7969.390
566.034, 7991.440
566.516, 8013.447
566.998, 8029.543
567.480, 8040.816
567.963, 8050.928
568.445, 8059.932
568.927, 8066.026
569.409, 8065.998
569.891, 8062.956
570.373, 8063.788
570.855, 8069.330
571.337, 8072.848
571.819, 8063.004
572.302, 8050.532
572.784, 8049.302
573.266, 8075.735
573.748, 8095.564
574.230, 8087.590
574.712, 8064.410
575.194, 8054.012
575.676, 8072.922
576.158, 8093.006
576.641, 8108.922
577.123, 8120.873
577.605, 8126.076
578.087, 8121.773
578.569, 8116.149
579.051, 8115.582
579.533, 8120.719
580.015, 8121.971
580.497, 8118.895
580.980, 8111.717
581.462, 8098.775
581.944, 8081.407
582.426, 8063.274
582.908, 8035.820
583.390, 8020.337
583.872, 8059.645
584.354, 8136.981
584.836, 8194.396
585.319, 8184.918
585.801, 8157.931
586.283, 8147.721
586.765, 8158.704
587.247, 8164.069
587.729, 8150.033
588.211, 8131.990
588.693, 8121.260
589.176, 8121.572
589.658, 8123.692
590.140, 8127.900
590.622, 8133.709
591.104, 8139.756
591.586, 8145.447
592.068, 8155.060
592.550, 8172.292
593.032, 8193.176
593.515, 8203.205
593.997, 8202.657
594.479, 8201.723
594.961, 8212.475
595.443, 8225.563
595.925, 8221.352
596.407, 8197.631
596.890, 8176.119
597.372, 8176.198
597.854, 8185.544
598.336, 8190.532
598.818, 8181.766
599.300, 8177.237
599.782, 8185.858
600.264, 8201.701
600.746, 8213.255
601.229, 8214.384
601.711, 8218.035
602.193, 8229.544
602.675, 8246.766
603.157, 8251.518
603.639, 8237.858
604.121, 8229.171
604.603, 8244.464
605.085, 8281.190
605.568, 8304.204
606.050, 8311.892
606.532, 8311.707
607.014, 8304.251
607.496, 8295.495
607.978, 8300.274
608.460, 8329.341
608.942, 8358.535
609.424, 8366.250
609.907, 8360.230
610.389, 8355.425
610.871, 8361.910
611.353, 8365.856
611.835, 8360.974
612.317, 8347.742
612.799, 8335.480
613.281, 8324.090
613.763, 8314.437
614.246, 8305.176
614.728, 8294.127
615.210, 8300.745
615.692, 8331.849
616.174, 8363.880
616.656, 8366.367
617.138, 8343.081
617.620, 8330.793
618.103, 8336.141
618.585, 8353.923
619.067, 8384.836
619.549, 8423.011
620.031, 8453.278
620.513, 8468.008
620.995, 8473.154
621.477, 8468.688
621.959, 8456.659
622.442, 8447.400
622.924, 8443.460
623.406, 8443.716
623.888, 8449.832
624.370, 8465.063
624.852, 8470.360
625.334, 8459.133
625.816, 8445.521
626.299, 8441.229
626.781, 8447.651
627.263, 8456.057
627.745, 8467.493
628.227, 8477.093
628.709, 8475.244
629.191, 8463.825
629.673, 8452.824
630.156, 8442.321
630.638, 8438.263
631.120, 8458.879
631.602, 8494.790
632.084, 8513.769
632.566, 8475.345
633.048, 8434.359
633.530, 8428.580
634.012, 8462.362
634.495, 8489.516
634.977, 8497.832
635.459, 8499.454
635.941, 8502.601
636.423, 8514.837
636.905, 8505.080
637.387, 8460.070
637.869, 8411.466
638.351, 8402.547
638.834, 8434.072
639.316, 8456.735
639.798, 8458.270
640.280, 8450.155
640.762, 8448.467
641.244, 8453.153
641.726, 8463.973
642.208, 8488.731
642.690, 8513.888
643.173, 8525.947
643.655, 8526.982
644.137, 8529.635
644.619, 8545.655
645.101, 8559.378
645.583, 8558.894
646.065, 8535.294
646.547, 8531.175
647.029, 8560.261
647.512, 8593.538
647.994, 8604.074
648.476, 8585.199
648.958, 8581.169
649.440, 8601.014
649.922, 8623.480
650.404, 8604.343
650.886, 8554.484
651.369, 8533.641
651.851, 8575.604
652.333, 8636.099
652.815, 8668.221
653.297, 8676.418
653.779, 8674.581
654.261, 8659.696
654.743, 8645.120
655.226, 8636.872
655.708, 8635.289
656.190, 8640.064
656.672, 8663.681
657.154, 8681.789
657.636, 8680.886
658.118, 8654.360
658.600, 8642.480
659.083, 8649.263
659.565, 8661.495
660.047, 8666.799
660.529, 8665.564
661.011, 8661.044
661.493, 8653.308
661.975, 8644.580
662.457, 8630.403
662.939, 8618.009
663.422, 8622.704
663.904, 8670.941
664.386, 8717.475
664.868, 8734.184
665.350, 8728.787
665.832, 8722.994
666.314, 8719.563
666.796, 8718.450
667.278, 8716.966
667.761, 8715.332
668.243, 8729.651
668.725, 8770.786
669.207, 8801.054
669.689, 8788.781
670.171, 8737.238
670.653, 8709.602
671.135, 8708.639
671.617, 8715.155
672.100, 8712.268
672.582, 8703.500
673.064, 8693.247
673.546, 8679.679
674.028, 8675.153
674.510, 8707.043
674.992, 8746.880
675.474, 8757.363
675.956, 8685.558
676.439, 8635.387
676.921, 8638.810
677.403, 8673.864
677.885, 8691.287
