##NAMES=Gismondine
##RRUFFID=R060809
##IDEAL CHEMISTRY=Ca_2_(Si_4_Al_4_)O_16_&#183;8H_2_O
##LOCALITY=Arensberg, Eifel Mountains, Germany
##OWNER=RRUFF
##SOURCE=Michael Scott
##DESCRIPTION=Colorless pseudo-octahedral crystals
##STATUS=The identification of this mineral has been confirmed by single-crystal X-ray diffraction.
##URL=rruff.info/R060809
159.133, 3361.508
159.615, 3373.962
160.097, 3402.624
160.579, 3427.441
161.061, 3439.892
161.543, 3443.842
162.025, 3447.706
162.508, 3455.919
162.990, 3468.446
163.472, 3484.743
163.954, 3506.686
164.436, 3529.442
164.918, 3556.773
165.400, 3584.322
165.883, 3599.785
166.365, 3592.897
166.847, 3568.576
167.329, 3556.641
167.811, 3559.554
168.293, 3570.157
168.775, 3587.514
169.257, 3610.575
169.739, 3637.876
170.221, 3672.365
170.704, 3708.607
171.186, 3724.044
171.668, 3697.734
172.150, 3672.821
172.632, 3674.838
173.114, 3698.561
173.596, 3721.011
174.078, 3728.676
174.561, 3724.991
175.043, 3725.923
175.525, 3733.774
176.007, 3743.714
176.489, 3751.064
176.971, 3757.145
177.453, 3768.920
177.935, 3790.047
178.417, 3820.716
178.900, 3857.776
179.382, 3910.314
179.864, 3959.771
180.346, 3989.613
180.828, 4003.020
181.310, 4028.194
181.792, 4068.176
182.274, 4101.052
182.757, 4127.052
183.239, 4134.002
183.721, 4159.117
184.203, 4173.016
184.685, 4183.762
185.167, 4203.402
185.649, 4198.667
186.131, 4212.505
186.613, 4214.998
187.096, 4218.589
187.578, 4210.912
188.060, 4203.039
188.542, 4200.818
189.024, 4191.101
189.506, 4171.214
189.988, 4158.200
190.470, 4125.080
190.952, 4104.329
191.435, 4087.318
191.917, 4053.807
192.399, 4026.903
192.881, 3993.606
193.363, 3941.212
193.845, 3914.336
194.327, 3864.567
194.809, 3846.811
195.292, 3832.473
195.774, 3801.744
196.256, 3756.258
196.738, 3708.342
197.220, 3658.505
197.702, 3612.086
198.184, 3577.015
198.666, 3557.089
199.148, 3536.892
199.631, 3503.266
200.113, 3458.503
200.595, 3419.177
201.077, 3394.651
201.559, 3374.089
202.041, 3342.768
202.523, 3298.967
203.005, 3252.840
203.488, 3210.468
203.970, 3171.394
204.452, 3132.021
204.934, 3090.983
205.416, 3049.935
205.898, 3010.689
206.380, 2973.138
206.862, 2936.609
207.344, 2901.018
207.827, 2866.166
208.309, 2830.734
208.791, 2792.743
209.273, 2756.595
209.755, 2728.268
210.237, 2707.934
210.719, 2686.399
211.201, 2655.871
211.684, 2620.007
212.166, 2590.761
212.648, 2573.215
213.130, 2558.385
213.612, 2534.723
214.094, 2503.418
214.576, 2477.788
215.058, 2469.453
215.540, 2471.350
216.023, 2464.498
216.505, 2443.555
216.987, 2419.412
217.469, 2400.774
217.951, 2387.020
218.433, 2376.621
218.915, 2373.334
219.397, 2372.244
219.880, 2361.813
220.362, 2337.669
220.844, 2313.835
221.326, 2306.372
221.808, 2309.779
222.290, 2307.754
222.772, 2289.760
223.254, 2265.205
223.736, 2249.255
224.219, 2244.212
224.701, 2240.640
225.183, 2233.306
225.665, 2222.135
226.147, 2206.145
226.629, 2176.803
227.111, 2146.767
227.593, 2133.816
228.076, 2139.612
228.558, 2145.317
229.040, 2136.105
229.522, 2118.209
230.004, 2106.976
230.486, 2107.163
230.968, 2112.516
231.450, 2120.830
231.932, 2131.862
232.415, 2134.947
232.897, 2117.597
233.379, 2090.663
233.861, 2080.964
234.343, 2103.199
234.825, 2125.170
235.307, 2120.591
235.789, 2093.625
236.271, 2068.920
236.754, 2057.673
237.236, 2055.519
237.718, 2052.366
238.200, 2048.706
238.682, 2043.189
239.164, 2034.150
239.646, 2022.529
240.128, 2010.969
240.611, 1999.996
241.093, 1990.204
241.575, 1981.873
242.057, 1973.525
242.539, 1970.707
243.021, 1982.364
243.503, 1999.963
243.985, 2006.684
244.467, 1997.013
244.950, 1978.620
245.432, 1959.874
245.914, 1939.130
246.396, 1926.548
246.878, 1933.140
247.360, 1945.432
247.842, 1944.498
248.324, 1926.229
248.807, 1903.252
249.289, 1889.139
249.771, 1884.803
250.253, 1882.555
250.735, 1887.016
251.217, 1890.039
251.699, 1882.901
252.181, 1865.353
252.663, 1845.352
253.146, 1829.272
253.628, 1817.484
254.110, 1807.808
254.592, 1802.602
255.074, 1797.283
255.556, 1787.568
256.038, 1774.697
256.520, 1764.750
257.003, 1762.925
257.485, 1767.984
257.967, 1765.547
258.449, 1743.379
258.931, 1728.184
259.413, 1736.130
259.895, 1757.806
260.377, 1773.809
260.859, 1773.803
261.342, 1761.495
261.824, 1750.681
262.306, 1737.500
262.788, 1730.393
263.270, 1735.729
263.752, 1746.006
264.234, 1751.879
264.716, 1749.832
265.198, 1742.523
265.681, 1735.121
266.163, 1725.232
266.645, 1719.115
267.127, 1719.566
267.609, 1721.940
268.091, 1722.955
268.573, 1721.694
269.056, 1718.483
269.538, 1713.745
270.020, 1707.594
270.502, 1699.448
270.984, 1682.524
271.466, 1669.516
271.948, 1670.250
272.430, 1682.832
272.912, 1697.190
273.395, 1703.696
273.877, 1701.616
274.359, 1701.595
274.841, 1709.144
275.323, 1713.281
275.805, 1707.923
276.287, 1696.658
276.769, 1687.084
277.251, 1684.836
277.734, 1688.003
278.216, 1685.183
278.698, 1667.345
279.180, 1656.414
279.662, 1662.818
280.144, 1676.359
280.626, 1683.623
281.108, 1678.092
281.591, 1667.778
282.073, 1671.051
282.555, 1696.159
283.037, 1713.322
283.519, 1710.984
284.001, 1702.049
284.483, 1695.956
284.965, 1694.887
285.447, 1694.494
285.930, 1689.943
286.412, 1681.050
286.894, 1670.289
287.376, 1653.743
287.858, 1639.411
288.340, 1632.961
288.822, 1634.028
289.304, 1637.343
289.786, 1640.457
290.269, 1643.095
290.751, 1643.248
291.233, 1638.869
291.715, 1635.529
292.197, 1638.750
292.679, 1646.094
293.161, 1651.241
293.643, 1648.682
294.125, 1643.585
294.608, 1646.257
295.090, 1658.385
295.572, 1666.788
296.054, 1660.620
296.536, 1645.703
297.018, 1633.818
297.500, 1626.118
297.983, 1622.085
298.465, 1623.523
298.947, 1629.312
299.429, 1632.578
299.911, 1628.937
300.393, 1622.772
300.875, 1623.530
301.357, 1633.864
301.839, 1643.006
302.322, 1645.394
302.804, 1644.375
303.286, 1646.367
303.768, 1653.447
304.250, 1661.197
304.732, 1663.611
305.214, 1659.599
305.696, 1654.461
306.178, 1644.651
306.661, 1636.439
307.143, 1635.107
307.625, 1640.999
308.107, 1652.297
308.589, 1669.622
309.071, 1693.929
309.553, 1701.157
310.035, 1676.004
310.517, 1652.844
311.000, 1646.056
311.482, 1651.416
311.964, 1658.716
312.446, 1662.205
312.928, 1663.100
313.410, 1666.209
313.892, 1676.794
314.374, 1682.980
314.857, 1678.713
315.339, 1672.185
315.821, 1671.951
316.303, 1680.576
316.785, 1693.910
317.267, 1705.942
317.749, 1717.047
318.231, 1725.760
318.714, 1731.532
319.196, 1735.541
319.678, 1737.103
320.160, 1737.025
320.642, 1737.962
321.124, 1742.587
321.606, 1750.688
322.088, 1758.236
322.570, 1763.847
323.052, 1770.684
323.535, 1782.815
324.017, 1796.505
324.499, 1804.303
324.981, 1799.111
325.463, 1790.338
325.945, 1797.404
326.427, 1823.807
326.909, 1850.751
327.392, 1875.198
327.874, 1894.159
328.356, 1901.045
328.838, 1891.064
329.320, 1884.651
329.802, 1906.244
330.284, 1948.517
330.766, 1970.591
331.249, 1954.257
331.731, 1928.568
332.213, 1931.203
332.695, 1960.851
333.177, 1984.794
333.659, 1990.658
334.141, 1986.612
334.623, 1980.217
335.105, 1972.417
335.588, 1968.892
336.070, 1975.097
336.552, 1990.868
337.034, 2005.602
337.516, 2024.886
337.998, 2037.812
338.480, 2030.983
338.962, 2013.269
339.444, 2008.732
339.927, 2031.127
340.409, 2067.625
340.891, 2082.217
341.373, 2051.539
341.855, 2027.973
342.337, 2011.503
342.819, 2003.823
343.302, 2011.129
343.784, 2032.674
344.266, 2055.663
344.748, 2063.556
345.230, 2052.340
345.712, 2042.910
346.194, 2029.823
346.676, 2023.421
347.158, 2031.397
347.641, 2049.733
348.123, 2069.335
348.605, 2085.104
349.087, 2096.637
349.569, 2101.265
350.051, 2095.274
350.533, 2089.058
351.015, 2083.702
351.497, 2080.402
351.980, 2081.103
352.462, 2086.658
352.944, 2093.674
353.426, 2098.058
353.908, 2099.778
354.390, 2102.469
354.872, 2109.307
355.354, 2114.413
355.836, 2108.696
356.319, 2093.893
356.801, 2088.552
357.283, 2110.926
357.765, 2145.527
358.247, 2166.277
358.729, 2171.123
359.211, 2164.122
359.693, 2142.392
360.176, 2110.277
360.658, 2088.172
361.140, 2082.890
361.622, 2081.602
362.104, 2080.685
362.586, 2078.529
363.068, 2069.166
363.550, 2048.712
364.033, 2025.071
364.515, 2014.514
364.997, 2026.532
365.479, 2033.951
365.961, 2033.050
366.443, 2028.696
366.925, 2022.994
367.407, 2017.276
367.889, 2014.537
368.371, 2018.104
368.854, 2028.395
369.336, 2037.696
369.818, 2049.654
370.300, 2056.701
370.782, 2050.603
371.264, 2039.663
371.746, 2037.637
372.228, 2051.780
372.711, 2073.998
373.193, 2086.096
373.675, 2083.936
374.157, 2083.937
374.639, 2090.153
375.121, 2098.916
375.603, 2108.433
376.085, 2118.388
376.568, 2128.619
377.050, 2139.436
377.532, 2150.474
378.014, 2159.422
378.496, 2163.738
378.978, 2171.428
379.460, 2193.811
379.942, 2223.828
380.424, 2246.260
380.907, 2250.269
381.389, 2252.083
381.871, 2268.178
382.353, 2295.355
382.835, 2317.029
383.317, 2324.318
383.799, 2325.352
384.281, 2338.218
384.763, 2366.972
385.246, 2394.497
385.728, 2420.987
386.210, 2443.315
386.692, 2454.488
387.174, 2455.467
387.656, 2459.339
388.138, 2480.093
388.620, 2519.394
389.103, 2545.723
389.585, 2541.408
390.067, 2544.645
390.549, 2573.240
391.031, 2614.524
391.513, 2649.494
391.995, 2669.784
392.477, 2679.045
392.960, 2682.729
393.442, 2676.688
393.924, 2677.198
394.406, 2690.432
394.888, 2707.684
395.370, 2727.397
395.852, 2747.812
396.334, 2762.565
396.816, 2761.976
397.298, 2751.676
397.781, 2754.844
398.263, 2778.136
398.745, 2794.561
399.227, 2781.564
399.709, 2752.343
400.191, 2729.972
400.673, 2723.704
401.155, 2715.115
401.638, 2688.882
402.120, 2649.962
402.602, 2611.826
403.084, 2577.386
403.566, 2549.069
404.048, 2532.120
404.530, 2531.492
405.012, 2521.892
405.495, 2494.352
405.977, 2463.864
406.459, 2439.724
406.941, 2422.086
407.423, 2407.735
407.905, 2395.053
408.387, 2383.323
408.869, 2368.735
409.351, 2349.719
409.834, 2329.621
410.316, 2306.304
410.798, 2283.579
411.280, 2264.140
411.762, 2248.740
412.244, 2237.667
412.726, 2234.068
413.208, 2238.451
413.690, 2233.511
414.173, 2210.072
414.655, 2189.263
415.137, 2185.666
415.619, 2192.107
416.101, 2193.711
416.583, 2182.915
417.065, 2167.647
417.547, 2156.271
418.030, 2148.715
418.512, 2144.588
418.994, 2145.349
419.476, 2147.506
419.958, 2144.802
420.440, 2136.407
420.922, 2129.396
421.404, 2126.437
421.887, 2125.013
422.369, 2122.612
422.851, 2119.115
423.333, 2115.253
423.815, 2110.732
424.297, 2106.368
424.779, 2110.533
425.261, 2136.610
425.743, 2155.007
426.225, 2153.062
426.708, 2145.183
427.190, 2148.521
427.672, 2167.211
428.154, 2189.807
428.636, 2200.131
429.118, 2195.705
429.600, 2198.601
430.082, 2217.661
430.565, 2234.151
431.047, 2235.573
431.529, 2228.659
432.011, 2228.014
432.493, 2242.106
432.975, 2261.784
433.457, 2272.719
433.939, 2275.474
434.422, 2286.666
434.904, 2316.429
435.386, 2351.485
435.868, 2368.872
436.350, 2365.525
436.832, 2373.511
437.314, 2414.283
437.796, 2461.356
438.278, 2487.020
438.761, 2491.506
439.243, 2492.016
439.725, 2499.181
440.207, 2513.092
440.689, 2534.965
441.171, 2579.002
441.653, 2613.291
442.135, 2624.998
442.617, 2631.285
443.100, 2649.607
443.582, 2682.686
444.064, 2718.924
444.546, 2739.052
445.028, 2742.186
445.510, 2782.856
445.992, 2792.781
446.474, 2818.258
446.957, 2839.961
447.439, 2858.094
447.921, 2861.952
448.403, 2884.239
448.885, 2899.141
449.367, 2913.740
449.849, 2934.555
450.331, 2951.897
450.814, 2985.783
451.296, 3020.789
451.778, 3035.813
452.260, 3034.681
452.742, 3055.897
453.224, 3070.630
453.706, 3079.166
454.188, 3066.350
454.670, 3078.498
455.152, 3079.049
455.635, 3078.033
456.117, 3090.444
456.599, 3074.881
457.081, 3084.785
457.563, 3082.932
458.045, 3084.802
458.527, 3075.010
459.009, 3067.331
459.492, 3069.043
459.974, 3063.788
460.456, 3048.235
460.938, 3043.590
461.420, 3016.286
461.902, 3006.728
462.384, 2996.181
462.866, 2984.300
463.349, 2975.726
463.831, 2969.531
464.313, 2966.334
464.795, 2961.412
465.277, 2951.675
465.759, 2939.066
466.241, 2925.908
466.723, 2912.545
467.205, 2900.213
467.688, 2889.524
468.170, 2880.644
468.652, 2875.340
469.134, 2858.889
469.616, 2852.753
470.098, 2844.112
470.580, 2833.100
471.062, 2812.626
471.544, 2804.374
472.027, 2791.224
472.509, 2777.873
472.991, 2771.340
473.473, 2752.241
473.955, 2745.600
474.437, 2733.077
474.919, 2715.844
475.401, 2711.321
475.884, 2691.588
476.366, 2645.690
476.848, 2594.207
477.330, 2556.652
477.812, 2530.207
478.294, 2502.965
478.776, 2471.807
479.258, 2442.381
479.741, 2421.079
480.223, 2408.124
480.705, 2391.242
481.187, 2368.757
481.669, 2343.916
482.151, 2321.115
482.633, 2296.221
483.115, 2257.894
483.597, 2202.130
484.079, 2144.917
484.562, 2113.833
485.044, 2120.420
485.526, 2112.455
486.008, 2066.502
486.490, 2028.366
486.972, 2021.946
487.454, 2034.866
487.936, 2041.801
488.419, 2030.447
488.901, 2010.935
489.383, 1999.026
489.865, 1993.819
490.347, 1977.223
490.829, 1938.475
491.311, 1897.601
491.793, 1881.170
492.276, 1887.244
492.758, 1885.577
493.240, 1867.360
493.722, 1843.925
494.204, 1818.949
494.686, 1795.002
495.168, 1777.659
495.650, 1769.604
496.132, 1766.529
496.615, 1759.884
497.097, 1746.698
497.579, 1737.362
498.061, 1740.062
498.543, 1738.561
499.025, 1718.019
499.507, 1687.571
499.989, 1669.955
500.471, 1680.903
500.954, 1701.399
501.436, 1697.890
501.918, 1670.229
502.400, 1648.859
502.882, 1645.397
503.364, 1645.535
503.846, 1628.467
504.328, 1595.573
504.811, 1574.786
505.293, 1585.616
505.775, 1597.841
506.257, 1585.968
506.739, 1557.376
507.221, 1534.209
507.703, 1526.384
508.185, 1526.812
508.668, 1521.793
509.150, 1507.993
509.632, 1496.965
510.114, 1491.055
510.596, 1485.483
511.078, 1477.176
511.560, 1467.608
512.042, 1461.079
512.524, 1461.252
513.006, 1461.710
513.489, 1449.335
513.971, 1424.856
514.453, 1411.172
514.935, 1418.590
515.417, 1430.104
515.899, 1425.977
516.381, 1407.411
516.864, 1390.838
517.346, 1377.702
517.828, 1367.744
518.310, 1362.610
518.792, 1360.229
519.274, 1355.542
519.756, 1346.595
520.238, 1337.528
520.720, 1335.679
521.203, 1344.149
521.685, 1348.134
522.167, 1344.708
522.649, 1339.477
523.131, 1333.189
523.613, 1326.652
524.095, 1321.405
524.577, 1318.526
525.059, 1315.339
525.542, 1305.931
526.024, 1292.747
526.506, 1289.724
526.988, 1302.100
527.470, 1315.727
527.952, 1317.583
528.434, 1307.658
528.916, 1298.367
529.398, 1284.900
529.881, 1277.544
530.363, 1287.595
530.845, 1302.948
531.327, 1306.117
531.809, 1293.118
532.291, 1274.515
532.773, 1262.130
533.255, 1256.069
533.737, 1251.201
534.220, 1250.355
534.702, 1245.991
535.184, 1227.540
535.666, 1207.724
536.148, 1203.460
536.630, 1219.776
537.112, 1239.830
537.594, 1256.996
538.077, 1268.713
538.559, 1265.795
539.041, 1247.810
539.523, 1233.683
540.005, 1238.204
540.487, 1256.745
540.969, 1266.491
541.451, 1258.585
541.933, 1253.832
542.416, 1258.588
542.898, 1263.512
543.380, 1259.606
543.862, 1247.711
544.344, 1235.899
544.826, 1229.937
545.308, 1228.600
545.791, 1229.289
546.273, 1232.822
546.755, 1233.359
547.237, 1225.889
547.719, 1217.666
548.201, 1218.263
548.683, 1227.834
549.165, 1235.649
549.647, 1242.818
550.130, 1243.849
550.612, 1226.668
551.094, 1199.193
551.576, 1186.231
552.058, 1199.335
552.540, 1222.089
553.022, 1222.522
553.504, 1187.781
553.987, 1170.419
554.469, 1188.734
554.951, 1206.882
555.433, 1209.974
555.915, 1204.155
556.397, 1194.125
556.879, 1170.981
557.361, 1180.146
557.843, 1166.884
558.326, 1183.876
558.808, 1193.525
559.290, 1196.224
559.772, 1171.159
560.254, 1181.945
560.736, 1178.364
561.218, 1174.193
561.700, 1190.026
562.182, 1168.999
562.665, 1184.514
563.147, 1182.771
563.629, 1182.823
564.111, 1185.230
564.593, 1186.039
565.075, 1182.555
565.557, 1174.480
566.039, 1157.984
566.521, 1129.246
567.004, 1108.666
567.486, 1106.939
567.968, 1114.021
568.450, 1117.649
568.932, 1117.717
569.414, 1116.304
569.896, 1108.348
570.378, 1103.809
570.860, 1114.323
571.343, 1135.353
571.825, 1154.109
572.307, 1165.059
572.789, 1170.007
573.271, 1170.957
573.753, 1165.813
574.235, 1164.749
574.718, 1172.131
575.200, 1178.749
575.682, 1181.450
576.164, 1180.869
576.646, 1177.631
577.128, 1171.144
577.610, 1164.929
578.092, 1161.720
578.574, 1160.885
579.057, 1163.240
579.539, 1168.786
580.021, 1167.620
580.503, 1149.030
580.985, 1118.892
581.467, 1109.736
581.949, 1146.427
582.431, 1171.867
582.914, 1178.406
583.396, 1176.544
583.878, 1172.949
584.360, 1168.343
584.842, 1160.196
585.324, 1143.971
585.806, 1127.167
586.288, 1127.090
586.770, 1143.156
587.253, 1152.917
587.735, 1148.020
588.217, 1139.746
588.699, 1141.322
589.181, 1153.497
589.663, 1161.058
590.145, 1161.286
590.627, 1159.638
591.109, 1159.106
591.592, 1157.686
592.074, 1150.269
592.556, 1136.678
593.038, 1125.803
593.520, 1129.775
594.002, 1145.944
594.484, 1151.530
594.966, 1143.829
595.448, 1133.779
595.931, 1122.443
596.413, 1113.300
596.895, 1111.247
597.377, 1117.060
597.859, 1124.201
598.341, 1133.573
598.823, 1141.226
599.305, 1143.296
599.788, 1140.829
600.270, 1135.058
600.752, 1126.379
601.234, 1120.934
601.716, 1124.136
602.198, 1130.236
602.680, 1118.999
603.162, 1131.560
603.644, 1138.344
604.127, 1139.662
604.609, 1119.141
605.091, 1126.820
605.573, 1123.198
606.055, 1125.171
606.537, 1133.744
607.019, 1146.784
607.502, 1141.920
607.984, 1120.204
608.466, 1101.800
608.948, 1099.662
609.430, 1109.090
609.912, 1117.316
610.394, 1125.785
610.876, 1129.596
611.358, 1122.042
611.841, 1115.821
612.323, 1119.019
612.805, 1128.093
613.287, 1134.615
613.769, 1135.859
614.251, 1133.157
614.733, 1123.283
615.215, 1111.079
615.697, 1109.108
616.180, 1119.366
616.662, 1131.745
617.144, 1138.563
617.626, 1140.605
618.108, 1142.502
618.590, 1144.412
619.072, 1145.930
619.554, 1149.214
620.036, 1150.309
620.519, 1143.322
621.001, 1131.236
621.483, 1124.780
621.965, 1131.724
622.447, 1143.007
622.929, 1149.467
623.411, 1151.157
623.893, 1146.564
624.375, 1134.706
624.858, 1123.263
625.340, 1120.063
625.822, 1124.605
626.304, 1126.001
626.786, 1116.424
627.268, 1113.877
627.750, 1128.727
628.232, 1145.348
628.715, 1148.253
629.197, 1138.738
629.679, 1131.615
630.161, 1138.174
630.643, 1150.034
631.125, 1154.194
631.607, 1151.679
632.089, 1149.287
632.571, 1149.158
633.054, 1148.112
633.536, 1141.832
634.018, 1129.956
634.500, 1123.611
634.982, 1129.745
635.464, 1132.317
635.946, 1124.016
636.429, 1113.623
636.911, 1109.978
637.393, 1113.578
637.875, 1118.202
638.357, 1119.151
638.839, 1118.840
639.321, 1122.494
639.803, 1129.483
640.285, 1134.394
640.768, 1135.900
641.250, 1133.133
641.732, 1123.083
642.214, 1104.235
642.696, 1097.834
643.178, 1117.043
643.660, 1131.364
644.142, 1130.431
644.625, 1123.766
645.107, 1119.537
645.589, 1119.521
646.071, 1123.240
646.553, 1132.146
647.035, 1143.475
647.517, 1154.286
647.999, 1163.963
648.481, 1166.096
648.964, 1157.463
649.446, 1146.114
649.928, 1141.777
650.410, 1145.134
650.892, 1146.650
651.374, 1145.131
651.856, 1143.299
652.338, 1141.653
652.820, 1139.971
653.303, 1136.441
653.785, 1131.756
654.267, 1131.266
654.749, 1143.218
655.231, 1158.321
655.713, 1160.984
656.195, 1153.362
656.677, 1146.985
657.159, 1145.347
657.642, 1146.022
658.124, 1146.103
658.606, 1145.446
659.088, 1147.756
659.570, 1154.754
660.052, 1162.628
660.534, 1174.201
661.016, 1184.012
661.498, 1185.203
661.981, 1178.659
662.463, 1174.227
662.945, 1182.949
663.427, 1192.000
663.909, 1181.745
664.391, 1158.514
664.873, 1143.251
665.356, 1141.643
665.838, 1147.250
666.320, 1154.743
666.802, 1163.746
667.284, 1166.141
667.766, 1158.612
668.248, 1149.851
668.730, 1137.682
669.212, 1127.715
669.695, 1126.143
670.177, 1131.514
670.659, 1135.021
671.141, 1131.999
671.623, 1126.924
672.105, 1122.852
672.587, 1119.617
673.069, 1116.755
673.552, 1114.224
674.034, 1112.595
674.516, 1112.627
674.998, 1113.808
675.480, 1112.678
675.962, 1106.309
676.444, 1105.899
676.926, 1121.443
677.408, 1135.537
677.891, 1132.976
678.373, 1118.208
678.855, 1108.120
679.337, 1109.582
679.819, 1112.395
680.301, 1109.241
680.783, 1105.589
681.265, 1111.565
681.747, 1125.688
682.230, 1134.373
682.712, 1127.636
683.194, 1111.676
683.676, 1101.910
684.158, 1099.007
684.640, 1094.732
