##NAMES=Glauberite
##RRUFFID=R070322
##IDEAL CHEMISTRY=Na_2_Ca(S^6+^O_4_)_2_
##LOCALITY=Salton Sea, Imperial County, California, USA
##OWNER=RRUFF
##SOURCE=James Shigley
##DESCRIPTION=Colorless tabular crystal
##STATUS=The identification of this mineral has been confirmed by X-ray diffraction.
##URL=rruff.info/R070322
158.8221, 23132.29
159.3042, 23260.94
159.7863, 23381.94
160.2684, 23480.76
160.7505, 23538.47
161.2326, 23561.53
161.7148, 23595.60
162.1969, 23671.49
162.6790, 23763.59
163.1611, 23846.20
163.6432, 23887.93
164.1253, 23937.01
164.6075, 24027.30
165.0896, 24160.31
165.5717, 24288.94
166.0538, 24377.13
166.5359, 24446.18
167.0180, 24526.78
167.5002, 24635.67
167.9823, 24758.99
168.4644, 24885.12
168.9465, 25012.06
169.4286, 25149.68
169.9107, 25329.18
170.3929, 25525.01
170.8750, 25687.99
171.3571, 25759.76
171.8392, 25798.32
172.3213, 25868.04
172.8034, 25982.62
173.2856, 26107.19
173.7677, 26214.55
174.2498, 26306.48
174.7319, 26387.18
175.2140, 26446.18
175.6961, 26498.69
176.1783, 26571.59
176.6604, 26678.39
177.1425, 26789.79
177.6246, 26860.68
178.1067, 26896.96
178.5888, 26941.90
179.0710, 27046.14
179.5531, 27181.25
180.0352, 27279.48
180.5173, 27309.42
180.9994, 27309.63
181.4815, 27343.46
181.9637, 27410.28
182.4458, 27480.62
182.9279, 27524.94
183.4100, 27550.85
183.8921, 27588.48
184.3742, 27651.94
184.8564, 27730.30
185.3385, 27794.36
185.8206, 27843.56
186.3027, 27891.95
186.7848, 27959.11
187.2669, 28041.75
187.7491, 28116.78
188.2312, 28168.14
188.7133, 28205.02
189.1954, 28265.96
189.6775, 28354.15
190.1596, 28450.72
190.6418, 28533.20
191.1239, 28601.59
191.6060, 28671.57
192.0881, 28758.81
192.5702, 28858.47
193.0524, 28924.36
193.5345, 28950.92
194.0166, 28958.00
194.4987, 28966.68
194.9808, 28975.69
195.4629, 29005.74
195.9451, 29075.85
196.4272, 29185.85
196.9093, 29282.44
197.3914, 29365.61
197.8735, 29432.78
198.3556, 29470.99
198.8378, 29474.69
199.3199, 29483.92
199.8020, 29523.17
200.2841, 29594.18
200.7662, 29665.17
201.2483, 29737.34
201.7305, 29805.72
202.2126, 29853.49
202.6947, 29874.51
203.1768, 29897.82
203.6589, 29946.53
204.1410, 30026.08
204.6232, 30089.80
205.1053, 30133.73
205.5874, 30159.12
206.0695, 30159.28
206.5516, 30116.49
207.0337, 30094.99
207.5159, 30153.61
207.9980, 30314.73
208.4801, 30443.06
208.9622, 30515.20
209.4443, 30542.03
209.9264, 30577.14
210.4086, 30624.89
210.8907, 30672.36
211.3728, 30707.22
211.8549, 30724.53
212.3370, 30746.68
212.8191, 30775.34
213.3013, 30810.94
213.7834, 30863.08
214.2655, 30941.72
214.7476, 31021.12
215.2297, 31075.89
215.7118, 31096.35
216.1940, 31120.98
216.6761, 31159.66
217.1582, 31211.40
217.6403, 31249.76
218.1224, 31271.98
218.6045, 31284.01
219.0867, 31285.65
219.5688, 31260.26
220.0509, 31265.43
220.5330, 31322.71
221.0151, 31434.41
221.4972, 31520.90
221.9794, 31574.88
222.4615, 31612.69
222.9436, 31652.20
223.4257, 31696.05
223.9078, 31736.13
224.3899, 31766.18
224.8721, 31784.42
225.3542, 31824.50
225.8363, 31906.14
226.3184, 31991.29
226.8005, 32030.88
227.2827, 31994.32
227.7648, 31970.30
228.2469, 31984.91
228.7290, 32044.30
229.2111, 32092.62
229.6932, 32121.71
230.1754, 32145.74
230.6575, 32186.14
231.1396, 32258.11
231.6217, 32318.36
232.1038, 32347.22
232.5859, 32332.09
233.0681, 32356.95
233.5502, 32445.79
234.0323, 32557.14
234.5144, 32629.32
234.9965, 32636.53
235.4786, 32647.40
235.9608, 32685.78
236.4429, 32760.22
236.9250, 32819.41
237.4071, 32856.63
237.8892, 32882.27
238.3713, 32913.51
238.8535, 32956.86
239.3356, 32994.70
239.8177, 33018.59
240.2998, 33021.48
240.7819, 33037.63
241.2640, 33068.09
241.7462, 33111.41
242.2283, 33166.80
242.7104, 33242.16
243.1925, 33316.78
243.6746, 33386.31
244.1567, 33455.29
244.6389, 33502.63
245.1210, 33518.89
245.6031, 33519.11
246.0852, 33528.54
246.5673, 33546.54
247.0494, 33574.97
247.5316, 33617.20
248.0137, 33680.04
248.4958, 33733.18
248.9779, 33771.41
249.4600, 33802.63
249.9421, 33839.56
250.4243, 33880.47
250.9064, 33930.77
251.3885, 33997.27
251.8706, 34092.77
252.3527, 34161.57
252.8348, 34197.28
253.3170, 34210.34
253.7991, 34217.90
254.2812, 34215.01
254.7633, 34215.93
255.2454, 34225.82
255.7275, 34245.25
256.2097, 34270.14
256.6918, 34295.92
257.1739, 34330.01
257.6560, 34391.70
258.1381, 34498.96
258.6202, 34597.06
259.1024, 34665.24
259.5845, 34697.20
260.0666, 34721.29
260.5487, 34732.55
261.0308, 34739.65
261.5129, 34758.05
261.9951, 34787.14
262.4772, 34828.95
262.9593, 34890.52
263.4414, 34982.58
263.9235, 35042.89
264.4056, 35060.53
264.8878, 35057.23
265.3699, 35069.20
265.8520, 35096.34
266.3341, 35139.77
266.8162, 35211.41
267.2983, 35321.84
267.7805, 35384.18
268.2626, 35382.75
268.7447, 35349.88
269.2268, 35338.28
269.7089, 35349.50
270.1910, 35376.39
270.6732, 35421.24
271.1553, 35486.55
271.6374, 35544.00
272.1195, 35593.99
272.6016, 35635.62
273.0837, 35661.13
273.5659, 35665.84
274.0480, 35679.00
274.5301, 35719.52
275.0122, 35789.00
275.4943, 35830.83
275.9764, 35838.14
276.4586, 35830.73
276.9407, 35831.21
277.4228, 35837.51
277.9049, 35868.94
278.3870, 35945.45
278.8691, 36064.00
279.3513, 36149.98
279.8334, 36195.56
280.3155, 36228.73
280.7976, 36297.97
281.2798, 36405.44
281.7619, 36485.03
282.2440, 36500.20
282.7261, 36460.54
283.2082, 36436.10
283.6903, 36426.29
284.1725, 36433.84
284.6546, 36467.29
285.1367, 36525.57
285.6188, 36589.02
286.1009, 36660.59
286.5830, 36732.62
287.0652, 36763.09
287.5473, 36745.76
288.0294, 36722.53
288.5115, 36743.12
288.9936, 36802.95
289.4757, 36862.96
289.9579, 36910.70
290.4400, 36949.30
290.9221, 36990.17
291.4042, 37033.85
291.8863, 37072.79
292.3684, 37087.41
292.8506, 37086.73
293.3327, 37112.82
293.8148, 37205.07
294.2969, 37317.35
294.7790, 37343.52
295.2611, 37283.43
295.7433, 37225.58
296.2254, 37259.94
296.7075, 37359.34
297.1896, 37445.31
297.6717, 37490.89
298.1538, 37517.24
298.6360, 37552.68
299.1181, 37597.16
299.6002, 37645.88
300.0823, 37705.97
300.5644, 37766.99
301.0465, 37807.71
301.5287, 37811.70
302.0108, 37806.81
302.4929, 37825.01
302.9750, 37863.35
303.4571, 37903.82
303.9392, 37938.64
304.4214, 37967.24
304.9035, 37985.88
305.3856, 37979.86
305.8677, 37985.43
306.3498, 38054.63
306.8319, 38168.05
307.3141, 38258.70
307.7962, 38259.55
308.2783, 38230.09
308.7604, 38229.85
309.2425, 38278.69
309.7246, 38340.95
310.2068, 38408.19
310.6889, 38473.04
311.1710, 38517.29
311.6531, 38508.61
312.1352, 38490.43
312.6173, 38495.91
313.0995, 38536.06
313.5816, 38583.09
314.0637, 38631.85
314.5458, 38678.20
315.0279, 38714.75
315.5100, 38723.12
315.9922, 38732.68
316.4743, 38763.79
316.9564, 38826.70
317.4385, 38878.25
317.9206, 38892.30
318.4027, 38889.15
318.8849, 38897.20
319.3670, 38930.57
319.8491, 38970.68
320.3312, 39003.41
320.8133, 39021.22
321.2954, 39073.41
321.7776, 39229.28
322.2597, 39401.68
322.7418, 39497.68
323.2239, 39408.22
323.7060, 39336.73
324.1881, 39341.76
324.6703, 39432.58
325.1524, 39503.33
325.6345, 39526.79
326.1166, 39537.31
326.5987, 39562.98
327.0808, 39635.09
327.5630, 39685.44
328.0451, 39694.11
328.5272, 39663.93
329.0093, 39657.61
329.4914, 39687.66
329.9735, 39730.20
330.4557, 39770.96
330.9378, 39814.88
331.4199, 39847.13
331.9020, 39855.61
332.3841, 39849.82
332.8662, 39879.68
333.3484, 39964.96
333.8305, 40055.48
334.3126, 40125.18
334.7947, 40169.37
335.2768, 40202.82
335.7589, 40217.56
336.2411, 40226.70
336.7232, 40270.32
337.2053, 40362.34
337.6874, 40447.20
338.1695, 40490.14
338.6516, 40482.39
339.1338, 40512.77
339.6159, 40597.02
340.0980, 40696.60
340.5801, 40737.79
341.0622, 40714.52
341.5443, 40692.72
342.0265, 40695.76
342.5086, 40722.86
342.9907, 40776.87
343.4728, 40865.08
343.9549, 40949.67
344.4370, 40972.37
344.9192, 40939.73
345.4013, 40914.69
345.8834, 40919.16
346.3655, 40947.23
346.8476, 40984.25
347.3297, 41029.93
347.8119, 41086.18
348.2940, 41168.23
348.7761, 41263.98
349.2582, 41333.52
349.7403, 41353.94
350.2225, 41356.80
350.7046, 41394.00
351.1867, 41460.71
351.6688, 41517.18
352.1509, 41524.91
352.6331, 41506.77
353.1152, 41494.09
353.5973, 41487.05
354.0794, 41499.89
354.5615, 41567.60
355.0436, 41670.42
355.5258, 41748.16
356.0079, 41745.00
356.4900, 41714.91
356.9721, 41702.23
357.4542, 41713.59
357.9363, 41743.09
358.4185, 41804.05
358.9006, 41879.20
359.3827, 41938.64
359.8648, 41950.48
360.3469, 41959.62
360.8290, 41985.93
361.3112, 42030.91
361.7933, 42096.56
362.2754, 42226.60
362.7575, 42361.95
363.2396, 42438.70
363.7217, 42380.77
364.2039, 42323.44
364.6860, 42295.02
365.1681, 42296.65
365.6502, 42325.96
366.1323, 42411.66
366.6144, 42507.43
367.0966, 42581.60
367.5787, 42617.49
368.0608, 42649.93
368.5429, 42679.22
369.0250, 42706.25
369.5071, 42734.55
369.9893, 42761.33
370.4714, 42792.43
370.9535, 42835.00
371.4356, 42910.22
371.9177, 42943.09
372.3998, 42905.68
372.8820, 42839.14
373.3641, 42842.93
373.8462, 42945.78
374.3283, 43044.04
374.8104, 43090.91
375.2925, 43080.99
375.7747, 43087.23
376.2568, 43111.18
376.7389, 43148.26
377.2210, 43198.19
377.7031, 43262.71
378.1852, 43314.61
378.6674, 43342.11
379.1495, 43350.64
379.6316, 43363.60
380.1137, 43380.99
380.5958, 43401.84
381.0779, 43421.42
381.5601, 43442.43
382.0422, 43476.61
382.5243, 43528.77
383.0064, 43593.42
383.4885, 43672.83
383.9706, 43763.56
384.4528, 43834.86
384.9349, 43842.32
385.4170, 43823.18
385.8991, 43843.72
386.3812, 43922.62
386.8633, 44013.77
387.3455, 44084.62
387.8276, 44135.25
388.3097, 44166.72
388.7918, 44160.03
389.2739, 44146.34
389.7560, 44152.80
390.2382, 44183.06
390.7203, 44214.24
391.2024, 44226.27
391.6845, 44234.92
392.1666, 44258.65
392.6487, 44316.57
393.1309, 44378.51
393.6130, 44437.45
394.0951, 44492.45
394.5772, 44533.54
395.0593, 44543.10
395.5414, 44547.55
396.0236, 44563.36
396.5057, 44621.52
396.9878, 44657.08
397.4699, 44642.85
397.9520, 44598.70
398.4341, 44586.95
398.9163, 44620.10
399.3984, 44673.05
399.8805, 44743.26
400.3626, 44848.47
400.8447, 44915.62
401.3268, 44923.67
401.8090, 44909.11
402.2911, 44922.95
402.7732, 44970.44
403.2553, 45033.68
403.7374, 45117.33
404.2195, 45218.57
404.7017, 45281.47
405.1838, 45296.82
405.6659, 45298.95
406.1480, 45319.45
406.6301, 45358.69
407.1122, 45395.03
407.5944, 45423.82
408.0765, 45448.38
408.5586, 45471.50
409.0407, 45493.46
409.5228, 45527.93
410.0049, 45597.75
410.4871, 45686.98
410.9692, 45747.73
411.4513, 45770.53
411.9334, 45784.20
412.4155, 45823.63
412.8976, 45881.75
413.3798, 45936.37
413.8619, 45982.86
414.3440, 46018.62
414.8261, 46036.02
415.3082, 46035.22
415.7903, 46037.58
416.2725, 46043.95
416.7546, 46066.11
417.2367, 46119.70
417.7188, 46258.72
418.2009, 46374.74
418.6830, 46401.20
419.1652, 46358.77
419.6473, 46322.16
420.1294, 46303.06
420.6115, 46305.95
421.0937, 46337.98
421.5758, 46420.84
422.0579, 46486.78
422.5400, 46519.08
423.0221, 46531.09
423.5042, 46544.88
423.9864, 46543.22
424.4685, 46563.96
424.9506, 46631.54
425.4327, 46752.79
425.9148, 46816.64
426.3969, 46788.75
426.8791, 46742.62
427.3612, 46742.53
427.8433, 46800.72
428.3254, 46866.52
428.8075, 46933.49
429.2896, 47003.16
429.7718, 47086.38
430.2539, 47189.49
430.7360, 47274.11
431.2181, 47301.25
431.7002, 47276.76
432.1823, 47286.29
432.6645, 47335.61
433.1466, 47414.22
433.6287, 47522.96
434.1108, 47653.78
434.5929, 47766.76
435.0750, 47834.74
435.5572, 47878.10
436.0393, 47931.17
436.5214, 47993.55
437.0035, 48057.36
437.4856, 48085.42
437.9677, 48119.49
438.4499, 48227.21
438.9320, 48470.79
439.4141, 48715.09
439.8962, 48850.57
440.3783, 48909.75
440.8604, 48980.51
441.3426, 49094.18
441.8247, 49234.87
442.3068, 49402.15
442.7889, 49604.79
443.2710, 49790.89
443.7531, 49943.44
444.2353, 50073.19
444.7174, 50194.68
445.1995, 50293.24
445.6816, 50399.85
446.1637, 50506.13
446.6458, 50615.55
447.1280, 50783.10
447.6101, 51042.07
448.0922, 51323.56
448.5743, 51587.10
449.0564, 51825.33
449.5385, 52072.97
450.0207, 52333.88
450.5028, 52600.91
450.9849, 52876.19
451.4670, 53172.91
451.9491, 53399.84
452.4312, 53531.02
452.9134, 53563.79
453.3955, 53479.65
453.8776, 53275.94
454.3597, 52980.29
454.8418, 52577.59
455.3239, 52094.10
455.8061, 51650.66
456.2882, 51259.04
456.7703, 50934.98
457.2524, 50712.77
457.7345, 50581.13
458.2166, 50489.95
458.6988, 50414.90
459.1809, 50363.56
459.6630, 50348.10
460.1451, 50371.60
460.6272, 50415.76
461.1093, 50489.55
461.5915, 50570.76
462.0736, 50630.18
462.5557, 50622.43
463.0378, 50626.40
463.5199, 50680.72
464.0020, 50778.20
464.4842, 50864.56
464.9663, 50900.25
465.4484, 50942.25
465.9305, 51020.71
466.4126, 51148.21
466.8947, 51295.11
467.3769, 51482.08
467.8590, 51678.79
468.3411, 51841.21
468.8232, 51974.16
469.3053, 52059.82
469.7874, 52087.91
470.2696, 52060.70
470.7517, 52018.89
471.2338, 51961.43
471.7159, 51893.08
472.1980, 51816.48
472.6801, 51731.43
473.1623, 51643.50
473.6444, 51550.42
474.1265, 51459.46
474.6086, 51388.55
475.0907, 51334.19
475.5728, 51273.61
476.0550, 51170.50
476.5371, 51061.66
477.0192, 51014.33
477.5013, 51030.89
477.9834, 51065.32
478.4655, 51074.86
478.9477, 51083.36
479.4298, 51123.08
479.9119, 51225.01
480.3940, 51333.79
480.8761, 51426.99
481.3582, 51504.86
481.8404, 51566.75
482.3225, 51581.04
482.8046, 51605.14
483.2867, 51681.18
483.7688, 51848.68
484.2509, 51942.70
484.7331, 51884.58
485.2152, 51779.87
485.6973, 51726.84
486.1794, 51763.67
486.6615, 51786.58
487.1436, 51776.54
487.6258, 51741.37
488.1079, 51718.60
488.5900, 51711.85
489.0721, 51707.88
489.5542, 51701.68
490.0363, 51693.28
490.5185, 51671.36
491.0006, 51630.30
491.4827, 51594.19
491.9648, 51602.43
492.4470, 51647.32
492.9291, 51687.07
493.4112, 51705.57
493.8933, 51712.15
494.3754, 51723.27
494.8575, 51736.79
495.3397, 51738.67
495.8218, 51695.14
496.3039, 51646.99
496.7860, 51646.05
497.2681, 51712.75
497.7502, 51775.11
498.2324, 51787.09
498.7145, 51774.15
499.1966, 51771.15
499.6787, 51782.54
500.1608, 51811.20
500.6429, 51872.79
501.1251, 51963.36
501.6072, 52022.60
502.0893, 52008.11
502.5714, 51996.12
503.0535, 52027.11
503.5356, 52136.84
504.0178, 52200.81
504.4999, 52198.49
504.9820, 52168.46
505.4641, 52173.72
505.9462, 52223.62
506.4283, 52257.77
506.9105, 52246.23
507.3926, 52208.43
507.8747, 52222.84
508.3568, 52291.07
508.8389, 52386.09
509.3210, 52515.63
509.8032, 52657.50
510.2853, 52750.37
510.7674, 52783.35
511.2495, 52781.12
511.7316, 52739.94
512.2137, 52683.58
512.6959, 52660.82
513.1780, 52728.65
513.6601, 52805.89
514.1422, 52834.82
514.6243, 52821.91
515.1064, 52815.33
515.5886, 52837.66
516.0707, 52869.61
516.5528, 52899.13
517.0349, 52921.30
517.5170, 52948.55
517.9991, 52982.27
518.4813, 53021.43
518.9634, 53065.59
519.4455, 53120.88
519.9276, 53170.52
520.4097, 53210.28
520.8918, 53240.97
521.3740, 53275.81
521.8561, 53320.43
522.3382, 53350.61
522.8203, 53329.18
523.3024, 53262.64
523.7845, 53271.41
524.2667, 53375.15
524.7488, 53505.51
525.2309, 53591.78
525.7130, 53638.35
526.1951, 53657.53
526.6772, 53636.36
527.1594, 53606.95
527.6415, 53606.13
528.1236, 53630.13
528.6057, 53662.77
529.0878, 53702.84
529.5699, 53742.54
530.0521, 53774.88
530.5342, 53797.92
531.0163, 53819.73
531.4984, 53836.78
531.9805, 53856.73
532.4626, 53887.83
532.9448, 53925.68
533.4269, 53982.83
533.9090, 54084.05
534.3911, 54208.15
534.8732, 54261.77
535.3553, 54203.70
535.8375, 54153.43
536.3196, 54170.51
536.8017, 54259.58
537.2838, 54320.88
537.7659, 54351.68
538.2480, 54365.53
538.7302, 54364.26
539.2123, 54353.33
539.6944, 54376.59
540.1765, 54458.87
540.6586, 54551.20
541.1407, 54573.59
541.6229, 54544.82
542.1050, 54532.95
542.5871, 54593.52
543.0692, 54674.90
543.5513, 54729.36
544.0334, 54754.12
544.5156, 54779.00
544.9977, 54818.20
545.4798, 54863.10
545.9619, 54907.38
546.4440, 54961.06
546.9261, 54997.39
547.4083, 54992.39
547.8904, 54971.80
548.3725, 54983.46
548.8546, 55051.32
549.3367, 55111.11
549.8188, 55138.93
550.3010, 55140.15
550.7831, 55186.62
551.2652, 55293.36
551.7473, 55395.45
552.2294, 55439.72
552.7115, 55432.23
553.1937, 55427.66
553.6758, 55428.18
554.1579, 55440.56
554.6400, 55486.91
555.1221, 55553.50
555.6042, 55599.26
556.0864, 55592.72
556.5685, 55576.78
557.0506, 55595.21
557.5327, 55640.11
558.0148, 55681.95
558.4969, 55682.19
558.9791, 55693.32
559.4612, 55764.55
559.9433, 55922.96
560.4254, 56023.98
560.9075, 55983.58
561.3896, 55906.56
561.8718, 55886.49
562.3539, 55967.59
562.8360, 56029.82
563.3181, 56055.04
563.8002, 56060.07
564.2823, 56089.34
564.7645, 56149.50
565.2466, 56202.81
565.7287, 56231.52
566.2108, 56240.71
566.6929, 56251.61
567.1750, 56263.87
567.6572, 56283.81
568.1393, 56313.90
568.6214, 56355.70
569.1035, 56418.04
569.5856, 56510.43
570.0677, 56592.09
570.5499, 56619.31
571.0320, 56616.34
571.5141, 56621.93
571.9962, 56660.55
572.4783, 56700.14
572.9604, 56725.32
573.4426, 56739.12
573.9247, 56758.71
574.4068, 56791.44
574.8889, 56826.09
575.3710, 56856.98
575.8531, 56881.20
576.3353, 56914.71
576.8174, 56957.15
577.2995, 57008.96
577.7816, 57077.93
578.2637, 57167.21
578.7458, 57234.96
579.2280, 57272.46
579.7101, 57290.76
580.1922, 57300.33
580.6743, 57304.50
581.1564, 57322.20
581.6385, 57379.76
582.1207, 57446.43
582.6028, 57473.50
583.0849, 57466.21
583.5670, 57467.27
584.0491, 57508.08
584.5313, 57563.28
585.0134, 57616.17
585.4955, 57667.84
585.9776, 57704.73
586.4597, 57682.51
586.9418, 57660.89
587.4240, 57712.31
587.9061, 57934.01
588.3882, 58078.74
588.8703, 58102.96
589.3524, 58038.00
589.8345, 57966.17
590.3167, 57879.29
590.7988, 57817.05
591.2809, 57804.61
591.7630, 57832.54
592.2451, 57846.90
592.7272, 57846.22
593.2094, 57868.36
593.6915, 57978.29
594.1736, 58126.69
594.6557, 58212.47
595.1378, 58206.23
595.6199, 58186.35
596.1021, 58203.42
596.5842, 58245.64
597.0663, 58296.36
597.5485, 58358.59
598.0306, 58418.69
598.5127, 58475.36
598.9948, 58527.04
599.4769, 58567.29
599.9590, 58578.89
600.4412, 58600.59
600.9233, 58651.12
601.4054, 58734.27
601.8875, 58787.84
602.3696, 58804.62
602.8517, 58808.50
603.3339, 58805.19
603.8160, 58798.12
604.2981, 58844.83
604.7802, 58960.55
605.2623, 59098.43
605.7444, 59201.29
606.2266, 59277.63
606.7087, 59345.35
607.1908, 59409.33
607.6729, 59471.10
608.1550, 59537.93
608.6371, 59604.86
609.1193, 59658.06
609.6014, 59664.05
610.0835, 59678.61
610.5656, 59734.66
611.0477, 59841.44
611.5298, 59930.29
612.0120, 59968.21
612.4941, 60017.24
612.9762, 60126.85
613.4583, 60325.29
613.9404, 60477.24
614.4225, 60565.90
614.9047, 60625.63
615.3868, 60705.40
615.8689, 60804.34
616.3510, 60902.44
616.8331, 60995.26
617.3152, 61082.25
617.7974, 61175.07
618.2795, 61264.81
618.7616, 61322.18
619.2437, 61306.61
619.7258, 61270.49
620.2079, 61242.68
620.6901, 61225.68
621.1722, 61238.96
621.6543, 61304.85
622.1364, 61392.58
622.6185, 61485.88
623.1006, 61604.48
623.5828, 61682.95
624.0649, 61711.94
624.5470, 61709.35
625.0291, 61692.27
625.5112, 61657.54
625.9933, 61620.63
626.4755, 61574.11
626.9576, 61541.20
627.4397, 61596.17
627.9218, 61725.10
628.4039, 61821.85
628.8860, 61782.28
629.3682, 61707.70
629.8503, 61741.24
630.3324, 61873.01
630.8145, 62025.30
631.2966, 62142.86
631.7787, 62269.98
632.2609, 62441.55
632.7430, 62671.96
633.2251, 62908.24
633.7072, 63176.55
634.1893, 63421.28
634.6714, 63601.16
635.1536, 63720.75
635.6357, 63758.18
636.1178, 63686.24
636.5999, 63558.08
637.0820, 63450.87
637.5641, 63363.33
638.0463, 63350.37
638.5284, 63447.53
639.0105, 63614.27
639.4926, 63780.13
639.9747, 63946.87
640.4568, 64119.16
640.9390, 64273.64
641.4211, 64454.66
641.9032, 64733.99
642.3853, 65115.01
642.8674, 65444.45
643.3495, 65655.27
643.8317, 65795.98
644.3138, 65906.78
644.7959, 66032.38
645.2780, 66034.86
645.7601, 65840.08
646.2422, 65587.74
646.7244, 65430.72
647.2065, 65373.64
647.6886, 65399.30
648.1707, 65517.14
648.6528, 65698.80
649.1349, 65955.20
649.6171, 66258.02
650.0992, 66418.13
650.5813, 66331.39
651.0634, 66063.66
651.5455, 65640.09
652.0276, 65082.90
652.5098, 64531.58
652.9919, 64012.20
653.4740, 63558.21
653.9561, 63190.26
654.4382, 62912.18
654.9203, 62710.63
655.4025, 62606.15
655.8846, 62558.55
656.3667, 62551.66
656.8488, 62608.51
657.3309, 62638.86
