##NAMES=Glauberite
##RRUFFID=R050350
##IDEAL CHEMISTRY=Na_2_Ca(S^6+^O_4_)_2_
##LOCALITY=Soda Lake, San Luis Obispo County, California, USA
##OWNER=RRUFF
##SOURCE=California Institute of Technology
##DESCRIPTION=Colorless tabular crystal
##STATUS=The identification of this mineral has been confirmed by X-ray diffraction and chemical analysis
##URL=rruff.info/R050350
##MEASURED CHEMISTRY=Na_1.90_Ca_1.15_(S_.99_O_4_)_2_
130.9229, 468.4953
131.4050, 462.4381
131.8871, 453.2818
132.3692, 442.6602
132.8513, 433.8570
133.3334, 426.1594
133.8156, 419.0265
134.2977, 414.8980
134.7798, 415.0289
135.2619, 413.8734
135.7440, 409.2079
136.2261, 402.3826
136.7083, 399.9406
137.1904, 402.6835
137.6725, 407.0764
138.1546, 409.6006
138.6367, 410.0113
139.1188, 410.0921
139.6010, 410.0032
140.0831, 409.7346
140.5652, 411.0413
141.0473, 414.8269
141.5294, 418.9442
142.0115, 420.2161
142.4937, 417.1935
142.9758, 414.7901
143.4579, 414.7045
143.9400, 417.6359
144.4221, 419.4048
144.9042, 419.9166
145.3864, 419.3370
145.8685, 417.7708
146.3506, 413.8436
146.8327, 410.7582
147.3148, 409.8100
147.7969, 412.7530
148.2791, 413.8377
148.7612, 411.6915
149.2433, 407.8413
149.7254, 405.7517
150.2075, 405.2050
150.6896, 406.5947
151.1718, 410.2540
151.6539, 419.6442
152.1360, 426.2726
152.6181, 428.9872
153.1002, 428.7101
153.5823, 428.1642
154.0645, 426.3780
154.5466, 425.1972
155.0287, 425.5433
155.5108, 430.9761
155.9929, 433.7661
156.4750, 431.1599
156.9572, 424.4719
157.4393, 419.0899
157.9214, 416.6433
158.4035, 415.4907
158.8856, 414.5956
159.3677, 414.5820
159.8499, 413.9500
160.3320, 411.7741
160.8141, 408.3655
161.2962, 405.5761
161.7783, 404.6406
162.2604, 404.3579
162.7426, 403.7373
163.2247, 401.5447
163.7068, 399.7762
164.1889, 399.4650
164.6710, 400.5443
165.1531, 401.9389
165.6353, 403.0090
166.1174, 404.1519
166.5995, 405.7951
167.0816, 409.2827
167.5637, 412.4333
168.0458, 413.2725
168.5280, 411.7837
169.0101, 410.7755
169.4922, 412.3668
169.9743, 415.4806
170.4564, 418.6124
170.9385, 421.1855
171.4207, 423.4911
171.9028, 425.7525
172.3849, 427.9659
172.8670, 430.1721
173.3491, 432.5956
173.8312, 435.0482
174.3134, 437.1758
174.7955, 438.4157
175.2776, 439.4032
175.7597, 440.9507
176.2418, 443.1655
176.7239, 445.4907
177.2061, 447.3180
177.6882, 448.8705
178.1703, 450.7118
178.6524, 453.3655
179.1345, 456.4471
179.6166, 459.4273
180.0988, 462.3836
180.5809, 464.8315
181.0630, 465.7459
181.5451, 465.5181
182.0272, 465.6790
182.5093, 468.0744
182.9915, 471.4069
183.4736, 472.2023
183.9557, 469.8696
184.4378, 466.3336
184.9199, 464.2240
185.4020, 463.3501
185.8842, 462.0901
186.3663, 458.9336
186.8484, 454.5478
187.3305, 451.7773
187.8126, 451.2185
188.2947, 451.2350
188.7769, 449.0106
189.2590, 444.6437
189.7411, 440.1421
190.2232, 436.8297
190.7053, 434.4732
191.1874, 431.2822
191.6696, 426.7599
192.1517, 421.9597
192.6338, 418.8407
193.1159, 417.4374
193.5980, 416.7272
194.0801, 416.6282
194.5623, 417.0283
195.0444, 415.9313
195.5265, 412.5908
196.0086, 408.4792
196.4907, 407.0094
196.9728, 408.4496
197.4550, 410.2406
197.9371, 410.8957
198.4192, 410.4013
198.9013, 409.6111
199.3834, 408.5117
199.8655, 407.2510
200.3477, 406.0970
200.8298, 405.0098
201.3119, 404.2347
201.7940, 404.2253
202.2761, 405.1366
202.7582, 404.9759
203.2404, 403.2319
203.7225, 400.5667
204.2046, 398.7625
204.6867, 397.8945
205.1688, 397.6326
205.6509, 398.0351
206.1331, 399.3087
206.6152, 399.8749
207.0973, 399.4391
207.5794, 398.2968
208.0615, 397.3403
208.5436, 396.6130
209.0258, 395.9517
209.5079, 395.1308
209.9900, 393.9664
210.4721, 393.5672
210.9542, 394.2796
211.4363, 395.7242
211.9185, 396.6491
212.4006, 396.9909
212.8827, 396.9392
213.3648, 396.4083
213.8469, 395.0302
214.3290, 394.5565
214.8112, 395.4640
215.2933, 397.2888
215.7754, 398.3963
216.2575, 398.6011
216.7396, 398.4330
217.2217, 398.1339
217.7038, 397.5961
218.1860, 397.2650
218.6681, 397.2272
219.1502, 397.4106
219.6323, 397.5474
220.1144, 397.5884
220.5965, 397.6731
221.0787, 397.8866
221.5608, 398.2658
222.0429, 398.7338
222.5250, 399.5215
223.0071, 400.3776
223.4892, 400.1401
223.9714, 397.8605
224.4535, 395.9872
224.9356, 396.0977
225.4177, 399.5538
225.8998, 401.6230
226.3819, 401.4667
226.8641, 399.8430
227.3462, 399.4837
227.8283, 401.1989
228.3104, 402.9337
228.7925, 403.5863
229.2746, 402.6978
229.7568, 401.6825
230.2389, 400.1880
230.7210, 398.6446
231.2031, 398.6517
231.6852, 401.3039
232.1673, 403.8784
232.6495, 404.8631
233.1316, 403.0421
233.6137, 402.4267
234.0958, 403.7341
234.5779, 406.1786
235.0600, 407.4417
235.5422, 406.7132
236.0243, 406.0007
236.5064, 406.2634
236.9885, 408.1242
237.4706, 409.6165
237.9527, 410.8552
238.4349, 411.6737
238.9170, 411.5364
239.3991, 409.8444
239.8812, 408.0875
240.3633, 406.7955
240.8454, 405.7840
241.3276, 405.7947
241.8097, 407.5108
242.2918, 409.9952
242.7739, 411.1104
243.2560, 410.1242
243.7381, 408.8965
244.2203, 408.0034
244.7024, 407.2238
245.1845, 407.5048
245.6666, 409.5228
246.1487, 412.2773
246.6308, 413.8201
247.1130, 413.5115
247.5951, 413.0263
248.0772, 412.8333
248.5593, 412.7929
249.0414, 413.6457
249.5235, 416.0654
250.0057, 418.9473
250.4878, 420.4243
250.9699, 419.7973
251.4520, 419.0000
251.9341, 418.6542
252.4162, 418.8754
252.8984, 418.9417
253.3805, 418.7370
253.8626, 418.4653
254.3447, 418.4244
254.8268, 418.6481
255.3089, 419.0413
255.7911, 419.6638
256.2732, 420.5900
256.7553, 421.0538
257.2374, 420.5978
257.7195, 420.1352
258.2017, 420.9301
258.6838, 423.6718
259.1659, 426.1296
259.6480, 427.8262
260.1301, 428.7416
260.6122, 429.0627
261.0944, 428.5362
261.5765, 427.7301
262.0586, 427.2772
262.5407, 427.3512
263.0228, 427.2882
263.5049, 426.8220
263.9871, 425.9869
264.4692, 425.7099
264.9513, 426.0471
265.4334, 426.8495
265.9155, 428.2534
266.3976, 430.7027
266.8798, 432.0971
267.3619, 431.6738
267.8440, 429.7377
268.3261, 428.8604
268.8082, 429.3293
269.2903, 430.2477
269.7725, 430.8892
270.2546, 431.1440
270.7367, 431.5938
271.2188, 432.3700
271.7009, 433.3829
272.1830, 434.2592
272.6652, 434.9342
273.1473, 435.6268
273.6294, 436.9051
274.1115, 439.1510
274.5936, 439.1488
275.0757, 435.5204
275.5579, 430.1776
276.0400, 429.3427
276.5221, 434.0640
277.0042, 439.0403
277.4863, 440.8103
277.9684, 439.0799
278.4506, 438.2521
278.9327, 438.8509
279.4148, 440.2096
279.8969, 440.9760
280.3790, 441.1132
280.8611, 440.9434
281.3433, 440.3232
281.8254, 439.2653
282.3075, 439.2563
282.7896, 440.5127
283.2717, 442.4436
283.7538, 444.6047
284.2360, 447.0588
284.7181, 448.2044
285.2002, 446.4083
285.6823, 442.1593
286.1644, 440.0707
286.6465, 440.4333
287.1287, 441.9517
287.6108, 443.3495
288.0929, 444.6002
288.5750, 445.2270
289.0571, 444.6625
289.5392, 443.3166
290.0214, 443.0121
290.5035, 443.8625
290.9856, 444.8162
291.4677, 444.5943
291.9498, 443.3956
292.4319, 442.4551
292.9141, 442.1725
293.3962, 442.3709
293.8783, 442.7658
294.3604, 443.3629
294.8425, 443.8582
295.3246, 444.0299
295.8068, 443.9008
296.2889, 443.4779
296.7710, 442.5627
297.2531, 441.5964
297.7352, 441.2533
298.2173, 441.5175
298.6995, 442.2713
299.1816, 443.9474
299.6637, 446.0085
300.1458, 447.2114
300.6279, 447.1566
301.1100, 446.5783
301.5922, 446.1847
302.0743, 445.9868
302.5564, 446.0453
303.0385, 446.5587
303.5206, 447.2861
304.0027, 447.8556
304.4849, 448.1608
304.9670, 448.5083
305.4491, 449.3553
305.9312, 450.4840
306.4133, 451.3723
306.8954, 451.6167
307.3776, 451.5833
307.8597, 451.7073
308.3418, 452.0570
308.8239, 452.1878
309.3060, 451.2724
309.7881, 450.0037
310.2703, 449.4980
310.7524, 450.8629
311.2345, 452.6667
311.7166, 454.1039
312.1987, 455.1402
312.6808, 455.5287
313.1630, 454.5221
313.6451, 453.0202
314.1272, 451.9816
314.6093, 451.9014
315.0914, 452.1830
315.5735, 452.6230
316.0557, 453.2064
316.5378, 453.8687
317.0199, 454.7515
317.5020, 455.6006
317.9841, 456.1979
318.4662, 456.0843
318.9484, 456.3162
319.4305, 457.7874
319.9126, 459.9258
320.3947, 461.2260
320.8768, 460.1655
321.3589, 458.9832
321.8411, 458.9988
322.3232, 461.2503
322.8053, 462.5469
323.2874, 461.6269
323.7695, 459.5020
324.2516, 457.7737
324.7338, 456.5284
325.2159, 455.8571
325.6980, 455.7866
326.1801, 456.3233
326.6622, 457.4374
327.1443, 460.4244
327.6265, 463.4368
328.1086, 464.6016
328.5907, 461.6519
329.0728, 459.3621
329.5549, 458.4711
330.0370, 458.9913
330.5192, 460.0534
331.0013, 462.5833
331.4834, 464.8844
331.9655, 465.7046
332.4476, 463.7354
332.9297, 462.5523
333.4119, 462.7843
333.8940, 464.0653
334.3761, 464.7563
334.8582, 464.4832
335.3403, 464.1815
335.8224, 464.3394
336.3046, 465.1173
336.7867, 465.8506
337.2688, 466.4662
337.7509, 467.0737
338.2330, 468.0891
338.7151, 469.8314
339.1973, 470.9376
339.6794, 470.5006
340.1615, 468.4001
340.6436, 467.7844
341.1257, 469.1161
341.6078, 470.9573
342.0899, 471.2467
342.5721, 469.8409
343.0542, 468.9046
343.5363, 469.2962
344.0184, 470.6577
344.5005, 471.4478
344.9826, 471.6317
345.4648, 471.4730
345.9469, 470.8007
346.4290, 469.7739
346.9111, 469.8880
347.3932, 471.8919
347.8753, 474.5233
348.3575, 474.8293
348.8396, 473.0281
349.3217, 471.7207
349.8038, 473.1215
350.2859, 476.2963
350.7680, 479.2442
351.2502, 481.9160
351.7323, 483.5978
352.2144, 482.5348
352.6965, 479.6141
353.1786, 477.5504
353.6607, 478.7686
354.1429, 481.1114
354.6250, 481.5529
355.1071, 479.9096
355.5892, 478.5283
356.0713, 479.9881
356.5534, 482.7243
357.0356, 484.4056
357.5177, 483.0512
357.9998, 481.3061
358.4819, 481.2795
358.9640, 482.6773
359.4461, 483.8682
359.9283, 483.7729
360.4104, 483.2193
360.8925, 482.8499
361.3746, 482.6500
361.8567, 482.9130
362.3388, 484.1700
362.8210, 485.9761
363.3031, 487.3551
363.7852, 488.2145
364.2673, 488.3988
364.7494, 487.4970
365.2315, 484.8935
365.7137, 483.3275
366.1958, 484.6918
366.6779, 486.9135
367.1600, 487.5668
367.6421, 483.8052
368.1242, 481.1212
368.6064, 481.0140
369.0885, 483.6441
369.5706, 485.9364
370.0527, 488.0485
370.5348, 489.7231
371.0169, 490.8574
371.4991, 491.8093
371.9812, 491.5168
372.4633, 489.0379
372.9454, 485.2908
373.4275, 483.6100
373.9096, 484.6974
374.3918, 486.6168
374.8739, 488.7092
375.3560, 491.2794
375.8381, 492.5896
376.3202, 492.0653
376.8023, 491.0055
377.2845, 491.7025
377.7666, 494.5827
378.2487, 496.7987
378.7308, 497.0554
379.2129, 495.7394
379.6950, 495.5833
380.1772, 496.7576
380.6593, 498.1877
381.1414, 498.9735
381.6235, 499.1402
382.1056, 498.8334
382.5877, 497.7180
383.0699, 496.6486
383.5520, 497.7235
384.0341, 500.7330
384.5162, 503.4333
384.9983, 504.3219
385.4804, 503.9039
385.9626, 503.1310
386.4447, 502.0153
386.9268, 500.9875
387.4089, 500.2971
387.8910, 500.0185
388.3731, 500.3393
388.8553, 502.0904
389.3374, 504.0040
389.8195, 504.6364
390.3016, 504.0445
390.7837, 503.5289
391.2658, 503.9536
391.7480, 504.8524
392.2301, 505.7264
392.7122, 506.2262
393.1943, 506.9791
393.6764, 508.7188
394.1585, 511.0161
394.6407, 512.6112
395.1228, 513.0853
395.6049, 512.7746
396.0870, 511.5514
396.5691, 508.8490
397.0512, 507.0936
397.5334, 506.8210
398.0155, 507.7197
398.4976, 509.3928
398.9797, 513.3497
399.4618, 516.4183
399.9439, 517.8536
400.4261, 517.6575
400.9082, 517.1547
401.3903, 516.0667
401.8724, 514.9209
402.3545, 513.9839
402.8366, 513.0142
403.3188, 512.7953
403.8009, 513.4447
404.2830, 514.8370
404.7651, 516.8475
405.2472, 519.8055
405.7293, 522.3990
406.2115, 524.1355
406.6936, 524.9988
407.1757, 524.9675
407.6578, 523.7091
408.1399, 522.4686
408.6220, 522.9254
409.1042, 525.0397
409.5863, 526.9783
410.0684, 528.4183
410.5505, 529.2473
411.0326, 528.8618
411.5147, 527.3075
411.9969, 526.0414
412.4790, 526.3339
412.9611, 527.6683
413.4432, 528.7617
413.9253, 529.3857
414.4074, 530.0369
414.8896, 531.1910
415.3717, 532.7845
415.8538, 534.6673
416.3359, 537.4233
416.8180, 540.0006
417.3001, 541.1808
417.7823, 540.9965
418.2644, 540.7477
418.7465, 541.2400
419.2286, 542.0074
419.7107, 542.5697
420.1928, 542.4506
420.6750, 542.5796
421.1571, 543.3381
421.6392, 544.6112
422.1213, 546.0907
422.6034, 547.9128
423.0855, 549.7303
423.5677, 551.3533
424.0498, 552.6161
424.5319, 554.2113
425.0140, 556.4489
425.4961, 558.9520
425.9782, 561.3638
426.4604, 563.8566
426.9425, 566.0157
427.4246, 567.6407
427.9067, 568.8488
428.3888, 570.2961
428.8709, 571.9019
429.3531, 573.8827
429.8352, 576.4641
430.3173, 579.7238
430.7994, 582.8541
431.2815, 585.5238
431.7636, 588.5258
432.2458, 593.6202
432.7279, 600.9756
433.2100, 607.3386
433.6921, 610.5388
434.1742, 612.0265
434.6563, 617.4885
435.1385, 627.0860
435.6206, 637.5901
436.1027, 646.0494
436.5848, 653.2639
437.0669, 661.4396
437.5490, 671.1359
438.0312, 681.6204
438.5133, 692.3129
438.9954, 703.2513
439.4775, 714.5294
439.9596, 725.7805
440.4417, 737.6732
440.9239, 751.2308
441.4060, 766.5199
441.8881, 781.6265
442.3702, 794.9616
442.8523, 807.6390
443.3344, 820.8708
443.8166, 836.4163
444.2987, 850.8470
444.7808, 862.2971
445.2629, 871.7135
445.7450, 881.9696
446.2271, 892.9352
446.7093, 905.1920
447.1914, 918.4550
447.6735, 931.7404
448.1556, 949.5670
448.6377, 972.8505
449.1198, 999.8563
449.6020, 1029.093
450.0841, 1060.046
450.5662, 1093.298
451.0483, 1130.374
451.5304, 1169.884
452.0125, 1205.822
452.4947, 1239.949
452.9768, 1266.013
453.4589, 1281.873
453.9410, 1287.558
454.4231, 1278.072
454.9052, 1251.169
455.3874, 1215.959
455.8695, 1180.857
456.3516, 1146.236
456.8337, 1115.884
457.3158, 1089.895
457.7979, 1069.386
458.2801, 1056.231
458.7622, 1050.296
459.2443, 1050.455
459.7264, 1057.119
460.2085, 1069.055
460.6906, 1084.661
461.1728, 1103.645
461.6549, 1126.401
462.1370, 1152.140
462.6191, 1181.765
463.1012, 1216.085
463.5833, 1252.775
464.0655, 1296.692
464.5476, 1351.082
465.0297, 1414.984
465.5118, 1483.032
465.9939, 1550.992
466.4760, 1623.428
466.9582, 1702.884
467.4403, 1795.641
467.9224, 1886.150
468.4045, 1977.507
468.8866, 2064.604
469.3687, 2143.000
469.8509, 2219.096
470.3330, 2272.742
470.8151, 2300.752
471.2972, 2302.909
471.7793, 2275.397
472.2614, 2215.452
472.7436, 2132.591
473.2257, 2027.152
473.7078, 1898.228
474.1899, 1772.957
474.6720, 1651.134
475.1541, 1537.296
475.6363, 1437.395
476.1184, 1351.250
476.6005, 1277.862
477.0826, 1217.422
477.5647, 1169.264
478.0468, 1132.486
478.5290, 1106.710
479.0111, 1088.557
479.4932, 1077.475
479.9753, 1071.887
480.4574, 1069.793
480.9395, 1070.493
481.4217, 1075.880
481.9038, 1090.163
482.3859, 1109.097
482.8680, 1126.295
483.3501, 1139.832
483.8322, 1151.092
484.3144, 1163.417
484.7965, 1175.880
485.2786, 1177.404
485.7607, 1162.728
486.2428, 1139.353
486.7249, 1110.966
487.2071, 1078.144
487.6892, 1039.284
488.1713, 990.0569
488.6534, 937.9046
489.1355, 892.5876
489.6176, 854.4957
490.0998, 821.7687
490.5819, 794.2230
491.0640, 771.1182
491.5461, 749.0309
492.0282, 727.5734
492.5103, 709.0764
492.9925, 696.8090
493.4746, 689.3823
493.9567, 680.0174
494.4388, 667.5892
494.9209, 655.8130
495.4030, 649.6142
495.8852, 647.3315
496.3673, 644.5853
496.8494, 638.9569
497.3315, 632.9484
497.8136, 629.2742
498.2957, 627.3873
498.7779, 625.2209
499.2600, 621.0745
499.7421, 616.6447
500.2242, 613.1890
500.7063, 611.0305
501.1884, 608.9373
501.6706, 606.1910
502.1527, 603.5097
502.6348, 601.6696
503.1169, 601.8650
503.5990, 601.6125
504.0811, 600.3911
504.5633, 598.5175
505.0454, 597.1629
505.5275, 596.6841
506.0096, 596.1339
506.4917, 594.8632
506.9738, 592.6772
507.4560, 592.4720
507.9381, 595.0513
508.4202, 597.4383
508.9023, 595.6828
509.3844, 590.1048
509.8665, 586.3856
510.3487, 585.8387
510.8308, 587.1354
511.3129, 588.6857
511.7950, 590.3315
512.2772, 591.3242
512.7593, 590.9717
513.2414, 589.9081
513.7235, 588.4597
514.2056, 586.7098
514.6877, 585.8904
515.1699, 587.9401
515.6520, 590.6771
516.1341, 591.9481
516.6162, 590.3552
517.0983, 589.0794
517.5804, 589.6745
518.0626, 591.1394
518.5447, 591.8354
519.0268, 591.5219
519.5089, 590.3487
519.9910, 587.9073
520.4731, 584.3246
520.9553, 581.7499
521.4374, 580.4563
521.9195, 579.8055
522.4016, 579.3784
522.8837, 579.0361
523.3658, 579.8801
523.8480, 582.2919
524.3301, 585.1246
524.8122, 586.9852
525.2943, 587.8898
525.7764, 587.9498
526.2585, 586.8952
526.7407, 585.3661
527.2228, 584.2565
527.7049, 583.6119
528.1870, 583.6993
528.6691, 585.5004
529.1512, 587.6937
529.6334, 588.7053
530.1155, 588.4080
530.5976, 587.5922
531.0797, 585.9380
531.5618, 584.3558
532.0439, 583.8010
532.5261, 585.2684
533.0082, 586.6617
533.4903, 587.5466
533.9724, 587.9904
534.4545, 588.1670
534.9366, 588.4540
535.4188, 588.0308
535.9009, 586.3052
536.3830, 583.3380
536.8651, 581.5931
537.3472, 581.1846
537.8293, 581.7899
538.3115, 583.7156
538.7936, 587.1610
539.2757, 588.9226
539.7578, 588.5114
540.2399, 587.3384
540.7220, 587.3218
541.2042, 588.2670
541.6863, 588.9971
542.1684, 588.8508
542.6505, 588.6683
543.1326, 590.6025
543.6147, 593.8337
544.0969, 595.2543
544.5790, 590.1261
545.0611, 584.3305
545.5432, 583.6724
546.0253, 588.9045
546.5074, 592.8556
546.9896, 590.8633
547.4717, 587.2291
547.9538, 585.4303
548.4359, 587.2301
548.9180, 589.3101
549.4001, 592.3370
549.8823, 595.2279
550.3644, 595.9091
550.8465, 592.7982
551.3286, 590.4641
551.8107, 590.0373
552.2928, 591.3627
552.7750, 593.6732
553.2571, 597.3417
553.7392, 600.2471
554.2213, 600.5878
554.7034, 598.8015
555.1855, 597.2503
555.6677, 595.9805
556.1498, 595.4131
556.6319, 596.7004
557.1140, 598.9491
557.5961, 600.2489
558.0782, 599.6666
558.5604, 598.6144
559.0425, 597.8907
559.5246, 597.5653
560.0067, 597.8127
560.4888, 599.3790
560.9709, 600.9212
561.4531, 601.9593
561.9352, 602.4719
562.4173, 602.3070
562.8994, 600.5819
563.3815, 598.8793
563.8636, 597.9825
564.3458, 598.1272
564.8279, 598.5412
565.3100, 599.4432
565.7921, 600.3529
566.2742, 600.5114
566.7563, 599.8152
567.2385, 599.4093
567.7206, 599.5239
568.2027, 600.0903
568.6848, 601.0206
569.1669, 602.2993
569.6490, 603.7257
570.1312, 605.7570
570.6133, 607.6314
571.0954, 608.1599
571.5775, 607.3629
572.0596, 605.9154
572.5417, 603.0050
573.0239, 600.3505
573.5060, 599.7242
573.9881, 602.2543
574.4702, 604.5229
574.9523, 605.3932
575.4344, 605.5128
575.9166, 605.6866
576.3987, 605.9390
576.8808, 606.3151
577.3629, 606.7844
577.8450, 607.3871
578.3271, 608.3757
578.8093, 610.0034
579.2914, 611.2019
579.7735, 611.0737
580.2556, 609.9530
580.7377, 610.9340
581.2198, 614.2020
581.7020, 617.4249
582.1841, 618.3798
582.6662, 617.8381
583.1483, 617.6718
583.6304, 618.1755
584.1125, 618.7899
584.5947, 619.1313
585.0768, 619.2480
585.5589, 619.1909
586.0410, 618.1658
586.5231, 617.9086
587.0052, 619.6976
587.4873, 622.8705
587.9694, 625.5934
588.4515, 627.4139
588.9337, 628.8873
589.4158, 630.1353
589.8979, 631.1597
590.3800, 632.0436
590.8621, 632.5616
591.3442, 633.3278
591.8264, 634.9471
592.3085, 637.5216
592.7906, 639.1405
593.2727, 639.5661
593.7548, 639.6273
594.2369, 640.0314
594.7191, 640.8495
595.2012, 642.4508
595.6833, 645.1942
596.1654, 648.2125
596.6475, 650.3301
597.1296, 651.9722
597.6118, 654.1740
598.0939, 657.4499
598.5760, 661.3837
599.0581, 665.6801
599.5402, 670.3378
600.0223, 675.9411
600.5045, 682.9718
600.9866, 690.7026
601.4687, 698.7932
601.9508, 707.0934
602.4329, 716.4642
602.9150, 727.0335
603.3972, 738.4183
603.8793, 750.5338
604.3614, 763.5758
604.8435, 775.6422
605.3256, 786.0666
605.8077, 796.2107
606.2899, 808.0742
606.7720, 821.4681
607.2541, 834.8960
607.7362, 846.4242
608.2183, 859.1542
608.7004, 876.8810
609.1826, 898.9391
609.6647, 922.3751
610.1468, 943.5093
610.6289, 967.7855
611.1110, 998.1825
611.5931, 1035.301
612.0753, 1076.453
612.5574, 1122.734
613.0395, 1172.238
613.5216, 1223.161
614.0037, 1273.719
614.4858, 1331.930
614.9680, 1399.283
615.4501, 1472.260
615.9322, 1548.876
616.4143, 1629.313
616.8964, 1706.381
617.3785, 1782.233
617.8607, 1846.375
618.3428, 1885.346
618.8249, 1897.999
619.3070, 1879.429
619.7891, 1813.440
620.2712, 1725.124
620.7534, 1630.545
621.2355, 1532.308
621.7176, 1446.503
622.1997, 1380.036
622.6818, 1328.827
623.1639, 1293.231
623.6461, 1275.644
624.1282, 1256.491
624.6103, 1235.085
625.0924, 1210.433
625.5745, 1181.909
626.0566, 1148.802
626.5388, 1111.958
627.0209, 1069.604
