##NAMES=Glaucodot
##RRUFFID=R070644
##IDEAL CHEMISTRY=Co^3+^Fe^3+^(AsS)^3-^_2_
##LOCALITY=Hakansboda, Lindesberg, Västmanland, Sweden
##OWNER=RRUFF
##SOURCE=Michael Scott
##DESCRIPTION=Pair of grey metallic crystals with chalcopyrite embedded in epoxy.
##STATUS=The identification of this mineral is confirmed by single-crystal X-ray diffraction and chemical analysis.
##URL=rruff.info/R070644
##MEASURED CHEMISTRY=(Co_0.53_Fe_0.45_Ni_0.02_)_Σ=1_As_1.00_(S_0.90_As_0.10_)_Σ=1_ ; the included dark prisms are actinolite
146.2870, 239.3366
146.7691, 248.7124
147.2512, 256.6138
147.7334, 261.9355
148.2155, 264.2056
148.6976, 266.2201
149.1797, 267.9741
149.6618, 269.4767
150.1439, 270.7273
150.6261, 268.2851
151.1082, 268.6657
151.5903, 274.7231
152.0724, 291.4232
152.5545, 302.6733
153.0366, 302.3861
153.5188, 295.9963
154.0009, 294.1929
154.4830, 307.3894
154.9651, 318.8520
155.4472, 320.7079
155.9293, 303.6852
156.4115, 289.2746
156.8936, 281.2721
157.3757, 279.0479
157.8578, 280.1775
158.3399, 286.6011
158.8221, 294.6436
159.3042, 301.9778
159.7863, 308.8112
160.2684, 314.1057
160.7505, 316.6018
161.2326, 316.7127
161.7148, 317.4479
162.1969, 321.9491
162.6790, 326.9802
163.1611, 329.3731
163.6432, 328.3933
164.1253, 324.3218
164.6075, 315.3052
165.0896, 301.2063
165.5717, 289.4391
166.0538, 285.5423
166.5359, 286.3519
167.0180, 287.2945
167.5002, 286.2695
167.9823, 284.7932
168.4644, 283.3013
168.9465, 281.4873
169.4286, 282.0138
169.9107, 289.1796
170.3929, 300.2080
170.8750, 309.4395
171.3571, 314.9973
171.8392, 316.7533
172.3213, 313.1750
172.8034, 302.5029
173.2856, 291.7916
173.7677, 287.9331
174.2498, 289.6683
174.7319, 292.7072
175.2140, 295.3306
175.6961, 297.4132
176.1783, 298.4251
176.6604, 297.5334
177.1425, 296.8499
177.6246, 299.7773
178.1067, 305.7632
178.5888, 311.4177
179.0710, 315.6764
179.5531, 317.7447
180.0352, 314.9778
180.5173, 304.1476
180.9994, 290.8875
181.4815, 285.1308
181.9637, 286.6550
182.4458, 290.0545
182.9279, 290.9771
183.4100, 289.9854
183.8921, 288.9886
184.3742, 287.0338
184.8564, 286.0786
185.3385, 293.0281
185.8206, 308.6582
186.3027, 323.4970
186.7848, 325.7350
187.2669, 317.0934
187.7491, 310.9903
188.2312, 315.2378
188.7133, 325.7899
189.1954, 326.0230
189.6775, 314.2528
190.1596, 299.6576
190.6418, 292.8331
191.1239, 293.7166
191.6060, 297.5717
192.0881, 305.5847
192.5702, 316.5377
193.0524, 317.8296
193.5345, 307.0127
194.0166, 292.9076
194.4987, 290.2993
194.9808, 299.9271
195.4629, 309.9283
195.9451, 314.7633
196.4272, 314.5844
196.9093, 313.4673
197.3914, 311.3675
197.8735, 308.5999
198.3556, 305.2436
198.8378, 301.0166
199.3199, 298.0282
199.8020, 298.4852
200.2841, 302.7955
200.7662, 304.0765
201.2483, 301.0554
201.7305, 295.5949
202.2126, 292.3815
202.6947, 291.8818
203.1768, 291.8874
203.6589, 291.2050
204.1410, 289.8206
204.6232, 287.6968
205.1053, 284.2345
205.5874, 280.2888
206.0695, 279.1318
206.5516, 281.6943
207.0337, 284.6009
207.5159, 285.8008
207.9980, 285.2809
208.4801, 282.7893
208.9622, 277.3207
209.4443, 269.8723
209.9264, 265.3876
210.4086, 264.3324
210.8907, 265.3142
211.3728, 267.7219
211.8549, 272.2872
212.3370, 275.8089
212.8191, 277.6316
213.3013, 277.9396
213.7834, 278.1808
214.2655, 277.8014
214.7476, 278.2550
215.2297, 281.8168
215.7118, 291.3243
216.1940, 295.8164
216.6761, 291.4889
217.1582, 278.9158
217.6403, 271.3669
218.1224, 269.9440
218.6045, 272.1681
219.0867, 276.2776
219.5688, 283.5141
220.0509, 289.8049
220.5330, 295.2566
221.0151, 300.0652
221.4972, 297.3280
221.9794, 282.1176
222.4615, 264.8390
222.9436, 257.1669
223.4257, 264.1023
223.9078, 270.2889
224.3899, 271.2843
224.8721, 266.3611
225.3542, 266.4063
225.8363, 274.2398
226.3184, 284.3646
226.8005, 290.3951
227.2827, 291.0675
227.7648, 289.9174
228.2469, 287.6233
228.7290, 284.1390
229.2111, 279.7284
229.6932, 273.1253
230.1754, 266.6723
230.6575, 263.7175
231.1396, 266.5099
231.6217, 268.8272
232.1038, 268.4672
232.5859, 264.4504
233.0681, 263.2568
233.5502, 266.5219
234.0323, 271.4289
234.5144, 273.8281
234.9965, 272.3639
235.4786, 270.6561
235.9608, 270.0125
236.4429, 271.0247
236.9250, 270.1964
237.4071, 266.0740
237.8892, 261.0204
238.3713, 258.9071
238.8535, 261.1197
239.3356, 263.9791
239.8177, 266.5677
240.2998, 269.1351
240.7819, 270.3160
241.2640, 269.1082
241.7462, 267.1154
242.2283, 267.1071
242.7104, 269.6831
243.1925, 273.3285
243.6746, 278.6236
244.1567, 288.0760
244.6389, 289.6858
245.1210, 278.1616
245.6031, 261.9542
246.0852, 257.0811
246.5673, 270.8255
247.0494, 283.4644
247.5316, 287.1457
248.0137, 277.8725
248.4958, 273.5929
248.9779, 277.4488
249.4600, 284.5556
249.9421, 285.4408
250.4243, 277.1742
250.9064, 267.9340
251.3885, 260.1703
251.8706, 253.2634
252.3527, 249.9981
252.8348, 251.0050
253.3170, 255.2356
253.7991, 261.6127
254.2812, 272.8674
254.7633, 280.9032
255.2454, 282.0292
255.7275, 274.2114
256.2097, 267.0376
256.6918, 261.1253
257.1739, 255.5157
257.6560, 247.2193
258.1381, 232.4315
258.6202, 222.8552
259.1024, 224.2865
259.5845, 240.1447
260.0666, 252.8295
260.5487, 262.0246
261.0308, 268.2477
261.5129, 273.2015
261.9951, 277.9653
262.4772, 278.7051
262.9593, 272.0250
263.4414, 254.7647
263.9235, 245.2869
264.4056, 245.4575
264.8878, 251.6008
265.3699, 258.1093
265.8520, 266.0415
266.3341, 271.4403
266.8162, 271.6636
267.2983, 265.3377
267.7805, 263.2524
268.2626, 267.4215
268.7447, 273.6129
269.2268, 273.4151
269.7089, 264.4820
270.1910, 257.6021
270.6732, 257.8783
271.1553, 266.2841
271.6374, 272.2535
272.1195, 275.2177
272.6016, 276.5869
273.0837, 278.5055
273.5659, 281.1180
274.0480, 283.6162
274.5301, 286.4580
275.0122, 289.7545
275.4943, 288.5789
275.9764, 281.3441
276.4586, 272.6230
276.9407, 269.2290
277.4228, 271.5438
277.9049, 276.1549
278.3870, 283.8407
278.8691, 294.1936
279.3513, 296.0722
279.8334, 287.0055
280.3155, 275.8190
280.7976, 275.8504
281.2798, 287.6176
281.7619, 298.4611
282.2440, 303.4359
282.7261, 303.2117
283.2082, 302.4903
283.6903, 301.0715
284.1725, 299.8925
284.6546, 300.6011
285.1367, 303.0971
285.6188, 304.8798
286.1009, 304.7062
286.5830, 303.0677
287.0652, 302.1095
287.5473, 301.9168
288.0294, 301.9443
288.5115, 301.3900
288.9936, 300.3780
289.4757, 300.0630
289.9579, 302.1581
290.4400, 304.9060
290.9221, 302.6096
291.4042, 294.9399
291.8863, 286.3309
292.3684, 280.1514
292.8506, 276.5314
293.3327, 276.0816
293.8148, 280.8464
294.2969, 287.8232
294.7790, 291.3314
295.2611, 291.3690
295.7433, 289.5243
296.2254, 286.3307
296.7075, 282.2311
297.1896, 278.4045
297.6717, 273.9841
298.1538, 270.9476
298.6360, 273.7209
299.1181, 281.8522
299.6002, 289.6983
300.0823, 295.3523
300.5644, 297.4445
301.0465, 292.5684
301.5287, 275.4746
302.0108, 256.5484
302.4929, 247.6553
302.9750, 247.7270
303.4571, 251.1301
303.9392, 256.6263
304.4214, 262.3749
304.9035, 265.9982
305.3856, 266.6697
305.8677, 265.3435
306.3498, 261.2373
306.8319, 255.3478
307.3141, 251.1216
307.7962, 252.3510
308.2783, 255.4672
308.7604, 256.9655
309.2425, 255.7719
309.7246, 253.6199
310.2068, 251.2210
310.6889, 248.6707
311.1710, 246.1916
311.6531, 240.5859
312.1352, 237.1001
312.6173, 241.3686
313.0995, 257.9403
313.5816, 271.3763
314.0637, 271.2259
314.5458, 263.1386
315.0279, 257.7792
315.5100, 261.6427
315.9922, 267.4931
316.4743, 271.5279
316.9564, 272.9303
317.4385, 274.0808
317.9206, 276.0088
318.4027, 278.0991
318.8849, 279.4914
319.3670, 279.1487
319.8491, 278.7780
320.3312, 279.1197
320.8133, 280.3900
321.2954, 281.3871
321.7776, 279.8560
322.2597, 278.7092
322.7418, 281.0511
323.2239, 293.5057
323.7060, 303.3236
324.1881, 306.6695
324.6703, 302.8992
325.1524, 299.5087
325.6345, 296.8920
326.1166, 294.9403
326.5987, 293.5366
327.0808, 292.2675
327.5630, 292.0570
328.0451, 294.0030
328.5272, 297.8999
329.0093, 299.1097
329.4914, 295.0792
329.9735, 290.6570
330.4557, 289.4426
330.9378, 296.1727
331.4199, 297.5201
331.9020, 289.5020
332.3841, 274.8183
332.8662, 266.9631
333.3484, 268.8088
333.8305, 273.2441
334.3126, 277.3604
334.7947, 282.7706
335.2768, 281.9018
335.7589, 270.7597
336.2411, 255.1346
336.7232, 250.6830
337.2053, 261.0485
337.6874, 272.0516
338.1695, 277.2269
338.6516, 276.0564
339.1338, 272.2905
339.6159, 264.3631
340.0980, 256.4865
340.5801, 258.6644
341.0622, 272.5640
341.5443, 281.0932
342.0265, 273.5378
342.5086, 252.3575
342.9907, 240.4556
343.4728, 238.8864
343.9549, 242.8773
344.4370, 249.3915
344.9192, 257.7669
345.4013, 261.5738
345.8834, 256.1328
346.3655, 245.1165
346.8476, 237.5661
347.3297, 233.4878
347.8119, 232.9486
348.2940, 239.6160
348.7761, 250.4216
349.2582, 255.6763
349.7403, 250.0525
350.2225, 240.4232
350.7046, 237.1593
351.1867, 239.4664
351.6688, 241.4422
352.1509, 235.8990
352.6331, 228.0526
353.1152, 226.9718
353.5973, 238.7811
354.0794, 250.0569
354.5615, 244.8258
355.0436, 228.3442
355.5258, 216.6088
356.0079, 225.2569
356.4900, 238.7008
356.9721, 242.1071
357.4542, 230.1370
357.9363, 218.5219
358.4185, 217.5605
358.9006, 222.7672
359.3827, 226.3809
359.8648, 224.1053
360.3469, 220.4652
360.8290, 216.9896
361.3112, 213.4680
361.7933, 212.7560
362.2754, 217.8223
362.7575, 225.3676
363.2396, 231.8329
363.7217, 238.5838
364.2039, 241.9263
364.6860, 239.1238
365.1681, 230.0907
365.6502, 223.4849
366.1323, 222.5289
366.6144, 222.8986
367.0966, 221.6050
367.5787, 216.4473
368.0608, 212.2103
368.5429, 209.0508
369.0250, 206.9961
369.5071, 206.2650
369.9893, 207.3372
370.4714, 209.1636
370.9535, 211.4072
371.4356, 214.6624
371.9177, 216.9655
372.3998, 218.3811
372.8820, 218.7842
373.3641, 217.4224
373.8462, 213.1678
374.3283, 210.1445
374.8104, 211.3426
375.2925, 217.6101
375.7747, 217.2020
376.2568, 208.0818
376.7389, 196.3186
377.2210, 190.0575
377.7031, 189.5566
378.1852, 190.9275
378.6674, 193.5302
379.1495, 197.0170
379.6316, 200.3771
380.1137, 203.6940
380.5958, 205.8725
381.0779, 205.7616
381.5601, 203.5453
382.0422, 199.8062
382.5243, 193.4013
383.0064, 187.0957
383.4885, 187.2276
383.9706, 192.8096
384.4528, 196.5576
384.9349, 191.2451
385.4170, 181.4475
385.8991, 174.6892
386.3812, 172.3910
386.8633, 172.0273
387.3455, 172.5125
387.8276, 173.1806
388.3097, 172.4975
388.7918, 166.5213
389.2739, 160.9196
389.7560, 161.2709
390.2382, 168.5144
390.7203, 175.4763
391.2024, 178.0138
391.6845, 178.2252
392.1666, 178.5513
392.6487, 182.2838
393.1309, 183.9162
393.6130, 179.1468
394.0951, 168.7551
394.5772, 161.9808
395.0593, 164.5293
395.5414, 169.3041
396.0236, 171.8532
396.5057, 170.4289
396.9878, 168.1011
397.4699, 163.8312
397.9520, 158.6791
398.4341, 155.9754
398.9163, 156.4112
399.3984, 158.6188
399.8805, 162.8712
400.3626, 171.4199
400.8447, 174.8465
401.3268, 169.5455
401.8090, 161.7844
402.2911, 161.1860
402.7732, 171.2424
403.2553, 179.3841
403.7374, 182.3009
404.2195, 180.1719
404.7017, 175.3010
405.1838, 166.3141
405.6659, 158.2628
406.1480, 156.6209
406.6301, 161.4775
407.1122, 165.7082
407.5944, 168.1581
408.0765, 169.1263
408.5586, 169.0058
409.0407, 167.8136
409.5228, 166.3508
410.0049, 164.4691
410.4871, 162.7208
410.9692, 163.1077
411.4513, 166.3024
411.9334, 169.7429
412.4155, 170.2207
412.8976, 168.5353
413.3798, 167.0000
413.8619, 167.0903
414.3440, 167.6034
414.8261, 167.4986
415.3082, 166.7362
415.7903, 165.0804
416.2725, 160.0400
416.7546, 154.8865
417.2367, 153.3857
417.7188, 161.1973
418.2009, 168.0119
418.6830, 167.9041
419.1652, 162.5660
419.6473, 158.2048
420.1294, 158.3638
420.6115, 158.9406
421.0937, 157.4982
421.5758, 152.3867
422.0579, 148.1934
422.5400, 144.7413
423.0221, 142.7015
423.5042, 143.1758
423.9864, 149.2982
424.4685, 154.4163
424.9506, 156.6812
425.4327, 155.7589
425.9148, 155.9052
426.3969, 157.4356
426.8791, 159.6716
427.3612, 162.3270
427.8433, 166.0497
428.3254, 168.2966
428.8075, 169.2005
429.2896, 168.1644
429.7718, 161.7332
430.2539, 148.5454
430.7360, 137.0791
431.2181, 133.4967
431.7002, 137.2158
432.1823, 139.8095
432.6645, 140.8171
433.1466, 140.8494
433.6287, 139.7524
434.1108, 138.0125
434.5929, 138.2603
435.0750, 145.2074
435.5572, 153.2444
436.0393, 150.0052
436.5214, 136.0525
437.0035, 123.2973
437.4856, 123.2435
437.9677, 129.6225
438.4499, 133.2721
438.9320, 129.1612
439.4141, 126.4010
439.8962, 134.7570
440.3783, 149.8148
440.8604, 160.4391
441.3426, 159.9951
441.8247, 154.8865
442.3068, 146.9116
442.7889, 134.6217
443.2710, 127.5274
443.7531, 131.7223
444.2353, 141.0288
444.7174, 148.6903
445.1995, 158.5416
445.6816, 161.3137
446.1637, 149.8832
446.6458, 126.5303
447.1280, 115.1776
447.6101, 122.8186
448.0922, 134.7846
448.5743, 143.3283
449.0564, 147.8503
449.5385, 150.5452
450.0207, 150.8649
450.5028, 149.9423
450.9849, 150.3194
451.4670, 152.5646
451.9491, 153.1061
452.4312, 149.2026
452.9134, 141.8810
453.3955, 139.8157
453.8776, 143.5876
454.3597, 148.4599
454.8418, 148.5829
455.3239, 145.4996
455.8061, 146.4380
456.2882, 155.6565
456.7703, 165.5172
457.2524, 162.9293
457.7345, 150.6617
458.2166, 139.9298
458.6988, 138.4781
459.1809, 141.5981
459.6630, 145.0830
460.1451, 148.8111
460.6272, 150.7577
461.1093, 147.0084
461.5915, 141.5352
462.0736, 139.3625
462.5557, 147.8396
463.0378, 154.3189
463.5199, 152.7090
464.0020, 144.0646
464.4842, 136.6246
464.9663, 130.7410
465.4484, 127.5610
465.9305, 127.8414
466.4126, 133.7377
466.8947, 139.4350
467.3769, 146.2239
467.8590, 152.2408
468.3411, 153.9176
468.8232, 148.1681
469.3053, 144.3432
469.7874, 145.9844
470.2696, 152.6024
470.7517, 154.4424
471.2338, 150.1861
471.7159, 145.2101
472.1980, 145.3266
472.6801, 150.3374
473.1623, 151.1704
473.6444, 145.3586
474.1265, 137.1866
474.6086, 133.5607
475.0907, 134.1433
475.5728, 136.7476
476.0550, 143.0616
476.5371, 149.6850
477.0192, 149.8102
477.5013, 143.1405
477.9834, 136.4050
478.4655, 136.2677
478.9477, 138.7177
479.4298, 138.2523
479.9119, 129.2611
480.3940, 121.9942
480.8761, 123.1056
481.3582, 130.3531
481.8404, 137.3218
482.3225, 144.3808
482.8046, 148.6543
483.2867, 147.3531
483.7688, 136.9581
484.2509, 132.4386
484.7331, 143.1375
485.2152, 156.0853
485.6973, 158.6552
486.1794, 141.5379
486.6615, 130.1629
487.1436, 129.9830
487.6258, 138.2980
488.1079, 141.7423
488.5900, 138.3013
489.0721, 135.5063
489.5542, 139.4104
490.0363, 150.1452
490.5185, 152.6752
491.0006, 144.7709
491.4827, 134.7516
491.9648, 134.8981
492.4470, 143.2819
492.9291, 149.3482
493.4112, 148.5665
493.8933, 144.2267
494.3754, 139.5371
494.8575, 134.9820
495.3397, 133.8778
495.8218, 143.5111
496.3039, 155.2645
496.7860, 159.0683
497.2681, 151.9994
497.7502, 143.0205
498.2324, 134.8972
498.7145, 128.2743
499.1966, 123.8748
499.6787, 122.8553
500.1608, 123.2228
500.6429, 124.2865
501.1251, 126.0872
501.6072, 129.5467
502.0893, 138.6254
502.5714, 145.9690
503.0535, 147.6262
503.5356, 139.8663
504.0178, 135.3754
504.4999, 134.9350
504.9820, 137.1137
505.4641, 140.1931
505.9462, 144.4833
506.4283, 148.1544
506.9105, 151.2896
507.3926, 153.2379
507.8747, 150.4151
508.3568, 142.5606
508.8389, 134.4547
509.3210, 127.6101
509.8032, 123.1665
510.2853, 125.7389
510.7674, 137.5107
511.2495, 149.3861
511.7316, 151.1901
512.2137, 146.2439
512.6959, 141.3137
513.1780, 138.5982
513.6601, 137.3391
514.1422, 136.9640
514.6243, 137.5496
515.1064, 139.6520
515.5886, 146.4570
516.0707, 152.7794
516.5528, 155.0836
517.0349, 150.4817
517.5170, 147.0372
517.9991, 147.4303
518.4813, 148.6552
518.9634, 146.7038
519.4455, 139.0763
519.9276, 132.5507
520.4097, 128.5044
520.8918, 126.7395
521.3740, 125.3066
521.8561, 123.8117
522.3382, 123.9540
522.8203, 127.9499
523.3024, 135.4293
523.7845, 140.5416
524.2667, 142.8504
524.7488, 143.2802
525.2309, 142.9977
525.7130, 141.8447
526.1951, 139.0851
526.6772, 132.1784
527.1594, 125.6923
527.6415, 126.9295
528.1236, 134.0649
528.6057, 139.1012
529.0878, 134.5659
529.5699, 128.0545
530.0521, 125.5237
530.5342, 128.5163
531.0163, 131.8248
531.4984, 133.7177
531.9805, 135.1367
532.4626, 137.0923
532.9448, 141.9896
533.4269, 144.6184
533.9090, 143.0303
534.3911, 138.6025
534.8732, 137.1784
535.3553, 141.1689
535.8375, 143.5340
536.3196, 139.6411
536.8017, 128.8279
537.2838, 125.9042
537.7659, 132.6519
538.2480, 141.3312
538.7302, 143.5974
539.2123, 140.1888
539.6944, 135.7124
540.1765, 130.3881
540.6586, 125.8600
541.1407, 124.7171
541.6229, 126.3686
542.1050, 128.6449
542.5871, 129.9335
543.0692, 131.6191
543.5513, 136.0974
544.0334, 143.3912
544.5156, 148.1557
544.9977, 146.8514
545.4798, 142.5790
545.9619, 137.5254
546.4440, 128.8838
546.9261, 124.2702
547.4083, 128.2731
547.8904, 136.2773
548.3725, 139.6128
548.8546, 133.9766
549.3367, 130.9065
549.8188, 134.3463
550.3010, 143.4981
550.7831, 148.5303
551.2652, 148.3591
551.7473, 147.6898
552.2294, 151.9259
552.7115, 159.9989
553.1937, 159.3455
553.6758, 147.4137
554.1579, 133.2284
554.6400, 127.9176
555.1221, 129.4157
555.6042, 131.8772
556.0864, 133.0560
556.5685, 134.4689
557.0506, 139.2872
557.5327, 146.0593
558.0148, 149.2681
558.4969, 140.4710
558.9791, 131.6112
559.4612, 131.0932
559.9433, 141.7240
560.4254, 150.4684
560.9075, 156.5298
561.3896, 158.7080
561.8718, 155.8031
562.3539, 141.9967
562.8360, 133.2659
563.3181, 132.9907
563.8002, 137.5111
564.2823, 137.2653
564.7645, 130.7635
565.2466, 126.2676
565.7287, 127.8829
566.2108, 134.2511
566.6929, 139.2293
567.1750, 142.7971
567.6572, 144.5191
568.1393, 142.7585
568.6214, 139.0555
569.1035, 136.7762
569.5856, 136.8022
570.0677, 136.7306
570.5499, 133.8322
571.0320, 129.6596
571.5141, 126.6510
571.9962, 126.5763
572.4783, 126.9594
572.9604, 126.0485
573.4426, 124.4494
573.9247, 125.3335
574.4068, 131.7698
574.8889, 138.4616
575.3710, 143.2427
575.8531, 145.5368
576.3353, 149.3090
576.8174, 157.1214
577.2995, 162.5555
577.7816, 156.8825
578.2637, 138.4543
578.7458, 127.8067
579.2280, 129.8804
579.7101, 137.3714
580.1922, 136.5130
580.6743, 128.8289
581.1564, 122.9242
581.6385, 124.5020
582.1207, 129.1852
582.6028, 131.4974
583.0849, 131.6327
583.5670, 131.2909
584.0491, 131.8957
584.5313, 132.1484
585.0134, 130.3950
585.4955, 124.9438
585.9776, 122.2648
586.4597, 127.1949
586.9418, 134.4247
587.4240, 137.8103
587.9061, 134.3817
588.3882, 131.4020
588.8703, 128.8771
589.3524, 127.5037
589.8345, 130.4135
590.3167, 139.3246
590.7988, 145.8763
591.2809, 145.4883
591.7630, 139.5734
592.2451, 135.1628
592.7272, 132.2975
593.2094, 129.9354
593.6915, 126.8911
594.1736, 123.7978
594.6557, 121.7387
595.1378, 120.8434
595.6199, 121.3577
596.1021, 124.6429
596.5842, 129.1585
597.0663, 132.7216
597.5485, 133.9653
598.0306, 134.7645
598.5127, 136.8045
598.9948, 139.1781
599.4769, 137.7686
599.9590, 125.8409
600.4412, 118.0499
600.9233, 121.0875
601.4054, 136.0852
601.8875, 143.4863
602.3696, 141.1022
602.8517, 136.3427
603.3339, 135.8837
603.8160, 139.2835
604.2981, 140.8921
604.7802, 140.0548
605.2623, 137.3593
605.7444, 133.0694
606.2266, 127.4645
606.7087, 121.4186
607.1908, 113.3876
607.6729, 106.8395
608.1550, 104.5871
608.6371, 106.0748
609.1193, 109.4171
609.6014, 117.0430
610.0835, 123.6147
610.5656, 126.3514
611.0477, 124.7452
611.5298, 121.7956
612.0120, 115.5626
612.4941, 110.1124
612.9762, 108.7638
613.4583, 113.4023
613.9404, 114.8485
614.4225, 111.4487
614.9047, 107.0513
615.3868, 107.5001
615.8689, 112.4760
616.3510, 117.8761
616.8331, 123.1160
617.3152, 127.3561
617.7974, 128.7499
618.2795, 127.8575
618.7616, 126.9469
619.2437, 127.1468
619.7258, 127.8895
620.2079, 129.2332
620.6901, 131.1361
621.1722, 131.8325
621.6543, 131.0378
622.1364, 128.5970
622.6185, 123.7244
623.1006, 112.2480
623.5828, 107.9129
624.0649, 114.5277
624.5470, 124.7908
625.0291, 129.6975
625.5112, 128.1436
625.9933, 127.3609
626.4755, 129.2527
626.9576, 131.7976
627.4397, 128.5861
627.9218, 120.8201
628.4039, 117.6715
628.8860, 128.7783
629.3682, 144.4471
629.8503, 151.9545
630.3324, 151.8162
630.8145, 148.0097
631.2966, 139.4439
631.7787, 130.4496
632.2609, 123.6215
632.7430, 118.8721
633.2251, 118.0102
633.7072, 125.6700
634.1893, 134.7752
634.6714, 139.6357
635.1536, 139.4446
635.6357, 136.2186
636.1178, 128.2650
636.5999, 119.3056
637.0820, 116.9233
637.5641, 121.3990
638.0463, 125.9451
638.5284, 127.8598
639.0105, 128.9611
639.4926, 134.2709
639.9747, 142.8410
