##NAMES=Glauberite
##RRUFFID=R050350
##IDEAL CHEMISTRY=Na_2_Ca(S^6+^O_4_)_2_
##LOCALITY=Soda Lake, San Luis Obispo County, California, USA
##OWNER=RRUFF
##SOURCE=California Institute of Technology
##DESCRIPTION=Colorless tabular crystal
##STATUS=The identification of this mineral has been confirmed by X-ray diffraction and chemical analysis
##URL=rruff.info/R050350
##MEASURED CHEMISTRY=Na_1.90_Ca_1.15_(S_.99_O_4_)_2_
130.1285, 285.0799
130.6106, 275.6529
131.0928, 266.1181
131.5749, 256.7461
132.0570, 247.9188
132.5391, 240.1004
133.0212, 233.7951
133.5033, 229.1549
133.9855, 225.1683
134.4676, 221.5595
134.9497, 218.6518
135.4318, 216.7813
135.9139, 215.9184
136.3960, 215.5828
136.8782, 215.2040
137.3603, 214.6816
137.8424, 214.9586
138.3245, 216.4638
138.8066, 218.6517
139.2887, 220.8551
139.7709, 222.8781
140.2530, 225.0847
140.7351, 227.8980
141.2172, 231.2145
141.6993, 235.0877
142.1814, 240.1423
142.6636, 245.9006
143.1457, 250.5417
143.6278, 253.0356
144.1099, 254.9201
144.5920, 257.3455
145.0741, 260.3453
145.5563, 264.0049
146.0384, 268.7117
146.5205, 274.6357
147.0026, 280.0746
147.4847, 283.5556
147.9668, 287.2466
148.4490, 292.6236
148.9311, 299.8999
149.4132, 307.9430
149.8953, 314.8575
150.3774, 319.5010
150.8595, 325.5024
151.3417, 333.9749
151.8238, 343.1497
152.3059, 352.1200
152.7880, 360.4012
153.2701, 367.5308
153.7522, 372.1981
154.2344, 373.4492
154.7165, 372.8046
155.1986, 370.4185
155.6807, 366.1549
156.1628, 359.7872
156.6449, 351.2006
157.1271, 340.5024
157.6092, 327.8564
158.0913, 310.8797
158.5734, 294.9044
159.0555, 281.7311
159.5376, 270.7871
160.0198, 260.5266
160.5019, 250.0321
160.9840, 239.7231
161.4661, 230.8589
161.9482, 223.3526
162.4303, 217.2232
162.9125, 212.8391
163.3946, 210.1485
163.8767, 208.0714
164.3588, 206.1780
164.8409, 204.4933
165.3230, 203.0254
165.8052, 201.7506
166.2873, 200.7273
166.7694, 200.1482
167.2515, 200.1526
167.7336, 200.1185
168.2157, 199.3015
168.6979, 198.3814
169.1800, 198.2476
169.6621, 199.4724
170.1442, 201.5866
170.6263, 203.2367
171.1084, 203.9916
171.5906, 204.9663
172.0727, 206.7108
172.5548, 208.8306
173.0369, 210.7194
173.5190, 211.9117
174.0011, 212.5612
174.4833, 213.9688
174.9654, 216.8829
175.4475, 219.9042
175.9296, 223.0951
176.4117, 226.1660
176.8938, 228.5742
177.3760, 229.7527
177.8581, 229.6288
178.3402, 231.1857
178.8223, 235.9449
179.3044, 240.6828
179.7865, 244.4236
180.2687, 247.1682
180.7508, 249.2617
181.2329, 250.9439
181.7150, 252.1841
182.1971, 253.2209
182.6792, 254.3275
183.1614, 255.0542
183.6435, 255.2129
184.1256, 254.7674
184.6077, 253.6325
185.0898, 251.5188
185.5719, 248.3575
186.0540, 245.7886
186.5362, 244.4600
187.0183, 243.3837
187.5004, 241.9070
187.9825, 239.9903
188.4646, 237.1798
188.9467, 232.3136
189.4289, 225.9594
189.9110, 220.3412
190.3931, 216.0136
190.8752, 212.7041
191.3573, 210.1292
191.8394, 208.4905
192.3216, 206.9771
192.8037, 205.1528
193.2858, 203.0171
193.7679, 200.4468
194.2500, 197.1349
194.7321, 193.3265
195.2143, 189.6055
195.6964, 185.4263
196.1785, 182.3639
196.6606, 181.5842
197.1427, 182.3762
197.6248, 183.2211
198.1070, 183.3323
198.5891, 182.7077
199.0712, 181.2199
199.5533, 177.4516
200.0354, 174.4034
200.5175, 173.7792
200.9997, 174.8022
201.4818, 175.6540
201.9639, 174.7035
202.4460, 171.8767
202.9281, 170.2076
203.4102, 171.4093
203.8924, 172.2793
204.3745, 171.6472
204.8566, 169.8207
205.3387, 167.7812
205.8208, 166.3623
206.3029, 165.6102
206.7851, 165.0320
207.2672, 165.1273
207.7493, 164.9211
208.2314, 163.8314
208.7135, 162.0278
209.1956, 160.1277
209.6778, 158.6825
210.1599, 157.7542
210.6420, 156.8782
211.1241, 155.7410
211.6062, 154.9063
212.0883, 155.1995
212.5705, 156.3150
213.0526, 156.7574
213.5347, 154.9284
214.0168, 150.4446
214.4989, 147.7361
214.9810, 148.0739
215.4632, 149.0213
215.9453, 149.0118
216.4274, 147.9632
216.9095, 146.6936
217.3916, 145.8964
217.8737, 145.5864
218.3559, 145.1296
218.8380, 144.0653
219.3201, 143.1373
219.8022, 143.2239
220.2843, 144.3890
220.7664, 145.4813
221.2486, 145.4398
221.7307, 144.5088
222.2128, 143.7778
222.6949, 143.8057
223.1770, 143.8908
223.6591, 142.9318
224.1413, 140.6924
224.6234, 138.8650
225.1055, 139.4010
225.5876, 141.1858
226.0697, 142.1756
226.5518, 141.1454
227.0340, 139.3880
227.5161, 138.9643
227.9982, 140.2547
228.4803, 141.5594
228.9624, 141.8882
229.4445, 141.6266
229.9267, 141.1696
230.4088, 140.4905
230.8909, 139.8328
231.3730, 139.8673
231.8551, 141.1047
232.3372, 141.7109
232.8194, 140.2879
233.3015, 138.0665
233.7836, 136.4537
234.2657, 136.0703
234.7478, 136.5561
235.2299, 137.1829
235.7121, 138.1346
236.1942, 138.8463
236.6763, 139.1289
237.1584, 139.1426
237.6405, 139.0700
238.1227, 139.0017
238.6048, 138.8413
239.0869, 138.2758
239.5690, 136.8399
240.0511, 135.8315
240.5332, 135.5685
241.0154, 135.7425
241.4975, 136.1045
241.9796, 136.5497
242.4617, 137.0465
242.9438, 137.5418
243.4259, 138.2776
243.9081, 138.5866
244.3902, 138.2507
244.8723, 137.5786
245.3544, 136.7813
245.8365, 135.9479
246.3186, 135.1738
246.8007, 134.6700
247.2829, 134.5555
247.7650, 134.5831
248.2471, 134.6308
248.7292, 134.8537
249.2113, 135.5798
249.6934, 136.8776
250.1756, 138.2707
250.6577, 138.8005
251.1398, 137.4882
251.6219, 136.6879
252.1040, 136.5212
252.5861, 136.7762
253.0683, 137.4049
253.5504, 138.3557
254.0325, 139.3752
254.5146, 140.0510
254.9967, 140.2445
255.4788, 140.2763
255.9610, 140.0101
256.4431, 139.6647
256.9252, 139.3754
257.4073, 139.1871
257.8894, 139.1668
258.3716, 139.4270
258.8537, 140.1302
259.3358, 140.7091
259.8179, 141.0490
260.3000, 141.3362
260.7821, 141.7501
261.2643, 142.3182
261.7464, 142.9173
262.2285, 143.4298
262.7106, 143.8488
263.1927, 144.1460
263.6748, 144.3593
264.1570, 144.4236
264.6391, 144.0841
265.1212, 143.3601
265.6033, 142.8831
266.0854, 143.3607
266.5675, 144.8508
267.0497, 145.9703
267.5318, 146.4120
268.0139, 146.6609
268.4960, 147.1083
268.9781, 147.7688
269.4602, 148.4170
269.9424, 148.8929
270.4245, 149.1966
270.9066, 149.4507
271.3887, 149.4677
271.8708, 149.5821
272.3529, 150.1787
272.8351, 151.2135
273.3172, 152.0857
273.7993, 152.2301
274.2814, 152.0068
274.7635, 152.5512
275.2456, 154.6118
275.7278, 156.6289
276.2099, 157.0555
276.6920, 156.1475
277.1741, 156.1186
277.6562, 158.5204
278.1383, 162.1451
278.6204, 164.2982
279.1025, 164.3401
279.5847, 164.3381
280.0668, 166.4940
280.5489, 170.2269
281.0310, 171.7773
281.5131, 168.7154
281.9952, 163.9239
282.4774, 161.7060
282.9595, 162.4335
283.4416, 163.4497
283.9237, 163.2036
284.4058, 161.9302
284.8879, 160.5974
285.3701, 159.4380
285.8522, 158.2802
286.3343, 156.8470
286.8164, 155.1574
287.2985, 153.6820
287.7806, 152.9688
288.2628, 152.7034
288.7449, 151.7057
289.2270, 149.3129
289.7091, 147.0928
290.1912, 146.7846
290.6733, 147.8405
291.1555, 148.2430
291.6376, 146.3084
292.1197, 143.1278
292.6018, 141.4040
293.0839, 141.7384
293.5660, 142.4239
294.0482, 142.5664
294.5303, 142.2437
295.0124, 141.4811
295.4945, 139.9116
295.9766, 138.1104
296.4587, 137.1438
296.9409, 137.1556
297.4230, 137.5161
297.9051, 138.3641
298.3872, 139.2341
298.8693, 139.4734
299.3514, 138.6918
299.8336, 137.5660
300.3157, 136.9212
300.7978, 136.7773
301.2799, 136.9872
301.7620, 137.8147
302.2441, 138.8200
302.7263, 139.6487
303.2084, 140.2397
303.6905, 140.6432
304.1726, 141.0806
304.6547, 141.5822
305.1368, 141.2673
305.6190, 138.8776
306.1011, 136.4409
306.5832, 135.7616
307.0653, 136.9002
307.5474, 138.1487
308.0295, 137.8935
308.5117, 136.3004
308.9938, 135.4106
309.4759, 135.8789
309.9580, 136.6712
310.4401, 137.2269
310.9222, 137.5240
311.4044, 137.5291
311.8865, 136.9450
312.3686, 135.9842
312.8507, 135.6298
313.3328, 136.2002
313.8149, 136.8660
314.2971, 137.1355
314.7792, 137.1794
315.2613, 137.3200
315.7434, 137.7617
316.2255, 138.3529
316.7076, 138.7966
317.1898, 139.1190
317.6719, 139.2189
318.1540, 139.0281
318.6361, 138.6104
319.1182, 137.9009
319.6003, 136.7333
320.0825, 135.6715
320.5646, 135.5127
321.0467, 136.3495
321.5288, 137.5188
322.0109, 139.6067
322.4930, 141.4419
322.9752, 141.7424
323.4573, 140.2709
323.9394, 138.7589
324.4215, 139.2064
324.9036, 141.5548
325.3857, 142.8862
325.8679, 142.0170
326.3500, 140.6250
326.8321, 139.8148
327.3142, 139.5753
327.7963, 139.6017
328.2784, 139.8529
328.7606, 140.2479
329.2427, 140.3159
329.7248, 139.7210
330.2069, 139.3506
330.6890, 139.9815
331.1711, 141.2018
331.6533, 142.1394
332.1354, 142.2916
332.6175, 141.9721
333.0996, 141.8048
333.5817, 141.8285
334.0638, 141.8770
334.5460, 141.8275
335.0281, 141.7693
335.5102, 141.8631
335.9923, 142.2590
336.4744, 142.5650
336.9565, 142.1760
337.4387, 141.0386
337.9208, 140.1277
338.4029, 139.7664
338.8850, 139.7965
339.3671, 140.1692
339.8492, 140.9146
340.3314, 141.5524
340.8135, 141.5996
341.2956, 141.1663
341.7777, 141.0119
342.2598, 141.5828
342.7419, 141.9924
343.2241, 141.2080
343.7062, 139.4896
344.1883, 138.1803
344.6704, 138.2849
345.1525, 139.1830
345.6346, 139.4738
346.1168, 138.9337
346.5989, 138.2786
347.0810, 138.1076
347.5631, 138.1743
348.0452, 138.0285
348.5273, 137.3615
349.0095, 136.6094
349.4916, 136.1383
349.9737, 135.9441
350.4558, 136.3402
350.9379, 137.9156
351.4200, 139.9224
351.9022, 141.2079
352.3843, 141.6772
352.8664, 141.5308
353.3485, 140.6685
353.8306, 139.2387
354.3127, 137.7177
354.7949, 135.9804
355.2770, 134.6300
355.7591, 134.6960
356.2412, 136.1414
356.7233, 137.2798
357.2054, 137.4840
357.6876, 137.0158
358.1697, 136.1247
358.6518, 134.7687
359.1339, 133.4966
359.6160, 132.6847
360.0981, 132.3580
360.5803, 132.6455
361.0624, 134.2505
361.5445, 135.9632
362.0266, 136.8444
362.5087, 136.9225
362.9908, 136.4703
363.4730, 135.3623
363.9551, 133.9970
364.4372, 133.5879
364.9193, 134.7647
365.4014, 135.7658
365.8835, 135.8132
366.3657, 135.1797
366.8478, 134.2525
367.3299, 133.0564
367.8120, 132.0449
368.2941, 132.0992
368.7762, 133.5191
369.2584, 134.5869
369.7405, 135.0223
370.2226, 135.0284
370.7047, 134.5948
371.1868, 133.7800
371.6689, 133.1496
372.1511, 133.3166
372.6332, 134.3252
373.1153, 134.6453
373.5974, 133.4945
374.0795, 132.4968
374.5616, 132.6054
375.0438, 133.5101
375.5259, 134.3547
376.0080, 134.6681
376.4901, 134.5919
376.9722, 134.6177
377.4543, 134.7909
377.9365, 135.0033
378.4186, 135.5411
378.9007, 135.9783
379.3828, 135.6690
379.8649, 134.4855
380.3470, 133.0876
380.8292, 132.3912
381.3113, 132.5839
381.7934, 132.9992
382.2755, 134.2878
382.7576, 135.2145
383.2397, 134.6563
383.7219, 132.9929
384.2040, 131.6322
384.6861, 131.7612
385.1682, 133.2503
385.6503, 134.0210
386.1324, 132.9408
386.6146, 132.3803
387.0967, 133.0992
387.5788, 134.4527
388.0609, 135.7040
388.5430, 136.5316
389.0251, 136.9356
389.5073, 136.7966
389.9894, 135.4831
390.4715, 134.9840
390.9536, 136.1373
391.4357, 137.4489
391.9178, 137.9541
392.4000, 137.5932
392.8821, 136.9228
393.3642, 136.3900
393.8463, 135.9886
394.3284, 135.9324
394.8105, 136.5073
395.2927, 137.1181
395.7748, 137.7228
396.2569, 138.1959
396.7390, 138.2693
397.2211, 137.6846
397.7032, 136.8933
398.1854, 137.0608
398.6675, 138.6389
399.1496, 139.8059
399.6317, 139.8474
400.1138, 139.4097
400.5959, 138.8946
401.0780, 138.3777
401.5602, 137.8138
402.0423, 136.8345
402.5244, 135.5617
403.0065, 135.5287
403.4886, 137.7653
403.9707, 140.0324
404.4529, 140.6724
404.9350, 140.0973
405.4171, 139.4275
405.8992, 138.8673
406.3813, 138.6268
406.8634, 139.3239
407.3456, 141.1100
407.8277, 142.4159
408.3098, 142.1223
408.7919, 141.0251
409.2740, 140.4733
409.7561, 140.6190
410.2383, 141.1047
410.7204, 142.0446
411.2025, 143.1785
411.6846, 143.6701
412.1667, 143.1842
412.6488, 142.3688
413.1310, 141.9749
413.6131, 141.9792
414.0952, 142.1242
414.5773, 142.5879
415.0594, 143.0249
415.5415, 142.8985
416.0237, 142.2932
416.5058, 142.0768
416.9879, 142.9204
417.4700, 144.5945
417.9521, 145.8289
418.4342, 146.2820
418.9164, 146.7846
419.3985, 147.8534
419.8806, 149.0233
420.3627, 149.4299
420.8448, 148.8089
421.3269, 147.9356
421.8091, 147.9731
422.2912, 149.2707
422.7733, 150.5677
423.2554, 152.0503
423.7375, 153.3698
424.2196, 154.1808
424.7018, 154.6068
425.1839, 155.0417
425.6660, 155.7515
426.1481, 156.7264
426.6302, 157.9535
427.1123, 160.0247
427.5945, 161.5897
428.0766, 162.0351
428.5587, 162.1308
429.0408, 162.4806
429.5229, 163.3203
430.0050, 164.8380
430.4872, 167.5293
430.9693, 171.7950
431.4514, 175.5009
431.9335, 177.9744
432.4156, 180.4395
432.8977, 183.2962
433.3799, 186.5477
433.8620, 190.1420
434.3441, 194.0991
434.8262, 198.3065
435.3083, 202.3100
435.7904, 205.8007
436.2726, 209.9150
436.7547, 215.4289
437.2368, 221.5909
437.7189, 227.8723
438.2010, 234.1960
438.6831, 240.3864
439.1653, 245.9336
439.6474, 251.0749
440.1295, 257.1820
440.6116, 264.4792
441.0937, 272.7389
441.5758, 282.2651
442.0580, 292.6277
442.5401, 302.5479
443.0222, 311.3855
443.5043, 319.7725
443.9864, 328.6726
444.4685, 337.9185
444.9507, 346.1618
445.4328, 352.3670
445.9149, 357.5892
446.3970, 364.0082
446.8791, 371.1986
447.3612, 380.2756
447.8434, 391.2834
448.3255, 404.4761
448.8076, 420.0419
449.2897, 438.1048
449.7718, 458.9746
450.2539, 483.2774
450.7361, 511.3020
451.2182, 539.0233
451.7003, 570.9459
452.1824, 597.7910
452.6645, 618.0007
453.1466, 630.6276
453.6288, 634.0394
454.1109, 627.5165
454.5930, 612.3651
455.0751, 590.2723
455.5572, 555.2628
456.0393, 524.9697
456.5215, 498.4290
457.0036, 476.5539
457.4857, 460.3752
457.9678, 449.4105
458.4499, 441.8480
458.9320, 436.2646
459.4142, 432.9767
459.8963, 433.8190
460.3784, 439.4854
460.8605, 448.3435
461.3426, 459.4872
461.8247, 473.4359
462.3069, 490.8858
462.7890, 512.0094
463.2711, 536.1620
463.7532, 562.2589
464.2353, 590.5456
464.7174, 622.1656
465.1996, 656.1837
465.6817, 695.5753
466.1638, 743.4915
466.6459, 797.9833
467.1280, 854.8853
467.6101, 914.1133
468.0923, 973.7731
468.5744, 1033.774
469.0565, 1093.774
469.5386, 1146.784
470.0207, 1193.120
470.5028, 1227.058
470.9850, 1238.248
471.4671, 1228.423
471.9492, 1198.984
472.4313, 1142.797
472.9134, 1071.404
473.3955, 992.8578
473.8777, 909.7529
474.3598, 828.4606
474.8419, 753.5387
475.3240, 684.9915
475.8061, 624.8590
476.2882, 573.6269
476.7704, 528.6022
477.2525, 489.6686
477.7346, 456.6397
478.2167, 430.0255
478.6988, 409.6300
479.1809, 394.2076
479.6631, 382.0956
480.1452, 373.5140
480.6273, 367.6004
481.1094, 364.9615
481.5915, 364.4551
482.0736, 366.9022
482.5558, 371.0574
483.0379, 375.0600
483.5200, 378.0748
484.0021, 380.2882
484.4842, 382.8723
484.9663, 386.9388
485.4485, 386.2559
485.9306, 378.2097
486.4127, 365.8823
486.8948, 350.2203
487.3769, 331.7497
487.8590, 312.7680
488.3412, 293.7194
488.8233, 275.3489
489.3054, 259.3811
489.7875, 246.0619
490.2696, 233.6136
490.7517, 220.8391
491.2339, 208.7765
491.7160, 199.1018
492.1981, 192.4101
492.6802, 186.4990
493.1623, 180.4241
493.6444, 174.6344
494.1266, 169.9812
494.6087, 166.5666
495.0908, 163.5069
495.5729, 159.9079
496.0550, 155.8036
496.5371, 152.7418
497.0193, 151.6198
497.5014, 150.3346
497.9835, 147.8103
498.4656, 144.8777
498.9477, 142.8723
499.4298, 142.1871
499.9120, 141.8874
500.3941, 140.4820
500.8762, 137.3590
501.3583, 135.5433
501.8404, 136.8089
502.3225, 137.5816
502.8047, 136.1471
503.2868, 133.3575
503.7689, 130.7975
504.2510, 129.1771
504.7331, 128.3730
505.2152, 128.3368
505.6974, 129.2239
506.1795, 129.9415
506.6616, 130.5621
507.1437, 130.6222
507.6258, 129.5316
508.1079, 127.4916
508.5901, 125.6317
509.0722, 124.4119
509.5543, 123.7293
510.0364, 123.6632
510.5185, 124.1960
511.0006, 124.3761
511.4828, 123.5941
511.9649, 122.3373
512.4470, 121.6761
512.9291, 121.7675
513.4112, 121.7884
513.8933, 121.4237
514.3754, 120.9530
514.8575, 120.5247
515.3397, 120.2250
515.8218, 120.4464
516.3039, 121.6365
516.7860, 123.5289
517.2681, 124.1797
517.7502, 122.1333
518.2324, 120.6404
518.7145, 120.5300
519.1966, 120.7701
519.6787, 120.3181
520.1608, 119.0432
520.6429, 117.5725
521.1251, 116.3975
521.6072, 115.5291
522.0893, 115.6571
522.5714, 117.9774
523.0535, 119.3610
523.5356, 117.9489
524.0178, 115.5085
524.4999, 114.1237
524.9820, 114.3734
525.4641, 115.1060
525.9462, 115.3289
526.4283, 115.1431
526.9105, 115.0052
527.3926, 114.9835
527.8747, 114.9921
528.3568, 114.8999
528.8389, 114.7815
529.3210, 114.8973
529.8032, 115.4597
530.2853, 116.0490
530.7674, 116.6765
531.2495, 117.1277
531.7316, 116.8551
532.2137, 115.6896
532.6959, 114.2175
533.1780, 113.1352
533.6601, 112.4737
534.1422, 112.0277
534.6243, 111.7365
535.1064, 111.6829
535.5886, 111.7530
536.0707, 112.1223
536.5528, 113.4896
537.0349, 116.0623
537.5170, 118.3693
537.9991, 117.4853
538.4813, 112.4193
538.9634, 109.3182
539.4455, 109.8847
539.9276, 110.9281
540.4097, 110.9953
540.8918, 110.4576
541.3740, 110.1848
541.8561, 110.6347
542.3382, 111.2298
542.8203, 111.2139
543.3024, 110.6499
543.7845, 110.0790
544.2667, 109.4955
544.7488, 109.2180
545.2309, 109.9558
545.7130, 111.5535
546.1951, 112.4212
546.6772, 111.8513
547.1594, 110.9157
547.6415, 110.1531
548.1236, 109.5875
548.6057, 109.2188
549.0878, 109.0543
549.5699, 109.0021
550.0521, 108.8853
550.5342, 108.5506
551.0163, 108.6469
551.4984, 109.6174
551.9805, 110.4980
552.4626, 110.7767
552.9448, 110.6725
553.4269, 110.7384
553.9090, 111.2666
554.3911, 111.7641
554.8732, 111.2201
555.3553, 109.4333
555.8375, 107.9308
556.3196, 106.6067
556.8017, 106.0044
557.2838, 106.8041
557.7659, 108.5416
558.2480, 109.9282
558.7302, 110.5405
559.2123, 110.5684
559.6944, 109.8381
560.1765, 108.5840
560.6586, 108.0077
561.1407, 108.6457
561.6229, 109.4782
562.1050, 109.0403
562.5871, 107.0104
563.0692, 106.1922
563.5513, 107.5645
564.0334, 109.2042
564.5156, 110.3756
564.9977, 111.0632
565.4798, 111.2631
565.9619, 110.9834
566.4440, 110.5212
566.9261, 110.4141
567.4083, 110.8751
567.8904, 110.8163
568.3725, 109.2437
568.8546, 108.1859
569.3367, 108.8519
569.8188, 110.3663
570.3010, 111.2569
570.7831, 110.9426
571.2652, 110.1086
571.7473, 109.4368
572.2294, 108.9297
572.7115, 108.5722
573.1937, 108.3364
573.6758, 108.3167
574.1579, 108.5875
574.6400, 109.1482
575.1221, 110.0129
575.6042, 111.8476
576.0864, 113.2323
576.5685, 113.2661
577.0506, 112.4356
577.5327, 111.2697
578.0148, 109.9682
578.4969, 109.2245
578.9791, 109.9727
579.4612, 112.3223
579.9433, 113.4016
580.4254, 111.7365
580.9075, 110.5116
581.3896, 110.7247
581.8718, 111.4464
582.3539, 111.5393
582.8360, 110.7973
583.3181, 110.0494
583.8002, 110.1256
584.2823, 110.9434
584.7645, 112.0136
585.2466, 113.5888
585.7287, 114.6748
586.2108, 114.2223
586.6929, 113.2451
587.1750, 113.3269
587.6572, 114.8609
588.1393, 116.2014
588.6214, 116.4544
589.1035, 116.1579
589.5856, 115.8035
590.0677, 115.5226
590.5499, 115.8565
591.0320, 117.3454
591.5141, 119.4423
591.9962, 120.0760
592.4783, 117.0126
592.9604, 115.6396
593.4426, 117.1409
593.9247, 119.3924
594.4068, 121.2251
594.8889, 122.4654
595.3710, 123.1519
595.8531, 123.0880
596.3353, 122.9266
596.8174, 124.5078
597.2995, 128.2250
597.7816, 131.3474
598.2637, 132.7207
598.7458, 133.8999
599.2280, 136.0678
599.7101, 139.1676
600.1922, 142.9236
600.6743, 147.9151
601.1564, 152.9463
601.6385, 156.6429
602.1207, 159.5434
602.6028, 163.5949
603.0849, 169.5237
603.5670, 175.5609
604.0491, 179.2128
604.5313, 179.8459
605.0134, 182.0542
605.4955, 186.6256
605.9776, 191.6471
606.4597, 196.2152
606.9418, 201.0248
607.4240, 207.0053
607.9061, 214.3859
608.3882, 222.5811
608.8703, 230.9542
609.3524, 239.5021
609.8345, 248.2847
610.3167, 256.9070
610.7988, 266.6861
611.2809, 278.2039
611.7630, 291.3445
612.2451, 305.8571
612.7272, 321.4767
613.2094, 339.5168
613.6915, 360.0823
614.1736, 383.7169
614.6557, 411.2390
615.1378, 442.6375
615.6199, 477.0597
616.1021, 514.3009
616.5842, 553.0867
617.0663, 589.6953
617.5484, 631.0075
618.0305, 658.1153
618.5126, 671.0812
618.9948, 671.2639
619.4769, 654.3044
619.9590, 625.4706
620.4411, 594.7185
620.9232, 565.9940
621.4053, 541.1245
621.8875, 523.0485
622.3696, 511.7444
622.8517, 505.3965
623.3338, 505.2794
623.8159, 507.1691
624.2980, 510.2346
624.7802, 512.7480
625.2623, 508.3746
625.7444, 493.2584
626.2265, 475.1741
