##NAMES=Glauconite
##RRUFFID=R070295
##IDEAL CHEMISTRY=(K,Na)(Fe^3+^,Al,Mg)_2_(Si,Al)_4_O_10_(OH)_2_
##LOCALITY=Hope Green Point, Coringa island, Queensland, Australia
##OWNER=RRUFF
##SOURCE=Michael Scott
##DESCRIPTION=Loose aggregate of dark green grains associated with quartz
##STATUS=The identification of this mineral is not yet confirmed.
##URL=rruff.info/R070295
173.0880, 9726.347
173.5701, 9737.958
174.0522, 9785.715
174.5344, 9850.658
175.0165, 9904.634
175.4986, 9931.665
175.9807, 9940.628
176.4628, 9954.288
176.9449, 9968.084
177.4271, 9996.654
177.9092, 10058.95
178.3913, 10133.81
178.8734, 10190.17
179.3555, 10207.57
179.8376, 10202.31
180.3197, 10224.77
180.8019, 10291.43
181.2840, 10357.76
181.7661, 10412.72
182.2482, 10458.46
182.7303, 10496.90
183.2124, 10528.76
183.6946, 10554.41
184.1767, 10573.20
184.6588, 10575.99
185.1409, 10588.28
185.6230, 10618.51
186.1051, 10659.41
186.5873, 10705.30
187.0694, 10755.33
187.5515, 10803.78
188.0336, 10834.65
188.5157, 10834.82
188.9978, 10839.06
189.4800, 10856.35
189.9621, 10880.14
190.4442, 10904.08
190.9263, 10925.23
191.4084, 10944.93
191.8905, 10966.28
192.3727, 10989.43
192.8548, 11014.36
193.3369, 11041.27
193.8190, 11069.58
194.3011, 11099.01
194.7832, 11129.49
195.2654, 11160.59
195.7475, 11191.46
196.2296, 11223.65
196.7117, 11252.80
197.1938, 11273.38
197.6759, 11293.89
198.1581, 11323.63
198.6402, 11365.53
199.1223, 11411.41
199.6044, 11445.34
200.0865, 11460.05
200.5686, 11476.99
201.0508, 11505.89
201.5329, 11532.82
202.0150, 11545.63
202.4971, 11541.45
202.9792, 11527.75
203.4613, 11513.98
203.9435, 11492.18
204.4256, 11489.73
204.9077, 11530.92
205.3898, 11572.92
205.8719, 11578.74
206.3540, 11544.74
206.8362, 11503.62
207.3183, 11505.44
207.8004, 11579.17
208.2825, 11621.41
208.7646, 11610.72
209.2467, 11588.77
209.7289, 11574.69
210.2110, 11573.10
210.6931, 11581.93
211.1752, 11602.42
211.6573, 11642.54
212.1395, 11663.92
212.6216, 11652.90
213.1037, 11636.20
213.5858, 11621.06
214.0679, 11611.03
214.5500, 11610.63
215.0322, 11626.64
215.5143, 11662.54
215.9964, 11691.31
216.4785, 11701.89
216.9606, 11715.79
217.4427, 11745.31
217.9249, 11786.19
218.4070, 11824.75
218.8891, 11848.33
219.3712, 11856.32
219.8533, 11872.06
220.3354, 11907.71
220.8176, 11939.61
221.2997, 11958.07
221.7818, 11967.80
222.2639, 11979.46
222.7460, 12001.21
223.2281, 12031.67
223.7103, 12054.05
224.1924, 12061.02
224.6745, 12067.25
225.1566, 12076.56
225.6387, 12086.96
226.1208, 12093.18
226.6030, 12090.75
227.0851, 12085.10
227.5672, 12100.05
228.0493, 12156.86
228.5314, 12206.64
229.0135, 12236.90
229.4957, 12257.58
229.9778, 12279.47
230.4599, 12307.30
230.9420, 12339.95
231.4241, 12375.97
231.9062, 12422.50
232.3884, 12459.19
232.8705, 12477.61
233.3526, 12489.77
233.8347, 12504.63
234.3168, 12525.35
234.7989, 12552.50
235.2811, 12587.18
235.7632, 12631.15
236.2453, 12679.35
236.7274, 12737.41
237.2095, 12795.23
237.6916, 12847.16
238.1738, 12891.72
238.6559, 12930.37
239.1380, 12963.97
239.6201, 12990.83
240.1022, 13019.05
240.5843, 13050.52
241.0665, 13082.09
241.5486, 13117.08
242.0307, 13152.77
242.5128, 13178.52
242.9949, 13175.06
243.4770, 13137.09
243.9592, 13135.07
244.4413, 13216.05
244.9234, 13290.06
245.4055, 13318.40
245.8876, 13311.38
246.3697, 13300.52
246.8519, 13307.67
247.3340, 13331.10
247.8161, 13354.32
248.2982, 13373.57
248.7803, 13398.27
249.2624, 13444.73
249.7446, 13496.34
250.2267, 13523.21
250.7088, 13502.10
251.1909, 13454.06
251.6730, 13441.99
252.1551, 13482.48
252.6373, 13526.38
253.1194, 13568.37
253.6015, 13601.01
254.0836, 13611.12
254.5657, 13589.94
255.0478, 13560.00
255.5300, 13561.58
256.0121, 13605.57
256.4942, 13639.74
256.9763, 13640.97
257.4584, 13631.21
257.9406, 13624.26
258.4227, 13622.90
258.9048, 13625.40
259.3869, 13631.70
259.8690, 13642.13
260.3511, 13649.31
260.8333, 13651.90
261.3154, 13650.36
261.7975, 13641.08
262.2796, 13625.18
262.7617, 13615.98
263.2438, 13631.84
263.7260, 13666.23
264.2081, 13678.12
264.6902, 13649.98
265.1723, 13619.21
265.6544, 13617.66
266.1365, 13637.09
266.6187, 13650.38
267.1008, 13640.69
267.5829, 13616.96
268.0650, 13597.45
268.5471, 13583.04
269.0292, 13571.51
269.5114, 13563.63
269.9935, 13557.54
270.4756, 13549.71
270.9577, 13533.81
271.4398, 13520.21
271.9219, 13526.98
272.4041, 13555.03
272.8862, 13571.07
273.3683, 13550.26
273.8504, 13510.40
274.3325, 13488.16
274.8146, 13495.40
275.2968, 13501.64
275.7789, 13476.02
276.2610, 13429.03
276.7431, 13406.42
277.2252, 13431.44
277.7073, 13478.79
278.1895, 13507.53
278.6716, 13516.91
279.1537, 13517.95
279.6358, 13516.88
280.1179, 13509.42
280.6000, 13482.15
281.0822, 13428.75
281.5643, 13375.82
282.0464, 13357.40
282.5285, 13376.24
283.0106, 13395.62
283.4927, 13412.13
283.9749, 13427.11
284.4570, 13445.58
284.9391, 13466.68
285.4212, 13477.51
285.9033, 13463.61
286.3854, 13425.81
286.8676, 13406.89
287.3497, 13423.38
287.8318, 13440.83
288.3139, 13446.70
288.7960, 13440.36
289.2781, 13420.84
289.7603, 13386.14
290.2424, 13340.36
290.7245, 13301.41
291.2066, 13259.53
291.6887, 13235.63
292.1708, 13254.66
292.6530, 13285.71
293.1351, 13283.00
293.6172, 13231.27
294.0993, 13163.68
294.5814, 13141.10
295.0635, 13204.90
295.5457, 13236.02
296.0278, 13215.12
296.5099, 13178.09
296.9920, 13145.43
297.4741, 13121.86
297.9562, 13106.33
298.4384, 13098.97
298.9205, 13101.82
299.4026, 13098.52
299.8847, 13091.10
300.3668, 13075.81
300.8489, 13037.73
301.3311, 12990.74
301.8131, 12965.83
302.2953, 12987.89
302.7774, 13043.49
303.2595, 13062.07
303.7416, 13014.34
304.2237, 12971.04
304.7058, 12948.63
305.1880, 12936.88
305.6701, 12923.07
306.1522, 12902.22
306.6343, 12883.30
307.1164, 12886.77
307.5985, 12924.12
308.0807, 12940.79
308.5628, 12902.13
309.0449, 12856.97
309.5270, 12833.20
310.0091, 12833.47
310.4912, 12844.51
310.9734, 12861.42
311.4555, 12882.59
311.9376, 12888.31
312.4197, 12870.08
312.9018, 12845.81
313.3839, 12822.76
313.8661, 12802.61
314.3482, 12790.47
314.8303, 12792.67
315.3124, 12802.53
315.7945, 12811.24
316.2766, 12820.35
316.7588, 12818.58
317.2409, 12787.89
317.7230, 12746.29
318.2051, 12725.53
318.6872, 12740.36
319.1693, 12757.21
319.6515, 12744.52
320.1336, 12710.23
320.6157, 12692.55
321.0978, 12710.83
321.5799, 12741.17
322.0620, 12739.85
322.5442, 12700.04
323.0263, 12676.83
323.5084, 12700.51
323.9905, 12743.15
324.4726, 12768.88
324.9547, 12771.78
325.4369, 12765.31
325.9190, 12761.87
326.4011, 12761.91
326.8832, 12757.21
327.3653, 12741.06
327.8474, 12726.44
328.3296, 12715.52
328.8117, 12711.59
329.2938, 12727.76
329.7759, 12776.35
330.2580, 12843.06
330.7401, 12861.33
331.2223, 12762.73
331.7044, 12700.47
332.1865, 12718.26
332.6686, 12767.19
333.1507, 12791.70
333.6328, 12775.89
334.1150, 12747.66
334.5971, 12751.70
335.0792, 12809.86
335.5613, 12840.51
336.0434, 12826.88
336.5255, 12804.12
337.0077, 12781.02
337.4898, 12763.54
337.9719, 12762.71
338.4540, 12794.02
338.9361, 12850.87
339.4182, 12869.94
339.9004, 12811.18
340.3825, 12773.97
340.8646, 12810.02
341.3467, 12873.60
341.8288, 12903.77
342.3109, 12874.28
342.7931, 12820.79
343.2752, 12798.14
343.7573, 12811.50
344.2394, 12818.27
344.7215, 12798.34
345.2036, 12776.40
345.6858, 12772.18
346.1679, 12786.49
346.6500, 12807.21
347.1321, 12830.37
347.6142, 12854.04
348.0963, 12872.78
348.5785, 12885.50
349.0606, 12895.01
349.5427, 12901.15
350.0248, 12905.55
350.5069, 12913.33
350.9890, 12938.67
351.4712, 12957.22
351.9533, 12939.90
352.4354, 12894.12
352.9175, 12860.03
353.3996, 12859.35
353.8817, 12878.75
354.3639, 12881.67
354.8460, 12855.24
355.3281, 12842.52
355.8102, 12876.15
356.2923, 12918.11
356.7744, 12914.27
357.2566, 12855.68
357.7387, 12787.74
358.2208, 12762.85
358.7029, 12791.65
359.1850, 12805.05
359.6671, 12796.12
360.1493, 12781.22
360.6314, 12761.41
361.1135, 12741.59
361.5956, 12732.57
362.0777, 12742.23
362.5598, 12761.99
363.0420, 12757.53
363.5241, 12693.24
364.0062, 12663.45
364.4883, 12708.38
364.9704, 12770.09
365.4525, 12800.91
365.9347, 12790.57
366.4168, 12760.28
366.8989, 12727.72
367.3810, 12691.65
367.8631, 12671.04
368.3452, 12678.04
368.8274, 12687.41
369.3095, 12686.68
369.7916, 12678.25
370.2737, 12667.43
370.7558, 12649.79
371.2379, 12636.83
371.7201, 12657.41
372.2022, 12716.74
372.6843, 12758.67
373.1664, 12752.52
373.6485, 12718.39
374.1306, 12684.22
374.6128, 12645.41
375.0949, 12626.08
375.5770, 12663.55
376.0591, 12725.40
376.5412, 12733.85
377.0233, 12666.35
377.5055, 12599.73
377.9876, 12627.22
378.4697, 12762.05
378.9518, 12820.49
379.4339, 12737.70
379.9160, 12634.25
380.3982, 12571.21
380.8803, 12546.52
381.3624, 12547.16
381.8445, 12568.94
382.3266, 12601.04
382.8087, 12610.74
383.2909, 12581.38
383.7730, 12549.25
384.2551, 12506.32
384.7372, 12466.79
385.2193, 12442.34
385.7014, 12434.59
386.1836, 12437.48
386.6657, 12447.77
387.1478, 12466.45
387.6299, 12472.13
388.1120, 12450.14
388.5941, 12431.77
389.0763, 12436.11
389.5584, 12448.58
390.0405, 12442.53
390.5226, 12401.51
391.0047, 12352.25
391.4868, 12338.94
391.9690, 12364.93
392.4511, 12396.44
392.9332, 12435.20
393.4153, 12466.15
393.8974, 12472.98
394.3795, 12455.87
394.8617, 12436.34
395.3438, 12426.80
395.8259, 12420.94
396.3080, 12407.67
396.7901, 12385.81
397.2722, 12360.40
397.7544, 12329.99
398.2365, 12299.31
398.7186, 12288.47
399.2007, 12326.77
399.6828, 12351.88
400.1649, 12325.61
400.6471, 12273.53
401.1292, 12238.30
401.6113, 12233.85
402.0934, 12245.91
402.5755, 12253.70
403.0576, 12254.40
403.5398, 12259.40
404.0219, 12288.98
404.5040, 12303.69
404.9861, 12271.90
405.4682, 12207.82
405.9503, 12147.10
406.4325, 12111.44
406.9146, 12097.62
407.3967, 12096.68
407.8788, 12115.98
408.3609, 12133.21
408.8430, 12151.62
409.3252, 12161.68
409.8073, 12150.91
410.2894, 12118.93
410.7715, 12085.56
411.2536, 12067.01
411.7357, 12061.50
412.2179, 12063.16
412.7000, 12076.98
413.1821, 12085.10
413.6642, 12068.68
414.1463, 12038.04
414.6284, 12013.00
415.1106, 11994.53
415.5927, 11985.72
416.0748, 11996.44
416.5569, 12019.56
417.0390, 12030.94
417.5211, 12020.42
418.0033, 12002.36
418.4854, 11999.02
418.9675, 12017.09
419.4496, 12027.20
419.9317, 12026.46
420.4138, 12018.98
420.8960, 12007.39
421.3781, 11991.59
421.8602, 11968.07
422.3423, 11932.74
422.8244, 11891.65
423.3065, 11872.21
423.7887, 11897.97
424.2708, 11908.63
424.7529, 11879.73
425.2350, 11846.83
425.7171, 11841.16
426.1992, 11865.73
426.6814, 11898.58
427.1635, 11922.10
427.6456, 11936.52
428.1277, 11942.44
428.6098, 11939.31
429.0919, 11928.48
429.5741, 11901.96
430.0562, 11870.64
430.5383, 11851.75
431.0204, 11852.19
431.5025, 11859.59
431.9846, 11864.27
432.4668, 11867.49
432.9489, 11875.55
433.4310, 11892.02
433.9131, 11906.80
434.3952, 11905.62
434.8773, 11886.24
435.3595, 11874.66
435.8416, 11877.70
436.3237, 11884.04
436.8058, 11895.79
437.2879, 11905.27
437.7701, 11890.59
438.2522, 11838.51
438.7343, 11768.68
439.2164, 11732.12
439.6985, 11751.07
440.1806, 11764.92
440.6628, 11765.28
441.1449, 11766.54
441.6270, 11782.18
442.1091, 11808.68
442.5912, 11829.38
443.0733, 11828.44
443.5555, 11813.15
444.0376, 11814.96
444.5197, 11843.33
445.0018, 11862.14
445.4839, 11847.44
445.9660, 11821.41
446.4482, 11806.70
446.9303, 11807.79
447.4124, 11806.69
447.8945, 11786.40
448.3766, 11757.25
448.8587, 11745.35
449.3409, 11755.63
449.8230, 11759.62
450.3051, 11727.08
450.7872, 11665.21
451.2693, 11643.65
451.7514, 11698.01
452.2336, 11747.94
452.7157, 11760.33
453.1978, 11754.90
453.6799, 11763.81
454.1620, 11794.96
454.6441, 11824.11
455.1263, 11817.59
455.6084, 11767.57
456.0905, 11726.39
456.5726, 11687.63
457.0547, 11665.69
457.5368, 11678.73
458.0190, 11708.54
458.5011, 11723.64
458.9832, 11708.03
459.4653, 11686.73
459.9474, 11701.57
460.4295, 11753.25
460.9117, 11789.81
461.3938, 11796.77
461.8759, 11791.78
462.3580, 11788.33
462.8401, 11786.38
463.3222, 11786.08
463.8044, 11796.69
464.2865, 11801.73
464.7686, 11783.66
465.2507, 11746.39
465.7328, 11702.26
466.2149, 11653.75
466.6971, 11611.64
467.1792, 11598.81
467.6613, 11635.18
468.1434, 11660.09
468.6255, 11675.91
469.1076, 11678.60
469.5898, 11658.72
470.0719, 11622.90
470.5540, 11586.07
471.0361, 11555.55
471.5182, 11535.59
472.0003, 11544.61
472.4825, 11601.97
472.9646, 11635.21
473.4467, 11611.57
473.9288, 11570.53
474.4109, 11528.96
474.8930, 11490.64
475.3752, 11465.89
475.8573, 11471.92
476.3394, 11490.81
476.8215, 11490.15
477.3036, 11469.05
477.7857, 11446.58
478.2679, 11430.72
478.7500, 11420.75
479.2321, 11414.92
479.7142, 11412.29
480.1963, 11415.05
480.6784, 11437.53
481.1606, 11456.27
481.6427, 11441.80
482.1248, 11398.43
482.6069, 11358.42
483.0890, 11345.42
483.5711, 11356.28
484.0533, 11375.73
484.5354, 11424.97
485.0175, 11446.51
485.4996, 11405.47
485.9817, 11355.86
486.4638, 11346.99
486.9460, 11380.27
487.4281, 11412.56
487.9102, 11406.24
488.3923, 11373.24
488.8744, 11348.70
489.3565, 11333.35
489.8387, 11324.30
490.3208, 11321.73
490.8029, 11324.18
491.2850, 11326.25
491.7671, 11323.06
492.2492, 11333.17
492.7314, 11385.17
493.2135, 11441.20
493.6956, 11454.29
494.1777, 11422.88
494.6598, 11377.70
495.1419, 11340.40
495.6241, 11310.61
496.1062, 11284.69
496.5883, 11256.58
497.0704, 11242.10
497.5525, 11250.63
498.0346, 11267.18
498.5168, 11285.00
498.9989, 11300.10
499.4810, 11302.75
499.9631, 11276.26
500.4452, 11231.20
500.9273, 11210.58
501.4095, 11219.87
501.8916, 11230.58
502.3737, 11230.31
502.8558, 11224.38
503.3379, 11221.49
503.8200, 11222.48
504.3022, 11223.54
504.7843, 11222.26
505.2664, 11220.85
505.7485, 11224.77
506.2306, 11232.69
506.7127, 11232.56
507.1949, 11213.97
507.6770, 11184.25
508.1591, 11175.95
508.6412, 11209.95
509.1233, 11235.43
509.6054, 11245.56
510.0876, 11249.82
510.5697, 11256.55
511.0518, 11264.79
511.5339, 11266.33
512.0161, 11253.59
512.4982, 11231.00
512.9803, 11206.23
513.4624, 11176.36
513.9445, 11165.31
514.4266, 11197.97
514.9088, 11239.30
515.3909, 11237.84
515.8730, 11189.25
516.3551, 11155.79
516.8372, 11173.97
517.3193, 11202.38
517.8015, 11196.99
518.2836, 11164.56
518.7657, 11143.19
519.2478, 11154.45
519.7299, 11182.96
520.2120, 11191.02
520.6942, 11159.76
521.1763, 11144.14
521.6584, 11165.11
522.1405, 11180.37
522.6226, 11156.76
523.1047, 11108.55
523.5869, 11075.97
524.0690, 11083.51
524.5511, 11109.25
525.0332, 11119.11
525.5153, 11113.15
525.9974, 11102.28
526.4796, 11088.68
526.9617, 11071.39
527.4438, 11037.50
527.9259, 10991.14
528.4080, 10982.55
528.8901, 11066.14
529.3723, 11142.56
529.8544, 11144.88
530.3365, 11099.20
530.8186, 11054.63
531.3007, 11028.33
531.7828, 11014.62
532.2650, 11004.85
532.7471, 10997.11
533.2292, 11005.69
533.7113, 11057.93
534.1934, 11094.93
534.6755, 11087.54
535.1577, 11058.97
535.6398, 11038.88
536.1219, 11035.27
536.6040, 11044.92
537.0861, 11077.06
537.5682, 11120.46
538.0504, 11135.22
538.5325, 11114.11
539.0146, 11083.08
539.4967, 11056.01
539.9788, 11034.46
540.4609, 11025.96
540.9431, 11044.19
541.4252, 11055.14
541.9073, 11041.56
542.3894, 11024.35
542.8715, 11030.10
543.3536, 11056.15
543.8358, 11072.26
544.3179, 11050.77
544.8000, 11003.45
545.2821, 10985.38
545.7642, 11010.73
546.2463, 11026.42
546.7285, 11011.36
547.2106, 10987.15
547.6927, 10970.18
548.1748, 10960.45
548.6569, 10948.44
549.1390, 10926.39
549.6211, 10902.66
550.1032, 10885.14
550.5853, 10873.89
551.0674, 10869.24
551.5496, 10871.79
552.0317, 10878.32
552.5138, 10883.59
552.9959, 10886.86
553.4780, 10891.52
553.9601, 10913.29
554.4423, 10919.59
554.9244, 10882.00
555.4065, 10825.07
555.8886, 10788.33
556.3707, 10786.44
556.8528, 10798.28
557.3350, 10799.03
557.8171, 10790.33
558.2992, 10787.33
558.7813, 10794.69
559.2634, 10797.04
559.7455, 10779.73
560.2277, 10750.09
560.7098, 10732.58
561.1919, 10735.42
561.6740, 10736.25
562.1561, 10727.01
562.6382, 10713.01
563.1204, 10696.50
563.6025, 10679.95
564.0846, 10672.09
564.5667, 10681.84
565.0488, 10700.50
565.5309, 10691.31
566.0131, 10640.69
566.4952, 10596.59
566.9773, 10569.63
567.4594, 10549.78
567.9415, 10532.13
568.4236, 10516.38
568.9058, 10503.09
569.3879, 10497.00
569.8700, 10489.36
570.3521, 10463.10
570.8342, 10426.72
571.3163, 10415.21
571.7985, 10441.68
572.2806, 10470.21
572.7627, 10453.33
573.2448, 10382.73
573.7269, 10345.20
574.2090, 10372.37
574.6912, 10392.63
575.1733, 10381.92
575.6554, 10358.31
576.1375, 10341.96
576.6196, 10337.46
577.1017, 10337.30
577.5839, 10335.60
578.0660, 10332.76
578.5481, 10330.38
579.0302, 10328.67
579.5123, 10325.80
579.9944, 10320.57
580.4766, 10314.01
580.9587, 10307.38
581.4408, 10299.49
581.9229, 10295.98
582.4050, 10304.64
582.8871, 10311.62
583.3693, 10307.80
583.8514, 10295.00
584.3335, 10276.97
584.8156, 10255.41
585.2977, 10234.54
585.7798, 10220.47
586.2620, 10213.29
586.7441, 10212.86
587.2262, 10222.67
587.7083, 10233.49
588.1904, 10245.19
588.6725, 10253.10
589.1547, 10247.15
589.6368, 10220.29
590.1189, 10194.67
590.6010, 10184.70
591.0831, 10179.89
591.5652, 10160.75
592.0474, 10130.29
592.5295, 10117.04
593.0116, 10143.09
593.4937, 10190.80
593.9758, 10203.21
594.4579, 10159.57
594.9401, 10129.86
595.4222, 10135.07
595.9043, 10141.70
596.3864, 10132.61
596.8685, 10111.66
597.3506, 10088.51
597.8328, 10059.27
598.3149, 10043.75
598.7970, 10075.92
599.2791, 10134.47
599.7612, 10163.85
600.2433, 10153.40
600.7255, 10122.11
601.2076, 10081.45
601.6897, 10034.58
602.1718, 10007.46
602.6539, 10019.25
603.1360, 10025.23
603.6182, 10017.23
604.1003, 10006.14
604.5824, 9998.125
605.0645, 9994.524
605.5466, 9996.669
606.0287, 10009.08
606.5109, 10022.52
606.9930, 10019.17
607.4751, 10001.83
607.9572, 9994.831
608.4393, 10006.67
608.9214, 10020.42
609.4036, 10018.97
609.8857, 10002.22
610.3678, 9985.605
610.8499, 9963.386
611.3320, 9948.553
611.8141, 9953.402
612.2963, 9961.224
612.7784, 9953.108
613.2605, 9928.843
613.7426, 9903.806
614.2247, 9888.851
614.7068, 9881.975
615.1890, 9878.197
615.6711, 9877.432
616.1532, 9884.467
616.6353, 9908.296
617.1174, 9926.330
617.5995, 9902.390
618.0817, 9835.384
618.5638, 9807.245
619.0459, 9856.549
619.5280, 9904.204
620.0101, 9923.840
620.4922, 9922.614
620.9744, 9904.350
621.4565, 9873.751
621.9386, 9846.488
622.4207, 9837.254
622.9028, 9842.350
623.3849, 9847.744
623.8671, 9853.059
624.3492, 9861.569
624.8313, 9878.061
625.3134, 9893.851
625.7955, 9898.321
626.2776, 9892.191
626.7598, 9881.045
627.2419, 9860.297
627.7240, 9840.489
628.2061, 9826.901
628.6882, 9817.760
629.1703, 9811.739
629.6525, 9807.791
630.1346, 9802.177
630.6167, 9789.102
631.0988, 9771.563
631.5809, 9770.013
632.0630, 9791.933
632.5452, 9799.240
633.0273, 9767.461
633.5094, 9728.686
633.9915, 9719.461
634.4736, 9738.256
634.9557, 9759.869
635.4379, 9792.584
635.9200, 9812.920
636.4021, 9798.630
636.8842, 9766.631
637.3663, 9743.531
637.8484, 9735.426
638.3306, 9729.783
638.8127, 9711.491
639.2948, 9685.297
639.7769, 9684.140
640.2590, 9716.789
640.7411, 9743.645
641.2233, 9755.271
641.7054, 9754.378
642.1875, 9741.427
642.6696, 9717.374
643.1517, 9693.994
643.6339, 9666.489
644.1160, 9647.949
644.5981, 9650.230
645.0802, 9664.268
645.5623, 9680.147
646.0444, 9693.735
646.5266, 9698.700
647.0087, 9688.481
647.4908, 9665.179
647.9729, 9634.753
648.4550, 9591.702
648.9371, 9565.120
649.4193, 9569.227
649.9014, 9585.214
650.3835, 9597.624
650.8656, 9606.481
651.3477, 9611.601
651.8298, 9610.166
652.3120, 9608.188
652.7941, 9610.005
653.2762, 9612.223
653.7583, 9610.644
654.2404, 9604.446
654.7225, 9594.322
655.2047, 9579.952
655.6868, 9563.268
656.1689, 9548.329
656.6510, 9532.896
657.1331, 9536.392
657.6152, 9579.795
658.0974, 9618.758
658.5795, 9595.232
659.0616, 9527.790
659.5437, 9501.853
660.0258, 9577.908
660.5079, 9630.697
660.9901, 9598.995
661.4722, 9534.995
661.9543, 9487.191
662.4364, 9462.979
662.9185, 9451.920
663.4006, 9447.524
663.8828, 9451.040
664.3649, 9471.091
664.8470, 9508.723
665.3291, 9525.075
665.8112, 9505.072
666.2933, 9484.948
666.7755, 9494.296
667.2576, 9525.965
667.7397, 9548.143
668.2218, 9570.859
668.7039, 9568.125
669.1860, 9511.619
669.6682, 9447.006
670.1503, 9401.867
670.6324, 9380.574
