##NAMES=Glaucodot
##RRUFFID=R070644
##IDEAL CHEMISTRY=Co^3+^Fe^3+^(AsS)^3-^_2_
##LOCALITY=Hakansboda, Lindesberg, Västmanland, Sweden
##OWNER=RRUFF
##SOURCE=Michael Scott
##DESCRIPTION=Pair of grey metallic crystals with chalcopyrite embedded in epoxy.
##STATUS=The identification of this mineral is confirmed by single-crystal X-ray diffraction and chemical analysis.
##URL=rruff.info/R070644
##MEASURED CHEMISTRY=(Co_0.53_Fe_0.45_Ni_0.02_)_Σ=1_As_1.00_(S_0.90_As_0.10_)_Σ=1_ ; the included dark prisms are actinolite
132.5902, 70.43178
133.0723, 81.06245
133.5544, 91.37180
134.0366, 99.36833
134.5187, 105.4052
135.0008, 110.0908
135.4829, 113.4811
135.9650, 115.7929
136.4471, 122.2619
136.9293, 137.7538
137.4114, 151.9950
137.8935, 160.7569
138.3756, 165.6455
138.8577, 171.4754
139.3398, 182.3909
139.8220, 198.5114
140.3041, 206.4337
140.7862, 200.7896
141.2683, 194.1004
141.7504, 191.1889
142.2325, 191.9510
142.7147, 194.6455
143.1968, 198.5213
143.6789, 203.5059
144.1610, 205.2122
144.6431, 200.1460
145.1252, 195.1366
145.6074, 194.8405
146.0895, 198.8403
146.5716, 202.9489
147.0537, 203.9086
147.5358, 201.5146
148.0179, 199.1199
148.5001, 196.5831
148.9822, 194.1502
149.4643, 191.1331
149.9464, 187.6617
150.4285, 186.3989
150.9106, 190.6619
151.3928, 199.8524
151.8749, 206.2972
152.3570, 206.7598
152.8391, 205.9972
153.3212, 208.9796
153.8033, 216.1615
154.2855, 223.2455
154.7676, 226.0352
155.2497, 225.6756
155.7318, 227.0895
156.2139, 232.2907
156.6960, 239.0219
157.1782, 245.6297
157.6603, 252.4053
158.1424, 256.5075
158.6245, 252.2628
159.1066, 243.2764
159.5887, 238.5683
160.0709, 243.0318
160.5530, 252.0750
161.0351, 260.0525
161.5172, 267.3264
161.9993, 271.5315
162.4814, 268.9273
162.9636, 262.0992
163.4457, 255.2570
163.9278, 249.1812
164.4099, 244.1799
164.8920, 241.3036
165.3741, 241.3270
165.8563, 241.3214
166.3384, 240.3956
166.8205, 238.1757
167.3026, 233.5088
167.7847, 223.3516
168.2668, 211.2448
168.7490, 205.5609
169.2311, 208.8042
169.7132, 212.8803
170.1953, 212.4581
170.6774, 210.0855
171.1595, 210.0582
171.6417, 216.1751
172.1238, 225.1334
172.6059, 228.0788
173.0880, 222.1864
173.5701, 215.7620
174.0522, 212.0033
174.5344, 210.1883
175.0165, 209.5174
175.4986, 209.8486
175.9807, 210.9072
176.4628, 212.2014
176.9449, 214.6424
177.4271, 215.4880
177.9092, 212.4269
178.3913, 207.6921
178.8734, 204.5195
179.3555, 205.0183
179.8376, 207.5685
180.3197, 206.9814
180.8019, 200.6324
181.2840, 195.8113
181.7661, 196.1373
182.2482, 198.6660
182.7303, 199.5473
183.2124, 196.5333
183.6946, 191.3085
184.1767, 188.8582
184.6588, 190.9097
185.1409, 192.8662
185.6230, 193.8169
186.1051, 193.9011
186.5873, 193.1760
187.0694, 191.5789
187.5515, 189.4351
188.0336, 187.3795
188.5157, 184.5360
188.9978, 183.5229
189.4800, 186.2142
189.9621, 190.1508
190.4442, 192.9550
190.9263, 193.5769
191.4084, 192.4003
191.8905, 190.1643
192.3727, 185.9365
192.8548, 182.2872
193.3369, 177.6800
193.8190, 174.6046
194.3011, 176.8550
194.7832, 186.0547
195.2654, 197.6137
195.7475, 200.7275
196.2296, 188.2566
196.7117, 180.7507
197.1938, 184.8383
197.6759, 192.0088
198.1581, 194.3241
198.6402, 189.2044
199.1223, 180.8782
199.6044, 177.6981
200.0865, 184.0660
200.5686, 186.7359
201.0508, 181.7282
201.5329, 175.0192
202.0150, 171.9722
202.4971, 173.8118
202.9792, 176.7299
203.4613, 173.5577
203.9435, 158.4404
204.4256, 150.7244
204.9077, 156.3100
205.3898, 164.8523
205.8719, 170.0610
206.3540, 170.4145
206.8362, 167.6526
207.3183, 163.7910
207.8004, 158.2540
208.2825, 153.1447
208.7646, 145.1471
209.2467, 139.9705
209.7289, 142.7565
210.2110, 153.0742
210.6931, 165.2682
211.1752, 173.1272
211.6573, 176.2846
212.1395, 176.0159
212.6216, 169.8637
213.1037, 162.6669
213.5858, 155.7053
214.0679, 149.6606
214.5500, 145.4180
215.0322, 144.1052
215.5143, 146.1566
215.9964, 148.3421
216.4785, 151.9445
216.9606, 154.5085
217.4427, 154.0398
217.9249, 151.5050
218.4070, 149.7672
218.8891, 151.6373
219.3712, 157.2910
219.8533, 160.1339
220.3354, 155.1660
220.8176, 152.1727
221.2997, 155.8019
221.7818, 163.4695
222.2639, 169.6943
222.7460, 170.3698
223.2281, 166.1196
223.7103, 163.6364
224.1924, 165.3793
224.6745, 166.2757
225.1566, 165.4365
225.6387, 163.0678
226.1208, 159.0411
226.6030, 152.9323
227.0851, 145.9438
227.5672, 143.3815
228.0493, 149.9552
228.5314, 154.7669
229.0135, 155.7306
229.4957, 154.1536
229.9778, 150.9852
230.4599, 146.5529
230.9420, 142.0504
231.4241, 140.7366
231.9062, 145.5437
232.3884, 148.5308
232.8705, 147.7922
233.3526, 145.5748
233.8347, 143.6893
234.3168, 142.7572
234.7989, 142.4129
235.2811, 141.8518
235.7632, 140.2811
236.2453, 140.4850
236.7274, 144.9369
237.2095, 149.4712
237.6916, 151.4016
238.1738, 150.1895
238.6559, 147.0049
239.1380, 142.5884
239.6201, 135.8994
240.1022, 131.9028
240.5843, 133.1041
241.0665, 135.1222
241.5486, 136.2778
242.0307, 136.3136
242.5128, 135.5071
242.9949, 133.4013
243.4770, 129.6448
243.9592, 128.8939
244.4413, 134.5031
244.9234, 140.1224
245.4055, 143.0816
245.8876, 144.0594
246.3697, 145.3783
246.8519, 149.7081
247.3340, 156.2308
247.8161, 156.8610
248.2982, 145.4063
248.7803, 136.2548
249.2624, 135.3691
249.7446, 139.6785
250.2267, 144.2747
250.7088, 146.7722
251.1909, 147.6140
251.6730, 148.1479
252.1551, 148.7222
252.6373, 148.1941
253.1194, 145.0146
253.6015, 141.1595
254.0836, 138.8396
254.5657, 138.9715
255.0478, 140.4495
255.5300, 142.3946
256.0121, 145.8621
256.4942, 145.6839
256.9763, 132.7993
257.4584, 120.0659
257.9406, 119.3421
258.4227, 133.5114
258.9048, 149.2138
259.3869, 150.6846
259.8690, 137.1415
260.3511, 127.6271
260.8333, 128.4787
261.3154, 132.1222
261.7975, 132.0753
262.2796, 128.4931
262.7617, 127.2686
263.2438, 136.2594
263.7260, 152.7464
264.2081, 159.7994
264.6902, 150.9376
265.1723, 139.5510
265.6544, 135.3453
266.1365, 136.7745
266.6187, 139.0360
267.1008, 139.6491
267.5829, 139.6016
268.0650, 141.4622
268.5471, 146.0710
269.0292, 150.0245
269.5114, 149.6014
269.9935, 147.0018
270.4756, 146.1224
270.9577, 150.4287
271.4398, 154.8440
271.9219, 151.8293
272.4041, 141.0870
272.8862, 133.2372
273.3683, 135.2888
273.8504, 142.9115
274.3325, 147.3715
274.8146, 147.2483
275.2968, 145.8224
275.7789, 144.8043
276.2610, 144.1947
276.7431, 143.9912
277.2252, 144.1953
277.7073, 144.8296
278.1895, 146.0588
278.6716, 148.0436
279.1537, 149.7527
279.6358, 151.0809
280.1179, 151.8284
280.6000, 151.5677
281.0822, 150.1574
281.5643, 147.9779
282.0464, 144.6354
282.5285, 139.7883
283.0106, 138.3897
283.4927, 144.7203
283.9749, 152.3870
284.4570, 155.8432
284.9391, 154.6424
285.4212, 150.5392
285.9033, 143.5490
286.3854, 134.0838
286.8676, 132.0268
287.3497, 145.7469
287.8318, 158.0638
288.3139, 159.4720
288.7960, 152.5934
289.2781, 144.6033
289.7603, 139.0491
290.2424, 136.0827
290.7245, 136.6685
291.2066, 147.3112
291.6887, 153.2690
292.1708, 148.6804
292.6530, 139.4980
293.1351, 132.5752
293.6172, 130.3675
294.0993, 131.9762
294.5814, 136.3222
295.0635, 148.4353
295.5457, 153.2787
296.0278, 144.3956
296.5099, 133.4499
296.9920, 128.6974
297.4741, 130.9082
297.9562, 135.9186
298.4384, 139.7436
298.9205, 142.4321
299.4026, 143.5116
299.8847, 141.3567
300.3668, 139.2682
300.8489, 138.1406
301.3311, 137.9723
301.8131, 138.5327
302.2953, 139.7100
302.7774, 141.4476
303.2595, 143.8726
303.7416, 150.9315
304.2237, 152.3800
304.7058, 140.1557
305.1880, 124.4750
305.6701, 117.3064
306.1522, 123.2851
306.6343, 134.8605
307.1164, 139.1091
307.5985, 133.4683
308.0807, 129.9974
308.5628, 132.5368
309.0449, 136.7383
309.5270, 141.0751
310.0091, 145.0650
310.4912, 147.2763
310.9734, 145.5474
311.4555, 140.3094
311.9376, 136.0512
312.4197, 131.8922
312.9018, 130.7381
313.3839, 137.1413
313.8661, 147.8785
314.3482, 154.2770
314.8303, 149.0096
315.3124, 138.5248
315.7945, 134.9039
316.2766, 139.3369
316.7588, 143.6781
317.2409, 143.3156
317.7230, 140.1149
318.2051, 136.7228
318.6872, 131.8927
319.1693, 129.6722
319.6515, 135.8361
320.1336, 148.1217
320.6157, 155.9278
321.0978, 154.3410
321.5799, 148.7695
322.0620, 148.5311
322.5442, 154.7106
323.0263, 158.4159
323.5084, 154.6166
323.9905, 148.0234
324.4726, 145.2441
324.9547, 147.3601
325.4369, 150.1244
325.9190, 149.2289
326.4011, 144.2011
326.8832, 141.1966
327.3653, 141.1765
327.8474, 142.1870
328.3296, 143.4245
328.8117, 144.8050
329.2938, 146.5045
329.7759, 148.7735
330.2580, 151.2066
330.7401, 151.8835
331.2223, 149.8220
331.7044, 147.1996
332.1865, 141.8320
332.6686, 137.0977
333.1507, 137.9969
333.6328, 145.6078
334.1150, 154.7636
334.5971, 157.5775
335.0792, 151.5142
335.5613, 145.7507
336.0434, 138.3015
336.5255, 132.8336
337.0077, 133.0661
337.4898, 137.3954
337.9719, 140.3769
338.4540, 136.7090
338.9361, 127.6784
339.4182, 125.4426
339.9004, 136.1216
340.3825, 144.6641
340.8646, 145.9098
341.3467, 143.0474
341.8288, 139.8188
342.3109, 137.4730
342.7931, 135.9344
343.2752, 135.6674
343.7573, 137.0810
344.2394, 136.6302
344.7215, 130.0090
345.2036, 124.0919
345.6858, 126.0707
346.1679, 135.9736
346.6500, 143.9476
347.1321, 141.4948
347.6142, 132.4088
348.0963, 127.3378
348.5785, 127.9759
349.0606, 130.5967
349.5427, 133.4241
350.0248, 136.0432
350.5069, 136.9839
350.9890, 133.3702
351.4712, 130.0604
351.9533, 132.5750
352.4354, 139.6059
352.9175, 144.0271
353.3996, 141.9553
353.8817, 135.8199
354.3639, 131.7670
354.8460, 129.6486
355.3281, 129.2648
355.8102, 132.0748
356.2923, 135.9323
356.7744, 138.2795
357.2566, 138.5910
357.7387, 137.8837
358.2208, 137.2996
358.7029, 136.9854
359.1850, 135.8809
359.6671, 131.5754
360.1493, 128.9573
360.6314, 132.2763
361.1135, 138.9295
361.5956, 143.0223
362.0777, 140.8876
362.5598, 134.3514
363.0420, 129.9247
363.5241, 127.3337
364.0062, 127.6448
364.4883, 133.8454
364.9704, 140.8556
365.4525, 144.5355
365.9347, 143.9791
366.4168, 140.9687
366.8989, 136.5206
367.3810, 130.3648
367.8631, 126.9183
368.3452, 128.3953
368.8274, 130.2366
369.3095, 130.6499
369.7916, 129.6261
370.2737, 127.1380
370.7558, 122.2599
371.2379, 116.6585
371.7201, 112.9578
372.2022, 111.1725
372.6843, 111.2242
373.1664, 113.7623
373.6485, 117.8459
374.1306, 122.1974
374.6128, 127.1470
375.0949, 131.0338
375.5770, 133.0742
376.0591, 133.4028
376.5412, 131.5547
377.0233, 127.1177
377.5055, 123.1040
377.9876, 123.6288
378.4697, 129.3643
378.9518, 129.6835
379.4339, 119.0416
379.9160, 107.8252
380.3982, 101.6982
380.8803, 100.1386
381.3624, 101.2991
381.8445, 104.4994
382.3266, 108.5816
382.8087, 110.0071
383.2909, 104.4004
383.7730, 101.8788
384.2551, 106.4537
384.7372, 111.6903
385.2193, 111.3794
385.7014, 105.1570
386.1836, 98.15031
386.6657, 96.09068
387.1478, 99.35049
387.6299, 100.3867
388.1120, 95.17557
388.5941, 92.49907
389.0763, 97.88292
389.5584, 106.9472
390.0405, 112.9015
390.5226, 112.8734
391.0047, 108.5980
391.4868, 100.8062
391.9690, 88.59853
392.4511, 82.05741
392.9332, 87.48038
393.4153, 96.55605
393.8974, 101.8666
394.3795, 103.2972
394.8617, 102.5219
395.3438, 97.55199
395.8259, 91.85329
396.3080, 92.61373
396.7901, 100.8422
397.2722, 108.4035
397.7544, 109.3290
398.2365, 104.6904
398.7186, 101.3830
399.2007, 98.87914
399.6828, 98.26315
400.1649, 101.9398
400.6471, 107.3288
401.1292, 109.8223
401.6113, 107.8984
402.0934, 104.0032
402.5755, 101.5883
403.0576, 100.7561
403.5398, 101.3593
404.0219, 104.6333
404.5040, 107.9939
404.9861, 111.6669
405.4682, 114.3471
405.9503, 112.5849
406.4325, 103.3549
406.9146, 90.00507
407.3967, 85.38089
407.8788, 95.26865
408.3609, 102.0258
408.8430, 99.80180
409.3252, 95.02106
409.8073, 92.30568
410.2894, 92.45426
410.7715, 94.03641
411.2536, 97.45826
411.7357, 101.7584
412.2179, 100.9451
412.7000, 92.43713
413.1821, 84.10299
413.6642, 81.45342
414.1463, 82.87292
414.6284, 85.89642
415.1106, 91.45515
415.5927, 96.81548
416.0748, 100.1160
416.5569, 101.6121
417.0390, 101.8636
417.5211, 100.8933
418.0033, 99.35452
418.4854, 98.30195
418.9675, 98.14361
419.4496, 96.98714
419.9317, 93.46124
420.4138, 89.99957
420.8960, 88.25691
421.3781, 88.06171
421.8602, 88.33797
422.3423, 88.35299
422.8244, 88.38684
423.3065, 89.81953
423.7887, 95.29893
424.2708, 97.92384
424.7529, 95.31160
425.2350, 90.97624
425.7171, 87.14437
426.1992, 84.43154
426.6814, 83.13493
427.1635, 84.64551
427.6456, 88.53191
428.1277, 88.91330
428.6098, 83.34586
429.0919, 78.98685
429.5741, 80.77034
430.0562, 85.73219
430.5383, 89.72960
431.0204, 91.92361
431.5025, 92.68247
431.9846, 90.86175
432.4668, 87.60896
432.9489, 87.93573
433.4310, 94.15811
433.9131, 100.6401
434.3952, 99.44691
434.8773, 89.39869
435.3595, 84.84773
435.8416, 92.70534
436.3237, 100.7357
436.8058, 99.85253
437.2879, 92.91606
437.7701, 88.55654
438.2522, 91.40372
438.7343, 98.09024
439.2164, 99.80397
439.6985, 91.83298
440.1806, 87.27088
440.6628, 88.00104
441.1449, 90.40670
441.6270, 93.19167
442.1091, 95.63395
442.5912, 96.36731
443.0733, 93.24971
443.5555, 88.04624
444.0376, 88.79224
444.5197, 98.77355
445.0018, 105.4782
445.4839, 101.0822
445.9660, 92.55275
446.4482, 86.13875
446.9303, 82.66859
447.4124, 80.94676
447.8945, 80.64546
448.3766, 81.50677
448.8587, 83.43882
449.3409, 86.55721
449.8230, 89.04180
450.3051, 89.23708
450.7872, 87.38819
451.2693, 86.32928
451.7514, 85.56747
452.2336, 86.08466
452.7157, 89.47714
453.1978, 93.88806
453.6799, 96.90879
454.1620, 97.80048
454.6441, 97.03767
455.1263, 95.14421
455.6084, 92.03395
456.0905, 88.29993
456.5726, 82.64063
457.0547, 77.72838
457.5368, 73.36913
458.0190, 70.55331
458.5011, 71.32690
458.9832, 77.06245
459.4653, 84.21015
459.9474, 87.57953
460.4295, 87.10465
460.9117, 86.57427
461.3938, 87.02103
461.8759, 87.14363
462.3580, 84.74844
462.8401, 80.57858
463.3222, 78.83461
463.8044, 83.95668
464.2865, 89.38341
464.7686, 87.93895
465.2507, 81.32413
465.7328, 76.68150
466.2149, 77.25185
466.6971, 80.91788
467.1792, 83.68881
467.6613, 85.63923
468.1434, 86.34954
468.6255, 84.20631
469.1076, 82.24330
469.5898, 82.63853
470.0719, 84.91768
470.5540, 87.46626
471.0361, 89.43031
471.5182, 90.55742
472.0003, 89.91161
472.4825, 86.79687
472.9646, 83.81598
473.4467, 81.50809
473.9288, 79.53252
474.4109, 77.49928
474.8930, 75.49084
475.3752, 74.24361
475.8573, 74.71398
476.3394, 76.00220
476.8215, 76.35276
477.3036, 75.71581
477.7857, 75.60976
478.2679, 76.77359
478.7500, 78.96273
479.2321, 81.93420
479.7142, 86.76870
480.1963, 89.62798
480.6784, 88.38531
481.1606, 85.79291
481.6427, 83.39523
482.1248, 81.90002
482.6069, 83.16207
483.0890, 89.25446
483.5711, 98.51240
484.0533, 101.2515
484.5354, 90.63749
485.0175, 84.78672
485.4996, 91.23343
485.9817, 99.38263
486.4638, 100.2340
486.9460, 93.23083
487.4281, 84.79523
487.9102, 78.72518
488.3923, 75.12606
488.8744, 75.11742
489.3565, 79.39005
489.8387, 83.27119
490.3208, 84.34387
490.8029, 83.52750
491.2850, 82.78294
491.7671, 81.87762
492.2492, 81.69158
492.7314, 84.63474
493.2135, 87.27413
493.6956, 83.79704
494.1777, 74.79486
494.6598, 68.12320
495.1419, 70.32928
495.6241, 79.63180
496.1062, 84.43771
496.5883, 80.32057
497.0704, 77.75143
497.5525, 78.51900
498.0346, 80.63834
498.5168, 82.32661
498.9989, 83.48301
499.4810, 85.46552
499.9631, 91.21646
500.4452, 98.63010
500.9273, 98.24306
501.4095, 87.80179
501.8916, 79.04792
502.3737, 77.25238
502.8558, 80.13885
503.3379, 84.59274
503.8200, 91.59797
504.3022, 95.67948
504.7843, 92.85731
505.2664, 87.12446
505.7485, 82.38469
506.2306, 79.19543
506.7127, 77.73401
507.1949, 78.29105
507.6770, 80.40184
508.1591, 82.11071
508.6412, 85.11351
509.1233, 85.02737
509.6054, 76.34446
510.0876, 68.68666
510.5697, 71.26460
511.0518, 82.60334
511.5339, 92.79791
512.0161, 94.42101
512.4982, 89.99912
512.9803, 85.94976
513.4624, 82.22459
513.9445, 79.33093
514.4266, 77.50803
514.9088, 76.60981
515.3909, 76.85954
515.8730, 78.46542
516.3551, 78.60544
516.8372, 74.02323
517.3193, 69.37392
517.8015, 69.90522
518.2836, 74.61774
518.7657, 78.59706
519.2478, 79.21883
519.7299, 77.58791
520.2120, 76.06595
520.6942, 72.75027
521.1763, 73.35606
521.6584, 81.22781
522.1405, 89.39742
522.6226, 94.16523
523.1047, 96.12914
523.5869, 97.97789
524.0690, 101.9960
524.5511, 104.7225
525.0332, 97.71747
525.5153, 81.08360
525.9974, 72.04504
526.4796, 77.89615
526.9617, 87.32756
527.4438, 87.47678
527.9259, 79.59497
528.4080, 73.97525
528.8901, 72.51093
529.3723, 73.22343
529.8544, 76.39569
530.3365, 80.62137
530.8186, 83.50350
531.3007, 84.21223
531.7828, 82.96181
532.2650, 79.40979
532.7471, 72.50957
533.2292, 69.82963
533.7113, 75.55721
534.1934, 80.82531
534.6755, 82.81347
535.1577, 82.80318
535.6398, 82.55106
536.1219, 82.53590
536.6040, 82.53011
537.0861, 82.31606
537.5682, 81.94127
538.0504, 81.60292
538.5325, 81.35421
539.0146, 80.85767
539.4967, 79.54888
539.9788, 77.82378
540.4609, 77.64601
540.9431, 80.95403
541.4252, 82.98057
541.9073, 81.87045
542.3894, 79.63222
542.8715, 78.09047
543.3536, 77.44394
543.8358, 76.89648
544.3179, 75.70378
544.8000, 74.20189
545.2821, 74.13892
545.7642, 76.43147
546.2463, 77.61417
546.7285, 74.49452
547.2106, 71.71004
547.6927, 74.08488
548.1748, 81.14219
548.6569, 86.12504
549.1390, 83.60685
549.6211, 79.27257
550.1032, 80.10704
550.5853, 84.94785
551.0674, 88.40305
551.5496, 88.39283
552.0317, 85.70719
552.5138, 81.28497
552.9959, 73.84799
553.4780, 69.02679
553.9601, 67.74480
554.4423, 67.66198
554.9244, 68.14522
555.4065, 69.11064
555.8886, 70.81195
556.3707, 73.38190
556.8528, 75.75139
557.3350, 77.17004
557.8171, 77.46619
558.2992, 73.98505
558.7813, 64.31791
559.2634, 57.95777
559.7455, 64.06122
560.2277, 77.98676
560.7098, 84.32863
561.1919, 78.24812
561.6740, 72.90121
562.1561, 73.11672
562.6382, 75.65150
563.1204, 77.38965
563.6025, 77.89330
564.0846, 77.83781
564.5667, 77.60592
565.0488, 77.40424
565.5309, 78.07949
566.0131, 79.87947
566.4952, 81.93598
566.9773, 85.65829
567.4594, 88.29633
567.9415, 87.42007
568.4236, 83.65074
568.9058, 80.07703
569.3879, 76.79916
569.8700, 75.34734
570.3521, 79.44566
570.8342, 86.92812
571.3163, 89.88363
571.7985, 85.63567
572.2806, 78.82185
572.7627, 74.99252
573.2448, 74.52376
573.7269, 73.38071
574.2090, 67.96108
574.6912, 66.18005
575.1733, 73.46557
575.6554, 83.60911
576.1375, 89.87071
576.6196, 90.74815
577.1017, 89.07121
577.5839, 86.45668
578.0660, 83.35570
578.5481, 81.44404
579.0302, 80.87286
579.5123, 80.19035
579.9944, 77.95913
580.4766, 75.92616
580.9587, 78.74113
581.4408, 88.73285
581.9229, 93.29615
582.4050, 84.31717
582.8871, 75.14420
583.3693, 76.15871
583.8514, 83.87208
584.3335, 89.49326
584.8156, 88.97388
585.2977, 85.29969
585.7798, 82.66996
586.2620, 81.04443
586.7441, 81.58180
587.2262, 87.16832
587.7083, 90.22838
588.1904, 82.12720
588.6725, 69.81450
589.1547, 65.52690
589.6368, 74.08221
590.1189, 82.14164
590.6010, 82.58935
591.0831, 79.31492
591.5652, 76.29269
592.0474, 74.33726
592.5295, 74.39632
593.0116, 77.40618
593.4937, 82.00478
593.9758, 84.02009
594.4579, 82.88239
594.9401, 80.49215
595.4222, 75.09125
595.9043, 70.21333
596.3864, 67.67850
596.8685, 67.10066
597.3506, 67.53110
597.8328, 69.44621
598.3149, 70.64243
598.7970, 66.68871
599.2791, 60.66559
599.7612, 62.09150
600.2433, 72.83456
600.7255, 83.64714
601.2076, 86.60696
601.6897, 82.66225
602.1718, 79.53680
602.6539, 76.95342
603.1360, 75.67037
603.6182, 77.43784
604.1003, 79.17163
604.5824, 78.00948
605.0645, 74.47581
605.5466, 71.44384
606.0287, 70.23075
606.5109, 70.84031
606.9930, 74.46843
607.4751, 80.53061
607.9572, 83.88070
608.4393, 82.70026
608.9214, 80.74778
609.4036, 82.09338
609.8857, 86.75434
610.3678, 89.14436
610.8499, 87.41808
611.3320, 85.98257
611.8141, 87.40574
612.2963, 88.62899
612.7784, 84.98285
613.2605, 77.12742
613.7426, 71.66537
614.2247, 75.23035
614.7068, 83.35542
615.1890, 82.84245
615.6711, 73.01820
616.1532, 71.04320
616.6353, 85.69142
617.1174, 103.0057
617.5995, 106.1350
618.0817, 94.72612
618.5638, 87.07164
619.0459, 86.44921
619.5280, 86.70308
620.0101, 85.89423
620.4922, 84.41699
620.9744, 81.97189
621.4565, 79.04995
621.9386, 78.37673
622.4207, 83.50283
622.9028, 92.37251
623.3849, 96.90880
623.8671, 96.78608
624.3492, 93.79766
624.8313, 86.21692
625.3134, 78.55690
625.7955, 77.14632
626.2776, 81.56546
