##NAMES=Glaucophane
##RRUFFID=R070515
##IDEAL CHEMISTRY=[box]Na_2_(Mg_3_Al_2_)Si_8_O_22_(OH)_2_
##LOCALITY=La Beaume, near Turin, Piedmont, Italy
##OWNER=RRUFF
##SOURCE=James Shigley
##DESCRIPTION=Black, prismatic crystals in a calcite matrix
##STATUS=The identification of this mineral is confirmed by single-crystal X-ray diffraction and chemical analysis.
##URL=rruff.info/R070515
##MEASURED CHEMISTRY=([box]_0.96_Na_0.04_)_Σ=1_(Na_1.93_Ca_0.07_)_Σ=2_((Mg_1.63_Fe^2+^_1.41_)_Σ=3.04_(Al_1.00_Fe^3+^_0.96_)_Σ=1.96_)(Si_7.93_Al_0.07_)_Σ=8_O_22_((OH)_1.90_F_0.10_)_Σ=2_; OH estimated by difference and charge balance
154.1839, 1903.735
154.6660, 1934.180
155.1481, 1955.338
155.6303, 1982.255
156.1124, 2026.202
156.5945, 2076.667
157.0766, 2117.234
157.5587, 2136.096
158.0408, 2136.837
158.5230, 2147.151
159.0051, 2178.109
159.4872, 2207.870
159.9693, 2224.935
160.4514, 2228.766
160.9335, 2236.146
161.4157, 2264.513
161.8978, 2311.038
162.3799, 2341.068
162.8620, 2334.202
163.3441, 2332.075
163.8262, 2344.670
164.3084, 2368.253
164.7905, 2395.700
165.2726, 2422.811
165.7547, 2449.510
166.2368, 2470.127
166.7189, 2469.059
167.2011, 2478.893
167.6832, 2509.472
168.1653, 2557.308
168.6474, 2614.193
169.1295, 2674.495
169.6116, 2738.154
170.0938, 2809.002
170.5759, 2891.151
171.0580, 2975.465
171.5401, 3072.426
172.0222, 3170.287
172.5043, 3245.825
172.9865, 3281.370
173.4686, 3276.944
173.9507, 3263.294
174.4328, 3253.183
174.9149, 3222.993
175.3970, 3163.167
175.8792, 3076.105
176.3613, 2967.553
176.8434, 2838.279
177.3255, 2688.222
177.8076, 2553.506
178.2897, 2439.411
178.7719, 2330.005
179.2540, 2214.215
179.7361, 2096.835
180.2182, 1992.235
180.7003, 1910.849
181.1824, 1852.269
181.6646, 1806.927
182.1467, 1778.492
182.6288, 1755.932
183.1109, 1734.660
183.5930, 1715.570
184.0751, 1702.286
184.5573, 1698.122
185.0394, 1702.869
185.5215, 1706.009
186.0036, 1707.315
186.4857, 1707.720
186.9678, 1705.960
187.4500, 1703.326
187.9321, 1703.402
188.4142, 1709.059
188.8963, 1719.927
189.3784, 1728.114
189.8605, 1731.589
190.3427, 1734.999
190.8248, 1739.303
191.3069, 1744.890
191.7890, 1752.328
192.2711, 1761.760
192.7532, 1773.318
193.2354, 1789.148
193.7175, 1811.479
194.1996, 1834.667
194.6817, 1859.208
195.1638, 1883.194
195.6459, 1900.662
196.1281, 1905.949
196.6102, 1902.173
197.0923, 1914.627
197.5744, 1954.661
198.0565, 1994.808
198.5386, 2027.191
199.0208, 2052.653
199.5029, 2072.391
199.9850, 2085.821
200.4671, 2095.271
200.9492, 2115.754
201.4313, 2154.575
201.9135, 2193.300
202.3956, 2224.815
202.8777, 2252.050
203.3598, 2281.480
203.8419, 2316.193
204.3240, 2355.707
204.8061, 2398.424
205.2883, 2456.011
205.7704, 2503.342
206.2525, 2532.009
206.7346, 2545.955
207.2167, 2552.087
207.6988, 2553.373
208.1810, 2549.507
208.6631, 2538.904
209.1452, 2531.021
209.6273, 2506.187
210.1094, 2449.686
210.5915, 2375.507
211.0737, 2305.765
211.5558, 2250.254
212.0379, 2203.312
212.5200, 2150.795
213.0021, 2086.855
213.4842, 2027.044
213.9664, 1975.092
214.4485, 1928.307
214.9306, 1882.720
215.4127, 1837.065
215.8948, 1792.134
216.3769, 1748.832
216.8591, 1702.710
217.3412, 1666.509
217.8233, 1649.105
218.3054, 1639.363
218.7875, 1625.404
219.2696, 1603.585
219.7518, 1576.033
220.2339, 1545.399
220.7160, 1507.267
221.1981, 1475.723
221.6802, 1452.145
222.1623, 1434.653
222.6445, 1423.624
223.1266, 1418.638
223.6087, 1414.541
224.0908, 1403.845
224.5729, 1380.901
225.0550, 1366.033
225.5372, 1368.326
226.0193, 1372.500
226.5014, 1365.115
226.9835, 1344.777
227.4656, 1321.024
227.9477, 1304.464
228.4298, 1297.211
228.9120, 1289.579
229.3941, 1280.603
229.8762, 1271.989
230.3583, 1264.366
230.8404, 1257.989
231.3225, 1253.318
231.8047, 1250.862
232.2868, 1250.826
232.7689, 1251.763
233.2510, 1257.907
233.7331, 1261.030
234.2152, 1254.275
234.6974, 1240.149
235.1795, 1227.667
235.6616, 1224.251
236.1437, 1230.096
236.6258, 1231.650
237.1079, 1223.820
237.5901, 1217.623
238.0722, 1217.594
238.5543, 1222.071
239.0364, 1227.301
239.5185, 1231.080
240.0006, 1233.385
240.4828, 1233.968
240.9649, 1231.969
241.4470, 1229.238
241.9291, 1224.471
242.4112, 1219.528
242.8933, 1217.848
243.3755, 1221.476
243.8576, 1228.029
244.3397, 1229.093
244.8218, 1220.221
245.3039, 1210.817
245.7860, 1198.450
246.2682, 1187.168
246.7503, 1181.395
247.2324, 1182.804
247.7145, 1189.718
248.1966, 1199.235
248.6787, 1217.594
249.1609, 1227.757
249.6430, 1226.329
250.1251, 1219.123
250.6072, 1208.736
251.0893, 1196.574
251.5714, 1185.735
252.0535, 1182.242
252.5357, 1192.300
253.0178, 1194.056
253.4999, 1178.265
253.9820, 1162.000
254.4641, 1156.715
254.9462, 1162.514
255.4284, 1170.467
255.9105, 1170.999
256.3926, 1162.930
256.8747, 1154.249
257.3568, 1145.578
257.8390, 1135.698
258.3211, 1122.113
258.8032, 1106.435
259.2853, 1093.124
259.7674, 1085.984
260.2495, 1084.791
260.7317, 1084.927
261.2138, 1088.591
261.6959, 1090.902
262.1780, 1090.404
262.6601, 1087.415
263.1422, 1082.274
263.6244, 1074.231
264.1065, 1064.813
264.5886, 1059.046
265.0707, 1057.134
265.5528, 1058.922
266.0349, 1067.084
266.5170, 1077.461
266.9991, 1085.730
267.4813, 1090.829
267.9634, 1091.654
268.4455, 1083.356
268.9276, 1061.848
269.4097, 1047.826
269.8918, 1057.501
270.3740, 1073.437
270.8561, 1081.694
271.3382, 1078.938
271.8203, 1071.273
272.3024, 1062.143
272.7845, 1051.569
273.2667, 1047.448
273.7488, 1056.072
274.2309, 1068.212
274.7130, 1074.340
275.1951, 1074.001
275.6772, 1074.253
276.1594, 1082.798
276.6415, 1096.177
277.1236, 1099.859
277.6057, 1086.390
278.0878, 1072.500
278.5699, 1079.742
279.0521, 1103.891
279.5342, 1117.434
280.0163, 1100.206
280.4984, 1070.076
280.9805, 1055.122
281.4626, 1058.951
281.9448, 1069.069
282.4269, 1078.483
282.9090, 1086.543
283.3911, 1090.552
283.8732, 1085.225
284.3553, 1079.338
284.8375, 1080.127
285.3196, 1087.290
285.8017, 1097.304
286.2838, 1109.557
286.7659, 1122.561
287.2480, 1130.917
287.7302, 1132.544
288.2123, 1132.321
288.6944, 1130.477
289.1765, 1128.245
289.6586, 1129.196
290.1407, 1135.479
290.6229, 1143.737
291.1050, 1145.598
291.5871, 1134.481
292.0692, 1129.341
292.5513, 1137.571
293.0334, 1150.856
293.5156, 1159.100
293.9977, 1159.947
294.4798, 1159.597
294.9619, 1166.938
295.4440, 1186.905
295.9261, 1200.384
296.4083, 1204.178
296.8904, 1204.594
297.3725, 1203.839
297.8546, 1203.034
298.3367, 1204.000
298.8188, 1208.524
299.3010, 1216.846
299.7831, 1224.846
300.2652, 1235.861
300.7473, 1243.084
301.2294, 1241.181
301.7115, 1234.414
302.1937, 1230.231
302.6758, 1233.166
303.1579, 1241.580
303.6400, 1249.415
304.1221, 1258.455
304.6042, 1263.789
305.0864, 1264.646
305.5685, 1261.924
306.0506, 1255.392
306.5327, 1245.083
307.0148, 1234.029
307.4969, 1226.814
307.9791, 1224.140
308.4612, 1222.905
308.9433, 1228.604
309.4254, 1231.236
309.9075, 1222.028
310.3896, 1201.816
310.8718, 1182.229
311.3539, 1174.263
311.8360, 1176.839
312.3181, 1178.248
312.8002, 1177.239
313.2823, 1175.934
313.7644, 1176.214
314.2466, 1177.292
314.7287, 1177.108
315.2108, 1174.866
315.6929, 1170.732
316.1750, 1163.001
316.6571, 1150.081
317.1393, 1142.608
317.6214, 1151.816
318.1035, 1168.809
318.5856, 1177.311
319.0677, 1171.191
319.5498, 1162.506
320.0320, 1161.595
320.5141, 1166.381
320.9962, 1166.392
321.4783, 1155.412
321.9604, 1141.191
322.4425, 1139.248
322.9247, 1152.992
323.4068, 1163.147
323.8889, 1159.721
324.3710, 1151.268
324.8531, 1150.319
325.3352, 1159.436
325.8174, 1170.975
326.2995, 1176.771
326.7816, 1175.442
327.2637, 1174.917
327.7458, 1173.618
328.2279, 1174.429
328.7101, 1180.985
329.1922, 1191.637
329.6743, 1201.108
330.1564, 1205.908
330.6385, 1206.319
331.1206, 1204.514
331.6028, 1196.040
332.0849, 1190.605
332.5670, 1191.595
333.0491, 1195.853
333.5312, 1200.351
334.0133, 1203.803
334.4955, 1205.073
334.9776, 1200.836
335.4597, 1185.305
335.9418, 1177.349
336.4239, 1184.628
336.9060, 1193.493
337.3882, 1195.874
337.8703, 1191.029
338.3524, 1182.717
338.8345, 1173.675
339.3166, 1163.852
339.7987, 1154.489
340.2809, 1142.849
340.7630, 1135.595
341.2451, 1140.659
341.7272, 1151.182
342.2093, 1153.145
342.6914, 1135.445
343.1736, 1110.562
343.6557, 1102.476
344.1378, 1113.919
344.6199, 1125.619
345.1020, 1131.170
345.5841, 1131.912
346.0663, 1128.887
346.5484, 1121.205
347.0305, 1113.411
347.5126, 1109.198
347.9947, 1107.408
348.4768, 1103.900
348.9590, 1096.930
349.4411, 1090.017
349.9232, 1087.061
350.4053, 1087.777
350.8874, 1092.268
351.3695, 1107.711
351.8517, 1122.230
352.3338, 1122.817
352.8159, 1110.033
353.2980, 1095.646
353.7801, 1087.535
354.2622, 1085.391
354.7444, 1086.353
355.2265, 1092.761
355.7086, 1098.911
356.1907, 1102.274
356.6728, 1104.572
357.1549, 1109.459
357.6371, 1118.376
358.1192, 1127.599
358.6013, 1128.686
359.0834, 1109.617
359.5655, 1105.062
360.0476, 1126.036
360.5298, 1150.703
361.0119, 1165.143
361.4940, 1168.885
361.9761, 1169.694
362.4582, 1174.121
362.9403, 1182.040
363.4224, 1190.420
363.9045, 1198.939
364.3867, 1208.428
364.8688, 1223.012
365.3509, 1237.610
365.8330, 1243.140
366.3151, 1232.816
366.7972, 1219.234
367.2794, 1222.481
367.7615, 1243.976
368.2436, 1268.235
368.7257, 1294.774
369.2078, 1319.039
369.6899, 1335.851
370.1721, 1344.498
370.6542, 1352.966
371.1363, 1366.302
371.6184, 1382.266
372.1005, 1396.130
372.5826, 1407.143
373.0648, 1416.706
373.5469, 1424.422
374.0290, 1431.018
374.5111, 1443.640
374.9932, 1471.313
375.4753, 1497.001
375.9575, 1505.316
376.4396, 1503.126
376.9217, 1511.339
377.4038, 1541.128
377.8859, 1583.679
378.3680, 1616.197
378.8502, 1631.901
379.3323, 1645.992
379.8144, 1659.374
380.2965, 1670.704
380.7786, 1678.635
381.2607, 1683.095
381.7429, 1685.168
382.2250, 1686.548
382.7071, 1687.699
383.1892, 1681.785
383.6713, 1662.818
384.1534, 1642.545
384.6356, 1622.871
385.1177, 1604.425
385.5998, 1588.412
386.0819, 1576.057
386.5640, 1564.340
387.0461, 1546.233
387.5283, 1519.676
388.0104, 1497.562
388.4925, 1489.375
388.9746, 1482.310
389.4567, 1463.366
389.9388, 1431.758
390.4210, 1402.993
390.9031, 1390.146
391.3852, 1386.055
391.8673, 1373.109
392.3494, 1348.004
392.8315, 1322.870
393.3137, 1306.543
393.7958, 1298.531
394.2779, 1293.445
394.7600, 1292.547
395.2421, 1293.047
395.7242, 1294.562
396.2064, 1296.301
396.6885, 1296.842
397.1706, 1295.752
397.6527, 1292.337
398.1348, 1284.823
398.6169, 1267.407
399.0991, 1257.314
399.5812, 1262.802
400.0633, 1268.847
400.5454, 1261.408
401.0275, 1243.236
401.5096, 1230.304
401.9918, 1237.927
402.4739, 1262.697
402.9560, 1269.501
403.4381, 1240.529
403.9202, 1218.744
404.4023, 1218.660
404.8845, 1228.246
405.3666, 1235.384
405.8487, 1236.479
406.3308, 1232.311
406.8129, 1221.511
407.2950, 1204.302
407.7772, 1190.855
408.2593, 1183.949
408.7414, 1179.749
409.2235, 1176.942
409.7056, 1174.675
410.1877, 1168.430
410.6699, 1152.794
411.1520, 1134.878
411.6341, 1122.075
412.1162, 1114.364
412.5983, 1110.451
413.0804, 1111.952
413.5625, 1114.852
414.0446, 1105.611
414.5268, 1073.662
415.0089, 1050.492
415.4910, 1048.506
415.9731, 1054.441
416.4552, 1054.044
416.9373, 1045.017
417.4195, 1034.019
417.9016, 1028.073
418.3837, 1027.726
418.8658, 1024.575
419.3479, 1013.585
419.8300, 1005.246
420.3122, 1007.255
420.7943, 1012.012
421.2764, 1007.209
421.7585, 987.1393
422.2406, 961.8387
422.7227, 947.7097
423.2049, 946.1638
423.6870, 946.3163
424.1691, 948.1882
424.6512, 949.5911
425.1333, 948.6742
425.6154, 945.7628
426.0976, 942.9323
426.5797, 940.9878
427.0618, 939.7866
427.5439, 939.0551
428.0260, 938.7801
428.5081, 939.4343
428.9903, 941.9214
429.4724, 945.1151
429.9545, 945.7443
430.4366, 942.7399
430.9187, 939.5175
431.4008, 935.9315
431.8830, 933.0866
432.3651, 933.2518
432.8472, 936.4455
433.3293, 938.9452
433.8114, 936.2789
434.2935, 927.6364
434.7757, 925.4792
435.2578, 938.0016
435.7399, 947.8900
436.2220, 947.9168
436.7041, 943.6627
437.1862, 943.0653
437.6684, 949.3132
438.1505, 959.1824
438.6326, 968.4656
439.1147, 977.3043
439.5968, 984.3575
440.0789, 990.6683
440.5611, 993.4345
441.0432, 989.7966
441.5253, 981.0574
442.0074, 972.3170
442.4895, 964.1810
442.9716, 958.1129
443.4538, 957.1036
443.9359, 960.7364
444.4180, 964.4031
444.9001, 966.9468
445.3822, 967.1790
445.8643, 961.5790
446.3465, 948.0153
446.8286, 935.2608
447.3107, 923.9450
447.7928, 914.6721
448.2749, 908.8740
448.7570, 906.1027
449.2392, 903.8804
449.7213, 900.0682
450.2034, 894.9653
450.6855, 891.6558
451.1676, 893.3285
451.6497, 892.4728
452.1319, 884.4095
452.6140, 875.2903
453.0961, 872.2385
453.5782, 876.6625
454.0603, 882.0675
454.5424, 881.0430
455.0246, 874.3055
455.5067, 869.9014
455.9888, 869.5905
456.4709, 869.1259
456.9530, 863.6547
457.4352, 856.1012
457.9173, 852.8146
458.3994, 858.0140
458.8815, 863.8884
459.3636, 865.3751
459.8457, 863.3503
460.3279, 859.3885
460.8100, 853.7292
461.2921, 848.3025
461.7742, 845.9200
462.2563, 847.6694
462.7384, 847.9890
463.2205, 844.4992
463.7026, 842.0383
464.1848, 843.3157
464.6669, 847.3289
465.1490, 852.8606
465.6311, 859.5513
466.1132, 864.7886
466.5953, 862.0302
467.0775, 848.5887
467.5596, 836.4312
468.0417, 823.7109
468.5238, 815.7704
469.0059, 818.0270
469.4880, 828.5955
469.9702, 839.1319
470.4523, 846.9108
470.9344, 851.3018
471.4165, 849.2804
471.8986, 841.0563
472.3807, 836.0370
472.8629, 839.2166
473.3450, 846.9614
473.8271, 851.5198
474.3092, 851.3224
474.7913, 853.5507
475.2734, 862.7531
475.7556, 872.6287
476.2377, 876.9023
476.7198, 876.0043
477.2019, 874.6172
477.6840, 876.0062
478.1661, 879.7326
478.6483, 883.9416
479.1304, 891.2437
479.6125, 894.5172
480.0946, 886.7741
480.5767, 879.2862
481.0588, 883.3788
481.5410, 899.0403
482.0231, 914.1055
482.5052, 916.1248
482.9873, 909.7537
483.4694, 913.1354
483.9515, 929.7042
484.4337, 940.8227
484.9158, 933.4246
485.3979, 915.3055
485.8800, 903.5325
486.3621, 898.9025
486.8442, 899.0849
487.3264, 907.5713
487.8085, 918.2473
488.2906, 922.8201
488.7727, 920.4280
489.2548, 916.4291
489.7369, 915.6198
490.2191, 917.5920
490.7012, 915.9467
491.1833, 904.6463
491.6654, 897.0415
492.1475, 897.0396
492.6296, 900.2922
493.1118, 903.4789
493.5939, 905.5432
494.0760, 905.4064
494.5581, 900.7188
495.0402, 892.3845
495.5223, 885.4161
496.0045, 878.2648
496.4866, 877.4420
496.9687, 894.5742
497.4508, 918.3376
497.9329, 926.5546
498.4150, 909.5189
498.8972, 893.8294
499.3793, 894.0036
499.8614, 903.1443
500.3435, 911.9479
500.8256, 918.4622
501.3077, 922.6752
501.7899, 924.3480
502.2720, 923.5351
502.7541, 922.7906
503.2362, 917.8744
503.7183, 918.2574
504.2004, 930.2444
504.6826, 945.6808
505.1647, 956.3961
505.6468, 960.5652
506.1289, 961.3613
506.6110, 960.8577
507.0931, 959.3799
507.5753, 959.4384
508.0574, 961.2759
508.5395, 964.0822
509.0216, 966.2521
509.5037, 969.5840
509.9858, 977.7100
510.4680, 993.0436
510.9501, 1008.220
511.4322, 1020.812
511.9143, 1030.823
512.3964, 1037.078
512.8785, 1039.824
513.3607, 1043.050
513.8428, 1050.882
514.3249, 1062.430
514.8070, 1066.602
515.2891, 1051.594
515.7712, 1044.091
516.2534, 1050.689
516.7355, 1063.935
517.2176, 1078.845
517.6997, 1093.653
518.1818, 1106.161
518.6639, 1114.851
519.1461, 1119.629
519.6282, 1119.048
520.1103, 1111.737
520.5924, 1104.948
521.0745, 1101.794
521.5566, 1101.698
522.0388, 1102.556
522.5209, 1103.153
523.0030, 1108.299
523.4851, 1122.748
523.9672, 1140.509
524.4493, 1157.031
524.9315, 1171.055
525.4136, 1180.369
525.8957, 1182.677
526.3778, 1180.294
526.8599, 1183.582
527.3420, 1197.240
527.8242, 1208.393
528.3063, 1215.433
528.7884, 1220.072
529.2705, 1222.374
529.7526, 1223.086
530.2347, 1224.720
530.7169, 1227.956
531.1990, 1233.639
531.6811, 1245.770
532.1632, 1264.234
532.6453, 1276.848
533.1274, 1276.360
533.6096, 1271.192
534.0917, 1275.960
534.5738, 1292.979
535.0559, 1307.420
535.5380, 1317.097
536.0201, 1324.317
536.5022, 1329.058
536.9843, 1332.668
537.4664, 1336.929
537.9485, 1342.606
538.4307, 1351.575
538.9128, 1369.137
539.3949, 1398.636
539.8770, 1422.574
540.3591, 1437.763
540.8412, 1449.206
541.3234, 1458.875
541.8055, 1467.223
542.2876, 1474.940
542.7697, 1480.664
543.2518, 1488.321
543.7339, 1501.892
544.2161, 1520.158
544.6982, 1541.864
545.1803, 1567.255
545.6624, 1587.830
546.1445, 1592.815
546.6266, 1580.831
547.1088, 1576.875
547.5909, 1586.902
548.0730, 1596.939
548.5551, 1602.720
549.0372, 1607.086
549.5193, 1614.625
550.0015, 1625.983
550.4836, 1635.776
550.9657, 1638.606
551.4478, 1635.073
551.9299, 1628.123
552.4120, 1616.557
552.8942, 1606.441
553.3763, 1604.730
553.8584, 1604.289
554.3405, 1590.359
554.8226, 1556.916
555.3047, 1528.803
555.7869, 1518.299
556.2690, 1513.654
556.7511, 1505.417
557.2332, 1492.201
557.7153, 1473.142
558.1974, 1446.696
558.6796, 1417.313
559.1617, 1399.086
559.6438, 1398.237
560.1259, 1393.278
560.6080, 1380.388
561.0901, 1364.102
561.5723, 1343.726
562.0544, 1321.577
562.5365, 1304.074
563.0186, 1296.083
563.5007, 1291.275
563.9828, 1282.417
564.4650, 1270.815
564.9471, 1262.452
565.4292, 1259.645
565.9113, 1255.841
566.3934, 1242.745
566.8755, 1219.022
567.3577, 1200.947
567.8398, 1191.213
568.3219, 1183.089
568.8040, 1173.398
569.2861, 1165.035
569.7682, 1162.886
570.2504, 1167.466
570.7325, 1172.376
571.2146, 1170.473
571.6967, 1163.291
572.1788, 1158.197
572.6609, 1155.272
573.1431, 1154.449
573.6252, 1156.954
574.1073, 1160.765
574.5894, 1162.935
575.0715, 1164.953
575.5536, 1160.418
576.0358, 1141.960
576.5179, 1121.155
577.0000, 1106.303
577.4821, 1097.514
577.9642, 1092.877
578.4464, 1091.570
578.9285, 1092.046
579.4106, 1091.552
579.8927, 1090.438
580.3748, 1086.586
580.8569, 1077.761
581.3391, 1068.723
581.8212, 1062.458
582.3033, 1057.998
582.7854, 1052.869
583.2675, 1044.618
583.7496, 1038.941
584.2318, 1044.209
584.7139, 1053.447
585.1960, 1052.430
585.6781, 1039.278
586.1602, 1023.821
586.6423, 1014.134
587.1245, 1009.776
587.6066, 1007.697
588.0887, 1012.809
588.5708, 1012.295
589.0529, 1000.070
589.5350, 985.7216
590.0172, 976.8583
590.4993, 973.1595
590.9814, 968.7872
591.4635, 957.6163
591.9456, 946.2158
592.4277, 945.7905
592.9099, 954.5921
593.3920, 961.7110
593.8741, 963.9644
594.3562, 962.2947
594.8383, 957.4578
595.3204, 948.9991
595.8026, 940.4672
596.2847, 932.6286
596.7668, 923.7339
597.2489, 907.7574
597.7310, 893.0842
598.2131, 892.5936
598.6953, 907.9061
599.1774, 923.8164
599.6595, 925.9177
600.1416, 917.0437
600.6237, 906.0604
601.1058, 892.3741
601.5880, 882.8965
602.0701, 882.5029
602.5522, 886.2818
603.0343, 885.3382
603.5164, 878.7990
603.9985, 872.0795
604.4807, 864.5249
604.9628, 858.1360
605.4449, 854.0831
605.9270, 852.1118
606.4091, 852.8378
606.8912, 856.4547
607.3734, 858.3151
607.8555, 849.3873
608.3376, 830.1611
608.8197, 819.3196
609.3018, 820.8617
609.7839, 822.6200
610.2661, 817.2272
610.7482, 807.8467
611.2303, 801.4228
611.7124, 799.8201
612.1945, 796.3938
612.6766, 786.7938
613.1588, 776.3594
613.6409, 768.9214
614.1230, 764.9935
614.6051, 765.0056
615.0872, 769.4200
615.5693, 775.9698
616.0515, 780.3770
616.5336, 782.4958
617.0157, 783.2176
617.4978, 782.0093
617.9799, 780.2429
618.4620, 778.3791
618.9442, 776.6198
619.4263, 775.6751
619.9084, 776.9865
620.3905, 776.3275
620.8726, 769.1357
621.3547, 760.3587
621.8369, 756.9619
622.3190, 758.6750
622.8011, 759.5004
623.2832, 755.1125
623.7653, 748.3013
624.2474, 747.2682
624.7296, 753.6616
625.2117, 760.3248
625.6938, 767.5069
626.1759, 773.5601
626.6580, 779.3820
627.1401, 783.3959
627.6223, 780.8014
628.1044, 765.3593
628.5865, 751.8528
629.0686, 749.4821
629.5507, 754.3458
630.0328, 763.1631
630.5150, 774.0660
630.9971, 779.8508
631.4792, 773.9458
631.9613, 760.8962
632.4434, 759.6873
632.9255, 777.1428
633.4077, 788.5712
633.8898, 786.2018
634.3719, 781.0575
634.8539, 779.0259
635.3361, 779.7293
635.8182, 781.1859
636.3003, 781.4804
636.7824, 784.3308
637.2645, 797.0259
637.7466, 812.3212
638.2288, 816.2025
638.7109, 807.3446
639.1930, 796.3705
639.6751, 791.1684
640.1572, 791.4417
640.6393, 796.2644
641.1215, 808.3194
641.6036, 818.4506
642.0857, 824.6498
642.5678, 829.1254
643.0499, 832.0320
643.5320, 834.1990
644.0142, 838.3666
644.4963, 847.7949
644.9784, 856.0662
645.4605, 857.8123
