##NAMES=Gmelinite-Ca
##RRUFFID=R061130
##IDEAL CHEMISTRY=Ca_2_(Si_8_Al_4_)O_24_&#183;11H_2_O
##LOCALITY=Fara Vicentino, Vicenza, Veneto, Italy
##OWNER=RRUFF
##SOURCE=Michael Scott
##DESCRIPTION=Pale orange tabular crystals lining vesicles in basalt
##STATUS=The identification of this mineral is confirmed by single-crystal X-ray diffraction and chemical analysis.
##URL=rruff.info/R061130
##MEASURED CHEMISTRY=(Ca_1.70_Na_0.21_K_0.09_)(Si_8.30_Al_3.70_)O_24_Â·11H_2_O; H_2_O estimated by difference
149.7549, 2124.262
150.2370, 2118.190
150.7191, 2118.456
151.2012, 2132.301
151.6833, 2139.174
152.1654, 2135.599
152.6476, 2127.078
153.1297, 2118.486
153.6118, 2111.290
154.0939, 2102.978
154.5760, 2088.086
155.0581, 2059.129
155.5403, 2034.693
156.0224, 2013.161
156.5045, 1996.923
156.9866, 1988.708
157.4687, 1989.334
157.9508, 1996.650
158.4330, 2006.356
158.9151, 2025.882
159.3972, 2037.877
159.8793, 2035.810
160.3614, 2029.304
160.8435, 2028.268
161.3257, 2036.320
161.8078, 2049.517
162.2899, 2059.638
162.7720, 2060.569
163.2541, 2066.597
163.7362, 2081.656
164.2184, 2100.679
164.7005, 2118.760
165.1826, 2134.250
165.6647, 2146.877
166.1468, 2155.866
166.6289, 2158.044
167.1111, 2161.773
167.5932, 2172.350
168.0753, 2183.375
168.5574, 2185.298
169.0395, 2174.312
169.5216, 2157.555
170.0038, 2149.687
170.4859, 2155.279
170.9680, 2159.533
171.4501, 2160.067
171.9322, 2158.140
172.4143, 2155.470
172.8965, 2152.629
173.3786, 2149.126
173.8607, 2143.667
174.3428, 2135.357
174.8249, 2127.795
175.3070, 2123.637
175.7892, 2120.152
176.2713, 2111.776
176.7534, 2095.904
177.2355, 2078.795
177.7176, 2073.538
178.1997, 2083.181
178.6819, 2088.154
179.1640, 2078.692
179.6461, 2062.708
180.1282, 2052.821
180.6103, 2052.817
181.0924, 2058.607
181.5745, 2066.010
182.0567, 2075.661
182.5388, 2082.101
183.0209, 2083.870
183.5030, 2081.411
183.9851, 2074.175
184.4672, 2060.860
184.9494, 2046.607
185.4315, 2038.555
185.9136, 2036.196
186.3957, 2035.530
186.8778, 2037.143
187.3599, 2039.286
187.8421, 2037.881
188.3242, 2030.870
188.8063, 2024.234
189.2884, 2027.960
189.7705, 2040.592
190.2526, 2048.344
190.7348, 2041.433
191.2169, 2028.180
191.6990, 2023.975
192.1811, 2032.776
192.6632, 2045.075
193.1453, 2051.219
193.6275, 2052.568
194.1096, 2054.276
194.5917, 2059.388
195.0738, 2065.466
195.5559, 2068.539
196.0380, 2068.040
196.5202, 2065.160
197.0023, 2058.887
197.4844, 2050.551
197.9665, 2044.617
198.4486, 2045.178
198.9307, 2048.009
199.4129, 2046.190
199.8950, 2038.665
200.3771, 2029.181
200.8592, 2018.316
201.3413, 2007.414
201.8234, 2000.127
202.3056, 1999.828
202.7877, 2002.811
203.2698, 2005.046
203.7519, 2007.106
204.2340, 2005.271
204.7161, 1991.635
205.1983, 1972.736
205.6804, 1960.763
206.1625, 1964.790
206.6446, 1973.015
207.1267, 1969.439
207.6088, 1952.504
208.0910, 1934.516
208.5731, 1920.003
209.0552, 1909.601
209.5373, 1905.374
210.0194, 1912.261
210.5015, 1920.443
210.9837, 1918.550
211.4658, 1906.010
211.9479, 1891.085
212.4300, 1873.558
212.9121, 1857.753
213.3942, 1850.500
213.8764, 1855.870
214.3585, 1863.957
214.8406, 1865.782
215.3227, 1861.340
215.8048, 1854.863
216.2869, 1846.777
216.7691, 1838.125
217.2512, 1830.752
217.7333, 1825.483
218.2154, 1818.885
218.6975, 1805.782
219.1796, 1786.976
219.6618, 1773.294
220.1439, 1769.706
220.6260, 1771.427
221.1081, 1773.776
221.5902, 1777.173
222.0723, 1777.096
222.5545, 1767.771
223.0366, 1751.239
223.5187, 1738.124
224.0008, 1730.713
224.4829, 1728.237
224.9650, 1731.084
225.4472, 1739.118
225.9293, 1744.997
226.4114, 1744.740
226.8935, 1739.148
227.3756, 1729.946
227.8577, 1715.362
228.3399, 1700.981
228.8220, 1692.040
229.3041, 1687.745
229.7862, 1684.197
230.2683, 1678.015
230.7504, 1671.673
231.2325, 1671.659
231.7147, 1680.760
232.1968, 1690.033
232.6789, 1690.923
233.1610, 1686.038
233.6431, 1681.873
234.1252, 1681.594
234.6074, 1682.746
235.0895, 1681.224
235.5716, 1676.384
236.0537, 1671.860
236.5358, 1671.407
237.0179, 1672.951
237.5001, 1671.953
237.9822, 1664.793
238.4643, 1656.785
238.9464, 1653.740
239.4285, 1655.730
239.9106, 1659.090
240.3928, 1662.798
240.8749, 1666.237
241.3570, 1668.320
241.8391, 1668.954
242.3212, 1668.250
242.8033, 1667.062
243.2855, 1665.052
243.7676, 1658.833
244.2497, 1643.668
244.7318, 1626.434
245.2139, 1619.958
245.6960, 1627.692
246.1782, 1636.359
246.6603, 1639.074
247.1424, 1637.165
247.6245, 1634.033
248.1066, 1629.556
248.5887, 1626.274
249.0709, 1628.941
249.5530, 1638.165
250.0351, 1646.422
250.5172, 1650.933
250.9993, 1652.755
251.4814, 1654.036
251.9636, 1655.519
252.4457, 1655.120
252.9278, 1647.875
253.4099, 1633.748
253.8920, 1625.743
254.3741, 1632.090
254.8563, 1642.711
255.3384, 1646.372
255.8205, 1641.738
256.3026, 1634.080
256.7847, 1626.679
257.2668, 1619.874
257.7490, 1617.047
258.2311, 1620.213
258.7132, 1625.879
259.1953, 1634.088
259.6774, 1643.697
260.1595, 1648.245
260.6417, 1641.988
261.1238, 1627.211
261.6059, 1619.024
262.0880, 1620.997
262.5701, 1625.008
263.0522, 1630.156
263.5344, 1634.884
264.0165, 1635.217
264.4986, 1628.641
264.9807, 1617.583
265.4628, 1609.014
265.9449, 1600.522
266.4271, 1597.534
266.9092, 1605.576
267.3913, 1618.282
267.8734, 1627.395
268.3555, 1630.220
268.8376, 1629.018
269.3198, 1627.431
269.8019, 1626.252
270.2840, 1622.709
270.7661, 1610.484
271.2482, 1599.842
271.7303, 1602.110
272.2125, 1617.685
272.6946, 1635.134
273.1767, 1642.119
273.6588, 1636.498
274.1409, 1629.870
274.6230, 1618.257
275.1052, 1609.392
275.5873, 1610.016
276.0694, 1617.443
276.5515, 1622.381
277.0336, 1616.988
277.5157, 1602.108
277.9979, 1596.173
278.4800, 1607.547
278.9621, 1618.503
279.4442, 1626.506
279.9263, 1631.346
280.4084, 1632.949
280.8906, 1631.191
281.3727, 1626.857
281.8548, 1622.089
282.3369, 1613.832
282.8190, 1609.995
283.3011, 1613.087
283.7833, 1619.471
284.2654, 1626.709
284.7475, 1633.802
285.2296, 1640.034
285.7117, 1644.489
286.1938, 1647.825
286.6760, 1647.379
287.1581, 1637.671
287.6402, 1628.772
288.1223, 1627.445
288.6044, 1633.052
289.0865, 1639.480
289.5687, 1641.569
290.0508, 1639.291
290.5329, 1633.906
291.0150, 1619.158
291.4971, 1608.433
291.9792, 1607.856
292.4614, 1614.738
292.9435, 1624.144
293.4256, 1634.735
293.9077, 1644.753
294.3898, 1647.680
294.8719, 1639.565
295.3541, 1633.247
295.8362, 1635.031
296.3183, 1640.253
296.8004, 1643.538
297.2825, 1642.639
297.7646, 1641.841
298.2468, 1648.680
298.7289, 1664.255
299.2110, 1673.963
299.6931, 1670.447
300.1752, 1661.846
300.6573, 1654.787
301.1395, 1649.652
301.6216, 1646.179
302.1037, 1642.456
302.5858, 1639.907
303.0679, 1645.692
303.5500, 1665.033
304.0321, 1684.369
304.5143, 1690.126
304.9964, 1685.060
305.4785, 1679.116
305.9606, 1673.805
306.4427, 1670.134
306.9248, 1667.974
307.4070, 1667.122
307.8891, 1673.878
308.3712, 1699.077
308.8533, 1734.733
309.3354, 1751.656
309.8175, 1734.666
310.2997, 1713.801
310.7818, 1707.162
311.2639, 1710.862
311.7460, 1711.617
312.2281, 1702.396
312.7102, 1689.840
313.1924, 1690.920
313.6745, 1712.393
314.1566, 1728.976
314.6387, 1732.459
315.1208, 1729.776
315.6029, 1728.687
316.0851, 1730.997
316.5672, 1734.952
317.0493, 1739.197
317.5314, 1744.885
318.0135, 1744.524
318.4956, 1727.536
318.9778, 1714.251
319.4599, 1721.344
319.9420, 1743.586
320.4241, 1761.851
320.9062, 1761.826
321.3883, 1745.549
321.8705, 1733.238
322.3526, 1727.286
322.8347, 1722.676
323.3168, 1716.589
323.7989, 1712.192
324.2810, 1715.801
324.7632, 1729.771
325.2453, 1746.194
325.7274, 1748.035
326.2095, 1725.467
326.6916, 1709.983
327.1737, 1708.776
327.6559, 1710.139
328.1380, 1706.462
328.6201, 1697.423
329.1022, 1687.973
329.5843, 1683.398
330.0664, 1683.752
330.5486, 1681.514
331.0307, 1673.767
331.5128, 1667.043
331.9949, 1664.355
332.4770, 1664.497
332.9591, 1665.239
333.4413, 1665.599
333.9234, 1665.838
334.4055, 1667.788
334.8876, 1673.042
335.3697, 1672.776
335.8518, 1655.071
336.3340, 1634.613
336.8161, 1628.973
337.2982, 1643.531
337.7803, 1656.412
338.2624, 1646.671
338.7445, 1619.968
339.2267, 1602.410
339.7088, 1602.679
340.1909, 1607.191
340.6730, 1597.987
341.1551, 1577.047
341.6372, 1564.209
342.1194, 1570.472
342.6015, 1584.159
343.0836, 1593.270
343.5657, 1597.060
344.0478, 1598.052
344.5299, 1597.452
345.0121, 1595.419
345.4942, 1593.232
345.9763, 1589.614
346.4584, 1587.258
346.9405, 1590.338
347.4226, 1594.849
347.9048, 1591.535
348.3869, 1576.400
348.8690, 1558.138
349.3511, 1552.847
349.8332, 1572.036
350.3153, 1582.802
350.7975, 1577.744
351.2796, 1570.148
351.7617, 1570.838
352.2438, 1579.366
352.7259, 1587.167
353.2080, 1586.316
353.6902, 1576.800
354.1723, 1568.122
354.6544, 1559.167
355.1365, 1552.454
355.6186, 1547.710
356.1007, 1545.781
356.5829, 1548.451
357.0650, 1556.791
357.5471, 1567.867
358.0292, 1576.975
358.5113, 1585.345
358.9934, 1587.621
359.4756, 1574.969
359.9577, 1561.568
360.4398, 1557.297
360.9219, 1562.248
361.4040, 1567.889
361.8861, 1566.369
362.3683, 1559.529
362.8504, 1556.883
363.3325, 1560.259
363.8146, 1564.847
364.2967, 1567.974
364.7788, 1570.054
365.2610, 1571.487
365.7431, 1570.571
366.2252, 1571.025
366.7073, 1579.916
367.1894, 1595.393
367.6715, 1603.096
368.1537, 1595.245
368.6358, 1579.069
369.1179, 1567.354
369.6000, 1560.026
370.0821, 1555.824
370.5642, 1555.637
371.0464, 1557.886
371.5285, 1561.255
372.0106, 1565.393
372.4927, 1569.333
372.9748, 1572.148
373.4569, 1573.763
373.9391, 1575.379
374.4212, 1575.399
374.9033, 1577.094
375.3854, 1582.421
375.8675, 1590.147
376.3496, 1599.292
376.8318, 1609.562
377.3139, 1618.090
377.7960, 1617.979
378.2781, 1604.041
378.7602, 1590.620
379.2423, 1573.596
379.7245, 1560.697
380.2066, 1558.170
380.6887, 1565.489
381.1708, 1576.890
381.6529, 1589.263
382.1350, 1602.017
382.6172, 1607.881
383.0993, 1604.347
383.5814, 1597.637
384.0635, 1583.501
384.5456, 1570.161
385.0277, 1570.974
385.5099, 1593.775
385.9920, 1621.799
386.4741, 1635.275
386.9562, 1634.840
387.4383, 1631.424
387.9204, 1624.370
388.4026, 1619.862
388.8847, 1628.069
389.3668, 1648.540
389.8489, 1662.563
390.3310, 1657.192
390.8131, 1645.526
391.2953, 1644.133
391.7774, 1653.800
392.2595, 1664.723
392.7416, 1669.876
393.2237, 1670.843
393.7058, 1677.147
394.1880, 1695.045
394.6701, 1709.898
395.1522, 1715.064
395.6343, 1716.015
396.1164, 1721.184
396.5985, 1732.858
397.0807, 1745.083
397.5628, 1748.598
398.0449, 1738.417
398.5270, 1737.326
399.0091, 1750.485
399.4912, 1766.510
399.9734, 1783.654
400.4555, 1799.590
400.9376, 1810.025
401.4197, 1811.247
401.9018, 1807.938
402.3839, 1813.413
402.8660, 1829.288
403.3481, 1849.847
403.8303, 1885.495
404.3124, 1917.571
404.7945, 1927.175
405.2766, 1912.909
405.7587, 1898.216
406.2408, 1901.723
406.7230, 1919.044
407.2051, 1935.715
407.6872, 1951.013
408.1693, 1964.114
408.6514, 1973.296
409.1335, 1979.762
409.6157, 1986.673
410.0978, 1991.417
410.5799, 2000.013
411.0620, 2019.744
411.5441, 2046.383
412.0262, 2069.547
412.5084, 2085.868
412.9905, 2095.970
413.4726, 2100.215
413.9547, 2095.745
414.4368, 2092.683
414.9189, 2090.937
415.4011, 2090.662
415.8832, 2093.029
416.3653, 2097.095
416.8474, 2100.701
417.3295, 2102.723
417.8116, 2102.582
418.2938, 2097.035
418.7759, 2078.726
419.2580, 2067.209
419.7401, 2071.375
420.2222, 2078.356
420.7043, 2076.826
421.1865, 2065.354
421.6686, 2051.769
422.1507, 2044.510
422.6328, 2042.622
423.1149, 2035.653
423.5970, 2020.263
424.0792, 2005.730
424.5613, 1996.142
425.0434, 1991.152
425.5255, 1991.479
426.0076, 2000.237
426.4897, 2009.394
426.9719, 2012.361
427.4540, 2010.162
427.9361, 2006.152
428.4182, 2000.804
428.9003, 1995.443
429.3824, 1991.805
429.8646, 1990.091
430.3467, 1988.942
430.8288, 1983.350
431.3109, 1982.550
431.7930, 1997.150
432.2751, 2022.231
432.7573, 2042.968
433.2394, 2050.722
433.7215, 2049.783
434.2036, 2053.595
434.6857, 2066.635
435.1678, 2077.217
435.6500, 2079.593
436.1321, 2083.540
436.6142, 2099.562
437.0963, 2125.776
437.5784, 2148.801
438.0605, 2156.669
438.5427, 2151.935
439.0248, 2146.797
439.5069, 2135.815
439.9890, 2137.048
440.4711, 2170.648
440.9532, 2215.339
441.4354, 2247.602
441.9175, 2261.969
442.3996, 2271.341
442.8817, 2283.179
443.3638, 2297.082
443.8459, 2311.575
444.3281, 2325.938
444.8102, 2343.644
445.2923, 2370.542
445.7744, 2405.931
446.2565, 2429.837
446.7386, 2430.286
447.2208, 2431.789
447.7029, 2444.544
448.1850, 2465.816
448.6671, 2492.180
449.1492, 2522.211
449.6313, 2551.948
450.1135, 2573.939
450.5956, 2583.293
451.0777, 2600.123
451.5598, 2629.584
452.0419, 2661.114
452.5240, 2693.573
453.0062, 2724.366
453.4883, 2748.658
453.9704, 2762.503
454.4525, 2771.913
454.9346, 2790.143
455.4167, 2819.120
455.8989, 2842.268
456.3810, 2847.751
456.8631, 2853.776
457.3452, 2880.934
457.8273, 2927.897
458.3094, 2968.658
458.7916, 2987.179
459.2737, 2997.786
459.7558, 3018.668
460.2379, 3049.363
460.7200, 3077.317
461.2021, 3094.882
461.6843, 3106.378
462.1664, 3124.311
462.6485, 3155.718
463.1306, 3181.301
463.6127, 3198.688
464.0948, 3210.075
464.5770, 3212.673
465.0591, 3209.532
465.5412, 3212.421
466.0233, 3232.972
466.5054, 3266.791
466.9875, 3283.219
467.4697, 3267.812
467.9518, 3260.076
468.4339, 3275.933
468.9160, 3298.224
469.3981, 3310.450
469.8802, 3310.135
470.3624, 3310.394
470.8445, 3325.996
471.3266, 3350.490
471.8087, 3363.009
472.2908, 3361.169
472.7729, 3352.555
473.2551, 3338.203
473.7372, 3321.234
474.2193, 3311.193
474.7014, 3308.507
475.1835, 3312.023
475.6656, 3325.520
476.1478, 3343.252
476.6299, 3359.452
477.1120, 3372.226
477.5941, 3377.481
478.0762, 3369.117
478.5583, 3346.471
479.0405, 3335.733
479.5226, 3344.635
480.0047, 3357.299
480.4868, 3376.593
480.9689, 3395.493
481.4510, 3405.113
481.9332, 3403.298
482.4153, 3397.546
482.8974, 3397.070
483.3795, 3401.249
483.8616, 3398.764
484.3438, 3384.045
484.8259, 3372.559
485.3080, 3380.555
485.7901, 3397.765
486.2722, 3404.869
486.7543, 3392.768
487.2365, 3380.066
487.7186, 3383.441
488.2007, 3393.658
488.6828, 3388.844
489.1649, 3363.635
489.6470, 3335.730
490.1292, 3325.124
490.6113, 3334.116
491.0934, 3329.617
491.5755, 3303.511
492.0576, 3275.303
492.5397, 3248.104
493.0219, 3223.024
493.5040, 3202.535
493.9861, 3187.057
494.4682, 3170.960
494.9503, 3145.648
495.4324, 3110.526
495.9146, 3080.997
496.3967, 3064.703
496.8788, 3042.594
497.3609, 2998.338
497.8430, 2943.546
498.3251, 2896.604
498.8073, 2861.462
499.2894, 2836.099
499.7715, 2827.998
500.2536, 2828.032
500.7357, 2812.911
501.2178, 2777.298
501.6999, 2731.409
502.1820, 2682.842
502.6642, 2631.498
503.1463, 2588.772
503.6284, 2558.503
504.1105, 2531.489
504.5926, 2509.091
505.0747, 2486.787
505.5569, 2457.534
506.0390, 2420.205
506.5211, 2381.380
507.0032, 2349.892
507.4853, 2326.001
507.9674, 2298.097
508.4496, 2262.719
508.9317, 2228.959
509.4138, 2202.324
509.8959, 2178.988
510.3780, 2153.868
510.8601, 2125.221
511.3423, 2096.996
511.8244, 2071.282
512.3065, 2048.073
512.7886, 2028.564
513.2708, 2013.125
513.7529, 1996.402
514.2350, 1973.423
514.7171, 1945.042
515.1992, 1921.259
515.6813, 1907.596
516.1635, 1890.768
516.6456, 1865.186
517.1277, 1837.297
517.6098, 1812.318
518.0919, 1791.780
518.5740, 1777.116
519.0562, 1772.655
519.5383, 1775.641
520.0204, 1761.899
520.5025, 1719.754
520.9846, 1688.668
521.4667, 1696.747
521.9489, 1716.107
522.4310, 1718.982
522.9131, 1701.484
523.3952, 1681.772
523.8773, 1666.544
524.3594, 1655.660
524.8416, 1651.372
525.3237, 1652.788
525.8058, 1650.878
526.2879, 1639.555
526.7700, 1622.274
527.2521, 1610.130
527.7343, 1606.626
528.2164, 1603.524
528.6985, 1601.551
529.1806, 1599.366
529.6627, 1596.607
530.1448, 1592.851
530.6270, 1586.890
531.1091, 1577.152
531.5912, 1566.228
532.0733, 1561.015
532.5554, 1562.673
533.0375, 1561.684
533.5197, 1554.621
534.0018, 1545.343
534.4839, 1537.792
534.9660, 1531.703
535.4481, 1524.409
535.9302, 1508.687
536.4124, 1497.248
536.8945, 1506.948
537.3766, 1528.742
537.8587, 1536.978
538.3408, 1521.739
538.8229, 1498.212
539.3051, 1489.647
539.7872, 1501.412
540.2693, 1505.348
540.7514, 1498.134
541.2335, 1486.647
541.7156, 1463.927
542.1978, 1441.257
542.6799, 1437.995
543.1620, 1461.862
543.6441, 1488.452
544.1262, 1489.575
544.6083, 1470.334
545.0905, 1455.821
545.5726, 1448.823
546.0547, 1446.504
546.5368, 1448.437
547.0189, 1453.526
547.5010, 1456.922
547.9832, 1459.044
548.4653, 1458.941
548.9474, 1453.449
549.4295, 1447.343
549.9116, 1446.986
550.3937, 1452.006
550.8758, 1456.283
551.3579, 1454.924
551.8400, 1448.867
552.3221, 1441.990
552.8043, 1433.725
553.2864, 1426.088
553.7685, 1418.496
554.2506, 1412.476
554.7327, 1409.588
555.2148, 1409.615
555.6970, 1410.297
556.1791, 1409.117
556.6612, 1409.099
557.1433, 1416.962
557.6254, 1430.051
558.1075, 1435.039
558.5897, 1426.007
559.0718, 1411.405
559.5539, 1403.415
560.0360, 1403.374
560.5181, 1404.722
561.0002, 1408.031
561.4824, 1411.901
561.9645, 1416.826
562.4466, 1421.620
562.9287, 1426.214
563.4108, 1430.466
563.8929, 1428.992
564.3751, 1408.856
564.8572, 1374.766
565.3393, 1360.638
565.8214, 1373.387
566.3035, 1389.995
566.7856, 1399.037
567.2678, 1401.563
567.7499, 1401.530
568.2320, 1399.543
568.7141, 1393.707
569.1962, 1377.844
569.6783, 1361.784
570.1605, 1357.010
570.6426, 1361.866
571.1247, 1364.461
571.6068, 1356.308
572.0889, 1343.430
572.5710, 1345.481
573.0532, 1371.191
573.5353, 1384.214
574.0174, 1365.849
574.4995, 1347.173
574.9816, 1350.189
575.4637, 1368.595
575.9459, 1380.503
576.4280, 1374.191
576.9101, 1364.362
577.3922, 1363.068
577.8743, 1367.967
578.3564, 1374.978
578.8386, 1383.143
579.3207, 1386.589
579.8028, 1378.024
580.2849, 1357.736
580.7670, 1345.195
581.2491, 1347.732
581.7313, 1349.317
582.2134, 1346.861
582.6955, 1343.210
583.1776, 1340.303
583.6597, 1338.755
584.1418, 1339.308
584.6240, 1343.640
585.1061, 1349.933
585.5882, 1355.418
586.0703, 1360.044
586.5524, 1359.994
587.0345, 1352.728
587.5167, 1342.248
587.9988, 1333.662
588.4809, 1326.947
588.9630, 1322.759
589.4451, 1321.703
589.9272, 1322.557
590.4094, 1325.385
590.8915, 1329.541
591.3736, 1335.805
591.8557, 1343.909
592.3378, 1348.492
592.8199, 1337.962
593.3021, 1314.474
593.7842, 1312.543
594.2663, 1342.796
594.7484, 1362.882
595.2305, 1344.185
595.7126, 1308.392
596.1948, 1292.642
596.6769, 1301.990
597.1590, 1310.516
597.6411, 1308.999
598.1232, 1305.138
598.6053, 1304.091
599.0875, 1306.507
599.5696, 1313.139
600.0517, 1324.437
600.5338, 1337.556
601.0159, 1347.537
601.4980, 1354.035
601.9802, 1359.161
602.4623, 1365.765
602.9444, 1366.872
603.4265, 1356.172
603.9086, 1339.173
604.3907, 1323.878
604.8729, 1310.803
605.3550, 1302.765
605.8371, 1304.538
606.3192, 1310.705
606.8013, 1313.096
607.2834, 1311.651
607.7656, 1312.099
608.2477, 1318.316
608.7298, 1327.472
609.2119, 1331.768
609.6940, 1329.484
610.1761, 1326.244
610.6583, 1321.164
611.1404, 1316.206
611.6225, 1311.589
612.1046, 1307.871
612.5867, 1306.690
613.0688, 1309.938
613.5510, 1311.773
614.0331, 1304.525
614.5152, 1292.669
614.9973, 1287.151
615.4794, 1289.294
615.9615, 1292.216
616.4437, 1290.834
616.9258, 1286.509
617.4079, 1285.037
617.8900, 1291.563
618.3721, 1292.447
618.8542, 1279.942
619.3364, 1268.732
619.8185, 1269.513
620.3006, 1278.838
620.7827, 1286.868
621.2648, 1289.212
621.7469, 1288.505
622.2291, 1285.678
622.7112, 1282.120
623.1933, 1284.339
623.6754, 1294.000
624.1575, 1301.854
624.6396, 1299.275
625.1218, 1289.139
625.6039, 1287.852
626.0860, 1311.037
626.5681, 1321.701
627.0502, 1305.897
627.5323, 1287.364
628.0145, 1283.682
628.4966, 1292.136
628.9787, 1300.110
629.4608, 1300.951
629.9429, 1298.898
630.4250, 1300.312
630.9072, 1304.201
631.3893, 1305.146
631.8714, 1302.088
632.3535, 1296.372
632.8356, 1288.187
633.3177, 1278.232
633.7999, 1271.148
634.2820, 1268.951
634.7641, 1266.702
635.2462, 1262.337
635.7283, 1259.099
636.2104, 1259.348
636.6926, 1262.918
637.1747, 1269.197
637.6568, 1279.229
638.1389, 1288.034
638.6210, 1285.444
639.1031, 1273.685
639.5853, 1269.514
640.0674, 1277.152
640.5495, 1285.360
641.0316, 1285.208
641.5137, 1278.203
641.9958, 1273.234
642.4780, 1269.362
642.9601, 1268.672
643.4422, 1274.566
643.9243, 1281.031
