##NAMES=Gmelinite-Ca
##RRUFFID=R070283
##IDEAL CHEMISTRY=Ca_2_(Si_8_Al_4_)O_24_&#183;11H_2_O
##LOCALITY=Montecchio Maggiore, Vicenza Province, Veneto, Italy
##OWNER=RRUFF
##SOURCE=Michael Scott
##DESCRIPTION=Pale orange tabular hexagonal plates with low pyramidal terminations
##STATUS=The identification of this mineral has been confirmed only by single crystal X-ray diffraction.
##URL=rruff.info/R070283
174.2498, 9588.186
174.7319, 9588.228
175.2140, 9601.660
175.6961, 9620.187
176.1783, 9630.021
176.6604, 9625.579
177.1425, 9617.105
177.6246, 9617.169
178.1067, 9624.805
178.5888, 9633.779
179.0710, 9638.793
179.5531, 9641.731
180.0352, 9646.827
180.5173, 9655.662
180.9994, 9666.483
181.4815, 9677.326
181.9637, 9688.210
182.4458, 9696.861
182.9279, 9697.419
183.4100, 9693.098
183.8921, 9696.247
184.3742, 9712.678
184.8564, 9737.846
185.3385, 9763.280
185.8206, 9789.640
186.3027, 9810.930
186.7848, 9814.760
187.2669, 9804.357
187.7491, 9804.608
188.2312, 9830.091
188.7133, 9873.101
189.1954, 9906.923
189.6775, 9931.194
190.1596, 9946.779
190.6418, 9950.557
191.1239, 9942.884
191.6060, 9938.909
192.0881, 9945.101
192.5702, 9960.708
193.0524, 9980.043
193.5345, 9984.496
194.0166, 10026.32
194.4987, 10056.08
194.9808, 10074.43
195.4629, 10047.19
195.9451, 10078.82
196.4272, 10086.86
196.9093, 10093.92
197.3914, 10133.84
197.8735, 10113.23
198.3556, 10152.63
198.8378, 10168.07
199.3199, 10194.48
199.8020, 10197.14
200.2841, 10207.14
200.7662, 10240.89
201.2483, 10261.48
201.7305, 10272.33
202.2126, 10287.53
202.6947, 10270.55
203.1768, 10254.79
203.6589, 10267.11
204.1410, 10314.50
204.6232, 10337.70
205.1053, 10324.75
205.5874, 10287.20
206.0695, 10264.15
206.5516, 10259.67
207.0337, 10259.02
207.5159, 10251.76
207.9980, 10236.33
208.4801, 10221.90
208.9622, 10207.70
209.4443, 10195.41
209.9264, 10198.26
210.4086, 10227.99
210.8907, 10249.25
211.3728, 10227.67
211.8549, 10145.20
212.3370, 10081.38
212.8191, 10050.64
213.3013, 10049.58
213.7834, 10048.39
214.2655, 10047.82
214.7476, 10045.91
215.2297, 10039.97
215.7118, 10027.15
216.1940, 10018.59
216.6761, 10019.15
217.1582, 10028.00
217.6403, 10024.46
218.1224, 10001.97
218.6045, 9975.964
219.0867, 9962.522
219.5688, 9968.590
220.0509, 9970.522
220.5330, 9959.649
221.0151, 9935.203
221.4972, 9929.692
221.9794, 9953.815
222.4615, 9984.864
222.9436, 9998.155
223.4257, 9986.194
223.9078, 9971.621
224.3899, 9959.147
224.8721, 9948.721
225.3542, 9939.580
225.8363, 9934.999
226.3184, 9928.546
226.8005, 9910.035
227.2827, 9867.949
227.7648, 9836.504
228.2469, 9828.741
228.7290, 9849.727
229.2111, 9853.698
229.6932, 9829.671
230.1754, 9797.492
230.6575, 9784.706
231.1396, 9805.259
231.6217, 9820.564
232.1038, 9817.955
232.5859, 9792.683
233.0681, 9774.900
233.5502, 9765.604
234.0323, 9763.080
234.5144, 9765.465
234.9965, 9775.379
235.4786, 9785.885
235.9608, 9796.261
236.4429, 9808.129
236.9250, 9811.073
237.4071, 9799.248
237.8892, 9782.103
238.3713, 9774.180
238.8535, 9776.331
239.3356, 9786.498
239.8177, 9806.757
240.2998, 9842.653
240.7819, 9867.892
241.2640, 9884.050
241.7462, 9889.054
242.2283, 9876.633
242.7104, 9831.527
243.1925, 9794.157
243.6746, 9779.333
244.1567, 9794.049
244.6389, 9807.883
245.1210, 9821.120
245.6031, 9833.285
246.0852, 9843.798
246.5673, 9854.213
247.0494, 9860.237
247.5316, 9858.727
248.0137, 9845.271
248.4958, 9839.660
248.9779, 9845.293
249.4600, 9856.910
249.9421, 9864.853
250.4243, 9868.518
250.9064, 9869.710
251.3885, 9868.933
251.8706, 9865.936
252.3527, 9860.918
252.8348, 9850.176
253.3170, 9839.688
253.7991, 9842.409
254.2812, 9865.203
254.7633, 9888.021
255.2454, 9904.076
255.7275, 9912.994
256.2097, 9915.881
256.6918, 9912.115
257.1739, 9902.734
257.6560, 9886.515
258.1381, 9854.202
258.6202, 9834.331
259.1024, 9842.467
259.5845, 9889.427
260.0666, 9918.261
260.5487, 9923.088
261.0308, 9914.165
261.5129, 9910.566
261.9951, 9914.883
262.4772, 9918.405
262.9593, 9917.492
263.4414, 9911.185
263.9235, 9903.321
264.4056, 9888.743
264.8878, 9877.400
265.3699, 9892.232
265.8520, 9946.755
266.3341, 9989.010
266.8162, 9991.118
267.2983, 9942.267
267.7805, 9925.811
268.2626, 9953.472
268.7447, 10000.75
269.2268, 10025.47
269.7089, 10023.29
270.1910, 10013.94
270.6732, 9998.878
271.1553, 9975.161
271.6374, 9980.327
272.1195, 10023.87
272.6016, 10082.43
273.0837, 10117.67
273.5659, 10127.36
274.0480, 10126.13
274.5301, 10112.50
275.0122, 10085.38
275.4943, 10085.48
275.9764, 10121.64
276.4586, 10168.42
276.9407, 10186.01
277.4228, 10171.33
277.9049, 10152.97
278.3870, 10139.57
278.8691, 10131.23
279.3513, 10129.70
279.8334, 10134.52
280.3155, 10147.32
280.7976, 10177.29
281.2798, 10225.45
281.7619, 10260.91
282.2440, 10265.95
282.7261, 10245.44
283.2082, 10235.06
283.6903, 10234.78
284.1725, 10244.77
284.6546, 10263.95
285.1367, 10292.36
285.6188, 10335.91
286.1009, 10406.38
286.5830, 10494.61
287.0652, 10565.96
287.5473, 10621.26
288.0294, 10651.03
288.5115, 10624.17
288.9936, 10549.50
289.4757, 10500.96
289.9579, 10511.31
290.4400, 10563.20
290.9221, 10617.83
291.4042, 10676.65
291.8863, 10720.19
292.3684, 10718.36
292.8506, 10680.75
293.3327, 10648.70
293.8148, 10633.05
294.2969, 10631.96
294.7790, 10645.96
295.2611, 10675.17
295.7433, 10705.81
296.2254, 10726.42
296.7075, 10739.38
297.1896, 10750.31
297.6717, 10758.49
298.1538, 10767.85
298.6360, 10788.28
299.1181, 10818.66
299.6002, 10843.68
300.0823, 10838.24
300.5644, 10820.78
301.0465, 10828.31
301.5287, 10882.41
302.0108, 10950.35
302.4929, 10996.54
302.9750, 11023.58
303.4571, 11043.88
303.9392, 11068.55
304.4214, 11090.97
304.9035, 11100.70
305.3856, 11086.98
305.8677, 11072.89
306.3498, 11080.57
306.8319, 11105.50
307.3141, 11132.03
307.7962, 11146.83
308.2783, 11160.36
308.7604, 11185.72
309.2425, 11232.43
309.7246, 11274.88
310.2068, 11291.66
310.6889, 11290.81
311.1710, 11293.45
311.6531, 11309.15
312.1352, 11332.60
312.6173, 11363.24
313.0995, 11406.71
313.5816, 11439.40
314.0637, 11438.48
314.5458, 11419.88
315.0279, 11413.63
315.5100, 11441.99
315.9922, 11477.60
316.4743, 11508.79
316.9564, 11536.27
317.4385, 11550.67
317.9206, 11538.57
318.4027, 11513.87
318.8849, 11496.05
319.3670, 11491.37
319.8491, 11493.52
320.3312, 11501.96
320.8133, 11517.91
321.2954, 11532.40
321.7776, 11551.53
322.2597, 11565.50
322.7418, 11563.85
323.2239, 11517.94
323.7060, 11483.35
324.1881, 11481.37
324.6703, 11516.55
325.1524, 11532.51
325.6345, 11507.26
326.1166, 11470.75
326.5987, 11446.86
327.0808, 11445.42
327.5630, 11445.25
328.0451, 11444.93
328.5272, 11444.38
329.0093, 11441.98
329.4914, 11439.36
329.9735, 11433.50
330.4557, 11422.30
330.9378, 11403.71
331.4199, 11382.96
331.9020, 11358.16
332.3841, 11331.05
332.8662, 11310.96
333.3484, 11303.13
333.8305, 11294.66
334.3126, 11277.53
334.7947, 11248.37
335.2768, 11220.07
335.7589, 11188.16
336.2411, 11160.35
336.7232, 11160.79
337.2053, 11200.76
337.6874, 11236.08
338.1695, 11243.40
338.6516, 11219.05
339.1338, 11196.90
339.6159, 11176.01
340.0980, 11160.13
340.5801, 11159.62
341.0622, 11176.54
341.5443, 11189.75
342.0265, 11188.79
342.5086, 11175.36
342.9907, 11165.48
343.4728, 11159.92
343.9549, 11155.21
344.4370, 11144.31
344.9192, 11128.50
345.4013, 11120.21
345.8834, 11128.28
346.3655, 11145.88
346.8476, 11156.61
347.3297, 11160.53
347.8119, 11156.25
348.2940, 11134.15
348.7761, 11101.59
349.2582, 11082.05
349.7403, 11088.87
350.2225, 11104.38
350.7046, 11101.58
351.1867, 11082.56
351.6688, 11063.79
352.1509, 11057.26
352.6331, 11058.50
353.1152, 11060.69
353.5973, 11061.62
354.0794, 11064.51
354.5615, 11077.88
355.0436, 11096.79
355.5258, 11106.27
356.0079, 11081.07
356.4900, 11052.25
356.9721, 11051.00
357.4542, 11090.68
357.9363, 11128.82
358.4185, 11135.71
358.9006, 11125.57
359.3827, 11123.00
359.8648, 11147.75
360.3469, 11174.49
360.8290, 11190.24
361.3112, 11193.03
361.7933, 11191.13
362.2754, 11176.97
362.7575, 11163.30
363.2396, 11163.97
363.7217, 11201.17
364.2039, 11233.94
364.6860, 11247.14
365.1681, 11240.33
365.6502, 11242.90
366.1323, 11268.11
366.6144, 11297.73
367.0966, 11319.37
367.5787, 11338.32
368.0608, 11341.61
368.5429, 11316.00
369.0250, 11270.03
369.5071, 11248.74
369.9893, 11266.22
370.4714, 11291.88
370.9535, 11311.67
371.4356, 11323.91
371.9177, 11333.34
372.3998, 11338.15
372.8820, 11341.19
373.3641, 11348.85
373.8462, 11362.33
374.3283, 11377.29
374.8104, 11391.17
375.2925, 11403.57
375.7747, 11423.05
376.2568, 11453.58
376.7389, 11483.65
377.2210, 11494.80
377.7031, 11485.64
378.1852, 11477.26
378.6674, 11473.48
379.1495, 11475.72
379.6316, 11494.17
380.1137, 11530.39
380.5958, 11567.31
381.0779, 11583.59
381.5601, 11584.71
382.0422, 11598.06
382.5243, 11635.86
383.0064, 11681.35
383.4885, 11703.11
383.9706, 11704.43
384.4528, 11708.09
384.9349, 11734.18
385.4170, 11771.67
385.8991, 11802.87
386.3812, 11824.69
386.8633, 11842.35
387.3455, 11859.76
387.8276, 11876.69
388.3097, 11892.94
388.7918, 11907.13
389.2739, 11921.23
389.7560, 11936.73
390.2382, 11953.75
390.7203, 11972.00
391.2024, 11993.21
391.6845, 12014.85
392.1666, 12034.29
392.6487, 12035.07
393.1309, 12047.99
393.6130, 12095.19
394.0951, 12172.93
394.5772, 12235.73
395.0593, 12257.06
395.5414, 12269.37
396.0236, 12292.76
396.5057, 12357.20
396.9878, 12400.64
397.4699, 12396.40
397.9520, 12364.04
398.4341, 12365.17
398.9163, 12426.14
399.3984, 12493.20
399.8805, 12543.25
400.3626, 12558.90
400.8447, 12612.97
401.3268, 12733.80
401.8090, 12872.06
402.2911, 12954.33
402.7732, 12954.73
403.2553, 12965.13
403.7374, 13013.58
404.2195, 13097.50
404.7017, 13168.03
405.1838, 13221.29
405.6659, 13272.31
406.1480, 13335.20
406.6301, 13410.37
407.1122, 13486.75
407.5944, 13562.65
408.0765, 13638.68
408.5586, 13715.12
409.0407, 13792.28
409.5228, 13869.42
410.0049, 13955.82
410.4871, 14041.33
410.9692, 14090.55
411.4513, 14091.99
411.9334, 14089.49
412.4155, 14135.40
412.8976, 14219.21
413.3798, 14308.03
413.8619, 14406.57
414.3440, 14492.66
414.8261, 14542.14
415.3082, 14554.65
415.7903, 14548.36
416.2725, 14518.82
416.7546, 14483.40
417.2367, 14461.01
417.7188, 14458.28
418.2009, 14469.72
418.6830, 14512.50
419.1652, 14572.99
419.6473, 14599.48
420.1294, 14546.20
420.6115, 14475.76
421.0937, 14419.54
421.5758, 14382.39
422.0579, 14360.51
422.5400, 14376.52
423.0221, 14402.72
423.5042, 14393.50
423.9864, 14314.98
424.4685, 14237.51
424.9506, 14173.22
425.4327, 14122.98
425.9148, 14087.30
426.3969, 14074.49
426.8791, 14066.77
427.3612, 14045.32
427.8433, 13998.82
428.3254, 13976.65
428.8075, 13995.92
429.2896, 14040.35
429.7718, 14051.79
430.2539, 14025.53
430.7360, 13992.09
431.2181, 13958.02
431.7002, 13925.87
432.1823, 13943.77
432.6645, 14026.14
433.1466, 14118.65
433.6287, 14137.76
434.1108, 14096.54
434.5929, 14059.42
435.0750, 14053.72
435.5572, 14068.54
436.0393, 14084.90
436.5214, 14103.09
437.0035, 14129.73
437.4856, 14179.01
437.9677, 14237.04
438.4499, 14283.27
438.9320, 14306.96
439.4141, 14327.12
439.8962, 14358.13
440.3783, 14396.09
440.8604, 14431.88
441.3426, 14453.41
441.8247, 14477.21
442.3068, 14513.27
442.7889, 14564.47
443.2710, 14619.29
443.7531, 14673.86
444.2353, 14730.68
444.7174, 14793.43
445.1995, 14863.64
445.6816, 14937.89
446.1637, 15022.28
446.6458, 15113.84
447.1280, 15187.16
447.6101, 15226.30
448.0922, 15264.97
448.5743, 15322.18
449.0564, 15407.24
449.5385, 15487.13
450.0207, 15557.81
450.5028, 15625.55
450.9849, 15707.28
451.4670, 15808.54
451.9491, 15891.02
452.4312, 15926.46
452.9134, 15924.96
453.3955, 15973.19
453.8776, 16076.02
454.3597, 16191.79
454.8418, 16275.28
455.3239, 16335.40
455.8061, 16407.83
456.2882, 16509.29
456.7703, 16614.63
457.2524, 16684.97
457.7345, 16726.61
458.2166, 16766.79
458.6988, 16818.43
459.1809, 16878.29
459.6630, 16948.46
460.1451, 17033.36
460.6272, 17101.82
461.1093, 17111.28
461.5915, 17099.60
462.0736, 17113.74
462.5557, 17182.26
463.0378, 17266.39
463.5199, 17368.22
464.0020, 17480.86
464.4842, 17559.94
464.9663, 17564.60
465.4484, 17555.73
465.9305, 17565.70
466.4126, 17609.29
466.8947, 17648.27
467.3769, 17681.77
467.8590, 17710.93
468.3411, 17735.29
468.8232, 17742.77
469.3053, 17771.24
469.7874, 17842.67
470.2696, 17952.66
470.7517, 18015.73
471.2338, 18022.63
471.7159, 18010.92
472.1980, 18003.09
472.6801, 17999.73
473.1623, 18028.96
473.6444, 18105.86
474.1265, 18195.38
474.6086, 18229.08
475.0907, 18215.39
475.5728, 18208.81
476.0550, 18250.82
476.5371, 18314.06
477.0192, 18350.38
477.5013, 18358.04
477.9834, 18365.11
478.4655, 18386.27
478.9477, 18422.16
479.4298, 18474.73
479.9119, 18565.26
480.3940, 18647.22
480.8761, 18691.88
481.3582, 18707.95
481.8404, 18719.63
482.3225, 18735.59
482.8046, 18748.27
483.2867, 18753.22
483.7688, 18747.29
484.2509, 18743.35
484.7331, 18743.76
485.2152, 18746.00
485.6973, 18747.30
486.1794, 18743.36
486.6615, 18746.97
487.1436, 18767.27
487.6258, 18796.89
488.1079, 18800.56
488.5900, 18774.97
489.0721, 18732.13
489.5542, 18673.17
490.0363, 18597.66
490.5185, 18533.32
491.0006, 18484.77
491.4827, 18436.11
491.9648, 18363.38
492.4470, 18270.92
492.9291, 18183.73
493.4112, 18115.26
493.8933, 18054.31
494.3754, 17990.91
494.8575, 17923.13
495.3397, 17842.88
495.8218, 17731.63
496.3039, 17609.98
496.7860, 17500.71
497.2681, 17405.76
497.7502, 17322.04
498.2324, 17265.22
498.7145, 17213.20
499.1966, 17134.80
499.6787, 16993.70
500.1608, 16852.90
500.6429, 16735.28
501.1251, 16639.28
501.6072, 16533.49
502.0893, 16392.13
502.5714, 16260.01
503.0535, 16161.57
503.5356, 16122.59
504.0178, 16053.59
504.4999, 15938.33
504.9820, 15808.40
505.4641, 15718.17
505.9462, 15680.54
506.4283, 15615.32
506.9105, 15488.97
507.3926, 15320.40
507.8747, 15181.56
508.3568, 15072.39
508.8389, 14986.84
509.3210, 14932.77
509.8032, 14897.27
510.2853, 14840.80
510.7674, 14754.33
511.2495, 14664.30
511.7316, 14601.19
512.2137, 14554.12
512.6959, 14502.03
513.1780, 14422.80
513.6601, 14346.03
514.1422, 14296.97
514.6243, 14271.23
515.1064, 14237.74
515.5886, 14176.68
516.0707, 14109.27
516.5528, 14049.18
517.0349, 14001.46
517.5170, 13952.95
517.9991, 13890.17
518.4813, 13831.05
518.9634, 13800.86
519.4455, 13820.04
519.9276, 13833.64
520.4097, 13833.61
520.8918, 13819.57
521.3740, 13783.34
521.8561, 13717.41
522.3382, 13654.26
522.8203, 13621.36
523.3024, 13616.36
523.7845, 13588.96
524.2667, 13531.17
524.7488, 13470.28
525.2309, 13435.28
525.7130, 13423.47
526.1951, 13427.01
526.6772, 13454.43
527.1594, 13485.00
527.6415, 13498.00
528.1236, 13493.84
528.6057, 13474.11
529.0878, 13418.69
529.5699, 13361.93
530.0521, 13332.95
530.5342, 13340.92
531.0163, 13350.37
531.4984, 13353.82
531.9805, 13351.40
532.4626, 13343.35
532.9448, 13322.52
533.4269, 13304.67
533.9090, 13293.96
534.3911, 13287.78
534.8732, 13273.68
535.3553, 13239.04
535.8375, 13220.37
536.3196, 13242.77
536.8017, 13310.01
537.2838, 13341.47
537.7659, 13332.06
538.2480, 13304.46
538.7302, 13281.60
539.2123, 13262.04
539.6944, 13233.05
540.1765, 13180.98
540.6586, 13138.21
541.1407, 13165.61
541.6229, 13244.98
542.1050, 13311.14
542.5871, 13320.02
543.0692, 13306.08
543.5513, 13298.97
544.0334, 13300.31
544.5156, 13297.45
544.9977, 13273.80
545.4798, 13249.65
545.9619, 13242.21
546.4440, 13273.47
546.9261, 13293.59
547.4083, 13287.68
547.8904, 13267.93
548.3725, 13255.63
548.8546, 13248.65
549.3367, 13253.29
549.8188, 13277.57
550.3010, 13318.23
550.7831, 13335.23
551.2652, 13324.21
551.7473, 13304.01
552.2294, 13284.72
552.7115, 13266.80
553.1937, 13256.78
553.6758, 13256.21
554.1579, 13259.30
554.6400, 13261.62
555.1221, 13262.05
555.6042, 13256.73
556.0864, 13233.52
556.5685, 13214.75
557.0506, 13231.41
557.5327, 13273.51
558.0148, 13303.71
558.4969, 13292.77
558.9791, 13272.64
559.4612, 13262.14
559.9433, 13264.48
560.4254, 13270.06
560.9075, 13283.11
561.3896, 13295.22
561.8718, 13298.56
562.3539, 13281.75
562.8360, 13276.32
563.3181, 13290.22
563.8002, 13314.21
564.2823, 13323.87
564.7645, 13314.73
565.2466, 13311.66
565.7287, 13331.52
566.2108, 13366.05
566.6929, 13366.75
567.1750, 13332.06
567.6572, 13299.27
568.1393, 13307.57
568.6214, 13339.26
569.1035, 13359.64
569.5856, 13363.23
570.0677, 13356.20
570.5499, 13339.53
571.0320, 13316.49
571.5141, 13292.17
571.9962, 13243.78
572.4783, 13218.94
572.9604, 13255.66
573.4426, 13339.68
573.9247, 13398.21
574.4068, 13402.21
574.8889, 13393.51
575.3710, 13386.47
575.8531, 13381.61
576.3353, 13375.69
576.8174, 13366.62
577.2995, 13359.68
577.7816, 13358.59
578.2637, 13363.00
578.7458, 13380.24
579.2280, 13416.63
579.7101, 13456.66
580.1922, 13470.72
580.6743, 13462.25
581.1564, 13450.84
581.6385, 13447.28
582.1207, 13444.96
582.6028, 13425.43
583.0849, 13393.38
583.5670, 13383.88
584.0491, 13451.94
584.5313, 13528.96
585.0134, 13554.24
585.4955, 13496.82
585.9776, 13459.38
586.4597, 13495.28
586.9418, 13553.10
587.4240, 13572.49
587.9061, 13506.69
588.3882, 13474.67
588.8703, 13506.59
589.3524, 13575.67
589.8345, 13598.59
590.3167, 13563.20
590.7988, 13528.31
591.2809, 13522.14
591.7630, 13538.17
592.2451, 13540.31
592.7272, 13527.77
593.2094, 13520.31
593.6915, 13545.45
594.1736, 13585.09
594.6557, 13601.04
595.1378, 13581.44
595.6199, 13561.20
596.1021, 13568.84
596.5842, 13591.66
597.0663, 13611.61
597.5485, 13622.21
598.0306, 13629.16
598.5127, 13627.27
598.9948, 13621.29
599.4769, 13632.12
599.9590, 13681.88
600.4412, 13723.40
600.9233, 13740.50
601.4054, 13732.07
601.8875, 13715.35
602.3696, 13684.70
602.8517, 13659.97
603.3339, 13662.48
603.8160, 13689.97
604.2981, 13717.08
604.7802, 13744.31
605.2623, 13758.07
605.7444, 13720.07
606.2266, 13652.68
606.7087, 13618.36
607.1908, 13664.80
607.6729, 13726.39
608.1550, 13749.71
608.6371, 13744.75
609.1193, 13744.83
609.6014, 13771.80
610.0835, 13799.53
610.5656, 13814.16
611.0477, 13812.84
611.5298, 13814.34
612.0120, 13824.93
612.4941, 13832.93
612.9762, 13828.77
613.4583, 13806.78
613.9404, 13794.04
614.4225, 13794.21
614.9047, 13799.46
615.3868, 13794.07
615.8689, 13779.79
616.3510, 13781.74
616.8331, 13813.68
617.3152, 13857.05
617.7974, 13890.28
618.2795, 13911.83
618.7616, 13917.85
619.2437, 13894.73
619.7258, 13863.77
620.2079, 13836.44
620.6901, 13813.83
621.1722, 13804.16
621.6543, 13816.28
622.1364, 13838.11
622.6185, 13863.67
623.1006, 13902.11
623.5828, 13922.30
624.0649, 13915.28
624.5470, 13898.24
625.0291, 13890.04
625.5112, 13890.49
625.9933, 13902.92
626.4755, 13933.07
626.9576, 13968.37
627.4397, 13980.62
627.9218, 13972.17
628.4039, 13960.97
628.8860, 13950.72
629.3682, 13945.49
629.8503, 13955.22
630.3324, 13977.70
630.8145, 13996.20
631.2966, 13998.73
631.7787, 13995.18
632.2609, 13992.37
632.7430, 13991.79
633.2251, 13989.59
633.7072, 13972.12
634.1893, 13960.93
634.6714, 13975.54
635.1536, 14031.80
635.6357, 14081.03
636.1178, 14124.98
636.5999, 14154.39
637.0820, 14139.77
637.5641, 14078.59
638.0463, 14038.64
638.5284, 14048.47
639.0105, 14086.89
639.4926, 14117.10
639.9747, 14139.33
640.4568, 14154.41
640.9390, 14158.08
641.4211, 14158.20
641.9032, 14159.48
642.3853, 14162.28
642.8674, 14174.04
643.3495, 14210.73
643.8317, 14248.70
644.3138, 14271.56
644.7959, 14269.35
645.2780, 14266.75
645.7601, 14263.12
646.2422, 14259.65
646.7244, 14256.32
647.2065, 14251.54
647.6886, 14256.16
648.1707, 14274.61
648.6528, 14299.76
649.1349, 14321.16
649.6171, 14337.92
650.0992, 14344.86
650.5813, 14330.45
651.0634, 14310.54
651.5455, 14305.35
652.0276, 14312.75
652.5098, 14321.55
652.9919, 14334.20
653.4740, 14339.90
653.9561, 14325.39
654.4382, 14282.58
654.9203, 14262.40
655.4025, 14290.55
655.8846, 14327.27
656.3667, 14346.56
656.8488, 14344.21
657.3309, 14335.60
657.8130, 14318.35
658.2952, 14300.19
658.7773, 14288.44
659.2594, 14283.72
659.7415, 14298.03
660.2236, 14345.17
660.7057, 14395.02
661.1879, 14396.35
661.6700, 14363.90
662.1521, 14338.68
662.6342, 14352.00
663.1163, 14369.00
663.5984, 14367.21
664.0806, 14348.23
664.5627, 14329.85
665.0448, 14320.40
665.5269, 14308.74
666.0090, 14284.61
666.4911, 14242.36
666.9733, 14235.58
667.4554, 14279.44
667.9375, 14328.74
668.4196, 14341.35
668.9017, 14318.88
669.3839, 14313.69
669.8660, 14333.59
670.3481, 14356.35
670.8302, 14353.63
