##NAMES=Gmelinite-Na
##RRUFFID=R050371
##IDEAL CHEMISTRY=Na_4_(Si_8_Al_4_)O_24_&#183;11H_2_O
##LOCALITY=Cairns Bay, Flinders Range, Australia
##OWNER=RRUFF
##SOURCE=Eugene Schlepp
##DESCRIPTION=Colorless to pink crystals lining a basalt vug
##STATUS=The identification of this mineral has been confirmed by X-ray diffraction and chemical analysis
##URL=rruff.info/R050371
##MEASURED CHEMISTRY=Na_3.81_(Si_8.13_Al_3.88_)O_24_Â·4.27H_2_O
92.35352, 35.14867
92.83563, 33.96679
93.31775, 33.46418
93.79987, 33.52040
94.28198, 34.24065
94.76410, 36.00665
95.24622, 39.04853
95.72833, 43.00386
96.21045, 47.05105
96.69257, 51.19393
97.17468, 55.65627
97.65680, 60.58899
98.13892, 66.00817
98.62103, 71.74353
99.10315, 77.30560
99.58527, 82.98823
100.0674, 90.79539
100.5495, 101.0504
101.0316, 112.5759
101.5137, 123.4881
101.9958, 133.2643
102.4780, 144.5235
102.9601, 158.1240
103.4422, 174.2811
103.9243, 191.4451
104.4064, 210.3979
104.8885, 229.9545
105.3707, 248.3566
105.8528, 264.7164
106.3349, 280.9433
106.8170, 297.6709
107.2991, 315.5216
107.7813, 332.7076
108.2634, 349.2950
108.7455, 365.3080
109.2276, 380.2340
109.7097, 393.2286
110.1918, 405.8809
110.6740, 418.8686
111.1561, 430.8082
111.6382, 444.6567
112.1203, 460.8968
112.6024, 479.4599
113.0845, 499.0363
113.5667, 518.2343
114.0488, 538.9426
114.5309, 562.6758
115.0130, 592.4413
115.4951, 622.5270
115.9772, 651.2003
116.4594, 678.7204
116.9415, 706.6541
117.4236, 736.8369
117.9057, 767.3665
118.3878, 796.0842
118.8699, 821.3840
119.3521, 845.5937
119.8342, 870.7473
120.3163, 897.1602
120.7984, 922.3054
121.2805, 943.7302
121.7626, 962.9011
122.2448, 982.3260
122.7269, 1005.612
123.2090, 1028.545
123.6911, 1046.562
124.1732, 1058.576
124.6553, 1068.210
125.1375, 1077.721
125.6196, 1087.333
126.1017, 1097.748
126.5838, 1109.453
127.0659, 1122.245
127.5480, 1135.926
128.0302, 1150.750
128.5123, 1166.043
128.9944, 1180.681
129.4765, 1194.769
129.9586, 1209.293
130.4407, 1224.833
130.9229, 1241.366
131.4050, 1259.023
131.8871, 1277.710
132.3692, 1297.176
132.8513, 1317.168
133.3334, 1335.759
133.8156, 1346.870
134.2977, 1349.584
134.7798, 1348.768
135.2619, 1347.914
135.7440, 1347.745
136.2261, 1348.191
136.7083, 1349.210
137.1904, 1351.243
137.6725, 1352.675
138.1546, 1351.882
138.6367, 1348.756
139.1188, 1344.349
139.6010, 1338.903
140.0831, 1332.462
140.5652, 1324.545
141.0473, 1314.435
141.5294, 1303.711
142.0115, 1294.747
142.4937, 1288.321
142.9758, 1281.492
143.4579, 1273.007
143.9400, 1262.256
144.4221, 1252.826
144.9042, 1244.983
145.3864, 1238.178
145.8685, 1231.701
146.3506, 1225.500
146.8327, 1219.553
147.3148, 1213.828
147.7969, 1208.564
148.2791, 1203.065
148.7612, 1197.464
149.2433, 1191.663
149.7254, 1185.288
150.2075, 1177.390
150.6896, 1169.819
151.1718, 1163.353
151.6539, 1159.040
152.1360, 1154.305
152.6181, 1148.988
153.1002, 1143.207
153.5823, 1137.332
154.0645, 1132.041
154.5466, 1126.121
155.0287, 1119.023
155.5108, 1110.123
155.9929, 1100.566
156.4750, 1089.932
156.9572, 1078.575
157.4393, 1068.231
157.9214, 1060.294
158.4035, 1052.734
158.8856, 1044.269
159.3677, 1033.979
159.8499, 1023.363
160.3320, 1012.351
160.8141, 1001.176
161.2962, 991.2065
161.7783, 984.4352
162.2604, 978.4720
162.7426, 971.3453
163.2247, 962.2593
163.7068, 952.0914
164.1889, 940.4327
164.6710, 927.5479
165.1531, 915.6242
165.6353, 906.0936
166.1174, 897.9667
166.5995, 890.1785
167.0816, 882.6787
167.5637, 875.1321
168.0458, 867.1915
168.5280, 858.9171
169.0101, 850.6868
169.4922, 842.4468
169.9743, 834.5295
170.4564, 827.4583
170.9385, 822.3941
171.4207, 817.6994
171.9028, 811.8652
172.3849, 804.8327
172.8670, 797.4199
173.3491, 789.8087
173.8312, 782.2302
174.3134, 775.0967
174.7955, 768.8080
175.2776, 763.0418
175.7597, 757.4899
176.2418, 752.0997
176.7239, 746.9399
177.2061, 741.9489
177.6882, 737.1066
178.1703, 732.4523
178.6524, 727.9261
179.1345, 723.5568
179.6166, 719.6089
180.0988, 716.1579
180.5809, 712.5917
181.0630, 707.8089
181.5451, 702.1234
182.0272, 697.0040
182.5093, 693.4987
182.9915, 691.0441
183.4736, 688.2791
183.9557, 684.9888
184.4378, 681.7166
184.9199, 679.4404
185.4020, 678.0162
185.8842, 676.1317
186.3663, 672.6706
186.8484, 668.0882
187.3305, 664.2631
187.8126, 661.4505
188.2947, 659.0219
188.7769, 655.7663
189.2590, 651.7401
189.7411, 648.0956
190.2232, 645.4990
190.7053, 643.8676
191.1874, 642.6715
191.6696, 641.9824
192.1517, 641.4760
192.6338, 640.5932
193.1159, 639.3329
193.5980, 637.7804
194.0801, 635.7761
194.5623, 633.3825
195.0444, 631.4799
195.5265, 630.3200
196.0086, 629.4528
196.4907, 627.7175
196.9728, 624.9714
197.4550, 622.5158
197.9371, 621.3411
198.4192, 621.4699
198.9013, 621.3987
199.3834, 621.1465
199.8655, 620.4765
200.3477, 618.4644
200.8298, 614.7821
201.3119, 611.2636
201.7940, 609.3304
202.2761, 609.2105
202.7582, 608.0274
203.2404, 605.1980
203.7225, 601.4084
204.2046, 598.7483
204.6867, 597.6022
205.1688, 596.2736
205.6509, 593.4620
206.1331, 588.8165
206.6152, 584.9808
207.0973, 582.3912
207.5794, 580.6433
208.0615, 578.4175
208.5436, 575.4843
209.0258, 572.6659
209.5079, 570.6127
209.9900, 569.5652
210.4721, 568.1674
210.9542, 566.2520
211.4363, 563.9277
211.9185, 561.5403
212.4006, 559.0529
212.8827, 556.5479
213.3648, 554.1310
213.8469, 551.7919
214.3290, 549.4208
214.8112, 546.8199
215.2933, 544.2238
215.7754, 542.5491
216.2575, 542.3083
216.7396, 542.0076
217.2217, 540.6900
217.7038, 537.9928
218.1860, 535.3665
218.6681, 532.7889
219.1502, 530.3824
219.6323, 528.8022
220.1144, 528.6841
220.5965, 528.3369
221.0787, 526.6452
221.5608, 522.9076
222.0429, 519.8456
222.5250, 518.0768
223.0071, 517.0626
223.4892, 514.8858
223.9714, 511.2861
224.4535, 506.9276
224.9356, 502.0328
225.4177, 496.3966
225.8998, 490.7499
226.3819, 484.9340
226.8641, 479.1299
227.3462, 474.1580
227.8283, 470.1288
228.3104, 466.7559
228.7925, 463.9995
229.2746, 462.0732
229.7568, 460.1999
230.2389, 458.3619
230.7210, 456.5348
231.2031, 454.7752
231.6852, 453.4298
232.1673, 451.6401
232.6495, 448.7651
233.1316, 443.5823
233.6137, 440.1224
234.0958, 439.1175
234.5779, 439.7964
235.0600, 440.0374
235.5422, 439.6651
236.0243, 439.1159
236.5064, 438.5934
236.9885, 438.2126
237.4706, 437.6146
237.9527, 436.8390
238.4349, 435.8427
238.9170, 434.3988
239.3991, 431.8307
239.8812, 429.8279
240.3633, 429.3463
240.8454, 431.6133
241.3276, 432.2306
241.8097, 430.1660
242.2918, 426.8275
242.7739, 425.5119
243.2560, 427.8005
243.7381, 429.6649
244.2203, 429.3778
244.7024, 425.8371
245.1845, 423.2873
245.6666, 422.1134
246.1487, 421.7519
246.6308, 421.0529
247.1130, 419.6143
247.5951, 418.5010
248.0772, 418.2531
248.5593, 419.3149
249.0414, 419.5677
249.5235, 418.6588
250.0057, 417.1589
250.4878, 416.0015
250.9699, 415.3834
251.4520, 414.7509
251.9341, 413.9570
252.4162, 412.9998
252.8984, 411.7979
253.3805, 409.9872
253.8626, 408.2037
254.3447, 407.5730
254.8268, 408.8563
255.3089, 409.7118
255.7911, 409.3430
256.2732, 407.5724
256.7553, 406.1045
257.2374, 405.0707
257.7195, 404.2070
258.2017, 403.1234
258.6838, 401.5437
259.1659, 400.3647
259.6480, 399.8908
260.1301, 400.1567
260.6122, 400.3685
261.0944, 400.7120
261.5765, 400.7704
262.0586, 399.8580
262.5407, 397.2970
263.0228, 395.7218
263.5049, 396.1590
263.9871, 398.4837
264.4692, 399.2200
264.9513, 397.7650
265.4334, 395.7049
265.9155, 394.4515
266.3976, 394.1963
266.8798, 394.2029
267.3619, 394.4834
267.8440, 394.9616
268.3261, 394.9875
268.8082, 394.4799
269.2903, 393.6918
269.7725, 392.6048
270.2546, 390.9666
270.7367, 390.3219
271.2188, 391.2607
271.7009, 393.2905
272.1830, 394.2410
272.6652, 393.7838
273.1473, 393.1211
273.6294, 393.1489
274.1115, 394.0271
274.5936, 394.5556
275.0757, 394.4502
275.5579, 394.0353
276.0400, 394.3723
276.5221, 395.6555
277.0042, 396.8907
277.4863, 397.2608
277.9684, 396.6461
278.4506, 396.9022
278.9327, 398.4059
279.4148, 400.5244
279.8969, 401.8222
280.3790, 402.1743
280.8611, 402.6045
281.3433, 403.6034
281.8254, 405.1782
282.3075, 407.3539
282.7896, 410.5098
283.2717, 413.4679
283.7538, 413.5317
284.2360, 410.5414
284.7181, 408.8384
285.2002, 411.3008
285.6823, 417.3124
286.1644, 420.9567
286.6465, 421.7613
287.1287, 421.7876
287.6108, 423.8722
288.0929, 427.8905
288.5750, 431.6045
289.0571, 434.0270
289.5392, 435.4849
290.0214, 437.1426
290.5035, 438.9838
290.9856, 441.0811
291.4677, 443.5074
291.9498, 446.2670
292.4319, 449.3197
292.9141, 452.8574
293.3962, 456.5997
293.8783, 459.8157
294.3604, 462.4868
294.8425, 465.1187
295.3246, 468.2070
295.8068, 471.6579
296.2889, 475.1111
296.7710, 478.6089
297.2531, 481.9814
297.7352, 484.7049
298.2173, 486.8524
298.6995, 489.1677
299.1816, 491.9445
299.6637, 495.2816
300.1458, 499.3259
300.6279, 504.1552
301.1100, 509.6483
301.5922, 516.1007
302.0743, 523.2122
302.5564, 529.7619
303.0385, 534.4455
303.5206, 538.3317
304.0027, 543.0684
304.4849, 548.8843
304.9670, 555.2604
305.4491, 561.7846
305.9312, 568.4418
306.4133, 575.1985
306.8954, 581.9536
307.3776, 588.8698
307.8597, 596.0020
308.3418, 603.4300
308.8239, 611.0619
309.3060, 618.9060
309.7881, 626.9901
310.2703, 635.0949
310.7524, 643.2639
311.2345, 651.4498
311.7166, 659.4908
312.1987, 667.3940
312.6808, 675.3249
313.1630, 683.4803
313.6451, 691.7430
314.1272, 700.0624
314.6093, 708.7961
315.0914, 717.1017
315.5735, 724.2162
316.0557, 730.3311
316.5378, 736.4858
317.0199, 743.3432
317.5020, 750.2524
317.9841, 756.8965
318.4662, 763.4372
318.9484, 769.1374
319.4305, 773.9701
319.9126, 777.8007
320.3947, 780.2703
320.8768, 780.7734
321.3589, 780.2772
321.8411, 779.2503
322.3232, 777.8329
322.8053, 775.7123
323.2874, 773.1204
323.7695, 769.7366
324.2516, 765.0533
324.7338, 757.8265
325.2159, 750.3580
325.6980, 743.4451
326.1801, 737.3313
326.6622, 730.7275
327.1443, 724.0215
327.6265, 716.5484
328.1086, 707.5887
328.5907, 695.8348
329.0728, 684.1765
329.5549, 672.9969
330.0370, 662.2553
330.5192, 651.8425
331.0013, 641.9435
331.4834, 632.1452
331.9655, 622.0439
332.4476, 611.3601
332.9297, 600.7703
333.4119, 590.1574
333.8940, 579.6902
334.3761, 570.3020
334.8582, 562.4366
335.3403, 555.2463
335.8224, 548.4364
336.3046, 542.1609
336.7867, 535.7094
337.2688, 528.9102
337.7509, 521.9999
338.2330, 515.2350
338.7151, 508.5841
339.1973, 502.3332
339.6794, 496.5886
340.1615, 491.4203
340.6436, 486.4154
341.1257, 481.7097
341.6078, 477.0098
342.0899, 471.6360
342.5721, 465.5730
343.0542, 460.3994
343.5363, 456.8989
344.0184, 454.6951
344.5005, 451.9887
344.9826, 448.7266
345.4648, 445.5301
345.9469, 443.0024
346.4290, 441.0656
346.9111, 439.4506
347.3932, 438.2306
347.8753, 437.0880
348.3575, 435.1707
348.8396, 432.5746
349.3217, 430.3849
349.8038, 429.6476
350.2859, 429.8567
350.7680, 429.8524
351.2502, 429.5206
351.7323, 428.8592
352.2144, 427.5287
352.6965, 425.7939
353.1786, 424.4956
353.6607, 424.4319
354.1429, 424.8694
354.6250, 424.9941
355.1071, 424.7787
355.5892, 424.2095
356.0713, 422.9048
356.5534, 421.3271
357.0356, 420.1592
357.5177, 419.8985
357.9998, 419.9282
358.4819, 419.8160
358.9640, 419.6033
359.4461, 419.5244
359.9283, 419.8324
360.4104, 420.2523
360.8925, 420.5246
361.3746, 420.3999
361.8567, 420.4398
362.3388, 420.8941
362.8210, 421.6737
363.3031, 422.5899
363.7852, 423.7208
364.2673, 424.8584
364.7494, 425.9096
365.2315, 426.8568
365.7137, 427.7470
366.1958, 428.4760
366.6779, 429.1832
367.1600, 430.0387
367.6421, 431.0222
368.1242, 432.1975
368.6064, 433.6705
369.0885, 435.4679
369.5706, 437.1017
370.0527, 438.5382
370.5348, 439.8528
371.0169, 441.0641
371.4991, 441.6910
371.9812, 443.0370
372.4633, 445.4362
372.9454, 448.6216
373.4275, 451.6391
373.9096, 454.6146
374.3918, 457.2660
374.8739, 459.2582
375.3560, 460.3209
375.8381, 462.0861
376.3202, 464.7018
376.8023, 467.7950
377.2845, 470.7914
377.7666, 473.6154
378.2487, 476.6127
378.7308, 479.8177
379.2129, 483.2620
379.6950, 486.9230
380.1772, 490.8570
380.6593, 494.8597
381.1414, 498.9312
381.6235, 502.9973
382.1056, 506.6151
382.5877, 509.4116
383.0699, 512.0540
383.5520, 515.7300
384.0341, 520.4359
384.5162, 525.7734
384.9983, 531.9852
385.4804, 538.6307
385.9626, 544.5490
386.4447, 549.4167
386.9268, 554.6796
387.4089, 562.3513
387.8910, 571.5901
388.3731, 580.3300
388.8553, 586.6432
389.3374, 592.6883
389.8195, 600.5880
390.3016, 610.1864
390.7837, 620.2826
391.2658, 629.9882
391.7480, 639.7498
392.2301, 650.0793
392.7122, 661.5701
393.1943, 673.0240
393.6764, 683.1317
394.1585, 692.6415
394.6407, 703.4504
395.1228, 717.5867
395.6049, 732.1666
396.0870, 745.6589
396.5691, 757.1166
397.0512, 769.7693
397.5334, 785.3409
398.0155, 802.1473
398.4976, 817.8663
398.9797, 830.2225
399.4618, 843.7993
399.9439, 860.0562
400.4261, 878.9586
400.9082, 896.7159
401.3903, 912.6511
401.8724, 928.0565
402.3545, 943.7325
402.8366, 959.3317
403.3188, 975.7413
403.8009, 993.8384
404.2830, 1012.407
404.7651, 1028.068
405.2472, 1039.697
405.7293, 1051.234
406.2115, 1064.804
406.6936, 1080.418
407.1757, 1093.920
407.6578, 1105.453
408.1399, 1114.579
408.6220, 1120.677
409.1042, 1123.781
409.5863, 1125.290
410.0684, 1125.604
410.5505, 1124.521
411.0326, 1121.754
411.5147, 1117.262
411.9969, 1110.607
412.4790, 1100.984
412.9611, 1088.907
413.4432, 1075.817
413.9253, 1061.829
414.4074, 1046.635
414.8896, 1029.828
415.3717, 1011.522
415.8538, 992.0403
416.3359, 970.8143
416.8180, 949.0834
417.3001, 928.3748
417.7823, 908.4256
418.2644, 888.6628
418.7465, 868.0089
419.2286, 847.1963
419.7107, 827.1450
420.1928, 807.5329
420.6750, 789.0830
421.1571, 772.5321
421.6392, 757.2824
422.1213, 742.2253
422.6034, 726.9397
423.0855, 711.9410
423.5677, 697.1489
424.0498, 682.4081
424.5319, 668.8497
425.0140, 656.4586
425.4961, 645.2500
425.9782, 635.2114
426.4604, 626.6569
426.9425, 618.8311
427.4246, 611.6277
427.9067, 605.0280
428.3888, 599.4866
428.8709, 595.6561
429.3531, 591.7543
429.8352, 586.3517
430.3173, 578.8918
430.7994, 573.2579
431.2815, 569.9026
431.7636, 567.8226
432.2458, 565.5150
432.7279, 562.9442
433.2100, 560.6373
433.6921, 558.8431
434.1742, 557.4294
434.6563, 555.9326
435.1385, 554.3225
435.6206, 552.8599
436.1027, 551.7967
436.5848, 551.0545
437.0669, 550.3217
437.5490, 549.3691
438.0312, 548.8568
438.5133, 549.7191
438.9954, 551.6590
439.4775, 553.8404
439.9596, 556.2625
440.4417, 558.4766
440.9239, 559.6721
441.4060, 559.8073
441.8881, 560.7247
442.3702, 564.2033
442.8523, 568.6283
443.3344, 572.4628
443.8166, 574.5989
444.2987, 576.8976
444.7808, 579.5587
445.2629, 582.7593
445.7450, 587.0647
446.2271, 594.0452
446.7093, 600.7650
447.1914, 605.9059
447.6735, 608.7524
448.1556, 612.2186
448.6377, 616.0198
449.1198, 620.5888
449.6020, 626.5499
450.0841, 634.6287
450.5662, 642.2817
451.0483, 648.8510
451.5304, 654.7428
452.0125, 661.6355
452.4947, 669.7901
452.9768, 678.3163
453.4589, 686.5765
453.9410, 694.6110
454.4231, 703.9341
454.9052, 714.8915
455.3874, 726.5033
455.8695, 737.6937
456.3516, 748.5793
456.8337, 759.5478
457.3158, 770.4975
457.7979, 781.9552
458.2801, 795.3947
458.7622, 810.5113
459.2443, 825.6722
459.7264, 839.1322
460.2085, 852.1016
460.6906, 865.7988
461.1728, 880.2587
461.6549, 896.0394
462.1370, 914.0223
462.6191, 933.2633
463.1012, 951.9740
463.5833, 968.1072
464.0655, 984.8931
464.5476, 1004.184
465.0297, 1025.575
465.5118, 1046.437
465.9939, 1063.909
466.4760, 1081.795
466.9582, 1102.190
467.4403, 1127.401
467.9224, 1151.627
468.4045, 1173.705
468.8866, 1195.050
469.3687, 1218.053
469.8509, 1242.504
470.3330, 1268.345
470.8151, 1295.858
471.2972, 1324.893
471.7793, 1353.347
472.2614, 1380.841
472.7436, 1409.602
473.2257, 1441.928
473.7078, 1478.037
474.1899, 1512.850
474.6720, 1545.945
475.1541, 1578.376
475.6363, 1611.054
476.1184, 1644.172
476.6005, 1679.091
477.0826, 1717.695
477.5647, 1757.554
478.0468, 1794.329
478.5290, 1828.503
479.0111, 1864.461
479.4932, 1907.032
479.9753, 1952.379
480.4574, 1995.828
480.9395, 2036.017
481.4217, 2076.386
481.9038, 2118.585
482.3859, 2161.742
482.8680, 2204.058
483.3501, 2243.130
483.8322, 2282.992
484.3144, 2327.088
484.7965, 2374.485
485.2786, 2417.357
485.7607, 2450.132
486.2428, 2480.964
486.7249, 2514.234
487.2071, 2552.141
487.6892, 2587.018
488.1713, 2618.947
488.6534, 2647.775
489.1355, 2673.746
489.6176, 2696.996
490.0998, 2717.464
490.5819, 2735.276
491.0640, 2750.714
491.5461, 2764.999
492.0282, 2778.504
492.5103, 2789.126
492.9925, 2795.283
493.4746, 2797.259
493.9567, 2796.434
494.4388, 2793.120
494.9209, 2785.867
495.4030, 2772.003
495.8852, 2752.803
496.3673, 2731.156
496.8494, 2708.887
497.3315, 2683.992
497.8136, 2654.151
498.2957, 2619.683
498.7779, 2583.277
499.2600, 2546.390
499.7421, 2507.535
500.2242, 2465.685
500.7063, 2420.158
501.1884, 2372.289
501.6706, 2323.085
502.1527, 2271.815
502.6348, 2218.534
503.1169, 2162.874
503.5990, 2105.693
504.0811, 2046.905
504.5633, 1987.195
505.0454, 1927.265
505.5275, 1867.132
506.0096, 1808.540
506.4917, 1752.991
506.9738, 1700.346
507.4560, 1646.116
507.9381, 1589.658
508.4202, 1533.309
508.9023, 1479.031
509.3844, 1426.843
509.8665, 1377.427
510.3487, 1331.464
510.8308, 1287.310
511.3129, 1241.764
511.7950, 1195.389
512.2772, 1150.806
512.7593, 1109.227
513.2414, 1070.372
513.7235, 1033.642
514.2056, 998.9667
514.6877, 965.4591
515.1699, 931.7535
515.6520, 899.3583
516.1341, 869.8926
516.6162, 844.8693
517.0983, 820.3826
517.5804, 794.3015
518.0626, 767.9041
518.5447, 743.2903
519.0268, 721.7820
519.5089, 700.9689
519.9910, 680.1910
520.4731, 659.4757
520.9553, 640.5792
521.4374, 624.2164
521.9195, 608.9183
522.4016, 593.8334
522.8837, 578.9587
523.3658, 565.0707
523.8480, 552.2302
524.3301, 540.2337
524.8122, 529.1786
525.2943, 519.0572
525.7764, 508.8481
526.2585, 497.9813
526.7407, 487.2333
527.2228, 478.1777
527.7049, 470.5007
528.1870, 462.6555
528.6691, 452.6280
529.1512, 442.3573
529.6334, 434.4633
530.1155, 429.1246
530.5976, 423.8357
531.0797, 416.5432
531.5618, 408.7169
532.0439, 401.9111
532.5261, 396.9014
533.0082, 392.2537
533.4903, 387.7435
533.9724, 383.2867
534.4545, 378.5827
534.9366, 373.0898
535.4188, 367.9969
535.9009, 363.8062
536.3830, 360.4893
536.8651, 356.5464
537.3472, 351.6250
537.8293, 346.8030
538.3115, 342.9928
538.7936, 340.3130
539.2757, 337.0659
539.7578, 332.9767
540.2399, 328.9414
540.7220, 326.5376
541.2042, 325.4351
541.6863, 323.4850
542.1684, 319.4869
542.6505, 314.9200
543.1326, 312.0407
543.6147, 310.4868
544.0969, 308.8101
544.5790, 305.7023
545.0611, 302.4697
545.5432, 300.5179
546.0253, 300.0513
546.5074, 298.9432
546.9896, 295.1895
547.4717, 291.0587
547.9538, 288.4166
548.4359, 289.3838
548.9180, 289.3777
549.4001, 287.5236
549.8823, 284.6533
550.3644, 282.1320
550.8465, 279.9731
551.3286, 278.1248
551.8107, 276.7426
552.2928, 275.6964
552.7750, 273.8957
553.2571, 271.1247
553.7392, 268.6179
554.2213, 267.3467
554.7034, 267.1099
555.1855, 266.8384
555.6677, 266.5419
556.1498, 265.7424
556.6319, 263.3203
557.1140, 260.0903
557.5961, 257.8355
558.0782, 257.5268
558.5604, 257.5604
559.0425, 256.7063
559.5246, 255.2122
560.0067, 253.6272
560.4888, 251.5790
560.9709, 250.0451
561.4531, 249.9734
561.9352, 251.3661
562.4173, 251.6902
562.8994, 249.6329
563.3815, 247.2096
563.8636, 245.4017
564.3458, 244.4583
564.8279, 243.4557
565.3100, 242.1851
565.7921, 241.1075
566.2742, 241.0165
566.7563, 242.0500
567.2385, 242.7065
567.7206, 242.6101
568.2027, 242.0237
568.6848, 241.4249
569.1669, 240.8182
569.6490, 240.3010
570.1312, 239.8939
570.6133, 239.6142
571.0954, 239.6276
571.5775, 239.9024
572.0596, 239.9412
572.5417, 239.0517
573.0239, 238.0013
573.5060, 237.5841
573.9881, 238.3252
574.4702, 238.6213
574.9523, 237.6629
575.4344, 236.1189
575.9166, 234.8413
576.3987, 233.7517
576.8808, 233.1088
577.3629, 233.0877
577.8450, 233.5151
578.3271, 233.8183
578.8093, 233.9519
579.2914, 234.0804
579.7735, 234.1977
580.2556, 234.3381
580.7377, 235.0334
581.2198, 236.3606
581.7020, 237.3164
582.1841, 236.5541
582.6662, 234.8351
583.1483, 234.0443
583.6304, 234.5385
584.1125, 235.4348
584.5947, 236.4175
585.0768, 237.1863
585.5589, 237.2875
586.0410, 235.8883
586.5231, 234.5668
587.0052, 234.0551
587.4873, 234.1372
587.9694, 234.2320
