##NAMES=Gmelinite-Na
##RRUFFID=R070354
##IDEAL CHEMISTRY=Na_4_(Si_8_Al_4_)O_24_&#183;11H_2_O
##LOCALITY=Island of Finders, Australia
##OWNER=RRUFF
##SOURCE=Michael Scott
##DESCRIPTION=Salmon-pink, striated vitreous crystals associated with colorless trapezohedral analcime and colorless tetragonal prisms of natrolite
##STATUS=The identification of this mineral has been made only by X-ray diffraction.
##URL=rruff.info/R070354
140.7862, 1824.814
141.2683, 1842.208
141.7504, 1870.399
142.2325, 1908.829
142.7147, 1953.470
143.1968, 2001.917
143.6789, 2054.231
144.1610, 2109.574
144.6431, 2167.375
145.1252, 2228.001
145.6074, 2295.495
146.0895, 2368.110
146.5716, 2435.130
147.0537, 2485.321
147.5358, 2518.699
148.0179, 2565.473
148.5001, 2640.038
148.9822, 2717.069
149.4643, 2782.170
149.9464, 2834.322
150.4285, 2871.451
150.9106, 2888.110
151.3928, 2885.232
151.8749, 2884.084
152.3570, 2892.654
152.8391, 2899.264
153.3212, 2892.359
153.8033, 2870.913
154.2855, 2843.190
154.7676, 2814.127
155.2497, 2783.587
155.7318, 2751.432
156.2139, 2711.886
156.6960, 2673.527
157.1782, 2648.163
157.6603, 2637.891
158.1424, 2630.286
158.6245, 2615.595
159.1066, 2596.259
159.5887, 2577.949
160.0709, 2557.793
160.5530, 2541.078
161.0351, 2538.494
161.5172, 2553.885
161.9993, 2569.879
162.4814, 2571.993
162.9636, 2565.872
163.4457, 2561.261
163.9278, 2562.496
164.4099, 2567.015
164.8920, 2570.494
165.3741, 2572.999
165.8563, 2574.210
166.3384, 2576.310
166.8205, 2576.972
167.3026, 2571.025
167.7847, 2549.530
168.2668, 2522.234
168.7490, 2512.867
169.2311, 2529.885
169.7132, 2545.692
170.1953, 2544.134
170.6774, 2532.171
171.1595, 2520.333
171.6417, 2514.959
172.1238, 2512.148
172.6059, 2500.842
173.0880, 2475.850
173.5701, 2452.731
174.0522, 2441.145
174.5344, 2434.974
175.0165, 2425.237
175.4986, 2405.647
175.9807, 2380.776
176.4628, 2363.302
176.9449, 2356.188
177.4271, 2351.495
177.9092, 2347.705
178.3913, 2343.725
178.8734, 2338.445
179.3555, 2332.016
179.8376, 2323.206
180.3197, 2306.327
180.8019, 2271.417
181.2840, 2246.773
181.7661, 2246.315
182.2482, 2257.849
182.7303, 2267.064
183.2124, 2267.476
183.6946, 2260.483
184.1767, 2249.022
184.6588, 2228.552
185.1409, 2211.829
185.6230, 2204.094
186.1051, 2200.701
186.5873, 2196.617
187.0694, 2189.653
187.5515, 2180.264
188.0336, 2168.988
188.5157, 2153.474
188.9978, 2140.429
189.4800, 2132.207
189.9621, 2126.436
190.4442, 2120.379
190.9263, 2112.790
191.4084, 2104.962
191.8905, 2100.718
192.3727, 2104.610
192.8548, 2103.686
193.3369, 2084.865
193.8190, 2065.933
194.3011, 2068.666
194.7832, 2102.119
195.2654, 2147.912
195.7475, 2163.625
196.2296, 2125.416
196.7117, 2101.674
197.1938, 2116.886
197.6759, 2139.509
198.1581, 2139.143
198.6402, 2106.027
199.1223, 2058.373
199.6044, 2030.188
200.0865, 2030.552
200.5686, 2033.603
201.0508, 2041.399
201.5329, 2047.783
202.0150, 2046.749
202.4971, 2037.027
202.9792, 2023.630
203.4613, 2014.888
203.9435, 2013.942
204.4256, 2010.655
204.9077, 2002.564
205.3898, 1993.720
205.8719, 1987.557
206.3540, 1984.430
206.8362, 1981.385
207.3183, 1974.019
207.8004, 1960.370
208.2825, 1947.415
208.7646, 1939.198
209.2467, 1928.607
209.7289, 1908.248
210.2110, 1879.208
210.6931, 1850.992
211.1752, 1835.792
211.6573, 1838.329
212.1395, 1836.936
212.6216, 1834.257
213.1037, 1825.868
213.5858, 1803.964
214.0679, 1772.156
214.5500, 1743.752
215.0322, 1733.649
215.5143, 1745.766
215.9964, 1750.313
216.4785, 1741.058
216.9606, 1730.153
217.4427, 1721.196
217.9249, 1714.430
218.4070, 1708.731
218.8891, 1703.095
219.3712, 1697.479
219.8533, 1693.471
220.3354, 1696.061
220.8176, 1695.359
221.2997, 1686.710
221.7818, 1672.644
222.2639, 1658.260
222.7460, 1647.105
223.2281, 1638.867
223.7103, 1631.147
224.1924, 1623.090
224.6745, 1616.625
225.1566, 1614.001
225.6387, 1612.840
226.1208, 1609.719
226.6030, 1602.639
227.0851, 1592.215
227.5672, 1580.571
228.0493, 1561.784
228.5314, 1550.318
229.0135, 1553.755
229.4957, 1563.422
229.9778, 1569.881
230.4599, 1568.909
230.9420, 1562.279
231.4241, 1553.823
231.9062, 1541.114
232.3884, 1530.933
232.8705, 1523.212
233.3526, 1518.445
233.8347, 1518.646
234.3168, 1524.203
234.7989, 1530.586
235.2811, 1529.361
235.7632, 1516.470
236.2453, 1505.456
236.7274, 1495.538
237.2095, 1488.801
237.6916, 1487.484
238.1738, 1491.664
238.6559, 1498.529
239.1380, 1505.261
239.6201, 1512.469
240.1022, 1517.224
240.5843, 1519.494
241.0665, 1519.237
241.5486, 1515.499
242.0307, 1508.740
242.5128, 1500.856
242.9949, 1492.666
243.4770, 1483.778
243.9592, 1479.379
244.4413, 1485.886
244.9234, 1490.921
245.4055, 1487.918
245.8876, 1479.381
246.3697, 1472.384
246.8519, 1472.604
247.3340, 1479.112
247.8161, 1483.582
248.2982, 1485.718
248.7803, 1485.929
249.2624, 1484.611
249.7446, 1481.674
250.2267, 1476.367
250.7088, 1467.019
251.1909, 1456.386
251.6730, 1453.181
252.1551, 1461.566
252.6373, 1469.022
253.1194, 1471.383
253.6015, 1470.917
254.0836, 1469.943
254.5657, 1469.328
255.0478, 1468.386
255.5300, 1464.897
256.0121, 1457.120
256.4942, 1453.527
256.9763, 1462.001
257.4584, 1472.506
257.9406, 1477.561
258.4227, 1475.498
258.9048, 1470.786
259.3869, 1467.060
259.8690, 1464.247
260.3511, 1464.307
260.8333, 1470.637
261.3154, 1477.345
261.7975, 1480.165
262.2796, 1479.052
262.7617, 1476.702
263.2438, 1474.116
263.7260, 1471.595
264.2081, 1471.308
264.6902, 1475.168
265.1723, 1478.657
265.6544, 1478.328
266.1365, 1474.970
266.6187, 1471.041
267.1008, 1465.154
267.5829, 1459.933
268.0650, 1461.958
268.5471, 1473.120
269.0292, 1485.803
269.5114, 1499.528
269.9935, 1510.805
270.4756, 1511.539
270.9577, 1489.909
271.4398, 1464.853
271.9219, 1461.032
272.4041, 1479.146
272.8862, 1494.318
273.3683, 1492.632
273.8504, 1480.689
274.3325, 1472.151
274.8146, 1468.995
275.2968, 1466.746
275.7789, 1460.549
276.2610, 1452.165
276.7431, 1449.547
277.2252, 1457.329
277.7073, 1469.750
278.1895, 1477.395
278.6716, 1479.964
279.1537, 1480.807
279.6358, 1482.833
280.1179, 1483.503
280.6000, 1474.554
281.0822, 1452.034
281.5643, 1433.092
282.0464, 1443.684
282.5285, 1487.249
283.0106, 1515.435
283.4927, 1508.769
283.9749, 1493.346
284.4570, 1494.436
284.9391, 1513.224
285.4212, 1532.999
285.9033, 1540.019
286.3854, 1534.266
286.8676, 1531.126
287.3497, 1531.086
287.8318, 1532.895
288.3139, 1535.088
288.7960, 1538.549
289.2781, 1546.334
289.7603, 1560.794
290.2424, 1579.758
290.7245, 1593.757
291.2066, 1598.554
291.6887, 1604.020
292.1708, 1612.967
292.6530, 1622.897
293.1351, 1630.201
293.6172, 1633.666
294.0993, 1635.672
294.5814, 1640.605
295.0635, 1651.942
295.5457, 1659.523
296.0278, 1659.185
296.5099, 1658.331
296.9920, 1663.766
297.4741, 1675.213
297.9562, 1685.827
298.4384, 1687.631
298.9205, 1678.375
299.4026, 1676.140
299.8847, 1687.349
300.3668, 1698.927
300.8489, 1708.257
301.3310, 1714.431
301.8131, 1715.582
302.2953, 1709.188
302.7774, 1698.190
303.2595, 1698.595
303.7416, 1722.149
304.2237, 1739.907
304.7058, 1739.390
305.1880, 1733.475
305.6701, 1736.648
306.1522, 1754.433
306.6343, 1779.551
307.1164, 1800.913
307.5985, 1818.213
308.0807, 1832.551
308.5628, 1840.441
309.0449, 1847.883
309.5270, 1858.857
310.0091, 1873.540
310.4912, 1888.359
310.9734, 1898.807
311.4555, 1905.638
311.9376, 1917.407
312.4197, 1937.090
312.9018, 1958.454
313.3839, 1978.833
313.8661, 1997.861
314.3482, 2014.187
314.8303, 2025.902
315.3124, 2035.132
315.7945, 2046.166
316.2766, 2059.611
316.7588, 2070.987
317.2409, 2073.412
317.7230, 2073.747
318.2051, 2084.386
318.6872, 2112.524
319.1693, 2140.927
319.6515, 2156.086
320.1336, 2160.153
320.6157, 2162.607
321.0978, 2165.753
321.5799, 2169.954
322.0620, 2177.396
322.5442, 2189.552
323.0263, 2196.259
323.5084, 2192.134
323.9905, 2182.049
324.4726, 2170.462
324.9547, 2158.132
325.4369, 2149.456
325.9190, 2150.921
326.4011, 2163.952
326.8832, 2164.369
327.3653, 2145.687
327.8474, 2120.938
328.3296, 2095.602
328.8117, 2070.092
329.2938, 2043.441
329.7759, 2014.424
330.2580, 1984.662
330.7401, 1962.478
331.2223, 1954.865
331.7044, 1946.100
332.1865, 1937.806
332.6686, 1926.072
333.1507, 1904.350
333.6328, 1871.448
334.1150, 1835.416
334.5971, 1807.686
335.0792, 1789.318
335.5613, 1777.356
336.0434, 1780.639
336.5255, 1781.801
337.0077, 1770.984
337.4898, 1749.685
337.9719, 1725.129
338.4540, 1702.291
338.9361, 1681.269
339.4182, 1662.987
339.9004, 1648.341
340.3825, 1635.550
340.8646, 1623.082
341.3467, 1612.179
341.8288, 1605.089
342.3109, 1603.120
342.7931, 1602.817
343.2752, 1599.210
343.7573, 1592.036
344.2394, 1583.209
344.7215, 1571.238
345.2036, 1559.267
345.6858, 1549.760
346.1679, 1542.801
346.6500, 1536.870
347.1321, 1530.705
347.6142, 1524.838
348.0963, 1520.906
348.5785, 1519.411
349.0606, 1518.787
349.5427, 1517.919
350.0248, 1516.952
350.5069, 1516.358
350.9890, 1518.469
351.4712, 1519.195
351.9533, 1513.263
352.4354, 1502.137
352.9175, 1493.746
353.3996, 1492.396
353.8817, 1495.416
354.3639, 1495.716
354.8460, 1491.760
355.3281, 1488.927
355.8102, 1488.518
356.2923, 1489.807
356.7744, 1493.860
357.2566, 1500.412
357.7387, 1503.715
358.2208, 1496.235
358.7029, 1474.600
359.1850, 1461.120
359.6671, 1459.145
360.1493, 1460.668
360.6314, 1464.438
361.1135, 1468.810
361.5956, 1470.967
362.0777, 1469.043
362.5598, 1464.429
363.0420, 1462.230
363.5241, 1463.740
364.0062, 1465.759
364.4883, 1467.329
364.9704, 1469.518
365.4525, 1472.976
365.9347, 1477.925
366.4168, 1484.677
366.8989, 1495.824
367.3810, 1512.205
367.8631, 1519.718
368.3452, 1511.231
368.8274, 1501.398
369.3095, 1498.743
369.7916, 1500.619
370.2737, 1499.917
370.7558, 1489.170
371.2379, 1477.334
371.7201, 1483.503
372.2022, 1510.151
372.6843, 1530.646
373.1664, 1530.825
373.6485, 1519.796
374.1306, 1510.369
374.6128, 1501.101
375.0949, 1499.967
375.5770, 1519.544
376.0591, 1548.797
376.5412, 1563.308
377.0233, 1556.741
377.5055, 1546.250
377.9876, 1550.643
378.4697, 1571.956
378.9518, 1584.216
379.4339, 1575.882
379.9160, 1568.509
380.3982, 1576.467
380.8803, 1596.241
381.3624, 1617.150
381.8445, 1633.815
382.3266, 1646.252
382.8087, 1654.682
383.2909, 1658.686
383.7730, 1658.494
384.2551, 1644.359
384.7372, 1632.408
385.2193, 1639.425
385.7014, 1665.783
386.1836, 1695.418
386.6657, 1710.474
387.1478, 1709.786
387.6299, 1715.903
388.1120, 1733.882
388.5941, 1753.342
389.0763, 1771.019
389.5584, 1787.836
390.0405, 1804.903
390.5226, 1822.484
391.0047, 1841.708
391.4868, 1865.624
391.9690, 1894.788
392.4511, 1922.601
392.9332, 1947.852
393.4153, 1970.290
393.8974, 1987.384
394.3795, 1999.396
394.8617, 2016.414
395.3438, 2046.146
395.8259, 2083.036
396.3080, 2118.689
396.7901, 2152.329
397.2722, 2184.295
397.7544, 2213.232
398.2365, 2240.646
398.7186, 2274.109
399.2007, 2318.587
399.6828, 2363.023
400.1649, 2401.618
400.6471, 2437.634
401.1292, 2478.209
401.6113, 2525.960
402.0934, 2573.943
402.5755, 2611.520
403.0576, 2632.212
403.5398, 2661.992
404.0219, 2703.976
404.5040, 2751.053
404.9861, 2803.163
405.4682, 2857.493
405.9503, 2909.128
406.4325, 2955.548
406.9146, 2995.771
407.3967, 3024.262
407.8788, 3033.902
408.3609, 3046.280
408.8430, 3069.672
409.3252, 3094.598
409.8073, 3113.767
410.2894, 3126.067
410.7715, 3135.104
411.2536, 3149.886
411.7357, 3165.906
412.2179, 3155.918
412.7000, 3109.787
413.1821, 3057.913
413.6642, 3023.043
414.1463, 2997.271
414.6284, 2965.885
415.1106, 2923.388
415.5927, 2877.682
416.0748, 2835.012
416.5569, 2793.875
417.0390, 2749.344
417.5211, 2699.478
418.0033, 2647.132
418.4854, 2596.588
418.9675, 2548.844
419.4496, 2499.801
419.9317, 2449.119
420.4138, 2397.627
420.8960, 2339.433
421.3781, 2279.787
421.8602, 2235.912
422.3423, 2220.880
422.8244, 2225.410
423.3065, 2208.759
423.7887, 2152.584
424.2708, 2103.162
424.7529, 2063.284
425.2350, 2032.627
425.7171, 2014.921
426.1992, 2008.565
426.6814, 2002.689
427.1635, 1985.411
427.6456, 1957.862
428.1277, 1935.095
428.6098, 1917.700
429.0919, 1904.138
429.5741, 1893.859
430.0562, 1886.599
430.5383, 1882.971
431.0204, 1884.975
431.5025, 1886.608
431.9846, 1882.925
432.4668, 1874.747
432.9489, 1863.991
433.4310, 1850.093
433.9131, 1837.245
434.3952, 1829.601
434.8773, 1827.269
435.3595, 1832.304
435.8416, 1853.997
436.3237, 1874.871
436.8058, 1883.089
437.2879, 1881.640
437.7701, 1878.733
438.2522, 1878.265
438.7343, 1880.882
439.2164, 1888.646
439.6985, 1906.491
440.1806, 1920.661
440.6628, 1929.837
441.1449, 1936.725
441.6270, 1939.477
442.1091, 1940.779
442.5912, 1949.147
443.0733, 1974.248
443.5555, 2010.106
444.0376, 2032.093
444.5197, 2034.966
445.0018, 2038.659
445.4839, 2050.862
445.9660, 2067.756
446.4482, 2086.929
446.9303, 2108.469
447.4124, 2128.660
447.8945, 2144.538
448.3766, 2157.596
448.8587, 2169.861
449.3409, 2181.419
449.8230, 2195.307
450.3051, 2213.670
450.7872, 2236.739
451.2693, 2263.943
451.7514, 2304.237
452.2336, 2337.966
452.7157, 2352.311
453.1978, 2358.426
453.6799, 2370.818
454.1620, 2393.919
454.6441, 2424.667
455.1263, 2460.421
455.6084, 2503.070
456.0905, 2539.762
456.5726, 2561.327
457.0547, 2585.904
457.5368, 2622.849
458.0190, 2665.515
458.5011, 2702.987
458.9832, 2730.500
459.4653, 2752.280
459.9474, 2771.436
460.4295, 2787.720
460.9117, 2814.594
461.3938, 2861.121
461.8759, 2910.168
462.3580, 2943.971
462.8401, 2965.814
463.3222, 2993.592
463.8044, 3037.112
464.2865, 3084.881
464.7686, 3126.121
465.2507, 3162.374
465.7328, 3201.347
466.2149, 3247.014
466.6971, 3294.743
467.1792, 3334.538
467.6613, 3360.836
468.1434, 3390.862
468.6255, 3422.582
469.1076, 3459.704
469.5898, 3510.819
470.0719, 3569.682
470.5540, 3617.654
471.0361, 3641.249
471.5182, 3651.472
472.0003, 3681.046
472.4825, 3733.158
472.9646, 3795.553
473.4467, 3886.196
473.9288, 3971.209
474.4109, 4019.023
474.8930, 4033.012
475.3752, 4056.555
475.8573, 4117.671
476.3394, 4202.731
476.8215, 4294.638
477.3036, 4392.875
477.7857, 4481.642
478.2679, 4550.861
478.7500, 4607.218
479.2321, 4666.247
479.7142, 4724.245
480.1963, 4791.833
480.6784, 4875.984
481.1606, 4967.245
481.6427, 5058.853
482.1248, 5149.476
482.6069, 5238.045
483.0890, 5324.021
483.5711, 5407.840
484.0533, 5493.877
484.5354, 5583.086
485.0175, 5673.346
485.4996, 5761.516
485.9817, 5852.405
486.4638, 5953.193
486.9460, 6062.934
487.4281, 6167.365
487.9102, 6253.836
488.3923, 6326.631
488.8744, 6397.732
489.3565, 6466.720
489.8387, 6536.907
490.3208, 6613.688
490.8029, 6690.237
491.2850, 6751.343
491.7671, 6789.986
492.2492, 6833.980
492.7314, 6909.947
493.2135, 6986.051
493.6956, 7022.766
494.1777, 7018.656
494.6598, 6999.041
495.1419, 6980.981
495.6241, 6965.375
496.1062, 6958.258
496.5883, 6976.920
497.0704, 6979.253
497.5525, 6955.922
498.0346, 6919.119
498.5168, 6882.308
498.9989, 6844.851
499.4810, 6791.383
499.9631, 6701.779
500.4452, 6586.168
500.9273, 6487.782
501.4095, 6413.010
501.8916, 6327.498
502.3737, 6211.470
502.8558, 6077.726
503.3379, 5947.863
503.8200, 5823.480
504.3022, 5699.776
504.7843, 5576.765
505.2664, 5452.822
505.7485, 5329.018
506.2306, 5204.255
506.7127, 5075.535
507.1949, 4940.041
507.6770, 4798.631
508.1591, 4656.560
508.6412, 4510.305
509.1233, 4367.718
509.6054, 4231.333
510.0876, 4096.938
510.5697, 3958.853
511.0518, 3819.347
511.5339, 3688.831
512.0161, 3576.438
512.4982, 3477.535
512.9803, 3379.534
513.4624, 3283.350
513.9445, 3186.071
514.4266, 3085.929
514.9088, 2984.969
515.3909, 2882.893
515.8730, 2778.444
516.3551, 2686.178
516.8372, 2617.088
517.3193, 2556.967
517.8015, 2494.115
518.2836, 2427.936
518.7657, 2357.426
519.2478, 2281.464
519.7299, 2204.908
520.2120, 2139.634
520.6942, 2089.977
521.1763, 2043.409
521.6584, 2001.164
522.1405, 1960.521
522.6226, 1918.224
523.1047, 1876.181
523.5869, 1840.738
524.0690, 1816.820
524.5511, 1797.046
525.0332, 1768.665
525.5153, 1731.741
525.9974, 1695.314
526.4796, 1659.461
526.9617, 1628.079
527.4438, 1610.458
527.9259, 1604.299
528.4080, 1587.876
528.8901, 1545.429
529.3723, 1504.453
529.8544, 1483.856
530.3365, 1475.908
530.8186, 1464.723
531.3007, 1444.884
531.7828, 1423.543
532.2650, 1411.675
532.7471, 1412.062
533.2292, 1404.151
533.7113, 1378.045
534.1934, 1354.788
534.6755, 1342.631
535.1577, 1336.353
535.6398, 1328.304
536.1219, 1316.024
536.6040, 1304.125
537.0861, 1298.752
537.5682, 1297.294
538.0504, 1291.770
538.5325, 1281.416
539.0146, 1265.347
539.4967, 1239.046
539.9788, 1206.832
540.4609, 1190.390
540.9431, 1202.600
541.4252, 1210.853
541.9073, 1205.526
542.3894, 1195.304
542.8715, 1188.908
543.3536, 1186.673
543.8358, 1182.740
544.3179, 1171.662
544.8000, 1155.867
545.2821, 1146.954
545.7642, 1148.628
546.2463, 1147.021
546.7285, 1135.523
547.2106, 1121.732
547.6926, 1109.653
548.1747, 1099.932
548.6569, 1095.571
549.1390, 1104.823
549.6211, 1115.271
550.1032, 1110.910
550.5853, 1094.807
551.0674, 1081.283
551.5496, 1076.050
552.0317, 1075.457
552.5138, 1073.754
552.9959, 1070.743
553.4780, 1067.215
553.9601, 1063.865
554.4423, 1059.327
554.9244, 1052.390
555.4065, 1044.104
555.8886, 1035.273
556.3707, 1026.055
556.8528, 1019.279
557.3350, 1020.773
557.8171, 1029.020
558.2992, 1030.252
558.7813, 1020.557
559.2634, 1012.536
559.7455, 1017.725
560.2277, 1030.494
560.7098, 1032.514
561.1919, 1016.504
561.6740, 1002.295
562.1561, 996.5472
562.6382, 995.3732
563.1204, 996.5711
563.6025, 998.6275
564.0846, 997.5500
564.5667, 989.7492
565.0488, 977.7000
565.5309, 971.2515
566.0131, 972.2344
566.4952, 974.1939
566.9773, 976.1987
567.4594, 978.7878
567.9415, 983.1915
568.4236, 988.7620
568.9058, 992.7366
569.3879, 997.0015
569.8700, 996.4326
570.3521, 979.2057
570.8342, 951.9655
571.3163, 939.3798
571.7985, 949.9260
572.2806, 967.6715
572.7627, 973.4896
573.2448, 965.9524
573.7269, 960.0502
574.2090, 955.1006
574.6912, 952.4318
575.1733, 954.0961
575.6554, 957.3190
576.1375, 959.8566
576.6196, 960.9128
577.1017, 959.2173
577.5839, 951.2675
578.0660, 939.6682
578.5481, 933.8617
579.0302, 934.5782
579.5123, 935.7344
579.9944, 934.2005
580.4766, 931.8373
580.9587, 932.6447
581.4408, 937.4650
581.9229, 941.2580
582.4050, 944.0321
582.8871, 944.9237
583.3693, 941.3076
583.8514, 935.6020
584.3335, 933.5966
584.8156, 938.0030
585.2977, 943.9832
585.7798, 943.3320
586.2620, 935.3953
586.7441, 927.9147
587.2262, 918.6877
587.7083, 914.1444
588.1904, 922.9822
588.6725, 937.5461
589.1547, 945.1141
589.6368, 942.3757
590.1189, 936.9953
590.6010, 930.6830
591.0831, 924.8656
591.5652, 921.0385
592.0474, 919.4835
592.5295, 920.5605
593.0116, 924.6794
593.4937, 931.1485
593.9758, 938.7718
594.4579, 951.3228
594.9401, 955.9523
595.4222, 942.1416
595.9043, 928.7012
596.3864, 924.2653
596.8685, 927.7510
597.3506, 936.3162
597.8328, 953.0603
598.3149, 966.3704
598.7970, 961.9753
599.2791, 946.2890
599.7612, 935.8370
600.2433, 933.7735
600.7255, 934.7383
601.2076, 934.0050
601.6897, 932.2475
602.1718, 935.0809
602.6539, 951.2342
603.1360, 959.8884
603.6182, 954.5743
604.1003, 945.2225
604.5824, 936.9969
605.0645, 931.4517
605.5466, 930.7349
606.0287, 938.5217
606.5109, 948.4474
606.9930, 948.0942
607.4751, 939.4696
607.9572, 940.6887
608.4393, 958.8945
608.9214, 977.6659
609.4036, 980.5118
609.8857, 967.3013
610.3678, 952.3921
610.8499, 929.7232
611.3320, 913.2131
611.8141, 910.5712
612.2963, 912.7787
612.7784, 911.1898
613.2605, 904.7402
613.7426, 896.9532
614.2247, 888.9458
614.7068, 882.7597
615.1890, 885.8815
615.6711, 898.9480
616.1532, 906.4752
616.6353, 902.4205
617.1174, 894.0481
617.5995, 888.6501
618.0817, 886.2928
618.5638, 885.9625
619.0459, 892.2917
619.5280, 895.2537
620.0101, 888.1929
620.4922, 876.9575
620.9744, 868.3091
621.4565, 863.8238
621.9386, 861.8671
622.4207, 861.2062
622.9028, 861.7954
623.3849, 865.0905
623.8671, 872.7278
624.3492, 872.6053
624.8313, 855.8882
625.3134, 835.7563
625.7955, 828.7850
626.2776, 834.1027
626.7598, 839.8449
627.2419, 845.2509
627.7240, 849.7984
628.2061, 853.9551
628.6882, 856.7448
629.1703, 856.2087
629.6525, 852.2143
630.1346, 847.0913
630.6167, 842.9349
631.0988, 839.6417
631.5809, 836.7671
632.0630, 834.5764
632.5452, 831.6061
633.0273, 826.2991
633.5094, 821.0936
633.9915, 817.5775
634.4736, 815.8090
634.9557, 819.1093
635.4379, 833.6271
635.9200, 847.5991
636.4021, 855.4626
636.8842, 858.0605
