##NAMES=Gmelinite-Ca
##RRUFFID=R061130
##IDEAL CHEMISTRY=Ca_2_(Si_8_Al_4_)O_24_&#183;11H_2_O
##LOCALITY=Fara Vicentino, Vicenza, Veneto, Italy
##OWNER=RRUFF
##SOURCE=Michael Scott
##DESCRIPTION=Pale orange tabular crystals lining vesicles in basalt
##STATUS=The identification of this mineral is confirmed by single-crystal X-ray diffraction and chemical analysis.
##URL=rruff.info/R061130
##MEASURED CHEMISTRY=(Ca_1.70_Na_0.21_K_0.09_)(Si_8.30_Al_3.70_)O_24_Â·11H_2_O; H_2_O estimated by difference
150.1809, 8071.678
150.6630, 8097.979
151.1452, 8140.987
151.6273, 8167.296
152.1094, 8159.926
152.5915, 8149.406
153.0736, 8145.231
153.5557, 8153.979
154.0379, 8155.551
154.5200, 8140.391
155.0021, 8116.701
155.4842, 8101.446
155.9663, 8107.967
156.4484, 8116.351
156.9306, 8117.411
157.4127, 8108.749
157.8948, 8093.857
158.3769, 8064.277
158.8590, 8026.275
159.3411, 8003.393
159.8233, 8012.601
160.3054, 8034.402
160.7875, 8054.766
161.2696, 8074.637
161.7517, 8088.079
162.2338, 8091.806
162.7160, 8086.240
163.1981, 8076.694
163.6802, 8059.814
164.1623, 8042.102
164.6444, 8030.483
165.1265, 8038.488
165.6087, 8045.302
166.0908, 8034.410
166.5729, 8003.904
167.0550, 7976.462
167.5371, 7969.749
168.0192, 7974.870
168.5014, 7977.441
168.9835, 7971.157
169.4656, 7959.283
169.9477, 7943.091
170.4298, 7921.355
170.9119, 7901.215
171.3941, 7891.907
171.8762, 7889.213
172.3583, 7882.267
172.8404, 7859.703
173.3225, 7831.237
173.8046, 7810.108
174.2868, 7800.490
174.7689, 7793.948
175.2510, 7780.194
175.7331, 7761.079
176.2152, 7745.584
176.6973, 7742.192
177.1795, 7746.091
177.6616, 7748.572
178.1437, 7748.149
178.6258, 7744.902
179.1079, 7737.379
179.5900, 7725.877
180.0722, 7715.103
180.5543, 7709.642
181.0364, 7707.930
181.5185, 7705.647
182.0006, 7702.019
182.4827, 7696.787
182.9649, 7688.996
183.4470, 7678.665
183.9291, 7666.790
184.4112, 7651.125
184.8933, 7633.387
185.3754, 7623.023
185.8576, 7629.737
186.3397, 7646.320
186.8218, 7645.973
187.3039, 7625.667
187.7860, 7604.298
188.2681, 7612.645
188.7503, 7647.521
189.2324, 7669.968
189.7145, 7647.865
190.1966, 7592.062
190.6787, 7572.604
191.1608, 7597.290
191.6430, 7639.898
192.1251, 7662.081
192.6072, 7663.214
193.0893, 7659.263
193.5714, 7657.778
194.0535, 7658.542
194.5357, 7657.667
195.0178, 7654.646
195.4999, 7650.403
195.9820, 7646.503
196.4641, 7642.951
196.9462, 7639.864
197.4284, 7637.927
197.9105, 7637.228
198.3926, 7633.899
198.8747, 7625.526
199.3568, 7615.828
199.8389, 7616.687
200.3211, 7630.045
200.8032, 7645.944
201.2853, 7657.877
201.7674, 7665.593
202.2495, 7672.176
202.7316, 7680.071
203.2138, 7686.746
203.6959, 7677.468
204.1780, 7646.279
204.6601, 7615.551
205.1422, 7607.360
205.6243, 7627.725
206.1065, 7639.653
206.5886, 7633.701
207.0707, 7612.503
207.5528, 7599.178
208.0349, 7596.413
208.5170, 7596.341
208.9992, 7590.095
209.4813, 7574.542
209.9634, 7563.756
210.4455, 7561.722
210.9276, 7568.299
211.4097, 7575.510
211.8919, 7586.127
212.3740, 7593.406
212.8561, 7588.416
213.3382, 7566.921
213.8203, 7544.688
214.3024, 7524.520
214.7846, 7506.172
215.2667, 7495.067
215.7488, 7494.042
216.2309, 7497.078
216.7130, 7494.933
217.1951, 7483.252
217.6773, 7476.334
218.1594, 7479.798
218.6415, 7496.157
219.1236, 7510.073
219.6057, 7524.008
220.0878, 7533.813
220.5700, 7530.422
221.0521, 7504.849
221.5342, 7483.566
222.0163, 7477.507
222.4984, 7493.092
222.9805, 7500.915
223.4627, 7500.175
223.9448, 7492.007
224.4269, 7477.020
224.9090, 7448.510
225.3911, 7424.469
225.8732, 7411.339
226.3554, 7410.079
226.8375, 7418.988
227.3196, 7446.029
227.8017, 7480.117
228.2838, 7493.999
228.7659, 7477.451
229.2481, 7456.348
229.7302, 7442.814
230.2123, 7443.996
230.6944, 7435.581
231.1765, 7411.902
231.6587, 7379.719
232.1408, 7357.967
232.6229, 7348.712
233.1050, 7347.294
233.5871, 7352.737
234.0692, 7371.000
234.5514, 7383.342
235.0335, 7386.948
235.5156, 7384.271
235.9977, 7384.588
236.4798, 7391.954
236.9619, 7396.877
237.4441, 7393.003
237.9262, 7372.167
238.4083, 7360.188
238.8904, 7363.104
239.3725, 7376.501
239.8546, 7378.354
240.3368, 7357.088
240.8189, 7339.148
241.3010, 7342.608
241.7831, 7384.758
242.2652, 7412.411
242.7473, 7417.451
243.2295, 7403.658
243.7116, 7393.161
244.1937, 7387.529
244.6758, 7383.056
245.1579, 7376.497
245.6400, 7362.990
246.1222, 7357.985
246.6043, 7366.404
247.0864, 7385.749
247.5685, 7397.528
248.0506, 7395.677
248.5327, 7394.178
249.0149, 7404.576
249.4970, 7438.500
249.9791, 7458.927
250.4612, 7458.775
250.9433, 7440.236
251.4254, 7421.115
251.9076, 7395.931
252.3897, 7377.546
252.8718, 7378.418
253.3539, 7412.243
253.8360, 7432.928
254.3181, 7430.279
254.8003, 7407.505
255.2824, 7393.210
255.7645, 7387.959
256.2466, 7390.362
256.7287, 7401.542
257.2108, 7428.173
257.6930, 7446.534
258.1751, 7450.348
258.6572, 7441.772
259.1393, 7440.583
259.6214, 7450.361
260.1035, 7462.045
260.5857, 7468.748
261.0678, 7469.853
261.5499, 7467.271
262.0320, 7458.328
262.5141, 7444.741
262.9962, 7443.144
263.4784, 7458.344
263.9605, 7477.552
264.4426, 7490.677
264.9247, 7496.014
265.4068, 7501.770
265.8889, 7511.500
266.3711, 7523.350
266.8532, 7521.670
267.3353, 7499.912
267.8174, 7477.335
268.2995, 7468.280
268.7816, 7473.761
269.2638, 7490.467
269.7459, 7524.302
270.2280, 7569.580
270.7101, 7590.733
271.1922, 7580.725
271.6743, 7562.512
272.1565, 7556.278
272.6386, 7565.015
273.1207, 7566.758
273.6028, 7553.323
274.0849, 7530.441
274.5670, 7526.818
275.0492, 7546.063
275.5313, 7574.258
276.0134, 7603.164
276.4955, 7633.801
276.9776, 7654.934
277.4597, 7663.045
277.9419, 7660.529
278.4240, 7652.609
278.9061, 7636.107
279.3882, 7627.659
279.8703, 7648.336
280.3524, 7699.250
280.8346, 7733.203
281.3167, 7737.295
281.7988, 7722.281
282.2809, 7725.036
282.7630, 7749.039
283.2451, 7766.797
283.7273, 7741.302
284.2094, 7676.779
284.6915, 7656.148
285.1736, 7708.657
285.6557, 7798.802
286.1378, 7833.682
286.6200, 7810.269
287.1021, 7778.256
287.5842, 7775.610
288.0663, 7798.567
288.5484, 7819.852
289.0305, 7834.430
289.5127, 7846.106
289.9948, 7865.568
290.4769, 7892.630
290.9590, 7914.746
291.4411, 7916.928
291.9232, 7905.020
292.4054, 7904.454
292.8875, 7922.061
293.3696, 7947.063
293.8517, 7960.764
294.3338, 7964.240
294.8159, 7967.185
295.2981, 7972.045
295.7802, 7981.238
296.2623, 8003.889
296.7444, 8045.854
297.2265, 8090.467
297.7086, 8113.097
298.1908, 8116.870
298.6729, 8118.980
299.1550, 8130.431
299.6371, 8147.316
300.1192, 8161.691
300.6013, 8171.250
301.0835, 8182.097
301.5656, 8203.213
302.0477, 8231.904
302.5298, 8258.459
303.0119, 8278.700
303.4940, 8293.436
303.9762, 8301.099
304.4583, 8298.888
304.9404, 8300.704
305.4225, 8322.446
305.9046, 8357.912
306.3867, 8393.194
306.8689, 8423.658
307.3510, 8449.054
307.8331, 8465.295
308.3152, 8470.073
308.7973, 8478.911
309.2794, 8508.625
309.7616, 8549.220
310.2437, 8583.898
310.7258, 8601.147
311.2079, 8611.950
311.6900, 8625.209
312.1721, 8642.121
312.6543, 8654.102
313.1364, 8645.627
313.6185, 8631.941
314.1006, 8633.617
314.5827, 8680.979
315.0648, 8727.329
315.5470, 8745.018
316.0291, 8731.273
316.5112, 8718.510
316.9933, 8712.086
317.4754, 8715.990
317.9576, 8734.338
318.4397, 8800.867
318.9218, 8851.494
319.4039, 8853.342
319.8860, 8806.440
320.3681, 8771.757
320.8503, 8772.695
321.3324, 8787.814
321.8145, 8800.209
322.2966, 8802.167
322.7787, 8806.078
323.2608, 8817.992
323.7430, 8836.626
324.2251, 8846.720
324.7072, 8847.330
325.1893, 8838.440
325.6714, 8820.038
326.1535, 8778.218
326.6357, 8742.951
327.1178, 8719.305
327.5999, 8705.104
328.0820, 8688.675
328.5641, 8665.704
329.0462, 8644.339
329.5284, 8629.314
330.0105, 8635.067
330.4926, 8623.529
330.9747, 8579.360
331.4568, 8518.229
331.9389, 8489.409
332.4211, 8515.565
332.9032, 8543.143
333.3853, 8547.780
333.8674, 8516.674
334.3495, 8498.176
334.8316, 8498.115
335.3138, 8506.831
335.7959, 8505.520
336.2780, 8492.884
336.7601, 8473.375
337.2422, 8444.851
337.7243, 8403.984
338.2065, 8381.576
338.6886, 8383.255
339.1707, 8394.332
339.6528, 8391.975
340.1349, 8373.217
340.6170, 8357.920
341.0992, 8353.032
341.5813, 8357.780
342.0634, 8365.880
342.5455, 8379.545
343.0276, 8388.386
343.5097, 8373.238
343.9919, 8334.966
344.4740, 8311.885
344.9561, 8323.060
345.4382, 8354.174
345.9203, 8359.650
346.4024, 8338.357
346.8846, 8310.578
347.3667, 8295.173
347.8488, 8288.793
348.3309, 8278.251
348.8130, 8258.012
349.2951, 8235.008
349.7773, 8218.815
350.2594, 8209.585
350.7415, 8208.610
351.2236, 8225.178
351.7057, 8249.348
352.1878, 8260.522
352.6700, 8249.676
353.1521, 8236.913
353.6342, 8248.786
354.1163, 8277.565
354.5984, 8298.476
355.0806, 8284.760
355.5627, 8262.471
356.0448, 8263.169
356.5269, 8298.475
357.0090, 8326.280
357.4911, 8302.151
357.9733, 8252.297
358.4554, 8223.594
358.9375, 8257.162
359.4196, 8302.415
359.9017, 8329.067
360.3839, 8332.857
360.8660, 8332.779
361.3481, 8336.095
361.8302, 8339.743
362.3123, 8340.291
362.7944, 8326.767
363.2766, 8319.536
363.7587, 8334.005
364.2408, 8370.163
364.7229, 8386.050
365.2050, 8340.713
365.6871, 8290.945
366.1693, 8277.193
366.6514, 8353.882
367.1335, 8410.084
367.6156, 8418.608
368.0977, 8388.537
368.5798, 8385.141
369.0620, 8441.724
369.5441, 8494.582
370.0262, 8511.705
370.5083, 8459.969
370.9904, 8429.970
371.4725, 8432.092
371.9547, 8453.806
372.4368, 8461.610
372.9189, 8444.254
373.4010, 8434.147
373.8831, 8448.213
374.3652, 8493.550
374.8474, 8521.886
375.3295, 8526.675
375.8116, 8522.940
376.2937, 8536.313
376.7758, 8571.170
377.2579, 8596.789
377.7401, 8598.168
378.2222, 8579.291
378.7043, 8576.519
379.1864, 8592.818
379.6685, 8612.512
380.1506, 8614.016
380.6328, 8600.010
381.1149, 8600.854
381.5970, 8630.226
382.0791, 8674.002
382.5612, 8699.503
383.0433, 8707.639
383.5255, 8714.727
384.0076, 8734.214
384.4897, 8761.712
384.9718, 8789.116
385.4539, 8816.402
385.9360, 8839.302
386.4182, 8847.469
386.9003, 8845.812
387.3824, 8851.005
387.8645, 8880.974
388.3466, 8918.343
388.8287, 8943.306
389.3109, 8951.736
389.7930, 8960.305
390.2751, 8978.714
390.7572, 9004.753
391.2393, 9034.884
391.7214, 9069.617
392.2036, 9106.865
392.6857, 9152.703
393.1678, 9207.259
393.6499, 9242.946
394.1320, 9222.177
394.6141, 9192.002
395.0963, 9192.475
395.5784, 9268.280
396.0605, 9337.104
396.5426, 9372.640
397.0247, 9382.380
397.5068, 9408.188
397.9890, 9473.025
398.4711, 9540.405
398.9532, 9592.660
399.4353, 9614.797
399.9174, 9646.772
400.3995, 9693.330
400.8817, 9748.163
401.3638, 9798.101
401.8459, 9841.394
402.3280, 9882.499
402.8101, 9920.676
403.2922, 9953.946
403.7744, 9999.371
404.2565, 10059.97
404.7386, 10128.58
405.2207, 10201.12
405.7028, 10279.28
406.1849, 10350.71
406.6671, 10410.96
407.1492, 10462.44
407.6313, 10514.15
408.1134, 10566.46
408.5955, 10619.48
409.0776, 10673.30
409.5598, 10727.88
410.0419, 10787.23
410.5240, 10854.38
411.0061, 10922.14
411.4882, 10978.00
411.9703, 11022.97
412.4525, 11063.86
412.9346, 11109.10
413.4167, 11150.82
413.8988, 11173.37
414.3809, 11173.17
414.8630, 11169.35
415.3452, 11182.24
415.8273, 11202.36
416.3094, 11213.11
416.7915, 11197.96
417.2736, 11178.65
417.7557, 11174.35
418.2379, 11183.52
418.7200, 11182.04
419.2021, 11155.38
419.6842, 11114.95
420.1663, 11069.61
420.6484, 11009.30
421.1306, 10959.40
421.6127, 10935.58
422.0948, 10928.81
422.5769, 10910.92
423.0590, 10865.18
423.5411, 10817.90
424.0233, 10779.97
424.5054, 10756.09
424.9875, 10731.02
425.4696, 10699.12
425.9517, 10669.17
426.4338, 10654.24
426.9160, 10666.86
427.3981, 10671.69
427.8802, 10656.87
428.3623, 10623.57
428.8444, 10605.07
429.3265, 10606.44
429.8087, 10611.54
430.2908, 10603.92
430.7729, 10581.16
431.2550, 10572.13
431.7371, 10583.65
432.2192, 10607.91
432.7014, 10627.24
433.1835, 10641.69
433.6656, 10657.10
434.1477, 10678.63
434.6298, 10703.83
435.1119, 10722.08
435.5941, 10731.09
436.0762, 10744.04
436.5583, 10779.65
437.0404, 10830.58
437.5225, 10879.03
438.0046, 10915.68
438.4868, 10947.83
438.9689, 10984.33
439.4510, 11024.41
439.9331, 11059.46
440.4152, 11073.93
440.8973, 11086.41
441.3795, 11115.33
441.8616, 11173.00
442.3437, 11233.98
442.8258, 11283.98
443.3079, 11329.36
443.7900, 11383.78
444.2722, 11461.33
444.7543, 11538.96
445.2364, 11607.08
445.7185, 11661.67
446.2006, 11717.72
446.6827, 11780.58
447.1649, 11843.31
447.6470, 11898.43
448.1291, 11939.56
448.6112, 11982.79
449.0933, 12028.56
449.5754, 12077.58
450.0576, 12136.60
450.5397, 12205.91
451.0218, 12285.03
451.5039, 12381.93
451.9860, 12503.17
452.4681, 12590.61
452.9503, 12632.43
453.4324, 12659.09
453.9145, 12727.70
454.3966, 12837.73
454.8787, 12939.57
455.3608, 13004.20
455.8430, 13047.52
456.3251, 13121.65
456.8072, 13226.57
457.2893, 13329.05
457.7714, 13386.75
458.2535, 13422.24
458.7357, 13480.21
459.2178, 13586.62
459.6999, 13695.76
460.1820, 13764.26
460.6641, 13803.13
461.1462, 13846.04
461.6284, 13913.71
462.1105, 13989.12
462.5926, 14059.69
463.0747, 14123.05
463.5568, 14191.30
464.0389, 14276.13
464.5211, 14364.86
465.0032, 14442.35
465.4853, 14504.35
465.9674, 14556.50
466.4495, 14591.31
466.9316, 14611.93
467.4138, 14648.93
467.8959, 14713.64
468.3780, 14782.64
468.8601, 14846.11
469.3422, 14907.88
469.8243, 14951.26
470.3065, 14965.03
470.7886, 14971.51
471.2707, 15014.28
471.7528, 15103.01
472.2349, 15178.55
472.7170, 15217.99
473.1992, 15228.59
473.6813, 15242.70
474.1634, 15259.29
474.6455, 15289.82
475.1276, 15360.38
475.6097, 15455.79
476.0919, 15518.74
476.5740, 15530.10
477.0561, 15527.24
477.5382, 15550.06
478.0203, 15595.21
478.5024, 15652.54
478.9846, 15739.69
479.4667, 15822.42
479.9488, 15860.60
480.4309, 15850.64
480.9130, 15846.53
481.3951, 15885.11
481.8773, 15939.01
482.3594, 15982.26
482.8415, 15996.42
483.3236, 16012.19
483.8057, 16047.12
484.2878, 16091.32
484.7700, 16109.96
485.2521, 16067.56
485.7342, 16028.93
486.2163, 16020.70
486.6984, 16058.27
487.1805, 16065.07
487.6627, 16025.29
488.1448, 15971.26
488.6269, 15942.41
489.1090, 15949.19
489.5911, 15939.05
490.0732, 15897.95
490.5554, 15834.20
491.0375, 15770.89
491.5196, 15706.86
492.0017, 15651.62
492.4838, 15623.39
492.9659, 15609.84
493.4481, 15560.03
493.9302, 15466.26
494.4123, 15359.79
494.8944, 15276.84
495.3765, 15208.00
495.8586, 15129.23
496.3408, 15025.57
496.8229, 14912.28
497.3050, 14798.87
497.7871, 14686.01
498.2692, 14571.21
498.7513, 14451.41
499.2335, 14331.66
499.7156, 14216.90
500.1977, 14113.35
500.6798, 14001.72
501.1619, 13863.01
501.6440, 13719.00
502.1262, 13598.90
502.6083, 13539.79
503.0904, 13464.95
503.5725, 13356.44
504.0546, 13215.87
504.5367, 13089.07
505.0189, 12983.12
505.5010, 12879.37
505.9831, 12761.54
506.4652, 12625.60
506.9473, 12508.41
507.4294, 12416.42
507.9116, 12334.94
508.3937, 12231.14
508.8758, 12107.74
509.3579, 12005.86
509.8400, 11958.61
510.3221, 11934.45
510.8043, 11863.56
511.2864, 11749.29
511.7685, 11626.09
512.2506, 11504.01
512.7327, 11393.82
513.2148, 11313.62
513.6970, 11274.90
514.1791, 11240.57
514.6612, 11187.16
515.1433, 11123.18
515.6254, 11061.41
516.1075, 11011.71
516.5897, 10959.54
517.0718, 10892.52
517.5539, 10811.41
518.0360, 10751.17
518.5181, 10740.71
519.0002, 10732.39
519.4824, 10701.49
519.9645, 10632.32
520.4466, 10574.13
520.9287, 10530.66
521.4108, 10495.00
521.8929, 10452.53
522.3751, 10398.64
522.8572, 10363.38
523.3393, 10365.31
523.8214, 10391.25
524.3035, 10385.02
524.7856, 10345.79
525.2678, 10298.17
525.7499, 10255.45
526.2320, 10219.12
526.7141, 10194.10
527.1962, 10182.38
527.6783, 10178.00
528.1605, 10181.30
528.6426, 10187.42
529.1247, 10187.52
529.6068, 10177.95
530.0889, 10161.32
530.5710, 10136.10
531.0532, 10103.99
531.5353, 10072.65
532.0174, 10043.05
532.4995, 10016.35
532.9816, 9991.755
533.4637, 9960.718
533.9459, 9951.393
534.4280, 9978.591
534.9101, 10019.17
535.3922, 10047.81
535.8743, 10067.06
536.3564, 10066.48
536.8386, 10034.98
537.3207, 9984.092
537.8028, 9964.762
538.2849, 9982.129
538.7670, 10000.83
539.2491, 9997.051
539.7313, 9975.829
540.2134, 9961.750
540.6955, 9956.123
541.1776, 9954.339
541.6597, 9951.718
542.1418, 9949.318
542.6240, 9949.411
543.1061, 9953.134
543.5882, 9958.999
544.0703, 9971.205
544.5524, 9985.318
545.0345, 9988.775
545.5167, 9962.356
545.9988, 9934.948
546.4809, 9923.910
546.9630, 9933.965
547.4451, 9938.584
547.9272, 9925.301
548.4094, 9910.572
548.8915, 9907.836
549.3736, 9929.382
549.8557, 9939.798
550.3378, 9932.228
550.8199, 9914.877
551.3021, 9905.662
551.7842, 9905.518
552.2663, 9909.191
552.7484, 9915.507
553.2305, 9924.053
553.7126, 9936.794
554.1948, 9954.506
554.6769, 9961.786
555.1590, 9930.174
555.6411, 9881.255
556.1232, 9864.382
556.6053, 9895.070
557.0875, 9931.792
557.5696, 9936.524
558.0517, 9922.552
558.5338, 9913.353
559.0159, 9925.313
559.4980, 9936.813
559.9802, 9932.974
560.4623, 9916.992
560.9444, 9914.087
561.4265, 9953.640
561.9086, 9986.760
562.3907, 9984.979
562.8729, 9925.918
563.3550, 9905.898
563.8371, 9948.299
564.3192, 10004.37
564.8013, 10016.01
565.2834, 9973.188
565.7656, 9939.648
566.2477, 9927.142
566.7298, 9930.273
567.2119, 9938.564
567.6940, 9951.803
568.1761, 9965.644
568.6583, 9978.175
569.1404, 9989.690
569.6225, 10005.35
570.1046, 10024.72
570.5867, 10031.78
571.0688, 10000.36
571.5510, 9956.889
572.0331, 9930.234
572.5152, 9930.991
572.9973, 9940.538
573.4794, 9954.651
573.9615, 9972.579
574.4437, 9992.518
574.9258, 10027.60
575.4079, 10049.90
575.8900, 10051.39
576.3721, 10033.80
576.8542, 10011.73
577.3364, 9974.632
577.8185, 9953.688
578.3006, 9979.713
578.7827, 10057.45
579.2648, 10086.66
579.7469, 10058.62
580.2291, 10011.07
580.7112, 9983.078
581.1933, 9972.354
581.6754, 9970.129
582.1575, 9975.882
582.6396, 9986.405
583.1218, 9999.789
583.6039, 10015.16
584.0860, 10030.01
584.5681, 10045.81
585.0502, 10058.68
585.5323, 10063.04
586.0145, 10058.70
586.4966, 10061.18
586.9787, 10088.50
587.4608, 10114.20
587.9429, 10119.88
588.4250, 10087.32
588.9072, 10070.09
589.3893, 10072.38
589.8714, 10086.57
590.3535, 10105.82
590.8356, 10133.88
591.3177, 10147.29
591.7999, 10135.68
592.2820, 10109.48
592.7641, 10097.77
593.2462, 10100.03
593.7283, 10104.65
594.2104, 10106.83
594.6926, 10106.09
595.1747, 10097.51
595.6568, 10080.85
596.1389, 10072.45
596.6210, 10089.53
597.1031, 10118.17
597.5853, 10144.93
598.0674, 10170.89
598.5495, 10187.54
599.0316, 10185.43
599.5137, 10174.09
599.9958, 10169.85
600.4780, 10184.53
600.9601, 10191.68
601.4423, 10181.39
601.9244, 10158.73
602.4065, 10153.72
602.8886, 10172.09
603.3707, 10190.49
603.8528, 10191.23
604.3350, 10177.26
604.8171, 10185.46
605.2992, 10218.84
605.7813, 10254.21
606.2634, 10273.39
606.7455, 10278.04
607.2277, 10269.13
607.7098, 10240.11
608.1919, 10214.24
608.6740, 10213.76
609.1561, 10228.86
609.6382, 10241.85
610.1204, 10239.44
610.6025, 10241.29
611.0846, 10261.17
611.5667, 10295.86
612.0488, 10312.34
612.5309, 10291.74
613.0131, 10274.08
613.4952, 10280.05
613.9773, 10315.74
614.4594, 10325.63
614.9415, 10302.44
615.4236, 10272.50
615.9058, 10263.04
616.3879, 10272.06
616.8700, 10278.99
617.3521, 10278.33
617.8342, 10280.83
618.3163, 10310.92
618.7985, 10355.67
619.2806, 10383.10
619.7627, 10366.09
620.2448, 10338.44
620.7269, 10320.37
621.2090, 10311.21
621.6912, 10306.51
622.1733, 10305.72
622.6554, 10308.30
623.1375, 10313.89
623.6196, 10322.35
624.1017, 10335.65
624.5839, 10359.54
625.0660, 10381.53
625.5481, 10389.50
626.0302, 10379.43
626.5123, 10381.33
626.9944, 10400.97
627.4766, 10425.65
627.9587, 10432.88
628.4408, 10426.23
628.9229, 10427.71
629.4050, 10452.62
629.8871, 10479.95
630.3693, 10483.42
630.8514, 10467.28
631.3335, 10445.73
631.8156, 10412.56
632.2977, 10386.94
632.7798, 10380.93
633.2620, 10395.23
633.7441, 10422.10
634.2262, 10491.49
634.7083, 10548.26
635.1904, 10556.85
635.6725, 10488.62
636.1547, 10448.79
636.6368, 10445.64
637.1189, 10459.41
637.6010, 10465.11
638.0831, 10462.48
638.5652, 10471.21
639.0474, 10500.75
639.5295, 10534.17
640.0116, 10535.31
640.4937, 10513.66
640.9758, 10502.78
641.4579, 10529.11
641.9401, 10566.19
642.4222, 10593.51
642.9043, 10611.67
643.3864, 10626.06
643.8685, 10634.93
644.3506, 10643.93
