##NAMES=Gmelinite-Na
##RRUFFID=R050371
##IDEAL CHEMISTRY=Na_4_(Si_8_Al_4_)O_24_&#183;11H_2_O
##LOCALITY=Cairns Bay, Flinders Range, Australia
##OWNER=RRUFF
##SOURCE=Eugene Schlepp
##DESCRIPTION=Colorless to pink crystals lining a basalt vug
##STATUS=The identification of this mineral has been confirmed by X-ray diffraction and chemical analysis
##URL=rruff.info/R050371
##MEASURED CHEMISTRY=Na_3.81_(Si_8.13_Al_3.88_)O_24_Â·4.27H_2_O
92.52344, 612.4030
93.00555, 608.5039
93.48767, 609.4024
93.96979, 628.1368
94.45190, 646.8532
94.93402, 663.7157
95.41614, 669.7272
95.89825, 667.4913
96.38037, 662.3395
96.86249, 654.9991
97.34460, 648.0361
97.82672, 642.9489
98.30884, 637.6719
98.79095, 632.3193
99.27307, 625.8223
99.75519, 617.2222
100.2373, 607.7166
100.7194, 598.0277
101.2015, 589.3873
101.6837, 580.8870
102.1658, 573.5732
102.6479, 568.5401
103.1300, 565.8578
103.6121, 563.8480
104.0942, 561.3427
104.5764, 558.5526
105.0585, 555.8965
105.5406, 553.2662
106.0227, 550.7933
106.5048, 549.0255
106.9869, 548.3234
107.4691, 547.4994
107.9512, 546.0784
108.4333, 544.0982
108.9154, 541.6997
109.3975, 538.7195
109.8796, 534.8898
110.3618, 532.1034
110.8439, 531.0463
111.3260, 530.3900
111.8081, 529.5799
112.2902, 528.5514
112.7723, 527.5872
113.2544, 527.1064
113.7366, 527.4431
114.2187, 527.6956
114.7008, 527.5643
115.1829, 527.4900
115.6650, 527.9460
116.1471, 529.1060
116.6293, 530.6578
117.1114, 531.9286
117.5935, 533.1832
118.0756, 533.7675
118.5577, 532.7153
119.0398, 530.7928
119.5220, 529.9792
120.0041, 531.6042
120.4862, 534.5386
120.9683, 536.0262
121.4504, 535.1673
121.9325, 534.3761
122.4147, 535.9649
122.8968, 540.1509
123.3789, 544.0340
123.8610, 545.9532
124.3431, 546.8459
124.8252, 547.4177
125.3074, 547.7992
125.7895, 548.0762
126.2716, 548.3378
126.7537, 548.2321
127.2358, 548.8127
127.7179, 550.8680
128.2001, 553.5721
128.6822, 555.8595
129.1643, 557.0228
129.6464, 557.1544
130.1285, 557.3592
130.6107, 558.4116
131.0928, 558.7833
131.5749, 557.5754
132.0570, 555.3093
132.5391, 553.1909
133.0212, 552.3724
133.5034, 553.1776
133.9855, 553.0231
134.4676, 551.9629
134.9497, 550.1534
135.4318, 547.4217
135.9139, 543.8622
136.3960, 540.0248
136.8782, 536.5390
137.3603, 533.4895
137.8424, 530.3676
138.3245, 527.1339
138.8066, 523.8245
139.2887, 520.5898
139.7709, 517.5428
140.2530, 514.3055
140.7351, 509.9736
141.2172, 504.6670
141.6993, 500.0840
142.1814, 497.7572
142.6636, 496.9679
143.1457, 494.9053
143.6278, 490.2030
144.1099, 484.8989
144.5920, 480.6996
145.0741, 477.6439
145.5563, 474.9582
146.0384, 471.9623
146.5205, 468.6038
147.0026, 465.4464
147.4847, 462.7847
147.9668, 460.2271
148.4490, 457.5600
148.9311, 454.7503
149.4132, 451.8854
149.8953, 449.1496
150.3774, 446.7446
150.8595, 443.9898
151.3417, 440.4831
151.8238, 436.8754
152.3059, 433.6738
152.7880, 431.0883
153.2701, 428.9473
153.7522, 426.8666
154.2344, 425.2744
154.7165, 423.2302
155.1986, 420.6465
155.6807, 417.6061
156.1628, 413.9748
156.6449, 409.6024
157.1271, 404.9234
157.6092, 401.8410
158.0913, 402.0086
158.5734, 401.5880
159.0555, 399.1341
159.5376, 395.2105
160.0198, 391.2826
160.5019, 388.1471
160.9840, 385.6343
161.4661, 383.0171
161.9482, 380.4219
162.4303, 377.6050
162.9125, 374.2197
163.3946, 370.2968
163.8767, 366.5833
164.3588, 363.6359
164.8409, 361.1906
165.3230, 358.7803
165.8052, 356.4000
166.2873, 353.9718
166.7694, 351.3707
167.2515, 348.4925
167.7336, 345.7722
168.2157, 343.5857
168.6979, 341.6192
169.1800, 339.4349
169.6621, 336.6713
170.1442, 333.7007
170.6263, 331.6472
171.1084, 331.2129
171.5906, 330.6172
172.0727, 329.5238
172.5548, 327.8970
173.0369, 325.5795
173.5190, 322.3017
174.0011, 318.2693
174.4833, 315.2386
174.9654, 314.3299
175.4475, 313.3857
175.9296, 311.7067
176.4117, 309.6654
176.8938, 308.0713
177.3760, 307.6412
177.8581, 308.4343
178.3402, 308.0339
178.8223, 305.4267
179.3044, 302.7718
179.7865, 300.7086
180.2687, 299.2469
180.7508, 298.1932
181.2329, 297.4387
181.7150, 297.0190
182.1971, 296.4425
182.6792, 295.7597
183.1614, 294.9133
183.6435, 293.7416
184.1256, 292.2907
184.6077, 290.9019
185.0898, 289.8769
185.5719, 289.2596
186.0541, 288.7332
186.5362, 288.5501
187.0183, 288.3058
187.5004, 287.5289
187.9825, 286.1429
188.4646, 284.6811
188.9468, 283.6838
189.4289, 283.0390
189.9110, 282.2764
190.3931, 280.9309
190.8752, 279.5164
191.3573, 278.9702
191.8395, 279.6430
192.3216, 280.3870
192.8037, 280.3067
193.2858, 279.6338
193.7679, 278.8168
194.2500, 277.7682
194.7322, 276.7003
195.2143, 276.3666
195.6964, 277.2033
196.1785, 278.1563
196.6606, 278.9629
197.1427, 279.4641
197.6249, 279.2592
198.1070, 277.6600
198.5891, 274.8865
199.0712, 273.2383
199.5533, 273.8078
200.0354, 274.3693
200.5176, 274.0850
200.9997, 273.1216
201.4818, 271.9473
201.9639, 270.9154
202.4460, 270.0307
202.9281, 269.0820
203.4103, 267.8861
203.8924, 266.8007
204.3745, 266.1040
204.8566, 265.6381
205.3387, 265.0217
205.8208, 263.8924
206.3030, 262.1746
206.7851, 260.6112
207.2672, 259.1039
207.7493, 257.8164
208.2314, 257.0913
208.7135, 256.7301
209.1957, 256.1364
209.6778, 254.7238
210.1599, 252.3453
210.6420, 250.2869
211.1241, 249.0715
211.6062, 247.6685
212.0884, 245.1108
212.5705, 241.6549
213.0526, 238.6634
213.5347, 237.5174
214.0168, 238.5209
214.4989, 238.3792
214.9811, 236.3518
215.4632, 233.8671
215.9453, 231.7391
216.4274, 230.0425
216.9095, 228.5885
217.3916, 227.2349
217.8737, 225.9948
218.3559, 224.8928
218.8380, 224.1431
219.3201, 223.3868
219.8022, 222.2197
220.2843, 220.6134
220.7664, 219.0525
221.2486, 218.0616
221.7307, 217.4656
222.2128, 216.5461
222.6949, 214.6317
223.1770, 212.6387
223.6591, 211.9466
224.1413, 212.8245
224.6234, 213.3534
225.1055, 211.5291
225.5876, 208.3999
226.0697, 205.8406
226.5518, 204.6559
227.0340, 204.1471
227.5161, 203.2297
227.9982, 201.7256
228.4803, 200.4337
228.9624, 200.2182
229.4445, 200.4151
229.9267, 200.0791
230.4088, 198.5527
230.8909, 196.5708
231.3730, 195.6796
231.8551, 196.3614
232.3372, 196.9235
232.8194, 196.4879
233.3015, 195.6028
233.7836, 194.8872
234.2657, 194.6123
234.7478, 194.6248
235.2299, 194.6385
235.7121, 194.8186
236.1942, 194.6340
236.6763, 193.6521
237.1584, 192.3995
237.6405, 191.4209
238.1227, 190.9542
238.6048, 190.8586
239.0869, 190.7930
239.5690, 190.7953
240.0511, 190.7584
240.5332, 190.6080
241.0154, 190.4382
241.4975, 190.3695
241.9796, 190.4553
242.4617, 190.6037
242.9438, 190.5740
243.4259, 190.2121
243.9081, 189.9061
244.3902, 189.9009
244.8723, 189.8742
245.3544, 189.4582
245.8365, 188.5166
246.3186, 187.2980
246.8008, 186.3567
247.2829, 185.8461
247.7650, 185.4330
248.2471, 185.1524
248.7292, 184.9267
249.2113, 184.7516
249.6935, 184.6102
250.1756, 184.3751
250.6577, 183.7695
251.1398, 182.1378
251.6219, 181.1134
252.1040, 181.4048
252.5862, 181.9044
253.0683, 181.3689
253.5504, 179.5110
254.0325, 177.3584
254.5146, 176.6569
254.9967, 178.8025
255.4789, 179.8487
255.9610, 179.0584
256.4431, 177.6116
256.9252, 176.5018
257.4073, 175.9651
257.8894, 175.6306
258.3716, 174.9554
258.8537, 173.6089
259.3358, 172.8881
259.8179, 173.4088
260.3000, 174.1848
260.7821, 174.2704
261.2643, 173.5257
261.7464, 172.6171
262.2285, 172.3046
262.7106, 172.7737
263.1927, 172.9563
263.6748, 172.5875
264.1570, 172.0834
264.6391, 171.7531
265.1212, 171.6360
265.6033, 171.6768
266.0854, 171.8397
266.5675, 172.1381
267.0497, 172.5150
267.5318, 173.2394
268.0139, 173.8526
268.4960, 173.8861
268.9781, 173.3415
269.4602, 172.7277
269.9424, 172.3987
270.4245, 172.3483
270.9066, 172.3476
271.3887, 172.4222
271.8708, 172.5244
272.3529, 172.5757
272.8351, 172.5898
273.3172, 172.7197
273.7993, 173.0692
274.2814, 173.6218
274.7635, 174.2625
275.2456, 175.1761
275.7278, 175.9667
276.2099, 176.1106
276.6920, 175.7233
277.1741, 175.7883
277.6562, 176.9364
278.1383, 178.7510
278.6205, 180.2863
279.1026, 181.5489
279.5847, 182.5513
280.0668, 183.0775
280.5489, 183.2476
281.0310, 183.7830
281.5132, 185.0320
281.9953, 186.6938
282.4774, 188.4320
282.9595, 190.3456
283.4416, 191.7805
283.9237, 191.7988
284.4059, 190.8489
284.8880, 190.9110
285.3701, 192.8171
285.8522, 195.4329
286.3343, 197.5937
286.8164, 199.3204
287.2986, 200.8922
287.7807, 202.4410
288.2628, 203.9522
288.7449, 205.2957
289.2270, 206.2726
289.7091, 207.4321
290.1913, 209.2964
290.6734, 211.7189
291.1555, 214.2734
291.6376, 216.9209
292.1197, 219.5297
292.6018, 221.7825
293.0840, 223.5437
293.5661, 225.1970
294.0482, 226.7365
294.5303, 228.3531
295.0124, 230.5480
295.4945, 234.2145
295.9767, 238.1825
296.4588, 240.1719
296.9409, 239.7348
297.4230, 238.8464
297.9051, 238.6895
298.3872, 238.6273
298.8694, 237.8069
299.3515, 235.7851
299.8336, 233.2626
300.3157, 231.0396
300.7978, 229.0889
301.2799, 227.5396
301.7621, 226.8429
302.2442, 226.3692
302.7263, 225.5107
303.2084, 224.1041
303.6905, 222.6300
304.1726, 221.4791
304.6548, 220.6511
305.1369, 220.2566
305.6190, 220.6272
306.1011, 221.2227
306.5832, 221.5749
307.0653, 221.6654
307.5475, 221.8699
308.0296, 222.5276
308.5117, 223.6057
308.9938, 224.7711
309.4759, 226.2356
309.9580, 227.4525
310.4402, 227.9236
310.9223, 227.8171
311.4044, 227.7792
311.8865, 228.1899
312.3686, 228.9964
312.8507, 229.9773
313.3329, 231.1172
313.8150, 232.4736
314.2971, 234.3812
314.7792, 236.4839
315.2613, 238.0874
315.7434, 238.6336
316.2256, 238.6526
316.7077, 239.3507
317.1898, 240.9810
317.6719, 242.6086
318.1540, 243.7029
318.6361, 244.6213
319.1183, 245.8609
319.6004, 247.7409
320.0825, 249.5204
320.5646, 249.9865
321.0467, 248.8920
321.5288, 248.0777
322.0110, 248.8900
322.4931, 249.7261
322.9752, 249.1742
323.4573, 246.9958
323.9394, 244.3787
324.4215, 242.3644
324.9037, 240.9528
325.3858, 239.5821
325.8679, 238.1035
326.3500, 236.7160
326.8321, 235.7720
327.3142, 235.1504
327.7964, 234.1448
328.2785, 232.1112
328.7606, 229.2453
329.2427, 226.4293
329.7248, 223.5831
330.2069, 221.0340
330.6891, 219.3327
331.1712, 218.0405
331.6533, 216.1648
332.1354, 212.8183
332.6175, 208.8318
333.0996, 206.0239
333.5818, 204.7388
334.0639, 203.4789
334.5460, 201.2988
335.0281, 198.7925
335.5102, 196.6648
335.9923, 195.1946
336.4745, 193.8916
336.9566, 192.0339
337.4387, 189.5746
337.9208, 187.4728
338.4029, 186.0144
338.8850, 185.1209
339.3671, 184.9271
339.8492, 185.5083
340.3314, 185.8586
340.8135, 185.1358
341.2956, 183.4716
341.7777, 181.6063
342.2598, 179.2331
342.7419, 177.3581
343.2241, 177.1348
343.7062, 178.2416
344.1883, 179.0828
344.6704, 178.7495
345.1525, 177.6483
345.6346, 176.5763
346.1168, 175.5119
346.5989, 174.6821
347.0810, 174.4504
347.5631, 174.5583
348.0452, 174.5764
348.5273, 174.3834
349.0095, 174.0669
349.4916, 173.6110
349.9737, 173.0087
350.4558, 172.7067
350.9379, 173.1584
351.4200, 173.8971
351.9022, 174.1357
352.3843, 173.6877
352.8664, 173.1608
353.3485, 172.9340
353.8306, 172.9583
354.3127, 173.0410
354.7949, 173.1264
355.2770, 173.2610
355.7591, 173.6163
356.2412, 174.1976
356.7233, 174.4718
357.2054, 173.9334
357.6876, 173.0685
358.1697, 172.6861
358.6518, 172.9300
359.1339, 173.3690
359.6160, 173.7624
360.0981, 174.0635
360.5803, 174.0172
361.0624, 173.0422
361.5445, 172.1222
362.0266, 172.1770
362.5087, 173.1186
362.9908, 174.1905
363.4730, 175.0598
363.9551, 175.7100
364.4372, 176.1128
364.9193, 175.9638
365.4014, 176.0813
365.8835, 177.1916
366.3657, 178.7657
366.8478, 179.6232
367.3299, 179.2757
367.8120, 178.4839
368.2941, 178.4953
368.7762, 179.5160
369.2584, 180.3526
369.7405, 180.6564
370.2226, 180.8118
370.7047, 181.2171
371.1868, 181.9153
371.6689, 182.6247
372.1511, 183.0289
372.6332, 183.1160
373.1153, 183.7685
373.5974, 185.6140
374.0795, 187.3580
374.5616, 188.2525
375.0438, 188.5362
375.5259, 188.8831
376.0080, 189.6584
376.4901, 190.7526
376.9722, 191.7814
377.4543, 192.6067
377.9365, 193.5406
378.4186, 194.6804
378.9007, 195.9148
379.3828, 197.1147
379.8649, 198.2451
380.3470, 199.3499
380.8292, 200.4647
381.3113, 201.4954
381.7934, 202.8749
382.2755, 204.9479
382.7576, 207.0251
383.2397, 208.5290
383.7219, 209.6337
384.2040, 210.9853
384.6861, 213.1172
385.1682, 215.9770
385.6503, 218.6608
386.1324, 220.9712
386.6146, 223.3099
387.0967, 225.5354
387.5788, 227.8797
388.0609, 230.7090
388.5430, 234.1669
389.0251, 237.9557
389.5073, 241.4769
389.9894, 244.5205
390.4715, 247.7483
390.9536, 250.9204
391.4357, 254.4561
391.9178, 258.8388
392.4000, 263.9740
392.8821, 269.2306
393.3642, 273.9340
393.8463, 278.0644
394.3284, 282.5838
394.8105, 287.9394
395.2927, 293.2277
395.7748, 297.6816
396.2569, 301.9345
396.7390, 307.2008
397.2211, 314.2896
397.7032, 322.2962
398.1854, 328.9840
398.6675, 333.7941
399.1496, 339.0625
399.6317, 345.8936
400.1138, 353.2040
400.5959, 360.2456
401.0781, 366.8746
401.5602, 373.2965
402.0423, 379.3969
402.5244, 385.2491
403.0065, 391.9851
403.4886, 400.4429
403.9708, 408.7223
404.4529, 415.3788
404.9350, 420.8105
405.4171, 426.1786
405.8992, 432.2570
406.3813, 438.3785
406.8635, 443.6338
407.3456, 448.0324
407.8277, 451.5327
408.3098, 454.2082
408.7919, 455.8561
409.2740, 456.3437
409.7562, 455.7139
410.2383, 453.7984
410.7204, 450.0378
411.2025, 444.8692
411.6846, 439.6293
412.1667, 434.7544
412.6489, 429.5284
413.1310, 423.0770
413.6131, 415.4496
414.0952, 406.8585
414.5773, 396.4081
415.0594, 385.6256
415.5416, 376.0092
416.0237, 367.5586
416.5058, 359.4626
416.9879, 351.3138
417.4700, 343.0472
417.9521, 334.2962
418.4343, 324.2871
418.9164, 314.8018
419.3985, 306.4174
419.8806, 298.8067
420.3627, 291.5459
420.8448, 284.4740
421.3270, 277.7376
421.8091, 271.5752
422.2912, 266.2415
422.7733, 260.8779
423.2554, 255.1233
423.7375, 249.6658
424.2197, 244.9777
424.7018, 241.0074
425.1839, 237.5195
425.6660, 234.4054
426.1481, 231.5826
426.6302, 228.3511
427.1124, 223.8301
427.5945, 220.0396
428.0766, 217.5870
428.5587, 215.7925
429.0408, 213.9595
429.5229, 211.8821
430.0051, 209.7769
430.4872, 207.8060
430.9693, 205.7866
431.4514, 204.7007
431.9335, 206.0192
432.4156, 207.0044
432.8978, 206.2642
433.3799, 204.2669
433.8620, 202.3446
434.3441, 201.3570
434.8262, 200.9946
435.3083, 200.2686
435.7905, 198.8581
436.2726, 197.9862
436.7547, 198.5994
437.2368, 199.6804
437.7189, 200.3739
438.2010, 200.5126
438.6832, 200.4156
439.1653, 200.2257
439.6474, 199.9908
440.1295, 199.9463
440.6116, 200.0693
441.0938, 200.5110
441.5759, 201.7240
442.0580, 203.4133
442.5401, 204.6303
443.0222, 204.5116
443.5043, 204.2127
443.9865, 204.9450
444.4686, 206.6285
444.9507, 208.5740
445.4328, 210.5952
445.9149, 212.5453
446.3970, 214.0550
446.8792, 215.0293
447.3613, 215.9361
447.8434, 216.6225
448.3255, 217.4398
448.8076, 218.8687
449.2897, 220.9814
449.7719, 223.4624
450.2540, 226.0991
450.7361, 228.9233
451.2182, 231.2713
451.7003, 232.6078
452.1824, 234.1281
452.6646, 236.2017
453.1467, 238.7755
453.6288, 241.7766
454.1109, 245.1820
454.5930, 248.8049
455.0751, 252.3143
455.5573, 255.6995
456.0394, 258.9753
456.5215, 261.9543
457.0036, 264.9958
457.4857, 268.4925
457.9678, 272.2870
458.4500, 275.7612
458.9321, 278.1809
459.4142, 279.9748
459.8963, 283.9279
460.3784, 291.7377
460.8605, 298.6669
461.3427, 302.8356
461.8248, 306.0313
462.3069, 310.0334
462.7890, 315.2859
463.2711, 320.8960
463.7532, 325.9198
464.2354, 330.4264
464.7175, 334.8600
465.1996, 338.8597
465.6817, 343.4813
466.1638, 349.8622
466.6459, 357.4092
467.1281, 364.6873
467.6102, 371.2873
468.0923, 377.3269
468.5744, 382.4877
469.0565, 386.9396
469.5386, 392.0260
470.0208, 398.3565
470.5029, 405.4969
470.9850, 412.7044
471.4671, 420.0150
471.9492, 427.2913
472.4313, 434.4668
472.9135, 441.6454
473.3956, 448.7874
473.8777, 455.9477
474.3598, 463.6333
474.8419, 472.2652
475.3240, 481.7623
475.8062, 491.1193
476.2883, 500.6346
476.7704, 509.7225
477.2525, 517.5775
477.7346, 525.2340
478.2167, 533.9153
478.6989, 543.9681
479.1810, 554.6897
479.6631, 565.3834
480.1452, 575.9931
480.6273, 586.5237
481.1094, 596.4385
481.5916, 606.7783
482.0737, 618.4245
482.5558, 630.6315
483.0379, 642.0308
483.5200, 651.9305
484.0021, 661.1727
484.4843, 671.4499
484.9664, 683.0511
485.4485, 694.5516
485.9306, 705.7577
486.4127, 716.7057
486.8948, 727.6475
487.3770, 738.4783
487.8591, 748.4465
488.3412, 756.7502
488.8233, 763.9963
489.3054, 771.3867
489.7875, 778.9473
490.2697, 786.1310
490.7518, 792.8371
491.2339, 798.7712
491.7160, 803.6661
492.1981, 807.4105
492.6802, 810.3782
493.1624, 812.8599
493.6445, 814.5762
494.1266, 815.1269
494.6087, 814.4442
495.0908, 812.5901
495.5729, 809.4746
496.0551, 805.1047
496.5372, 800.5644
497.0193, 796.6010
497.5014, 791.6594
497.9835, 785.5058
498.4656, 777.9825
498.9478, 768.5460
499.4299, 757.1121
499.9120, 744.7871
500.3941, 733.4861
500.8762, 723.9763
501.3583, 712.0735
501.8405, 695.6191
502.3226, 678.9921
502.8047, 663.9471
503.2868, 649.8235
503.7689, 635.5638
504.2510, 620.5772
504.7331, 605.0714
505.2152, 589.4407
505.6974, 573.7134
506.1795, 557.4396
506.6616, 540.2845
507.1437, 522.8278
507.6258, 505.1743
508.1079, 487.4054
508.5901, 470.6223
509.0722, 455.6987
509.5543, 441.8804
510.0364, 427.9183
510.5185, 413.8381
511.0006, 400.2106
511.4828, 387.3472
511.9649, 375.1384
512.4470, 363.5087
512.9291, 352.6212
513.4113, 341.5894
513.8934, 329.7208
514.3755, 317.9563
514.8576, 307.5625
515.3397, 298.4696
515.8218, 289.5543
516.3040, 279.8354
516.7861, 269.5540
517.2682, 260.6072
517.7503, 254.5349
518.2324, 247.9179
518.7145, 239.4206
519.1967, 230.8000
519.6788, 223.7576
520.1609, 218.5212
520.6430, 214.0997
521.1251, 209.6196
521.6072, 205.0543
522.0894, 200.3381
522.5715, 195.0679
523.0536, 190.2924
523.5357, 186.5377
524.0178, 183.3200
524.4999, 180.0812
524.9821, 176.6638
525.4642, 173.3446
525.9463, 170.4308
526.4284, 167.8470
526.9105, 165.1118
527.3926, 162.0911
527.8748, 159.1849
528.3569, 156.8077
528.8390, 154.8096
529.3211, 152.6248
529.8032, 149.8138
530.2853, 147.2551
530.7675, 145.6329
531.2496, 144.5758
531.7317, 143.4101
532.2138, 141.9356
532.6959, 140.1913
533.1780, 138.1568
533.6602, 135.6934
534.1423, 133.8110
534.6244, 132.9300
535.1065, 132.0601
535.5886, 130.7872
536.0707, 129.2981
536.5529, 127.9318
537.0350, 126.8282
537.5171, 125.8019
537.9992, 124.4808
538.4813, 122.7089
538.9634, 121.4747
539.4456, 121.3626
539.9277, 121.2106
540.4098, 120.4050
540.8919, 119.1892
541.3740, 118.0747
541.8561, 117.2818
542.3383, 116.6268
542.8204, 115.9414
543.3025, 115.2187
543.7846, 114.3857
544.2667, 113.4084
544.7488, 112.3454
545.2310, 111.0074
545.7131, 109.4708
546.1952, 108.7456
546.6773, 109.9896
547.1594, 111.1601
547.6415, 110.7061
548.1237, 109.1176
548.6058, 107.6137
549.0879, 106.6768
549.5700, 106.2125
550.0521, 106.1503
550.5342, 106.8392
551.0164, 106.8375
551.4985, 105.5085
551.9806, 104.2504
552.4627, 103.7208
552.9448, 103.7021
553.4269, 103.7595
553.9091, 103.7045
554.3912, 103.4534
554.8733, 102.7238
555.3554, 101.3805
555.8375, 100.4881
556.3196, 100.4613
556.8018, 100.6060
557.2839, 100.5465
557.7660, 100.2963
558.2481, 99.85672
558.7302, 98.84251
559.2123, 98.10262
559.6945, 99.02751
560.1766, 101.1394
560.6587, 102.2323
561.1408, 101.5514
561.6229, 99.89705
562.1050, 98.00891
562.5872, 95.77258
563.0693, 94.46330
563.5514, 94.71054
564.0335, 95.27569
564.5156, 95.64566
564.9977, 95.86103
565.4799, 96.10698
565.9620, 96.45161
566.4441, 96.73252
566.9262, 96.67473
567.4083, 96.20456
567.8904, 95.68822
568.3726, 94.64232
568.8547, 94.07505
569.3368, 94.83281
569.8189, 96.17506
570.3010, 96.81895
570.7831, 96.21025
571.2653, 95.24253
571.7474, 95.02146
572.2295, 95.44144
572.7116, 95.64528
573.1937, 95.49817
573.6758, 95.10297
574.1580, 94.23514
574.6401, 93.14104
575.1222, 92.80363
575.6043, 93.96965
576.0864, 95.16631
576.5685, 95.72080
577.0507, 95.80847
577.5328, 95.61830
578.0149, 95.22240
578.4970, 94.84637
578.9791, 94.72922
579.4612, 94.87718
579.9434, 95.13179
580.4255, 95.32560
580.9076, 95.83701
581.3897, 97.34515
581.8718, 98.89378
582.3539, 99.23876
582.8361, 98.20031
583.3182, 96.96966
583.8003, 96.78535
584.2824, 97.50127
584.7645, 98.03664
585.2466, 98.34393
585.7288, 98.59071
586.2108, 98.70494
586.6929, 98.88435
587.1750, 99.48155
587.6572, 100.6434
588.1393, 101.6828
