##NAMES=Goedkenite
##RRUFFID=R130667
##IDEAL CHEMISTRY=Sr_2_Al(PO_4_)_2_(OH)
##LOCALITY=Palermo No. 1 mine, Groton, Grafton County, New Hampshire, USA
##OWNER=RRUFF
##SOURCE=Rock Currier
##DESCRIPTION=Vitreous clusters of tabular colorless-to-white crystals with wedge-shaped form, associated with quartz in a vug.
##STATUS=The identification of this mineral has been confirmed by single-crystal X-ray diffraction.
##URL=rruff.info/R130667
8.806445e+001, 1.140630e+003
8.854657e+001, 1.117561e+003
8.902869e+001, 1.109600e+003
8.951080e+001, 1.124399e+003
8.999292e+001, 1.150840e+003
9.047504e+001, 1.178998e+003
9.095715e+001, 1.207061e+003
9.143927e+001, 1.233824e+003
9.192139e+001, 1.256769e+003
9.240350e+001, 1.275800e+003
9.288562e+001, 1.295823e+003
9.336774e+001, 1.311558e+003
9.384985e+001, 1.313774e+003
9.433197e+001, 1.298053e+003
9.481409e+001, 1.281545e+003
9.529620e+001, 1.260594e+003
9.577832e+001, 1.239273e+003
9.626044e+001, 1.218208e+003
9.674255e+001, 1.199163e+003
9.722467e+001, 1.184262e+003
9.770679e+001, 1.174055e+003
9.818890e+001, 1.164984e+003
9.867102e+001, 1.156286e+003
9.915314e+001, 1.147963e+003
9.963525e+001, 1.139943e+003
1.001174e+002, 1.132139e+003
1.005995e+002, 1.124465e+003
1.010816e+002, 1.116711e+003
1.015637e+002, 1.106823e+003
1.020458e+002, 1.098857e+003
1.025280e+002, 1.093530e+003
1.030101e+002, 1.090098e+003
1.034922e+002, 1.087368e+003
1.039743e+002, 1.084485e+003
1.044564e+002, 1.081409e+003
1.049385e+002, 1.079787e+003
1.054207e+002, 1.080701e+003
1.059028e+002, 1.081634e+003
1.063849e+002, 1.081477e+003
1.068670e+002, 1.080103e+003
1.073491e+002, 1.077594e+003
1.078312e+002, 1.073402e+003
1.083134e+002, 1.067665e+003
1.087955e+002, 1.063262e+003
1.092776e+002, 1.060976e+003
1.097597e+002, 1.060081e+003
1.102418e+002, 1.059760e+003
1.107239e+002, 1.060193e+003
1.112061e+002, 1.060495e+003
1.116882e+002, 1.059535e+003
1.121703e+002, 1.057615e+003
1.126524e+002, 1.056125e+003
1.131345e+002, 1.056159e+003
1.136166e+002, 1.057614e+003
1.140988e+002, 1.058738e+003
1.145809e+002, 1.059016e+003
1.150630e+002, 1.059125e+003
1.155451e+002, 1.059895e+003
1.160272e+002, 1.061187e+003
1.165093e+002, 1.061733e+003
1.169915e+002, 1.059365e+003
1.174736e+002, 1.051941e+003
1.179557e+002, 1.047293e+003
1.184378e+002, 1.047055e+003
1.189199e+002, 1.048502e+003
1.194020e+002, 1.049976e+003
1.198842e+002, 1.050869e+003
1.203663e+002, 1.051421e+003
1.208484e+002, 1.052202e+003
1.213305e+002, 1.054237e+003
1.218126e+002, 1.055245e+003
1.222947e+002, 1.056074e+003
1.227769e+002, 1.055629e+003
1.232590e+002, 1.052280e+003
1.237411e+002, 1.044989e+003
1.242232e+002, 1.034518e+003
1.247053e+002, 1.024077e+003
1.251874e+002, 1.013005e+003
1.256696e+002, 1.002638e+003
1.261517e+002, 9.935920e+002
1.266338e+002, 9.857220e+002
1.271159e+002, 9.780657e+002
1.275980e+002, 9.697822e+002
1.280801e+002, 9.614831e+002
1.285623e+002, 9.547591e+002
1.290444e+002, 9.503104e+002
1.295265e+002, 9.470168e+002
1.300086e+002, 9.438096e+002
1.304907e+002, 9.406530e+002
1.309728e+002, 9.378232e+002
1.314550e+002, 9.354249e+002
1.319371e+002, 9.334577e+002
1.324192e+002, 9.320474e+002
1.329013e+002, 9.311689e+002
1.333834e+002, 9.308909e+002
1.338655e+002, 9.315453e+002
1.343477e+002, 9.338503e+002
1.348298e+002, 9.360761e+002
1.353119e+002, 9.371968e+002
1.357940e+002, 9.377151e+002
1.362761e+002, 9.386235e+002
1.367582e+002, 9.409341e+002
1.372404e+002, 9.447107e+002
1.377225e+002, 9.470961e+002
1.382046e+002, 9.479514e+002
1.386867e+002, 9.474290e+002
1.391688e+002, 9.450071e+002
1.396509e+002, 9.410422e+002
1.401331e+002, 9.365080e+002
1.406152e+002, 9.323870e+002
1.410973e+002, 9.290238e+002
1.415794e+002, 9.248459e+002
1.420615e+002, 9.190530e+002
1.425436e+002, 9.132025e+002
1.430258e+002, 9.080400e+002
1.435079e+002, 9.037713e+002
1.439900e+002, 9.003427e+002
1.444721e+002, 8.977786e+002
1.449542e+002, 8.965196e+002
1.454363e+002, 8.950648e+002
1.459185e+002, 8.933893e+002
1.464006e+002, 8.914719e+002
1.468827e+002, 8.892804e+002
1.473648e+002, 8.867983e+002
1.478469e+002, 8.840446e+002
1.483290e+002, 8.807897e+002
1.488112e+002, 8.768759e+002
1.492933e+002, 8.735398e+002
1.497754e+002, 8.717597e+002
1.502575e+002, 8.709845e+002
1.507396e+002, 8.694924e+002
1.512217e+002, 8.664670e+002
1.517039e+002, 8.628635e+002
1.521860e+002, 8.598531e+002
1.526681e+002, 8.574346e+002
1.531502e+002, 8.555205e+002
1.536323e+002, 8.542595e+002
1.541144e+002, 8.536896e+002
1.545966e+002, 8.528758e+002
1.550787e+002, 8.511917e+002
1.555608e+002, 8.493952e+002
1.560429e+002, 8.479896e+002
1.565250e+002, 8.470732e+002
1.570071e+002, 8.464913e+002
1.574893e+002, 8.461078e+002
1.579714e+002, 8.460853e+002
1.584535e+002, 8.458062e+002
1.589356e+002, 8.449841e+002
1.594177e+002, 8.439911e+002
1.598998e+002, 8.431151e+002
1.603820e+002, 8.424666e+002
1.608641e+002, 8.419384e+002
1.613462e+002, 8.412455e+002
1.618283e+002, 8.398782e+002
1.623104e+002, 8.391096e+002
1.627925e+002, 8.394490e+002
1.632747e+002, 8.402576e+002
1.637568e+002, 8.410165e+002
1.642389e+002, 8.414832e+002
1.647210e+002, 8.415168e+002
1.652031e+002, 8.404548e+002
1.656852e+002, 8.359322e+002
1.661674e+002, 8.329913e+002
1.666495e+002, 8.335310e+002
1.671316e+002, 8.361316e+002
1.676137e+002, 8.383266e+002
1.680958e+002, 8.386755e+002
1.685779e+002, 8.374765e+002
1.690601e+002, 8.366780e+002
1.695422e+002, 8.368346e+002
1.700243e+002, 8.367502e+002
1.705064e+002, 8.357202e+002
1.709885e+002, 8.339531e+002
1.714706e+002, 8.322222e+002
1.719528e+002, 8.308008e+002
1.724349e+002, 8.299244e+002
1.729170e+002, 8.300353e+002
1.733991e+002, 8.322455e+002
1.738812e+002, 8.345501e+002
1.743633e+002, 8.350677e+002
1.748455e+002, 8.337485e+002
1.753276e+002, 8.327634e+002
1.758097e+002, 8.341462e+002
1.762918e+002, 8.366432e+002
1.767739e+002, 8.379557e+002
1.772560e+002, 8.367967e+002
1.777382e+002, 8.348238e+002
1.782203e+002, 8.344973e+002
1.787024e+002, 8.362748e+002
1.791845e+002, 8.382050e+002
1.796666e+002, 8.390246e+002
1.801487e+002, 8.394120e+002
1.806309e+002, 8.402850e+002
1.811130e+002, 8.422789e+002
1.815951e+002, 8.448650e+002
1.820772e+002, 8.465724e+002
1.825593e+002, 8.468668e+002
1.830414e+002, 8.471003e+002
1.835236e+002, 8.474354e+002
1.840057e+002, 8.480730e+002
1.844878e+002, 8.493344e+002
1.849699e+002, 8.514928e+002
1.854520e+002, 8.544078e+002
1.859341e+002, 8.571943e+002
1.864163e+002, 8.597599e+002
1.868984e+002, 8.622741e+002
1.873805e+002, 8.644413e+002
1.878626e+002, 8.666262e+002
1.883447e+002, 8.693995e+002
1.888268e+002, 8.732032e+002
1.893090e+002, 8.780017e+002
1.897911e+002, 8.830910e+002
1.902732e+002, 8.897937e+002
1.907553e+002, 8.954716e+002
1.912374e+002, 8.991012e+002
1.917195e+002, 9.011019e+002
1.922017e+002, 9.025726e+002
1.926838e+002, 9.043945e+002
1.931659e+002, 9.066458e+002
1.936480e+002, 9.075562e+002
1.941301e+002, 9.065068e+002
1.946122e+002, 9.050665e+002
1.950944e+002, 9.040290e+002
1.955765e+002, 9.032525e+002
1.960586e+002, 9.019785e+002
1.965407e+002, 8.994732e+002
1.970228e+002, 8.956671e+002
1.975049e+002, 8.925509e+002
1.979871e+002, 8.906844e+002
1.984692e+002, 8.889506e+002
1.989513e+002, 8.865225e+002
1.994334e+002, 8.834469e+002
1.999155e+002, 8.805446e+002
2.003976e+002, 8.786687e+002
2.008798e+002, 8.776976e+002
2.013619e+002, 8.759326e+002
2.018440e+002, 8.729290e+002
2.023261e+002, 8.693585e+002
2.028082e+002, 8.657741e+002
2.032903e+002, 8.622264e+002
2.037725e+002, 8.585855e+002
2.042546e+002, 8.547040e+002
2.047367e+002, 8.506774e+002
2.052188e+002, 8.467916e+002
2.057009e+002, 8.427545e+002
2.061830e+002, 8.390184e+002
2.066652e+002, 8.364958e+002
2.071473e+002, 8.355500e+002
2.076294e+002, 8.344316e+002
2.081115e+002, 8.312852e+002
2.085936e+002, 8.272366e+002
2.090757e+002, 8.240413e+002
2.095579e+002, 8.225302e+002
2.100400e+002, 8.221976e+002
2.105221e+002, 8.221550e+002
2.110042e+002, 8.226298e+002
2.114863e+002, 8.228520e+002
2.119685e+002, 8.219031e+002
2.124506e+002, 8.205659e+002
2.129327e+002, 8.200450e+002
2.134148e+002, 8.211057e+002
2.138969e+002, 8.232792e+002
2.143790e+002, 8.250793e+002
2.148612e+002, 8.261517e+002
2.153433e+002, 8.274553e+002
2.158254e+002, 8.293753e+002
2.163075e+002, 8.316736e+002
2.167896e+002, 8.340583e+002
2.172717e+002, 8.363818e+002
2.177539e+002, 8.386468e+002
2.182360e+002, 8.408269e+002
2.187181e+002, 8.429940e+002
2.192002e+002, 8.449529e+002
2.196823e+002, 8.467623e+002
2.201644e+002, 8.483318e+002
2.206466e+002, 8.494779e+002
2.211287e+002, 8.500462e+002
2.216108e+002, 8.501592e+002
2.220929e+002, 8.505358e+002
2.225750e+002, 8.525667e+002
2.230571e+002, 8.532303e+002
2.235393e+002, 8.517629e+002
2.240214e+002, 8.486771e+002
2.245035e+002, 8.445657e+002
2.249856e+002, 8.397349e+002
2.254677e+002, 8.343370e+002
2.259498e+002, 8.293963e+002
2.264320e+002, 8.252493e+002
2.269141e+002, 8.212094e+002
2.273962e+002, 8.166838e+002
2.278783e+002, 8.122636e+002
2.283604e+002, 8.089216e+002
2.288425e+002, 8.072811e+002
2.293247e+002, 8.070316e+002
2.298068e+002, 8.063776e+002
2.302889e+002, 8.051605e+002
2.307710e+002, 8.037565e+002
2.312531e+002, 8.018932e+002
2.317352e+002, 7.999208e+002
2.322174e+002, 7.984457e+002
2.326995e+002, 7.978154e+002
2.331816e+002, 7.978738e+002
2.336637e+002, 7.979724e+002
2.341458e+002, 7.984372e+002
2.346279e+002, 7.985654e+002
2.351101e+002, 7.977283e+002
2.355922e+002, 7.964422e+002
2.360743e+002, 7.958641e+002
2.365564e+002, 7.967090e+002
2.370385e+002, 7.983692e+002
2.375206e+002, 7.987987e+002
2.380028e+002, 7.974785e+002
2.384849e+002, 7.960723e+002
2.389670e+002, 7.953463e+002
2.394491e+002, 7.949584e+002
2.399312e+002, 7.940057e+002
2.404133e+002, 7.919318e+002
2.408955e+002, 7.893707e+002
2.413776e+002, 7.877589e+002
2.418597e+002, 7.873502e+002
2.423418e+002, 7.870554e+002
2.428239e+002, 7.863142e+002
2.433060e+002, 7.853281e+002
2.437882e+002, 7.847130e+002
2.442703e+002, 7.848389e+002
2.447524e+002, 7.852151e+002
2.452345e+002, 7.850439e+002
2.457166e+002, 7.842794e+002
2.461987e+002, 7.833411e+002
2.466809e+002, 7.822578e+002
2.471630e+002, 7.811302e+002
2.476451e+002, 7.802572e+002
2.481272e+002, 7.796479e+002
2.486093e+002, 7.794776e+002
2.490914e+002, 7.802311e+002
2.495736e+002, 7.819523e+002
2.500557e+002, 7.830563e+002
2.505378e+002, 7.822415e+002
2.510199e+002, 7.799620e+002
2.515020e+002, 7.780461e+002
2.519841e+002, 7.767732e+002
2.524663e+002, 7.760824e+002
2.529484e+002, 7.760024e+002
2.534305e+002, 7.764625e+002
2.539126e+002, 7.768453e+002
2.543947e+002, 7.764766e+002
2.548768e+002, 7.756236e+002
2.553590e+002, 7.756507e+002
2.558411e+002, 7.772416e+002
2.563232e+002, 7.790184e+002
2.568053e+002, 7.800070e+002
2.572874e+002, 7.803568e+002
2.577695e+002, 7.805989e+002
2.582516e+002, 7.809172e+002
2.587338e+002, 7.813572e+002
2.592159e+002, 7.821692e+002
2.596980e+002, 7.835118e+002
2.601801e+002, 7.850434e+002
2.606622e+002, 7.868282e+002
2.611443e+002, 7.886480e+002
2.616265e+002, 7.900140e+002
2.621086e+002, 7.905112e+002
2.625907e+002, 7.903029e+002
2.630728e+002, 7.900746e+002
2.635549e+002, 7.895873e+002
2.640370e+002, 7.894794e+002
2.645192e+002, 7.902529e+002
2.650013e+002, 7.914775e+002
2.654834e+002, 7.924646e+002
2.659655e+002, 7.928312e+002
2.664476e+002, 7.927001e+002
2.669297e+002, 7.925385e+002
2.674119e+002, 7.925580e+002
2.678940e+002, 7.921603e+002
2.683761e+002, 7.908965e+002
2.688582e+002, 7.892763e+002
2.693403e+002, 7.879070e+002
2.698224e+002, 7.870914e+002
2.703046e+002, 7.867024e+002
2.707867e+002, 7.863555e+002
2.712688e+002, 7.858060e+002
2.717509e+002, 7.857975e+002
2.722330e+002, 7.868937e+002
2.727151e+002, 7.883224e+002
2.731973e+002, 7.892197e+002
2.736794e+002, 7.892239e+002
2.741615e+002, 7.888613e+002
2.746436e+002, 7.892771e+002
2.751257e+002, 7.908809e+002
2.756078e+002, 7.924955e+002
2.760900e+002, 7.943859e+002
2.765721e+002, 7.959772e+002
2.770542e+002, 7.964377e+002
2.775363e+002, 7.956218e+002
2.780184e+002, 7.945895e+002
2.785005e+002, 7.952108e+002
2.789827e+002, 7.983103e+002
2.794648e+002, 8.012885e+002
2.799469e+002, 8.032273e+002
2.804290e+002, 8.055550e+002
2.809111e+002, 8.096298e+002
2.813932e+002, 8.154832e+002
2.818754e+002, 8.216964e+002
2.823575e+002, 8.263403e+002
2.828396e+002, 8.287365e+002
2.833217e+002, 8.314789e+002
2.838038e+002, 8.346544e+002
2.842859e+002, 8.380537e+002
2.847681e+002, 8.420159e+002
2.852502e+002, 8.462647e+002
2.857323e+002, 8.498460e+002
2.862144e+002, 8.516940e+002
2.866965e+002, 8.515220e+002
2.871786e+002, 8.512171e+002
2.876608e+002, 8.512773e+002
2.881429e+002, 8.507624e+002
2.886250e+002, 8.493035e+002
2.891071e+002, 8.469220e+002
2.895892e+002, 8.437913e+002
2.900714e+002, 8.399949e+002
2.905535e+002, 8.355440e+002
2.910356e+002, 8.307900e+002
2.915177e+002, 8.252913e+002
2.919998e+002, 8.199818e+002
2.924819e+002, 8.151285e+002
2.929641e+002, 8.106412e+002
2.934462e+002, 8.061872e+002
2.939283e+002, 8.014482e+002
2.944104e+002, 7.966617e+002
2.948925e+002, 7.932732e+002
2.953746e+002, 7.932986e+002
2.958568e+002, 7.925328e+002
2.963389e+002, 7.896497e+002
2.968210e+002, 7.858105e+002
2.973031e+002, 7.826915e+002
2.977852e+002, 7.810980e+002
2.982673e+002, 7.804982e+002
2.987495e+002, 7.793369e+002
2.992316e+002, 7.772850e+002
2.997137e+002, 7.749767e+002
3.001958e+002, 7.726791e+002
3.006779e+002, 7.700201e+002
3.011600e+002, 7.663792e+002
3.016422e+002, 7.616055e+002
3.021243e+002, 7.564287e+002
3.026064e+002, 7.521622e+002
3.030885e+002, 7.489168e+002
3.035706e+002, 7.465788e+002
3.040527e+002, 7.461241e+002
3.045349e+002, 7.458530e+002
3.050170e+002, 7.442253e+002
3.054991e+002, 7.411186e+002
3.059812e+002, 7.378096e+002
3.064633e+002, 7.359144e+002
3.069454e+002, 7.359637e+002
3.074276e+002, 7.356552e+002
3.079097e+002, 7.353433e+002
3.083918e+002, 7.344633e+002
3.088739e+002, 7.320593e+002
3.093560e+002, 7.285778e+002
3.098381e+002, 7.257147e+002
3.103203e+002, 7.250510e+002
3.108024e+002, 7.267800e+002
3.112845e+002, 7.277948e+002
3.117666e+002, 7.273787e+002
3.122487e+002, 7.270957e+002
3.127308e+002, 7.277578e+002
3.132130e+002, 7.289835e+002
3.136951e+002, 7.299376e+002
3.141772e+002, 7.301020e+002
3.146593e+002, 7.295126e+002
3.151414e+002, 7.284022e+002
3.156235e+002, 7.255159e+002
3.161057e+002, 7.235422e+002
3.165878e+002, 7.233202e+002
3.170699e+002, 7.241520e+002
3.175520e+002, 7.251276e+002
3.180341e+002, 7.258353e+002
3.185162e+002, 7.264140e+002
3.189984e+002, 7.272292e+002
3.194805e+002, 7.290831e+002
3.199626e+002, 7.300724e+002
3.204447e+002, 7.294690e+002
3.209268e+002, 7.283973e+002
3.214089e+002, 7.279739e+002
3.218911e+002, 7.284632e+002
3.223732e+002, 7.291975e+002
3.228553e+002, 7.291134e+002
3.233374e+002, 7.274467e+002
3.238195e+002, 7.269171e+002
3.243016e+002, 7.285851e+002
3.247838e+002, 7.304029e+002
3.252659e+002, 7.311429e+002
3.257480e+002, 7.307174e+002
3.262301e+002, 7.296562e+002
3.267122e+002, 7.283729e+002
3.271943e+002, 7.267663e+002
3.276765e+002, 7.258311e+002
3.281586e+002, 7.261157e+002
3.286407e+002, 7.264195e+002
3.291228e+002, 7.264215e+002
3.296049e+002, 7.260797e+002
3.300870e+002, 7.254007e+002
3.305692e+002, 7.243699e+002
3.310513e+002, 7.230209e+002
3.315334e+002, 7.216497e+002
3.320155e+002, 7.198631e+002
3.324976e+002, 7.184988e+002
3.329797e+002, 7.179736e+002
3.334619e+002, 7.178535e+002
3.339440e+002, 7.176482e+002
3.344261e+002, 7.171388e+002
3.349082e+002, 7.163371e+002
3.353904e+002, 7.152158e+002
3.358725e+002, 7.132902e+002
3.363546e+002, 7.118466e+002
3.368367e+002, 7.109333e+002
3.373188e+002, 7.104704e+002
3.378009e+002, 7.105712e+002
3.382831e+002, 7.111764e+002
3.387652e+002, 7.118947e+002
3.392473e+002, 7.122166e+002
3.397294e+002, 7.120917e+002
3.402115e+002, 7.116981e+002
3.406936e+002, 7.107260e+002
3.411758e+002, 7.097894e+002
3.416579e+002, 7.092667e+002
3.421400e+002, 7.090751e+002
3.426221e+002, 7.088346e+002
3.431042e+002, 7.081570e+002
3.435863e+002, 7.070412e+002
3.440685e+002, 7.064636e+002
3.445506e+002, 7.069218e+002
3.450327e+002, 7.074541e+002
3.455148e+002, 7.078874e+002
3.459969e+002, 7.082522e+002
3.464790e+002, 7.086523e+002
3.469612e+002, 7.091599e+002
3.474433e+002, 7.096815e+002
3.479254e+002, 7.098573e+002
3.484075e+002, 7.090519e+002
3.488896e+002, 7.089825e+002
3.493717e+002, 7.103127e+002
3.498539e+002, 7.121429e+002
3.503360e+002, 7.137180e+002
3.508181e+002, 7.147991e+002
3.513002e+002, 7.156466e+002
3.517823e+002, 7.166091e+002
3.522644e+002, 7.176722e+002
3.527466e+002, 7.189089e+002
3.532287e+002, 7.206752e+002
3.537108e+002, 7.223353e+002
3.541929e+002, 7.233539e+002
3.546750e+002, 7.238666e+002
3.551571e+002, 7.245564e+002
3.556393e+002, 7.261060e+002
3.561214e+002, 7.285157e+002
3.566035e+002, 7.307375e+002
3.570856e+002, 7.326281e+002
3.575677e+002, 7.344784e+002
3.580498e+002, 7.360810e+002
3.585320e+002, 7.377586e+002
3.590141e+002, 7.400841e+002
3.594962e+002, 7.434371e+002
3.599783e+002, 7.475085e+002
3.604604e+002, 7.513981e+002
3.609425e+002, 7.548962e+002
3.614247e+002, 7.587422e+002
3.619068e+002, 7.632969e+002
3.623889e+002, 7.681799e+002
3.628710e+002, 7.728942e+002
3.633531e+002, 7.772830e+002
3.638352e+002, 7.820232e+002
3.643174e+002, 7.885242e+002
3.647995e+002, 7.971320e+002
3.652816e+002, 8.040170e+002
3.657637e+002, 8.077107e+002
3.662458e+002, 8.100688e+002
3.667279e+002, 8.121389e+002
3.672101e+002, 8.139786e+002
3.676922e+002, 8.154568e+002
3.681743e+002, 8.171049e+002
3.686564e+002, 8.184742e+002
3.691385e+002, 8.173360e+002
3.696206e+002, 8.128928e+002
3.701028e+002, 8.072246e+002
3.705849e+002, 8.016203e+002
3.710670e+002, 7.957623e+002
3.715491e+002, 7.890010e+002
3.720312e+002, 7.805235e+002
3.725133e+002, 7.715464e+002
3.729955e+002, 7.637493e+002
3.734776e+002, 7.572473e+002
3.739597e+002, 7.509949e+002
3.744418e+002, 7.446190e+002
3.749239e+002, 7.381982e+002
3.754060e+002, 7.318073e+002
3.758882e+002, 7.253942e+002
3.763703e+002, 7.192629e+002
3.768524e+002, 7.135215e+002
3.773345e+002, 7.082022e+002
3.778166e+002, 7.033634e+002
3.782987e+002, 6.989668e+002
3.787809e+002, 6.951744e+002
3.792630e+002, 6.923693e+002
3.797451e+002, 6.904173e+002
3.802272e+002, 6.885061e+002
3.807093e+002, 6.862740e+002
3.811914e+002, 6.839908e+002
3.816736e+002, 6.820378e+002
3.821557e+002, 6.804628e+002
3.826378e+002, 6.789988e+002
3.831199e+002, 6.773607e+002
3.836020e+002, 6.757076e+002
3.840841e+002, 6.746161e+002
3.845663e+002, 6.746229e+002
3.850484e+002, 6.746602e+002
3.855305e+002, 6.738712e+002
3.860126e+002, 6.725661e+002
3.864947e+002, 6.718480e+002
3.869768e+002, 6.723426e+002
3.874590e+002, 6.733153e+002
3.879411e+002, 6.730052e+002
3.884232e+002, 6.707917e+002
3.889053e+002, 6.693760e+002
3.893874e+002, 6.701109e+002
3.898695e+002, 6.715300e+002
3.903517e+002, 6.718842e+002
3.908338e+002, 6.708680e+002
3.913159e+002, 6.694022e+002
3.917980e+002, 6.683370e+002
3.922801e+002, 6.677005e+002
3.927622e+002, 6.675266e+002
3.932444e+002, 6.680746e+002
3.937265e+002, 6.687935e+002
3.942086e+002, 6.696981e+002
3.946907e+002, 6.705612e+002
3.951728e+002, 6.707890e+002
3.956549e+002, 6.699576e+002
3.961371e+002, 6.684299e+002
3.966192e+002, 6.676876e+002
3.971013e+002, 6.682158e+002
3.975834e+002, 6.689647e+002
3.980655e+002, 6.701864e+002
3.985476e+002, 6.714299e+002
3.990298e+002, 6.721801e+002
3.995119e+002, 6.723273e+002
3.999940e+002, 6.722451e+002
4.004761e+002, 6.724733e+002
4.009582e+002, 6.732318e+002
4.014403e+002, 6.735090e+002
4.019225e+002, 6.723904e+002
4.024046e+002, 6.717086e+002
4.028867e+002, 6.722794e+002
4.033688e+002, 6.740014e+002
4.038509e+002, 6.765383e+002
4.043330e+002, 6.798312e+002
4.048152e+002, 6.836039e+002
4.052973e+002, 6.862133e+002
4.057794e+002, 6.866322e+002
4.062615e+002, 6.874005e+002
4.067436e+002, 6.892069e+002
4.072257e+002, 6.914478e+002
4.077079e+002, 6.932293e+002
4.081900e+002, 6.943289e+002
4.086721e+002, 6.958408e+002
4.091542e+002, 6.996877e+002
4.096363e+002, 7.065165e+002
4.101184e+002, 7.121822e+002
4.106006e+002, 7.151231e+002
4.110827e+002, 7.178154e+002
4.115648e+002, 7.214969e+002
4.120469e+002, 7.260427e+002
4.125290e+002, 7.306584e+002
