##NAMES=Goethite
##RRUFFID=R050142
##IDEAL CHEMISTRY=Fe^3+^O(OH)
##LOCALITY=Park County, Colorado, USA
##OWNER=RRUFF
##SOURCE=Dave Bunk Minerals
##DESCRIPTION=Radiating spray of black to brown platy crystals
##STATUS=The identification of this mineral has been confirmed by X-ray diffraction and chemical analysis
##URL=rruff.info/R050142
##MEASURED CHEMISTRY=FeO(OH)
96.46008, 70.94809
96.94220, 67.16760
97.42432, 63.98874
97.90643, 61.53973
98.38855, 59.51169
98.87067, 57.84844
99.35278, 56.50655
99.83490, 55.34607
100.3170, 54.05667
100.7991, 52.38036
101.2813, 50.77036
101.7634, 49.09896
102.2455, 47.52938
102.7276, 46.26768
103.2097, 45.43537
103.6918, 44.95774
104.1740, 44.41515
104.6561, 43.66245
105.1382, 43.00288
105.6203, 42.58367
106.1024, 42.36971
106.5845, 42.19382
107.0667, 41.93913
107.5488, 41.61995
108.0309, 41.31599
108.5130, 41.13003
108.9951, 40.91383
109.4772, 40.44229
109.9593, 39.62063
110.4415, 38.81672
110.9236, 38.23986
111.4057, 37.85601
111.8878, 37.64454
112.3699, 37.79259
112.8520, 38.20874
113.3342, 38.17529
113.8163, 37.41112
114.2984, 36.42532
114.7805, 35.36754
115.2626, 34.27022
115.7447, 33.19460
116.2269, 32.17459
116.7090, 31.18832
117.1911, 30.36267
117.6732, 29.60999
118.1553, 29.34738
118.6374, 29.04954
119.1196, 28.71904
119.6017, 28.21697
120.0838, 27.96825
120.5659, 27.63739
121.0480, 27.31643
121.5301, 27.14295
122.0123, 26.73700
122.4944, 26.58907
122.9765, 26.35754
123.4586, 26.18444
123.9407, 25.92861
124.4228, 25.71644
124.9050, 25.61469
125.3871, 25.47332
125.8692, 25.26173
126.3513, 25.17451
126.8334, 24.90364
127.3155, 24.81991
127.7977, 24.82477
128.2798, 24.68723
128.7619, 24.67097
129.2440, 24.62764
129.7261, 24.41218
130.2082, 24.53397
130.6904, 24.52973
131.1725, 24.39573
131.6546, 24.54796
132.1367, 24.46143
132.6188, 24.47891
133.1009, 24.57807
133.5831, 24.62036
134.0652, 24.39021
134.5473, 24.48612
135.0294, 24.74011
135.5115, 24.87003
135.9936, 24.65998
136.4758, 24.14709
136.9579, 23.93051
137.4400, 24.44111
137.9221, 24.84329
138.4042, 24.85700
138.8863, 24.57527
139.3685, 24.26038
139.8506, 24.14218
140.3327, 24.25630
140.8148, 24.32360
141.2969, 24.20620
141.7790, 24.15840
142.2612, 24.36121
142.7433, 24.81452
143.2254, 25.35267
143.7075, 25.81385
144.1896, 26.18731
144.6717, 26.49481
145.1539, 26.62232
145.6360, 26.73165
146.1181, 27.06279
146.6002, 27.71025
147.0823, 28.37523
147.5644, 28.66226
148.0466, 28.62630
148.5287, 28.52800
149.0108, 28.45098
149.4929, 28.38822
149.9750, 28.31544
150.4571, 28.22087
150.9393, 28.12500
151.4214, 28.02225
151.9035, 27.91755
152.3856, 27.86551
152.8677, 27.93033
153.3498, 28.11989
153.8320, 28.29916
154.3141, 28.38983
154.7962, 28.50674
155.2783, 28.74179
155.7604, 29.09668
156.2425, 29.46297
156.7247, 29.69609
157.2068, 29.75730
157.6889, 29.77355
158.1710, 29.70033
158.6531, 29.62680
159.1352, 29.63512
159.6174, 29.74343
160.0995, 29.88683
160.5816, 29.92965
161.0637, 29.73024
161.5458, 29.61751
162.0279, 29.71978
162.5101, 29.86003
162.9922, 29.82696
163.4743, 29.52560
163.9564, 29.06688
164.4385, 28.77172
164.9206, 28.73909
165.4028, 28.72613
165.8849, 28.74968
166.3670, 28.76340
166.8491, 28.68672
167.3312, 28.48477
167.8133, 28.15650
168.2955, 27.70455
168.7776, 27.04374
169.2597, 26.40471
169.7418, 25.91963
170.2239, 25.56509
170.7060, 25.21211
171.1882, 24.75048
171.6703, 24.28054
172.1524, 23.97104
172.6345, 23.84768
173.1166, 23.86042
173.5987, 24.01865
174.0809, 24.34389
174.5630, 24.61907
175.0451, 24.68038
175.5272, 24.65616
176.0093, 24.65196
176.4914, 24.68188
176.9736, 24.76959
177.4557, 24.97003
177.9378, 25.32899
178.4199, 25.69116
178.9020, 25.93108
179.3841, 26.17443
179.8663, 26.52856
180.3484, 27.01917
180.8305, 27.69575
181.3126, 28.69831
181.7947, 30.07379
182.2768, 31.78066
182.7590, 33.81478
183.2411, 36.13355
183.7232, 38.75097
184.2053, 41.69909
184.6874, 44.89972
185.1695, 47.78878
185.6517, 50.46547
186.1338, 52.67568
186.6159, 54.33112
187.0980, 55.49286
187.5801, 56.20153
188.0622, 56.45589
188.5443, 56.29129
189.0265, 56.19297
189.5086, 56.12307
189.9907, 56.14379
190.4728, 56.23275
190.9549, 56.42329
191.4370, 56.79266
191.9192, 57.40355
192.4013, 58.25507
192.8834, 59.22588
193.3655, 60.48069
193.8476, 61.68943
194.3297, 62.71081
194.8119, 63.54547
195.2940, 64.18700
195.7761, 64.52390
196.2582, 64.65511
196.7403, 65.16061
197.2224, 66.52695
197.7046, 67.92125
198.1867, 68.66211
198.6688, 68.73543
199.1509, 68.58203
199.6330, 68.40260
200.1151, 68.21430
200.5973, 68.06348
201.0794, 68.09010
201.5615, 68.07220
202.0436, 67.66664
202.5257, 66.78806
203.0078, 65.90862
203.4900, 65.49425
203.9721, 65.21142
204.4542, 64.66174
204.9363, 63.87569
205.4184, 62.62291
205.9005, 60.31592
206.3827, 56.57041
206.8648, 52.65332
207.3469, 48.85168
207.8290, 45.27406
208.3111, 42.06244
208.7932, 39.28344
209.2754, 36.91731
209.7575, 34.88552
210.2396, 33.19575
210.7217, 31.90899
211.2038, 31.13033
211.6859, 30.66765
212.1681, 30.29444
212.6502, 29.89722
213.1323, 29.48641
213.6144, 29.11280
214.0965, 28.77829
214.5786, 28.48455
215.0608, 28.20330
215.5429, 27.96603
216.0250, 27.82392
216.5071, 27.81018
216.9892, 27.90394
217.4713, 27.98506
217.9535, 28.01961
218.4356, 28.07765
218.9177, 28.14080
219.3998, 28.23862
219.8819, 28.40818
220.3640, 28.67055
220.8462, 29.02565
221.3283, 29.47491
221.8104, 29.95768
222.2925, 30.59446
222.7746, 31.46145
223.2567, 32.49887
223.7389, 33.60446
224.2210, 34.72659
224.7031, 35.86596
225.1852, 37.01066
225.6673, 38.27173
226.1494, 39.42348
226.6316, 40.37036
227.1137, 41.15422
227.5958, 41.90562
228.0779, 42.71937
228.5600, 43.50788
229.0421, 43.90483
229.5243, 43.67199
230.0064, 43.43152
230.4885, 43.38820
230.9706, 43.51901
231.4527, 43.75233
231.9348, 44.04379
232.4170, 44.44035
232.8991, 45.05854
233.3812, 46.04083
233.8633, 46.96080
234.3454, 47.50912
234.8275, 47.77605
235.3097, 48.14825
235.7918, 48.81384
236.2739, 49.64358
236.7560, 50.39090
237.2381, 51.02307
237.7202, 51.66735
238.2024, 52.53010
238.6845, 53.54529
239.1666, 54.22140
239.6487, 54.23254
240.1308, 53.95504
240.6129, 53.90075
241.0951, 54.12230
241.5772, 54.28040
242.0593, 54.07493
242.5414, 53.52973
243.0235, 53.00397
243.5056, 52.56844
243.9878, 52.20557
244.4699, 51.97531
244.9520, 51.87288
245.4341, 51.63397
245.9162, 51.02598
246.3983, 50.05037
246.8805, 48.92111
247.3626, 47.61793
247.8447, 46.19946
248.3268, 44.59619
248.8089, 42.85632
249.2910, 41.26809
249.7731, 40.16763
250.2553, 39.57484
250.7374, 38.90300
251.2195, 37.98579
251.7016, 37.09645
252.1837, 36.35278
252.6658, 35.75504
253.1480, 35.23903
253.6301, 34.77240
254.1122, 34.35639
254.5943, 33.94204
255.0764, 33.55212
255.5585, 33.13947
256.0407, 32.60250
256.5228, 32.01121
257.0049, 31.55811
257.4870, 31.46135
257.9691, 31.73380
258.4513, 31.75187
258.9334, 31.30976
259.4155, 30.77639
259.8976, 30.13599
260.3797, 29.47817
260.8618, 28.95993
261.3440, 28.71604
261.8261, 28.73429
262.3082, 28.70041
262.7903, 28.54899
263.2724, 28.40751
263.7545, 28.21341
264.2367, 28.05683
264.7188, 28.11585
265.2009, 28.53478
265.6830, 29.24617
266.1651, 29.68215
266.6472, 29.45823
267.1294, 29.35876
267.6115, 29.59089
268.0936, 30.01277
268.5757, 30.38836
269.0578, 30.58076
269.5399, 30.65864
270.0221, 30.92423
270.5042, 31.55997
270.9863, 32.19018
271.4684, 32.74648
271.9505, 33.28595
272.4326, 33.87951
272.9148, 34.56247
273.3969, 35.32201
273.8790, 36.11861
274.3611, 36.71231
274.8432, 37.65818
275.3253, 38.98164
275.8075, 40.66560
276.2896, 42.69982
276.7717, 45.08488
277.2538, 47.81533
277.7359, 50.91137
278.2180, 54.62752
278.7001, 58.37939
279.1823, 62.20858
279.6644, 66.03215
280.1465, 69.90110
280.6286, 73.78545
281.1107, 77.44777
281.5928, 80.51819
282.0750, 82.82492
282.5571, 84.82973
283.0392, 86.46558
283.5213, 87.85567
284.0034, 89.01329
284.4855, 89.97182
284.9677, 90.92433
285.4498, 92.07896
285.9319, 93.48150
286.4140, 94.91164
286.8961, 96.44874
287.3782, 97.95458
287.8604, 99.28972
288.3425, 100.4674
288.8246, 101.6376
289.3067, 102.9032
289.7888, 104.2768
290.2709, 105.7216
290.7531, 107.4629
291.2352, 109.0752
291.7173, 110.2316
292.1994, 111.0083
292.6815, 111.8354
293.1636, 113.1030
293.6458, 114.6183
294.1279, 115.2384
294.6100, 114.4473
295.0921, 113.4277
295.5742, 112.6452
296.0563, 112.0202
296.5385, 111.3764
297.0206, 110.6903
297.5027, 109.8342
297.9848, 108.3838
298.4669, 106.2324
298.9490, 103.8397
299.4312, 101.4382
299.9133, 98.86914
300.3954, 95.82954
300.8775, 92.19115
301.3596, 88.06154
301.8417, 83.53237
302.3239, 78.40822
302.8060, 73.53840
303.2881, 69.06739
303.7702, 64.97163
304.2523, 61.26531
304.7344, 57.96555
305.2166, 55.00181
305.6987, 52.34597
306.1808, 49.98275
306.6629, 48.01110
307.1450, 46.57273
307.6271, 45.46402
308.1093, 44.55924
308.5914, 43.83891
309.0735, 43.13409
309.5556, 42.25844
310.0377, 41.23185
310.5198, 40.38987
311.0020, 39.97954
311.4841, 39.58943
311.9662, 38.77069
312.4483, 37.57334
312.9304, 36.58509
313.4125, 36.21800
313.8947, 36.38000
314.3768, 36.47205
314.8589, 36.42094
315.3410, 36.37860
315.8231, 36.47390
316.3052, 36.65672
316.7874, 36.71911
317.2695, 36.50387
317.7516, 36.18740
318.2337, 36.23064
318.7158, 36.80481
319.1979, 37.28414
319.6801, 37.41574
320.1622, 37.29425
320.6443, 37.05191
321.1264, 36.68471
321.6085, 36.35677
322.0906, 36.40705
322.5728, 36.88392
323.0549, 37.24206
323.5370, 37.20469
324.0191, 37.05054
324.5012, 37.18463
324.9833, 37.69129
325.4655, 38.24812
325.9476, 38.53718
326.4297, 38.54937
326.9118, 38.51027
327.3939, 38.21288
327.8760, 38.02509
328.3582, 38.38324
328.8403, 39.25297
329.3224, 40.07301
329.8045, 40.40254
330.2866, 40.33119
330.7687, 40.52164
331.2509, 41.17531
331.7330, 41.87801
332.2151, 42.47007
332.6972, 42.94883
333.1793, 43.29112
333.6614, 43.44522
334.1436, 43.50880
334.6257, 43.74787
335.1078, 44.14497
335.5899, 44.69247
336.0720, 45.53537
336.5541, 46.49774
337.0363, 47.23739
337.5184, 47.63323
338.0005, 47.94002
338.4826, 48.59336
338.9647, 49.71682
339.4468, 50.61267
339.9290, 51.06683
340.4111, 51.33464
340.8932, 51.58731
341.3753, 51.86682
341.8574, 52.32283
342.3395, 53.14170
342.8217, 54.36928
343.3038, 55.40700
343.7859, 56.06980
344.2680, 56.71302
344.7501, 57.55499
345.2322, 58.56916
345.7144, 59.59411
346.1965, 60.50585
346.6786, 61.35639
347.1607, 62.47298
347.6428, 64.07796
348.1249, 65.62540
348.6071, 66.95120
349.0892, 68.12740
349.5713, 69.19669
350.0534, 70.16190
350.5355, 71.19540
351.0176, 72.69484
351.4998, 74.97664
351.9819, 77.12246
352.4640, 78.80250
352.9461, 80.49142
353.4282, 82.76084
353.9103, 85.67606
354.3925, 88.67591
354.8746, 91.06187
355.3567, 92.57813
355.8388, 94.86597
356.3209, 98.44197
356.8030, 102.2264
357.2852, 105.5006
357.7673, 108.4385
358.2494, 111.7045
358.7315, 115.7344
359.2136, 120.5137
359.6957, 125.7034
360.1779, 131.6101
360.6600, 137.5489
361.1421, 143.0950
361.6242, 148.6914
362.1063, 154.9718
362.5884, 162.1777
363.0706, 170.1248
363.5527, 178.3174
364.0348, 186.6405
364.5169, 195.5107
364.9990, 204.7185
365.4811, 214.5152
365.9633, 225.3062
366.4454, 237.0383
366.9275, 249.2166
367.4096, 261.4272
367.8917, 273.7274
368.3738, 285.5869
368.8560, 297.0701
369.3381, 308.0897
369.8202, 318.5511
370.3023, 328.5611
370.7844, 338.3189
371.2665, 348.0129
371.7487, 357.5917
372.2308, 366.8050
372.7129, 376.1982
373.1950, 384.3643
373.6771, 390.5085
374.1592, 395.6275
374.6414, 400.6019
375.1235, 405.7786
375.6056, 411.1317
376.0877, 416.7089
376.5698, 422.8757
377.0519, 428.2596
377.5341, 432.5866
378.0162, 436.2806
378.4983, 439.4321
378.9804, 442.1088
379.4625, 444.4792
379.9446, 446.6963
380.4268, 448.7539
380.9089, 450.5672
381.3910, 452.5717
381.8731, 453.6725
382.3552, 453.6657
382.8373, 452.5411
383.3195, 450.2482
383.8016, 446.6886
384.2837, 442.0790
384.7658, 436.8264
385.2479, 431.0163
385.7300, 424.3676
386.2122, 417.0288
386.6943, 408.6830
387.1764, 398.8506
387.6585, 387.4138
388.1406, 375.1986
388.6227, 362.7780
389.1049, 350.1419
389.5870, 337.8684
390.0691, 326.2274
390.5512, 314.7459
391.0333, 302.8727
391.5154, 290.7695
391.9976, 278.9464
392.4797, 267.4228
392.9618, 256.3960
393.4439, 246.3092
393.9260, 237.1989
394.4081, 228.6205
394.8903, 220.2393
395.3724, 212.2965
395.8545, 205.1673
396.3366, 198.9777
396.8187, 193.3855
397.3008, 188.0825
397.7830, 183.1284
398.2651, 178.7574
398.7472, 175.2315
399.2293, 172.0495
399.7114, 168.5797
400.1935, 164.8429
400.6757, 160.9720
401.1578, 156.8841
401.6399, 152.7497
402.1220, 148.7973
402.6041, 145.0539
403.0862, 141.4551
403.5683, 137.9158
404.0504, 134.4865
404.5326, 131.3922
405.0147, 128.7013
405.4968, 126.2766
405.9789, 123.9998
406.4610, 121.9335
406.9431, 120.3146
407.4253, 119.2778
407.9074, 118.5650
408.3895, 117.5804
408.8716, 116.0132
409.3537, 114.7641
409.8358, 114.0861
410.3180, 113.6330
410.8001, 113.1433
411.2822, 112.5590
411.7643, 111.8946
412.2464, 111.1650
412.7285, 110.3629
413.2107, 109.5366
413.6928, 108.7101
414.1749, 107.8317
414.6570, 107.1120
415.1391, 106.2872
415.6212, 104.8602
416.1034, 102.5590
416.5855, 99.70193
417.0676, 97.16554
417.5497, 95.39158
418.0318, 93.15467
418.5139, 90.10502
418.9961, 86.83193
419.4782, 83.82144
419.9603, 81.10327
420.4424, 78.26976
420.9245, 74.76407
421.4066, 70.51826
421.8888, 67.00579
422.3709, 64.63509
422.8530, 62.56532
423.3351, 60.63105
423.8172, 58.74929
424.2993, 56.75582
424.7815, 54.52326
425.2636, 52.29164
425.7457, 50.55624
426.2278, 49.38754
426.7099, 48.37952
427.1920, 47.62664
427.6742, 46.85656
428.1563, 45.82312
428.6384, 44.51595
429.1205, 43.21500
429.6026, 42.12843
430.0847, 41.21247
430.5669, 40.28804
431.0490, 39.32562
431.5311, 38.39563
432.0132, 37.50128
432.4953, 36.67590
432.9774, 36.03180
433.4596, 35.73962
433.9417, 35.46873
434.4238, 34.81361
434.9059, 33.85883
435.3880, 33.17020
435.8701, 33.03713
436.3523, 33.16344
436.8344, 33.05710
437.3165, 32.71796
437.7986, 32.26787
438.2807, 31.60818
438.7628, 30.92190
439.2450, 30.44929
439.7271, 30.20893
440.2092, 30.00741
440.6913, 29.66272
441.1734, 29.19478
441.6555, 28.96472
442.1377, 29.25428
442.6198, 29.43080
443.1019, 29.18867
443.5840, 28.71645
444.0661, 28.30064
444.5482, 28.04834
445.0304, 27.94005
445.5125, 27.96344
445.9946, 28.29256
446.4767, 28.33962
446.9588, 27.87931
447.4409, 27.37366
447.9231, 27.09249
448.4052, 27.01168
448.8873, 26.95988
449.3694, 26.80378
449.8515, 26.57586
450.3336, 26.48090
450.8158, 26.60474
451.2979, 26.73507
451.7800, 26.80550
452.2621, 26.87668
452.7442, 27.03280
453.2263, 27.28829
453.7085, 27.52885
454.1906, 27.58036
454.6727, 27.43299
455.1548, 27.43895
455.6369, 27.77977
456.1190, 28.07208
456.6012, 27.97869
457.0833, 27.68735
457.5654, 27.62765
458.0475, 28.06356
458.5296, 28.72974
459.0117, 29.31032
459.4939, 29.80790
459.9760, 30.08054
460.4581, 29.92608
460.9402, 29.64895
461.4223, 29.65572
461.9044, 29.95919
462.3866, 30.40330
462.8687, 31.07143
463.3508, 31.78589
463.8329, 32.22668
464.3150, 32.35385
464.7971, 32.49534
465.2793, 32.94831
465.7614, 33.64879
466.2435, 34.06414
466.7256, 33.90618
467.2077, 33.80792
467.6898, 34.10865
468.1720, 34.59045
468.6541, 34.84526
469.1362, 34.73867
469.6183, 34.56952
470.1004, 34.80640
470.5826, 35.68011
471.0647, 36.18593
471.5468, 35.99601
472.0289, 35.80493
472.5110, 36.09917
472.9931, 36.66844
473.4753, 36.93720
473.9574, 36.52967
474.4395, 35.73594
474.9216, 35.50819
475.4037, 36.26204
475.8858, 36.74852
476.3680, 36.74543
476.8501, 36.50242
477.3322, 36.12895
477.8143, 35.66915
478.2964, 35.19843
478.7785, 34.73634
479.2607, 34.30365
479.7428, 34.10377
480.2249, 34.29121
480.7070, 34.37326
481.1891, 33.95815
481.6712, 33.35488
482.1534, 32.96212
482.6355, 32.90452
483.1176, 32.92487
483.5997, 32.83611
484.0818, 32.65038
484.5639, 32.42339
485.0461, 32.18346
485.5282, 31.85820
486.0103, 31.31768
486.4924, 30.59182
486.9745, 29.93767
487.4566, 29.39949
487.9388, 28.93586
488.4209, 28.55188
488.9030, 28.22374
489.3851, 27.85811
489.8672, 27.40014
490.3493, 26.93646
490.8315, 26.63417
491.3136, 26.49809
491.7957, 26.55211
492.2778, 27.14554
492.7599, 27.65240
493.2420, 27.49313
493.7242, 26.80116
494.2063, 26.17649
494.6884, 26.05641
495.1705, 26.35098
495.6526, 26.58701
496.1347, 26.77027
496.6169, 26.87946
497.0990, 26.80826
497.5811, 26.73908
498.0632, 26.86682
498.5453, 27.20006
499.0274, 27.53270
499.5096, 27.63442
499.9917, 27.53526
500.4738, 27.56999
500.9559, 27.83975
501.4380, 28.04112
501.9201, 27.84910
502.4023, 27.55133
502.8844, 27.57675
503.3665, 28.10186
503.8486, 28.72032
504.3307, 29.08938
504.8128, 29.27536
505.2950, 29.50158
505.7771, 29.81228
506.2592, 30.18237
506.7413, 30.62919
507.2234, 31.14066
507.7055, 31.53669
508.1877, 31.66763
508.6698, 31.80971
509.1519, 32.15587
509.6340, 32.63479
510.1161, 33.07890
510.5982, 33.42274
511.0804, 33.69625
511.5625, 33.93412
512.0446, 34.01332
512.5267, 34.39600
513.0088, 35.40332
513.4909, 36.37720
513.9730, 36.87659
514.4551, 37.05764
514.9373, 37.35762
515.4194, 38.04040
515.9015, 38.95925
516.3836, 39.71781
516.8657, 40.23664
517.3478, 40.80536
517.8300, 41.43786
518.3121, 42.16585
518.7942, 43.07626
519.2763, 44.12811
519.7584, 45.12461
520.2405, 45.91727
520.7227, 46.57789
521.2048, 47.19714
521.6869, 47.73891
522.1690, 48.53017
522.6511, 49.75232
523.1332, 51.29880
523.6154, 52.99141
524.0975, 54.85329
524.5796, 56.74217
525.0617, 58.67125
525.5438, 60.57563
526.0259, 62.22234
526.5081, 63.65559
526.9902, 65.40495
527.4723, 67.93503
527.9544, 71.07619
528.4365, 73.72652
528.9186, 75.35827
529.4008, 77.23866
529.8829, 79.43738
530.3650, 82.00404
530.8471, 85.15942
531.3292, 88.83358
531.8113, 92.50353
532.2935, 95.66319
532.7756, 98.33523
533.2577, 101.0000
533.7398, 103.6936
534.2219, 106.3207
534.7040, 108.8455
535.1862, 111.2847
535.6683, 113.6516
536.1504, 115.9353
536.6325, 118.1592
537.1146, 120.4047
537.5967, 122.6120
538.0789, 124.3963
538.5610, 125.6301
539.0431, 126.7794
539.5252, 128.3344
540.0073, 129.9974
540.4894, 131.0686
540.9716, 131.2218
541.4537, 131.2509
541.9358, 131.6218
542.4179, 132.1247
542.9000, 132.4234
543.3821, 132.4436
543.8643, 132.2245
544.3464, 131.8089
544.8285, 131.1985
545.3106, 130.2709
545.7927, 129.0310
546.2748, 127.5165
546.7570, 125.6789
547.2391, 123.5911
547.7212, 121.3949
548.2033, 119.0944
548.6854, 116.4459
549.1675, 112.9694
549.6497, 108.5703
550.1318, 104.8311
550.6139, 102.2442
551.0960, 99.60648
551.5781, 96.41470
552.0602, 92.91982
552.5424, 89.49564
553.0245, 86.25171
553.5066, 83.01938
553.9887, 79.53027
554.4708, 75.91383
554.9529, 72.65125
555.4351, 69.86087
555.9172, 67.27679
556.3993, 64.72229
556.8814, 62.21017
557.3635, 59.75630
557.8456, 57.29832
558.3278, 54.99830
558.8099, 52.97228
559.2920, 51.12942
559.7741, 49.28745
560.2562, 47.41718
560.7383, 45.70008
561.2205, 44.38005
561.7026, 43.47776
562.1847, 42.32829
562.6668, 40.54994
563.1489, 38.95348
563.6310, 37.71482
564.1132, 36.72824
564.5953, 35.93951
565.0774, 35.30713
565.5595, 34.66417
566.0416, 33.77661
566.5237, 32.68031
567.0059, 31.77195
567.4880, 31.12867
567.9701, 30.51300
568.4522, 29.76393
568.9343, 28.97825
569.4164, 28.28992
569.8986, 27.71338
570.3807, 27.23513
570.8628, 26.91105
571.3449, 26.66339
571.8270, 26.36747
572.3091, 26.00418
572.7913, 25.60424
573.2734, 25.16864
573.7555, 24.71560
574.2376, 24.36637
574.7197, 24.16817
575.2018, 24.00345
575.6840, 23.96792
576.1661, 23.88802
576.6482, 23.52718
577.1303, 22.91932
577.6124, 22.36490
578.0945, 22.13521
578.5767, 22.16606
579.0588, 22.10930
579.5409, 21.95723
580.0230, 21.73397
580.5051, 21.31416
580.9872, 20.91318
581.4694, 20.73958
581.9515, 20.79708
582.4336, 20.85488
582.9157, 20.80532
583.3978, 20.66506
583.8799, 20.39647
584.3621, 20.01090
584.8442, 19.77905
585.3263, 19.88068
585.8084, 20.13361
586.2905, 20.15699
586.7726, 19.86862
587.2548, 19.61886
587.7369, 19.36705
588.2190, 19.22535
588.7011, 19.37488
589.1832, 19.70023
589.6653, 19.90047
590.1475, 19.81104
590.6296, 19.54351
591.1117, 19.31720
591.5938, 19.10640
592.0759, 19.02472
592.5580, 19.21918
593.0402, 19.41413
593.5223, 19.50822
594.0044, 19.50384
