##NAMES=Goldschmidtite
##RRUFFID=R190009
##IDEAL CHEMISTRY=KNb^5+^O_3_
##LOCALITY=Koffiefontein, South Africa
##OWNER=Nicole Meyer
##SOURCE=Nicole Meyer
##DESCRIPTION=The mineral is found as an inclusion in a diamond. This is the type sample.
##STATUS=The identification of this mineral is confirmed by single-crystal X-ray diffraction and chemical analysis.
##URL=rruff.info/R190009
##MEASURED CHEMISTRY=(K_0.504_La_0.150_Sr_0.133_Ba_0.092_Ce_0.078_Ca_0.002_Th_0.001_)(Nb_0.695_Cr_0.192_Fe_0.051_Al_0.014_Mg_0.036_Ti_0.011_)O_3_
118.9138, 28072.00
120.7607, 27969.00
122.6073, 28366.00
124.4536, 28586.00
126.2995, 28843.00
128.1452, 29239.00
129.9890, 29513.00
131.8340, 29807.00
133.6787, 30169.00
135.5231, 30270.00
137.3657, 30304.00
139.2095, 30645.00
141.0529, 30607.00
142.8960, 31141.00
144.7374, 31117.00
146.5799, 31355.00
148.4207, 31460.00
150.2625, 31610.00
152.1041, 31382.00
153.9439, 31411.00
155.7848, 31482.00
157.6240, 31674.00
159.4643, 31669.00
161.3029, 31580.00
163.1426, 31401.00
164.9805, 31561.00
166.8181, 31413.00
168.6569, 31474.00
170.4939, 31276.00
172.3306, 31106.00
174.1684, 30875.00
176.0044, 30764.00
177.8402, 30754.00
179.6756, 30553.00
181.5122, 30204.00
183.3470, 30273.00
185.1815, 30324.00
187.0157, 29792.00
188.8496, 29857.00
190.6832, 29649.00
192.5164, 29466.00
194.3494, 29383.00
196.1821, 29181.00
198.0144, 29203.00
199.8464, 29258.00
201.6781, 29060.00
203.5095, 28724.00
205.3406, 29088.00
207.1714, 29051.00
209.0018, 28928.00
210.8320, 28760.00
212.6618, 28961.00
214.4900, 29007.00
216.3192, 29046.00
218.1481, 29121.00
219.9767, 29396.00
221.8036, 29368.00
223.6316, 29655.00
225.4593, 29666.00
227.2852, 29649.00
229.1123, 29698.00
230.9390, 29919.00
232.7641, 29933.00
234.5902, 30021.00
236.4146, 30184.00
238.2401, 30250.00
240.0639, 30282.00
241.8888, 30279.00
243.7120, 30527.00
245.5349, 30428.00
247.3588, 30551.00
249.1811, 30559.00
251.0030, 30608.00
252.8261, 30492.00
254.6474, 30664.00
256.4684, 30772.00
258.2905, 30713.00
260.1109, 30727.00
261.9310, 30786.00
263.7508, 30878.00
265.5703, 30943.00
267.3895, 30958.00
269.2097, 31038.00
271.0283, 31145.00
272.8465, 31321.00
274.6645, 31230.00
276.4821, 31343.00
278.2994, 31518.00
280.1165, 31389.00
281.9332, 31307.00
283.7496, 31422.00
285.5643, 31672.00
287.3801, 31796.00
289.1956, 31976.00
291.0108, 32162.00
292.8257, 31921.00
294.6402, 31906.00
296.4531, 31966.00
298.2670, 31849.00
300.0807, 31911.00
301.8926, 32113.00
303.7057, 32181.00
305.5184, 31892.00
307.3294, 31922.00
309.1415, 31876.00
310.9520, 31951.00
312.7635, 31939.00
314.5747, 31804.00
316.3842, 31817.00
318.1934, 31895.00
320.0037, 31624.00
321.8123, 31531.00
323.6219, 31539.00
325.4299, 31454.00
327.2376, 31278.00
329.0464, 31155.00
330.8534, 30963.00
332.6602, 30877.00
334.4680, 30762.00
336.2742, 30611.00
338.0800, 30447.00
339.8856, 30059.00
341.6908, 29872.00
343.4972, 29833.00
345.3018, 29483.00
347.1061, 29242.00
348.9102, 29145.00
350.7139, 28854.00
352.5173, 28574.00
354.3204, 28517.00
356.1232, 28059.00
357.9257, 28100.00
359.7279, 27851.00
361.5298, 27696.00
363.3314, 27575.00
365.1313, 27298.00
366.9323, 27044.00
368.7330, 27063.00
370.5334, 26864.00
372.3335, 26732.00
374.1319, 26500.00
375.9314, 26134.00
377.7306, 26188.00
379.5280, 26185.00
381.3266, 25983.00
383.1249, 25862.00
384.9215, 25571.00
386.7191, 25311.00
388.5151, 25129.00
390.3122, 25000.00
392.1075, 25223.00
393.9040, 24762.00
395.6988, 24628.00
397.4947, 24495.00
399.2888, 24256.00
401.0841, 24192.00
402.8777, 23893.00
404.6709, 23830.00
406.4653, 23634.00
408.2579, 23433.00
410.0503, 23495.00
411.8424, 23296.00
413.6355, 23202.00
415.4270, 23205.00
417.2181, 23200.00
419.0090, 23293.00
420.7996, 23379.00
422.5898, 23645.00
424.3798, 23480.00
426.1695, 24037.00
427.9588, 24197.00
429.7479, 24614.00
431.5367, 25033.00
433.3251, 25349.00
435.1133, 25604.00
436.9012, 25945.00
438.6888, 26398.00
440.4760, 26692.00
442.2630, 26854.00
444.0482, 27047.00
445.8346, 27122.00
447.6207, 26992.00
449.4065, 26919.00
451.1906, 27132.00
452.9757, 27125.00
454.7606, 27385.00
456.5438, 27287.00
458.3281, 27034.00
460.1107, 26992.00
461.8944, 27003.00
463.6764, 26905.00
465.4595, 26872.00
467.2409, 26836.00
469.0234, 26736.00
470.8042, 26809.00
472.5861, 26578.00
474.3663, 26575.00
476.1462, 26649.00
477.9272, 26582.00
479.7066, 26683.00
481.4856, 26626.00
483.2657, 26822.00
485.0442, 26801.00
486.8223, 26598.00
488.6002, 26688.00
490.3777, 26588.00
492.1563, 26713.00
493.9333, 26676.00
495.7099, 26913.00
497.4863, 26759.00
499.2624, 26902.00
501.0381, 26881.00
502.8136, 27104.00
504.5888, 27082.00
506.3637, 27321.00
508.1382, 27578.00
509.9125, 27912.00
511.6852, 27955.00
513.4589, 28110.00
515.2322, 28361.00
517.0054, 28645.00
518.7782, 28777.00
520.5493, 29072.00
522.3215, 29380.00
524.0934, 29533.00
525.8637, 29718.00
527.6351, 29948.00
529.4061, 30015.00
531.1755, 30183.00
532.9459, 30540.00
534.7147, 30478.00
536.4846, 30737.00
538.2528, 31026.00
540.0221, 31171.00
541.7897, 31301.00
543.5583, 31550.00
545.3254, 31597.00
547.0920, 31812.00
548.8599, 32101.00
550.6260, 32275.00
552.3918, 32153.00
554.1588, 32387.00
555.9241, 32364.00
557.6890, 32495.00
559.4537, 32317.00
561.2181, 32578.00
562.9835, 32824.00
564.7473, 33010.00
566.5108, 32946.00
568.2740, 33084.00
570.0369, 32927.00
571.7995, 33099.00
573.5619, 33000.00
575.3239, 33041.00
577.0856, 32949.00
578.8471, 33054.00
580.6083, 33075.00
582.3677, 33111.00
584.1284, 32939.00
585.8885, 33122.00
587.6486, 33248.00
589.4083, 33275.00
591.1663, 32976.00
592.9254, 33031.00
594.6843, 33067.00
596.4414, 33154.00
598.1996, 33022.00
599.9576, 33225.00
601.7139, 33070.00
603.4713, 32936.00
605.2270, 32953.00
606.9838, 32852.00
608.7389, 32697.00
610.4951, 32685.00
612.2496, 32762.00
614.0052, 32753.00
615.7592, 32765.00
617.5129, 32721.00
619.2676, 32905.00
621.0207, 32896.00
622.7735, 32798.00
624.5273, 32915.00
626.2796, 32756.00
628.0316, 32626.00
629.7832, 32677.00
631.5345, 32943.00
633.2856, 32883.00
635.0363, 32919.00
636.7882, 32917.00
638.5384, 33394.00
640.2883, 33566.00
642.0379, 33614.00
643.7872, 33232.00
645.5363, 32853.00
647.2836, 32702.00
649.0320, 32443.00
650.7803, 32816.00
652.5281, 32635.00
654.2758, 32569.00
656.0231, 32740.00
657.7687, 32489.00
659.5154, 32824.00
661.2618, 32744.00
663.0080, 33045.00
664.7524, 33071.00
666.4980, 33156.00
668.2420, 33257.00
669.9870, 33355.00
671.7317, 33494.00
673.4747, 33693.00
675.2189, 34066.00
676.9614, 34202.00
678.7049, 34457.00
680.4468, 34464.00
682.1885, 34673.00
683.9312, 35061.00
685.6722, 35343.00
687.4130, 35504.00
689.1548, 35925.00
690.8950, 36408.00
692.6348, 36480.00
694.3759, 36686.00
696.1152, 37427.00
697.8542, 37723.00
699.5930, 38124.00
701.3314, 38372.00
703.0696, 39050.00
704.8075, 39828.00
706.5451, 40311.00
708.2824, 40922.00
710.0194, 41771.00
711.7562, 42237.00
713.4926, 43047.00
715.2288, 43963.00
716.9647, 44456.00
718.7004, 45554.00
720.4357, 46334.00
722.1707, 47065.00
723.9041, 48213.00
725.6385, 49123.00
727.3727, 49939.00
729.1052, 51130.00
730.8389, 52020.00
732.5722, 53180.00
734.3038, 54417.00
736.0366, 55493.00
737.7691, 56307.00
739.4999, 57898.00
741.2318, 59037.00
742.9621, 60175.00
744.6934, 61617.00
746.4231, 62700.00
748.1525, 64331.00
749.8830, 66079.00
751.6119, 67368.00
753.3418, 68786.00
755.0700, 70354.00
756.7980, 71951.00
758.5257, 73407.00
760.2545, 75266.00
761.9817, 76578.00
763.7085, 78346.00
765.4351, 80288.00
767.1613, 81859.00
768.8874, 83624.00
770.6130, 84934.00
772.3385, 87139.00
774.0637, 88984.00
775.7885, 91186.00
777.5131, 92992.00
779.2374, 94746.00
780.9615, 96640.00
782.6852, 98773.00
784.4087, 100163.0
786.1319, 102284.0
787.8547, 104324.0
789.5760, 107141.0
791.2983, 108622.0
793.0204, 110531.0
794.7422, 112573.0
796.4623, 113844.0
798.1835, 116182.0
799.9031, 118027.0
801.6237, 119755.0
803.3441, 121568.0
805.0628, 123219.0
806.7826, 124297.0
808.5008, 125787.0
810.2200, 126976.0
811.9376, 127525.0
813.6549, 127973.0
815.3733, 128035.0
817.0900, 127807.0
818.8066, 128045.0
820.5241, 127353.0
822.2400, 126691.0
823.9557, 125549.0
825.6710, 124181.0
827.3875, 122433.0
829.1022, 120696.0
830.8168, 118166.0
832.5310, 115762.0
834.2450, 112679.0
835.9586, 110390.0
837.6720, 108483.0
839.3851, 105641.0
841.0980, 102743.0
842.8105, 100459.0
844.5228, 97187.00
846.2348, 94501.00
847.9465, 92252.00
849.6580, 89166.00
851.3678, 86656.00
853.0787, 83462.00
854.7892, 81380.00
856.4996, 78463.00
858.2083, 76400.00
859.9181, 74322.00
861.6276, 72283.00
863.3354, 69890.00
865.0444, 67599.00
866.7516, 65669.00
868.4600, 63797.00
870.1667, 61940.00
871.8746, 60105.00
873.5808, 58701.00
875.2880, 56721.00
876.9937, 55375.00
878.7004, 53634.00
880.4055, 52401.00
882.1103, 51156.00
883.8162, 50098.00
885.5204, 48535.00
887.2244, 47499.00
888.9281, 46384.00
890.6315, 45224.00
892.3360, 44423.00
894.0388, 43637.00
895.7414, 42784.00
897.4438, 41948.00
899.1458, 41342.00
900.8475, 40529.00
902.5490, 40007.00
904.2502, 39369.00
905.9512, 38808.00
907.6518, 38414.00
909.3521, 37498.00
911.0522, 36994.00
912.7507, 36575.00
914.4503, 36274.00
916.1496, 36043.00
917.8485, 35487.00
919.5459, 35073.00
921.2444, 34838.00
922.9425, 34383.00
924.6390, 34187.00
926.3367, 33673.00
928.0340, 33598.00
929.7297, 33106.00
931.4266, 32858.00
933.1217, 32535.00
934.8179, 32349.00
936.5126, 32390.00
938.2069, 32069.00
939.9023, 32014.00
941.5961, 31695.00
943.2910, 31505.00
944.9842, 31255.00
946.6772, 31285.00
948.3699, 31053.00
950.0637, 30954.00
951.7558, 30745.00
953.4477, 30628.00
955.1393, 30646.00
956.8306, 30267.00
958.5217, 30216.00
960.2125, 30101.00
961.9030, 30069.00
963.5932, 29842.00
965.2832, 29805.00
966.9728, 29878.00
968.6622, 29395.00
970.3514, 29388.00
972.0403, 29145.00
973.7288, 29207.00
975.4172, 29086.00
977.1039, 29120.00
978.7917, 28972.00
980.4791, 28886.00
982.1650, 28648.00
983.8520, 28706.00
985.5387, 28671.00
987.2238, 28620.00
988.9099, 28642.00
990.5944, 28459.00
992.2800, 28556.00
993.9653, 28323.00
995.6490, 28137.00
997.3325, 28146.00
999.0169, 28052.00
1000.700, 28030.00
1002.384, 28186.00
1004.066, 28118.00
1005.748, 28015.00
1007.430, 27951.00
1009.113, 28070.00
1010.794, 28134.00
1012.475, 27820.00
1014.156, 27762.00
1015.836, 27676.00
1017.517, 27582.00
1019.198, 27626.00
1020.877, 27540.00
1022.557, 27677.00
1024.236, 27419.00
1025.915, 27393.00
1027.593, 27355.00
1029.270, 27236.00
1030.948, 27235.00
1032.626, 27289.00
1034.303, 27132.00
1035.981, 27173.00
1037.658, 27085.00
1039.333, 26885.00
1041.009, 27013.00
1042.685, 27039.00
1044.360, 27142.00
1046.036, 26930.00
1047.709, 27005.00
1049.385, 26936.00
1051.059, 26768.00
1052.733, 26872.00
1054.407, 26836.00
1056.079, 26874.00
1057.752, 26947.00
1059.425, 26720.00
1061.097, 26717.00
1062.770, 26848.00
1064.441, 26690.00
1066.112, 26729.00
1067.783, 26556.00
1069.455, 26527.00
1071.125, 26541.00
1072.795, 26720.00
1074.465, 26543.00
1076.134, 26671.00
1077.803, 26956.00
1079.472, 26550.00
1081.141, 26669.00
1082.809, 26655.00
1084.477, 26589.00
1086.145, 26723.00
1087.812, 26857.00
1089.479, 26631.00
1091.146, 26676.00
1092.813, 26768.00
1094.478, 26785.00
1096.145, 26577.00
1097.811, 26691.00
1099.476, 26499.00
1101.140, 26775.00
1102.805, 26614.00
1104.470, 26532.00
1106.134, 26522.00
1107.798, 26471.00
1109.461, 26533.00
1111.124, 26410.00
1112.786, 26362.00
1114.450, 26379.00
1116.111, 26369.00
1117.774, 26438.00
1119.435, 26504.00
1121.096, 26657.00
1122.758, 26408.00
1124.418, 26520.00
1126.078, 26379.00
1127.738, 26503.00
1129.398, 26504.00
1131.058, 26523.00
1132.717, 26653.00
1134.376, 26730.00
1136.035, 26468.00
1137.693, 26396.00
1139.351, 26341.00
1141.008, 26535.00
1142.666, 26500.00
1144.323, 26434.00
1145.980, 26616.00
1147.636, 26459.00
1149.292, 26490.00
1150.948, 26513.00
1152.603, 26489.00
1154.259, 26486.00
1155.914, 26472.00
1157.568, 26497.00
1159.223, 26402.00
1160.876, 26393.00
1162.530, 26460.00
1164.184, 26492.00
1165.836, 26436.00
1167.490, 26336.00
1169.142, 26545.00
1170.795, 26552.00
1172.446, 26532.00
1174.098, 26366.00
1175.749, 26456.00
1177.400, 26635.00
1179.051, 26580.00
1180.701, 26481.00
1182.351, 26486.00
1184.001, 26399.00
1185.650, 26458.00
1187.300, 26175.00
1188.949, 26165.00
1190.597, 25968.00
1192.245, 26247.00
1193.893, 25958.00
1195.541, 25975.00
1197.188, 25835.00
1198.835, 26002.00
1200.482, 26008.00
1202.129, 25920.00
1203.775, 26056.00
1205.421, 25999.00
1207.066, 25976.00
1208.711, 25914.00
1210.357, 26082.00
1212.002, 25983.00
1213.645, 26058.00
1215.290, 25933.00
1216.934, 25806.00
1218.576, 26006.00
1220.220, 25849.00
1221.862, 25814.00
1223.505, 26013.00
1225.147, 25845.00
1226.790, 25813.00
1228.431, 25904.00
1230.073, 26106.00
1231.714, 25950.00
1233.354, 25809.00
1234.995, 25934.00
1236.635, 26133.00
1238.275, 25991.00
1239.914, 25801.00
1241.554, 26075.00
1243.193, 26000.00
1244.831, 25762.00
1246.469, 25909.00
1248.107, 25981.00
1249.745, 26002.00
1251.383, 26050.00
1253.020, 25964.00
1254.657, 25891.00
1256.293, 26057.00
1257.930, 25827.00
1259.566, 26027.00
1261.202, 26002.00
1262.836, 26092.00
1264.471, 25853.00
1266.107, 25949.00
1267.741, 26061.00
1269.375, 25920.00
1271.009, 26008.00
1272.643, 26015.00
1274.276, 25883.00
1275.909, 25749.00
1277.541, 25987.00
1279.174, 25718.00
1280.806, 25895.00
1282.438, 25709.00
1284.069, 25799.00
1285.700, 25801.00
1287.331, 25834.00
1288.962, 25976.00
1290.592, 25807.00
1292.222, 25978.00
1293.852, 25619.00
1295.481, 25692.00
1297.110, 25704.00
1298.739, 25789.00
1300.368, 25690.00
1301.996, 25818.00
1303.624, 25962.00
1305.252, 25864.00
1306.879, 25707.00
1308.506, 25783.00
1310.133, 25738.00
1311.758, 25862.00
1313.385, 25697.00
1315.010, 25690.00
1316.636, 25753.00
1318.262, 25602.00
1319.886, 25701.00
1321.511, 25532.00
1323.136, 25644.00
1324.760, 25288.00
1326.383, 25453.00
1328.007, 25546.00
1329.629, 25771.00
1331.253, 25801.00
1332.875, 25452.00
1334.498, 25577.00
1336.119, 25657.00
1337.742, 25569.00
1339.362, 25604.00
1340.983, 25560.00
1342.605, 25549.00
1344.225, 25581.00
1345.845, 25725.00
1347.466, 25570.00
1349.085, 25745.00
1350.704, 25659.00
1352.323, 25841.00
1353.942, 25609.00
1355.560, 25633.00
1357.178, 25628.00
1358.796, 25871.00
1360.413, 25636.00
1362.031, 25759.00
1363.648, 25842.00
1365.265, 25779.00
1366.881, 25763.00
1368.497, 25912.00
1370.113, 25781.00
1371.728, 25992.00
1373.343, 25968.00
1374.959, 26128.00
1376.574, 26131.00
1378.187, 26104.00
1379.802, 26087.00
1381.415, 26123.00
1383.029, 26184.00
1384.641, 26022.00
1386.255, 26067.00
1387.866, 26233.00
1389.479, 26421.00
1391.091, 26204.00
1392.703, 26428.00
1394.314, 26390.00
1395.925, 26268.00
1397.537, 26319.00
1399.147, 26489.00
1400.757, 26357.00
1402.367, 26476.00
1403.976, 26590.00
1405.585, 26507.00
1407.195, 26419.00
1408.804, 26485.00
1410.412, 26666.00
1412.020, 26738.00
1413.628, 26707.00
1415.236, 26604.00
1416.843, 26598.00
1418.449, 26856.00
1420.056, 26805.00
1421.663, 26856.00
1423.269, 27003.00
1424.875, 27054.00
1426.480, 26818.00
1428.085, 27040.00
1429.691, 27217.00
1431.295, 27121.00
1432.899, 27250.00
1434.503, 27421.00
1436.107, 27302.00
1437.710, 27236.00
1439.314, 27392.00
1440.916, 27558.00
1442.519, 27373.00
1444.121, 27629.00
1445.724, 27479.00
1447.325, 27771.00
1448.926, 27782.00
1450.527, 27801.00
1452.129, 27962.00
1453.729, 28103.00
1455.329, 27990.00
1456.929, 28066.00
1458.529, 28008.00
1460.128, 28112.00
1461.727, 28194.00
1463.326, 28266.00
1464.925, 28360.00
1466.523, 28449.00
1468.121, 28403.00
1469.719, 28686.00
1471.316, 28863.00
1472.913, 28743.00
1474.509, 28984.00
1476.106, 28878.00
1477.703, 28891.00
1479.299, 28998.00
1480.894, 29284.00
1482.490, 29160.00
1484.085, 29282.00
1485.679, 29502.00
1487.274, 29529.00
1488.868, 29702.00
1490.462, 29815.00
1492.055, 29841.00
1493.648, 29676.00
1495.242, 29849.00
1496.834, 30186.00
1498.426, 30221.00
1500.019, 30466.00
1501.611, 30312.00
1503.202, 30571.00
1504.793, 30682.00
1506.385, 30719.00
1507.975, 30971.00
1509.566, 31110.00
1511.156, 31045.00
1512.746, 31078.00
1514.335, 31322.00
1515.924, 31291.00
1517.514, 31481.00
1519.102, 31397.00
1520.691, 31631.00
1522.278, 31876.00
1523.866, 32008.00
1525.454, 32090.00
1527.041, 31967.00
1528.627, 32109.00
1530.214, 32156.00
1531.801, 32065.00
1533.386, 32376.00
1534.973, 32429.00
1536.557, 32410.00
1538.143, 32332.00
1539.728, 32431.00
1541.313, 32617.00
1542.897, 32663.00
1544.482, 32867.00
1546.065, 33004.00
1547.648, 32898.00
1549.232, 33011.00
1550.815, 33241.00
1552.397, 33323.00
1553.979, 33406.00
1555.562, 33364.00
1557.144, 33295.00
1558.725, 33702.00
1560.306, 33497.00
1561.887, 33720.00
1563.468, 33816.00
1565.048, 33716.00
1566.628, 33715.00
1568.208, 33689.00
1569.787, 33895.00
1571.367, 33733.00
1572.945, 33912.00
1574.524, 33958.00
1576.102, 34133.00
1577.681, 33996.00
1579.258, 34086.00
1580.835, 34118.00
1582.413, 34092.00
1583.989, 34228.00
1585.566, 34376.00
1587.142, 34422.00
1588.719, 34351.00
1590.294, 34265.00
1591.870, 34232.00
1593.445, 34277.00
1595.019, 34375.00
1596.595, 34499.00
1598.169, 34399.00
1599.742, 34399.00
1601.316, 34266.00
1602.890, 34280.00
1604.463, 34375.00
1606.036, 34465.00
1607.608, 34251.00
1609.181, 34219.00
1610.752, 34221.00
1612.324, 34213.00
1613.896, 34003.00
1615.467, 34028.00
1617.038, 33926.00
1618.609, 33703.00
1620.179, 33828.00
1621.750, 33704.00
1623.318, 33565.00
1624.888, 33782.00
1626.458, 33543.00
1628.026, 33178.00
1629.595, 33324.00
1631.163, 33427.00
1632.731, 33300.00
1634.299, 33157.00
1635.866, 33032.00
1637.434, 33039.00
1639.000, 32641.00
1640.568, 32694.00
1642.133, 32884.00
1643.700, 32593.00
1645.266, 32486.00
1646.831, 32251.00
1648.396, 32357.00
1649.961, 32120.00
1651.526, 31987.00
1653.090, 32024.00
1654.654, 31704.00
1656.218, 31497.00
1657.781, 31460.00
1659.344, 31292.00
1660.907, 31085.00
1662.470, 30755.00
1664.032, 30614.00
1665.594, 30434.00
1667.156, 30361.00
1668.718, 30178.00
1670.280, 30048.00
1671.840, 30038.00
1673.401, 29682.00
1674.962, 29512.00
1676.521, 29528.00
1678.081, 29378.00
1679.641, 29223.00
1681.200, 29032.00
1682.759, 28768.00
1684.317, 28894.00
1685.876, 28620.00
1687.434, 28361.00
1688.993, 28215.00
1690.550, 28215.00
1692.107, 28089.00
1693.664, 27970.00
1695.221, 27662.00
1696.777, 27625.00
1698.333, 27640.00
1699.889, 27338.00
1701.445, 27483.00
1703.000, 27106.00
1704.555, 27158.00
1706.110, 26699.00
1707.664, 26676.00
1709.219, 26634.00
1710.773, 26421.00
1712.327, 26187.00
1713.880, 26194.00
1715.432, 26294.00
1716.985, 26110.00
1718.538, 25903.00
1720.090, 25936.00
1721.641, 25516.00
1723.193, 25563.00
1724.745, 25564.00
1726.296, 25427.00
1727.847, 25369.00
1729.397, 25064.00
1730.948, 25064.00
1732.497, 25064.00
1734.048, 24837.00
1735.596, 24851.00
1737.146, 24722.00
1738.695, 24538.00
1740.243, 24240.00
1741.792, 24347.00
1743.340, 24084.00
1744.887, 24064.00
1746.435, 24101.00
1747.982, 23800.00
1749.529, 23802.00
1751.076, 23573.00
1752.622, 23515.00
1754.169, 23468.00
1755.714, 23471.00
1757.260, 23274.00
1758.804, 23266.00
1760.349, 23140.00
1761.894, 22970.00
1763.439, 23039.00
1764.983, 23119.00
1766.526, 22893.00
1768.070, 22929.00
1769.614, 22792.00
1771.156, 22740.00
1772.699, 22712.00
1774.242, 22618.00
1775.784, 22699.00
1777.326, 22573.00
1778.867, 22738.00
1780.409, 22414.00
1781.950, 22456.00
1783.490, 22524.00
1785.031, 22532.00
1786.571, 22379.00
1788.111, 22243.00
1789.651, 22310.00
1791.190, 22213.00
1792.729, 22152.00
1794.268, 22144.00
1795.806, 22211.00
1797.344, 22196.00
1798.882, 22061.00
1800.420, 21927.00
1801.958, 21897.00
1803.495, 21968.00
1805.032, 21997.00
1806.569, 21996.00
1808.105, 21962.00
1809.640, 21859.00
1811.176, 21843.00
1812.712, 21859.00
1814.248, 21887.00
1815.782, 21854.00
1817.317, 21811.00
1818.852, 21890.00
1820.385, 21834.00
1821.920, 21831.00
1823.453, 21762.00
1824.987, 21879.00
1826.519, 21753.00
1828.051, 21725.00
1829.584, 21739.00
1831.116, 21534.00
1832.648, 21582.00
1834.180, 21485.00
1835.711, 21628.00
1837.242, 21554.00
1838.773, 21517.00
1840.303, 21650.00
