##NAMES=Goldmanite
##RRUFFID=R061138
##IDEAL CHEMISTRY=Ca_3_V^3+^_2_(SiO_4_)_3_
##LOCALITY=Tetitice, Klatovy, Czechoslovakia
##OWNER=RRUFF
##SOURCE=Michael Scott
##DESCRIPTION=Dark green grains embedded in matrix
##STATUS=The identification of this mineral is confirmed by single-crystal X-ray diffraction and chemical analysis.
##URL=rruff.info/R061138
##MEASURED CHEMISTRY=(Ca_2.78_Mn_0.13_Fe^2+^_0.04_[box]_0.03_Mg_0.02_)_Σ=3_(V^3+^_1.62_Al_0.21_Cr_0.07_Ti_0.06_Fe^3+^_0.04_)_Σ=2_(Si_1.00_O_4_)_3_
106.8465, 36.91072
107.3286, 34.57141
107.8107, 33.09871
108.2928, 32.45285
108.7749, 32.86977
109.2571, 34.43671
109.7392, 37.10170
110.2213, 40.64359
110.7034, 44.83176
111.1855, 49.78220
111.6676, 57.54376
112.1498, 71.28956
112.6319, 84.12292
113.1140, 93.14536
113.5961, 99.32798
114.0782, 105.5557
114.5603, 113.8807
115.0425, 124.3704
115.5246, 135.0073
116.0067, 145.3074
116.4888, 156.1023
116.9709, 171.7324
117.4530, 190.4488
117.9352, 201.4389
118.4173, 193.0659
118.8994, 164.4178
119.3815, 146.8786
119.8636, 145.9859
120.3457, 152.7295
120.8279, 160.1677
121.3100, 167.6475
121.7921, 177.1956
122.2742, 191.2480
122.7563, 209.3773
123.2384, 229.0063
123.7206, 248.4500
124.2027, 269.7426
124.6848, 296.2666
125.1669, 329.5158
125.6490, 364.2257
126.1311, 394.3540
126.6133, 421.5791
127.0954, 451.1596
127.5775, 485.0355
128.0596, 522.7376
128.5417, 564.2971
129.0238, 612.0747
129.5060, 659.5817
129.9881, 704.1222
130.4702, 745.2755
130.9523, 779.9861
131.4344, 811.1579
131.9165, 835.9239
132.3987, 838.4014
132.8808, 804.1432
133.3629, 762.8464
133.8450, 732.4595
134.3271, 711.8739
134.8092, 695.1996
135.2914, 678.0930
135.7735, 660.6760
136.2556, 646.6132
136.7377, 631.2051
137.2198, 625.1378
137.7019, 636.1232
138.1841, 662.0648
138.6662, 693.4091
139.1483, 720.7549
139.6304, 742.7865
140.1125, 770.9032
140.5946, 811.4714
141.0768, 854.0386
141.5589, 893.3749
142.0410, 930.0816
142.5231, 969.0446
143.0052, 1018.399
143.4873, 1084.027
143.9695, 1137.114
144.4516, 1165.272
144.9337, 1191.843
145.4158, 1229.406
145.8979, 1278.711
146.3800, 1331.399
146.8622, 1378.796
147.3443, 1422.740
147.8264, 1455.680
148.3085, 1474.432
148.7906, 1486.788
149.2727, 1495.731
149.7549, 1502.470
150.2370, 1508.093
150.7191, 1514.054
151.2012, 1520.639
151.6833, 1526.811
152.1654, 1532.031
152.6476, 1537.263
153.1297, 1542.623
153.6118, 1548.366
154.0939, 1555.372
154.5760, 1565.392
155.0581, 1582.661
155.5403, 1593.263
156.0224, 1589.325
156.5045, 1584.217
156.9866, 1589.723
157.4687, 1607.923
157.9508, 1630.818
158.4330, 1646.170
158.9151, 1645.379
159.3972, 1655.268
159.8793, 1686.838
160.3614, 1722.715
160.8435, 1747.105
161.3257, 1756.236
161.8078, 1757.620
162.2899, 1762.289
162.7720, 1774.103
163.2541, 1779.832
163.7362, 1774.867
164.2184, 1765.620
164.7005, 1758.426
165.1826, 1754.857
165.6647, 1752.858
166.1468, 1750.265
166.6289, 1748.943
167.1111, 1740.503
167.5932, 1724.829
168.0753, 1701.338
168.5574, 1666.892
169.0395, 1619.881
169.5216, 1568.884
170.0038, 1525.772
170.4859, 1491.706
170.9680, 1458.568
171.4501, 1424.452
171.9322, 1390.676
172.4143, 1358.960
172.8965, 1329.730
173.3786, 1301.991
173.8607, 1274.028
174.3428, 1245.288
174.8249, 1219.214
175.3070, 1196.477
175.7892, 1176.672
176.2713, 1159.424
176.7534, 1144.742
177.2355, 1132.351
177.7176, 1122.706
178.1997, 1115.537
178.6819, 1109.708
179.1640, 1103.378
179.6461, 1098.676
180.1282, 1099.386
180.6103, 1106.771
181.0924, 1117.311
181.5745, 1128.746
182.0567, 1140.879
182.5388, 1150.359
183.0209, 1153.265
183.5030, 1153.709
183.9851, 1159.971
184.4672, 1175.104
184.9494, 1189.005
185.4315, 1189.020
185.9136, 1178.174
186.3957, 1167.682
186.8778, 1156.473
187.3599, 1148.922
187.8421, 1154.586
188.3242, 1177.594
188.8063, 1203.036
189.2884, 1217.077
189.7705, 1222.706
190.2526, 1227.132
190.7348, 1230.622
191.2169, 1234.887
191.6990, 1243.757
192.1811, 1258.816
192.6632, 1273.748
193.1453, 1282.418
193.6275, 1287.088
194.1096, 1292.417
194.5917, 1301.267
195.0738, 1311.183
195.5559, 1318.156
196.0380, 1321.688
196.5202, 1323.891
197.0023, 1324.700
197.4844, 1325.261
197.9665, 1327.992
198.4486, 1336.108
198.9307, 1345.682
199.4129, 1350.546
199.8950, 1350.050
200.3771, 1347.680
200.8592, 1341.786
201.3413, 1335.970
201.8234, 1336.383
202.3056, 1347.290
202.7877, 1363.167
203.2698, 1378.582
203.7519, 1394.412
204.2340, 1404.625
204.7161, 1399.273
205.1983, 1387.994
205.6804, 1383.443
206.1625, 1391.243
206.6446, 1403.275
207.1267, 1409.019
207.6088, 1407.482
208.0910, 1407.697
208.5731, 1417.763
209.0552, 1430.047
209.5373, 1434.675
210.0194, 1426.657
210.5015, 1417.199
210.9837, 1420.444
211.4658, 1437.378
211.9479, 1450.241
212.4300, 1449.424
212.9121, 1442.757
213.3942, 1437.473
213.8764, 1433.748
214.3585, 1434.121
214.8406, 1442.819
215.3227, 1459.841
215.8048, 1475.566
216.2869, 1487.160
216.7691, 1496.082
217.2512, 1504.481
217.7333, 1512.816
218.2154, 1518.308
218.6975, 1515.774
219.1796, 1506.334
219.6618, 1503.345
220.1439, 1514.133
220.6260, 1528.071
221.1081, 1535.168
221.5902, 1535.267
222.0723, 1533.339
222.5545, 1530.000
223.0366, 1526.469
223.5187, 1529.832
224.0008, 1544.714
224.4829, 1562.205
224.9650, 1574.917
225.4472, 1583.311
225.9293, 1590.006
226.4114, 1595.005
226.8935, 1599.262
227.3756, 1606.504
227.8577, 1619.332
228.3399, 1630.688
228.8220, 1634.667
229.3041, 1632.851
229.7862, 1629.875
230.2683, 1625.697
230.7504, 1622.045
231.2325, 1623.857
231.7147, 1633.703
232.1968, 1642.052
232.6789, 1638.196
233.1610, 1628.003
233.6431, 1623.132
234.1252, 1632.110
234.6074, 1646.009
235.0895, 1651.666
235.5716, 1648.161
236.0537, 1641.911
236.5358, 1635.605
237.0179, 1629.125
237.5001, 1621.875
237.9822, 1610.914
238.4643, 1602.222
238.9464, 1605.924
239.4285, 1622.287
239.9106, 1631.517
240.3928, 1617.982
240.8749, 1594.567
241.3570, 1583.094
241.8391, 1588.410
242.3212, 1598.877
242.8033, 1607.326
243.2855, 1613.830
243.7676, 1618.641
244.2497, 1620.883
244.7318, 1622.376
245.2139, 1626.107
245.6960, 1632.654
246.1782, 1639.038
246.6603, 1643.304
247.1424, 1646.151
247.6245, 1649.666
248.1066, 1654.522
248.5887, 1660.018
249.0709, 1665.463
249.5530, 1670.870
250.0351, 1675.867
250.5172, 1680.757
250.9993, 1685.021
251.4814, 1686.238
251.9636, 1682.883
252.4457, 1681.668
252.9278, 1692.147
253.4099, 1713.261
253.8920, 1731.814
254.3741, 1745.196
254.8563, 1754.972
255.3384, 1761.910
255.8205, 1766.117
256.3026, 1769.972
256.7847, 1775.503
257.2668, 1782.544
257.7490, 1788.538
258.2311, 1795.140
258.7132, 1799.339
259.1953, 1797.016
259.6774, 1789.346
260.1595, 1783.552
260.6417, 1784.923
261.1238, 1791.324
261.6059, 1792.355
262.0880, 1784.694
262.5701, 1775.894
263.0522, 1769.970
263.5344, 1765.179
264.0165, 1757.293
264.4986, 1744.236
264.9807, 1727.501
265.4628, 1710.740
265.9449, 1693.686
266.4271, 1677.041
266.9092, 1659.435
267.3913, 1642.878
267.8734, 1630.400
268.3555, 1622.947
268.8376, 1618.388
269.3198, 1613.373
269.8019, 1606.618
270.2840, 1602.701
270.7661, 1602.723
271.2482, 1604.878
271.7303, 1608.784
272.2125, 1613.917
272.6946, 1617.911
273.1767, 1617.623
273.6588, 1611.276
274.1409, 1611.698
274.6230, 1624.536
275.1052, 1637.820
275.5873, 1646.096
276.0694, 1649.669
276.5515, 1650.987
277.0336, 1651.502
277.5157, 1651.391
277.9979, 1653.568
278.4800, 1663.273
278.9621, 1669.389
279.4442, 1665.424
279.9263, 1657.272
280.4084, 1654.159
280.8906, 1660.857
281.3727, 1674.051
281.8548, 1683.979
282.3369, 1688.589
282.8190, 1692.642
283.3011, 1696.413
283.7833, 1699.905
284.2654, 1703.603
284.7475, 1707.459
285.2296, 1710.291
285.7117, 1709.088
286.1938, 1699.915
286.6760, 1697.858
287.1581, 1708.959
287.6402, 1722.185
288.1223, 1733.245
288.6044, 1741.066
289.0865, 1745.255
289.5687, 1744.090
290.0508, 1737.361
290.5329, 1734.383
291.0150, 1738.898
291.4971, 1743.240
291.9792, 1744.008
292.4614, 1742.515
292.9435, 1741.514
293.4256, 1742.660
293.9077, 1745.376
294.3898, 1748.038
294.8719, 1750.911
295.3541, 1753.113
295.8362, 1751.574
296.3183, 1750.332
296.8004, 1755.047
297.2825, 1768.807
297.7646, 1784.014
298.2468, 1789.775
298.7289, 1785.083
299.2110, 1783.165
299.6931, 1789.740
300.1752, 1799.145
300.6573, 1807.083
301.1395, 1813.367
301.6216, 1816.633
302.1037, 1812.643
302.5858, 1804.221
303.0679, 1802.261
303.5500, 1809.222
304.0321, 1821.499
304.5143, 1838.287
304.9964, 1858.348
305.4785, 1875.522
305.9606, 1889.634
306.4427, 1898.898
306.9248, 1897.166
307.4070, 1883.513
307.8891, 1873.976
308.3712, 1883.319
308.8533, 1905.940
309.3354, 1916.502
309.8175, 1902.907
310.2997, 1888.171
310.7818, 1886.982
311.2639, 1895.781
311.7460, 1903.060
312.2281, 1903.531
312.7102, 1900.003
313.1924, 1899.048
313.6745, 1899.156
314.1566, 1904.037
314.6387, 1922.072
315.1208, 1942.104
315.6029, 1947.262
316.0851, 1933.980
316.5672, 1917.889
317.0493, 1918.847
317.5314, 1943.513
318.0135, 1961.743
318.4956, 1973.586
318.9778, 1979.503
319.4599, 1974.120
319.9420, 1961.753
320.4241, 1956.144
320.9062, 1969.064
321.3883, 1998.571
321.8705, 2016.455
322.3526, 2015.125
322.8347, 2010.252
323.3168, 2001.215
323.7989, 1991.242
324.2810, 1984.533
324.7632, 1982.953
325.2453, 1983.911
325.7274, 1982.286
326.2095, 1978.420
326.6916, 1970.911
327.1737, 1957.159
327.6559, 1942.027
328.1380, 1927.925
328.6201, 1915.593
329.1022, 1905.346
329.5843, 1897.111
330.0664, 1890.823
330.5486, 1889.053
331.0307, 1898.040
331.5128, 1903.918
331.9949, 1897.306
332.4770, 1883.215
332.9591, 1872.571
333.4413, 1872.382
333.9234, 1877.824
334.4055, 1878.489
334.8876, 1873.049
335.3697, 1868.489
335.8518, 1868.684
336.3340, 1871.032
336.8161, 1872.724
337.2982, 1873.295
337.7803, 1873.441
338.2624, 1874.107
338.7445, 1874.933
339.2267, 1873.626
339.7088, 1868.154
340.1909, 1863.058
340.6730, 1865.289
341.1551, 1874.460
341.6372, 1882.060
342.1194, 1884.204
342.6015, 1884.513
343.0836, 1888.630
343.5657, 1896.707
344.0478, 1901.780
344.5299, 1898.525
345.0121, 1887.134
345.4942, 1873.307
345.9763, 1844.160
346.4584, 1826.445
346.9405, 1841.208
347.4226, 1873.885
347.9048, 1896.553
348.3869, 1897.101
348.8690, 1882.542
349.3511, 1867.262
349.8332, 1846.715
350.3153, 1833.052
350.7975, 1828.894
351.2796, 1829.441
351.7617, 1832.216
352.2438, 1836.296
352.7259, 1840.879
353.2080, 1845.325
353.6902, 1849.666
354.1723, 1853.019
354.6544, 1851.331
355.1365, 1852.870
355.6186, 1861.537
356.1007, 1874.497
356.5829, 1886.790
357.0650, 1895.384
357.5471, 1903.565
358.0292, 1920.606
358.5113, 1951.767
358.9934, 1975.581
359.4756, 1976.440
359.9577, 1975.029
360.4398, 1986.623
360.9219, 2013.034
361.4040, 2043.691
361.8861, 2068.825
362.3683, 2090.487
362.8504, 2119.096
363.3325, 2156.845
363.8146, 2199.369
364.2967, 2248.851
364.7788, 2301.046
365.2610, 2343.187
365.7431, 2363.770
366.2252, 2378.254
366.7073, 2403.965
367.1894, 2439.004
367.6715, 2470.237
368.1537, 2494.926
368.6358, 2508.018
369.1179, 2494.766
369.6000, 2445.318
370.0821, 2397.664
370.5642, 2368.212
371.0464, 2343.908
371.5285, 2309.354
372.0106, 2261.305
372.4927, 2202.119
372.9748, 2131.389
373.4569, 2044.796
373.9391, 1978.119
374.4212, 1951.800
374.9033, 1921.681
375.3854, 1861.523
375.8675, 1783.714
376.3496, 1714.959
376.8318, 1670.138
377.3139, 1642.931
377.7960, 1613.991
378.2781, 1578.298
378.7602, 1549.925
379.2423, 1534.658
379.7245, 1522.879
380.2066, 1507.306
380.6887, 1486.930
381.1708, 1465.613
381.6529, 1447.292
382.1350, 1431.907
382.6172, 1414.862
383.0993, 1394.078
383.5814, 1374.885
384.0635, 1361.310
384.5456, 1350.774
385.0277, 1338.763
385.5099, 1324.282
385.9920, 1306.765
386.4741, 1283.415
386.9562, 1254.546
387.4383, 1229.902
387.9204, 1213.433
388.4026, 1202.358
388.8847, 1193.227
389.3668, 1186.434
389.8489, 1178.536
390.3310, 1167.352
390.8131, 1154.900
391.2953, 1144.896
391.7774, 1137.538
392.2595, 1128.052
392.7416, 1111.607
393.2237, 1088.611
393.7058, 1071.292
394.1880, 1062.939
394.6701, 1055.718
395.1522, 1046.877
395.6343, 1037.598
396.1164, 1030.261
396.5985, 1025.774
397.0807, 1022.017
397.5628, 1014.836
398.0449, 1001.076
398.5270, 991.3358
399.0091, 987.6062
399.4912, 985.5277
399.9734, 983.2070
400.4555, 980.5636
400.9376, 978.2302
401.4197, 976.7834
401.9018, 975.9084
402.3839, 974.4268
402.8660, 972.2928
403.3481, 969.6624
403.8303, 965.9358
404.3124, 962.0795
404.7945, 958.2846
405.2766, 954.2429
405.7587, 953.2651
406.2408, 961.5487
406.7230, 975.6429
407.2051, 982.1621
407.6872, 977.6492
408.1693, 968.9374
408.6514, 959.8734
409.1335, 951.1392
409.6157, 947.4370
410.0978, 954.7729
410.5799, 962.6229
411.0620, 962.3672
411.5441, 956.4462
412.0262, 952.6492
412.5084, 954.6355
412.9905, 960.2270
413.4726, 964.7534
413.9547, 967.5774
414.4368, 970.2543
414.9189, 974.0035
415.4011, 976.6901
415.8832, 975.2051
416.3653, 970.6171
416.8474, 967.9167
417.3295, 971.6957
417.8116, 981.0145
418.2938, 986.8580
418.7759, 988.4144
419.2580, 987.3842
419.7401, 981.7995
420.2222, 975.3653
420.7043, 972.3839
421.1865, 974.0270
421.6686, 976.6663
422.1507, 975.4047
422.6328, 970.8305
423.1149, 970.8007
423.5970, 979.1431
424.0792, 987.0952
424.5613, 986.6894
425.0434, 980.4128
425.5255, 974.9319
426.0076, 971.2280
426.4897, 969.5751
426.9719, 971.0983
427.4540, 975.1248
427.9361, 979.1874
428.4182, 982.6419
428.9003, 984.7796
429.3824, 984.2292
429.8646, 980.6702
430.3467, 975.1396
430.8288, 962.6827
431.3109, 952.0963
431.7930, 951.5727
432.2751, 959.7332
432.7573, 969.1414
433.2394, 974.6579
433.7215, 976.6592
434.2036, 977.2656
434.6857, 973.9347
435.1678, 973.1647
435.6500, 978.2274
436.1321, 984.5406
436.6142, 988.6767
437.0963, 989.7768
437.5784, 988.0308
438.0605, 982.0188
438.5427, 972.4537
439.0248, 965.7504
439.5069, 961.6469
439.9890, 961.4191
440.4711, 970.2820
440.9532, 982.8057
441.4354, 989.0683
441.9175, 984.1250
442.3996, 977.3442
442.8817, 975.8615
443.3638, 978.0680
443.8459, 979.3680
444.3281, 978.3964
444.8102, 976.4770
445.2923, 974.9265
445.7744, 973.5574
446.2565, 974.1585
446.7386, 980.2460
447.2208, 984.9355
447.7029, 980.3781
448.1850, 971.8453
448.6671, 972.2932
449.1492, 988.7599
449.6313, 1013.043
450.1135, 1025.815
450.5956, 1024.173
451.0777, 1017.388
451.5598, 997.1000
452.0419, 979.6559
452.5240, 976.1862
453.0062, 984.6357
453.4883, 994.6553
453.9704, 999.6280
454.4525, 1001.589
454.9346, 1005.079
455.4167, 1010.000
455.8989, 1017.640
456.3810, 1033.024
456.8631, 1048.147
457.3452, 1049.720
457.8273, 1034.120
458.3094, 1022.650
458.7916, 1026.605
459.2737, 1038.132
459.7558, 1048.450
460.2379, 1056.259
460.7200, 1061.303
461.2021, 1063.390
461.6843, 1062.571
462.1664, 1059.037
462.6485, 1044.730
463.1306, 1038.033
463.6127, 1051.000
464.0948, 1067.604
464.5770, 1069.234
465.0591, 1053.703
465.5412, 1035.725
466.0233, 1030.834
466.5054, 1038.915
466.9875, 1048.857
467.4697, 1066.033
467.9518, 1076.276
468.4339, 1069.086
468.9160, 1054.469
469.3981, 1045.685
469.8802, 1046.925
470.3624, 1050.742
470.8445, 1051.631
471.3266, 1049.885
471.8087, 1045.493
472.2908, 1037.447
472.7729, 1031.027
473.2551, 1031.581
473.7372, 1039.091
474.2193, 1045.536
474.7014, 1050.927
475.1835, 1055.241
475.6656, 1057.640
476.1478, 1059.192
476.6299, 1062.396
477.1120, 1067.929
477.5941, 1072.722
478.0762, 1071.669
478.5583, 1062.590
479.0405, 1057.372
479.5226, 1059.745
480.0047, 1062.352
480.4868, 1060.600
480.9689, 1058.005
481.4510, 1061.968
481.9332, 1077.007
482.4153, 1093.126
482.8974, 1095.884
483.3795, 1085.827
483.8616, 1076.213
484.3438, 1067.930
484.8259, 1063.541
485.3080, 1068.898
485.7901, 1081.619
486.2722, 1089.844
486.7543, 1089.006
487.2365, 1085.302
487.7186, 1081.233
488.2007, 1077.642
488.6828, 1076.271
489.1649, 1077.796
489.6470, 1081.720
490.1292, 1087.797
490.6113, 1098.501
491.0934, 1103.658
491.5755, 1100.265
492.0576, 1095.178
492.5397, 1091.209
493.0219, 1087.718
493.5040, 1082.577
493.9861, 1074.480
494.4682, 1066.039
494.9503, 1062.635
495.4324, 1064.751
495.9146, 1063.674
496.3967, 1055.286
496.8788, 1046.811
497.3609, 1047.156
497.8430, 1053.435
498.3251, 1053.098
498.8073, 1033.931
499.2894, 1014.572
499.7715, 1012.355
500.2536, 1022.307
500.7357, 1029.285
501.2178, 1027.442
501.6999, 1022.800
502.1820, 1024.657
502.6642, 1035.703
503.1463, 1043.933
503.6284, 1046.752
504.1105, 1049.729
504.5926, 1055.165
505.0747, 1062.457
505.5569, 1070.566
506.0390, 1079.025
506.5211, 1087.393
507.0032, 1094.307
507.4853, 1099.520
507.9674, 1107.291
508.4496, 1120.158
508.9317, 1132.919
509.4138, 1138.571
509.8959, 1140.808
510.3780, 1150.815
510.8601, 1177.156
511.3423, 1205.999
511.8244, 1228.670
512.3065, 1245.908
512.7886, 1257.725
513.2708, 1263.760
513.7529, 1270.584
514.2350, 1287.027
514.7171, 1315.534
515.1992, 1338.433
515.6813, 1356.050
516.1635, 1368.567
516.6456, 1375.147
517.1277, 1376.838
517.6098, 1375.015
518.0919, 1370.138
518.5740, 1361.499
519.0562, 1346.715
519.5383, 1326.015
520.0204, 1307.610
520.5025, 1293.229
520.9846, 1278.757
521.4667, 1261.217
521.9489, 1241.736
522.4310, 1222.224
522.9131, 1202.798
523.3952, 1183.655
523.8773, 1162.951
524.3594, 1143.178
524.8416, 1129.424
525.3237, 1122.270
525.8058, 1116.278
526.2879, 1106.307
526.7700, 1092.592
527.2521, 1081.755
527.7343, 1076.088
528.2164, 1070.558
528.6985, 1063.434
529.1806, 1056.805
529.6627, 1053.769
530.1448, 1054.217
530.6270, 1053.531
531.1091, 1045.036
531.5912, 1032.137
532.0733, 1028.040
532.5554, 1034.192
533.0375, 1041.632
533.5197, 1048.842
534.0018, 1053.068
534.4839, 1048.336
534.9660, 1031.480
535.4481, 1018.329
535.9302, 1012.851
536.4124, 1013.028
536.8945, 1020.140
537.3766, 1031.802
537.8587, 1040.361
538.3408, 1040.929
538.8229, 1036.461
539.3051, 1035.172
539.7872, 1038.636
540.2693, 1041.685
540.7514, 1045.776
541.2335, 1047.675
541.7156, 1043.591
542.1978, 1035.652
542.6799, 1030.125
543.1620, 1030.054
543.6441, 1033.557
544.1262, 1040.889
544.6083, 1050.771
545.0905, 1054.132
545.5726, 1047.161
546.0547, 1037.454
546.5368, 1033.522
547.0189, 1036.066
547.5010, 1038.448
547.9832, 1041.140
548.4653, 1043.158
548.9474, 1042.869
549.4295, 1042.155
549.9116, 1044.164
550.3937, 1049.580
550.8758, 1055.540
551.3579, 1060.242
551.8400, 1063.565
552.3221, 1056.707
552.8043, 1033.165
553.2864, 1012.532
553.7685, 1007.845
554.2506, 1009.691
554.7327, 1006.477
555.2148, 995.5961
555.6970, 985.7025
556.1791, 982.5655
556.6612, 981.9888
557.1433, 979.2057
557.6254, 973.6284
558.1075, 964.9846
558.5897, 952.4396
559.0718, 938.1483
559.5539, 929.0088
560.0360, 928.9385
560.5181, 927.1971
561.0002, 923.7754
561.4824, 918.4963
561.9645, 910.1368
562.4466, 899.7755
562.9287, 890.4305
563.4108, 884.0518
563.8929, 878.6515
564.3751, 870.8678
564.8572, 861.1389
565.3393, 852.8736
565.8214, 846.6072
566.3035, 843.1030
566.7856, 844.7639
567.2678, 851.5459
567.7499, 852.3234
568.2320, 841.2446
568.7141, 830.9789
569.1962, 826.5927
569.6783, 825.3046
570.1605, 823.8559
570.6426, 821.3452
571.1247, 818.0103
571.6068, 813.2466
572.0889, 807.6990
572.5710, 807.6575
573.0532, 815.8275
573.5353, 822.4248
574.0174, 824.4493
574.4995, 822.7599
574.9816, 815.8983
575.4637, 803.1489
575.9459, 796.9328
576.4280, 808.8956
576.9101, 824.3445
577.3922, 827.3330
577.8743, 820.5648
578.3564, 816.6763
578.8386, 821.5850
579.3207, 830.1453
579.8028, 832.4927
580.2849, 825.0343
580.7670, 823.6185
581.2491, 837.2345
581.7313, 847.6206
582.2134, 847.0739
582.6955, 839.8219
583.1776, 832.2954
583.6597, 826.4039
584.1418, 820.7663
584.6240, 813.3587
585.1061, 805.4559
585.5882, 799.4339
586.0703, 795.5485
586.5524, 797.2971
587.0345, 809.6487
587.5167, 827.4984
587.9988, 831.9639
588.4809, 802.5033
588.9630, 788.9189
589.4451, 805.7948
589.9272, 827.3857
590.4094, 838.1597
590.8915, 838.2194
591.3736, 832.7656
591.8557, 823.1284
592.3378, 814.0051
592.8199, 815.9656
593.3021, 828.3493
593.7842, 832.3540
594.2663, 821.2792
594.7484, 809.2288
595.2305, 808.6282
595.7126, 818.2354
596.1948, 826.1418
596.6769, 832.8176
597.1590, 836.9588
597.6411, 836.4322
598.1232, 834.2003
598.6053, 833.6785
599.0875, 835.1082
599.5696, 836.3008
600.0517, 835.3217
600.5338, 832.9962
601.0159, 832.2221
