##NAMES=Golyshevite
##RRUFFID=R061047
##IDEAL CHEMISTRY=Na_10_Ca_9_Zr^4+^_3_Fe^2+^_2_SiNb^5+^(Si_3_O_9_)_2_(Si_9_O_27_)_2_(OH)_3_(CO_3_)&#183;H_2_O
##LOCALITY=Mica mine, Kovdor, Kola, Russia
##OWNER=RRUFF
##SOURCE=Michael Scott
##DESCRIPTION=Dark brown vitreous blebs
##STATUS=The identification of this mineral has been confirmed only by single crystal X-ray diffraction.
##URL=rruff.info/R061047
122.4864, 6564.971
122.9685, 6815.945
123.4506, 7049.448
123.9327, 7243.390
124.4148, 7361.282
124.8969, 7416.337
125.3791, 7459.164
125.8612, 7513.457
126.3433, 7578.655
126.8254, 7656.314
127.3075, 7759.251
127.7896, 7862.979
128.2718, 7922.012
128.7539, 7936.552
129.2360, 7946.288
129.7181, 7985.839
130.2002, 8051.227
130.6823, 8126.507
131.1645, 8201.426
131.6466, 8281.204
132.1287, 8388.520
132.6108, 8525.532
133.0929, 8677.622
133.5750, 8820.678
134.0572, 8955.131
134.5393, 9102.685
135.0214, 9279.514
135.5035, 9485.233
135.9856, 9696.613
136.4677, 9912.213
136.9499, 10130.40
137.4320, 10350.53
137.9141, 10576.63
138.3962, 10785.93
138.8783, 10967.02
139.3604, 11118.18
139.8426, 11242.58
140.3247, 11338.39
140.8068, 11406.70
141.2889, 11463.68
141.7710, 11515.06
142.2531, 11546.18
142.7353, 11541.05
143.2174, 11489.03
143.6995, 11422.07
144.1816, 11345.10
144.6637, 11255.77
145.1458, 11165.68
145.6280, 11083.61
146.1101, 10994.61
146.5922, 10874.31
147.0743, 10702.25
147.5564, 10523.46
148.0385, 10352.71
148.5207, 10194.51
149.0028, 10036.62
149.4849, 9877.728
149.9670, 9718.702
150.4491, 9569.587
150.9312, 9428.127
151.4134, 9298.195
151.8955, 9182.832
152.3776, 9097.226
152.8597, 9010.299
153.3418, 8916.375
153.8239, 8817.650
154.3060, 8731.228
154.7882, 8670.855
155.2703, 8617.250
155.7524, 8556.886
156.2345, 8470.361
156.7166, 8393.059
157.1987, 8338.250
157.6809, 8307.671
158.1630, 8273.161
158.6451, 8223.151
159.1272, 8166.623
159.6093, 8113.080
160.0914, 8065.849
160.5736, 8021.316
161.0557, 7976.179
161.5378, 7927.741
162.0199, 7887.061
162.5020, 7867.225
162.9841, 7857.771
163.4663, 7839.075
163.9484, 7799.022
164.4305, 7750.007
164.9126, 7699.122
165.3947, 7645.225
165.8768, 7595.256
166.3590, 7553.035
166.8411, 7518.419
167.3232, 7489.010
167.8053, 7462.420
168.2874, 7441.306
168.7695, 7429.040
169.2517, 7435.028
169.7338, 7441.628
170.2159, 7429.766
170.6980, 7402.467
171.1801, 7383.355
171.6622, 7400.866
172.1444, 7434.184
172.6265, 7453.167
173.1086, 7424.629
173.5907, 7387.935
174.0728, 7390.377
174.5549, 7433.868
175.0371, 7477.077
175.5192, 7475.518
176.0013, 7446.445
176.4834, 7427.867
176.9655, 7441.937
177.4476, 7475.564
177.9298, 7513.569
178.4119, 7557.302
178.8940, 7596.036
179.3761, 7617.053
179.8582, 7623.133
180.3403, 7625.964
180.8224, 7629.422
181.3046, 7634.403
181.7867, 7642.818
182.2688, 7654.586
182.7509, 7670.107
183.2330, 7688.862
183.7151, 7710.823
184.1973, 7739.572
184.6794, 7783.599
185.1615, 7837.730
185.6436, 7881.862
186.1257, 7911.605
186.6078, 7930.865
187.0900, 7940.999
187.5721, 7941.628
188.0542, 7952.827
188.5363, 8002.451
189.0184, 8083.385
189.5005, 8149.335
189.9827, 8183.159
190.4648, 8195.176
190.9469, 8218.369
191.4290, 8254.048
191.9111, 8290.879
192.3932, 8316.287
192.8754, 8330.585
193.3575, 8345.774
193.8396, 8362.697
194.3217, 8383.047
194.8038, 8418.790
195.2859, 8473.187
195.7681, 8533.649
196.2502, 8587.827
196.7323, 8635.615
197.2144, 8676.231
197.6965, 8709.247
198.1786, 8734.662
198.6608, 8752.491
199.1429, 8760.444
199.6250, 8764.475
200.1071, 8775.102
200.5892, 8793.265
201.0714, 8811.666
201.5535, 8824.820
202.0356, 8831.505
202.5177, 8847.414
202.9998, 8877.760
203.4819, 8912.506
203.9641, 8922.864
204.4462, 8901.302
204.9283, 8881.454
205.4104, 8889.410
205.8925, 8934.188
206.3746, 8951.715
206.8568, 8930.548
207.3389, 8881.438
207.8210, 8842.388
208.3031, 8816.719
208.7852, 8792.937
209.2673, 8764.293
209.7494, 8731.386
210.2316, 8691.682
210.7137, 8639.767
211.1958, 8580.462
211.6779, 8544.067
212.1600, 8540.981
212.6421, 8541.019
213.1243, 8515.661
213.6064, 8454.060
214.0885, 8402.352
214.5706, 8371.711
215.0527, 8360.470
215.5348, 8340.052
216.0170, 8310.854
216.4991, 8271.328
216.9812, 8214.950
217.4633, 8128.964
217.9454, 8059.895
218.4275, 8023.453
218.9097, 8021.962
219.3918, 8006.518
219.8739, 7973.726
220.3560, 7931.164
220.8381, 7886.843
221.3202, 7841.876
221.8024, 7793.968
222.2845, 7740.466
222.7666, 7678.509
223.2487, 7632.234
223.7308, 7613.010
224.2129, 7600.995
224.6951, 7565.760
225.1772, 7493.660
225.6593, 7422.998
226.1414, 7364.133
226.6235, 7318.596
227.1056, 7280.523
227.5878, 7254.321
228.0699, 7232.491
228.5520, 7200.139
229.0341, 7151.537
229.5162, 7102.234
229.9983, 7058.443
230.4805, 7025.617
230.9626, 6981.877
231.4447, 6917.083
231.9268, 6845.291
232.4089, 6800.389
232.8910, 6796.688
233.3732, 6796.845
233.8553, 6787.136
234.3374, 6769.078
234.8195, 6735.664
235.3016, 6673.568
235.7837, 6598.777
236.2658, 6558.782
236.7480, 6575.316
237.2301, 6596.116
237.7122, 6595.110
238.1943, 6557.073
238.6764, 6530.327
239.1585, 6519.295
239.6407, 6520.348
240.1228, 6520.028
240.6049, 6517.680
241.0870, 6514.831
241.5691, 6513.379
242.0512, 6519.080
242.5334, 6512.496
243.0155, 6482.817
243.4976, 6438.358
243.9797, 6421.256
244.4618, 6448.507
244.9439, 6480.571
245.4261, 6492.398
245.9082, 6469.553
246.3903, 6456.349
246.8724, 6459.354
247.3545, 6475.687
247.8366, 6488.264
248.3188, 6496.568
248.8009, 6501.828
249.2830, 6505.336
249.7651, 6509.243
250.2472, 6507.012
250.7293, 6494.924
251.2115, 6475.226
251.6936, 6463.836
252.1757, 6459.957
252.6578, 6466.054
253.1399, 6487.671
253.6220, 6540.106
254.1042, 6573.532
254.5863, 6575.477
255.0684, 6549.637
255.5505, 6534.245
256.0326, 6530.823
256.5147, 6535.687
256.9969, 6547.902
257.4790, 6573.652
257.9611, 6591.010
258.4432, 6593.474
258.9253, 6582.334
259.4074, 6579.514
259.8896, 6589.209
260.3717, 6600.967
260.8538, 6605.617
261.3359, 6599.830
261.8180, 6595.434
262.3001, 6595.438
262.7823, 6599.182
263.2644, 6596.688
263.7465, 6582.442
264.2286, 6570.450
264.7107, 6575.405
265.1928, 6603.611
265.6750, 6629.004
266.1571, 6644.667
266.6392, 6651.911
267.1213, 6674.236
267.6034, 6723.369
268.0855, 6767.393
268.5677, 6769.177
269.0498, 6713.745
269.5319, 6674.667
270.0140, 6670.420
270.4961, 6697.770
270.9782, 6716.073
271.4604, 6720.138
271.9425, 6726.453
272.4246, 6755.966
272.9067, 6815.986
273.3888, 6862.227
273.8709, 6879.855
274.3531, 6873.515
274.8352, 6882.867
275.3173, 6911.491
275.7994, 6946.726
276.2815, 6974.404
276.7636, 6992.118
277.2457, 7019.136
277.7278, 7065.843
278.2100, 7126.318
278.6921, 7159.116
279.1742, 7157.307
279.6563, 7149.882
280.1384, 7167.251
280.6205, 7210.387
281.1027, 7253.899
281.5848, 7293.376
282.0669, 7328.079
282.5490, 7352.570
283.0311, 7365.248
283.5132, 7375.306
283.9954, 7389.173
284.4775, 7407.042
284.9596, 7434.395
285.4417, 7477.169
285.9238, 7529.340
286.4059, 7565.338
286.8881, 7582.347
287.3702, 7602.403
287.8523, 7649.199
288.3344, 7720.589
288.8165, 7791.500
289.2986, 7858.938
289.7808, 7920.650
290.2629, 7968.866
290.7450, 8002.642
291.2271, 8031.025
291.7092, 8055.630
292.1913, 8079.229
292.6735, 8118.399
293.1556, 8184.729
293.6377, 8262.513
294.1198, 8314.220
294.6019, 8340.286
295.0840, 8367.013
295.5662, 8418.061
296.0483, 8488.749
296.5304, 8563.132
297.0125, 8639.776
297.4946, 8716.196
297.9767, 8787.013
298.4589, 8852.663
298.9410, 8913.997
299.4231, 8960.823
299.9052, 9003.586
300.3873, 9068.137
300.8694, 9176.490
301.3516, 9287.819
301.8337, 9344.927
302.3158, 9353.765
302.7979, 9356.208
303.2800, 9375.212
303.7621, 9408.109
304.2443, 9453.277
304.7264, 9515.614
305.2085, 9579.834
305.6906, 9635.369
306.1727, 9681.280
306.6548, 9715.898
307.1370, 9739.951
307.6191, 9751.477
308.1012, 9745.538
308.5833, 9714.526
309.0654, 9679.412
309.5475, 9659.492
310.0297, 9649.772
310.5118, 9634.426
310.9939, 9605.896
311.4760, 9567.645
311.9581, 9520.929
312.4402, 9462.719
312.9224, 9403.894
313.4045, 9354.546
313.8866, 9309.018
314.3687, 9255.174
314.8508, 9180.583
315.3329, 9100.318
315.8151, 9021.821
316.2972, 8940.009
316.7793, 8874.539
317.2614, 8844.047
317.7435, 8834.305
318.2256, 8818.552
318.7078, 8790.809
319.1899, 8752.573
319.6720, 8700.234
320.1541, 8625.614
320.6362, 8562.148
321.1183, 8524.220
321.6005, 8502.695
322.0826, 8484.181
322.5647, 8475.065
323.0468, 8460.013
323.5289, 8429.078
324.0110, 8374.019
324.4932, 8332.548
324.9753, 8319.396
325.4574, 8320.129
325.9395, 8317.684
326.4216, 8299.105
326.9037, 8288.340
327.3859, 8292.740
327.8680, 8315.490
328.3501, 8337.906
328.8322, 8354.775
329.3143, 8373.718
329.7964, 8402.322
330.2786, 8442.792
330.7607, 8490.356
331.2428, 8545.398
331.7249, 8607.674
332.2070, 8673.492
332.6891, 8745.146
333.1712, 8818.786
333.6534, 8891.619
334.1355, 8965.862
334.6176, 9035.604
335.0997, 9097.151
335.5818, 9151.551
336.0639, 9216.427
336.5461, 9295.708
337.0282, 9379.102
337.5103, 9462.127
337.9924, 9545.023
338.4745, 9623.152
338.9566, 9698.074
339.4388, 9766.744
339.9209, 9818.337
340.4030, 9848.832
340.8851, 9874.668
341.3672, 9907.385
341.8493, 9948.198
342.3315, 9986.371
342.8136, 10028.21
343.2957, 10059.20
343.7778, 10038.39
344.2599, 9963.077
344.7420, 9882.438
345.2242, 9829.321
345.7063, 9798.833
346.1884, 9765.807
346.6705, 9730.658
347.1526, 9685.723
347.6347, 9615.998
348.1169, 9523.860
348.5990, 9425.855
349.0811, 9331.070
349.5632, 9237.970
350.0453, 9140.831
350.5274, 9038.615
351.0096, 8939.456
351.4917, 8858.269
351.9738, 8787.804
352.4559, 8705.511
352.9380, 8598.446
353.4201, 8476.184
353.9023, 8350.432
354.3844, 8221.571
354.8665, 8093.724
355.3486, 7962.767
355.8307, 7837.072
356.3128, 7727.118
356.7950, 7655.889
357.2771, 7590.714
357.7592, 7506.654
358.2413, 7405.358
358.7234, 7302.996
359.2055, 7199.072
359.6877, 7102.522
360.1698, 7022.573
360.6519, 6978.300
361.1340, 6932.230
361.6161, 6865.239
362.0982, 6781.623
362.5804, 6699.099
363.0625, 6621.945
363.5446, 6549.000
364.0267, 6478.899
364.5088, 6405.667
364.9909, 6344.660
365.4731, 6305.895
365.9552, 6281.591
366.4373, 6252.835
366.9194, 6210.045
367.4015, 6168.260
367.8836, 6132.257
368.3658, 6101.483
368.8479, 6078.552
369.3300, 6073.565
369.8121, 6073.353
370.2942, 6057.982
370.7763, 6012.835
371.2585, 5971.322
371.7406, 5944.999
372.2227, 5938.218
372.7048, 5913.795
373.1869, 5856.923
373.6690, 5797.301
374.1512, 5769.243
374.6333, 5787.420
375.1154, 5798.108
375.5975, 5789.303
376.0796, 5762.777
376.5617, 5737.188
377.0439, 5713.993
377.5260, 5688.353
378.0081, 5651.760
378.4902, 5602.031
378.9723, 5570.017
379.4544, 5563.701
379.9366, 5574.997
380.4187, 5586.337
380.9008, 5598.146
381.3829, 5603.968
381.8650, 5593.976
382.3471, 5572.615
382.8293, 5561.421
383.3114, 5562.950
383.7935, 5573.800
384.2756, 5591.186
384.7577, 5614.440
385.2398, 5640.009
385.7219, 5667.495
386.2040, 5695.801
386.6862, 5720.085
387.1683, 5738.907
387.6504, 5765.762
388.1325, 5822.589
388.6146, 5895.807
389.0967, 5957.957
389.5789, 5984.106
390.0610, 6005.344
390.5431, 6048.788
391.0252, 6113.582
391.5073, 6178.127
391.9894, 6235.538
392.4716, 6285.638
392.9537, 6327.515
393.4358, 6347.843
393.9179, 6375.197
394.4000, 6428.839
394.8821, 6501.262
395.3643, 6562.387
395.8464, 6603.708
396.3285, 6630.926
396.8106, 6645.344
397.2927, 6637.972
397.7748, 6634.165
398.2570, 6634.649
398.7391, 6640.583
399.2212, 6654.681
399.7033, 6692.953
400.1854, 6722.929
400.6675, 6733.614
401.1497, 6719.750
401.6318, 6710.430
402.1139, 6710.772
402.5960, 6711.724
403.0781, 6702.060
403.5602, 6676.783
404.0424, 6652.611
404.5245, 6633.615
405.0066, 6619.289
405.4887, 6603.081
405.9708, 6585.727
406.4529, 6564.377
406.9351, 6533.309
407.4172, 6491.402
407.8993, 6457.897
408.3814, 6437.013
408.8635, 6424.250
409.3456, 6412.645
409.8278, 6402.216
410.3099, 6383.695
410.7920, 6344.014
411.2741, 6290.897
411.7562, 6250.808
412.2383, 6226.257
412.7205, 6212.181
413.2026, 6209.583
413.6847, 6213.300
414.1668, 6207.715
414.6489, 6178.503
415.1310, 6139.816
415.6132, 6108.443
416.0953, 6084.344
416.5774, 6059.451
417.0595, 6025.600
417.5416, 5988.058
418.0237, 5952.424
418.5059, 5917.280
418.9880, 5888.454
419.4701, 5874.954
419.9522, 5872.467
420.4343, 5863.959
420.9164, 5845.214
421.3986, 5817.249
421.8807, 5778.741
422.3628, 5721.376
422.8449, 5670.390
423.3270, 5631.606
423.8091, 5602.421
424.2913, 5577.506
424.7734, 5568.622
425.2555, 5552.388
425.7376, 5520.523
426.2197, 5469.416
426.7018, 5424.517
427.1840, 5383.881
427.6661, 5350.505
428.1482, 5328.901
428.6303, 5325.554
429.1124, 5316.865
429.5945, 5296.425
430.0767, 5267.706
430.5588, 5248.876
431.0409, 5243.343
431.5230, 5236.776
432.0051, 5215.756
432.4872, 5180.316
432.9694, 5157.695
433.4515, 5151.914
433.9336, 5155.188
434.4157, 5156.500
434.8978, 5155.834
435.3799, 5152.607
435.8621, 5137.448
436.3442, 5121.073
436.8263, 5132.173
437.3084, 5172.228
437.7905, 5216.040
438.2726, 5235.949
438.7548, 5244.521
439.2369, 5265.042
439.7190, 5318.730
440.2011, 5373.333
440.6832, 5399.618
441.1653, 5402.527
441.6474, 5403.231
442.1295, 5399.746
442.6117, 5406.062
443.0938, 5435.031
443.5759, 5499.134
444.0580, 5563.110
444.5401, 5623.023
445.0222, 5673.660
445.5044, 5705.336
445.9865, 5697.940
446.4686, 5689.003
446.9507, 5689.538
447.4328, 5701.130
447.9149, 5714.288
448.3971, 5731.464
448.8792, 5748.314
449.3613, 5761.651
449.8434, 5770.310
450.3255, 5777.349
450.8076, 5781.155
451.2898, 5783.672
451.7719, 5792.613
452.2540, 5808.419
452.7361, 5828.942
453.2182, 5856.827
453.7003, 5892.114
454.1825, 5916.155
454.6646, 5926.999
455.1467, 5929.611
455.6288, 5928.759
456.1109, 5924.906
456.5930, 5921.410
457.0752, 5919.485
457.5573, 5918.959
458.0394, 5921.535
458.5215, 5926.960
459.0036, 5928.636
459.4857, 5925.071
459.9679, 5913.442
460.4500, 5888.331
460.9321, 5842.945
461.4142, 5794.361
461.8963, 5756.899
462.3784, 5725.481
462.8606, 5687.638
463.3427, 5631.014
463.8248, 5571.110
464.3069, 5518.422
464.7890, 5474.803
465.2711, 5427.486
465.7533, 5372.091
466.2354, 5311.828
466.7175, 5250.434
467.1996, 5181.905
467.6817, 5119.942
468.1638, 5070.398
468.6460, 5030.460
469.1281, 4979.210
469.6102, 4910.557
470.0923, 4839.180
470.5744, 4770.937
471.0565, 4705.813
471.5387, 4645.604
472.0208, 4591.416
472.5029, 4540.583
472.9850, 4489.857
473.4671, 4439.762
473.9492, 4383.177
474.4314, 4312.941
474.9135, 4235.369
475.3956, 4174.613
475.8777, 4130.688
476.3598, 4090.929
476.8419, 4044.675
477.3241, 3994.677
477.8062, 3947.223
478.2883, 3903.829
478.7704, 3863.968
479.2525, 3825.486
479.7346, 3789.893
480.2168, 3761.750
480.6989, 3749.719
481.1810, 3740.748
481.6631, 3722.012
482.1452, 3691.248
482.6273, 3670.282
483.1095, 3674.446
483.5916, 3689.513
484.0737, 3702.527
484.5558, 3711.919
485.0379, 3717.883
485.5201, 3716.497
486.0022, 3710.637
486.4843, 3712.065
486.9664, 3720.874
487.4485, 3737.318
487.9306, 3765.385
488.4128, 3811.876
488.8949, 3837.013
489.3770, 3829.206
489.8591, 3816.760
490.3412, 3839.164
490.8233, 3902.138
491.3055, 3958.029
491.7876, 3993.490
492.2697, 4014.479
492.7518, 4035.899
493.2339, 4057.460
493.7160, 4086.848
494.1982, 4130.850
494.6803, 4186.499
495.1624, 4246.664
495.6445, 4312.313
496.1266, 4377.210
496.6087, 4441.551
497.0908, 4501.441
497.5729, 4550.845
498.0551, 4566.341
498.5372, 4586.762
499.0193, 4647.495
499.5014, 4743.126
499.9835, 4826.231
500.4656, 4864.428
500.9478, 4892.322
501.4299, 4932.708
501.9120, 4995.881
502.3941, 5058.842
502.8762, 5123.625
503.3583, 5184.818
503.8405, 5232.557
504.3226, 5251.953
504.8047, 5279.565
505.2868, 5327.927
505.7689, 5395.616
506.2510, 5451.167
506.7332, 5495.049
507.2153, 5524.754
507.6974, 5532.141
508.1795, 5516.182
508.6616, 5513.040
509.1437, 5529.871
509.6259, 5554.394
510.1080, 5569.543
510.5901, 5575.253
511.0722, 5570.583
511.5543, 5546.402
512.0364, 5515.126
512.5186, 5501.138
513.0007, 5503.303
513.4828, 5498.925
513.9649, 5458.608
514.4470, 5407.777
514.9291, 5378.188
515.4113, 5391.627
515.8934, 5399.128
516.3755, 5370.947
516.8576, 5321.209
517.3397, 5276.860
517.8218, 5252.523
518.3040, 5227.347
518.7861, 5192.411
519.2682, 5145.458
519.7503, 5105.823
520.2324, 5073.854
520.7145, 5048.627
521.1967, 5032.980
521.6788, 5037.496
522.1609, 5019.485
522.6430, 4966.178
523.1251, 4897.829
523.6072, 4861.665
524.0894, 4861.036
524.5715, 4858.728
525.0536, 4832.242
525.5357, 4792.318
526.0178, 4783.523
526.4999, 4806.720
526.9821, 4833.877
527.4642, 4836.418
527.9463, 4826.720
528.4284, 4828.820
528.9105, 4850.221
529.3926, 4877.942
529.8748, 4901.130
530.3569, 4922.647
530.8390, 4947.754
531.3211, 4977.151
531.8032, 5011.994
532.2853, 5053.502
532.7675, 5101.969
533.2496, 5154.581
533.7317, 5208.771
534.2138, 5268.773
534.6959, 5338.340
535.1780, 5420.960
535.6602, 5506.341
536.1423, 5593.590
536.6244, 5685.173
537.1065, 5787.521
537.5886, 5900.929
538.0707, 6022.937
538.5529, 6158.881
539.0350, 6303.783
539.5171, 6431.349
539.9992, 6540.506
540.4813, 6642.479
540.9634, 6742.535
541.4456, 6842.499
541.9277, 6945.811
542.4098, 7053.146
542.8919, 7161.677
543.3740, 7268.349
543.8561, 7371.876
544.3383, 7468.919
544.8204, 7534.603
545.3025, 7613.476
545.7846, 7743.339
546.2667, 7916.141
546.7488, 8080.735
547.2310, 8210.595
547.7131, 8331.854
548.1952, 8458.542
548.6773, 8590.707
549.1594, 8730.095
549.6415, 8883.960
550.1237, 9040.397
550.6058, 9184.838
551.0879, 9308.792
551.5700, 9438.314
552.0521, 9577.062
552.5342, 9724.907
553.0164, 9885.853
553.4985, 10062.17
553.9806, 10232.70
554.4627, 10383.83
554.9448, 10519.33
555.4269, 10650.11
555.9091, 10777.16
556.3912, 10901.62
556.8733, 11028.15
557.3554, 11151.31
557.8375, 11258.80
558.3196, 11336.71
558.8018, 11414.08
559.2839, 11519.38
559.7660, 11640.07
560.2481, 11747.90
560.7302, 11826.60
561.2123, 11895.35
561.6945, 11959.51
562.1766, 12017.56
562.6587, 12081.40
563.1408, 12149.20
563.6229, 12223.83
564.1050, 12313.76
564.5872, 12444.87
565.0693, 12522.22
565.5514, 12528.64
566.0335, 12493.40
566.5156, 12473.88
566.9977, 12472.69
567.4799, 12450.37
567.9620, 12393.01
568.4441, 12304.74
568.9262, 12206.35
569.4083, 12095.19
569.8904, 11941.91
570.3726, 11701.13
570.8547, 11414.38
571.3368, 11127.53
571.8189, 10849.14
572.3010, 10573.08
572.7831, 10300.62
573.2653, 10028.63
573.7474, 9758.303
574.2295, 9494.555
574.7116, 9223.320
575.1937, 8933.785
575.6758, 8629.539
576.1580, 8336.371
576.6401, 8052.816
577.1222, 7779.113
577.6042, 7514.863
578.0864, 7256.103
578.5685, 7012.508
579.0506, 6777.948
579.5327, 6570.289
580.0148, 6420.576
580.4969, 6325.471
580.9791, 6194.883
581.4612, 6007.579
581.9433, 5799.927
582.4254, 5631.612
582.9075, 5492.825
583.3896, 5354.610
583.8718, 5195.597
584.3539, 5037.374
584.8360, 4894.069
585.3181, 4766.851
585.8002, 4657.181
586.2823, 4579.447
586.7645, 4511.042
587.2466, 4439.016
587.7287, 4361.992
588.2108, 4280.668
588.6929, 4175.502
589.1750, 4076.826
589.6572, 4018.047
590.1393, 4024.947
590.6214, 4015.591
591.1035, 3975.383
591.5856, 3914.570
592.0677, 3857.281
592.5499, 3802.426
593.0320, 3761.545
593.5141, 3744.434
593.9962, 3745.495
594.4783, 3744.721
594.9604, 3742.181
595.4426, 3746.330
595.9247, 3768.801
596.4068, 3800.377
596.8889, 3828.139
597.3710, 3848.572
597.8531, 3868.695
598.3353, 3890.015
598.8174, 3914.566
599.2995, 3945.256
599.7816, 3979.141
600.2637, 4022.805
600.7458, 4085.321
601.2280, 4161.476
601.7101, 4223.563
602.1922, 4261.253
602.6743, 4301.402
603.1564, 4354.810
603.6385, 4422.371
604.1207, 4491.465
604.6028, 4562.633
605.0849, 4634.791
605.5670, 4709.123
606.0491, 4783.772
606.5313, 4848.606
607.0134, 4900.613
607.4955, 4948.502
607.9776, 5007.941
608.4597, 5070.863
608.9418, 5121.721
609.4240, 5147.738
609.9061, 5164.418
610.3882, 5180.572
610.8703, 5195.333
611.3524, 5203.104
611.8345, 5200.757
612.3167, 5192.714
612.7988, 5181.082
613.2809, 5166.378
613.7630, 5145.571
614.2451, 5115.676
614.7272, 5083.698
615.2094, 5059.443
615.6915, 5045.976
616.1736, 5013.992
616.6557, 4956.094
617.1378, 4887.480
617.6199, 4833.191
618.1021, 4790.598
618.5842, 4746.204
619.0663, 4693.836
