##NAMES=Golyshevite
##RRUFFID=R061047
##IDEAL CHEMISTRY=Na_10_Ca_9_Zr^4+^_3_Fe^2+^_2_SiNb^5+^(Si_3_O_9_)_2_(Si_9_O_27_)_2_(OH)_3_(CO_3_)&#183;H_2_O
##LOCALITY=Mica mine, Kovdor, Kola, Russia
##OWNER=RRUFF
##SOURCE=Michael Scott
##DESCRIPTION=Dark brown vitreous blebs
##STATUS=The identification of this mineral has been confirmed only by single crystal X-ray diffraction.
##URL=rruff.info/R061047
138.4018, 4437.028
138.8840, 4636.051
139.3661, 4865.878
139.8482, 5110.584
140.3303, 5364.538
140.8124, 5625.835
141.2945, 5886.926
141.7766, 6144.667
142.2588, 6408.770
142.7409, 6691.088
143.2230, 6981.556
143.7051, 7259.414
144.1872, 7516.189
144.6693, 7751.312
145.1515, 7971.050
145.6336, 8184.855
146.1157, 8369.547
146.5978, 8516.187
147.0799, 8625.215
147.5620, 8695.625
148.0442, 8719.915
148.5263, 8707.310
149.0084, 8688.852
149.4905, 8675.271
149.9726, 8638.528
150.4547, 8551.415
150.9369, 8417.784
151.4190, 8277.840
151.9011, 8144.639
152.3832, 8017.446
152.8653, 7892.143
153.3474, 7770.058
153.8296, 7648.761
154.3117, 7520.084
154.7938, 7383.884
155.2759, 7267.363
155.7580, 7192.904
156.2401, 7142.030
156.7223, 7087.458
157.2044, 7016.001
157.6865, 6955.796
158.1686, 6941.062
158.6507, 6975.894
159.1328, 7021.968
159.6150, 7067.063
160.0971, 7113.112
160.5792, 7163.305
161.0613, 7221.221
161.5434, 7278.713
162.0255, 7324.850
162.5077, 7357.609
162.9898, 7387.599
163.4719, 7409.029
163.9540, 7433.870
164.4361, 7478.762
164.9182, 7556.058
165.4004, 7640.558
165.8825, 7689.187
166.3646, 7690.938
166.8467, 7692.726
167.3288, 7719.963
167.8109, 7752.709
168.2931, 7770.307
168.7752, 7762.866
169.2573, 7743.126
169.7394, 7735.361
170.2215, 7747.462
170.7036, 7751.476
171.1858, 7732.047
171.6679, 7703.793
172.1500, 7680.877
172.6321, 7669.540
173.1142, 7664.546
173.5963, 7653.109
174.0785, 7626.882
174.5606, 7613.789
175.0427, 7632.508
175.5248, 7661.975
176.0069, 7679.716
176.4890, 7675.161
176.9711, 7659.295
177.4533, 7656.250
177.9354, 7671.182
178.4175, 7689.292
178.8996, 7707.287
179.3817, 7725.669
179.8638, 7744.873
180.3460, 7764.990
180.8281, 7786.240
181.3102, 7808.055
181.7923, 7824.705
182.2744, 7853.676
182.7565, 7901.612
183.2387, 7959.711
183.7208, 8022.508
184.2029, 8088.799
184.6850, 8151.549
185.1671, 8190.935
185.6492, 8184.866
186.1314, 8195.621
186.6135, 8236.911
187.0956, 8296.009
187.5777, 8362.374
188.0598, 8432.353
188.5419, 8503.663
189.0241, 8574.292
189.5062, 8652.348
189.9883, 8712.522
190.4704, 8738.016
190.9525, 8753.297
191.4346, 8780.503
191.9168, 8828.478
192.3989, 8890.087
192.8810, 8951.727
193.3631, 9016.851
193.8452, 9074.805
194.3273, 9117.335
194.8095, 9156.865
195.2916, 9205.928
195.7737, 9268.943
196.2558, 9337.899
196.7379, 9398.363
197.2200, 9451.154
197.7022, 9491.335
198.1843, 9511.064
198.6664, 9524.592
199.1485, 9541.916
199.6306, 9566.582
200.1127, 9598.341
200.5949, 9638.151
201.0770, 9694.481
201.5591, 9741.637
202.0412, 9781.377
202.5233, 9811.290
203.0054, 9829.627
203.4876, 9835.960
203.9697, 9830.937
204.4518, 9813.474
204.9339, 9773.721
205.4160, 9742.796
205.8981, 9722.203
206.3803, 9709.227
206.8624, 9706.323
207.3445, 9712.244
207.8266, 9717.698
208.3087, 9708.493
208.7908, 9678.021
209.2730, 9648.434
209.7551, 9617.496
210.2372, 9589.284
210.7193, 9569.967
211.2014, 9558.743
211.6835, 9546.101
212.1656, 9516.759
212.6478, 9459.420
213.1299, 9420.724
213.6120, 9416.340
214.0941, 9416.687
214.5762, 9407.291
215.0583, 9386.868
215.5405, 9362.454
216.0226, 9341.925
216.5047, 9327.360
216.9868, 9308.066
217.4689, 9284.178
217.9510, 9255.943
218.4332, 9220.686
218.9153, 9180.220
219.3974, 9139.641
219.8795, 9102.174
220.3616, 9066.956
220.8438, 9043.386
221.3259, 9060.477
221.8080, 9062.788
222.2901, 9019.988
222.7722, 8943.705
223.2543, 8867.475
223.7365, 8820.117
224.2186, 8801.144
224.7007, 8773.721
225.1828, 8730.458
225.6649, 8685.168
226.1470, 8638.784
226.6292, 8593.419
227.1113, 8552.788
227.5934, 8520.581
228.0755, 8495.498
228.5576, 8466.654
229.0397, 8428.638
229.5219, 8393.296
230.0040, 8366.552
230.4861, 8343.928
230.9682, 8317.613
231.4503, 8281.894
231.9324, 8240.994
232.4146, 8211.646
232.8967, 8197.798
233.3788, 8190.733
233.8609, 8194.319
234.3430, 8200.394
234.8251, 8199.337
235.3073, 8186.621
235.7894, 8165.245
236.2715, 8140.477
236.7536, 8106.326
237.2357, 8081.980
237.7178, 8074.199
238.2000, 8075.511
238.6821, 8082.026
239.1642, 8093.037
239.6463, 8101.934
240.1284, 8096.710
240.6105, 8073.205
241.0927, 8049.125
241.5748, 8026.946
242.0569, 8006.308
242.5390, 7984.053
243.0211, 7959.833
243.5032, 7942.955
243.9854, 7951.568
244.4675, 7991.970
244.9496, 8013.396
245.4317, 7984.098
245.9138, 7950.164
246.3959, 7939.170
246.8781, 7952.987
247.3602, 7975.180
247.8423, 7993.905
248.3244, 8009.229
248.8065, 8018.395
249.2886, 8012.102
249.7707, 8009.324
250.2529, 8025.944
250.7350, 8058.148
251.2171, 8086.675
251.6992, 8093.793
252.1813, 8084.704
252.6634, 8086.052
253.1456, 8104.741
253.6277, 8124.728
254.1098, 8131.731
254.5919, 8131.387
255.0740, 8138.603
255.5561, 8171.580
256.0383, 8214.880
256.5204, 8231.572
257.0025, 8213.514
257.4846, 8192.364
257.9667, 8186.881
258.4489, 8191.551
258.9310, 8199.494
259.4131, 8216.430
259.8952, 8229.576
260.3773, 8216.374
260.8594, 8173.849
261.3416, 8138.717
261.8237, 8136.061
262.3058, 8150.264
262.7879, 8154.081
263.2700, 8138.813
263.7521, 8121.983
264.2343, 8118.453
264.7163, 8126.780
265.1985, 8135.417
265.6806, 8141.197
266.1627, 8143.565
266.6448, 8141.553
267.1269, 8133.446
267.6090, 8126.286
268.0912, 8123.591
268.5733, 8124.529
269.0554, 8127.947
269.5375, 8134.907
270.0196, 8141.209
270.5017, 8137.121
270.9839, 8120.464
271.4660, 8112.430
271.9481, 8123.953
272.4302, 8145.188
272.9123, 8161.423
273.3944, 8169.523
273.8766, 8179.081
274.3587, 8204.710
274.8408, 8250.217
275.3229, 8274.209
275.8050, 8250.514
276.2871, 8220.997
276.7693, 8222.681
277.2514, 8255.373
277.7335, 8292.239
278.2156, 8312.076
278.6977, 8314.526
279.1798, 8318.489
279.6620, 8321.102
280.1441, 8327.661
280.6262, 8341.641
281.1083, 8361.591
281.5904, 8383.799
282.0725, 8406.025
282.5547, 8428.616
283.0368, 8453.555
283.5189, 8497.403
284.0010, 8523.812
284.4831, 8513.459
284.9652, 8486.519
285.4474, 8470.083
285.9295, 8475.047
286.4116, 8491.438
286.8937, 8497.358
287.3758, 8476.489
287.8579, 8470.221
288.3401, 8485.316
288.8222, 8509.810
289.3043, 8536.157
289.7864, 8562.077
290.2685, 8587.837
290.7506, 8614.621
291.2328, 8645.233
291.7149, 8667.352
292.1970, 8672.792
292.6791, 8677.831
293.1612, 8689.861
293.6433, 8708.469
294.1255, 8728.621
294.6076, 8744.641
295.0897, 8757.115
295.5718, 8782.774
296.0539, 8829.598
296.5360, 8880.870
297.0182, 8935.821
297.5003, 8990.399
297.9824, 9036.373
298.4645, 9066.583
298.9466, 9090.677
299.4287, 9137.395
299.9109, 9221.123
300.3930, 9292.611
300.8751, 9324.931
301.3572, 9344.526
301.8393, 9377.521
302.3214, 9432.415
302.8036, 9490.396
303.2857, 9527.917
303.7678, 9544.023
304.2499, 9560.506
304.7320, 9575.437
305.2141, 9599.728
305.6963, 9650.958
306.1784, 9729.068
306.6605, 9792.695
307.1426, 9811.599
307.6247, 9795.543
308.1068, 9773.183
308.5890, 9744.095
309.0711, 9718.847
309.5532, 9713.793
310.0353, 9722.803
310.5174, 9721.603
310.9995, 9699.095
311.4817, 9665.644
311.9638, 9632.521
312.4459, 9599.982
312.9280, 9564.917
313.4101, 9523.243
313.8922, 9477.593
314.3744, 9439.270
314.8565, 9409.624
315.3386, 9385.682
315.8207, 9375.914
316.3028, 9371.440
316.7849, 9345.214
317.2671, 9281.691
317.7492, 9200.487
318.2313, 9150.047
318.7134, 9149.156
319.1955, 9142.048
319.6776, 9118.334
320.1598, 9086.599
320.6419, 9054.249
321.1240, 9023.454
321.6061, 8994.400
322.0882, 8966.829
322.5703, 8938.121
323.0525, 8921.229
323.5346, 8924.378
324.0167, 8929.971
324.4988, 8929.333
324.9809, 8922.826
325.4630, 8915.066
325.9452, 8909.802
326.4273, 8906.420
326.9094, 8897.673
327.3915, 8876.903
327.8736, 8858.427
328.3557, 8838.620
328.8379, 8824.683
329.3200, 8826.874
329.8021, 8850.094
330.2842, 8885.720
330.7663, 8918.729
331.2484, 8950.488
331.7306, 8976.317
332.2127, 8991.917
332.6948, 9004.274
333.1769, 9014.604
333.6590, 9024.288
334.1411, 9040.398
334.6233, 9072.408
335.1053, 9119.066
335.5875, 9160.745
336.0696, 9186.533
336.5517, 9221.989
337.0338, 9296.524
337.5159, 9394.724
337.9980, 9472.724
338.4802, 9503.678
338.9623, 9507.424
339.4444, 9507.211
339.9265, 9501.247
340.4086, 9510.906
340.8907, 9557.224
341.3729, 9624.383
341.8550, 9677.229
342.3371, 9716.051
342.8192, 9737.285
343.3013, 9724.457
343.7834, 9691.568
344.2656, 9678.751
344.7477, 9702.572
345.2298, 9740.131
345.7119, 9755.982
346.1940, 9748.178
346.6761, 9726.982
347.1583, 9684.609
347.6404, 9634.691
348.1225, 9589.268
348.6046, 9549.366
349.0867, 9510.146
349.5688, 9467.352
350.0510, 9421.078
350.5331, 9370.986
351.0152, 9315.937
351.4973, 9259.075
351.9794, 9197.135
352.4615, 9134.668
352.9437, 9082.148
353.4258, 9046.082
353.9079, 9014.720
354.3900, 8954.365
354.8721, 8839.613
355.3542, 8742.248
355.8364, 8675.738
356.3185, 8621.547
356.8006, 8566.201
357.2827, 8507.176
357.7648, 8449.829
358.2469, 8401.635
358.7291, 8363.245
359.2112, 8318.268
359.6933, 8265.725
360.1754, 8206.323
360.6575, 8133.257
361.1396, 8054.422
361.6218, 7988.335
362.1039, 7948.195
362.5860, 7922.267
363.0681, 7890.147
363.5502, 7850.701
364.0323, 7815.042
364.5145, 7788.290
364.9966, 7768.583
365.4787, 7753.965
365.9608, 7748.873
366.4429, 7736.821
366.9250, 7700.285
367.4072, 7650.677
367.8893, 7612.857
368.3714, 7592.789
368.8535, 7586.292
369.3356, 7591.760
369.8177, 7611.950
370.2999, 7624.871
370.7820, 7625.901
371.2641, 7622.035
371.7462, 7614.674
372.2283, 7606.057
372.7104, 7603.645
373.1926, 7613.975
373.6747, 7633.379
374.1568, 7638.218
374.6389, 7613.330
375.1210, 7591.696
375.6031, 7581.740
376.0853, 7574.756
376.5674, 7559.369
377.0495, 7532.814
377.5316, 7504.167
378.0137, 7486.597
378.4958, 7482.477
378.9780, 7480.903
379.4601, 7488.672
379.9422, 7492.840
380.4243, 7488.666
380.9064, 7476.229
381.3885, 7456.130
381.8707, 7422.484
382.3528, 7384.432
382.8349, 7371.656
383.3170, 7392.946
383.7991, 7411.125
384.2813, 7400.323
384.7634, 7381.698
385.2455, 7381.192
385.7276, 7407.361
386.2097, 7436.264
386.6918, 7444.917
387.1740, 7441.338
387.6561, 7455.199
388.1382, 7497.883
388.6203, 7546.130
389.1024, 7570.634
389.5845, 7570.336
390.0667, 7579.032
390.5488, 7608.355
391.0309, 7642.002
391.5130, 7664.835
391.9951, 7679.503
392.4772, 7700.796
392.9594, 7738.637
393.4415, 7789.262
393.9236, 7834.459
394.4057, 7881.060
394.8878, 7913.442
395.3699, 7917.159
395.8521, 7912.683
396.3342, 7922.086
396.8163, 7949.444
397.2984, 7980.868
397.7805, 8002.323
398.2626, 8015.853
398.7448, 8005.586
399.2269, 7934.986
399.7090, 7877.411
400.1911, 7874.561
400.6732, 7903.623
401.1553, 7915.993
401.6375, 7882.530
402.1196, 7826.483
402.6017, 7789.611
403.0838, 7774.573
403.5659, 7762.945
404.0480, 7754.098
404.5302, 7741.890
405.0123, 7718.456
405.4944, 7682.433
405.9765, 7645.865
406.4586, 7614.479
406.9407, 7586.866
407.4228, 7560.675
407.9049, 7535.511
408.3871, 7511.159
408.8692, 7484.078
409.3513, 7455.926
409.8334, 7448.830
410.3155, 7494.663
410.7976, 7526.210
411.2798, 7503.549
411.7619, 7449.228
412.2440, 7404.427
412.7261, 7385.562
413.2082, 7380.650
413.6903, 7366.557
414.1725, 7331.097
414.6546, 7312.604
415.1367, 7332.494
415.6188, 7347.949
416.1009, 7326.878
416.5830, 7277.846
417.0652, 7234.331
417.5473, 7222.522
418.0294, 7234.084
418.5115, 7236.065
418.9936, 7225.057
419.4757, 7212.717
419.9579, 7210.914
420.4400, 7206.095
420.9221, 7179.275
421.4042, 7123.406
421.8863, 7072.559
422.3684, 7063.049
422.8506, 7079.962
423.3327, 7074.364
423.8148, 7033.884
424.2969, 6986.483
424.7790, 6958.791
425.2611, 6949.080
425.7433, 6930.783
426.2254, 6896.791
426.7075, 6859.006
427.1896, 6822.266
427.6717, 6787.104
428.1538, 6753.014
428.6360, 6719.523
429.1181, 6688.726
429.6002, 6665.036
430.0823, 6651.537
430.5644, 6639.999
431.0465, 6634.668
431.5287, 6627.573
432.0108, 6609.839
432.4929, 6584.766
432.9750, 6565.373
433.4571, 6563.880
433.9392, 6574.871
434.4214, 6570.416
434.9035, 6540.058
435.3856, 6517.602
435.8677, 6522.052
436.3498, 6535.375
436.8319, 6539.285
437.3141, 6529.385
437.7962, 6521.688
438.2783, 6530.402
438.7604, 6550.881
439.2425, 6568.764
439.7246, 6581.159
440.2068, 6595.201
440.6889, 6621.474
441.1710, 6657.059
441.6531, 6674.395
442.1352, 6651.517
442.6173, 6631.340
443.0995, 6639.831
443.5816, 6665.588
444.0637, 6686.438
444.5458, 6693.990
445.0279, 6693.105
445.5100, 6690.846
445.9922, 6682.043
446.4743, 6685.711
446.9564, 6723.424
447.4385, 6751.707
447.9206, 6738.812
448.4027, 6698.495
448.8849, 6667.105
449.3670, 6668.569
449.8491, 6689.565
450.3312, 6695.553
450.8133, 6681.977
451.2954, 6672.526
451.7776, 6678.181
452.2597, 6687.804
452.7418, 6691.505
453.2239, 6688.668
453.7060, 6684.977
454.1881, 6672.374
454.6703, 6664.930
455.1524, 6692.522
455.6345, 6757.002
456.1166, 6823.687
456.5987, 6877.530
457.0808, 6913.407
457.5630, 6904.997
458.0451, 6814.810
458.5272, 6734.945
459.0093, 6689.596
459.4914, 6661.192
459.9735, 6629.155
460.4557, 6589.977
460.9378, 6554.622
461.4199, 6537.143
461.9020, 6538.888
462.3841, 6530.184
462.8662, 6503.362
463.3484, 6474.859
463.8305, 6450.623
464.3126, 6427.290
464.7947, 6400.641
465.2768, 6369.718
465.7589, 6333.473
466.2411, 6288.221
466.7232, 6235.180
467.2053, 6184.514
467.6874, 6136.584
468.1695, 6093.574
468.6516, 6063.188
469.1338, 6041.723
469.6159, 6009.269
470.0980, 5950.188
470.5801, 5890.764
471.0622, 5848.114
471.5443, 5818.167
472.0265, 5792.681
472.5086, 5768.797
472.9907, 5741.367
473.4728, 5699.743
473.9549, 5629.818
474.4370, 5581.968
474.9192, 5573.085
475.4013, 5566.675
475.8834, 5545.478
476.3655, 5512.209
476.8476, 5476.521
477.3297, 5443.377
477.8118, 5412.136
478.2939, 5380.397
478.7761, 5347.390
479.2582, 5318.859
479.7403, 5293.544
480.2224, 5276.475
480.7045, 5277.723
481.1866, 5295.630
481.6688, 5301.072
482.1509, 5264.273
482.6330, 5221.189
483.1151, 5219.122
483.5972, 5253.203
484.0793, 5280.700
484.5615, 5278.879
485.0436, 5256.937
485.5257, 5238.241
486.0078, 5215.759
486.4899, 5208.309
486.9720, 5227.714
487.4542, 5253.305
487.9363, 5273.893
488.4184, 5286.895
488.9005, 5290.520
489.3826, 5281.324
489.8647, 5264.100
490.3469, 5257.477
490.8290, 5264.528
491.3111, 5273.684
491.7932, 5276.882
492.2753, 5284.229
492.7574, 5307.152
493.2396, 5346.275
493.7217, 5384.449
494.2038, 5415.772
494.6859, 5438.731
495.1680, 5446.193
495.6501, 5438.747
496.1323, 5434.165
496.6144, 5442.515
497.0965, 5461.622
497.5786, 5484.620
498.0607, 5520.752
498.5428, 5546.598
499.0250, 5549.230
499.5071, 5548.139
499.9892, 5559.898
500.4713, 5585.290
500.9534, 5615.741
501.4355, 5645.419
501.9177, 5674.021
502.3998, 5699.264
502.8819, 5717.494
503.3640, 5740.711
503.8461, 5777.795
504.3282, 5818.338
504.8104, 5856.954
505.2925, 5892.767
505.7746, 5917.382
506.2567, 5918.598
506.7388, 5908.306
507.2209, 5904.271
507.7031, 5907.849
508.1852, 5921.028
508.6673, 5948.453
509.1494, 5983.615
509.6315, 6003.511
510.1136, 5996.598
510.5958, 5992.578
511.0779, 5997.557
511.5600, 6003.873
512.0421, 6002.717
512.5242, 5995.644
513.0063, 5993.522
513.4885, 6006.905
513.9706, 6029.995
514.4527, 6038.139
514.9348, 6027.973
515.4169, 6011.424
515.8990, 5982.302
516.3812, 5954.543
516.8633, 5942.481
517.3454, 5946.868
517.8275, 5948.636
518.3096, 5935.550
518.7917, 5915.912
519.2739, 5903.091
519.7560, 5896.230
520.2381, 5881.511
520.7202, 5849.388
521.2023, 5808.215
521.6844, 5779.342
522.1666, 5767.442
522.6487, 5761.834
523.1308, 5768.786
523.6129, 5776.813
524.0950, 5775.744
524.5771, 5768.467
525.0593, 5765.159
525.5414, 5771.775
526.0235, 5787.717
526.5056, 5819.103
526.9877, 5873.778
527.4698, 5897.699
527.9520, 5856.350
528.4341, 5800.558
528.9162, 5775.825
529.3983, 5780.867
529.8804, 5799.161
530.3625, 5839.250
530.8447, 5879.741
531.3268, 5892.144
531.8089, 5887.585
532.2910, 5904.056
532.7731, 5958.644
533.2552, 6034.388
533.7374, 6100.679
534.2195, 6148.126
534.7016, 6213.028
535.1837, 6311.650
535.6658, 6409.950
536.1479, 6490.147
536.6301, 6560.102
537.1122, 6636.163
537.5943, 6725.619
538.0764, 6823.395
538.5585, 6929.680
539.0406, 7042.111
539.5228, 7130.512
540.0049, 7182.064
540.4870, 7227.866
540.9691, 7297.271
541.4512, 7386.312
541.9333, 7464.121
542.4155, 7520.731
542.8976, 7575.623
543.3797, 7642.133
543.8618, 7710.265
544.3439, 7760.896
544.8260, 7791.539
545.3082, 7823.800
545.7903, 7883.330
546.2724, 7970.166
546.7545, 8045.646
547.2366, 8096.693
547.7188, 8157.486
548.2009, 8244.928
548.6830, 8343.065
549.1651, 8436.798
549.6472, 8523.488
550.1293, 8604.805
550.6115, 8676.413
551.0936, 8745.162
551.5757, 8823.069
552.0578, 8910.773
552.5399, 9008.109
553.0220, 9117.977
553.5042, 9234.152
553.9863, 9335.887
554.4684, 9413.569
554.9505, 9489.519
555.4326, 9554.765
555.9147, 9626.204
556.3969, 9723.254
556.8790, 9837.743
557.3611, 9944.236
557.8432, 10028.62
558.3253, 10092.94
558.8074, 10135.11
559.2896, 10153.02
559.7717, 10180.98
560.2538, 10233.21
560.7359, 10289.26
561.2180, 10325.94
561.7001, 10345.86
562.1823, 10367.76
562.6644, 10396.90
563.1465, 10426.39
563.6286, 10444.99
564.1107, 10462.76
564.5928, 10502.01
565.0750, 10568.77
565.5571, 10642.63
566.0392, 10699.49
566.5213, 10738.68
567.0034, 10768.57
567.4855, 10796.85
567.9677, 10803.42
568.4498, 10775.77
568.9319, 10728.17
569.4140, 10680.38
569.8961, 10638.16
570.3782, 10577.62
570.8604, 10488.92
571.3425, 10369.60
571.8246, 10203.49
572.3067, 9992.582
572.7888, 9780.215
573.2709, 9591.518
573.7531, 9419.303
574.2352, 9240.791
574.7173, 9039.280
575.1994, 8858.937
575.6815, 8725.038
576.1636, 8589.770
576.6458, 8419.238
577.1279, 8222.050
577.6100, 8025.587
578.0921, 7840.095
578.5742, 7669.792
579.0563, 7526.294
579.5385, 7407.638
580.0206, 7285.416
580.5027, 7152.140
580.9848, 7018.358
581.4669, 6895.105
581.9490, 6782.029
582.4311, 6668.446
582.9132, 6540.099
583.3953, 6427.230
583.8774, 6353.533
584.3596, 6295.417
584.8417, 6223.127
585.3238, 6131.788
585.8059, 6040.367
586.2880, 5967.364
586.7701, 5909.282
587.2523, 5839.280
587.7344, 5749.849
588.2165, 5673.142
588.6986, 5625.450
589.1807, 5592.545
589.6628, 5560.306
590.1450, 5528.890
590.6271, 5490.747
591.1092, 5428.026
591.5913, 5370.380
592.0734, 5345.004
592.5555, 5345.507
593.0377, 5355.054
593.5198, 5366.714
594.0019, 5374.888
594.4840, 5368.247
594.9661, 5342.056
595.4482, 5325.787
595.9304, 5317.014
596.4125, 5322.304
596.8946, 5350.446
597.3767, 5390.502
597.8588, 5429.073
598.3409, 5464.426
598.8231, 5491.603
599.3052, 5497.722
599.7873, 5497.686
600.2694, 5516.615
600.7515, 5555.639
601.2336, 5601.426
601.7158, 5646.945
602.1979, 5691.669
602.6800, 5733.140
603.1621, 5760.416
603.6442, 5805.698
604.1263, 5880.001
604.6085, 5960.960
605.0906, 6046.075
605.5727, 6127.665
606.0548, 6188.871
606.5369, 6215.023
607.0190, 6238.772
607.5012, 6303.499
607.9833, 6395.575
608.4654, 6469.023
608.9475, 6515.353
609.4296, 6549.792
609.9117, 6584.658
610.3939, 6618.524
610.8760, 6640.746
611.3581, 6634.583
611.8402, 6638.847
612.3223, 6672.451
612.8044, 6705.709
613.2866, 6712.728
613.7687, 6696.190
614.2508, 6678.144
614.7329, 6676.160
615.2150, 6674.911
615.6971, 6641.000
616.1793, 6578.650
616.6614, 6536.540
617.1435, 6531.354
617.6256, 6534.843
618.1077, 6518.532
618.5898, 6482.027
619.0720, 6446.714
619.5541, 6418.385
620.0362, 6384.283
620.5183, 6334.721
621.0004, 6281.555
621.4825, 6235.508
621.9647, 6198.717
622.4468, 6168.276
622.9289, 6142.110
623.4110, 6120.329
623.8931, 6105.322
624.3752, 6097.522
624.8574, 6085.954
625.3395, 6068.776
625.8216, 6043.357
626.3037, 6000.790
626.7858, 5937.351
627.2679, 5898.428
627.7501, 5908.487
628.2322, 5916.379
628.7143, 5898.323
629.1964, 5868.416
629.6785, 5845.912
630.1606, 5834.898
630.6428, 5825.247
631.1249, 5807.364
631.6070, 5783.221
632.0891, 5759.054
632.5712, 5734.623
633.0533, 5712.801
633.5355, 5695.082
634.0176, 5679.838
634.4997, 5663.819
634.9818, 5646.124
