##NAMES=Gonnardite
##RRUFFID=R100080
##IDEAL CHEMISTRY=(Na,Ca)_2_(Si,Al)_5_O_10_&#183;3H_2_O
##LOCALITY=Rio Chiavone nero, Fara, Breganze, Vicenza, Italy
##OWNER=RRUFF
##SOURCE=Ivano Rocchetti
##DESCRIPTION=White spherical aggregate of acicular crystals, associated with colorless analcime
##STATUS=The identification of this mineral has been confirmed by single-crystal X-ray diffraction.
##URL=rruff.info/R100080
112.2642, 88.64937
112.7463, 88.70756
113.2285, 89.06174
113.7106, 89.35403
114.1927, 89.50096
114.6748, 89.64657
115.1569, 90.05647
115.6390, 90.93410
116.1212, 91.54546
116.6033, 91.41730
117.0854, 91.05184
117.5675, 90.97453
118.0496, 91.47960
118.5317, 92.41303
119.0139, 93.02537
119.4960, 92.76851
119.9781, 92.75884
120.4602, 93.51499
120.9423, 94.65614
121.4244, 95.50262
121.9066, 95.50651
122.3887, 94.59772
122.8708, 93.78428
123.3529, 92.98124
123.8350, 92.31185
124.3171, 91.96818
124.7993, 91.89397
125.2814, 91.75609
125.7635, 91.19787
126.2456, 90.10381
126.7277, 89.06391
127.2098, 88.02879
127.6920, 87.07736
128.1741, 86.31629
128.6562, 85.79154
129.1383, 85.35488
129.6204, 84.90665
130.1025, 84.45380
130.5847, 83.77776
131.0668, 82.53471
131.5489, 80.94115
132.0310, 79.77530
132.5131, 79.34930
132.9952, 79.26658
133.4774, 79.22072
133.9595, 79.19913
134.4416, 79.07528
134.9237, 78.70779
135.4058, 78.06377
135.8879, 77.39615
136.3701, 76.60802
136.8522, 75.90604
137.3343, 75.43855
137.8164, 75.23663
138.2985, 75.20155
138.7806, 75.19592
139.2628, 75.36149
139.7449, 75.26985
140.2270, 74.62440
140.7091, 73.86714
141.1912, 73.44062
141.6733, 73.54478
142.1555, 73.98915
142.6376, 74.11988
143.1197, 73.73317
143.6018, 73.22976
144.0839, 72.43971
144.5660, 71.57900
145.0482, 70.98483
145.5303, 70.86911
146.0124, 71.17748
146.4945, 71.49761
146.9766, 71.85633
147.4587, 72.19666
147.9409, 72.58320
148.4230, 72.96826
148.9051, 73.11504
149.3872, 72.71944
149.8693, 71.92693
150.3514, 71.58897
150.8336, 72.05195
151.3157, 72.77038
151.7978, 73.25109
152.2799, 73.45731
152.7620, 73.63904
153.2441, 73.97012
153.7263, 74.40827
154.2084, 74.91367
154.6905, 75.57696
155.1726, 76.28130
155.6547, 76.72274
156.1368, 76.71090
156.6190, 76.77972
157.1011, 77.34798
157.5832, 78.19688
158.0653, 78.90859
158.5474, 79.21339
159.0295, 79.13039
159.5117, 78.89426
159.9938, 78.08496
160.4759, 77.55317
160.9580, 77.83115
161.4401, 78.68424
161.9222, 79.48814
162.4044, 79.63863
162.8865, 78.99229
163.3686, 78.52718
163.8507, 78.44790
164.3328, 78.35783
164.8149, 78.06422
165.2971, 77.56967
165.7792, 77.02183
166.2613, 76.60428
166.7434, 76.43703
167.2255, 76.03292
167.7076, 75.34065
168.1898, 74.48685
168.6719, 73.51210
169.1540, 72.43642
169.6361, 71.34093
170.1182, 70.32910
170.6003, 69.39951
171.0825, 68.59046
171.5646, 68.06090
172.0467, 67.59576
172.5288, 66.87615
173.0109, 65.77624
173.4930, 64.62180
173.9752, 64.06010
174.4573, 64.17614
174.9394, 64.10622
175.4215, 63.48121
175.9036, 62.48797
176.3857, 61.51577
176.8679, 60.60432
177.3500, 59.85901
177.8321, 59.44855
178.3142, 59.39643
178.7963, 59.33770
179.2784, 59.06852
179.7606, 58.60110
180.2427, 58.03611
180.7248, 57.27320
181.2069, 56.53482
181.6890, 56.04467
182.1711, 55.82477
182.6533, 55.66401
183.1354, 55.36411
183.6175, 54.91083
184.0996, 54.43239
184.5817, 53.82249
185.0638, 53.28097
185.5460, 52.96600
186.0281, 52.90645
186.5102, 52.96185
186.9923, 52.95024
187.4744, 52.86841
187.9565, 52.71959
188.4387, 52.58345
188.9208, 52.34562
189.4029, 51.86033
189.8850, 51.09536
190.3671, 50.22754
190.8492, 49.59233
191.3314, 49.39204
191.8135, 49.11625
192.2956, 48.49236
192.7777, 47.90506
193.2598, 47.77096
193.7419, 48.24256
194.2241, 49.05143
194.7062, 49.55079
195.1883, 49.54810
195.6704, 49.41211
196.1525, 49.06196
196.6346, 48.61085
197.1168, 48.17689
197.5989, 47.80981
198.0810, 47.50205
198.5631, 47.23675
199.0452, 47.01803
199.5273, 46.83117
200.0095, 46.63111
200.4916, 46.46757
200.9737, 46.44954
201.4558, 46.65380
201.9379, 46.97703
202.4200, 47.13161
202.9022, 47.17154
203.3843, 47.01889
203.8664, 46.39948
204.3485, 45.52872
204.8306, 45.06413
205.3127, 45.43479
205.7949, 46.22337
206.2770, 46.49979
206.7591, 46.13753
207.2412, 45.60819
207.7233, 45.11738
208.2054, 44.66620
208.6876, 44.27012
209.1697, 43.91432
209.6518, 43.64593
210.1339, 43.51815
210.6160, 43.55877
211.0981, 43.66831
211.5803, 43.79899
212.0624, 43.95094
212.5445, 44.05593
213.0266, 44.17461
213.5087, 44.16634
213.9908, 43.81453
214.4730, 43.02768
214.9551, 42.23422
215.4372, 41.95678
215.9193, 42.27533
216.4014, 42.60580
216.8836, 42.80373
217.3657, 42.94232
217.8478, 43.04493
218.3299, 43.11501
218.8120, 43.20081
219.2941, 43.41669
219.7763, 43.86436
220.2584, 44.09577
220.7405, 43.87238
221.2226, 43.51764
221.7047, 43.25353
222.1868, 43.13843
222.6690, 43.06660
223.1511, 42.82070
223.6332, 42.17505
224.1153, 41.89163
224.5974, 42.37120
225.0795, 42.97123
225.5617, 43.24091
226.0438, 43.05139
226.5259, 42.56670
227.0080, 42.02000
227.4901, 41.16734
227.9722, 40.74546
228.4544, 41.09627
228.9365, 41.62639
229.4186, 41.83148
229.9007, 41.58759
230.3828, 41.18282
230.8649, 41.13157
231.3471, 41.78965
231.8292, 42.24354
232.3113, 42.49076
232.7934, 42.55774
233.2755, 42.38328
233.7576, 41.97548
234.2398, 41.51853
234.7219, 41.32760
235.2040, 41.61739
235.6861, 41.80940
236.1682, 41.87917
236.6503, 41.86775
237.1325, 41.76681
237.6146, 41.58288
238.0967, 41.41981
238.5788, 41.45662
239.0609, 41.87600
239.5430, 42.05511
240.0252, 41.81266
240.5073, 41.39931
240.9894, 41.03382
241.4715, 40.76756
241.9536, 40.59380
242.4357, 40.53522
242.9179, 40.64388
243.4000, 40.62840
243.8821, 40.33552
244.3642, 39.96358
244.8463, 39.73955
245.3284, 39.71169
245.8106, 39.75096
246.2927, 39.66596
246.7748, 39.44193
247.2569, 39.43207
247.7390, 40.02391
248.2211, 40.71340
248.7033, 40.79049
249.1854, 40.08854
249.6675, 39.25824
250.1496, 39.01780
250.6317, 39.27035
251.1138, 39.39461
251.5960, 39.17539
252.0781, 38.79685
252.5602, 38.45514
253.0423, 38.15457
253.5244, 37.97436
254.0065, 38.09063
254.4887, 38.40181
254.9708, 38.63178
255.4529, 38.70547
255.9350, 38.66208
256.4171, 38.53157
256.8992, 38.29810
257.3813, 38.05538
257.8635, 37.89003
258.3456, 37.75956
258.8277, 37.58695
259.3098, 37.32143
259.7919, 37.02076
260.2740, 36.77586
260.7562, 36.60114
261.2383, 36.41967
261.7204, 36.05580
262.2025, 35.69091
262.6846, 35.60339
263.1667, 36.02573
263.6489, 36.57246
264.1310, 36.62693
264.6131, 36.05689
265.0952, 35.57022
265.5773, 35.56405
266.0594, 35.77311
266.5416, 35.96949
267.0237, 36.08768
267.5058, 36.18928
267.9879, 36.38868
268.4700, 36.72690
268.9521, 36.97096
269.4343, 36.98461
269.9164, 36.89922
270.3985, 36.78741
270.8806, 36.66252
271.3627, 36.55208
271.8448, 36.52262
272.3270, 36.60980
272.8091, 36.58942
273.2912, 36.35330
273.7733, 36.02116
274.2554, 35.56928
274.7375, 35.00790
275.2197, 34.57447
275.7018, 34.59988
276.1839, 35.16590
276.6660, 35.65532
277.1481, 36.05441
277.6302, 36.29255
278.1124, 36.24915
278.5945, 35.95085
279.0766, 35.59784
279.5587, 35.39324
280.0408, 35.35576
280.5229, 35.29185
281.0051, 35.08601
281.4872, 34.95049
281.9693, 35.07513
282.4514, 35.38003
282.9335, 35.58974
283.4156, 35.38751
283.8978, 34.75834
284.3799, 34.43470
284.8620, 34.78682
285.3441, 35.08781
285.8262, 35.03664
286.3083, 34.73676
286.7905, 34.44021
287.2726, 34.32631
287.7547, 34.37724
288.2368, 34.43053
288.7189, 34.52717
289.2010, 34.57223
289.6832, 34.52465
290.1653, 34.41475
290.6474, 34.24937
291.1295, 33.99836
291.6116, 33.75270
292.0938, 33.93521
292.5759, 35.10347
293.0580, 35.89038
293.5401, 35.91541
294.0222, 35.50292
294.5043, 34.95194
294.9865, 34.38631
295.4686, 33.87763
295.9507, 33.61111
296.4328, 33.70177
296.9149, 33.85010
297.3970, 34.06988
297.8792, 34.29274
298.3613, 34.48806
298.8434, 34.63975
299.3255, 34.69888
299.8076, 34.52871
300.2897, 33.87802
300.7719, 33.58421
301.2540, 33.94582
301.7361, 34.42699
302.2182, 34.76706
302.7003, 34.88445
303.1824, 34.76347
303.6646, 34.27111
304.1467, 33.14284
304.6288, 32.63266
305.1109, 33.33604
305.5930, 34.09573
306.0751, 34.36889
306.5573, 34.18174
307.0394, 33.87159
307.5215, 33.74353
308.0036, 33.81416
308.4857, 33.81269
308.9678, 33.51952
309.4500, 33.37051
309.9321, 33.61269
310.4142, 34.09730
310.8963, 34.51161
311.3784, 34.63604
311.8605, 34.51196
312.3427, 34.46464
312.8248, 34.56161
313.3069, 34.66302
313.7890, 34.78130
314.2711, 34.87818
314.7532, 34.87665
315.2354, 34.73080
315.7175, 34.53350
316.1996, 34.56308
316.6817, 34.98399
317.1638, 35.38683
317.6459, 35.82422
318.1281, 36.17484
318.6102, 36.27350
319.0923, 36.08423
319.5744, 35.79226
320.0565, 35.73120
320.5386, 36.08320
321.0208, 36.24072
321.5029, 35.97765
321.9850, 35.69564
322.4671, 35.64938
322.9492, 35.86239
323.4313, 36.18862
323.9135, 36.48307
324.3956, 36.74419
324.8777, 36.97689
325.3598, 37.14752
325.8419, 37.32117
326.3240, 37.55842
326.8062, 37.82592
327.2883, 38.03248
327.7704, 38.09398
328.2525, 38.02131
328.7346, 38.01360
329.2167, 38.16807
329.6989, 38.27896
330.1810, 38.21315
330.6631, 38.09114
331.1452, 38.11020
331.6273, 38.39105
332.1094, 38.83207
332.5916, 39.10488
333.0737, 39.06989
333.5558, 39.10303
334.0379, 39.34528
334.5200, 39.63612
335.0021, 39.78497
335.4843, 39.73662
335.9664, 39.66024
336.4485, 39.89403
336.9306, 40.65290
337.4127, 41.07337
337.8948, 40.80684
338.3770, 40.39783
338.8591, 40.12401
339.3412, 40.02579
339.8233, 40.02094
340.3055, 40.04097
340.7876, 40.08826
341.2697, 40.13257
341.7518, 40.09691
342.2339, 40.14001
342.7160, 40.45422
343.1982, 40.90424
343.6803, 41.17253
344.1624, 41.01091
344.6445, 40.50050
345.1266, 40.04210
345.6087, 39.65173
346.0909, 39.29267
346.5730, 38.83661
347.0551, 38.43453
347.5372, 38.34845
348.0193, 38.74948
348.5014, 39.28362
348.9836, 39.23979
349.4657, 38.41306
349.9478, 37.69714
350.4299, 37.33980
350.9120, 37.17169
351.3941, 37.11585
351.8763, 37.15367
352.3584, 37.23677
352.8405, 37.39705
353.3226, 37.64479
353.8047, 37.59173
354.2868, 36.93053
354.7690, 36.21131
355.2511, 35.72451
355.7332, 35.46965
356.2153, 35.39450
356.6974, 35.60749
357.1795, 35.99630
357.6617, 36.10455
358.1438, 35.84822
358.6259, 35.46834
359.1080, 35.02175
359.5901, 34.56502
360.0722, 34.18822
360.5544, 33.92396
361.0365, 33.75354
361.5186, 33.66517
362.0007, 33.66793
362.4828, 33.68403
362.9649, 33.66133
363.4471, 33.65034
363.9292, 33.74842
364.4113, 34.00944
364.8934, 34.17852
365.3755, 33.98199
365.8576, 33.49037
366.3398, 33.10393
366.8219, 32.95735
367.3040, 32.87647
367.7861, 32.65382
368.2682, 32.30574
368.7503, 32.00911
369.2325, 31.73956
369.7146, 31.59304
370.1967, 31.86508
370.6788, 32.66991
371.1609, 33.32923
371.6430, 33.14857
372.1252, 32.38105
372.6073, 31.88539
373.0894, 32.00693
373.5715, 32.25019
374.0536, 32.20738
374.5357, 31.92373
375.0179, 31.67653
375.5000, 31.62907
375.9821, 31.67487
376.4642, 31.51554
376.9463, 30.95189
377.4284, 30.65720
377.9106, 31.19598
378.3927, 32.09887
378.8748, 32.48792
379.3569, 32.09362
379.8390, 31.44536
380.3211, 31.25837
380.8033, 31.66084
381.2854, 31.75782
381.7675, 31.15553
382.2496, 30.46297
382.7317, 30.14374
383.2138, 30.21929
383.6960, 30.50036
384.1781, 30.89358
384.6602, 31.37666
385.1423, 31.64572
385.6244, 31.59348
386.1065, 31.49193
386.5887, 31.34730
387.0708, 31.22747
387.5529, 31.28677
388.0350, 31.60359
388.5171, 32.00999
388.9992, 32.13583
389.4814, 31.76090
389.9635, 31.41979
390.4456, 31.08380
390.9277, 30.79948
391.4098, 30.60103
391.8919, 30.49501
392.3741, 30.47501
392.8562, 30.54986
393.3383, 30.74343
393.8204, 30.84943
394.3025, 30.68826
394.7846, 30.63115
395.2668, 30.97223
395.7489, 31.49312
396.2310, 31.75424
396.7131, 31.47520
397.1952, 30.84491
397.6773, 30.53509
398.1595, 30.80453
398.6416, 30.97397
399.1237, 30.84058
399.6058, 30.65183
400.0879, 30.66167
400.5700, 30.91155
401.0522, 31.18453
401.5343, 31.17525
402.0164, 30.81213
402.4985, 30.59344
402.9806, 30.63233
403.4627, 30.73678
403.9449, 30.81289
404.4270, 30.88596
404.9091, 31.05005
405.3912, 31.44351
405.8733, 31.93038
406.3554, 32.00829
406.8376, 31.44006
407.3197, 31.05905
407.8018, 31.50047
408.2839, 32.15527
408.7660, 32.34407
409.2481, 31.84382
409.7303, 31.22359
410.2124, 31.03420
410.6945, 31.25780
411.1766, 31.64262
411.6587, 32.32742
412.1408, 32.90516
412.6230, 32.90681
413.1051, 32.41392
413.5872, 32.02375
414.0693, 32.04939
414.5514, 32.30839
415.0335, 32.55244
415.5157, 32.77526
415.9978, 32.89571
416.4799, 32.80106
416.9620, 32.56924
417.4441, 32.44298
417.9262, 32.40311
418.4084, 32.50718
418.8905, 32.89772
419.3726, 33.46151
419.8547, 33.91047
420.3368, 34.14838
420.8189, 34.22474
421.3011, 34.15781
421.7832, 33.85574
422.2653, 33.80694
422.7474, 34.22650
423.2295, 34.81098
423.7116, 35.34282
424.1938, 35.78900
424.6759, 36.18725
425.1580, 36.59597
425.6401, 36.99730
426.1222, 37.05621
426.6043, 36.32345
427.0865, 35.82444
427.5686, 35.91238
428.0507, 36.35478
428.5328, 36.83411
429.0149, 37.22766
429.4970, 37.59168
429.9792, 38.04712
430.4613, 38.74696
430.9434, 39.19548
431.4255, 39.13935
431.9076, 39.09946
432.3897, 39.48024
432.8719, 40.17285
433.3540, 40.72507
433.8361, 40.72954
434.3182, 40.29428
434.8003, 40.22976
435.2824, 40.84883
435.7646, 41.36739
436.2467, 41.40773
436.7288, 41.34605
437.2109, 41.66310
437.6930, 42.51491
438.1751, 43.43061
438.6573, 43.71809
439.1394, 43.31277
439.6215, 43.19542
440.1036, 43.67722
440.5857, 44.28583
441.0678, 44.80094
441.5500, 45.19461
442.0321, 45.39144
442.5142, 45.20012
442.9963, 44.84963
443.4784, 44.77568
443.9605, 45.00698
444.4427, 45.30119
444.9248, 45.62388
445.4069, 45.88799
445.8890, 45.92379
446.3711, 45.62653
446.8532, 45.37595
447.3354, 45.62298
447.8175, 46.04081
448.2996, 45.78582
448.7817, 44.58967
449.2638, 43.24263
449.7459, 42.67369
450.2281, 42.94320
450.7102, 42.83104
451.1923, 42.01555
451.6744, 41.05300
452.1565, 40.24136
452.6386, 39.57259
453.1208, 38.97334
453.6029, 38.40722
454.0850, 37.86896
454.5671, 37.34510
455.0492, 36.89892
455.5313, 36.37559
456.0135, 35.63934
456.4956, 34.91491
456.9777, 34.35199
457.4598, 33.98549
457.9419, 33.80479
458.4240, 33.83992
458.9062, 34.09693
459.3883, 34.12836
459.8704, 33.67291
460.3525, 33.27615
460.8346, 33.05246
461.3167, 32.95514
461.7989, 32.94006
462.2810, 32.99192
462.7631, 33.05441
463.2452, 33.07253
463.7273, 33.07022
464.2094, 32.86361
464.6916, 32.07572
465.1737, 31.42028
465.6558, 31.44799
466.1379, 31.99658
466.6200, 32.43646
467.1021, 32.36403
467.5843, 31.98786
468.0664, 31.69774
468.5485, 31.49336
469.0306, 31.36831
469.5127, 31.30718
469.9948, 31.34072
470.4770, 31.57788
470.9591, 32.14495
471.4412, 32.45046
471.9233, 31.99925
472.4054, 31.13529
472.8875, 30.41249
473.3697, 29.91662
473.8518, 29.77503
474.3339, 30.27481
474.8160, 31.38839
475.2981, 31.82156
475.7802, 30.98766
476.2624, 30.10999
476.7445, 29.68659
477.2266, 29.61447
477.7087, 29.70160
478.1908, 29.87410
478.6729, 30.08458
479.1551, 30.25841
479.6372, 30.45333
480.1193, 30.45843
480.6014, 30.01699
481.0835, 29.64083
481.5656, 29.67403
482.0478, 30.02641
482.5299, 30.41299
483.0120, 30.66480
483.4941, 30.77374
483.9762, 30.68251
484.4583, 30.29434
484.9405, 29.89986
485.4226, 29.38981
485.9047, 29.00511
486.3868, 29.04482
486.8689, 29.50272
487.3510, 29.94704
487.8332, 29.95045
488.3153, 29.61274
488.7974, 29.44992
489.2795, 29.56391
489.7616, 29.64575
490.2437, 29.36250
490.7259, 28.95834
491.2080, 28.84693
491.6901, 29.25308
492.1722, 29.66250
492.6543, 29.54457
493.1364, 29.12560
493.6186, 29.18462
494.1007, 30.03400
494.5828, 30.89959
495.0649, 30.78661
495.5470, 29.56918
496.0291, 28.79553
496.5113, 28.66084
496.9934, 28.84313
497.4755, 29.39391
497.9576, 30.10656
498.4397, 30.47440
498.9218, 30.23292
499.4040, 29.70608
499.8861, 29.64432
500.3682, 30.53157
500.8503, 30.98960
501.3324, 30.59797
501.8145, 30.18868
502.2967, 30.37329
502.7788, 31.02436
503.2609, 31.55965
503.7430, 31.52491
504.2251, 31.12432
504.7072, 31.21468
505.1894, 32.12204
505.6715, 32.77124
506.1536, 32.54397
506.6357, 32.18394
507.1178, 32.30877
507.5999, 32.98077
508.0821, 33.74561
508.5642, 34.37278
509.0463, 34.83207
509.5284, 34.90724
510.0105, 34.44448
510.4926, 34.23641
510.9748, 34.93573
511.4569, 36.20525
511.9390, 37.22572
512.4211, 37.85892
512.9032, 38.40545
513.3853, 38.94895
513.8674, 39.51811
514.3495, 40.20390
514.8317, 41.03125
515.3138, 41.78304
515.7959, 42.16764
516.2780, 42.12995
516.7601, 42.65614
517.2422, 44.26228
517.7244, 45.76080
518.2065, 46.70314
518.6886, 47.30572
519.1707, 47.81889
519.6528, 48.35101
520.1349, 49.04596
520.6171, 50.24613
521.0992, 52.23896
521.5813, 53.56018
522.0634, 53.29877
522.5455, 53.25533
523.0276, 54.22540
523.5098, 55.86457
523.9919, 57.47668
524.4740, 58.76036
524.9561, 59.89312
525.4382, 61.14934
525.9203, 62.52418
526.4025, 63.90055
526.8846, 65.27930
527.3667, 66.59901
527.8488, 67.90121
528.3309, 69.15012
528.8130, 70.08501
529.2952, 70.43624
529.7773, 70.58785
530.2594, 70.89097
530.7415, 71.31454
531.2236, 71.75729
531.7057, 72.24904
532.1879, 72.51704
532.6700, 72.00220
533.1521, 70.31339
533.6342, 68.66670
534.1163, 67.09692
534.5984, 65.56979
535.0806, 64.13850
535.5627, 62.73677
536.0448, 61.19070
536.5269, 59.39210
537.0090, 57.41253
537.4911, 55.47246
537.9733, 53.46572
538.4554, 51.70382
538.9375, 50.42764
539.4196, 49.22589
539.9017, 47.82013
540.3839, 46.23429
540.8660, 44.69036
541.3481, 43.33978
541.8302, 42.11987
542.3123, 40.89275
542.7944, 39.65652
543.2766, 38.43110
543.7587, 37.11018
544.2408, 35.91665
544.7229, 35.22975
545.2050, 35.11772
545.6871, 34.87380
546.1693, 34.10232
546.6514, 33.17726
547.1335, 32.49127
547.6156, 32.05800
548.0977, 31.72388
548.5798, 31.41035
549.0620, 31.10588
549.5441, 30.77453
550.0262, 30.34144
550.5083, 29.98367
550.9904, 29.69267
551.4725, 29.48366
551.9547, 29.41678
552.4368, 29.45331
552.9189, 29.45803
553.4010, 29.31732
553.8831, 29.08216
554.3652, 28.96940
554.8474, 29.03216
555.3295, 29.08485
555.8116, 29.26597
556.2937, 29.28761
556.7758, 28.77421
557.2579, 27.76973
557.7401, 26.93751
558.2222, 26.72412
558.7043, 26.91024
559.1864, 27.23909
559.6685, 27.70234
560.1506, 27.86207
560.6328, 27.35000
561.1149, 26.55152
561.5970, 26.38079
562.0791, 27.06571
562.5612, 27.51592
563.0433, 27.40481
563.5255, 27.07655
564.0076, 26.77375
564.4897, 26.52347
564.9718, 26.26713
565.4539, 25.95808
565.9360, 25.64591
566.4182, 25.50586
566.9003, 25.62119
567.3824, 25.75631
567.8645, 25.90841
568.3466, 26.06163
568.8287, 26.23327
569.3109, 26.40203
569.7930, 26.50377
570.2751, 26.50513
570.7572, 26.40948
571.2393, 26.20817
571.7214, 25.89583
572.2036, 25.53064
572.6857, 24.99906
573.1678, 24.57539
573.6499, 24.66427
574.1320, 25.24863
574.6141, 25.71021
575.0963, 25.90347
575.5784, 25.88658
576.0605, 25.58459
576.5426, 25.09939
577.0247, 24.73040
577.5068, 24.61230
577.9890, 24.69874
578.4711, 24.92474
578.9532, 25.41291
579.4353, 25.72342
579.9174, 25.76090
580.3995, 25.74073
580.8817, 25.77758
581.3638, 25.83187
581.8459, 25.80431
582.3280, 25.64329
582.8101, 25.41904
583.2922, 25.23143
583.7744, 25.08026
584.2565, 24.98386
584.7386, 24.99248
585.2207, 24.98683
585.7029, 24.84671
586.1850, 24.62766
586.6671, 24.46412
587.1492, 24.31348
587.6313, 24.32713
588.1135, 24.78127
588.5956, 25.46721
589.0777, 25.88878
589.5598, 25.91860
590.0419, 25.74520
590.5240, 25.56053
591.0062, 25.37000
591.4883, 25.05788
591.9704, 24.31661
592.4525, 23.83877
592.9346, 23.93589
593.4167, 24.31534
593.8989, 24.70274
594.3810, 25.00536
594.8631, 25.19490
595.3452, 25.22938
595.8273, 25.11633
596.3094, 24.90310
596.7916, 24.45887
597.2737, 24.21178
597.7558, 24.60309
598.2379, 25.15982
598.7200, 25.35122
599.2021, 25.08675
599.6843, 24.80162
600.1664, 24.75372
600.6485, 24.79864
601.1306, 24.71919
601.6127, 24.51148
602.0948, 24.29598
602.5770, 24.12970
603.0591, 24.02435
603.5412, 24.01716
604.0233, 24.23998
604.5054, 24.34246
604.9875, 24.25789
605.4697, 24.11384
605.9518, 23.99693
606.4339, 23.88998
606.9160, 23.69914
607.3981, 23.34933
607.8802, 22.99401
608.3624, 22.98208
