##NAMES=Gonnardite
##RRUFFID=R100081
##IDEAL CHEMISTRY=(Na,Ca)_2_(Si,Al)_5_O_10_&#183;3H_2_O
##LOCALITY=Chaux de Bergonne, Gignat, Puy de Dome, France
##OWNER=RRUFF
##SOURCE=Ivano Rocchetti
##DESCRIPTION=White spherical aggregates of acicular crystals
##STATUS=The identification of this mineral has been confirmed by single-crystal X-ray diffraction.
##URL=rruff.info/R100081
105.9967, 314.5264
106.4788, 314.8055
106.9609, 315.2485
107.4431, 315.8484
107.9252, 316.5424
108.4073, 317.2597
108.8894, 317.9858
109.3715, 318.6834
109.8536, 319.3324
110.3358, 319.9944
110.8179, 320.4399
111.3000, 320.4814
111.7821, 320.1496
112.2642, 319.7449
112.7463, 319.3655
113.2285, 318.9674
113.7106, 318.5535
114.1927, 318.1720
114.6748, 317.6399
115.1569, 316.6066
115.6390, 314.7689
116.1212, 313.1848
116.6033, 312.4249
117.0854, 311.9297
117.5675, 311.1357
118.0496, 309.7391
118.5317, 307.8622
119.0139, 306.1090
119.4960, 304.4269
119.9781, 302.9552
120.4602, 302.1643
120.9423, 301.5852
121.4244, 300.3647
121.9066, 297.7420
122.3887, 293.5443
122.8708, 290.3454
123.3529, 288.5691
123.8350, 287.1293
124.3171, 285.6927
124.7993, 284.1696
125.2814, 282.4697
125.7635, 280.4010
126.2456, 277.8183
126.7277, 275.8042
127.2098, 274.6812
127.6920, 273.9969
128.1741, 273.2602
128.6562, 272.3575
129.1383, 271.5050
129.6204, 271.0780
130.1025, 271.0236
130.5847, 270.8836
131.0668, 270.4727
131.5489, 269.8297
132.0310, 269.0634
132.5131, 268.0419
132.9952, 267.0714
133.4774, 266.3164
133.9595, 265.7868
134.4416, 265.5787
134.9237, 265.9301
135.4058, 266.9584
135.8879, 267.7557
136.3701, 267.7527
136.8522, 267.7246
137.3343, 268.1752
137.8164, 269.2240
138.2985, 270.5344
138.7806, 271.5382
139.2628, 272.0575
139.7449, 272.5731
140.2270, 273.2013
140.7091, 273.8204
141.1912, 274.2792
141.6733, 274.5078
142.1555, 274.6112
142.6376, 274.9503
143.1197, 275.8434
143.6018, 276.6266
144.0839, 277.1703
144.5660, 277.5624
145.0482, 277.9535
145.5303, 278.4343
146.0124, 278.9819
146.4945, 279.4372
146.9766, 279.5599
147.4587, 279.8365
147.9409, 280.5884
148.4230, 281.7264
148.9051, 282.7991
149.3872, 283.3744
149.8693, 283.6259
150.3514, 284.4793
150.8336, 286.7948
151.3157, 289.1999
151.7978, 290.2866
152.2799, 289.8732
152.7620, 289.2908
153.2441, 289.2572
153.7263, 289.7545
154.2084, 290.9553
154.6905, 293.6761
155.1726, 297.0308
155.6547, 298.8907
156.1368, 298.4174
156.6190, 297.9073
157.1011, 298.6120
157.5832, 300.1806
158.0653, 301.9938
158.5474, 303.9531
159.0295, 305.9774
159.5117, 306.9456
159.9938, 305.6366
160.4759, 304.4045
160.9580, 304.3805
161.4401, 305.2072
161.9222, 305.8189
162.4044, 305.0898
162.8865, 302.6267
163.3686, 301.1264
163.8507, 301.8487
164.3328, 302.3776
164.8149, 301.4244
165.2971, 299.0686
165.7792, 296.3824
166.2613, 294.6153
166.7434, 294.1903
167.2255, 293.5601
167.7076, 292.8524
168.1898, 291.8949
168.6719, 290.4572
169.1540, 288.5236
169.6361, 286.4126
170.1182, 284.5062
170.6003, 282.6610
171.0825, 281.5428
171.5646, 281.7888
172.0467, 282.5510
172.5288, 282.8288
173.0109, 282.3081
173.4930, 281.4565
173.9752, 281.2299
174.4573, 281.8672
174.9394, 281.6846
175.4215, 279.4091
175.9036, 275.9599
176.3857, 273.4781
176.8679, 272.7851
177.3500, 272.9373
177.8321, 272.7646
178.3142, 272.3022
178.7963, 271.4186
179.2784, 269.9376
179.7606, 267.8973
180.2427, 265.6902
180.7248, 263.2700
181.2069, 260.8414
181.6890, 258.6021
182.1711, 256.5610
182.6533, 254.6153
183.1354, 252.7148
183.6175, 250.8825
184.0996, 248.9184
184.5817, 246.4471
185.0638, 244.0303
185.5460, 242.1280
186.0281, 240.8203
186.5102, 239.6448
186.9923, 237.7536
187.4744, 234.4730
187.9565, 232.3356
188.4387, 232.9107
188.9208, 233.8239
189.4029, 233.0837
189.8850, 230.1502
190.3671, 226.3814
190.8492, 224.4119
191.3314, 225.8119
191.8135, 226.5770
192.2956, 226.0818
192.7777, 225.1140
193.2598, 224.3464
193.7419, 224.0468
194.2241, 224.0475
194.7062, 223.9436
195.1883, 223.4798
195.6704, 223.2118
196.1525, 223.4685
196.6346, 223.8256
197.1168, 223.8227
197.5989, 223.2634
198.0810, 222.2041
198.5631, 220.7505
199.0452, 218.1096
199.5273, 216.1291
200.0095, 215.4034
200.4916, 215.4898
200.9737, 215.7038
201.4558, 215.7732
201.9379, 215.7269
202.4200, 215.6707
202.9022, 215.8085
203.3843, 215.6305
203.8664, 214.6037
204.3485, 213.0693
204.8306, 212.0251
205.3127, 212.0359
205.7949, 212.6563
206.2770, 212.8780
206.7591, 212.6221
207.2412, 212.1978
207.7233, 211.8171
208.2054, 211.4427
208.6876, 210.8154
209.1697, 209.6180
209.6518, 208.2720
210.1339, 207.3935
210.6160, 207.0856
211.0981, 207.0240
211.5803, 206.8891
212.0624, 206.6790
212.5445, 206.8404
213.0266, 208.1122
213.5087, 209.4589
213.9908, 209.7337
214.4730, 208.6091
214.9551, 207.2931
215.4372, 207.2924
215.9193, 208.8720
216.4014, 210.1186
216.8836, 210.1852
217.3657, 209.8805
217.8478, 209.6611
218.3299, 209.6346
218.8120, 209.7522
219.2941, 209.9756
219.7763, 210.3434
220.2584, 210.6857
220.7405, 211.0338
221.2226, 211.3100
221.7047, 211.4778
222.1868, 211.5231
222.6690, 211.4130
223.1511, 211.0475
223.6332, 210.2309
224.1153, 209.6045
224.5974, 209.3339
225.0795, 209.1785
225.5617, 208.9499
226.0438, 208.6015
226.5259, 208.2441
227.0080, 208.0839
227.4901, 208.2764
227.9722, 208.3945
228.4544, 208.6595
228.9365, 208.7238
229.4186, 208.1961
229.9007, 207.0123
230.3828, 205.5463
230.8649, 204.4633
231.3471, 204.0704
231.8292, 203.5881
232.3113, 203.1351
232.7934, 202.5369
233.2755, 201.5674
233.7576, 200.1920
234.2398, 198.6467
234.7219, 197.3500
235.2040, 196.5664
235.6861, 195.5489
236.1682, 193.8832
236.6503, 192.2075
237.1325, 191.1496
237.6146, 190.8681
238.0967, 191.0264
238.5788, 191.2091
239.0609, 191.7258
239.5430, 191.4091
240.0252, 189.4157
240.5073, 186.9636
240.9894, 185.2953
241.4715, 184.6983
241.9536, 184.6187
242.4357, 184.3605
242.9179, 183.8863
243.4000, 183.3939
243.8821, 182.8103
244.3642, 182.2606
244.8463, 181.9027
245.3284, 181.7715
245.8106, 181.7413
246.2927, 181.6610
246.7748, 181.5244
247.2569, 181.4769
247.7390, 181.7324
248.2211, 182.0050
248.7033, 181.9014
249.1854, 181.3320
249.6675, 180.6297
250.1496, 180.1510
250.6317, 179.8500
251.1138, 179.4227
251.5960, 178.4593
252.0781, 177.4791
252.5602, 177.3210
253.0423, 178.1969
253.5244, 179.1082
254.0065, 179.0709
254.4887, 178.3643
254.9708, 177.6933
255.4529, 177.1125
255.9350, 176.7135
256.4171, 176.6950
256.8992, 177.1283
257.3813, 177.6400
257.8635, 178.0775
258.3456, 178.4051
258.8277, 178.5188
259.3098, 178.3288
259.7919, 177.9419
260.2740, 177.4739
260.7562, 176.8999
261.2383, 176.3494
261.7204, 175.8751
262.2025, 175.4714
262.6846, 175.1504
263.1667, 174.9512
263.6489, 174.7918
264.1310, 174.5728
264.6131, 174.3013
265.0952, 173.9364
265.5773, 173.1684
266.0594, 172.4175
266.5416, 172.1898
267.0237, 172.7552
267.5058, 173.5242
267.9879, 173.5909
268.4700, 172.7482
268.9521, 172.1694
269.4343, 172.6076
269.9164, 173.2927
270.3985, 173.6440
270.8806, 173.5102
271.3627, 173.1639
271.8448, 172.9847
272.3270, 173.0505
272.8091, 172.8678
273.2912, 171.9822
273.7733, 171.0152
274.2554, 170.3463
274.7375, 170.0357
275.2197, 169.8961
275.7018, 169.6930
276.1839, 169.3884
276.6660, 169.2676
277.1481, 169.7131
277.6302, 170.1044
278.1124, 170.0589
278.5945, 169.5876
279.0766, 169.0338
279.5587, 168.7449
280.0408, 168.7527
280.5229, 168.7324
281.0051, 168.4550
281.4872, 168.3480
281.9693, 168.8095
282.4514, 169.6676
282.9335, 170.3477
283.4156, 170.2956
283.8978, 169.4944
284.3799, 168.7632
284.8620, 167.9703
285.3441, 167.4038
285.8262, 167.1019
286.3083, 167.0977
286.7905, 167.5119
287.2726, 168.6147
287.7547, 170.2538
288.2368, 170.8757
288.7189, 169.2817
289.2010, 168.0579
289.6832, 168.2346
290.1653, 169.1580
290.6474, 169.7556
291.1295, 169.3400
291.6116, 168.2632
292.0938, 168.0154
292.5759, 169.4630
293.0580, 170.5191
293.5401, 170.6643
294.0222, 170.2862
294.5043, 169.7871
294.9865, 169.3425
295.4686, 168.9267
295.9507, 168.4453
296.4328, 167.6924
296.9149, 167.2707
297.3970, 167.4141
297.8792, 167.7738
298.3613, 168.1169
298.8434, 168.3555
299.3255, 168.4370
299.8076, 168.1807
300.2897, 167.1758
300.7719, 166.7955
301.2540, 167.5120
301.7361, 168.4678
302.2182, 169.2720
302.7003, 169.7846
303.1824, 169.9275
303.6646, 169.4926
304.1467, 168.1994
304.6288, 167.3596
305.1109, 167.4365
305.5930, 167.5286
306.0751, 167.1473
306.5573, 166.3609
307.0394, 165.5732
307.5215, 165.1568
308.0036, 165.1350
308.4857, 165.1168
308.9678, 165.0293
309.4500, 165.0186
309.9321, 165.2003
310.4142, 165.4922
310.8963, 165.7532
311.3784, 165.9115
311.8605, 165.9457
312.3427, 165.6775
312.8248, 164.5719
313.3069, 163.7881
313.7890, 163.6337
314.2711, 163.8856
314.7532, 164.3066
315.2354, 164.7923
315.7175, 165.2564
316.1996, 165.4210
316.6817, 165.0033
317.1638, 164.7293
317.6459, 164.6885
318.1281, 164.8034
318.6102, 165.1150
319.0923, 165.6056
319.5744, 166.0205
320.0565, 165.8886
320.5386, 164.9097
321.0208, 164.0642
321.5029, 163.0171
321.9850, 162.3631
322.4671, 162.7386
322.9492, 164.0599
323.4313, 165.4985
323.9135, 166.1238
324.3956, 165.7553
324.8777, 165.4662
325.3598, 165.1533
325.8419, 165.0131
326.3240, 165.1721
326.8062, 165.5804
327.2883, 166.1021
327.7704, 166.6573
328.2525, 167.2391
328.7346, 167.7456
329.2167, 168.3508
329.6989, 168.6570
330.1810, 168.4435
330.6631, 167.9074
331.1452, 167.2878
331.6273, 166.6854
332.1094, 166.1752
332.5916, 166.0092
333.0737, 166.3644
333.5558, 166.7873
334.0379, 167.3096
334.5200, 167.7964
335.0021, 168.0392
335.4843, 167.9837
335.9664, 167.9031
336.4485, 168.2791
336.9306, 169.2993
337.4127, 170.2194
337.8948, 171.2289
338.3770, 171.9290
338.8591, 171.8595
339.3412, 171.1007
339.8233, 170.3145
340.3055, 170.2771
340.7876, 171.0998
341.2697, 171.5380
341.7518, 171.2502
342.2339, 170.8817
342.7160, 170.7905
343.1982, 170.8280
343.6803, 170.5741
344.1624, 169.5856
344.6445, 168.1033
345.1266, 167.4003
345.6087, 168.0051
346.0909, 168.5554
346.5730, 168.5632
347.0551, 168.2791
347.5372, 168.0404
348.0193, 168.0091
348.5014, 167.9919
348.9836, 167.5565
349.4657, 166.5197
349.9478, 165.6894
350.4299, 165.4614
350.9120, 165.4056
351.3941, 165.1359
351.8763, 164.5914
352.3584, 164.2005
352.8405, 164.5950
353.3226, 165.8099
353.8047, 166.5732
354.2868, 166.5191
354.7690, 166.1466
355.2511, 165.7346
355.7332, 165.2900
356.2153, 164.7902
356.6974, 164.1173
357.1795, 163.3601
357.6617, 162.8919
358.1438, 162.8190
358.6259, 162.8332
359.1080, 162.8956
359.5901, 162.9040
360.0722, 162.6517
360.5544, 161.9375
361.0365, 161.0796
361.5186, 160.5529
362.0007, 160.4054
362.4828, 160.2258
362.9649, 159.7207
363.4471, 159.1742
363.9292, 158.9787
364.4113, 159.2670
364.8934, 159.4798
365.3755, 159.0938
365.8576, 158.2170
366.3398, 157.4328
366.8219, 156.8431
367.3040, 156.4349
367.7861, 156.2451
368.2682, 156.2503
368.7503, 156.2095
369.2325, 155.8250
369.7146, 155.3927
370.1967, 155.6128
370.6788, 156.6856
371.1609, 157.5180
371.6430, 156.9265
372.1252, 155.3819
372.6073, 154.4841
373.0894, 155.1833
373.5715, 156.0062
374.0536, 155.4817
374.5357, 153.8753
375.0179, 152.8519
375.5000, 153.4633
375.9821, 154.9432
376.4642, 155.3763
376.9463, 154.2153
377.4284, 153.4099
377.9106, 154.1019
378.3927, 155.5276
378.8748, 156.3506
379.3569, 156.1930
379.8390, 155.5679
380.3211, 155.1070
380.8033, 154.8657
381.2854, 154.4502
381.7675, 153.5951
382.2496, 152.7289
382.7317, 152.2003
383.2138, 152.0132
383.6960, 151.9483
384.1781, 151.8327
384.6602, 151.6832
385.1423, 151.7450
385.6244, 152.0538
386.1065, 152.4857
386.5887, 153.3136
387.0708, 154.1798
387.5529, 154.3493
388.0350, 153.4660
388.5171, 152.1157
388.9992, 151.6042
389.4814, 152.9606
389.9635, 153.5889
390.4456, 152.9919
390.9277, 152.0107
391.4098, 151.2010
391.8919, 150.7054
392.3741, 150.5084
392.8562, 150.6501
393.3383, 151.2175
393.8204, 151.4574
394.3025, 150.8388
394.7846, 150.4660
395.2668, 151.1425
395.7489, 152.2967
396.2310, 152.7800
396.7131, 151.8649
397.1952, 150.0188
397.6773, 148.8872
398.1595, 148.9704
398.6416, 148.9661
399.1237, 148.3941
399.6058, 147.8565
400.0879, 148.0095
400.5700, 148.9473
401.0522, 150.0309
401.5343, 150.4391
402.0164, 150.0344
402.4985, 149.7548
402.9806, 149.7705
403.4627, 149.7859
403.9449, 149.5015
404.4270, 149.0988
404.9091, 149.0799
405.3912, 149.9632
405.8733, 151.3514
406.3554, 151.8770
406.8376, 151.1106
407.3197, 150.5634
407.8018, 151.3020
408.2839, 152.3491
408.7660, 152.6109
409.2481, 151.7274
409.7303, 150.6179
410.2124, 150.1573
410.6945, 150.3209
411.1766, 150.7551
411.6587, 151.6765
412.1408, 152.4652
412.6230, 152.3716
413.1051, 151.5321
413.5872, 150.9626
414.0693, 151.1967
414.5514, 151.9230
415.0335, 152.8090
415.5157, 153.8827
415.9978, 154.5851
416.4799, 154.3568
416.9620, 153.4913
417.4441, 152.9437
417.9262, 152.6976
418.4084, 152.8403
418.8905, 153.6718
419.3726, 154.9400
419.8547, 156.0135
420.3368, 156.6902
420.8189, 157.0416
421.3011, 157.0530
421.7832, 156.5280
422.2653, 156.5158
422.7474, 157.4905
423.2295, 158.7803
423.7116, 159.8547
424.1938, 160.6642
424.6759, 161.4035
425.1580, 162.2506
425.6401, 163.1833
426.1222, 163.8046
426.6043, 163.5239
427.0865, 163.6634
427.5686, 164.9452
428.0507, 166.7218
428.5328, 168.0742
429.0149, 168.6551
429.4970, 168.8007
429.9792, 169.0553
430.4613, 169.2198
430.9434, 169.9802
431.4255, 171.7534
431.9076, 173.6471
432.3897, 175.1902
432.8719, 176.3943
433.3540, 177.5028
433.8361, 178.6875
434.3182, 179.9403
434.8003, 181.2567
435.2824, 182.9288
435.7646, 184.1783
436.2467, 184.3887
436.7288, 184.3335
437.2109, 184.9166
437.6930, 186.4277
438.1751, 188.1898
438.6573, 189.2688
439.1394, 189.5931
439.6215, 190.2829
440.1036, 192.0603
440.5857, 193.5781
441.0678, 193.7372
441.5500, 192.8571
442.0321, 192.1833
442.5142, 192.6458
442.9963, 193.5914
443.4784, 193.6426
443.9605, 192.6394
444.4427, 192.0350
444.9248, 193.0770
445.4069, 194.6959
445.8890, 195.0472
446.3711, 193.8174
446.8532, 191.9945
447.3354, 189.8239
447.8175, 187.4890
448.2996, 185.4099
448.7817, 183.7006
449.2638, 182.1367
449.7459, 180.4797
450.2281, 178.7205
450.7102, 177.1201
451.1923, 175.9376
451.6744, 174.6941
452.1565, 172.9963
452.6386, 170.9724
453.1208, 169.0170
453.6029, 167.3093
454.0850, 165.8578
454.5671, 164.6914
455.0492, 164.0219
455.5313, 163.3674
456.0135, 162.8421
456.4956, 162.2497
456.9777, 161.2982
457.4598, 160.0378
457.9419, 158.8746
458.4240, 158.2014
458.9062, 158.0263
459.3883, 157.9104
459.8704, 157.7454
460.3525, 157.7799
460.8346, 158.0815
461.3167, 158.6068
461.7989, 159.4438
462.2810, 160.6408
462.7631, 161.7102
463.2452, 161.6992
463.7273, 160.3350
464.2094, 159.5137
464.6916, 159.8034
465.1737, 160.4066
465.6558, 160.9157
466.1379, 161.3369
466.6200, 161.7902
467.1021, 162.3802
467.5843, 163.0266
468.0664, 163.4795
468.5485, 163.6774
469.0306, 164.1680
469.5127, 165.4588
469.9948, 167.0389
470.4770, 168.1494
470.9591, 168.7664
471.4412, 168.9114
471.9233, 168.2793
472.4054, 167.2601
472.8875, 166.6095
473.3697, 166.4769
473.8518, 166.4788
474.3339, 166.3647
474.8160, 166.1033
475.2981, 165.3694
475.7802, 163.8010
476.2624, 162.1587
476.7445, 160.6403
477.2266, 159.3037
477.7087, 158.2861
478.1908, 157.6364
478.6729, 157.1826
479.1551, 156.6051
479.6372, 155.7434
480.1193, 155.1412
480.6014, 155.1277
481.0835, 155.0403
481.5656, 154.3478
482.0478, 153.2488
482.5299, 152.3528
483.0120, 152.0875
483.4941, 152.2764
483.9762, 152.2314
484.4583, 151.7145
484.9405, 151.4604
485.4226, 151.8397
485.9047, 152.3615
486.3868, 152.6070
486.8689, 152.5422
487.3510, 152.4971
487.8332, 152.9251
488.3153, 153.6560
488.7974, 153.7867
489.2795, 153.0723
489.7616, 152.2788
490.2437, 151.6535
490.7259, 151.3026
491.2080, 151.5461
491.6901, 152.8336
492.1722, 153.9427
492.6543, 153.7387
493.1364, 152.6379
493.6186, 151.9094
494.1007, 151.9399
494.5828, 152.1022
495.0649, 151.6145
495.5470, 150.3917
496.0291, 149.4976
496.5113, 149.0522
496.9934, 148.8604
497.4755, 149.1353
497.9576, 149.5679
498.4397, 149.3538
498.9218, 148.0761
499.4040, 146.2721
499.8861, 145.1654
500.3682, 145.2208
500.8503, 145.1607
501.3324, 144.8550
501.8145, 144.5577
502.2967, 144.5230
502.7788, 144.6526
503.2609, 144.5356
503.7430, 143.7499
504.2251, 142.6574
504.7072, 142.8533
505.1894, 145.1854
505.6715, 146.8581
506.1536, 146.6728
506.6357, 145.8872
507.1178, 145.3152
507.5999, 145.0921
508.0821, 145.1983
508.5642, 145.9126
509.0463, 146.9393
509.5284, 147.2505
510.0105, 146.5885
510.4926, 146.1061
510.9748, 146.6291
511.4569, 147.8190
511.9390, 148.8378
512.4211, 149.5369
512.9032, 150.2457
513.3853, 151.1813
513.8674, 152.2157
514.3495, 153.1151
514.8317, 153.8344
515.3138, 154.4316
515.7959, 154.8652
516.2780, 155.0807
516.7601, 156.1342
517.2422, 158.3715
517.7244, 160.9175
518.2065, 163.6936
518.6886, 166.5239
519.1707, 169.1755
519.6528, 171.5661
520.1349, 173.8363
520.6171, 176.1225
521.0992, 178.3353
521.5813, 180.9315
522.0634, 183.9845
522.5455, 187.3890
523.0276, 191.3292
523.5098, 195.5706
523.9919, 199.6285
524.4740, 203.2376
524.9561, 206.7794
525.4382, 210.8933
525.9203, 215.5644
526.4025, 220.3847
526.8846, 225.3410
527.3667, 230.2656
527.8488, 235.2666
528.3309, 240.2415
528.8130, 244.5240
529.2952, 247.4377
529.7773, 249.9379
530.2594, 253.0816
530.7415, 256.6682
531.2236, 259.7755
531.7057, 262.0220
532.1879, 263.5047
532.6700, 264.4139
533.1521, 264.8191
533.6342, 264.3661
534.1163, 262.2840
534.5984, 259.9943
535.0806, 258.8220
535.5627, 258.2934
536.0448, 256.8627
536.5269, 253.5423
537.0090, 248.8488
537.4911, 244.4168
537.9733, 240.5033
538.4554, 236.1848
538.9375, 230.7175
539.4196, 225.3563
539.9017, 221.1182
540.3839, 217.7804
540.8660, 214.1575
541.3481, 209.1936
541.8302, 203.5914
542.3123, 199.0821
542.7944, 195.8267
543.2766, 192.2746
543.7587, 187.5059
544.2408, 182.4158
544.7229, 178.3530
545.2050, 175.4122
545.6871, 172.5495
546.1693, 169.0932
546.6514, 165.7521
547.1335, 163.4451
547.6156, 162.1032
548.0977, 160.8591
548.5798, 159.2086
549.0620, 157.2388
549.5441, 155.2606
550.0262, 153.1260
550.5083, 151.1901
550.9904, 149.4765
551.4725, 147.9413
551.9547, 146.4788
552.4368, 145.1458
552.9189, 144.1709
553.4010, 143.7985
553.8831, 143.8422
554.3652, 143.5697
554.8474, 142.9409
555.3295, 142.1017
555.8116, 140.9775
556.2937, 139.7277
556.7758, 138.3640
557.2579, 136.9299
557.7401, 135.6950
558.2222, 134.8670
558.7043, 134.3243
559.1864, 133.9004
559.6685, 133.5933
560.1506, 133.2315
560.6328, 132.6975
561.1149, 132.0937
561.5970, 131.6323
562.0791, 131.3104
562.5612, 131.0993
563.0433, 131.1440
563.5255, 131.1850
564.0076, 130.9724
564.4897, 130.5360
564.9718, 130.0899
565.4539, 129.7798
565.9360, 129.5306
566.4182, 129.0649
566.9003, 128.1019
567.3824, 127.4570
567.8645, 127.3048
568.3466, 127.3461
568.8287, 127.5184
569.3109, 127.7334
569.7930, 127.7845
570.2751, 127.5032
570.7572, 127.0214
571.2393, 126.6199
571.7214, 126.3101
572.2036, 125.9453
572.6857, 125.3935
573.1678, 124.8681
573.6499, 124.6111
574.1320, 124.6134
574.6141, 124.7389
575.0963, 125.2298
575.5784, 125.6063
576.0605, 125.2970
576.5426, 124.4872
577.0247, 123.8043
577.5068, 123.5274
577.9890, 123.5788
578.4711, 123.8602
578.9532, 124.6426
579.4353, 124.9454
579.9174, 124.4865
580.3995, 123.8956
580.8817, 123.3471
581.3638, 122.9152
581.8459, 122.7170
582.3280, 122.8261
582.8101, 123.0401
583.2922, 122.9591
583.7744, 122.5443
584.2565, 122.4482
584.7386, 123.0172
585.2207, 123.5465
585.7029, 123.5895
586.1850, 123.2176
586.6671, 122.5474
587.1492, 121.2767
587.6313, 120.1567
588.1135, 119.7642
588.5956, 119.9331
589.0777, 120.3894
589.5598, 121.0748
590.0419, 121.6663
590.5240, 121.7944
591.0062, 121.4361
591.4883, 121.1408
591.9704, 120.7870
592.4525, 120.6335
592.9346, 120.9876
593.4167, 121.4529
593.8989, 121.5051
594.3810, 121.0709
594.8631, 120.6122
595.3452, 120.7198
595.8273, 121.3081
596.3094, 121.2906
596.7916, 120.3045
597.2737, 119.5420
597.7558, 119.7939
598.2379, 120.3950
598.7200, 120.6577
599.2021, 120.4862
599.6843, 120.2114
600.1664, 119.8149
600.6485, 119.5055
601.1306, 119.6956
601.6127, 120.3528
602.0948, 120.9480
602.5770, 121.1812
603.0591, 121.1367
