##NAMES=Gonnardite
##RRUFFID=R100081
##IDEAL CHEMISTRY=(Na,Ca)_2_(Si,Al)_5_O_10_&#183;3H_2_O
##LOCALITY=Chaux de Bergonne, Gignat, Puy de Dome, France
##OWNER=RRUFF
##SOURCE=Ivano Rocchetti
##DESCRIPTION=White spherical aggregates of acicular crystals
##STATUS=The identification of this mineral has been confirmed by single-crystal X-ray diffraction.
##URL=rruff.info/R100081
90.49219, 23.58456
90.97430, 23.68301
91.45642, 23.71881
91.93854, 23.56426
92.42065, 23.38496
92.90277, 23.47516
93.38489, 23.90066
93.86700, 24.38163
94.34912, 24.55132
94.83124, 24.45355
95.31335, 24.33373
95.79547, 24.32367
96.27759, 24.41094
96.75970, 24.61343
97.24182, 25.06810
97.72394, 25.47389
98.20605, 25.01006
98.68817, 23.57609
99.17029, 22.06708
99.65240, 21.03779
100.1345, 20.47897
100.6166, 20.61788
101.0988, 21.83022
101.5809, 23.89194
102.0630, 24.89412
102.5451, 24.62218
103.0272, 23.68996
103.5093, 22.64205
103.9915, 21.30531
104.4736, 20.33285
104.9557, 19.98732
105.4378, 20.40169
105.9199, 20.70061
106.4020, 20.85668
106.8842, 20.91248
107.3663, 20.95207
107.8484, 21.06677
108.3305, 21.05822
108.8126, 20.84486
109.2947, 20.26249
109.7769, 19.74633
110.2590, 19.11106
110.7411, 18.50833
111.2232, 18.42590
111.7053, 19.67080
112.1874, 20.87637
112.6696, 21.41922
113.1517, 20.46652
113.6338, 19.68191
114.1159, 19.33059
114.5980, 19.36901
115.0801, 19.46788
115.5623, 19.63551
116.0444, 19.79500
116.5265, 19.88657
117.0086, 19.87403
117.4907, 19.80999
117.9728, 19.70704
118.4550, 19.56544
118.9371, 19.40197
119.4192, 19.32754
119.9013, 19.21252
120.3834, 18.89196
120.8655, 17.86317
121.3477, 16.87837
121.8298, 16.50240
122.3119, 16.82638
122.7940, 17.47773
123.2761, 18.60001
123.7582, 19.88823
124.2404, 20.66323
124.7225, 19.95689
125.2046, 18.74353
125.6867, 18.30891
126.1688, 19.02602
126.6509, 20.08213
127.1331, 20.49159
127.6152, 20.39915
128.0973, 20.52410
128.5794, 21.77185
129.0615, 23.61471
129.5436, 24.67706
130.0258, 24.25942
130.5079, 23.36587
130.9900, 23.83965
131.4721, 25.67575
131.9542, 28.00437
132.4363, 30.04140
132.9185, 31.87096
133.4006, 34.09071
133.8827, 36.99621
134.3648, 40.37208
134.8469, 43.31162
135.3290, 45.55125
135.8112, 48.53078
136.2933, 54.71973
136.7754, 64.44048
137.2575, 72.72011
137.7396, 77.22888
138.2217, 78.03328
138.7039, 80.57079
139.1860, 85.03996
139.6681, 90.94813
140.1502, 97.87516
140.6323, 106.0079
141.1144, 114.3138
141.5966, 122.6287
142.0787, 131.1563
142.5608, 138.4750
143.0429, 144.1791
143.5250, 148.8928
144.0071, 154.0249
144.4893, 159.8459
144.9714, 165.5740
145.4535, 170.6684
145.9356, 174.3770
146.4177, 179.0689
146.8998, 184.9534
147.3820, 191.8727
147.8641, 199.4329
148.3462, 207.2778
148.8283, 216.0001
149.3104, 226.0540
149.7925, 238.3777
150.2747, 250.7522
150.7568, 262.8072
151.2389, 274.5855
151.7210, 286.6358
152.2031, 299.1255
152.6852, 311.6588
153.1674, 324.1310
153.6495, 336.9972
154.1316, 349.2047
154.6137, 360.4881
155.0958, 370.8340
155.5779, 380.9022
156.0601, 390.7107
156.5422, 400.3243
157.0243, 409.6818
157.5064, 419.7695
157.9885, 428.6827
158.4706, 435.3714
158.9528, 439.4936
159.4349, 444.1085
159.9170, 450.4474
160.3991, 457.5609
160.8812, 464.3518
161.3633, 469.7238
161.8455, 475.3319
162.3276, 482.0719
162.8097, 490.1478
163.2918, 498.2969
163.7739, 506.2555
164.2560, 513.3212
164.7382, 516.0615
165.2203, 516.1039
165.7024, 516.2934
166.1845, 517.7430
166.6666, 520.8139
167.1487, 524.3704
167.6309, 528.3519
168.1130, 532.4219
168.5951, 535.7900
169.0772, 537.8932
169.5593, 539.3071
170.0414, 540.3619
170.5236, 540.8073
171.0057, 541.6262
171.4878, 543.8298
171.9699, 547.0653
172.4520, 550.2214
172.9341, 553.3630
173.4163, 555.8688
173.8984, 556.8534
174.3805, 555.5842
174.8626, 553.6613
175.3447, 552.5056
175.8268, 551.9887
176.3090, 551.5451
176.7911, 550.7414
177.2732, 549.7647
177.7553, 548.9480
178.2374, 548.4883
178.7195, 548.0807
179.2017, 547.3036
179.6838, 546.1771
180.1659, 544.9755
180.6480, 543.8409
181.1301, 542.7838
181.6122, 541.8362
182.0944, 541.2081
182.5765, 540.5501
183.0586, 538.8173
183.5407, 536.0560
184.0228, 533.7986
184.5049, 534.1819
184.9871, 536.4361
185.4692, 537.7643
185.9513, 537.0328
186.4334, 534.9181
186.9155, 532.8190
187.3976, 530.7336
187.8798, 528.7961
188.3619, 527.0618
188.8440, 525.5441
189.3261, 524.4653
189.8082, 524.1397
190.2903, 524.2969
190.7725, 523.7652
191.2546, 522.3867
191.7367, 521.1111
192.2188, 521.2064
192.7009, 522.6002
193.1830, 523.9739
193.6652, 525.1191
194.1473, 525.9297
194.6294, 525.3826
195.1115, 523.1959
195.5936, 520.5971
196.0757, 519.2023
196.5579, 519.0375
197.0400, 519.2118
197.5221, 519.4036
198.0042, 519.6228
198.4863, 520.1362
198.9684, 521.0695
199.4506, 522.0223
199.9327, 522.1341
200.4148, 521.2542
200.8969, 520.9061
201.3790, 522.2386
201.8611, 525.3564
202.3433, 526.5282
202.8254, 525.1667
203.3075, 522.7813
203.7896, 522.1655
204.2717, 523.6996
204.7538, 524.9888
205.2360, 524.7235
205.7181, 522.6285
206.2002, 521.5936
206.6823, 521.9708
207.1644, 522.9769
207.6465, 523.1349
208.1287, 522.2703
208.6108, 521.1923
209.0929, 520.0622
209.5750, 518.7036
210.0571, 518.4162
210.5392, 519.6283
211.0214, 521.5413
211.5035, 522.5361
211.9856, 522.5212
212.4677, 521.8680
212.9498, 520.3599
213.4319, 517.4294
213.9141, 516.2197
214.3962, 517.2743
214.8783, 519.7261
215.3604, 521.6031
215.8425, 522.8271
216.3246, 523.6725
216.8067, 524.2019
217.2889, 524.2790
217.7710, 524.4843
218.2531, 524.9492
218.7352, 525.4669
219.2173, 525.5043
219.6994, 524.8198
220.1816, 524.0994
220.6637, 523.6345
221.1458, 523.4750
221.6279, 523.4693
222.1100, 523.7929
222.5921, 524.2120
223.0743, 524.0206
223.5564, 522.8225
224.0385, 521.7430
224.5206, 521.4428
225.0027, 522.4650
225.4848, 522.7642
225.9670, 521.9167
226.4491, 520.4667
226.9312, 519.8880
227.4133, 520.6544
227.8954, 521.5294
228.3775, 521.9009
228.8597, 521.4994
229.3418, 521.2410
229.8239, 521.1635
230.3060, 521.2028
230.7881, 521.2083
231.2702, 521.1796
231.7524, 521.0801
232.2345, 520.8952
232.7166, 520.6251
233.1987, 520.2412
233.6808, 519.7605
234.1629, 519.1657
234.6451, 518.3348
235.1272, 516.9589
235.6093, 515.8414
236.0914, 515.4028
236.5735, 516.0556
237.0556, 516.4546
237.5378, 516.3456
238.0199, 516.0786
238.5020, 516.6835
238.9841, 519.1855
239.4662, 521.0753
239.9483, 521.1556
240.4305, 518.4972
240.9126, 516.1931
241.3947, 514.2341
241.8768, 512.6183
242.3589, 511.3409
242.8410, 510.3499
243.3232, 509.7516
243.8053, 509.7404
244.2874, 510.9489
244.7695, 511.1044
245.2516, 509.5755
245.7337, 507.2413
246.2159, 506.1728
246.6980, 507.2323
247.1801, 508.2058
247.6622, 508.0731
248.1443, 506.0414
248.6264, 505.2442
249.1086, 506.3441
249.5907, 508.3545
250.0728, 509.1624
250.5549, 508.0887
251.0370, 506.9501
251.5191, 506.3673
252.0013, 506.3492
252.4834, 506.8956
252.9655, 508.2429
253.4476, 509.9930
253.9297, 511.5052
254.4118, 513.0109
254.8940, 513.7955
255.3761, 513.3957
255.8582, 511.3463
256.3403, 509.9650
256.8224, 509.3603
257.3046, 509.3409
257.7867, 509.7086
258.2688, 510.7983
258.7509, 511.5931
259.2330, 511.6813
259.7151, 510.9242
260.1973, 510.3701
260.6794, 510.1826
261.1615, 510.0657
261.6436, 509.4249
262.1257, 507.7380
262.6078, 506.8011
263.0900, 507.3511
263.5721, 509.5768
264.0542, 511.4725
264.5363, 513.0616
265.0184, 514.2999
265.5005, 515.1152
265.9827, 515.3600
266.4648, 515.5808
266.9469, 516.0184
267.4290, 516.6853
267.9111, 516.7045
268.3932, 515.7933
268.8754, 514.6646
269.3575, 514.0616
269.8396, 513.9778
270.3217, 514.4855
270.8038, 515.8962
271.2859, 518.1324
271.7681, 519.3272
272.2502, 519.3072
272.7323, 518.6177
273.2144, 517.6438
273.6965, 516.2584
274.1786, 515.2860
274.6608, 515.0556
275.1429, 515.4237
275.6250, 515.2902
276.1071, 514.5467
276.5892, 513.6218
277.0714, 512.8127
277.5535, 512.0818
278.0356, 511.8042
278.5177, 512.1529
278.9998, 512.9860
279.4819, 513.7317
279.9641, 514.3912
280.4462, 515.0110
280.9283, 515.6510
281.4104, 516.3130
281.8925, 516.8698
282.3746, 517.2502
282.8568, 517.5538
283.3389, 518.1832
283.8210, 519.2053
284.3031, 520.0076
284.7852, 519.9760
285.2673, 519.1636
285.7495, 518.5533
286.2316, 518.1552
286.7137, 518.1489
287.1958, 519.2008
287.6779, 521.3428
288.1600, 523.3359
288.6422, 524.4680
289.1243, 524.7834
289.6064, 524.3315
290.0885, 522.7806
290.5706, 521.3002
291.0527, 522.2684
291.5349, 525.5154
292.0170, 528.4961
292.4991, 529.6039
292.9812, 529.2867
293.4633, 529.0806
293.9454, 529.0889
294.4276, 529.1349
294.9097, 528.9055
295.3918, 528.4680
295.8739, 528.1756
296.3560, 528.1685
296.8381, 528.4285
297.3203, 529.0029
297.8024, 529.9154
298.2845, 530.8541
298.7666, 531.3639
299.2487, 531.5971
299.7308, 532.0466
300.2130, 533.2019
300.6951, 534.5897
301.1772, 535.3984
301.6593, 535.6315
302.1414, 535.7173
302.6235, 535.9723
303.1057, 536.3583
303.5878, 536.8005
304.0699, 537.4527
304.5520, 538.0218
305.0341, 538.2192
305.5162, 538.0490
305.9984, 537.5156
306.4805, 536.2880
306.9626, 534.7817
307.4447, 533.5800
307.9268, 532.7718
308.4089, 532.3720
308.8911, 532.4811
309.3732, 533.0331
309.8553, 533.7719
310.3374, 535.2433
310.8195, 536.5036
311.3016, 536.3647
311.7838, 533.8475
312.2659, 531.4806
312.7480, 531.3046
313.2301, 532.6076
313.7122, 533.6046
314.1943, 533.0132
314.6765, 532.1247
315.1586, 531.8453
315.6407, 532.3817
316.1228, 533.2661
316.6049, 534.4047
317.0870, 535.7332
317.5692, 537.1249
318.0513, 538.9140
318.5334, 540.4503
319.0155, 541.5228
319.4976, 542.1635
319.9797, 541.9686
320.4619, 539.3993
320.9440, 536.3925
321.4261, 535.1428
321.9082, 537.9504
322.3903, 540.8430
322.8724, 542.6907
323.3546, 543.4371
323.8367, 543.7419
324.3188, 542.8209
324.8009, 542.0094
325.2830, 542.3351
325.7651, 545.6359
326.2473, 548.1985
326.7294, 549.1267
327.2115, 548.6533
327.6936, 548.6031
328.1757, 549.6306
328.6578, 550.7112
329.1400, 551.3260
329.6221, 550.5253
330.1042, 550.5462
330.5863, 552.0243
331.0684, 554.3481
331.5505, 555.6519
332.0327, 554.9190
332.5148, 554.3602
332.9969, 555.0059
333.4790, 557.6881
333.9611, 559.1552
334.4432, 558.7717
334.9254, 557.5319
335.4075, 557.1535
335.8896, 557.9752
336.3717, 558.9897
336.8538, 560.0246
337.3359, 561.1554
337.8180, 561.4608
338.3001, 560.4805
338.7823, 559.3903
339.2644, 559.6810
339.7465, 561.6937
340.2286, 563.6328
340.7107, 565.1590
341.1928, 566.2729
341.6750, 566.7643
342.1571, 566.5258
342.6392, 566.0789
343.1213, 565.7488
343.6034, 565.5301
344.0855, 565.7363
344.5677, 566.6697
345.0498, 567.7864
345.5319, 567.3685
346.0140, 565.3498
346.4961, 563.6766
346.9782, 564.2057
347.4604, 566.3583
347.9425, 567.1251
348.4246, 566.0031
348.9067, 564.1724
349.3888, 563.2706
349.8709, 563.1766
350.3531, 563.1897
350.8352, 562.8591
351.3173, 562.4247
351.7994, 562.3846
352.2815, 562.7775
352.7636, 563.3251
353.2458, 563.8590
353.7279, 564.3447
354.2100, 564.7089
354.6921, 564.9606
355.1742, 565.0427
355.6563, 564.9035
356.1385, 564.5380
356.6206, 563.9423
357.1027, 562.7466
357.5848, 561.4506
358.0669, 560.6395
358.5490, 560.6028
359.0312, 560.8775
359.5133, 561.2668
359.9954, 561.7443
360.4775, 562.2369
360.9596, 563.0479
361.4417, 563.6347
361.9239, 563.5353
362.4060, 562.4247
362.8881, 561.3699
363.3702, 560.9845
363.8523, 560.8648
364.3344, 560.3929
364.8166, 558.7708
365.2987, 557.3196
365.7808, 556.7921
366.2629, 557.3865
366.7450, 557.4184
367.2271, 556.3911
367.7093, 554.8161
368.1914, 553.1426
368.6735, 550.3837
369.1556, 548.6791
369.6377, 549.0424
370.1198, 551.1388
370.6020, 551.9794
371.0841, 550.3123
371.5662, 548.5516
372.0483, 548.0727
372.5304, 549.9562
373.0125, 551.0624
373.4947, 551.0961
373.9768, 550.3891
374.4589, 549.6669
374.9410, 548.8550
375.4231, 548.1664
375.9052, 547.5475
376.3874, 546.8957
376.8695, 547.3256
377.3516, 549.3076
377.8337, 551.5916
378.3158, 552.6025
378.7979, 552.2072
379.2801, 551.5345
379.7622, 550.8074
380.2443, 550.0524
380.7264, 549.2961
381.2085, 548.5101
381.6906, 547.9372
382.1728, 547.7073
382.6549, 547.8362
383.1370, 548.5510
383.6191, 550.0993
384.1012, 551.8769
384.5833, 552.9111
385.0655, 553.2551
385.5476, 553.3406
386.0297, 553.3181
386.5118, 553.2391
386.9939, 553.2120
387.4760, 553.2576
387.9582, 553.2803
388.4403, 553.0745
388.9224, 552.7831
389.4045, 552.7004
389.8866, 553.3351
390.3687, 553.9622
390.8509, 553.6767
391.3330, 552.5857
391.8151, 551.9133
392.2972, 552.5392
392.7793, 553.8661
393.2614, 555.3818
393.7436, 557.3468
394.2257, 558.8868
394.7078, 559.3492
395.1899, 559.0670
395.6720, 558.9136
396.1541, 559.5983
396.6363, 560.1390
397.1184, 559.9967
397.6005, 558.8710
398.0826, 557.8532
398.5647, 556.5999
399.0468, 555.7158
399.5290, 555.9337
400.0111, 559.5795
400.4932, 561.8528
400.9753, 561.2108
401.4574, 557.6646
401.9395, 555.7760
402.4217, 556.3280
402.9038, 557.6788
403.3859, 558.6859
403.8680, 558.8660
404.3501, 560.0017
404.8322, 562.9153
405.3144, 566.5150
405.7965, 567.4364
406.2786, 564.7877
406.7607, 562.4444
407.2428, 562.3701
407.7249, 564.6511
408.2071, 566.4024
408.6892, 567.5464
409.1713, 568.4163
409.6534, 569.4870
410.1355, 570.7315
410.6176, 571.6769
411.0998, 572.0639
411.5819, 572.1506
412.0640, 572.5141
412.5461, 573.1489
413.0282, 573.9915
413.5103, 575.2667
413.9925, 576.6719
414.4746, 577.4943
414.9567, 577.4550
415.4388, 577.2983
415.9209, 578.1094
416.4030, 579.4379
416.8852, 580.1869
417.3673, 578.6158
417.8494, 577.0060
418.3315, 577.5975
418.8136, 580.5361
419.2957, 583.4647
419.7779, 585.3398
420.2600, 586.4200
420.7421, 586.9339
421.2242, 586.0905
421.7063, 585.6093
422.1884, 586.0930
422.6706, 587.3990
423.1527, 588.9960
423.6348, 591.3842
424.1169, 593.5312
424.5990, 594.8621
425.0811, 594.6633
425.5633, 595.1951
426.0454, 597.1869
426.5275, 599.6700
427.0096, 601.4032
427.4917, 601.6594
427.9738, 602.2499
428.4560, 603.5557
428.9381, 605.5651
429.4202, 607.8268
429.9023, 610.4362
430.3844, 613.0590
430.8665, 615.1744
431.3487, 616.5067
431.8308, 619.2037
432.3129, 623.9197
432.7950, 629.4516
433.2771, 633.0548
433.7592, 634.6226
434.2414, 636.0861
434.7235, 638.5458
435.2056, 641.6456
435.6877, 643.5986
436.1698, 644.2686
436.6519, 645.3177
437.1341, 649.2534
437.6162, 654.8799
438.0983, 659.0989
438.5804, 660.6315
439.0625, 661.0402
439.5446, 661.6677
440.0268, 662.5888
440.5089, 664.0654
440.9910, 667.5073
441.4731, 670.8427
441.9552, 672.0049
442.4373, 670.4166
442.9195, 668.5512
443.4016, 667.4342
443.8837, 666.8271
444.3658, 666.4400
444.8479, 666.9128
445.3300, 666.8646
445.8122, 665.8951
446.2943, 664.0240
446.7764, 661.4706
447.2585, 657.5844
447.7406, 653.5427
448.2227, 649.9312
448.7049, 647.1308
449.1870, 644.0933
449.6691, 640.7128
450.1512, 637.1598
450.6333, 633.6448
451.1154, 629.6808
451.5976, 626.8340
452.0797, 626.2050
452.5618, 627.4932
453.0439, 625.8698
453.5260, 620.6186
454.0081, 614.7968
454.4903, 610.8809
454.9724, 608.8760
455.4545, 606.8163
455.9366, 604.4133
456.4187, 602.0230
456.9008, 600.3889
457.3830, 599.4152
457.8651, 598.5297
458.3472, 597.3087
458.8293, 596.0252
459.3114, 595.1418
459.7935, 594.6707
460.2757, 594.4756
460.7578, 594.5240
461.2399, 594.7643
461.7220, 595.1775
462.2041, 596.0107
462.6862, 596.5838
463.1684, 596.0350
463.6505, 594.8721
464.1326, 594.2865
464.6147, 595.1045
465.0968, 596.3259
465.5789, 597.5516
466.0611, 598.7818
466.5432, 599.7081
467.0253, 600.2355
467.5074, 600.4339
467.9895, 600.3530
468.4716, 599.1335
468.9538, 598.7536
469.4359, 599.6826
469.9180, 601.5265
470.4001, 603.1029
470.8822, 604.5342
471.3643, 605.4734
471.8465, 605.6898
472.3286, 605.1169
472.8107, 604.5436
473.2928, 603.8986
473.7749, 603.4687
474.2570, 604.0594
474.7392, 605.6588
475.2213, 605.7159
475.7034, 603.0931
476.1855, 599.3274
476.6676, 597.7510
477.1497, 598.1659
477.6319, 598.7595
478.1140, 598.2735
478.5961, 597.3013
479.0782, 596.9203
479.5603, 597.2363
480.0424, 597.5634
480.5246, 597.2852
481.0067, 596.6785
481.4888, 596.1364
481.9709, 595.7825
482.4530, 595.5164
482.9352, 595.3301
483.4173, 595.1964
483.8994, 595.0309
484.3815, 594.3763
484.8636, 594.0339
485.3457, 594.6046
485.8279, 596.5722
486.3100, 597.7528
486.7921, 597.2247
487.2742, 596.2364
487.7563, 595.8674
488.2384, 596.3680
488.7206, 597.0925
489.2027, 598.0867
489.6848, 599.2380
490.1669, 600.0784
490.6490, 600.4819
491.1311, 600.9553
491.6133, 601.9360
492.0954, 603.4131
492.5775, 603.9480
493.0596, 603.3811
493.5417, 602.5474
494.0238, 602.6849
494.5060, 603.4636
494.9881, 603.1271
495.4702, 600.6252
495.9523, 597.7902
496.4344, 597.4519
496.9165, 599.1336
497.3987, 601.0401
497.8808, 602.3547
498.3629, 603.3185
498.8450, 604.2448
499.3271, 605.1784
499.8092, 605.6378
500.2914, 604.7631
500.7735, 603.5807
501.2556, 603.0510
501.7377, 604.1208
502.2198, 605.0069
502.7019, 605.3434
503.1841, 605.2167
503.6662, 604.8679
504.1483, 603.4131
504.6304, 602.7119
505.1125, 603.5750
505.5946, 606.1848
506.0768, 607.9748
506.5589, 608.5862
507.0410, 608.9056
507.5231, 609.5691
508.0052, 610.5602
508.4873, 612.1500
508.9695, 614.6321
509.4516, 617.2761
509.9337, 618.3688
510.4158, 618.0081
510.8979, 618.0471
511.3800, 619.3183
511.8622, 621.5345
512.3443, 624.3668
512.8264, 627.7444
513.3085, 630.8691
513.7906, 632.4633
514.2728, 633.6813
514.7549, 636.2275
515.2370, 640.8738
515.7191, 645.4949
516.2012, 648.4512
516.6833, 650.5793
517.1655, 653.2145
517.6476, 656.8099
518.1297, 660.9649
518.6118, 665.5787
519.0939, 670.6484
519.5760, 676.1824
520.0582, 682.5411
520.5403, 689.0267
521.0224, 695.2178
521.5045, 700.8788
521.9866, 707.0391
522.4688, 713.8553
522.9509, 720.9911
523.4330, 728.0357
523.9151, 734.8560
524.3972, 742.3230
524.8793, 750.5809
525.3615, 759.5293
525.8436, 769.0555
526.3257, 779.2013
526.8078, 789.8892
527.2899, 801.5012
527.7720, 813.6954
528.2542, 825.7868
528.7363, 837.7294
529.2184, 848.9016
529.7005, 858.4404
530.1826, 866.8538
530.6647, 874.8140
531.1469, 882.5817
531.6290, 889.6814
532.1111, 896.6816
532.5932, 902.7064
533.0753, 905.9581
533.5574, 905.8046
534.0396, 902.9412
534.5217, 896.9741
535.0038, 887.7911
535.4859, 878.3871
535.9680, 869.8242
536.4501, 860.1776
536.9323, 848.2022
537.4144, 832.7920
537.8965, 817.6426
538.3786, 802.5108
538.8607, 788.0914
539.3428, 776.0617
539.8250, 766.4948
540.3071, 756.9841
540.7892, 746.9974
541.2713, 736.6151
541.7534, 725.9418
542.2355, 715.0950
542.7177, 705.3303
543.1998, 698.2513
543.6819, 692.3431
544.1640, 684.9718
544.6461, 675.8391
545.1282, 667.2831
545.6104, 661.3071
546.0925, 656.7542
546.5746, 652.3185
547.0567, 647.3162
547.5388, 642.8340
548.0209, 639.4641
548.5031, 636.9040
548.9852, 634.4102
549.4673, 631.9236
549.9494, 629.4481
550.4315, 627.0849
550.9136, 624.8327
551.3958, 622.0212
551.8779, 618.0837
552.3600, 614.5388
552.8421, 612.5429
553.3242, 612.3107
553.8063, 611.5319
554.2885, 609.9942
554.7706, 608.2263
555.2527, 607.0847
555.7348, 606.4273
556.2169, 605.2657
556.6990, 602.9017
557.1812, 600.4321
557.6633, 599.7648
558.1454, 600.4583
558.6275, 600.8514
559.1096, 599.8561
559.5917, 598.2655
560.0739, 596.4913
560.5560, 594.5493
561.0381, 593.1683
561.5202, 593.1067
562.0023, 593.4536
562.4844, 593.5432
562.9666, 593.1661
563.4487, 592.6816
563.9308, 591.9132
564.4129, 591.1306
564.8950, 590.7745
565.3771, 591.0194
565.8593, 591.3069
566.3414, 591.5778
566.8235, 591.7809
567.3056, 591.7086
567.7877, 591.3522
568.2698, 590.7511
568.7520, 589.6107
569.2341, 588.2069
569.7162, 587.6865
570.1983, 588.1295
570.6804, 588.8153
571.1625, 589.3105
571.6447, 589.5440
572.1268, 589.3430
572.6089, 588.4788
573.0910, 587.5957
573.5731, 587.3274
574.0552, 587.2926
574.5374, 586.8145
575.0195, 585.0906
575.5016, 583.4946
575.9837, 582.4521
576.4658, 581.9664
576.9479, 581.7811
577.4301, 582.1939
577.9122, 582.5475
578.3943, 582.4563
578.8764, 581.7330
579.3585, 581.7148
579.8406, 582.6151
580.3228, 583.7422
580.8049, 584.2838
581.2870, 584.2802
581.7691, 584.6356
582.2512, 585.6168
582.7333, 586.7186
583.2155, 587.0072
583.6976, 586.7411
584.1797, 586.7651
584.6617, 587.7803
585.1439, 589.0163
585.6260, 589.9086
586.1081, 590.4436
586.5902, 590.5798
587.0723, 590.2732
587.5544, 589.5830
