##NAMES=Gorceixite
##RRUFFID=R060158
##IDEAL CHEMISTRY=BaAl_3_(PO_4_)(PO_3_OH)(OH)_6_
##LOCALITY=16 miles north of the Hess River, Mayo Mining District, Yukon Territory, Canada
##OWNER=RRUFF
##SOURCE=Mark Mauthner
##DESCRIPTION=Aggregate of purple-grey colored crystals imbedded in a matrix of quartz and penikisite R060160
##STATUS=The identification of this mineral is confirmed by single-crystal X-ray diffraction and chemical analysis.
##URL=rruff.info/R060158
##MEASURED CHEMISTRY=(Ba_0.91_Sr_0.09_)_Σ=1_Al_3.00_(P_1.00_O_4_)(P_1.00_O_3_OH)((OH)_5.50_F_0.50_)_Σ=6_ ; = lighter phase. The darker gray phase  (Ba_0.75_Sr_0.25_)_Σ=1_Al_3.00_(P_1.00_O_4_)(P_1.00_O_3_OH)((OH)_5.53_F_0.47_)_Σ=6_ ; H not measured but estimated by differe
90.26367, 23.80511
90.74579, 23.99771
91.22791, 23.98851
91.71002, 23.78621
92.19214, 23.45763
92.67426, 22.73106
93.15637, 21.87601
93.63850, 21.66619
94.12061, 22.95327
94.60273, 24.89936
95.08485, 25.26826
95.56696, 23.86984
96.04908, 22.15717
96.53120, 22.19348
97.01331, 23.87171
97.49543, 25.03708
97.97755, 24.29237
98.45966, 21.79190
98.94178, 20.40551
99.42390, 20.37321
99.90602, 21.14100
100.3881, 21.72306
100.8703, 22.11057
101.3524, 22.34922
101.8345, 22.42956
102.3166, 22.29866
102.7987, 22.26021
103.2808, 22.44385
103.7630, 22.73166
104.2451, 22.56043
104.7272, 21.68409
105.2093, 20.67134
105.6914, 19.85345
106.1735, 19.18932
106.6557, 18.81181
107.1378, 18.84304
107.6199, 19.29984
108.1020, 19.60232
108.5841, 19.58525
109.0662, 19.50248
109.5484, 19.58128
110.0305, 20.13690
110.5126, 20.54221
110.9947, 20.60053
111.4768, 20.18569
111.9590, 20.00681
112.4411, 20.20631
112.9232, 20.65753
113.4053, 21.19128
113.8874, 21.83313
114.3695, 22.51086
114.8517, 23.27429
115.3338, 24.32682
115.8159, 24.95281
116.2980, 24.26333
116.7801, 22.97146
117.2622, 22.62665
117.7444, 24.06137
118.2265, 26.47734
118.7086, 29.50690
119.1907, 33.91653
119.6728, 37.68957
120.1549, 39.28395
120.6371, 39.13137
121.1192, 38.98188
121.6013, 39.54588
122.0834, 40.74679
122.5655, 42.46141
123.0477, 44.14324
123.5298, 46.76992
124.0119, 52.16369
124.4940, 60.09732
124.9761, 67.39010
125.4582, 71.29731
125.9404, 72.71816
126.4225, 73.35970
126.9046, 73.15239
127.3867, 72.79427
127.8688, 73.53184
128.3509, 75.43564
128.8331, 77.74792
129.3152, 79.61660
129.7973, 81.15897
130.2794, 82.91187
130.7615, 84.93336
131.2436, 87.33289
131.7258, 90.60117
132.2079, 94.89818
132.6900, 99.64870
133.1721, 103.9404
133.6542, 107.7473
134.1364, 111.6586
134.6185, 116.1463
135.1006, 121.1998
135.5827, 125.9209
136.0648, 130.1496
136.5469, 134.1657
137.0291, 138.8495
137.5112, 144.4063
137.9933, 149.6509
138.4754, 153.6892
138.9575, 156.2403
139.4396, 159.2288
139.9218, 163.2484
140.4039, 167.8423
140.8860, 170.4248
141.3681, 170.1232
141.8502, 169.3245
142.3323, 169.8823
142.8145, 172.1759
143.2966, 174.8874
143.7787, 177.9876
144.2608, 181.4882
144.7429, 184.4211
145.2251, 186.3949
145.7072, 188.1869
146.1893, 190.5599
146.6714, 193.8640
147.1535, 197.2116
147.6356, 200.2895
148.1178, 202.9431
148.5999, 206.2901
149.0820, 210.5346
149.5641, 215.3784
150.0462, 220.4390
150.5283, 225.9862
151.0105, 231.4166
151.4926, 234.3705
151.9747, 236.3813
152.4568, 238.7866
152.9389, 241.9454
153.4210, 245.4126
153.9032, 248.6219
154.3853, 251.2540
154.8674, 253.8082
155.3495, 256.4323
155.8316, 259.2117
156.3138, 261.9542
156.7959, 264.6025
157.2780, 267.1973
157.7601, 269.8037
158.2422, 271.9223
158.7243, 274.4489
159.2065, 277.9377
159.6886, 283.1535
160.1707, 288.1028
160.6528, 291.9703
161.1349, 295.1083
161.6170, 298.4485
162.0992, 302.4211
162.5813, 306.6397
163.0634, 310.8585
163.5455, 315.0488
164.0276, 319.1944
164.5097, 323.1812
164.9919, 327.0813
165.4740, 331.1758
165.9561, 335.4393
166.4382, 340.0217
166.9203, 345.1429
167.4025, 351.4666
167.8846, 357.7262
168.3667, 363.0919
168.8488, 367.6795
169.3309, 372.2086
169.8130, 377.3596
170.2952, 382.6553
170.7773, 387.4275
171.2594, 391.1196
171.7415, 394.5042
172.2236, 398.3716
172.7057, 402.6778
173.1879, 406.8125
173.6700, 410.3651
174.1521, 413.4319
174.6342, 416.1954
175.1163, 418.8770
175.5984, 421.2455
176.0806, 423.2046
176.5627, 424.7770
177.0448, 425.3897
177.5269, 424.0821
178.0090, 421.3989
178.4911, 418.5892
178.9733, 416.9082
179.4554, 415.2480
179.9375, 411.5012
180.4196, 405.5436
180.9017, 398.9402
181.3839, 393.5648
181.8660, 389.0391
182.3481, 383.7866
182.8302, 376.7758
183.3123, 368.6080
183.7944, 360.5859
184.2766, 352.6556
184.7587, 344.9854
185.2408, 337.6057
185.7229, 330.5786
186.2050, 323.8503
186.6871, 317.6804
187.1693, 311.8186
187.6514, 305.5531
188.1335, 298.5638
188.6156, 291.8015
189.0977, 286.6539
189.5798, 283.0802
190.0620, 279.9375
190.5441, 276.5993
191.0262, 273.1282
191.5083, 270.0318
191.9904, 267.3468
192.4725, 264.8852
192.9547, 262.2827
193.4368, 259.5085
193.9189, 256.8754
194.4010, 254.5398
194.8831, 252.4968
195.3652, 250.6401
195.8474, 248.9293
196.3295, 247.4573
196.8116, 246.5041
197.2937, 246.1195
197.7758, 245.8071
198.2579, 245.1752
198.7401, 244.2066
199.2222, 243.7096
199.7043, 243.8656
200.1864, 244.3825
200.6685, 244.6247
201.1507, 244.5686
201.6328, 244.3279
202.1149, 243.8935
202.5970, 243.2299
203.0791, 242.6816
203.5612, 242.1909
204.0434, 241.8999
204.5255, 242.3205
205.0076, 243.6254
205.4897, 245.0505
205.9718, 246.1388
206.4539, 246.8494
206.9361, 247.4824
207.4182, 248.0619
207.9003, 248.5841
208.3824, 249.0188
208.8645, 249.3098
209.3466, 249.6672
209.8288, 250.2050
210.3109, 250.9167
210.7930, 251.8679
211.2751, 253.1854
211.7572, 254.7131
212.2393, 255.8426
212.7215, 256.3410
213.2036, 256.9237
213.6857, 257.9284
214.1678, 259.2169
214.6499, 261.5342
215.1321, 265.4776
215.6142, 270.4807
216.0963, 273.8152
216.5784, 274.7150
217.0605, 275.3815
217.5426, 277.2953
218.0248, 280.8967
218.5069, 284.3621
218.9890, 287.4301
219.4711, 290.2336
219.9532, 293.4498
220.4353, 297.1842
220.9175, 301.2047
221.3996, 305.3515
221.8817, 309.3462
222.3638, 314.1319
222.8459, 319.9084
223.3280, 326.5912
223.8102, 333.1942
224.2923, 339.4709
224.7744, 346.2061
225.2565, 353.8885
225.7386, 362.7526
226.2208, 371.9015
226.7029, 381.0184
227.1850, 390.3269
227.6671, 400.5873
228.1492, 412.0629
228.6313, 424.1084
229.1135, 436.1527
229.5956, 447.6600
230.0777, 460.6331
230.5598, 475.6812
231.0419, 492.4248
231.5240, 509.2927
232.0062, 526.1450
232.4883, 543.3229
232.9704, 561.0106
233.4525, 579.0938
233.9346, 597.8727
234.4167, 617.4055
234.8989, 637.5843
235.3810, 657.8101
235.8631, 678.2966
236.3452, 698.8850
236.8273, 719.6349
237.3095, 740.1723
237.7916, 761.5627
238.2737, 784.1566
238.7558, 807.7347
239.2379, 831.8327
239.7200, 856.6930
240.2022, 881.7555
240.6843, 906.8603
241.1664, 931.5961
241.6485, 957.2587
242.1306, 983.8531
242.6127, 1011.532
243.0949, 1040.004
243.5770, 1069.873
244.0591, 1099.859
244.5412, 1129.015
245.0233, 1157.321
245.5054, 1185.342
245.9876, 1213.308
246.4697, 1240.906
246.9518, 1268.368
247.4339, 1297.597
247.9160, 1323.982
248.3981, 1345.102
248.8803, 1360.547
249.3624, 1372.206
249.8445, 1380.831
250.3266, 1385.489
250.8087, 1383.748
251.2909, 1375.863
251.7730, 1361.125
252.2551, 1339.054
252.7372, 1308.232
253.2193, 1273.161
253.7014, 1233.654
254.1836, 1190.282
254.6657, 1144.320
255.1478, 1094.313
255.6299, 1044.131
256.1120, 994.4337
256.5941, 944.8746
257.0763, 898.0569
257.5584, 853.9042
258.0405, 812.0349
258.5226, 772.3391
259.0047, 734.4608
259.4868, 698.7855
259.9690, 665.5719
260.4511, 634.6854
260.9332, 607.0453
261.4153, 582.8688
261.8974, 561.4024
262.3795, 541.9108
262.8617, 524.6155
263.3438, 508.3317
263.8259, 492.2983
264.3080, 476.3668
264.7901, 462.3428
265.2722, 450.4004
265.7544, 440.1490
266.2365, 431.4284
266.7186, 424.6090
267.2007, 418.2475
267.6829, 412.0211
268.1650, 405.8466
268.6471, 399.8535
269.1292, 393.7588
269.6113, 388.1164
270.0934, 383.5620
270.5756, 380.0863
271.0577, 377.5913
271.5398, 376.1602
272.0219, 375.7633
272.5040, 375.7655
272.9861, 376.1706
273.4683, 376.9567
273.9504, 378.0234
274.4325, 379.2830
274.9146, 381.3240
275.3967, 384.4345
275.8788, 388.5069
276.3610, 392.4888
276.8431, 396.3056
277.3252, 400.1383
277.8073, 404.5055
278.2894, 409.5716
278.7715, 413.3455
279.2537, 415.5573
279.7358, 416.1766
280.2179, 415.1693
280.7000, 412.5525
281.1821, 408.2014
281.6642, 401.5670
282.1464, 392.6393
282.6285, 383.3278
283.1106, 373.7533
283.5927, 364.1378
284.0748, 354.9796
284.5569, 346.2158
285.0391, 338.1559
285.5212, 330.8111
286.0033, 324.2052
286.4854, 318.7692
286.9675, 314.7371
287.4496, 311.6125
287.9318, 308.4665
288.4139, 305.2704
288.8960, 302.2699
289.3781, 299.4410
289.8602, 296.8441
290.3424, 294.8618
290.8245, 293.6356
291.3066, 292.7565
291.7887, 291.5970
292.2708, 290.1881
292.7530, 288.8416
293.2351, 287.6725
293.7172, 286.6982
294.1993, 286.0309
294.6814, 285.6897
295.1635, 285.5609
295.6457, 285.5464
296.1278, 285.6346
296.6099, 285.7845
297.0920, 285.8307
297.5741, 285.9495
298.0562, 286.4689
298.5384, 287.3874
299.0205, 288.7092
299.5026, 290.6652
299.9847, 293.0460
300.4668, 295.3645
300.9489, 297.3271
301.4311, 299.1354
301.9132, 301.0051
302.3953, 302.9520
302.8774, 304.9107
303.3595, 306.9620
303.8416, 308.9876
304.3238, 310.8275
304.8059, 312.3387
305.2880, 313.6872
305.7701, 314.8750
306.2522, 315.9619
306.7343, 317.2421
307.2165, 318.8883
307.6986, 320.8619
308.1807, 323.1889
308.6628, 326.2202
309.1449, 329.0854
309.6270, 331.0007
310.1092, 332.1972
310.5913, 333.3626
311.0734, 334.8545
311.5555, 336.4933
312.0376, 338.0729
312.5197, 339.4794
313.0019, 341.0350
313.4840, 343.2606
313.9661, 345.7821
314.4482, 347.8577
314.9304, 349.2577
315.4125, 350.0599
315.8946, 350.0559
316.3767, 348.9942
316.8588, 348.3156
317.3409, 348.9961
317.8231, 350.3068
318.3052, 351.2819
318.7873, 351.2323
319.2694, 351.1486
319.7515, 351.3775
320.2336, 351.9418
320.7158, 352.8319
321.1979, 354.5118
321.6800, 356.2945
322.1621, 357.5525
322.6442, 357.3166
323.1263, 357.4099
323.6085, 358.2094
324.0906, 359.7110
324.5727, 361.7207
325.0548, 364.4695
325.5369, 367.5353
326.0190, 370.6585
326.5012, 373.1924
326.9833, 376.5382
327.4654, 381.0787
327.9475, 386.5845
328.4296, 392.0549
328.9117, 396.8568
329.3939, 402.1792
329.8760, 408.6413
330.3581, 417.3388
330.8402, 425.1461
331.3223, 431.4991
331.8044, 437.1482
332.2866, 443.6473
332.7687, 451.2314
333.2508, 459.2135
333.7329, 467.5606
334.2150, 476.4947
334.6971, 484.7757
335.1793, 492.2206
335.6614, 499.2876
336.1435, 506.3749
336.6256, 513.3419
337.1077, 520.9291
337.5899, 529.3952
338.0720, 538.7831
338.5541, 547.5818
339.0362, 555.8514
339.5183, 563.6089
340.0005, 570.5411
340.4826, 576.5324
340.9647, 583.0649
341.4468, 590.5176
341.9289, 598.5947
342.4110, 606.7119
342.8932, 614.8927
343.3753, 622.4852
343.8574, 628.8311
344.3395, 634.0224
344.8216, 638.8213
345.3037, 643.3646
345.7859, 647.3878
346.2680, 650.7092
346.7501, 653.3008
347.2322, 654.3868
347.7143, 653.0338
348.1964, 649.8159
348.6786, 646.8663
349.1607, 644.4109
349.6428, 641.0844
350.1249, 634.9558
350.6070, 626.6117
351.0891, 617.7221
351.5713, 608.9723
352.0534, 600.1987
352.5355, 591.1100
353.0176, 581.8107
353.4997, 571.9703
353.9818, 561.0510
354.4640, 549.5599
354.9461, 538.0874
355.4282, 526.8055
355.9103, 515.7590
356.3924, 505.0534
356.8745, 494.5967
357.3567, 484.2855
357.8388, 473.9218
358.3209, 463.6799
358.8030, 453.5812
359.2851, 443.6867
359.7672, 433.9860
360.2494, 424.3412
360.7315, 414.8558
361.2136, 405.8722
361.6957, 397.9940
362.1779, 390.1551
362.6600, 381.4851
363.1421, 371.6827
363.6242, 362.9494
364.1063, 356.4348
364.5884, 351.0823
365.0706, 345.8659
365.5527, 340.6199
366.0348, 335.4560
366.5169, 330.1317
366.9990, 324.7100
367.4811, 320.2163
367.9633, 317.3172
368.4454, 314.9695
368.9275, 312.6007
369.4096, 310.0304
369.8917, 307.6954
370.3738, 305.8370
370.8560, 304.2030
371.3381, 302.1105
371.8202, 299.2420
372.3023, 296.3195
372.7844, 293.6753
373.2665, 291.4613
373.7487, 288.9217
374.2308, 285.8544
374.7129, 282.6685
375.1950, 279.8639
375.6771, 277.4844
376.1592, 275.3745
376.6414, 273.7076
377.1235, 272.3634
377.6056, 269.8628
378.0877, 265.8810
378.5698, 261.7468
379.0519, 258.6210
379.5341, 256.5353
380.0162, 254.5168
380.4983, 252.4744
380.9804, 250.3443
381.4625, 247.9058
381.9446, 245.1403
382.4268, 242.7225
382.9089, 241.0957
383.3910, 240.1364
383.8731, 239.4949
384.3553, 239.2131
384.8374, 238.9306
385.3195, 238.2431
385.8016, 237.2152
386.2837, 236.0193
386.7658, 234.6264
387.2480, 233.1740
387.7301, 231.7974
388.2122, 230.5036
388.6943, 229.2940
389.1764, 228.1981
389.6585, 227.1857
390.1407, 226.2114
390.6228, 225.0719
391.1049, 224.2402
391.5870, 224.4926
392.0691, 225.3996
392.5512, 225.6673
393.0334, 223.9939
393.5155, 221.9843
393.9976, 220.7091
394.4797, 220.5183
394.9618, 220.3576
395.4439, 219.8145
395.9261, 219.1307
396.4082, 218.6301
396.8903, 218.5186
397.3724, 218.4565
397.8545, 218.3439
398.3366, 218.1745
398.8188, 218.0571
399.3009, 218.2104
399.7830, 218.2770
400.2651, 218.0139
400.7472, 217.0101
401.2293, 216.2903
401.7115, 215.9392
402.1936, 215.8962
402.6757, 216.0110
403.1578, 216.4096
403.6399, 216.7490
404.1220, 216.8897
404.6042, 216.8202
405.0863, 216.5557
405.5684, 215.9468
406.0505, 215.3856
406.5326, 215.5225
407.0147, 216.4805
407.4969, 217.1873
407.9790, 217.2439
408.4611, 216.8601
408.9432, 216.8536
409.4254, 217.2374
409.9075, 217.8903
410.3896, 219.0302
410.8717, 220.4501
411.3538, 221.0602
411.8359, 220.4399
412.3181, 219.6088
412.8002, 220.3167
413.2823, 222.1655
413.7644, 223.6098
414.2465, 223.3365
414.7286, 222.4016
415.2108, 222.2797
415.6929, 223.0574
416.1750, 223.9362
416.6571, 224.2022
417.1392, 224.2270
417.6213, 224.5276
418.1035, 225.4276
418.5856, 226.4827
419.0677, 227.3564
419.5498, 228.1486
420.0319, 229.1965
420.5140, 231.0514
420.9962, 232.9255
421.4783, 234.3213
421.9604, 235.0202
422.4425, 235.6406
422.9246, 236.0648
423.4067, 236.5468
423.8889, 237.4437
424.3710, 239.1784
424.8531, 240.9343
425.3352, 242.4480
425.8173, 243.7146
426.2994, 245.2981
426.7816, 247.4769
427.2637, 249.6772
427.7458, 251.4308
428.2279, 252.2864
428.7100, 253.9085
429.1921, 256.6768
429.6743, 260.0762
430.1564, 262.6993
430.6385, 264.2888
431.1206, 266.1049
431.6028, 268.8464
432.0849, 272.4738
432.5670, 275.3480
433.0491, 277.3122
433.5312, 279.2058
434.0133, 282.1558
434.4955, 285.9800
434.9776, 289.3727
435.4597, 291.7586
435.9418, 293.8698
436.4239, 297.0423
436.9060, 301.1269
437.3882, 305.3408
437.8703, 309.0055
438.3524, 312.5486
438.8345, 316.7481
439.3166, 321.8017
439.7987, 326.6970
440.2809, 330.4093
440.7630, 333.4888
441.2451, 336.7555
441.7272, 340.7697
442.2093, 344.8296
442.6914, 348.6084
443.1736, 352.1118
443.6557, 355.4160
444.1378, 358.3828
444.6199, 361.2884
445.1020, 364.3063
445.5841, 367.6034
446.0663, 370.7298
446.5484, 373.5670
447.0305, 376.2158
447.5126, 378.8560
447.9947, 381.5648
448.4768, 384.1428
448.9590, 386.5384
449.4411, 388.7370
449.9232, 390.8292
450.4053, 392.6812
450.8874, 394.6381
451.3695, 397.0927
451.8517, 400.3428
452.3338, 402.7855
452.8159, 404.1454
453.2980, 404.7401
453.7801, 404.9714
454.2622, 404.7769
454.7444, 405.0964
455.2265, 406.8257
455.7086, 409.4793
456.1907, 410.7558
456.6729, 410.5926
457.1550, 410.0653
457.6371, 410.1761
458.1192, 410.6972
458.6013, 411.0807
459.0834, 411.1835
459.5656, 411.1161
460.0477, 410.9429
460.5298, 410.6845
461.0119, 410.4129
461.4940, 409.8264
461.9761, 409.4642
462.4583, 409.8643
462.9404, 411.1204
463.4225, 412.4243
463.9046, 413.1683
464.3867, 413.9030
464.8688, 415.1303
465.3510, 418.0333
465.8331, 420.2553
466.3152, 421.1500
466.7973, 420.9521
467.2794, 420.5058
467.7615, 420.0395
468.2437, 419.1631
468.7258, 417.8138
469.2079, 416.1182
469.6900, 413.4456
470.1721, 409.5859
470.6542, 404.9922
471.1364, 399.9488
471.6185, 394.1940
472.1006, 388.9874
472.5827, 384.4642
473.0648, 380.6820
473.5469, 377.8016
474.0291, 375.8224
474.5112, 374.7567
474.9933, 375.1010
475.4754, 376.4695
475.9575, 376.9579
476.4396, 376.3649
476.9218, 375.9491
477.4039, 377.2749
477.8860, 379.7999
478.3681, 382.2631
478.8503, 384.2255
479.3324, 386.0054
479.8145, 387.9640
480.2966, 390.0327
480.7787, 391.8812
481.2608, 392.8758
481.7430, 393.9508
482.2251, 396.0565
482.7072, 399.6064
483.1893, 402.3390
483.6714, 403.2603
484.1535, 403.0733
484.6357, 402.5021
485.1178, 401.8517
485.5999, 400.6252
486.0820, 398.7109
486.5641, 396.1769
487.0462, 393.1455
487.5284, 389.6312
488.0105, 385.6050
488.4926, 380.9912
488.9747, 375.8065
489.4568, 370.1409
489.9389, 363.9237
490.4211, 357.4349
490.9032, 351.1315
491.3853, 345.0094
491.8674, 338.5576
492.3495, 331.5484
492.8316, 324.3595
493.3138, 317.9554
493.7959, 312.2428
494.2780, 306.4859
494.7601, 299.9228
495.2422, 293.1297
495.7243, 287.3375
496.2065, 282.5406
496.6886, 278.4997
497.1707, 275.0785
497.6528, 272.1591
498.1349, 269.6022
498.6170, 267.5806
499.0992, 265.5581
499.5813, 263.0650
500.0634, 260.3257
500.5455, 257.8654
501.0276, 255.6290
501.5097, 253.9155
501.9919, 253.1048
502.4740, 253.4464
502.9561, 253.0900
503.4382, 251.5124
503.9203, 249.4629
504.4025, 247.3777
504.8846, 245.0497
505.3667, 243.1712
505.8488, 241.8641
506.3309, 240.9942
506.8130, 240.2622
507.2952, 239.6393
507.7773, 239.3150
508.2594, 239.5757
508.7415, 240.2294
509.2236, 240.1204
509.7057, 239.2133
510.1879, 238.0079
510.6700, 236.5933
511.1521, 235.1886
511.6342, 234.4136
512.1163, 234.3792
512.5984, 234.9610
513.0806, 236.5916
513.5627, 238.7248
514.0448, 240.2189
514.5269, 240.1846
515.0090, 239.6602
515.4911, 239.1721
515.9733, 238.7468
516.4554, 238.5012
516.9375, 238.4842
517.4196, 238.6484
517.9017, 238.9629
518.3839, 239.4091
518.8660, 240.0400
519.3481, 240.8040
519.8302, 241.7837
520.3123, 243.0871
520.7944, 244.9722
521.2766, 246.7292
521.7587, 248.2390
522.2408, 249.5437
522.7229, 250.8140
523.2050, 252.0086
523.6871, 253.3382
524.1693, 255.0881
524.6514, 257.1685
525.1335, 258.5772
525.6156, 259.1995
526.0977, 259.9443
526.5798, 261.9143
527.0620, 264.7860
527.5441, 267.6136
528.0262, 270.2588
528.5083, 272.5966
528.9904, 274.0938
529.4725, 275.1234
529.9547, 276.5923
530.4368, 279.2035
530.9189, 282.1746
531.4010, 284.9547
531.8831, 287.5598
532.3652, 290.3283
532.8474, 293.8571
533.3295, 297.2963
533.8116, 300.1053
534.2937, 301.5110
534.7758, 303.4576
535.2579, 306.0800
535.7401, 309.2238
536.2222, 312.6356
536.7043, 316.5957
537.1865, 320.3178
537.6686, 323.6468
538.1507, 326.6320
538.6328, 329.2016
539.1149, 331.2887
539.5970, 333.5628
540.0792, 336.7124
540.5613, 340.4759
541.0434, 343.3006
541.5255, 345.0626
542.0076, 346.5449
542.4897, 348.6452
542.9719, 351.0247
543.4540, 353.0201
543.9361, 354.3369
544.4182, 355.3614
544.9003, 356.1485
545.3824, 356.8497
545.8646, 357.8067
546.3467, 359.6619
546.8288, 361.3455
547.3109, 362.5185
547.7930, 363.1481
548.2751, 362.8889
548.7573, 361.0461
549.2394, 358.7907
549.7215, 356.7790
550.2036, 355.3361
550.6857, 353.4231
551.1678, 351.0354
551.6500, 348.1797
552.1321, 344.8161
552.6142, 340.8568
553.0963, 336.8569
553.5784, 332.8571
554.0605, 328.9791
554.5427, 325.7988
555.0248, 323.2591
555.5069, 320.2942
555.9890, 315.9777
556.4711, 310.9376
556.9532, 306.3088
557.4354, 302.1332
557.9175, 298.0146
558.3996, 293.4678
558.8817, 288.9425
559.3638, 284.9147
559.8459, 281.5010
560.3281, 278.6644
560.8102, 276.9262
561.2923, 275.6662
561.7744, 273.9205
562.2565, 270.8370
562.7386, 267.9951
563.2208, 265.5328
563.7029, 263.5155
564.1850, 262.3629
564.6671, 262.5840
565.1492, 262.7848
565.6313, 262.1140
566.1135, 260.4547
566.5956, 259.7219
567.0777, 260.1164
567.5598, 260.7449
568.0419, 260.5562
568.5240, 259.7323
569.0062, 259.1363
569.4883, 258.8366
569.9704, 259.0840
570.4525, 260.5569
570.9346, 262.8734
571.4167, 264.9749
571.8989, 266.1805
572.3810, 267.2088
572.8631, 268.4895
573.3452, 270.0196
573.8273, 271.7881
574.3094, 273.7228
574.7916, 275.9355
575.2737, 278.4865
575.7558, 281.3857
576.2379, 284.6088
576.7200, 288.2355
577.2021, 292.0691
577.6843, 295.9921
578.1664, 299.9932
