##NAMES=Gorceixite
##RRUFFID=R060158
##IDEAL CHEMISTRY=BaAl_3_(PO_4_)(PO_3_OH)(OH)_6_
##LOCALITY=16 miles north of the Hess River, Mayo Mining District, Yukon Territory, Canada
##OWNER=RRUFF
##SOURCE=Mark Mauthner
##DESCRIPTION=Aggregate of purple-grey colored crystals imbedded in a matrix of quartz and penikisite R060160
##STATUS=The identification of this mineral is confirmed by single-crystal X-ray diffraction and chemical analysis.
##URL=rruff.info/R060158
##MEASURED CHEMISTRY=(Ba_0.91_Sr_0.09_)_Σ=1_Al_3.00_(P_1.00_O_4_)(P_1.00_O_3_OH)((OH)_5.50_F_0.50_)_Σ=6_ ; = lighter phase. The darker gray phase  (Ba_0.75_Sr_0.25_)_Σ=1_Al_3.00_(P_1.00_O_4_)(P_1.00_O_3_OH)((OH)_5.53_F_0.47_)_Σ=6_ ; H not measured but estimated by differe
92.02539, 112.5063
92.50751, 112.6851
92.98962, 113.5845
93.47174, 114.1645
93.95386, 114.6249
94.43597, 114.2023
94.91809, 112.6324
95.40021, 110.3293
95.88232, 108.2062
96.36444, 106.3130
96.84656, 104.5402
97.32867, 102.8290
97.81078, 101.2635
98.29290, 100.0061
98.77502, 99.18610
99.25713, 98.75453
99.73925, 97.84330
100.2214, 96.04008
100.7035, 94.28043
101.1856, 92.97798
101.6677, 92.14483
102.1498, 91.53201
102.6320, 90.83090
103.1141, 89.88467
103.5962, 89.26833
104.0783, 89.29056
104.5604, 89.50191
105.0425, 89.38618
105.5247, 88.76165
106.0068, 87.86272
106.4889, 87.10223
106.9710, 86.53735
107.4531, 85.79741
107.9352, 84.53376
108.4173, 82.86232
108.8995, 81.42254
109.3816, 80.48284
109.8637, 79.86777
110.3458, 79.37842
110.8279, 78.99934
111.3100, 78.71767
111.7922, 78.56921
112.2743, 78.63973
112.7564, 78.56005
113.2385, 78.06719
113.7206, 77.46086
114.2027, 77.00760
114.6849, 76.83887
115.1670, 76.86868
115.6491, 76.80128
116.1312, 76.58152
116.6133, 76.31020
117.0954, 76.04860
117.5776, 75.74317
118.0597, 75.26339
118.5418, 74.47681
119.0239, 73.37031
119.5060, 72.83214
119.9881, 73.14537
120.4703, 73.62707
120.9524, 74.12301
121.4345, 74.57262
121.9166, 74.88470
122.3987, 74.97762
122.8808, 74.80773
123.3630, 74.45387
123.8451, 73.85917
124.3272, 73.10880
124.8093, 72.17574
125.2914, 70.99796
125.7735, 69.96532
126.2557, 69.74344
126.7378, 70.15418
127.2199, 70.44821
127.7020, 70.21764
128.1841, 69.62984
128.6662, 69.23084
129.1483, 69.19105
129.6305, 69.26854
130.1126, 69.28738
130.5947, 69.24583
131.0768, 69.15955
131.5589, 69.03884
132.0410, 68.88321
132.5232, 68.69890
133.0053, 68.27894
133.4874, 67.97386
133.9695, 68.04641
134.4516, 68.52214
134.9337, 69.15125
135.4159, 69.55161
135.8980, 69.58972
136.3801, 69.63438
136.8622, 69.65256
137.3443, 69.71022
137.8264, 69.89798
138.3086, 70.24483
138.7907, 70.66548
139.2728, 70.91719
139.7549, 70.84780
140.2370, 70.77546
140.7191, 70.68501
141.2013, 70.61136
141.6834, 70.60434
142.1655, 70.69072
142.6476, 70.86374
143.1297, 71.09058
143.6118, 71.49565
144.0939, 71.81804
144.5761, 71.82869
145.0582, 71.61123
145.5403, 71.55766
146.0224, 71.94346
146.5045, 72.67477
146.9866, 73.37386
147.4688, 73.96506
147.9509, 74.56956
148.4330, 75.37863
148.9151, 76.44838
149.3972, 77.37514
149.8793, 77.58569
150.3615, 77.57050
150.8436, 77.97430
151.3257, 79.15962
151.8078, 80.83932
152.2899, 82.38676
152.7720, 83.88137
153.2542, 85.08617
153.7363, 85.76053
154.2184, 86.16428
154.7005, 86.69348
155.1826, 87.58727
155.6647, 88.82340
156.1469, 90.16439
156.6290, 91.58675
157.1111, 93.15528
157.5932, 94.87694
158.0753, 96.75998
158.5574, 98.81912
159.0396, 101.1031
159.5217, 103.6594
160.0038, 105.9919
160.4859, 107.9172
160.9680, 109.8200
161.4501, 111.7618
161.9323, 113.7971
162.4144, 116.0391
162.8965, 118.6152
163.3786, 121.6636
163.8607, 124.5376
164.3428, 127.1384
164.8250, 129.6429
165.3071, 132.1345
165.7892, 134.6382
166.2713, 137.1689
166.7534, 139.7848
167.2355, 142.5147
167.7177, 145.0575
168.1998, 147.2046
168.6819, 149.2210
169.1640, 151.4374
169.6461, 153.9298
170.1282, 156.5834
170.6104, 159.3293
171.0925, 162.1504
171.5746, 164.8508
172.0567, 167.2937
172.5388, 169.5425
173.0209, 171.8218
173.5031, 174.3224
173.9852, 176.6170
174.4673, 178.4976
174.9494, 179.9612
175.4315, 180.9688
175.9136, 181.2378
176.3958, 180.8034
176.8779, 180.7285
177.3600, 181.5977
177.8421, 182.5058
178.3242, 183.1680
178.8063, 183.4872
179.2885, 183.1734
179.7706, 181.7615
180.2527, 178.9759
180.7348, 176.2605
181.2169, 174.2996
181.6990, 172.0025
182.1812, 168.6261
182.6633, 164.1180
183.1454, 159.1285
183.6275, 154.5724
184.1096, 150.7710
184.5917, 146.7310
185.0738, 142.2465
185.5560, 137.6982
186.0381, 133.3659
186.5202, 129.3195
187.0023, 125.4423
187.4844, 121.5571
187.9665, 117.4955
188.4487, 113.7069
188.9308, 110.3557
189.4129, 107.2082
189.8950, 103.9890
190.3771, 100.6269
190.8592, 97.33537
191.3414, 94.56512
191.8235, 92.53384
192.3056, 90.63372
192.7877, 88.91770
193.2698, 87.27839
193.7519, 85.51415
194.2341, 83.51820
194.7162, 81.49524
195.1983, 79.88103
195.6804, 78.65449
196.1625, 77.66989
196.6446, 77.08469
197.1268, 76.70972
197.6089, 76.06791
198.0910, 74.89793
198.5731, 73.55544
199.0552, 72.60459
199.5373, 72.06920
200.0195, 71.65376
200.5016, 71.20653
200.9837, 70.74224
201.4658, 70.34079
201.9479, 70.02454
202.4300, 69.78982
202.9122, 69.66903
203.3943, 69.68082
203.8764, 69.61533
204.3585, 69.21482
204.8406, 68.48159
205.3227, 67.92228
205.8048, 67.71108
206.2870, 67.69951
206.7691, 67.84349
207.2512, 68.13258
207.7333, 68.42197
208.2154, 68.55352
208.6975, 68.50645
209.1797, 68.42355
209.6618, 68.34937
210.1439, 68.22881
210.6260, 68.01067
211.1081, 67.69219
211.5902, 67.33225
212.0724, 66.97319
212.5545, 66.55567
213.0366, 66.33774
213.5187, 66.40723
214.0008, 66.60918
214.4829, 66.88548
214.9651, 67.21031
215.4472, 67.55794
215.9293, 67.84767
216.4114, 67.85471
216.8935, 68.31316
217.3756, 69.66040
217.8578, 71.07504
218.3399, 71.90451
218.8220, 72.04631
219.3041, 71.97047
219.7862, 72.39281
220.2683, 73.57630
220.7505, 74.80717
221.2326, 76.14119
221.7147, 77.48727
222.1968, 78.77038
222.6789, 79.97534
223.1610, 81.14109
223.6432, 82.30572
224.1253, 83.32789
224.6074, 84.70394
225.0895, 86.53102
225.5716, 88.65081
226.0537, 90.95391
226.5358, 93.41337
227.0180, 95.97181
227.5001, 98.54619
227.9822, 101.0883
228.4643, 103.8039
228.9464, 106.6494
229.4285, 109.6984
229.9107, 113.0685
230.3928, 116.7908
230.8749, 120.6226
231.3570, 124.1925
231.8391, 127.4591
232.3212, 130.8901
232.8034, 134.6064
233.2855, 138.4975
233.7676, 142.4237
234.2497, 146.3559
234.7318, 150.3436
235.2139, 154.5491
235.6961, 158.9358
236.1782, 163.1809
236.6603, 166.9902
237.1424, 170.6684
237.6245, 174.7447
238.1066, 179.3797
238.5888, 184.1734
239.0709, 188.8203
239.5530, 193.3451
240.0351, 197.8889
240.5172, 202.3891
240.9993, 206.9658
241.4815, 211.7736
241.9636, 216.7933
242.4457, 222.1952
242.9278, 228.5091
243.4099, 235.3039
243.8920, 241.6370
244.3742, 246.6386
244.8563, 250.9628
245.3384, 256.2851
245.8205, 263.1603
246.3026, 269.7583
246.7847, 274.9420
247.2668, 279.2030
247.7490, 283.3000
248.2311, 287.7745
248.7132, 292.1996
249.1953, 295.6660
249.6774, 298.2267
250.1595, 299.5665
250.6417, 299.6563
251.1238, 298.6249
251.6059, 296.6167
252.0880, 293.7877
252.5701, 289.9074
253.0522, 284.2309
253.5344, 276.2298
254.0165, 267.3904
254.4986, 257.8328
254.9807, 247.9727
255.4628, 238.1907
255.9449, 228.7027
256.4271, 219.3654
256.9092, 209.6973
257.3913, 199.3362
257.8734, 189.4187
258.3555, 179.9617
258.8376, 171.0638
259.3198, 162.7532
259.8019, 155.0722
260.2840, 148.0254
260.7661, 141.6642
261.2482, 136.2007
261.7303, 131.0934
262.2125, 126.1059
262.6946, 121.4123
263.1767, 117.1962
263.6588, 113.4869
264.1409, 110.1882
264.6230, 107.1224
265.1052, 104.3888
265.5873, 101.7109
266.0694, 98.85484
266.5515, 96.18184
267.0336, 93.99075
267.5157, 92.34048
267.9979, 91.05553
268.4800, 89.90270
268.9621, 88.94089
269.4442, 88.00369
269.9263, 86.98137
270.4084, 86.05676
270.8906, 85.32676
271.3727, 84.81731
271.8548, 84.53036
272.3369, 84.49403
272.8190, 84.81056
273.3011, 85.04612
273.7833, 85.18164
274.2654, 85.27087
274.7475, 85.17631
275.2296, 84.99934
275.7117, 85.11552
276.1938, 85.95413
276.6760, 87.69321
277.1581, 89.07053
277.6402, 90.17184
278.1223, 90.93668
278.6044, 91.19593
279.0865, 91.06293
279.5686, 90.89442
280.0508, 91.02110
280.5329, 91.46145
281.0150, 91.27929
281.4971, 90.46459
281.9792, 89.18403
282.4613, 87.28671
282.9435, 84.95644
283.4256, 82.55038
283.9077, 80.28149
284.3898, 78.14194
284.8719, 76.20737
285.3540, 74.43678
285.8362, 72.86568
286.3183, 71.60561
286.8004, 70.54284
287.2825, 69.45948
287.7646, 68.22917
288.2467, 66.94156
288.7289, 65.90285
289.2110, 65.18967
289.6931, 64.60797
290.1752, 64.23925
290.6573, 63.96205
291.1394, 63.58353
291.6216, 63.02230
292.1037, 62.39903
292.5858, 61.94585
293.0679, 61.60296
293.5500, 61.59402
294.0321, 61.70699
294.5143, 61.76606
294.9964, 61.77411
295.4785, 61.57836
295.9606, 61.64578
296.4427, 61.60774
296.9248, 61.56538
297.4070, 61.66984
297.8891, 61.50374
298.3712, 62.02544
298.8533, 62.40211
299.3354, 62.54468
299.8175, 62.71490
300.2997, 63.22469
300.7818, 64.15926
301.2639, 64.76463
301.7460, 64.76950
302.2281, 64.66131
302.7102, 64.70308
303.1924, 64.92861
303.6745, 65.34857
304.1566, 66.01973
304.6387, 66.92368
305.1208, 67.67762
305.6029, 68.17638
306.0851, 68.64660
306.5672, 69.31928
307.0493, 70.08415
307.5314, 70.52093
308.0135, 70.28730
308.4956, 69.62891
308.9778, 69.63979
309.4599, 70.81071
309.9420, 71.90896
310.4241, 72.43057
310.9062, 72.61425
311.3883, 72.92138
311.8705, 73.54969
312.3526, 74.36421
312.8347, 75.07984
313.3168, 75.74974
313.7989, 76.23723
314.2810, 76.31676
314.7632, 76.26606
315.2453, 76.48238
315.7274, 77.08035
316.2095, 77.83953
316.6916, 78.48298
317.1737, 79.00043
317.6559, 79.43872
318.1380, 79.72189
318.6201, 79.97435
319.1022, 80.32713
319.5843, 80.79371
320.0664, 81.26841
320.5485, 81.65257
321.0306, 81.93459
321.5128, 82.22958
321.9949, 82.37187
322.4770, 82.66428
322.9591, 83.46029
323.4412, 84.64875
323.9233, 85.67170
324.4055, 86.08389
324.8876, 86.01969
325.3697, 86.42683
325.8518, 87.38544
326.3339, 88.63833
326.8160, 90.26794
327.2982, 92.11911
327.7803, 93.85055
328.2624, 95.27869
328.7445, 96.56123
329.2266, 98.15518
329.7087, 100.2858
330.1909, 102.2763
330.6730, 103.8938
331.1551, 105.3347
331.6372, 106.8185
332.1193, 108.4071
332.6014, 110.1153
333.0836, 111.9814
333.5657, 114.0360
334.0478, 116.1895
334.5299, 118.4979
335.0120, 120.8521
335.4941, 123.2645
335.9763, 125.6845
336.4584, 127.9014
336.9405, 129.6460
337.4226, 130.8641
337.9047, 132.3784
338.3868, 134.2700
338.8690, 136.3551
339.3511, 138.6169
339.8332, 141.0108
340.3153, 143.4474
340.7974, 145.9054
341.2795, 148.3342
341.7617, 150.3450
342.2438, 151.4828
342.7259, 152.8003
343.2080, 154.8139
343.6901, 157.0890
344.1722, 158.8991
344.6544, 159.9294
345.1365, 160.5530
345.6186, 161.5489
346.1007, 163.5589
346.5828, 164.9422
347.0649, 165.3057
347.5471, 165.2537
348.0292, 165.3979
348.5113, 165.8143
348.9934, 166.0360
349.4755, 165.4732
349.9576, 163.9144
350.4398, 162.3660
350.9219, 160.9140
351.4040, 159.3939
351.8861, 157.7774
352.3682, 156.0374
352.8503, 154.0958
353.3325, 151.8808
353.8146, 149.4181
354.2967, 147.0396
354.7788, 144.8653
355.2609, 142.6436
355.7430, 140.2893
356.2252, 137.8684
356.7073, 135.4641
357.1894, 133.1205
357.6715, 130.8171
358.1536, 128.4891
358.6357, 126.3100
359.1179, 123.8134
359.5999, 120.7071
360.0821, 117.4770
360.5642, 114.5443
361.0463, 111.9714
361.5284, 109.5524
362.0105, 107.0225
362.4926, 104.3651
362.9748, 101.6541
363.4569, 98.84365
363.9390, 96.03358
364.4211, 93.16100
364.9032, 90.30204
365.3853, 87.70774
365.8675, 85.60378
366.3496, 83.92567
366.8317, 82.04644
367.3138, 79.69614
367.7959, 77.48734
368.2780, 75.46827
368.7602, 73.69350
369.2423, 72.26360
369.7244, 71.23770
370.2065, 70.45103
370.6886, 69.55520
371.1707, 68.42958
371.6529, 67.51255
372.1350, 67.18516
372.6171, 66.84258
373.0992, 66.00018
373.5813, 64.63633
374.0634, 63.17062
374.5456, 62.05852
375.0277, 61.32145
375.5098, 60.49392
375.9919, 59.31817
376.4740, 58.33822
376.9561, 57.96647
377.4383, 57.97323
377.9204, 57.83300
378.4025, 57.20790
378.8846, 56.24896
379.3667, 55.35448
379.8488, 54.51696
380.3310, 53.76712
380.8131, 53.16565
381.2952, 52.63353
381.7773, 52.11376
382.2594, 51.60534
382.7415, 51.04319
383.2237, 50.25450
383.7058, 49.24050
384.1879, 48.53054
384.6700, 48.39398
385.1521, 48.47552
385.6342, 48.50772
386.1164, 48.47919
386.5985, 48.29620
387.0806, 47.74852
387.5627, 47.02538
388.0448, 46.63145
388.5269, 46.70034
389.0091, 46.78638
389.4912, 46.49711
389.9733, 45.97857
390.4554, 45.54641
390.9375, 45.34390
391.4196, 45.17723
391.9018, 44.82643
392.3839, 44.31726
392.8660, 43.90609
393.3481, 43.73278
393.8302, 43.69883
394.3123, 43.59830
394.7945, 43.40297
395.2766, 43.23783
395.7587, 43.22459
396.2408, 43.25550
396.7229, 43.07497
397.2050, 42.59598
397.6872, 42.18429
398.1693, 42.35015
398.6514, 43.16743
399.1335, 43.52411
399.6156, 43.03595
400.0977, 42.34613
400.5798, 41.85835
401.0620, 41.57697
401.5441, 41.38122
402.0262, 41.20211
402.5083, 41.04463
402.9904, 40.94159
403.4725, 40.95549
403.9547, 40.93792
404.4368, 40.78596
404.9189, 40.61557
405.4010, 40.62630
405.8831, 40.86899
406.3652, 41.13291
406.8474, 41.07931
407.3295, 40.49251
407.8116, 40.22669
408.2937, 40.61127
408.7758, 40.98701
409.2579, 40.91010
409.7401, 40.47306
410.2222, 40.08400
410.7043, 40.06101
411.1864, 40.34364
411.6685, 40.39055
412.1506, 39.83982
412.6328, 39.49775
413.1149, 39.64298
413.5970, 39.98133
414.0791, 40.19220
414.5612, 40.16547
415.0433, 40.01154
415.5255, 39.86958
416.0076, 39.69690
416.4897, 39.68513
416.9718, 40.09250
417.4539, 40.45354
417.9360, 40.44835
418.4182, 40.17459
418.9003, 40.01118
419.3824, 40.29455
419.8645, 40.90071
420.3466, 41.24480
420.8287, 41.15301
421.3109, 41.15888
421.7930, 41.55677
422.2751, 42.12601
422.7572, 42.63837
423.2393, 43.03568
423.7214, 43.34527
424.2036, 43.58360
424.6857, 43.75142
425.1678, 43.86070
425.6499, 43.80637
426.1320, 43.83669
426.6141, 44.21107
427.0963, 44.89045
427.5784, 45.58744
428.0605, 46.24683
428.5426, 46.82646
429.0247, 47.15950
429.5068, 47.21499
429.9890, 47.45743
430.4711, 48.29190
430.9532, 49.51468
431.4353, 50.40820
431.9174, 50.68821
432.3995, 51.05968
432.8817, 52.14587
433.3638, 53.54922
433.8459, 54.28982
434.3280, 53.98290
434.8101, 53.44056
435.2922, 53.82387
435.7744, 55.40556
436.2565, 56.88137
436.7386, 58.29395
437.2207, 59.52019
437.7028, 60.35172
438.1849, 60.87822
438.6671, 61.42899
439.1492, 62.21767
439.6313, 63.22231
440.1134, 64.29809
440.5955, 65.61178
441.0776, 66.79315
441.5598, 67.70058
442.0418, 68.50524
442.5240, 69.36863
443.0061, 70.33224
443.4882, 71.35268
443.9703, 72.38535
444.4524, 73.46567
444.9345, 74.40532
445.4167, 75.02600
445.8988, 75.67900
446.3809, 76.53531
446.8630, 77.50698
447.3451, 78.44141
447.8272, 79.25954
448.3094, 79.94495
448.7915, 80.40697
449.2736, 80.51983
449.7557, 80.76738
450.2378, 81.42128
450.7199, 82.15218
451.2021, 82.73660
451.6842, 83.14840
452.1663, 83.49062
452.6484, 83.83586
453.1305, 84.17795
453.6126, 84.49236
454.0948, 84.80059
454.5769, 85.02278
455.0590, 85.08823
455.5411, 85.03278
456.0232, 84.88316
456.5053, 84.54633
456.9875, 84.25526
457.4696, 84.30984
457.9517, 84.61462
458.4338, 84.69256
458.9159, 84.31252
459.3980, 83.78452
459.8802, 83.62675
460.3623, 83.87911
460.8444, 83.99099
461.3265, 83.82761
461.8086, 83.50758
462.2907, 83.03557
462.7729, 82.46702
463.2550, 82.05750
463.7371, 82.01269
464.2192, 82.25043
464.7013, 82.29253
465.1834, 81.73840
465.6656, 81.72865
466.1477, 81.90076
466.6298, 82.01896
467.1119, 82.08614
467.5940, 81.94952
468.0761, 82.07607
468.5583, 82.09716
469.0404, 82.11391
469.5225, 81.59351
470.0046, 81.14914
470.4867, 80.52415
470.9688, 79.63242
471.4510, 78.57555
471.9331, 77.46260
472.4152, 76.32120
472.8973, 75.29771
473.3794, 74.75896
473.8615, 74.86640
474.3437, 74.76859
474.8258, 74.05834
475.3079, 73.30025
475.7900, 72.84413
476.2721, 72.67665
476.7542, 72.58132
477.2364, 72.36327
477.7185, 72.13995
478.2006, 72.23711
478.6827, 72.71388
479.1648, 73.15792
479.6469, 73.31348
480.1291, 73.32340
480.6112, 73.45193
481.0933, 73.74631
481.5754, 74.05738
482.0575, 74.34590
482.5396, 74.59194
483.0217, 74.74833
483.5038, 74.80350
483.9860, 74.82274
484.4681, 74.90492
484.9502, 75.04839
485.4323, 74.90831
485.9144, 74.36753
486.3965, 73.68880
486.8787, 72.94841
487.3608, 72.15067
487.8429, 71.29797
488.3250, 70.38852
488.8071, 69.41597
489.2892, 68.38219
489.7714, 67.30224
490.2535, 66.09293
490.7356, 64.73543
491.2177, 63.29247
491.6998, 61.77121
492.1819, 60.19556
492.6641, 58.59306
493.1462, 56.96694
493.6283, 55.37122
494.1104, 54.00027
494.5925, 52.97787
495.0746, 51.85310
495.5568, 50.38116
496.0389, 48.87581
496.5210, 47.51445
497.0031, 46.32715
497.4852, 45.31551
497.9673, 44.49554
498.4495, 43.85929
498.9316, 43.47032
499.4137, 43.41011
499.8958, 43.21136
500.3779, 42.45876
500.8600, 41.42950
501.3422, 40.72239
501.8243, 40.50871
502.3064, 40.30438
502.7885, 39.86913
503.2706, 39.27796
503.7527, 38.62209
504.2349, 37.92079
504.7170, 37.27087
505.1991, 36.77525
505.6812, 36.44018
506.1633, 36.11953
506.6454, 35.74968
507.1276, 35.46214
507.6097, 35.29589
508.0918, 35.24548
508.5739, 35.36851
509.0560, 35.67385
509.5381, 35.95771
510.0203, 35.84557
510.5024, 35.13603
510.9845, 34.72169
511.4666, 34.75932
511.9487, 34.93964
512.4308, 35.25420
512.9130, 35.61128
513.3951, 35.86160
513.8772, 35.92433
514.3593, 35.85949
514.8414, 35.72922
515.3235, 35.50494
515.8057, 35.44514
516.2878, 35.78039
516.7699, 36.12604
517.2520, 36.11973
517.7341, 35.80591
518.2162, 35.52483
518.6984, 35.36204
519.1805, 35.34122
519.6626, 35.50753
520.1447, 35.85598
520.6268, 36.34853
521.1089, 37.03996
521.5911, 37.78021
522.0732, 38.15273
522.5553, 37.97351
523.0374, 38.03382
523.5195, 38.71893
524.0016, 39.51917
524.4838, 39.98339
524.9659, 40.10366
525.4480, 40.08897
525.9301, 40.05510
526.4122, 40.05455
526.8943, 40.38968
527.3765, 41.59045
527.8586, 42.35319
528.3407, 42.24850
528.8228, 41.91352
529.3049, 41.80840
529.7870, 42.01274
530.2692, 42.40331
530.7513, 42.90823
531.2334, 43.50966
531.7155, 44.12133
532.1976, 44.76891
532.6797, 45.36247
533.1619, 45.90321
533.6440, 46.34902
534.1261, 46.56910
534.6082, 46.49421
535.0903, 46.59706
535.5724, 47.32198
536.0546, 48.41624
536.5367, 49.37164
537.0188, 50.12654
537.5009, 50.73751
537.9830, 51.19214
538.4651, 51.53344
538.9473, 51.99352
539.4294, 52.66787
539.9115, 53.33028
540.3936, 53.93883
540.8757, 54.49375
541.3578, 54.97969
541.8400, 55.40096
542.3221, 55.81204
542.8042, 56.27451
543.2863, 56.79061
543.7684, 57.21957
544.2505, 57.49975
544.7326, 57.75863
545.2147, 57.98239
545.6968, 58.21542
546.1790, 58.54936
546.6611, 58.99380
547.1432, 59.37257
547.6253, 59.43936
548.1074, 59.22670
548.5895, 59.12953
549.0717, 59.24582
549.5538, 59.30062
550.0359, 59.09496
550.5180, 58.73030
551.0001, 58.34845
551.4822, 57.99858
551.9644, 57.57050
552.4465, 56.91142
552.9286, 56.13897
553.4107, 55.51874
553.8928, 55.10509
554.3749, 54.71511
554.8571, 54.19960
555.3392, 53.55634
555.8213, 52.81799
556.3034, 51.87045
556.7855, 50.98143
557.2676, 50.25880
557.7498, 49.60785
558.2319, 48.94551
558.7140, 48.23877
559.1961, 47.46937
559.6782, 46.57922
560.1603, 45.56976
560.6425, 44.73708
561.1246, 44.18549
561.6067, 43.67587
562.0888, 43.15034
562.5709, 42.61256
563.0530, 42.04060
563.5352, 41.42762
564.0173, 40.87091
564.4994, 40.48768
564.9815, 40.22905
565.4636, 39.88923
565.9457, 39.40345
566.4279, 39.07972
566.9100, 39.20664
567.3921, 39.65196
567.8742, 39.92369
568.3563, 40.03729
568.8384, 39.95606
569.3206, 39.45954
569.8027, 38.86586
570.2848, 38.58070
570.7669, 38.64942
571.2490, 38.84754
571.7311, 38.99830
572.2133, 39.09855
572.6954, 39.10213
573.1775, 38.82979
573.6596, 38.71167
574.1417, 38.88260
574.6238, 39.16842
575.1060, 39.38922
575.5881, 39.54281
576.0702, 39.79598
576.5523, 40.34230
577.0344, 41.09494
577.5165, 41.74290
577.9987, 42.28384
578.4808, 42.71836
578.9629, 42.92460
579.4450, 43.10209
579.9271, 43.51509
