##NAMES=Gordonite
##RRUFFID=R070437
##IDEAL CHEMISTRY=MgAl_2_(PO_4_)_2_(OH)_2_&#183;8H_2_O
##LOCALITY=Amatrice Hill, Stockton, Utah, USA
##OWNER=RRUFF
##SOURCE=Michael Scott
##DESCRIPTION=Aggregates of colorless to pale purple bladed crystals associated with green variscite. The apparent green color of gordonite is due to the variscite.
##STATUS=The identification of this mineral is confirmed by single-crystal X-ray diffraction and chemical analysis.
##URL=rruff.info/R070437
##MEASURED CHEMISTRY=Mg_1.00_Al_2.00_(P_1.00_O_4_)_2_(OH)_2_Â·7.98H_2_O; trace amounts of Fe; OH estimated by charge balance, H_2_O by difference
127.2967, 1041.393
127.7788, 1107.738
128.2609, 1184.412
128.7430, 1257.291
129.2252, 1324.954
129.7073, 1389.880
130.1894, 1454.027
130.6715, 1515.494
131.1536, 1572.607
131.6357, 1625.261
132.1179, 1671.906
132.6000, 1700.067
133.0821, 1702.875
133.5642, 1692.429
134.0463, 1661.837
134.5284, 1619.713
135.0106, 1579.743
135.4927, 1551.621
135.9748, 1534.690
136.4569, 1515.238
136.9390, 1485.116
137.4211, 1460.972
137.9033, 1448.961
138.3854, 1447.141
138.8675, 1449.927
139.3496, 1453.144
139.8317, 1456.783
140.3138, 1467.758
140.7960, 1485.027
141.2781, 1508.539
141.7602, 1537.614
142.2423, 1572.655
142.7244, 1615.522
143.2065, 1669.132
143.6887, 1733.633
144.1708, 1794.885
144.6529, 1849.874
145.1350, 1904.322
145.6171, 1966.355
146.0992, 2033.704
146.5814, 2092.209
147.0635, 2130.828
147.5456, 2147.470
148.0277, 2154.848
148.5098, 2146.330
148.9919, 2133.673
149.4741, 2127.248
149.9562, 2127.073
150.4383, 2122.974
150.9204, 2106.407
151.4025, 2077.326
151.8846, 2044.323
152.3668, 2010.367
152.8489, 1971.138
153.3310, 1918.709
153.8131, 1852.174
154.2952, 1786.478
154.7773, 1732.975
155.2595, 1690.170
155.7416, 1652.213
156.2237, 1613.953
156.7058, 1582.257
157.1879, 1567.076
157.6700, 1570.352
158.1522, 1580.124
158.6343, 1588.521
159.1164, 1596.526
159.5985, 1606.872
160.0806, 1619.108
160.5627, 1634.466
161.0449, 1655.582
161.5270, 1683.540
162.0091, 1713.060
162.4912, 1743.806
162.9733, 1773.371
163.4554, 1796.608
163.9376, 1804.533
164.4197, 1806.850
164.9018, 1821.513
165.3839, 1850.951
165.8660, 1886.078
166.3481, 1928.813
166.8303, 1972.688
167.3124, 2005.379
167.7945, 2015.736
168.2766, 2013.815
168.7587, 2023.663
169.2408, 2052.712
169.7230, 2076.518
170.2051, 2079.274
170.6872, 2069.315
171.1693, 2059.297
171.6514, 2057.350
172.1335, 2058.068
172.6157, 2045.180
173.0978, 2008.538
173.5799, 1978.958
174.0620, 1973.168
174.5441, 1981.431
175.0262, 1990.206
175.5084, 1991.983
175.9905, 1990.588
176.4726, 1997.167
176.9547, 2015.425
177.4368, 2035.288
177.9189, 2049.271
178.4010, 2062.932
178.8832, 2084.703
179.3653, 2121.100
179.8474, 2166.366
180.3295, 2204.752
180.8116, 2237.687
181.2937, 2259.802
181.7759, 2265.229
182.2580, 2262.279
182.7401, 2260.906
183.2222, 2265.935
183.7043, 2275.595
184.1864, 2284.995
184.6686, 2293.947
185.1507, 2302.847
185.6328, 2310.451
186.1149, 2318.460
186.5970, 2328.209
187.0791, 2339.888
187.5613, 2354.890
188.0434, 2379.203
188.5255, 2424.030
189.0076, 2457.878
189.4897, 2469.879
189.9718, 2470.988
190.4540, 2472.238
190.9361, 2478.408
191.4182, 2487.245
191.9003, 2493.328
192.3824, 2495.730
192.8645, 2496.771
193.3467, 2496.662
193.8288, 2495.757
194.3109, 2496.234
194.7930, 2499.104
195.2751, 2499.329
195.7572, 2486.388
196.2394, 2458.634
196.7215, 2418.646
197.2036, 2365.340
197.6857, 2303.251
198.1678, 2234.462
198.6499, 2159.784
199.1321, 2083.164
199.6142, 2012.123
200.0963, 1949.262
200.5784, 1886.927
201.0605, 1815.767
201.5426, 1749.597
202.0248, 1701.904
202.5069, 1675.449
202.9890, 1660.441
203.4711, 1641.157
203.9532, 1614.449
204.4353, 1590.675
204.9175, 1568.685
205.3996, 1550.258
205.8817, 1537.458
206.3638, 1530.310
206.8459, 1526.224
207.3280, 1521.879
207.8102, 1517.362
208.2923, 1512.406
208.7744, 1508.024
209.2565, 1502.518
209.7386, 1492.931
210.2207, 1480.069
210.7029, 1468.836
211.1850, 1465.240
211.6671, 1470.977
212.1492, 1478.456
212.6313, 1492.524
213.1134, 1504.109
213.5956, 1508.159
214.0777, 1505.036
214.5598, 1498.379
215.0419, 1491.152
215.5240, 1482.969
216.0061, 1477.019
216.4883, 1474.881
216.9704, 1473.446
217.4525, 1473.144
217.9346, 1472.788
218.4167, 1469.622
218.8988, 1460.612
219.3810, 1445.499
219.8631, 1434.002
220.3452, 1432.555
220.8273, 1428.556
221.3094, 1416.298
221.7915, 1398.825
222.2737, 1381.905
222.7558, 1369.007
223.2379, 1360.334
223.7200, 1359.199
224.2021, 1373.666
224.6842, 1387.456
225.1664, 1398.899
225.6485, 1407.250
226.1306, 1410.797
226.6127, 1407.796
227.0948, 1400.936
227.5770, 1401.730
228.0591, 1416.057
228.5412, 1430.767
229.0233, 1441.984
229.5054, 1452.870
229.9875, 1468.383
230.4697, 1490.990
230.9518, 1516.234
231.4339, 1531.911
231.9160, 1526.354
232.3981, 1531.678
232.8802, 1554.935
233.3624, 1587.303
233.8445, 1622.031
234.3266, 1656.695
234.8087, 1692.410
235.2908, 1731.691
235.7729, 1778.224
236.2551, 1819.626
236.7372, 1849.765
237.2193, 1878.942
237.7014, 1914.503
238.1835, 1957.634
238.6656, 2004.320
239.1478, 2050.173
239.6299, 2095.196
240.1120, 2139.644
240.5941, 2181.506
241.0762, 2224.410
241.5583, 2271.027
242.0405, 2321.047
242.5226, 2371.681
243.0047, 2421.577
243.4868, 2471.273
243.9689, 2514.511
244.4510, 2549.075
244.9332, 2578.900
245.4153, 2605.949
245.8974, 2629.557
246.3795, 2647.238
246.8616, 2655.186
247.3437, 2655.028
247.8259, 2662.684
248.3080, 2695.514
248.7901, 2711.729
249.2722, 2685.909
249.7543, 2637.471
250.2364, 2598.485
250.7186, 2587.936
251.2007, 2595.667
251.6828, 2592.547
252.1649, 2575.540
252.6470, 2553.142
253.1291, 2523.224
253.6113, 2492.034
254.0934, 2467.372
254.5755, 2453.065
255.0576, 2442.383
255.5397, 2421.929
256.0219, 2386.733
256.5040, 2361.013
256.9861, 2359.696
257.4682, 2366.131
257.9503, 2368.980
258.4324, 2365.846
258.9146, 2361.029
259.3967, 2356.606
259.8788, 2352.243
260.3609, 2356.957
260.8430, 2380.256
261.3251, 2406.727
261.8073, 2424.734
262.2894, 2434.233
262.7715, 2443.336
263.2536, 2460.549
263.7357, 2483.542
264.2178, 2496.709
264.7000, 2490.519
265.1821, 2486.767
265.6642, 2502.336
266.1463, 2533.200
266.6284, 2566.542
267.1105, 2593.960
267.5927, 2620.212
268.0748, 2657.279
268.5569, 2708.608
269.0390, 2760.181
269.5211, 2798.218
270.0032, 2829.973
270.4854, 2868.561
270.9675, 2919.681
271.4496, 2977.077
271.9317, 3034.969
272.4138, 3093.505
272.8959, 3150.604
273.3781, 3201.160
273.8602, 3251.921
274.3423, 3315.501
274.8244, 3399.253
275.3065, 3483.785
275.7886, 3555.535
276.2708, 3616.851
276.7529, 3679.388
277.2350, 3750.585
277.7171, 3819.975
278.1992, 3869.805
278.6813, 3898.406
279.1635, 3921.483
279.6456, 3944.887
280.1277, 3966.254
280.6098, 3984.920
281.0919, 4002.561
281.5740, 4006.653
282.0562, 3977.365
282.5383, 3912.266
283.0204, 3847.075
283.5025, 3792.318
283.9846, 3734.945
284.4667, 3659.195
284.9489, 3565.177
285.4310, 3469.795
285.9131, 3387.800
286.3952, 3319.120
286.8773, 3243.110
287.3594, 3143.252
287.8416, 3052.542
288.3237, 2994.663
288.8058, 2959.526
289.2879, 2918.344
289.7700, 2853.346
290.2521, 2773.185
290.7343, 2715.998
291.2164, 2706.383
291.6985, 2687.604
292.1806, 2643.652
292.6627, 2588.633
293.1448, 2539.957
293.6270, 2503.743
294.1091, 2474.752
294.5912, 2444.313
295.0733, 2413.314
295.5554, 2378.505
296.0375, 2338.266
296.5197, 2295.938
297.0018, 2254.311
297.4839, 2213.372
297.9660, 2171.419
298.4481, 2125.945
298.9302, 2075.869
299.4124, 2029.314
299.8945, 1983.550
300.3766, 1943.885
300.8587, 1915.853
301.3408, 1895.256
301.8229, 1873.857
302.3050, 1846.249
302.7871, 1813.392
303.2693, 1779.858
303.7514, 1743.076
304.2335, 1709.686
304.7156, 1681.804
305.1977, 1657.273
305.6798, 1633.290
306.1620, 1608.735
306.6441, 1586.038
307.1262, 1570.224
307.6083, 1563.666
308.0904, 1555.374
308.5725, 1540.485
309.0547, 1525.359
309.5368, 1514.739
310.0189, 1508.657
310.5010, 1502.501
310.9831, 1492.571
311.4652, 1479.028
311.9474, 1463.675
312.4295, 1446.432
312.9116, 1427.570
313.3937, 1404.051
313.8758, 1378.822
314.3579, 1360.241
314.8401, 1357.767
315.3222, 1361.727
315.8043, 1352.893
316.2864, 1328.670
316.7685, 1307.104
317.2506, 1301.830
317.7328, 1304.254
318.2149, 1300.008
318.6970, 1285.352
319.1791, 1267.519
319.6612, 1249.532
320.1433, 1232.281
320.6255, 1219.924
321.1076, 1215.040
321.5897, 1213.993
322.0718, 1210.656
322.5539, 1204.383
323.0360, 1200.098
323.5182, 1201.092
324.0003, 1204.029
324.4824, 1203.586
324.9645, 1198.900
325.4466, 1195.355
325.9287, 1199.062
326.4109, 1210.979
326.8930, 1217.550
327.3751, 1220.071
327.8572, 1216.408
328.3393, 1199.425
328.8214, 1174.378
329.3036, 1157.011
329.7857, 1157.495
330.2678, 1170.942
330.7499, 1175.168
331.2320, 1156.294
331.7141, 1145.409
332.1963, 1151.087
332.6784, 1163.842
333.1605, 1174.002
333.6426, 1178.470
334.1247, 1179.695
334.6068, 1181.633
335.0890, 1186.267
335.5711, 1185.946
336.0532, 1172.226
336.5353, 1161.551
337.0174, 1166.000
337.4995, 1181.981
337.9817, 1196.082
338.4638, 1196.666
338.9459, 1185.674
339.4280, 1180.834
339.9101, 1186.502
340.3922, 1192.178
340.8744, 1195.620
341.3565, 1197.009
341.8386, 1196.047
342.3207, 1192.221
342.8028, 1187.961
343.2849, 1187.599
343.7671, 1191.917
344.2492, 1194.389
344.7313, 1190.386
345.2134, 1186.523
345.6955, 1189.863
346.1776, 1200.421
346.6598, 1208.340
347.1419, 1204.234
347.6240, 1192.794
348.1061, 1187.471
348.5882, 1190.789
349.0703, 1196.412
349.5525, 1198.050
350.0346, 1197.851
350.5167, 1202.683
350.9988, 1219.573
351.4809, 1237.350
351.9630, 1247.041
352.4452, 1249.519
352.9273, 1249.204
353.4094, 1247.473
353.8915, 1245.029
354.3736, 1243.490
354.8557, 1241.540
355.3379, 1242.763
355.8200, 1250.466
356.3021, 1260.641
356.7842, 1267.340
357.2663, 1269.649
357.7484, 1273.394
358.2306, 1286.625
358.7127, 1313.541
359.1948, 1325.525
359.6769, 1307.127
360.1590, 1291.384
360.6411, 1296.201
361.1233, 1315.185
361.6054, 1332.437
362.0875, 1338.490
362.5696, 1336.521
363.0517, 1337.984
363.5338, 1342.979
364.0160, 1351.740
364.4981, 1366.684
364.9802, 1383.410
365.4623, 1398.069
365.9444, 1409.888
366.4265, 1421.285
366.9087, 1432.864
367.3908, 1444.193
367.8729, 1465.814
368.3550, 1511.591
368.8371, 1551.460
369.3192, 1564.689
369.8014, 1560.847
370.2835, 1563.510
370.7656, 1588.383
371.2477, 1622.232
371.7298, 1639.921
372.2119, 1639.226
372.6941, 1643.909
373.1762, 1668.257
373.6583, 1701.150
374.1404, 1724.495
374.6225, 1734.742
375.1046, 1746.293
375.5868, 1771.601
376.0689, 1802.526
376.5510, 1819.059
377.0331, 1815.246
377.5152, 1811.929
377.9973, 1832.653
378.4795, 1880.566
378.9616, 1918.967
379.4437, 1944.247
379.9258, 1962.679
380.4079, 1974.938
380.8900, 1983.010
381.3722, 1991.054
381.8543, 2001.310
382.3364, 2013.115
382.8185, 2024.630
383.3006, 2032.810
383.7827, 2044.863
384.2649, 2069.523
384.7470, 2092.473
385.2291, 2099.377
385.7112, 2089.665
386.1933, 2076.117
386.6754, 2072.139
387.1576, 2078.283
387.6397, 2083.668
388.1218, 2087.742
388.6039, 2091.688
389.0860, 2096.482
389.5681, 2101.265
390.0503, 2104.422
390.5324, 2104.970
391.0145, 2104.578
391.4966, 2105.791
391.9787, 2108.684
392.4608, 2112.722
392.9430, 2120.425
393.4251, 2126.660
393.9072, 2124.401
394.3893, 2113.792
394.8714, 2107.558
395.3535, 2112.927
395.8357, 2126.264
396.3178, 2143.083
396.7999, 2163.225
397.2820, 2182.283
397.7641, 2195.656
398.2462, 2205.339
398.7284, 2221.670
399.2105, 2255.081
399.6926, 2283.188
400.1747, 2294.332
400.6568, 2295.136
401.1389, 2297.495
401.6211, 2305.351
402.1032, 2312.407
402.5853, 2308.334
403.0674, 2286.123
403.5495, 2274.490
404.0316, 2285.815
404.5138, 2294.632
404.9959, 2283.804
405.4780, 2259.276
405.9601, 2239.342
406.4422, 2237.071
406.9243, 2244.551
407.4065, 2231.207
407.8886, 2180.640
408.3707, 2143.183
408.8528, 2137.320
409.3349, 2141.255
409.8170, 2137.344
410.2992, 2123.203
410.7813, 2110.188
411.2634, 2109.380
411.7455, 2118.519
412.2276, 2124.424
412.7097, 2122.133
413.1919, 2126.493
413.6740, 2152.948
414.1561, 2193.166
414.6382, 2231.109
415.1203, 2262.937
415.6024, 2293.063
416.0846, 2324.024
416.5667, 2355.874
417.0488, 2387.459
417.5309, 2417.269
418.0130, 2450.549
418.4951, 2496.033
418.9773, 2557.781
419.4594, 2618.462
419.9415, 2674.197
420.4236, 2731.043
420.9057, 2791.827
421.3878, 2857.444
421.8700, 2929.277
422.3521, 3008.956
422.8342, 3095.095
423.3163, 3181.827
423.7984, 3274.444
424.2805, 3359.284
424.7627, 3432.730
425.2448, 3500.263
425.7269, 3562.799
426.2090, 3622.366
426.6911, 3685.517
427.1732, 3763.743
427.6554, 3855.163
428.1375, 3931.153
428.6196, 3994.146
429.1017, 4036.219
429.5838, 4048.285
430.0659, 4039.230
430.5481, 4020.288
431.0302, 3994.155
431.5123, 3958.518
431.9944, 3914.687
432.4765, 3860.316
432.9586, 3783.716
433.4408, 3678.223
433.9229, 3562.318
434.4050, 3458.091
434.8871, 3367.822
435.3692, 3269.680
435.8513, 3160.063
436.3335, 3044.865
436.8156, 2918.406
437.2977, 2789.014
437.7798, 2677.045
438.2619, 2594.120
438.7440, 2527.655
439.2262, 2444.850
439.7083, 2323.636
440.1904, 2226.489
440.6725, 2164.555
441.1546, 2114.801
441.6367, 2066.186
442.1189, 2016.218
442.6010, 1963.531
443.0831, 1904.939
443.5652, 1843.969
444.0473, 1795.174
444.5294, 1761.631
445.0116, 1731.644
445.4937, 1704.606
445.9758, 1676.680
446.4579, 1641.383
446.9400, 1596.441
447.4221, 1557.168
447.9043, 1538.908
448.3864, 1531.792
448.8685, 1513.604
449.3506, 1480.555
449.8327, 1447.526
450.3148, 1426.106
450.7970, 1415.409
451.2791, 1403.911
451.7612, 1387.735
452.2433, 1375.295
452.7254, 1373.802
453.2076, 1376.136
453.6897, 1372.279
454.1718, 1359.420
454.6539, 1341.768
455.1360, 1324.085
455.6181, 1305.779
456.1003, 1290.921
456.5824, 1278.721
457.0645, 1271.248
457.5466, 1272.542
458.0287, 1278.267
458.5108, 1282.276
458.9930, 1282.312
459.4751, 1278.118
459.9572, 1266.301
460.4393, 1246.687
460.9214, 1235.589
461.4035, 1242.207
461.8857, 1249.874
462.3678, 1239.509
462.8499, 1215.324
463.3320, 1200.074
463.8141, 1205.938
464.2962, 1218.523
464.7784, 1226.530
465.2605, 1230.344
465.7426, 1232.146
466.2247, 1232.431
466.7068, 1232.785
467.1889, 1236.439
467.6711, 1246.021
468.1532, 1253.435
468.6353, 1259.197
469.1174, 1262.423
469.5995, 1262.668
470.0816, 1259.857
470.5638, 1253.173
471.0459, 1241.315
471.5280, 1227.294
472.0101, 1219.560
472.4922, 1218.807
472.9743, 1222.644
473.4565, 1237.209
473.9386, 1251.483
474.4207, 1258.161
474.9028, 1257.132
475.3849, 1253.058
475.8670, 1247.618
476.3492, 1241.231
476.8313, 1233.132
477.3134, 1223.297
477.7955, 1218.690
478.2776, 1226.406
478.7597, 1238.592
479.2419, 1234.453
479.7240, 1206.736
480.2061, 1183.774
480.6882, 1171.529
481.1703, 1165.932
481.6524, 1165.461
482.1346, 1168.590
482.6167, 1171.466
483.0988, 1171.229
483.5809, 1168.312
484.0630, 1165.347
484.5451, 1164.882
485.0273, 1159.871
485.5094, 1144.799
485.9915, 1128.553
486.4736, 1118.903
486.9557, 1116.218
487.4378, 1114.634
487.9200, 1108.175
488.4021, 1099.346
488.8842, 1097.194
489.3663, 1103.287
489.8484, 1107.268
490.3305, 1103.112
490.8127, 1093.841
491.2948, 1085.853
491.7769, 1078.760
492.2590, 1073.941
492.7411, 1074.228
493.2232, 1075.762
493.7054, 1073.326
494.1875, 1066.976
494.6696, 1061.077
495.1517, 1058.748
495.6338, 1059.870
496.1159, 1064.007
496.5981, 1080.534
497.0802, 1086.365
497.5623, 1071.531
498.0444, 1050.986
498.5265, 1035.359
499.0086, 1026.722
499.4908, 1023.533
499.9729, 1029.228
500.4550, 1039.185
500.9371, 1031.169
501.4192, 998.2133
501.9013, 977.4932
502.3835, 994.4633
502.8656, 1027.842
503.3477, 1042.777
503.8298, 1034.356
504.3119, 1025.558
504.7940, 1024.259
505.2762, 1027.487
505.7583, 1033.631
506.2404, 1041.663
506.7225, 1047.852
507.2046, 1049.796
507.6867, 1047.846
508.1689, 1043.342
508.6510, 1030.688
509.1331, 1023.858
509.6152, 1026.278
510.0973, 1032.378
510.5794, 1038.680
511.0616, 1044.732
511.5437, 1051.646
512.0258, 1061.522
512.5079, 1071.996
512.9901, 1075.442
513.4722, 1070.448
513.9543, 1067.060
514.4364, 1070.561
514.9185, 1075.768
515.4006, 1073.580
515.8828, 1062.739
516.3649, 1060.348
516.8470, 1078.293
517.3291, 1101.951
517.8112, 1119.989
518.2933, 1131.589
518.7755, 1137.188
519.2576, 1136.311
519.7397, 1132.564
520.2218, 1134.925
520.7039, 1148.993
521.1860, 1158.482
521.6682, 1157.152
522.1503, 1157.575
522.6324, 1167.594
523.1145, 1185.022
523.5966, 1203.362
524.0787, 1220.002
524.5609, 1234.287
525.0430, 1244.985
525.5251, 1252.104
526.0072, 1255.526
526.4893, 1250.689
526.9714, 1249.559
527.4536, 1270.093
527.9357, 1309.219
528.4178, 1339.672
528.8999, 1353.020
529.3820, 1361.308
529.8641, 1370.371
530.3463, 1379.810
530.8284, 1387.278
531.3105, 1392.154
531.7926, 1398.302
532.2747, 1412.194
532.7568, 1436.305
533.2390, 1452.985
533.7211, 1457.029
534.2032, 1459.312
534.6853, 1459.973
535.1674, 1462.071
535.6495, 1470.567
536.1317, 1487.470
536.6138, 1505.505
537.0959, 1517.441
537.5780, 1525.022
538.0601, 1533.311
538.5422, 1542.642
539.0244, 1554.739
539.5065, 1573.479
539.9886, 1595.726
540.4707, 1605.783
540.9528, 1591.675
541.4349, 1583.319
541.9171, 1591.238
542.3992, 1604.676
542.8813, 1614.872
543.3634, 1620.135
543.8455, 1620.852
544.3276, 1615.801
544.8098, 1607.969
545.2919, 1611.006
545.7740, 1627.638
546.2561, 1647.776
546.7382, 1676.391
547.2203, 1701.792
547.7024, 1713.300
548.1845, 1711.572
548.6666, 1708.476
549.1487, 1710.817
549.6309, 1713.148
550.1130, 1703.001
550.5951, 1685.723
551.0772, 1687.702
551.5593, 1721.877
552.0414, 1767.703
552.5236, 1791.002
553.0057, 1781.622
553.4878, 1784.242
553.9699, 1805.079
554.4520, 1829.438
554.9341, 1853.422
555.4163, 1876.427
555.8984, 1897.376
556.3805, 1915.847
556.8626, 1935.681
557.3447, 1965.248
557.8268, 2002.286
558.3090, 2025.309
558.7911, 2026.803
559.2732, 2032.030
559.7553, 2059.991
560.2374, 2104.531
560.7195, 2143.953
561.2017, 2176.771
561.6838, 2206.980
562.1659, 2234.931
562.6480, 2261.405
563.1301, 2285.753
563.6122, 2309.054
564.0944, 2336.557
564.5765, 2373.672
565.0586, 2415.802
565.5407, 2444.158
566.0228, 2452.223
566.5049, 2462.964
566.9871, 2483.928
567.4692, 2505.911
567.9513, 2524.830
568.4334, 2539.995
568.9155, 2549.829
569.3976, 2546.413
569.8798, 2543.948
570.3619, 2563.695
570.8440, 2597.407
571.3261, 2613.980
571.8082, 2602.570
572.2903, 2585.356
572.7725, 2590.257
573.2546, 2620.813
573.7367, 2640.094
574.2188, 2634.285
574.7009, 2634.528
575.1830, 2657.443
575.6652, 2685.791
576.1473, 2697.115
576.6294, 2687.837
577.1115, 2678.195
577.5936, 2686.871
578.0757, 2709.860
578.5579, 2736.263
579.0400, 2766.989
579.5221, 2791.055
580.0042, 2801.854
580.4863, 2804.369
580.9684, 2807.163
581.4506, 2809.727
581.9327, 2814.387
582.4148, 2826.909
582.8969, 2836.665
583.3790, 2832.778
583.8611, 2820.950
584.3433, 2815.868
584.8254, 2824.370
585.3075, 2835.335
585.7896, 2828.234
586.2717, 2800.720
586.7538, 2783.695
587.2360, 2784.283
587.7181, 2785.937
588.2002, 2778.046
588.6823, 2765.316
589.1644, 2757.378
589.6465, 2762.147
590.1287, 2753.929
590.6108, 2708.993
591.0929, 2650.204
591.5750, 2606.004
592.0571, 2578.321
592.5392, 2556.211
593.0214, 2532.717
593.5035, 2509.324
593.9856, 2491.625
594.4677, 2486.544
594.9498, 2470.873
595.4319, 2427.153
595.9141, 2386.731
596.3962, 2373.694
596.8783, 2376.394
597.3604, 2362.610
597.8425, 2311.852
598.3246, 2258.029
598.8068, 2236.204
599.2889, 2234.737
599.7710, 2222.653
600.2531, 2193.902
600.7352, 2161.533
601.2173, 2135.886
601.6995, 2116.495
602.1816, 2099.648
602.6637, 2090.263
603.1458, 2076.605
603.6279, 2054.078
604.1100, 2029.985
604.5922, 2009.497
605.0743, 1992.630
605.5564, 1976.990
606.0385, 1961.578
606.5206, 1945.986
607.0027, 1927.997
607.4849, 1908.358
607.9670, 1894.586
608.4491, 1890.039
608.9312, 1885.396
609.4133, 1869.656
609.8954, 1842.754
610.3776, 1825.618
610.8597, 1827.876
611.3418, 1826.796
611.8239, 1814.659
612.3060, 1798.221
612.7881, 1784.154
613.2703, 1773.296
613.7524, 1762.788
614.2345, 1749.860
614.7166, 1736.258
615.1987, 1727.355
615.6808, 1723.461
616.1630, 1717.088
616.6451, 1705.592
617.1272, 1691.781
617.6093, 1677.816
618.0914, 1663.663
