##NAMES=Gordaite
##RRUFFID=R100059
##IDEAL CHEMISTRY=NaZn^2+^_4_(S^6+^O_4_)(OH)_6_Cl&#183;6H_2_O
##LOCALITY=San Francisco mine, Sierra Gorda, Chile
##OWNER=RRUFF
##SOURCE=William W Pinch
##DESCRIPTION=Groups of pale bluish-green thin tabular crystals on quartz, associated with dark blue herbertsmithite.
##STATUS=The identification of this mineral has been confirmed by single-crystal X-ray diffraction.
##URL=rruff.info/R100059
91.53320, 479.3291
92.01532, 490.1071
92.49744, 492.8364
92.97955, 490.7586
93.46167, 482.0387
93.94379, 470.8021
94.42590, 460.9309
94.90802, 451.5077
95.39014, 440.1776
95.87225, 426.5533
96.35437, 413.0345
96.83649, 400.4134
97.31860, 388.7477
97.80072, 378.1827
98.28284, 368.4685
98.76495, 359.1743
99.24707, 350.1819
99.72919, 341.4111
100.2113, 333.0981
100.6934, 325.2098
101.1755, 317.6912
101.6577, 310.5117
102.1398, 303.4033
102.6219, 295.9730
103.1040, 290.7531
103.5861, 288.6483
104.0682, 287.2632
104.5504, 285.2740
105.0325, 282.4839
105.5146, 279.5675
105.9967, 277.5150
106.4788, 276.8541
106.9609, 275.6010
107.4431, 273.3481
107.9252, 270.4985
108.4073, 267.5378
108.8894, 264.5570
109.3715, 261.6472
109.8536, 259.0148
110.3358, 256.6746
110.8179, 254.3607
111.3000, 251.6965
111.7821, 248.7658
112.2642, 246.4122
112.7463, 245.0221
113.2285, 244.4056
113.7106, 244.4818
114.1927, 245.3938
114.6748, 246.5804
115.1569, 247.3773
115.6390, 247.9088
116.1212, 247.6587
116.6033, 245.9438
117.0854, 243.6933
117.5675, 241.7464
118.0496, 240.4801
118.5317, 239.8620
119.0139, 239.7658
119.4960, 240.8051
119.9781, 241.7582
120.4602, 242.5195
120.9423, 243.0358
121.4244, 243.2684
121.9066, 243.1935
122.3887, 242.8117
122.8708, 242.0187
123.3529, 240.1242
123.8350, 238.5085
124.3171, 237.8575
124.7993, 238.1753
125.2814, 239.0473
125.7635, 240.2192
126.2456, 241.8368
126.7277, 242.6203
127.2098, 242.0113
127.6920, 240.7974
128.1741, 239.7604
128.6562, 239.0596
129.1383, 238.5160
129.6204, 238.3091
130.1025, 238.4262
130.5847, 237.4909
131.0668, 234.1314
131.5489, 229.0983
132.0310, 225.0544
132.5131, 222.8810
132.9952, 221.5538
133.4774, 220.0568
133.9595, 218.3720
134.4416, 216.8785
134.9237, 216.0677
135.4058, 216.0772
135.8879, 215.7969
136.3701, 214.5471
136.8522, 213.2494
137.3343, 212.5444
137.8164, 212.5688
138.2985, 212.8344
138.7806, 212.4407
139.2628, 210.7871
139.7449, 209.5679
140.2270, 209.2636
140.7091, 209.2400
141.1912, 208.8690
141.6733, 207.8707
142.1555, 206.4933
142.6376, 205.6080
143.1197, 205.8547
143.6018, 205.9097
144.0839, 205.4211
144.5660, 204.6721
145.0482, 204.1588
145.5303, 204.2083
146.0124, 204.7074
146.4945, 204.7971
146.9766, 204.2318
147.4587, 203.5996
147.9409, 203.2757
148.4230, 203.1599
148.9051, 202.7495
149.3872, 201.5630
149.8693, 199.7453
150.3514, 198.3012
150.8336, 197.4150
151.3157, 196.8056
151.7978, 196.1895
152.2799, 195.5313
152.7620, 195.0638
153.2441, 195.1784
153.7263, 195.6023
154.2084, 195.8857
154.6905, 195.8372
155.1726, 195.5542
155.6547, 195.2035
156.1368, 194.6673
156.6190, 194.2974
157.1011, 194.5053
157.5832, 194.9973
158.0653, 195.1928
158.5474, 194.6475
159.0295, 193.4137
159.5117, 192.1814
159.9938, 190.7307
160.4759, 189.5132
160.9580, 188.7524
161.4401, 188.3703
161.9222, 188.1762
162.4044, 188.1039
162.8865, 188.2832
163.3686, 187.7613
163.8507, 185.5914
164.3328, 183.5741
164.8149, 182.6438
165.2971, 182.7492
165.7792, 183.1804
166.2613, 183.1063
166.7434, 182.3111
167.2255, 181.5895
167.7076, 181.1389
168.1898, 180.6202
168.6719, 179.6156
169.1540, 178.0950
169.6361, 176.6158
170.1182, 175.9949
170.6003, 176.6404
171.0825, 177.2004
171.5646, 177.7146
172.0467, 178.0798
172.5288, 178.1069
173.0109, 177.7101
173.4930, 177.1600
173.9752, 176.9369
174.4573, 177.0838
174.9394, 177.1444
175.4215, 176.9593
175.9036, 176.5915
176.3857, 176.1369
176.8679, 175.5155
177.3500, 174.9873
177.8321, 175.0336
178.3142, 175.7372
178.7963, 176.1488
179.2784, 175.2976
179.7606, 173.3963
180.2427, 172.2790
180.7248, 172.9404
181.2069, 174.1697
181.6890, 174.8848
182.1711, 174.9973
182.6533, 174.9477
183.1354, 175.2566
183.6175, 176.0177
184.0996, 176.3964
184.5817, 175.7744
185.0638, 174.9588
185.5460, 174.3622
186.0281, 174.0794
186.5102, 174.0211
186.9923, 174.1323
187.4744, 174.5717
187.9565, 174.7414
188.4387, 174.0815
188.9208, 173.4487
189.4029, 173.5535
189.8850, 174.5903
190.3671, 176.0993
190.8492, 177.2627
191.3314, 178.1120
191.8135, 178.4541
192.2956, 178.0333
192.7777, 177.2931
193.2598, 176.5615
193.7419, 175.9767
194.2241, 175.5406
194.7062, 175.2572
195.1883, 174.9720
195.6704, 175.0701
196.1525, 175.6777
196.6346, 176.6348
197.1168, 177.9877
197.5989, 179.7983
198.0810, 181.5992
198.5631, 181.9360
199.0452, 179.1693
199.5273, 177.1994
200.0095, 177.1601
200.4916, 178.2447
200.9737, 179.1165
201.4558, 179.1510
201.9379, 178.6848
202.4200, 178.7338
202.9022, 179.6480
203.3843, 180.3625
203.8664, 180.2371
204.3485, 179.5849
204.8306, 179.3179
205.3127, 179.9555
205.7949, 181.0769
206.2770, 181.7646
206.7591, 182.0104
207.2412, 181.9243
207.7233, 181.3593
208.2054, 180.4098
208.6876, 179.7014
209.1697, 179.6469
209.6518, 179.8503
210.1339, 179.6861
210.6160, 179.0257
211.0981, 178.3059
211.5803, 177.9616
212.0624, 177.9953
212.5445, 177.8297
213.0266, 176.9794
213.5087, 176.0161
213.9908, 175.5837
214.4730, 175.8718
214.9551, 176.1758
215.4372, 175.5353
215.9193, 173.7280
216.4014, 172.3521
216.8836, 172.2467
217.3657, 172.5378
217.8478, 172.6449
218.3299, 172.4245
218.8120, 172.1980
219.2941, 172.4474
219.7763, 173.3264
220.2584, 174.1773
220.7405, 175.1322
221.2226, 175.8726
221.7047, 176.0688
222.1868, 175.6501
222.6690, 174.9638
223.1511, 174.5589
223.6332, 174.5517
224.1153, 174.5724
224.5974, 174.7320
225.0795, 174.8134
225.5617, 174.5136
226.0438, 173.7941
226.5259, 173.0520
227.0080, 173.0493
227.4901, 174.4697
227.9722, 175.3880
228.4544, 175.5974
228.9365, 175.4509
229.4186, 175.1900
229.9007, 174.8928
230.3828, 174.5056
230.8649, 173.8972
231.3471, 172.5168
231.8292, 171.8553
232.3113, 172.4103
232.7934, 173.3245
233.2755, 173.9973
233.7576, 174.2322
234.2398, 174.0677
234.7219, 173.5151
235.2040, 171.8931
235.6861, 171.1732
236.1682, 172.1050
236.6503, 173.5099
237.1325, 174.4615
237.6146, 174.6892
238.0967, 174.2536
238.5788, 173.1208
239.0609, 170.6465
239.5430, 169.0423
240.0252, 169.0762
240.5073, 169.6788
240.9894, 169.7680
241.4715, 169.0870
241.9536, 168.1472
242.4357, 167.6679
242.9179, 167.8244
243.4000, 167.6561
243.8821, 166.5908
244.3642, 165.3822
244.8463, 165.1127
245.3284, 166.0500
245.8106, 166.9579
246.2927, 165.9972
246.7748, 163.0511
247.2569, 161.2474
247.7390, 162.1300
248.2211, 163.9224
248.7033, 164.2685
249.1854, 162.6674
249.6675, 160.8387
250.1496, 160.8717
250.6317, 162.4297
251.1138, 163.1581
251.5960, 161.7645
252.0781, 159.6222
252.5602, 158.5922
253.0423, 158.9798
253.5244, 159.6939
254.0065, 159.8284
254.4887, 159.5517
254.9708, 159.2868
255.4529, 159.1975
255.9350, 159.1546
256.4171, 158.8879
256.8992, 158.3004
257.3813, 157.9013
257.8635, 158.3117
258.3456, 159.1458
258.8277, 159.7743
259.3098, 159.9432
259.7919, 159.8519
260.2740, 159.7176
260.7562, 159.4972
261.2383, 159.4172
261.7204, 159.8374
262.2025, 160.4204
262.6846, 160.7030
263.1667, 160.3558
263.6489, 159.8916
264.1310, 160.2127
264.6131, 161.5816
265.0952, 162.5911
265.5773, 162.1517
266.0594, 161.2097
266.5416, 160.6315
267.0237, 160.6900
267.5058, 161.0721
267.9879, 161.3682
268.4700, 161.5464
268.9521, 161.7893
269.4343, 162.3375
269.9164, 162.8842
270.3985, 163.0868
270.8806, 162.8275
271.3627, 162.5801
271.8448, 163.0613
272.3270, 164.4675
272.8091, 165.5832
273.2912, 165.7975
273.7733, 165.8250
274.2554, 166.1531
274.7375, 166.8551
275.2197, 167.5452
275.7018, 167.7583
276.1839, 167.4199
276.6660, 167.0807
277.1481, 166.7479
277.6302, 166.4838
278.1124, 166.3249
278.5945, 166.2745
279.0766, 166.3207
279.5587, 166.5152
280.0408, 166.8961
280.5229, 167.0914
281.0051, 166.8820
281.4872, 166.6492
281.9693, 166.4844
282.4514, 166.4238
282.9335, 166.5399
283.4156, 167.1203
283.8978, 168.1960
284.3799, 168.2530
284.8620, 166.0517
285.3441, 164.0245
285.8262, 163.0872
286.3083, 162.9808
286.7905, 163.0428
287.2726, 162.8297
287.7547, 162.3669
288.2368, 161.9009
288.7189, 161.3935
289.2010, 160.9307
289.6832, 160.5063
290.1653, 160.1462
290.6474, 159.9193
291.1295, 159.9002
291.6116, 159.9897
292.0938, 159.7952
292.5759, 159.3453
293.0580, 158.5118
293.5401, 156.9351
294.0222, 155.1318
294.5043, 153.6798
294.9865, 152.8384
295.4686, 152.4369
295.9507, 152.0515
296.4328, 151.5405
296.9149, 151.3297
297.3970, 151.7827
297.8792, 152.3364
298.3613, 152.4741
298.8434, 152.0489
299.3255, 151.3328
299.8076, 150.8268
300.2897, 150.8400
300.7719, 150.3274
301.2540, 148.3196
301.7361, 146.5134
302.2182, 146.1967
302.7003, 147.4578
303.1824, 149.2424
303.6646, 150.3188
304.1467, 150.5294
304.6288, 150.5603
305.1109, 150.1736
305.5930, 149.8248
306.0751, 149.7932
306.5573, 150.0224
307.0394, 150.2602
307.5215, 150.3218
308.0036, 150.2208
308.4857, 149.7155
308.9678, 147.9903
309.4500, 146.6522
309.9321, 146.3336
310.4142, 146.7622
310.8963, 147.3459
311.3784, 147.7071
311.8605, 147.8641
312.3427, 147.9527
312.8248, 147.8447
313.3069, 147.8209
313.7890, 147.9233
314.2711, 148.1398
314.7532, 148.5053
315.2354, 149.0481
315.7175, 149.6389
316.1996, 149.8941
316.6817, 149.6718
317.1638, 149.3030
317.6459, 148.6091
318.1281, 147.9196
318.6102, 147.5631
319.0923, 147.6326
319.5744, 147.9285
320.0565, 148.1332
320.5386, 148.2263
321.0208, 148.2669
321.5029, 148.2869
321.9850, 148.2417
322.4671, 148.0368
322.9492, 147.6992
323.4313, 147.4056
323.9135, 147.4135
324.3956, 147.8545
324.8777, 147.9125
325.3598, 147.2713
325.8419, 146.5381
326.3240, 145.6869
326.8062, 144.9087
327.2883, 144.6310
327.7704, 145.3313
328.2525, 146.9169
328.7346, 147.7204
329.2167, 146.7160
329.6989, 146.0695
330.1810, 146.8172
330.6631, 148.1408
331.1452, 148.7313
331.6273, 147.8189
332.1094, 145.9478
332.5916, 144.8123
333.0737, 144.7469
333.5558, 144.9064
334.0379, 145.3554
334.5200, 145.8137
335.0021, 145.9251
335.4843, 145.5894
335.9664, 145.1742
336.4485, 145.3477
336.9306, 146.4056
337.4127, 147.1667
337.8948, 147.5189
338.3770, 147.5588
338.8591, 147.0954
339.3412, 146.2402
339.8233, 145.5506
340.3055, 145.7780
340.7876, 147.0712
341.2697, 147.7575
341.7518, 147.3103
342.2339, 146.7227
342.7160, 146.2199
343.1982, 145.8789
343.6803, 145.8311
344.1624, 146.3050
344.6445, 147.1215
345.1266, 147.2782
345.6087, 146.0744
346.0909, 145.3742
346.5730, 146.2542
347.0551, 147.7506
347.5372, 148.5867
348.0193, 148.1687
348.5014, 147.1535
348.9836, 146.7565
349.4657, 147.1652
349.9478, 147.5701
350.4299, 147.7567
350.9120, 147.8630
351.3941, 148.0017
351.8763, 148.1914
352.3584, 148.3258
352.8405, 148.1301
353.3226, 147.5794
353.8047, 147.6225
354.2868, 149.0196
354.7690, 150.3841
355.2511, 150.7740
355.7332, 150.3366
356.2153, 149.7953
356.6974, 149.5638
357.1795, 149.5965
357.6617, 149.7180
358.1438, 149.9205
358.6259, 150.2285
359.1080, 150.8511
359.5901, 151.5476
360.0722, 151.8660
360.5544, 151.3728
361.0365, 150.7476
361.5186, 151.1360
362.0007, 152.6983
362.4828, 153.9822
362.9649, 154.1167
363.4471, 153.8200
363.9292, 153.9856
364.4113, 154.8227
364.8934, 155.5775
365.3755, 155.4323
365.8576, 154.6004
366.3398, 154.3134
366.8219, 155.0576
367.3040, 156.1346
367.7861, 156.7564
368.2682, 156.9737
368.7503, 157.3220
369.2325, 158.0503
369.7146, 159.0384
370.1967, 160.2086
370.6788, 161.6319
371.1609, 162.7625
371.6430, 163.0185
372.1252, 162.6147
372.6073, 162.2741
373.0894, 162.0573
373.5715, 161.9587
374.0536, 161.9538
374.5357, 162.0528
375.0179, 162.3601
375.5000, 163.0215
375.9821, 163.8321
376.4642, 164.2659
376.9463, 164.0802
377.4284, 164.1185
377.9106, 164.9470
378.3927, 166.1471
378.8748, 166.9561
379.3569, 167.1472
379.8390, 167.1079
380.3211, 167.3012
380.8033, 167.7498
381.2854, 168.3475
381.7675, 169.2211
382.2496, 170.1424
382.7317, 170.9682
383.2138, 171.6771
383.6960, 172.2798
384.1781, 172.8067
384.6602, 173.2403
385.1423, 173.3748
385.6244, 172.6111
386.1065, 172.2651
386.5887, 173.2187
387.0708, 174.7992
387.5529, 175.8823
388.0350, 175.9737
388.5171, 175.3400
388.9992, 174.5382
389.4814, 172.9592
389.9635, 172.2136
390.4456, 173.3576
390.9277, 174.6261
391.4098, 174.3572
391.8919, 172.4759
392.3741, 170.3162
392.8562, 169.3504
393.3383, 169.8384
393.8204, 169.4843
394.3025, 167.5245
394.7846, 165.5781
395.2668, 164.0006
395.7489, 162.8564
396.2310, 162.2703
396.7131, 162.3780
397.1952, 162.8603
397.6773, 162.5456
398.1595, 160.6682
398.6416, 159.2524
399.1237, 159.0192
399.6058, 159.0189
400.0879, 158.3591
400.5700, 156.8678
401.0522, 155.1510
401.5343, 153.8460
402.0164, 152.9520
402.4985, 152.5424
402.9806, 153.2769
403.4627, 153.8855
403.9449, 153.7348
404.4270, 153.0040
404.9091, 152.2227
405.3912, 151.7109
405.8733, 151.3874
406.3554, 150.9749
406.8376, 150.3690
407.3197, 149.9294
407.8018, 150.0354
408.2839, 150.2694
408.7660, 150.1812
409.2481, 149.6311
409.7303, 148.9352
410.2124, 148.3652
410.6945, 147.9209
411.1766, 147.5212
411.6587, 146.9246
412.1408, 146.6900
412.6230, 147.7180
413.1051, 149.7772
413.5872, 151.0765
414.0693, 150.2819
414.5514, 148.4827
415.0335, 147.3675
415.5157, 147.0577
415.9978, 147.1232
416.4799, 147.4355
416.9620, 147.9045
417.4441, 148.2405
417.9262, 148.3664
418.4084, 148.4468
418.8905, 148.5470
419.3726, 148.6722
419.8547, 148.8694
420.3368, 149.1846
420.8189, 149.4765
421.3011, 149.4787
421.7832, 149.1060
422.2653, 148.8288
422.7474, 148.7462
423.2295, 148.7470
423.7116, 148.7395
424.1938, 148.7171
424.6759, 148.7048
425.1580, 148.7027
425.6401, 148.7210
426.1222, 148.9573
426.6043, 149.7056
427.0865, 150.2940
427.5686, 150.3287
428.0507, 150.1744
428.5328, 150.4498
429.0149, 151.3777
429.4970, 152.4754
429.9792, 152.8308
430.4613, 151.7773
430.9434, 151.4531
431.4255, 152.6732
431.9076, 153.7810
432.3897, 153.5316
432.8719, 152.2415
433.3540, 151.2238
433.8361, 151.5900
434.3182, 153.1097
434.8003, 154.1307
435.2824, 154.5535
435.7646, 154.5708
436.2467, 153.9925
436.7288, 153.2050
437.2109, 152.5468
437.6930, 152.1202
438.1751, 152.0011
438.6573, 152.3925
439.1394, 153.3387
439.6215, 154.1806
440.1036, 154.8373
440.5857, 155.3538
441.0678, 155.8493
441.5500, 156.2659
442.0321, 156.3894
442.5142, 155.8822
442.9963, 155.1052
443.4784, 154.6960
443.9605, 154.6720
444.4427, 154.9064
444.9248, 155.5952
445.4069, 156.3741
445.8890, 156.5769
446.3711, 155.9796
446.8532, 155.3619
447.3354, 155.2021
447.8175, 155.3273
448.2996, 155.3381
448.7817, 155.1276
449.2638, 154.9178
449.7459, 154.9926
450.2281, 155.3741
450.7102, 155.5617
451.1923, 155.4419
451.6744, 155.2077
452.1565, 154.9594
452.6386, 154.6959
453.1208, 154.3811
453.6029, 153.9865
454.0850, 153.5561
454.5671, 153.2147
455.0492, 153.2169
455.5313, 152.9484
456.0135, 152.1175
456.4956, 151.2052
456.9777, 150.4828
457.4598, 150.0528
457.9419, 150.0675
458.4240, 150.8335
458.9062, 152.3750
459.3883, 152.7815
459.8704, 150.6896
460.3525, 148.9539
460.8346, 148.3129
461.3167, 148.3307
461.7989, 148.4990
462.2810, 148.6293
462.7631, 148.6564
463.2452, 148.3886
463.7273, 147.7243
464.2094, 147.3871
464.6916, 147.9735
465.1737, 148.4189
465.6558, 147.8126
466.1379, 146.4638
466.6200, 145.5495
467.1021, 146.1410
467.5843, 147.3894
468.0664, 147.4584
468.5485, 146.1806
469.0306, 144.9250
469.5127, 144.2287
469.9948, 143.9752
470.4770, 144.0415
470.9591, 144.5714
471.4412, 144.8642
471.9233, 144.3377
472.4054, 143.3946
472.8875, 142.7793
473.3697, 142.6317
473.8518, 142.6923
474.3339, 142.8097
474.8160, 142.9661
475.2981, 142.8147
475.7802, 141.8696
476.2624, 141.1341
476.7445, 141.4068
477.2266, 142.1512
477.7087, 142.2415
478.1908, 141.2207
478.6729, 139.7326
479.1551, 138.9598
479.6372, 139.3260
480.1193, 139.4271
480.6014, 138.8065
481.0835, 138.3636
481.5656, 138.8144
482.0478, 139.8959
482.5299, 140.8194
483.0120, 141.0544
483.4941, 140.7640
483.9762, 140.5422
484.4583, 140.4194
484.9405, 140.3074
485.4226, 140.4103
485.9047, 140.3710
486.3868, 139.7545
486.8689, 138.5694
487.3510, 137.4537
487.8332, 137.0220
488.3153, 137.1406
488.7974, 137.1073
489.2795, 136.7880
489.7616, 136.5881
490.2437, 136.9892
490.7259, 137.6161
491.2080, 137.8804
491.6901, 137.5914
492.1722, 137.0916
492.6543, 136.3773
493.1364, 135.6350
493.6186, 135.5424
494.1007, 136.3943
494.5828, 137.3997
495.0649, 137.6575
495.5470, 137.0892
496.0291, 136.4369
496.5113, 135.2161
496.9934, 134.3867
497.4755, 134.8626
497.9576, 136.1768
498.4397, 137.2092
498.9218, 137.4216
499.4040, 137.0287
499.8861, 136.4634
500.3682, 135.4277
500.8503, 134.7927
501.3324, 134.8258
501.8145, 134.9794
502.2967, 134.9046
502.7788, 134.6374
503.2609, 134.4190
503.7430, 134.4263
504.2251, 134.5991
504.7072, 134.7511
505.1894, 135.0265
505.6715, 134.9406
506.1536, 134.0395
506.6357, 132.9548
507.1178, 132.0799
507.5999, 131.4880
508.0821, 131.2562
508.5642, 131.6689
509.0463, 132.4810
509.5284, 132.9170
510.0105, 132.8480
510.4926, 132.7944
510.9748, 133.2553
511.4569, 133.9019
511.9390, 133.9484
512.4211, 133.0537
512.9032, 132.1041
513.3853, 131.2747
513.8674, 130.7485
514.3495, 131.1648
514.8317, 132.6615
515.3138, 133.9155
515.7959, 133.3927
516.2780, 130.8916
516.7601, 129.7101
517.2422, 130.9324
517.7244, 132.0281
518.2065, 132.0794
518.6886, 131.4954
519.1707, 130.8341
519.6528, 130.3158
520.1349, 129.9747
520.6171, 129.9095
521.0992, 130.2137
521.5813, 130.4137
522.0634, 130.2264
522.5455, 130.2248
523.0276, 130.8741
523.5098, 131.8223
523.9919, 132.3928
524.4740, 132.2473
524.9561, 131.7261
525.4382, 131.2116
525.9203, 130.7021
526.4025, 130.5053
526.8846, 130.9280
527.3667, 131.3716
527.8488, 131.0903
528.3309, 130.2249
528.8130, 129.7106
529.2952, 130.0358
529.7773, 130.6615
530.2594, 131.1681
530.7415, 131.5497
531.2236, 131.8594
531.7057, 132.1289
532.1879, 132.3127
532.6700, 132.3084
533.1521, 131.9910
533.6342, 131.7661
534.1163, 131.8547
534.5984, 131.8568
535.0806, 131.3449
535.5627, 130.5035
536.0448, 129.8925
536.5269, 129.8723
537.0090, 130.2647
537.4911, 130.5445
537.9733, 130.7011
538.4554, 130.7679
538.9375, 130.7156
539.4196, 130.6075
539.9017, 130.3284
540.3839, 129.9855
540.8660, 129.9922
541.3481, 130.9140
541.8302, 132.1981
542.3123, 132.4285
542.7944, 131.4563
543.2766, 130.7699
543.7587, 131.1473
544.2408, 131.9533
544.7229, 132.2412
545.2050, 131.9608
545.6871, 131.6675
546.1693, 131.6177
546.6514, 131.6077
547.1335, 131.3565
547.6156, 130.8917
548.0977, 130.4773
548.5798, 130.2539
549.0620, 130.2290
549.5441, 130.4301
550.0262, 131.3702
550.5083, 131.8360
550.9904, 131.3850
551.4725, 130.7876
551.9547, 130.6215
552.4368, 130.8800
552.9189, 131.2597
553.4010, 131.5837
553.8831, 131.7980
554.3652, 131.6054
554.8474, 130.7466
555.3295, 130.1407
555.8116, 130.2392
556.2937, 130.5301
556.7758, 130.7684
557.2579, 130.8992
557.7401, 130.7483
558.2222, 129.9047
558.7043, 128.8355
559.1864, 128.4218
559.6685, 128.6912
560.1506, 128.9784
560.6328, 128.9240
561.1149, 128.7243
561.5970, 128.8616
562.0791, 129.4843
562.5612, 129.8976
563.0433, 129.7654
563.5255, 129.5286
564.0076, 129.6038
564.4897, 129.9451
564.9718, 130.2041
565.4539, 130.1427
565.9360, 129.8885
566.4182, 129.9211
566.9003, 130.7150
567.3824, 130.8815
567.8645, 129.8352
568.3466, 128.6280
568.8287, 127.7347
569.3109, 127.2611
569.7930, 127.3466
570.2751, 128.3360
570.7572, 129.6651
571.2393, 129.9971
571.7214, 129.2337
572.2036, 128.6744
572.6857, 128.8168
573.1678, 129.2440
573.6499, 129.4890
574.1320, 129.5569
574.6141, 129.5610
575.0963, 129.3655
575.5784, 129.2494
576.0605, 129.5599
576.5426, 130.1762
577.0247, 130.7111
577.5068, 130.9996
577.9890, 131.0284
578.4711, 130.7007
578.9532, 129.5531
579.4353, 129.2705
579.9174, 130.6985
580.3995, 132.0359
580.8817, 132.2150
581.3638, 131.6906
581.8459, 131.5010
582.3280, 132.1735
582.8101, 133.0722
583.2922, 132.9966
583.7744, 131.8437
584.2565, 131.2594
584.7386, 131.7124
585.2207, 132.4132
585.7029, 132.8621
586.1850, 133.1159
586.6671, 133.2932
587.1492, 133.2685
587.6313, 133.3834
