##NAMES=Gordonite
##RRUFFID=R070437
##IDEAL CHEMISTRY=MgAl_2_(PO_4_)_2_(OH)_2_&#183;8H_2_O
##LOCALITY=Amatrice Hill, Stockton, Utah, USA
##OWNER=RRUFF
##SOURCE=Michael Scott
##DESCRIPTION=Aggregates of colorless to pale purple bladed crystals associated with green variscite. The apparent green color of gordonite is due to the variscite.
##STATUS=The identification of this mineral is confirmed by single-crystal X-ray diffraction and chemical analysis.
##URL=rruff.info/R070437
##MEASURED CHEMISTRY=Mg_1.00_Al_2.00_(P_1.00_O_4_)_2_(OH)_2_Â·7.98H_2_O; trace amounts of Fe; OH estimated by charge balance, H_2_O by difference
131.6024, 607.9698
132.0845, 644.8950
132.5666, 677.6856
133.0487, 707.0036
133.5308, 735.0953
134.0130, 761.7906
134.4951, 787.9011
134.9772, 816.2941
135.4593, 847.2014
135.9414, 878.7587
136.4235, 909.0698
136.9057, 937.9604
137.3878, 967.3444
137.8699, 998.7704
138.3520, 1031.210
138.8341, 1058.796
139.3162, 1080.964
139.7984, 1099.528
140.2805, 1117.678
140.7626, 1136.230
141.2447, 1150.012
141.7268, 1156.919
142.2089, 1156.280
142.6911, 1153.284
143.1732, 1147.780
143.6553, 1140.069
144.1374, 1130.034
144.6195, 1115.193
145.1016, 1102.300
145.5838, 1094.872
146.0659, 1097.977
146.5480, 1095.885
147.0301, 1087.008
147.5122, 1072.721
147.9943, 1057.936
148.4765, 1042.025
148.9586, 1026.388
149.4407, 1011.460
149.9228, 997.3760
150.4049, 983.9427
150.8870, 968.9481
151.3692, 952.5150
151.8513, 944.5542
152.3334, 954.3535
152.8155, 967.7621
153.2976, 974.3452
153.7797, 962.3885
154.2619, 954.8626
154.7440, 958.4677
155.2261, 976.1249
155.7082, 987.6298
156.1903, 984.5186
156.6724, 975.8784
157.1546, 972.5513
157.6367, 978.6025
158.1188, 988.3449
158.6009, 999.8734
159.0830, 1012.928
159.5651, 1028.286
160.0473, 1052.459
160.5294, 1079.004
161.0115, 1095.107
161.4936, 1079.516
161.9757, 1064.351
162.4578, 1069.464
162.9400, 1113.562
163.4221, 1152.841
163.9042, 1162.426
164.3863, 1151.211
164.8684, 1148.986
165.3505, 1176.247
165.8327, 1214.519
166.3148, 1248.896
166.7969, 1274.183
167.2790, 1295.616
167.7611, 1314.614
168.2433, 1331.570
168.7254, 1349.081
169.2075, 1374.634
169.6896, 1399.919
170.1717, 1415.014
170.6538, 1411.753
171.1360, 1399.834
171.6181, 1384.138
172.1002, 1364.523
172.5823, 1346.908
173.0644, 1333.361
173.5465, 1324.818
174.0287, 1322.666
174.5108, 1330.154
174.9929, 1343.193
175.4750, 1358.534
175.9571, 1376.477
176.4392, 1393.765
176.9214, 1403.989
177.4035, 1410.256
177.8856, 1421.408
178.3677, 1444.853
178.8498, 1475.521
179.3319, 1506.634
179.8141, 1538.240
180.2962, 1568.061
180.7783, 1592.414
181.2604, 1611.909
181.7425, 1632.162
182.2246, 1659.941
182.7068, 1690.991
183.1889, 1715.360
183.6710, 1728.897
184.1531, 1737.952
184.6352, 1751.172
185.1173, 1768.640
185.5995, 1789.721
186.0816, 1816.427
186.5637, 1846.891
187.0458, 1874.862
187.5279, 1898.303
188.0100, 1918.438
188.4922, 1938.047
188.9743, 1957.483
189.4564, 1973.716
189.9385, 1980.018
190.4206, 1978.265
190.9027, 1983.615
191.3849, 2007.531
191.8670, 2041.813
192.3491, 2053.460
192.8312, 2039.859
193.3133, 2016.984
193.7954, 2005.123
194.2776, 2003.926
194.7597, 1995.912
195.2418, 1970.706
195.7239, 1931.165
196.2060, 1902.682
196.6881, 1890.290
197.1703, 1876.596
197.6524, 1831.660
198.1345, 1754.156
198.6166, 1674.961
199.0987, 1610.178
199.5808, 1559.827
200.0630, 1500.823
200.5451, 1429.187
201.0272, 1354.847
201.5093, 1294.219
201.9914, 1248.273
202.4735, 1212.323
202.9557, 1187.136
203.4378, 1174.086
203.9199, 1154.020
204.4020, 1122.369
204.8841, 1086.297
205.3662, 1064.033
205.8484, 1057.452
206.3305, 1058.245
206.8126, 1063.785
207.2947, 1075.623
207.7768, 1082.313
208.2589, 1081.884
208.7411, 1075.965
209.2232, 1069.575
209.7053, 1061.803
210.1874, 1055.703
210.6695, 1054.469
211.1517, 1060.127
211.6338, 1061.584
212.1159, 1055.641
212.5980, 1044.119
213.0801, 1038.885
213.5622, 1043.382
214.0444, 1047.760
214.5265, 1041.739
215.0086, 1019.224
215.4907, 1006.551
215.9728, 1011.713
216.4549, 1032.740
216.9371, 1042.263
217.4192, 1035.602
217.9013, 1024.202
218.3834, 1019.064
218.8655, 1022.614
219.3476, 1025.847
219.8298, 1026.804
220.3119, 1025.455
220.7940, 1024.728
221.2761, 1024.499
221.7582, 1025.040
222.2403, 1027.701
222.7225, 1035.696
223.2046, 1037.840
223.6867, 1027.510
224.1688, 1002.086
224.6509, 994.9012
225.1330, 1014.296
225.6152, 1044.059
226.0973, 1063.029
226.5794, 1066.833
227.0615, 1068.326
227.5436, 1070.118
228.0257, 1071.859
228.5079, 1075.921
228.9900, 1081.502
229.4721, 1090.074
229.9542, 1103.859
230.4363, 1123.552
230.9184, 1147.207
231.4006, 1176.000
231.8827, 1212.442
232.3648, 1242.302
232.8469, 1262.900
233.3290, 1278.753
233.8111, 1297.413
234.2933, 1318.396
234.7754, 1343.018
235.2575, 1372.190
235.7396, 1407.255
236.2217, 1442.719
236.7038, 1480.562
237.1860, 1518.183
237.6681, 1549.687
238.1502, 1569.083
238.6323, 1591.769
239.1144, 1624.464
239.5965, 1670.768
240.0787, 1717.295
240.5608, 1765.541
241.0429, 1813.462
241.5250, 1855.983
242.0071, 1889.796
242.4892, 1923.389
242.9714, 1961.270
243.4535, 2011.718
243.9356, 2047.779
244.4177, 2063.573
244.8998, 2066.455
245.3819, 2076.699
245.8641, 2102.037
246.3462, 2123.407
246.8283, 2131.436
247.3104, 2120.963
247.7925, 2109.575
248.2746, 2098.406
248.7568, 2086.265
249.2389, 2068.323
249.7210, 2037.413
250.2031, 2011.560
250.6852, 2002.323
251.1674, 2023.998
251.6495, 2027.097
252.1316, 2002.026
252.6137, 1958.906
253.0958, 1930.616
253.5779, 1924.133
254.0601, 1921.626
254.5422, 1914.200
255.0243, 1900.731
255.5064, 1885.098
255.9885, 1865.814
256.4706, 1844.792
256.9528, 1827.782
257.4349, 1815.241
257.9170, 1805.941
258.3991, 1799.889
258.8812, 1799.265
259.3633, 1795.694
259.8455, 1787.338
260.3276, 1775.931
260.8097, 1767.186
261.2918, 1760.043
261.7739, 1757.356
262.2560, 1761.042
262.7382, 1772.463
263.2203, 1786.704
263.7024, 1804.805
264.1845, 1825.283
264.6666, 1843.311
265.1487, 1857.447
265.6309, 1871.801
266.1130, 1888.073
266.5951, 1905.958
267.0772, 1927.806
267.5593, 1954.077
268.0414, 1984.505
268.5236, 2017.272
269.0057, 2052.770
269.4878, 2090.328
269.9699, 2131.384
270.4520, 2177.521
270.9341, 2217.870
271.4163, 2248.238
271.8984, 2273.861
272.3805, 2311.138
272.8626, 2362.414
273.3447, 2419.587
273.8268, 2477.920
274.3090, 2536.771
274.7911, 2600.698
275.2732, 2671.375
275.7553, 2745.313
276.2374, 2811.579
276.7195, 2869.711
277.2017, 2924.397
277.6838, 2980.662
278.1659, 3039.485
278.6480, 3086.948
279.1301, 3120.065
279.6122, 3142.661
280.0944, 3168.139
280.5765, 3198.884
281.0586, 3217.918
281.5407, 3210.899
282.0228, 3177.618
282.5049, 3146.142
282.9871, 3121.702
283.4692, 3096.654
283.9513, 3053.303
284.4334, 2990.882
284.9155, 2919.096
285.3976, 2838.260
285.8798, 2749.708
286.3619, 2671.983
286.8440, 2607.686
287.3261, 2553.016
287.8082, 2499.305
288.2903, 2446.510
288.7725, 2399.156
289.2546, 2361.818
289.7367, 2333.259
290.2188, 2304.722
290.7009, 2275.772
291.1830, 2245.818
291.6652, 2211.245
292.1473, 2172.521
292.6294, 2140.488
293.1115, 2130.560
293.5936, 2133.435
294.0757, 2113.537
294.5579, 2063.479
295.0400, 2003.805
295.5221, 1963.763
296.0042, 1940.209
296.4863, 1916.812
296.9684, 1879.686
297.4506, 1836.366
297.9327, 1808.719
298.4148, 1801.351
298.8969, 1794.855
299.3790, 1763.194
299.8611, 1712.009
300.3433, 1661.254
300.8254, 1620.858
301.3075, 1587.765
301.7896, 1558.531
302.2717, 1532.924
302.7538, 1509.472
303.2360, 1488.335
303.7181, 1468.377
304.2002, 1446.429
304.6823, 1415.661
305.1644, 1384.673
305.6465, 1366.544
306.1287, 1362.665
306.6108, 1359.776
307.0929, 1346.736
307.5750, 1327.028
308.0571, 1306.484
308.5392, 1286.014
309.0214, 1267.111
309.5035, 1251.786
309.9856, 1240.270
310.4677, 1228.495
310.9498, 1209.940
311.4319, 1190.275
311.9141, 1176.993
312.3962, 1181.507
312.8783, 1186.650
313.3604, 1179.085
313.8426, 1159.206
314.3247, 1141.085
314.8068, 1133.615
315.2889, 1131.439
315.7710, 1128.835
316.2531, 1124.013
316.7353, 1118.299
317.2174, 1112.250
317.6995, 1105.846
318.1816, 1098.815
318.6637, 1088.104
319.1458, 1078.216
319.6280, 1072.767
320.1101, 1081.184
320.5922, 1085.495
321.0743, 1077.227
321.5564, 1058.880
322.0385, 1044.494
322.5207, 1041.282
323.0028, 1040.873
323.4849, 1038.042
323.9670, 1024.618
324.4491, 1017.467
324.9312, 1022.763
325.4134, 1037.227
325.8955, 1048.513
326.3776, 1057.852
326.8597, 1061.682
327.3418, 1057.793
327.8239, 1034.042
328.3061, 1019.648
328.7882, 1020.000
329.2703, 1030.231
329.7524, 1038.035
330.2345, 1045.135
330.7166, 1048.104
331.1988, 1045.010
331.6809, 1032.430
332.1630, 1021.779
332.6451, 1013.059
333.1272, 1006.249
333.6093, 1000.703
334.0915, 992.0646
334.5736, 991.6442
335.0557, 1007.169
335.5378, 1045.647
336.0199, 1064.883
336.5020, 1056.344
336.9842, 1036.990
337.4663, 1031.589
337.9484, 1046.322
338.4305, 1058.069
338.9126, 1058.941
339.3947, 1048.833
339.8769, 1043.637
340.3590, 1044.430
340.8411, 1047.848
341.3232, 1050.502
341.8053, 1052.319
342.2874, 1053.616
342.7696, 1053.710
343.2517, 1053.329
343.7338, 1057.564
344.2159, 1067.555
344.6980, 1076.425
345.1801, 1076.426
345.6623, 1068.250
346.1444, 1062.122
346.6265, 1060.507
347.1086, 1061.985
347.5907, 1064.336
348.0728, 1067.506
348.5550, 1069.058
349.0371, 1063.647
349.5192, 1054.620
350.0013, 1053.955
350.4834, 1066.247
350.9655, 1082.667
351.4477, 1089.115
351.9298, 1087.585
352.4119, 1087.488
352.8940, 1098.361
353.3761, 1113.448
353.8582, 1120.744
354.3404, 1117.401
354.8225, 1111.537
355.3046, 1111.404
355.7867, 1114.831
356.2688, 1116.607
356.7509, 1109.623
357.2331, 1102.403
357.7152, 1104.108
358.1973, 1116.205
358.6794, 1129.061
359.1615, 1134.867
359.6436, 1137.964
360.1258, 1144.423
360.6079, 1163.003
361.0900, 1180.281
361.5721, 1186.491
362.0542, 1181.614
362.5363, 1180.174
363.0185, 1193.962
363.5006, 1211.199
363.9827, 1221.174
364.4648, 1213.164
364.9469, 1206.011
365.4290, 1203.363
365.9112, 1205.411
366.3933, 1212.718
366.8754, 1233.188
367.3575, 1253.778
367.8396, 1266.845
368.3217, 1260.346
368.8039, 1260.499
369.2860, 1273.720
369.7681, 1295.152
370.2502, 1310.551
370.7323, 1315.837
371.2144, 1319.164
371.6966, 1323.096
372.1787, 1326.591
372.6608, 1333.013
373.1429, 1341.234
373.6250, 1352.991
374.1071, 1372.175
374.5893, 1402.463
375.0714, 1433.123
375.5535, 1462.480
376.0356, 1491.045
376.5177, 1507.401
376.9998, 1506.462
377.4820, 1501.774
377.9641, 1509.753
378.4462, 1532.255
378.9283, 1555.539
379.4104, 1576.995
379.8925, 1596.358
380.3747, 1611.656
380.8568, 1622.560
381.3389, 1632.249
381.8210, 1644.814
382.3031, 1659.406
382.7852, 1669.403
383.2674, 1672.132
383.7495, 1671.592
384.2316, 1674.515
384.7137, 1680.808
385.1958, 1689.348
385.6779, 1700.537
386.1601, 1713.360
386.6422, 1725.240
387.1243, 1735.798
387.6064, 1746.225
388.0885, 1760.165
388.5706, 1775.466
389.0528, 1786.192
389.5349, 1784.590
390.0170, 1779.789
390.4991, 1780.210
390.9812, 1786.498
391.4633, 1796.168
391.9455, 1810.576
392.4276, 1826.565
392.9097, 1840.126
393.3918, 1848.132
393.8739, 1854.871
394.3561, 1861.577
394.8382, 1868.427
395.3203, 1876.976
395.8024, 1889.613
396.2845, 1902.963
396.7667, 1914.658
397.2488, 1922.591
397.7309, 1930.936
398.2130, 1938.568
398.6951, 1946.801
399.1772, 1959.836
399.6594, 1990.460
400.1415, 2015.065
400.6236, 2023.012
401.1057, 2002.022
401.5878, 1994.021
402.0699, 2008.514
402.5521, 2031.363
403.0342, 2041.962
403.5163, 2037.129
403.9984, 2025.354
404.4805, 2006.462
404.9626, 1980.418
405.4448, 1959.099
405.9269, 1942.246
406.4090, 1930.599
406.8911, 1928.288
407.3732, 1938.080
407.8553, 1937.670
408.3375, 1920.998
408.8196, 1892.696
409.3017, 1865.299
409.7838, 1838.533
410.2659, 1815.672
410.7480, 1799.882
411.2302, 1790.324
411.7123, 1783.525
412.1944, 1779.449
412.6765, 1777.225
413.1586, 1774.491
413.6407, 1772.108
414.1229, 1773.826
414.6050, 1783.900
415.0871, 1798.424
415.5692, 1810.030
416.0513, 1818.311
416.5334, 1829.942
417.0156, 1855.888
417.4977, 1887.597
417.9798, 1911.822
418.4619, 1908.290
418.9440, 1909.415
419.4261, 1941.249
419.9083, 1998.503
420.3904, 2053.307
420.8725, 2091.294
421.3546, 2122.984
421.8367, 2154.550
422.3188, 2184.389
422.8010, 2219.589
423.2831, 2266.786
423.7652, 2320.395
424.2473, 2369.606
424.7294, 2414.682
425.2115, 2453.924
425.6937, 2485.743
426.1758, 2507.450
426.6579, 2531.832
427.1400, 2562.455
427.6221, 2593.575
428.1042, 2620.158
428.5864, 2642.525
429.0685, 2659.677
429.5506, 2671.422
430.0327, 2677.707
430.5148, 2679.952
430.9969, 2681.603
431.4791, 2670.608
431.9612, 2634.852
432.4433, 2572.826
432.9254, 2513.101
433.4075, 2459.697
433.8896, 2408.099
434.3718, 2349.180
434.8539, 2283.130
435.3360, 2216.295
435.8181, 2148.952
436.3002, 2083.954
436.7823, 2032.098
437.2645, 1994.960
437.7466, 1958.324
438.2287, 1902.514
438.7108, 1836.841
439.1929, 1782.328
439.6750, 1755.795
440.1572, 1734.634
440.6393, 1693.930
441.1214, 1637.796
441.6035, 1586.536
442.0856, 1552.546
442.5677, 1528.182
443.0499, 1507.569
443.5320, 1492.021
444.0141, 1474.820
444.4962, 1453.275
444.9783, 1428.378
445.4604, 1401.790
445.9426, 1363.380
446.4247, 1333.218
446.9068, 1321.587
447.3889, 1332.365
447.8710, 1335.741
448.3531, 1321.756
448.8353, 1305.170
449.3174, 1297.657
449.7995, 1311.578
450.2816, 1313.034
450.7637, 1292.239
451.2458, 1256.745
451.7280, 1237.845
452.2101, 1241.066
452.6922, 1247.703
453.1743, 1248.337
453.6564, 1242.276
454.1385, 1237.078
454.6207, 1232.670
455.1028, 1229.504
455.5849, 1228.751
456.0670, 1230.268
456.5491, 1231.626
457.0313, 1232.545
457.5134, 1232.474
457.9955, 1228.245
458.4776, 1220.072
458.9597, 1214.631
459.4418, 1221.567
459.9240, 1233.843
460.4061, 1238.502
460.8882, 1229.956
461.3703, 1220.067
461.8524, 1222.191
462.3345, 1231.028
462.8167, 1234.214
463.2988, 1214.398
463.7809, 1195.767
464.2630, 1197.334
464.7451, 1222.696
465.2272, 1242.001
465.7094, 1235.075
466.1915, 1222.129
466.6736, 1221.286
467.1557, 1254.520
467.6378, 1278.985
468.1199, 1283.331
468.6021, 1272.389
469.0842, 1267.829
469.5663, 1276.319
470.0484, 1283.382
470.5305, 1282.039
471.0126, 1268.382
471.4948, 1259.329
471.9769, 1255.253
472.4590, 1255.191
472.9411, 1259.528
473.4232, 1269.559
473.9053, 1275.370
474.3875, 1272.842
474.8696, 1264.189
475.3517, 1257.436
475.8338, 1252.471
476.3159, 1250.654
476.7981, 1257.073
477.2802, 1267.808
477.7623, 1270.331
478.2444, 1261.828
478.7265, 1247.835
479.2086, 1230.995
479.6908, 1213.480
480.1729, 1200.964
480.6550, 1198.743
481.1371, 1200.917
481.6192, 1202.602
482.1013, 1203.706
482.5835, 1206.705
483.0656, 1219.402
483.5477, 1231.007
484.0298, 1232.066
484.5119, 1210.792
484.9940, 1191.775
485.4762, 1181.228
485.9583, 1176.704
486.4404, 1171.896
486.9225, 1168.921
487.4046, 1162.782
487.8867, 1149.352
488.3689, 1125.312
488.8510, 1115.261
489.3331, 1127.814
489.8152, 1143.880
490.2973, 1142.699
490.7794, 1118.816
491.2616, 1101.269
491.7437, 1095.553
492.2258, 1098.272
492.7079, 1103.000
493.1900, 1110.104
493.6721, 1111.231
494.1543, 1093.582
494.6364, 1065.362
495.1185, 1057.954
495.6006, 1074.797
496.0827, 1095.822
496.5648, 1103.820
497.0470, 1100.825
497.5291, 1090.093
498.0112, 1062.958
498.4933, 1038.551
498.9754, 1034.910
499.4576, 1048.275
499.9397, 1064.815
500.4218, 1086.786
500.9039, 1103.610
501.3860, 1106.663
501.8681, 1089.559
502.3503, 1075.843
502.8324, 1072.936
503.3145, 1075.443
503.7966, 1076.954
504.2787, 1075.048
504.7608, 1074.566
505.2430, 1075.767
505.7251, 1078.776
506.2072, 1085.318
506.6893, 1098.009
507.1714, 1109.504
507.6535, 1115.109
508.1357, 1113.861
508.6178, 1114.816
509.0999, 1118.771
509.5820, 1123.603
510.0641, 1125.949
510.5462, 1126.073
511.0284, 1126.942
511.5105, 1128.576
511.9926, 1132.264
512.4747, 1143.686
512.9568, 1161.530
513.4389, 1174.809
513.9210, 1170.548
514.4031, 1159.616
514.8853, 1156.501
515.3674, 1165.196
515.8495, 1173.500
516.3316, 1169.503
516.8137, 1161.739
517.2958, 1162.014
517.7780, 1185.373
518.2601, 1206.086
518.7422, 1211.316
519.2244, 1203.191
519.7065, 1203.881
520.1886, 1223.100
520.6707, 1245.332
521.1528, 1264.700
521.6349, 1283.026
522.1171, 1292.574
522.5992, 1287.354
523.0813, 1279.353
523.5634, 1287.470
524.0455, 1315.906
524.5276, 1337.218
525.0098, 1340.714
525.4919, 1333.672
525.9740, 1342.338
526.4561, 1367.214
526.9382, 1394.167
527.4203, 1413.312
527.9025, 1427.856
528.3846, 1447.049
528.8667, 1473.259
529.3488, 1495.110
529.8309, 1495.839
530.3130, 1485.914
530.7952, 1482.339
531.2773, 1494.161
531.7594, 1511.881
532.2415, 1535.130
532.7236, 1561.535
533.2057, 1579.909
533.6879, 1577.732
534.1700, 1574.089
534.6521, 1578.508
535.1342, 1594.154
535.6163, 1611.468
536.0984, 1634.262
536.5806, 1655.805
537.0627, 1667.404
537.5448, 1662.529
538.0269, 1664.476
538.5090, 1679.621
538.9911, 1702.755
539.4733, 1715.587
539.9554, 1717.142
540.4375, 1716.299
540.9196, 1715.192
541.4017, 1715.189
541.8839, 1724.312
542.3660, 1743.482
542.8481, 1764.501
543.3302, 1782.963
543.8123, 1797.497
544.2944, 1804.824
544.7766, 1800.216
545.2587, 1794.347
545.7408, 1795.370
546.2229, 1801.667
546.7050, 1809.234
547.1871, 1818.167
547.6693, 1826.509
548.1514, 1831.154
548.6335, 1830.946
549.1156, 1838.191
549.5977, 1864.455
550.0798, 1892.261
550.5620, 1909.100
551.0441, 1907.471
551.5262, 1910.074
552.0083, 1919.680
552.4904, 1932.619
552.9725, 1941.678
553.4547, 1946.316
553.9368, 1949.573
554.4189, 1950.110
554.9010, 1950.399
555.3831, 1961.491
555.8652, 1983.529
556.3474, 2009.079
556.8295, 2031.375
557.3116, 2053.243
557.7937, 2082.568
558.2758, 2123.295
558.7579, 2159.627
559.2401, 2171.424
559.7222, 2171.106
560.2043, 2177.791
560.6864, 2207.229
561.1685, 2236.952
561.6506, 2257.402
562.1328, 2269.503
562.6149, 2279.427
563.0970, 2283.065
563.5791, 2289.419
564.0612, 2302.221
564.5433, 2322.490
565.0255, 2345.739
565.5076, 2373.297
565.9897, 2401.951
566.4718, 2430.371
566.9539, 2459.579
567.4360, 2480.301
567.9182, 2489.907
568.4003, 2491.376
568.8824, 2492.103
569.3645, 2491.513
569.8466, 2482.467
570.3287, 2451.198
570.8109, 2412.882
571.2930, 2395.423
571.7751, 2398.374
572.2572, 2406.166
572.7393, 2412.181
573.2214, 2415.414
573.7036, 2414.252
574.1857, 2406.148
574.6678, 2398.841
575.1499, 2397.038
575.6320, 2397.314
576.1141, 2394.620
576.5963, 2381.982
577.0784, 2373.464
577.5605, 2373.209
578.0426, 2379.754
578.5247, 2384.317
579.0068, 2387.859
579.4890, 2387.359
579.9711, 2380.087
580.4532, 2365.630
580.9353, 2350.834
581.4174, 2334.394
581.8995, 2323.049
582.3817, 2329.394
582.8638, 2348.160
583.3459, 2359.261
583.8280, 2355.590
584.3101, 2346.868
584.7922, 2344.647
585.2744, 2346.227
585.7565, 2344.603
586.2386, 2329.588
586.7207, 2316.110
587.2028, 2318.671
587.6849, 2336.690
588.1671, 2340.945
588.6492, 2309.580
589.1313, 2272.152
589.6134, 2246.941
590.0955, 2239.841
590.5776, 2232.554
591.0598, 2225.889
591.5419, 2218.312
592.0240, 2206.280
592.5061, 2187.763
592.9882, 2176.244
593.4703, 2178.935
593.9525, 2186.554
594.4346, 2172.947
594.9167, 2139.588
595.3988, 2107.210
595.8809, 2089.035
596.3630, 2078.953
596.8452, 2067.111
597.3273, 2053.379
597.8094, 2040.639
598.2915, 2033.795
598.7736, 2027.435
599.2557, 2015.658
599.7379, 1993.720
600.2200, 1973.735
600.7021, 1955.592
601.1842, 1942.426
601.6663, 1939.897
602.1484, 1965.560
602.6306, 1976.670
603.1127, 1958.026
603.5948, 1918.290
604.0769, 1905.017
604.5590, 1926.530
605.0411, 1947.371
605.5233, 1945.875
606.0054, 1925.151
606.4875, 1913.556
606.9696, 1912.063
607.4517, 1910.910
607.9338, 1896.669
608.4160, 1876.503
608.8981, 1866.709
609.3802, 1873.632
609.8623, 1882.944
610.3444, 1884.543
610.8265, 1881.073
611.3087, 1876.999
611.7908, 1870.960
612.2729, 1867.544
612.7550, 1869.961
613.2371, 1877.260
613.7192, 1882.812
614.2014, 1891.118
614.6835, 1891.602
615.1656, 1876.143
615.6477, 1841.459
616.1298, 1824.237
616.6119, 1828.743
617.0941, 1839.972
617.5762, 1845.634
618.0583, 1845.949
618.5404, 1841.036
619.0225, 1829.159
619.5046, 1817.508
619.9868, 1818.631
620.4689, 1827.100
620.9510, 1829.749
621.4331, 1817.012
621.9152, 1800.109
622.3973, 1783.692
