##NAMES=Gormanite
##RRUFFID=R050093
##IDEAL CHEMISTRY=Fe^2+^_3_Al_4_(PO_4_)_4_(OH)_6_&#183;2H_2_O
##LOCALITY=Rapid Creek, Yukon Territory, Canada
##OWNER=RRUFF
##SOURCE=Rock Currier
##DESCRIPTION=Radial aggregates of blue bladed crystals
##STATUS=The identification of this mineral has been confirmed by X-ray diffraction and chemical analysis
##URL=rruff.info/R050093
##MEASURED CHEMISTRY=(Fe^2+^_1.85_Mg_1.09_Mn_0.06_)_Σ=3_(Al_3.76_Fe^3+^_0.24_)_Σ=4_(P_1.00_O_4_)_4_((OH_5.65_F_0.35_)_Σ=6_·2H_2_O ; (light phase) : (Fe^2+^_1.53_Mg_1.42_Mn_0.05_)_Σ=3_(Al_3.89_Fe^3+^_0.11_)_Σ=4_(P_1.00_O_4_)_4_((OH_5.60_F_0.40_)_Σ=6_·2H_2_O (dark phase
154.2619, 1524.766
154.7440, 1533.269
155.2261, 1559.105
155.7082, 1576.006
156.1903, 1574.294
156.6724, 1564.086
157.1546, 1557.409
157.6367, 1556.763
158.1188, 1559.549
158.6009, 1565.903
159.0830, 1577.984
159.5651, 1587.583
160.0473, 1590.311
160.5294, 1589.268
161.0115, 1590.424
161.4936, 1599.725
161.9757, 1608.938
162.4578, 1613.331
162.9400, 1609.970
163.4221, 1605.193
163.9042, 1602.357
164.3863, 1600.329
164.8684, 1595.300
165.3505, 1579.354
165.8327, 1562.746
166.3148, 1553.977
166.7969, 1559.438
167.2790, 1569.261
167.7611, 1580.684
168.2433, 1593.188
168.7254, 1601.925
169.2075, 1600.813
169.6896, 1595.357
170.1717, 1592.012
170.6538, 1598.800
171.1360, 1604.934
171.6181, 1600.552
172.1002, 1585.175
172.5823, 1568.500
173.0644, 1555.440
173.5465, 1546.054
174.0287, 1540.173
174.5108, 1542.555
174.9929, 1546.234
175.4750, 1542.126
175.9571, 1528.411
176.4392, 1514.032
176.9214, 1509.768
177.4035, 1512.217
177.8856, 1511.848
178.3677, 1500.917
178.8498, 1484.539
179.3319, 1469.823
179.8141, 1456.900
180.2962, 1447.625
180.7783, 1447.647
181.2604, 1454.977
181.7425, 1459.100
182.2246, 1451.427
182.7068, 1435.486
183.1889, 1418.159
183.6710, 1398.380
184.1531, 1381.260
184.6352, 1378.395
185.1173, 1389.057
185.5995, 1400.392
186.0816, 1400.905
186.5637, 1375.122
187.0458, 1396.855
187.5279, 1408.688
188.0100, 1411.153
188.4922, 1376.191
188.9743, 1389.558
189.4564, 1383.557
189.9385, 1376.762
190.4206, 1396.931
190.9027, 1367.413
191.3849, 1387.154
191.8670, 1387.232
192.3491, 1396.310
192.8312, 1385.900
193.3133, 1381.508
193.7954, 1396.611
194.2776, 1400.920
194.7597, 1388.266
195.2418, 1397.916
195.7239, 1367.717
196.2060, 1372.486
196.6881, 1392.341
197.1703, 1380.667
197.6524, 1390.673
198.1345, 1392.422
198.6166, 1356.648
199.0987, 1386.131
199.5808, 1387.392
200.0630, 1359.675
200.5451, 1386.922
201.0272, 1363.200
201.5093, 1357.672
201.9914, 1365.834
202.4735, 1359.723
202.9557, 1376.115
203.4378, 1370.829
203.9199, 1363.606
204.4020, 1364.836
204.8841, 1342.113
205.3662, 1363.826
205.8484, 1355.186
206.3305, 1361.634
206.8126, 1371.502
207.2947, 1355.184
207.7768, 1366.588
208.2589, 1335.001
208.7411, 1339.387
209.2232, 1344.367
209.7053, 1330.303
210.1874, 1320.052
210.6695, 1322.752
211.1517, 1343.469
211.6338, 1355.049
212.1159, 1351.837
212.5980, 1336.404
213.0801, 1323.115
213.5622, 1311.381
214.0444, 1303.132
214.5265, 1300.968
215.0086, 1307.001
215.4907, 1312.434
215.9728, 1316.720
216.4549, 1319.624
216.9371, 1316.427
217.4192, 1302.344
217.9013, 1289.268
218.3834, 1291.485
218.8655, 1318.388
219.3476, 1334.531
219.8298, 1328.639
220.3119, 1300.482
220.7940, 1284.073
221.2761, 1283.117
221.7582, 1289.678
222.2403, 1296.132
222.7225, 1303.955
223.2046, 1307.772
223.6867, 1304.247
224.1688, 1292.062
224.6509, 1288.338
225.1330, 1298.108
225.6152, 1311.589
226.0973, 1315.358
226.5794, 1304.525
227.0615, 1293.964
227.5436, 1287.810
228.0257, 1286.732
228.5079, 1285.607
228.9900, 1283.496
229.4721, 1282.040
229.9542, 1284.169
230.4363, 1292.728
230.9184, 1299.653
231.4006, 1302.147
231.8827, 1298.960
232.3648, 1296.865
232.8469, 1298.202
233.3290, 1299.226
233.8111, 1292.317
234.2933, 1270.609
234.7754, 1252.442
235.2575, 1244.853
235.7396, 1251.655
236.2217, 1256.673
236.7038, 1258.914
237.1860, 1259.862
237.6681, 1262.628
238.1502, 1268.357
238.6323, 1274.115
239.1144, 1279.602
239.5965, 1286.851
240.0787, 1287.852
240.5608, 1280.131
241.0429, 1267.068
241.5250, 1255.898
242.0071, 1246.151
242.4892, 1238.992
242.9714, 1235.180
243.4535, 1235.749
243.9356, 1237.472
244.4177, 1242.537
244.8998, 1248.207
245.3819, 1246.184
245.8641, 1229.778
246.3462, 1215.501
246.8283, 1212.480
247.3104, 1229.520
247.7925, 1236.163
248.2746, 1226.753
248.7568, 1207.868
249.2389, 1198.782
249.7210, 1204.844
250.2031, 1212.606
250.6852, 1215.599
251.1674, 1211.781
251.6495, 1207.689
252.1316, 1202.064
252.6137, 1196.539
253.0958, 1196.995
253.5779, 1206.745
254.0601, 1217.373
254.5422, 1224.148
255.0243, 1224.956
255.5064, 1227.822
255.9885, 1235.781
256.4706, 1245.577
256.9528, 1245.756
257.4349, 1232.243
257.9170, 1215.805
258.3991, 1200.149
258.8812, 1181.223
259.3633, 1176.016
259.8455, 1191.584
260.3276, 1220.380
260.8097, 1235.109
261.2918, 1231.112
261.7739, 1221.822
262.2560, 1213.789
262.7382, 1206.111
263.2203, 1202.709
263.7024, 1205.188
264.1845, 1211.715
264.6666, 1216.005
265.1487, 1217.419
265.6309, 1217.841
266.1130, 1218.801
266.5951, 1221.327
267.0772, 1219.977
267.5593, 1211.896
268.0414, 1200.501
268.5236, 1198.728
269.0057, 1209.947
269.4878, 1222.615
269.9699, 1229.065
270.4520, 1227.173
270.9341, 1229.170
271.4163, 1237.948
271.8984, 1250.327
272.3805, 1254.692
272.8626, 1247.484
273.3447, 1242.903
273.8268, 1251.629
274.3090, 1276.055
274.7911, 1296.680
275.2732, 1310.561
275.7553, 1320.131
276.2374, 1331.735
276.7195, 1345.839
277.2017, 1360.618
277.6838, 1377.027
278.1659, 1395.846
278.6480, 1405.078
279.1301, 1400.003
279.6122, 1388.223
280.0944, 1389.130
280.5765, 1404.488
281.0586, 1422.686
281.5407, 1437.056
282.0228, 1447.572
282.5049, 1457.858
282.9871, 1468.728
283.4692, 1478.893
283.9513, 1485.431
284.4334, 1488.131
284.9155, 1489.659
285.3976, 1492.476
285.8798, 1496.235
286.3619, 1494.914
286.8440, 1485.617
287.3261, 1475.052
287.8082, 1478.282
288.2903, 1495.447
288.7725, 1511.248
289.2546, 1514.234
289.7367, 1506.934
290.2188, 1505.731
290.7009, 1514.441
291.1830, 1524.042
291.6652, 1517.419
292.1473, 1495.568
292.6294, 1473.347
293.1115, 1457.192
293.5936, 1447.024
294.0757, 1444.305
294.5579, 1451.002
295.0400, 1459.458
295.5221, 1457.176
296.0042, 1445.970
296.4863, 1436.742
296.9684, 1436.285
297.4506, 1441.913
297.9327, 1448.477
298.4148, 1456.404
298.8969, 1461.932
299.3790, 1457.766
299.8611, 1446.531
300.3433, 1437.350
300.8254, 1436.590
301.3075, 1440.479
301.7896, 1443.853
302.2717, 1446.786
302.7538, 1446.856
303.2360, 1437.951
303.7181, 1424.009
304.2002, 1414.451
304.6823, 1420.689
305.1644, 1430.669
305.6465, 1427.541
306.1287, 1409.415
306.6108, 1391.683
307.0929, 1387.801
307.5750, 1393.102
308.0571, 1398.834
308.5392, 1400.572
309.0214, 1401.451
309.5035, 1404.849
309.9856, 1410.945
310.4677, 1416.082
310.9498, 1418.713
311.4319, 1418.704
311.9141, 1415.984
312.3962, 1388.115
312.8783, 1409.095
313.3604, 1420.242
313.8426, 1422.085
314.3247, 1386.757
314.8068, 1399.428
315.2889, 1392.863
315.7710, 1385.509
316.2531, 1404.936
316.7353, 1375.014
317.2174, 1394.016
317.6995, 1393.488
318.1816, 1401.899
318.6637, 1390.955
319.1458, 1385.989
319.6280, 1400.384
320.1101, 1404.058
320.5922, 1390.886
321.0743, 1399.865
321.5564, 1369.267
322.0385, 1373.398
322.5207, 1392.514
323.0028, 1380.315
323.4849, 1389.647
323.9670, 1390.780
324.4491, 1354.644
324.9312, 1383.321
325.4134, 1383.969
325.8955, 1369.221
326.3776, 1366.780
326.8597, 1366.070
327.3418, 1370.915
327.8239, 1395.365
328.3061, 1405.652
328.7882, 1391.165
329.2703, 1361.741
329.7524, 1342.521
330.2345, 1337.810
330.7166, 1339.119
331.1988, 1344.411
331.6809, 1357.018
332.1630, 1365.818
332.6451, 1371.368
333.1272, 1372.892
333.6093, 1367.774
334.0915, 1348.215
334.5736, 1334.165
335.0557, 1333.242
335.5378, 1348.511
336.0199, 1363.244
336.5020, 1379.589
336.9842, 1393.462
337.4663, 1396.853
337.9484, 1382.994
338.4305, 1377.733
338.9126, 1393.443
339.3947, 1430.284
339.8769, 1446.662
340.3590, 1437.181
340.8411, 1418.513
341.3232, 1407.395
341.8053, 1404.157
342.2874, 1407.063
342.7696, 1417.777
343.2517, 1434.450
343.7338, 1446.946
344.2159, 1455.424
344.6980, 1459.913
345.1801, 1460.297
345.6623, 1456.635
346.1444, 1448.946
346.6265, 1434.753
347.1086, 1418.819
347.5907, 1413.578
348.0728, 1419.061
348.5550, 1426.030
349.0371, 1425.012
349.5192, 1419.500
350.0013, 1422.344
350.4834, 1438.849
350.9655, 1458.335
351.4477, 1464.330
351.9298, 1458.928
352.4119, 1451.970
352.8940, 1448.105
353.3761, 1446.932
353.8582, 1447.934
354.3404, 1451.078
354.8225, 1456.259
355.3046, 1467.354
355.7867, 1480.746
356.2688, 1487.750
356.7509, 1477.628
357.2331, 1462.832
357.7152, 1452.796
358.1973, 1447.845
358.6794, 1451.732
359.1615, 1475.868
359.6436, 1508.338
360.1258, 1532.469
360.6079, 1537.147
361.0900, 1535.639
361.5721, 1536.068
362.0542, 1538.546
362.5363, 1534.635
363.0185, 1510.660
363.5006, 1483.393
363.9827, 1468.124
364.4648, 1489.438
364.9469, 1501.600
365.4290, 1484.262
365.9112, 1442.531
366.3933, 1412.330
366.8754, 1411.360
367.3575, 1416.491
367.8396, 1414.707
368.3217, 1404.565
368.8039, 1387.780
369.2860, 1358.252
369.7681, 1321.501
370.2502, 1293.438
370.7323, 1281.714
371.2144, 1270.959
371.6966, 1255.196
372.1787, 1231.448
372.6608, 1210.393
373.1429, 1193.143
373.6250, 1178.019
374.1071, 1161.005
374.5893, 1138.096
375.0714, 1121.492
375.5535, 1117.095
376.0356, 1125.992
376.5177, 1130.831
376.9998, 1131.927
377.4820, 1128.335
377.9641, 1116.896
378.4462, 1095.823
378.9283, 1078.374
379.4104, 1068.358
379.8925, 1064.627
380.3747, 1062.446
380.8568, 1061.959
381.3389, 1062.008
381.8210, 1061.937
382.3031, 1061.674
382.7852, 1060.905
383.2674, 1060.201
383.7495, 1058.054
384.2316, 1049.431
384.7137, 1035.091
385.1958, 1023.488
385.6779, 1023.451
386.1601, 1029.627
386.6422, 1030.178
387.1243, 1022.685
387.6064, 1013.028
388.0885, 1006.970
388.5706, 1003.559
389.0528, 1000.497
389.5349, 993.4045
390.0170, 987.9653
390.4991, 993.0283
390.9812, 1010.010
391.4633, 1022.056
391.9455, 1008.745
392.4276, 986.7830
392.9097, 977.3905
393.3918, 1005.859
393.8739, 1032.661
394.3561, 1037.144
394.8382, 1021.118
395.3203, 1004.534
395.8024, 990.6099
396.2845, 981.2813
396.7667, 978.0667
397.2488, 985.8693
397.7309, 993.9737
398.2130, 1002.778
398.6951, 1010.869
399.1772, 1013.805
399.6594, 1008.617
400.1415, 1000.260
400.6236, 989.7784
401.1057, 974.2220
401.5878, 963.5432
402.0699, 958.1387
402.5521, 957.4201
403.0342, 961.4655
403.5163, 975.3438
403.9984, 984.7808
404.4805, 984.4573
404.9626, 974.1497
405.4448, 968.9699
405.9269, 970.6494
406.4090, 974.2786
406.8911, 974.2811
407.3732, 969.5847
407.8553, 968.9781
408.3375, 975.4019
408.8196, 986.1603
409.3017, 992.7131
409.7838, 994.7962
410.2659, 995.6503
410.7480, 998.8522
411.2302, 1003.229
411.7123, 1001.944
412.1944, 993.1246
412.6765, 981.7344
413.1586, 975.1674
413.6407, 972.1658
414.1229, 967.3902
414.6050, 953.7237
415.0871, 938.1714
415.5692, 932.8890
416.0513, 938.5996
416.5334, 946.1193
417.0156, 946.1465
417.4977, 943.7697
417.9798, 946.6447
418.4619, 969.1470
418.9440, 987.7656
419.4261, 984.4836
419.9083, 962.5246
420.3904, 940.6920
420.8725, 925.8806
421.3546, 915.3175
421.8367, 907.7109
422.3188, 905.3474
422.8010, 901.3175
423.2831, 893.2870
423.7652, 882.4384
424.2473, 871.1605
424.7294, 854.9159
425.2115, 842.6669
425.6937, 838.7841
426.1758, 846.6539
426.6579, 849.5438
427.1400, 841.6091
427.6221, 832.6266
428.1042, 833.6840
428.5864, 853.2454
429.0685, 865.3602
429.5506, 861.9886
430.0327, 846.1682
430.5148, 842.4442
430.9969, 856.5334
431.4791, 869.0724
431.9612, 861.6279
432.4433, 832.0463
432.9254, 820.2806
433.4075, 834.5551
433.8896, 860.9388
434.3718, 874.0511
434.8539, 874.1796
435.3360, 871.4390
435.8181, 869.6229
436.3002, 868.8242
436.7823, 869.7725
437.2645, 872.6221
437.7466, 875.6160
438.2287, 877.0865
438.7108, 877.4067
439.1929, 877.3551
439.6750, 876.7639
440.1572, 876.3386
440.6393, 876.4258
441.1214, 877.1469
441.6035, 879.0991
442.0856, 883.9211
442.5677, 889.3867
443.0499, 892.5650
443.5320, 889.5799
444.0141, 892.5383
444.4962, 914.8616
444.9783, 944.9323
445.4604, 963.2925
445.9426, 950.9127
446.4247, 939.1549
446.9068, 939.0225
447.3889, 952.5193
447.8710, 966.4562
448.3531, 980.3790
448.8353, 994.2961
449.3174, 1008.803
449.7995, 1028.326
450.2816, 1040.308
450.7637, 1037.886
451.2458, 1027.166
451.7280, 1033.627
452.2101, 1063.404
452.6922, 1095.494
453.1743, 1120.560
453.6564, 1138.321
454.1385, 1148.024
454.6207, 1146.912
455.1028, 1143.991
455.5849, 1149.845
456.0670, 1164.456
456.5491, 1189.915
457.0313, 1233.509
457.5134, 1285.447
457.9955, 1320.763
458.4776, 1340.105
458.9597, 1352.871
459.4418, 1363.226
459.9240, 1372.814
460.4061, 1383.939
460.8882, 1395.641
461.3703, 1412.174
461.8524, 1442.858
462.3345, 1481.478
462.8167, 1512.978
463.2988, 1520.353
463.7809, 1525.552
464.2630, 1542.897
464.7451, 1574.399
465.2272, 1606.380
465.7094, 1637.896
466.1915, 1665.600
466.6736, 1686.818
467.1557, 1692.305
467.6378, 1700.867
468.1199, 1718.677
468.6021, 1742.961
469.0842, 1760.126
469.5663, 1763.355
470.0484, 1767.425
470.5305, 1780.119
471.0126, 1806.880
471.4948, 1823.492
471.9769, 1828.023
472.4590, 1825.031
472.9411, 1820.673
473.4232, 1815.313
473.9053, 1806.355
474.3875, 1792.557
474.8696, 1774.685
475.3517, 1755.423
475.8338, 1734.576
476.3159, 1714.409
476.7981, 1696.603
477.2802, 1680.880
477.7623, 1666.653
478.2444, 1654.148
478.7265, 1642.086
479.2086, 1632.809
479.6908, 1623.232
480.1729, 1605.635
480.6550, 1562.295
481.1371, 1518.819
481.6192, 1503.833
482.1013, 1516.741
482.5835, 1520.440
483.0656, 1486.373
483.5477, 1440.245
484.0298, 1403.654
484.5119, 1387.926
484.9940, 1373.380
485.4762, 1351.288
485.9583, 1326.998
486.4404, 1314.277
486.9225, 1326.574
487.4046, 1338.763
487.8867, 1343.456
488.3689, 1339.080
488.8510, 1337.557
489.3331, 1344.074
489.8152, 1347.229
490.2973, 1332.194
490.7794, 1292.246
491.2616, 1264.092
491.7437, 1256.193
492.2258, 1261.575
492.7079, 1263.051
493.1900, 1260.661
493.6721, 1253.362
494.1543, 1234.995
494.6364, 1210.784
495.1185, 1200.581
495.6006, 1206.574
496.0827, 1216.763
496.5648, 1222.030
497.0470, 1222.416
497.5291, 1217.531
498.0112, 1202.338
498.4933, 1186.843
498.9754, 1181.606
499.4576, 1183.879
499.9397, 1183.561
500.4218, 1171.217
500.9039, 1158.032
501.3860, 1151.588
501.8681, 1155.159
502.3503, 1158.199
502.8324, 1158.856
503.3145, 1157.531
503.7966, 1154.653
504.2787, 1147.402
504.7608, 1142.097
505.2430, 1140.067
505.7251, 1140.889
506.2072, 1142.398
506.6893, 1147.180
507.1714, 1147.951
507.6535, 1138.888
508.1357, 1118.269
508.6178, 1102.769
509.0999, 1093.828
509.5820, 1087.898
510.0641, 1078.632
510.5462, 1066.652
511.0284, 1060.567
511.5105, 1066.524
511.9926, 1077.375
512.4747, 1079.572
512.9568, 1073.714
513.4389, 1064.828
513.9210, 1053.557
514.4031, 1042.411
514.8853, 1035.279
515.3674, 1033.612
515.8495, 1031.885
516.3316, 1026.608
516.8137, 1019.242
517.2958, 1011.800
517.7780, 1004.355
518.2601, 997.4752
518.7422, 991.0998
519.2244, 985.3060
519.7065, 981.0998
520.1886, 981.2732
520.6707, 980.7967
521.1528, 977.5709
521.6349, 971.4000
522.1171, 962.4999
522.5992, 948.5332
523.0813, 934.1818
523.5634, 925.6212
524.0455, 923.5798
524.5276, 924.1069
525.0098, 928.9493
525.4919, 934.4631
525.9740, 924.8015
526.4561, 899.3922
526.9382, 876.7050
527.4203, 871.4682
527.9025, 877.7161
528.3846, 882.2363
528.8667, 883.9850
529.3488, 882.7229
529.8309, 876.2134
530.3130, 866.9282
530.7952, 858.7781
531.2773, 851.9844
531.7594, 847.9995
532.2415, 850.0200
532.7236, 856.3537
533.2057, 859.6404
533.6879, 856.2832
534.1700, 850.3544
534.6521, 843.1247
535.1342, 832.9123
535.6163, 826.7409
536.0984, 827.9261
536.5806, 831.0316
537.0627, 829.8970
537.5448, 821.5641
538.0269, 816.6005
538.5090, 818.7112
538.9911, 824.4043
539.4733, 819.9529
539.9554, 803.4803
540.4375, 790.3185
540.9196, 790.9171
541.4017, 802.3914
541.8839, 812.1808
542.3660, 820.1700
542.8481, 825.4015
543.3302, 824.6715
543.8123, 820.9284
544.2944, 820.2862
544.7766, 826.1400
545.2587, 832.8409
545.7408, 837.7256
546.2229, 840.0387
546.7050, 819.7833
547.1871, 840.4644
547.6693, 851.3123
548.1514, 852.8561
548.6335, 817.2286
549.1156, 829.6004
549.5977, 822.7361
550.0798, 815.0833
550.5620, 834.2104
551.0441, 803.9891
551.5262, 822.6922
552.0083, 821.8654
552.4904, 829.9769
552.9725, 818.7336
553.4547, 813.4679
553.9368, 827.5636
554.4189, 830.9392
554.9010, 817.4677
555.3831, 826.1473
555.8652, 795.2502
556.3474, 799.0817
556.8295, 817.8978
557.3116, 805.3998
557.7937, 814.4332
558.2758, 815.2662
558.7579, 778.8316
559.2401, 807.2088
559.7222, 807.5571
560.2043, 779.1258
560.6864, 805.2827
561.1685, 780.8187
561.6506, 774.4236
562.1328, 815.7371
562.6149, 833.3500
563.0970, 812.0175
563.5791, 788.9069
564.0612, 779.5917
564.5433, 788.0292
565.0255, 795.6890
565.5076, 803.8530
565.9897, 809.6172
566.4718, 808.3625
566.9539, 798.2499
567.4360, 793.6729
567.9182, 799.2567
568.4003, 808.6786
568.8824, 806.4659
569.3645, 793.6814
569.8466, 783.1124
570.3287, 783.9332
570.8109, 790.4652
571.2930, 792.9750
571.7751, 791.5329
572.2572, 790.5055
572.7393, 793.7934
573.2214, 798.6323
573.7036, 802.2058
574.1857, 803.6502
574.6678, 804.4322
575.1499, 806.6769
575.6320, 808.1544
576.1141, 805.5995
576.5963, 791.8381
577.0784, 781.5945
577.5605, 778.5109
578.0426, 781.5349
578.5247, 783.7557
579.0068, 784.5161
579.4890, 785.7837
579.9711, 790.1092
580.4532, 797.9871
580.9353, 797.4385
581.4174, 786.6682
581.8995, 774.8989
582.3817, 770.6342
582.8638, 773.6826
583.3459, 784.3206
583.8280, 805.1937
584.3101, 828.6062
584.7922, 847.2437
585.2744, 861.2834
585.7565, 871.6697
586.2386, 876.5778
586.7207, 879.8192
587.2028, 884.1063
587.6849, 889.4152
588.1671, 892.3458
588.6492, 886.8696
589.1313, 882.4278
589.6134, 885.2327
590.0955, 899.6229
590.5776, 911.3723
591.0598, 917.4896
591.5419, 923.6533
592.0240, 938.9779
592.5061, 966.1329
592.9882, 989.5678
593.4703, 1006.539
593.9525, 1016.693
594.4346, 1014.058
594.9167, 999.8195
595.3988, 990.6324
595.8809, 997.8825
596.3630, 1015.614
596.8452, 1036.747
597.3273, 1060.529
597.8094, 1081.432
598.2915, 1091.295
598.7736, 1098.624
599.2557, 1112.739
599.7379, 1141.435
600.2200, 1164.748
600.7021, 1174.387
601.1842, 1175.761
601.6663, 1177.320
602.1484, 1176.973
602.6306, 1180.449
603.1127, 1188.333
603.5948, 1200.704
604.0769, 1220.375
604.5590, 1251.118
605.0411, 1276.219
605.5233, 1285.702
606.0054, 1280.904
606.4875, 1269.812
606.9696, 1251.807
607.4517, 1234.599
607.9338, 1227.144
608.4160, 1225.764
608.8981, 1223.646
609.3802, 1219.888
609.8623, 1213.554
610.3444, 1201.972
610.8265, 1187.681
611.3087, 1174.691
611.7908, 1176.706
612.2729, 1167.805
612.7550, 1130.359
613.2371, 1069.753
613.7192, 1025.410
614.2014, 1005.487
614.6835, 993.9312
615.1656, 988.1572
615.6477, 990.3915
616.1298, 975.3492
616.6119, 937.9883
617.0941, 896.4557
617.5762, 864.9117
618.0583, 843.1092
618.5404, 833.8153
619.0225, 840.9407
619.5046, 849.8511
619.9868, 839.8422
620.4689, 817.1450
620.9510, 796.6519
621.4331, 783.1489
621.9152, 775.3694
622.3973, 777.3102
622.8795, 785.6573
623.3616, 786.7294
623.8437, 765.6058
624.3258, 745.1923
624.8079, 736.8577
625.2900, 742.6381
625.7722, 748.8542
626.2543, 756.2903
626.7364, 763.1875
627.2185, 768.3776
627.7006, 771.8876
628.1827, 772.2312
628.6649, 767.2997
629.1470, 764.0087
629.6291, 777.8185
630.1112, 804.3304
630.5933, 819.9502
631.0754, 810.2034
631.5576, 794.0971
632.0397, 798.9361
632.5218, 817.8252
633.0039, 829.1008
633.4860, 811.4971
633.9681, 791.5721
634.4503, 785.7975
634.9324, 795.4456
635.4145, 803.8689
635.8966, 805.8402
636.3787, 807.2233
636.8608, 810.9899
637.3430, 817.2042
637.8251, 826.0508
638.3072, 838.6244
638.7893, 852.0147
639.2714, 862.7280
639.7535, 870.6974
640.2357, 878.1996
640.7178, 887.0640
641.1999, 893.2330
641.6820, 888.7230
642.1641, 875.6184
642.6462, 861.5339
643.1284, 845.5524
643.6105, 833.4955
644.0926, 834.0421
644.5747, 844.7552
645.0568, 850.4000
